SpectraSuite Data File
++++++++++++++++++++++++++++++++++++
Date: Mon Aug 26 10:24:31 PDT 2019
User: corrico
Dark Spectrum Present: No
Reference Spectrum Present: No
Number of Sampled Component Spectra: 1
Spectrometers: USB2+H06089
Integration Time (usec): 10000 (USB2+H06089)
Spectra Averaged: 2 (USB2+H06089)
Boxcar Smoothing: 2 (USB2+H06089)
Correct for Electrical Dark: No (USB2+H06089)
Strobe/Lamp Enabled: No (USB2+H06089)
Correct for Detector Non-linearity: No (USB2+H06089)
Correct for Stray Light: No (USB2+H06089)
Number of Pixels in Processed Spectrum: 2048
>>>>>Begin Processed Spectral Data<<<<<
339.70	1020.47
340.07	1020.47
340.45	980.22
340.82	963.60
341.19	938.79
341.57	911.87
341.94	906.02
342.31	898.53
342.69	892.45
343.06	897.13
343.43	903.45
343.81	909.53
344.18	919.36
344.55	920.30
344.93	924.98
345.30	930.83
345.67	926.62
346.04	930.13
346.42	940.43
346.79	945.34
347.16	945.81
347.54	962.19
347.91	969.45
348.28	973.19
348.65	979.28
349.03	994.03
349.40	1002.45
349.77	1010.41
350.14	1014.62
350.52	1024.92
350.89	1031.24
351.26	1033.35
351.63	1041.54
352.01	1056.05
352.38	1048.79
352.75	1047.86
353.12	1058.16
353.50	1053.94
353.87	1060.03
354.24	1061.43
354.61	1052.30
354.98	1046.45
355.36	1059.56
355.73	1047.39
356.10	1057.45
356.47	1081.80
356.84	1072.20
357.22	1067.05
357.59	1072.67
357.96	1069.16
358.33	1056.52
358.70	1075.24
359.08	1071.50
359.45	1074.77
359.82	1070.33
360.19	1071.03
360.56	1074.54
360.94	1068.92
361.31	1072.43
361.68	1081.56
362.05	1078.28
362.42	1066.82
362.79	1067.52
363.16	1057.45
363.54	1047.62
363.91	1051.60
364.28	1054.65
364.65	1059.33
365.02	1061.20
365.39	1068.22
365.76	1070.80
366.14	1073.84
366.51	1074.31
366.88	1078.99
367.25	1082.03
367.62	1079.69
367.99	1079.22
368.36	1071.97
368.73	1061.90
369.10	1064.24
369.48	1065.65
369.85	1058.16
370.22	1061.90
370.59	1056.52
370.96	1055.35
371.33	1049.26
371.70	1055.58
372.07	1057.45
372.44	1066.35
372.81	1057.45
373.18	1068.45
373.55	1070.33
373.93	1071.50
374.30	1069.16
374.67	1072.67
375.04	1059.09
375.41	1060.03
375.78	1062.37
376.15	1059.56
376.52	1059.56
376.89	1070.80
377.26	1063.07
377.63	1048.79
378.00	1041.77
378.37	1039.90
378.74	1033.81
379.11	1042.47
379.48	1060.50
379.85	1075.48
380.22	1073.60
380.59	1075.71
380.96	1076.65
381.33	1072.67
381.70	1074.31
382.07	1088.35
382.44	1097.24
382.81	1098.65
383.18	1099.58
383.55	1106.84
383.92	1098.41
384.29	1091.63
384.66	1084.84
385.03	1085.07
385.40	1075.71
385.77	1067.99
386.14	1065.18
386.51	1057.92
386.88	1059.33
387.25	1057.45
387.62	1059.09
387.99	1059.33
388.36	1060.03
388.73	1056.52
389.10	1068.69
389.46	1075.94
389.83	1076.41
390.20	1081.80
390.57	1083.20
390.94	1073.84
391.31	1075.01
391.68	1068.22
392.05	1063.77
392.42	1061.67
392.79	1066.82
393.16	1068.92
393.53	1082.26
393.89	1086.24
394.26	1083.43
394.63	1086.24
395.00	1080.39
395.37	1074.07
395.74	1077.82
396.11	1078.75
396.48	1078.99
396.84	1082.73
397.21	1080.39
397.58	1075.48
397.95	1069.16
398.32	1059.79
398.69	1049.03
399.06	1047.62
399.42	1057.69
399.79	1067.99
400.16	1071.26
400.53	1085.07
400.90	1086.01
401.27	1076.18
401.64	1063.77
402.00	1062.84
402.37	1061.20
402.74	1060.26
403.11	1057.69
403.48	1074.07
403.84	1071.97
404.21	1073.14
404.58	1074.77
404.95	1077.82
405.32	1076.41
405.68	1080.63
406.05	1075.01
406.42	1078.52
406.79	1084.14
407.16	1081.80
407.52	1076.18
407.89	1078.99
408.26	1081.80
408.63	1078.28
408.99	1073.37
409.36	1072.67
409.73	1071.26
410.10	1064.24
410.47	1074.31
410.83	1078.28
411.20	1082.26
411.57	1081.56
411.94	1080.16
412.30	1074.54
412.67	1073.60
413.04	1074.54
413.40	1072.67
413.77	1074.07
414.14	1074.54
414.51	1069.62
414.87	1067.52
415.24	1078.99
415.61	1093.03
415.97	1095.37
416.34	1104.73
416.71	1108.24
417.08	1104.26
417.44	1088.35
417.81	1093.50
418.18	1092.56
418.54	1096.78
418.91	1094.43
419.28	1092.09
419.64	1078.99
420.01	1069.16
420.38	1060.50
420.74	1063.07
421.11	1075.24
421.48	1073.84
421.84	1079.46
422.21	1078.75
422.58	1077.82
422.94	1073.60
423.31	1077.11
423.68	1079.22
424.04	1082.03
424.41	1082.26
424.77	1079.46
425.14	1077.35
425.51	1070.33
425.87	1061.43
426.24	1064.71
426.61	1064.24
426.97	1071.50
427.34	1075.71
427.70	1086.71
428.07	1078.75
428.44	1079.92
428.80	1071.97
429.17	1066.35
429.53	1067.28
429.90	1067.75
430.27	1067.99
430.63	1075.71
431.00	1084.60
431.36	1084.84
431.73	1083.67
432.09	1080.16
432.46	1072.43
432.83	1071.03
433.19	1070.56
433.56	1071.50
433.92	1076.88
434.29	1088.82
434.65	1089.75
435.02	1085.77
435.38	1092.56
435.75	1086.24
436.11	1080.63
436.48	1085.54
436.84	1092.09
437.21	1094.20
437.57	1097.48
437.94	1092.09
438.30	1089.75
438.67	1087.41
439.03	1077.82
439.40	1076.65
439.76	1084.37
440.13	1070.09
440.49	1068.69
440.86	1063.31
441.22	1066.82
441.59	1057.22
441.95	1066.82
442.32	1074.54
442.68	1082.73
443.05	1084.14
443.41	1093.73
443.78	1097.48
444.14	1086.71
444.51	1080.39
444.87	1078.99
445.24	1068.69
445.60	1065.18
445.96	1062.14
446.33	1068.45
446.69	1072.20
447.06	1076.41
447.42	1083.20
447.79	1081.09
448.15	1083.90
448.51	1085.54
448.88	1088.58
449.24	1084.60
449.61	1090.69
449.97	1086.71
450.33	1082.50
450.70	1074.31
451.06	1076.41
451.43	1072.20
451.79	1072.67
452.15	1061.43
452.52	1061.67
452.88	1051.37
453.24	1053.24
453.61	1056.05
453.97	1065.41
454.34	1069.62
454.70	1073.37
455.06	1080.16
455.43	1079.69
455.79	1082.26
456.15	1084.84
456.52	1088.82
456.88	1084.14
457.24	1085.77
457.61	1081.33
457.97	1078.75
458.33	1076.41
458.70	1078.75
459.06	1076.18
459.42	1079.22
459.79	1077.35
460.15	1078.28
460.51	1076.88
460.88	1074.77
461.24	1071.73
461.60	1073.14
461.96	1060.96
462.33	1073.84
462.69	1076.88
463.05	1076.41
463.42	1078.05
463.78	1095.37
464.14	1087.41
464.50	1092.09
464.87	1089.99
465.23	1080.39
465.59	1080.63
465.95	1074.77
466.32	1067.05
466.68	1068.22
467.04	1071.97
467.40	1060.96
467.77	1052.07
468.13	1058.16
468.49	1070.09
468.85	1076.65
469.22	1090.22
469.58	1112.92
469.94	1111.52
470.30	1104.73
470.66	1097.48
471.03	1091.39
471.39	1073.60
471.75	1062.37
472.11	1055.11
472.47	1059.09
472.84	1054.18
473.20	1049.73
473.56	1048.79
473.92	1057.45
474.28	1064.01
474.65	1067.28
475.01	1070.33
475.37	1075.01
475.73	1076.18
476.09	1069.16
476.45	1067.99
476.81	1076.65
477.18	1079.92
477.54	1077.58
477.90	1077.35
478.26	1067.99
478.62	1068.92
478.98	1069.86
479.34	1065.88
479.71	1066.35
480.07	1074.07
480.43	1070.33
480.79	1066.35
481.15	1061.90
481.51	1072.90
481.87	1077.35
482.23	1084.37
482.59	1086.48
482.96	1092.33
483.32	1090.22
483.68	1083.43
484.04	1078.05
484.40	1085.77
484.76	1084.84
485.12	1080.86
485.48	1090.46
485.84	1083.20
486.20	1081.56
486.56	1089.05
486.92	1082.50
487.28	1082.97
487.64	1094.20
488.00	1096.07
488.37	1095.14
488.73	1096.07
489.09	1090.22
489.45	1087.41
489.81	1076.88
490.17	1069.16
490.53	1076.18
490.89	1079.92
491.25	1076.41
491.61	1084.37
491.97	1083.43
492.33	1070.33
492.69	1066.35
493.05	1063.77
493.41	1060.03
493.77	1064.24
494.13	1070.33
494.49	1067.28
494.85	1068.92
495.21	1065.88
495.57	1069.62
495.93	1079.46
496.29	1079.69
496.64	1084.60
497.00	1080.39
497.36	1084.37
497.72	1086.71
498.08	1092.80
498.44	1090.46
498.80	1092.80
499.16	1084.60
499.52	1076.88
499.88	1079.46
500.24	1086.94
500.60	1091.63
500.96	1087.65
501.32	1090.46
501.68	1087.88
502.03	1080.16
502.39	1084.84
502.75	1094.67
503.11	1093.03
503.47	1090.22
503.83	1093.50
504.19	1094.67
504.55	1083.67
504.91	1088.35
505.26	1092.33
505.62	1089.99
505.98	1074.31
506.34	1076.65
506.70	1061.90
507.06	1060.73
507.42	1057.69
507.78	1072.90
508.13	1071.03
508.49	1083.43
508.85	1084.84
509.21	1086.24
509.57	1076.18
509.93	1084.14
510.28	1079.22
510.64	1077.58
511.00	1082.26
511.36	1089.52
511.72	1088.58
512.07	1078.52
512.43	1074.54
512.79	1069.39
513.15	1068.69
513.51	1064.24
513.86	1072.43
514.22	1070.09
514.58	1069.39
514.94	1075.71
515.30	1087.88
515.65	1081.09
516.01	1087.18
516.37	1094.20
516.73	1082.26
517.08	1078.05
517.44	1085.77
517.80	1079.92
518.16	1072.90
518.51	1075.48
518.87	1073.84
519.23	1085.31
519.59	1090.92
519.94	1092.33
520.30	1091.16
520.66	1083.90
521.01	1075.48
521.37	1089.05
521.73	1089.52
522.09	1085.07
522.44	1086.94
522.80	1075.24
523.16	1053.94
523.51	1054.41
523.87	1057.45
524.23	1050.43
524.58	1053.24
524.94	1064.01
525.30	1059.33
525.65	1052.30
526.01	1061.20
526.37	1058.16
526.72	1052.07
527.08	1064.71
527.44	1076.18
527.79	1065.88
528.15	1072.90
528.51	1074.07
528.86	1061.43
529.22	1064.94
529.58	1072.67
529.93	1084.84
530.29	1078.99
530.65	1083.90
531.00	1076.41
531.36	1077.35
531.71	1063.54
532.07	1064.71
532.43	1062.37
532.78	1062.37
533.14	1070.80
533.49	1080.16
533.85	1088.58
534.21	1090.69
534.56	1093.97
534.92	1089.52
535.27	1082.50
535.63	1074.77
535.98	1070.56
536.34	1066.82
536.69	1060.96
537.05	1067.05
537.41	1070.33
537.76	1073.84
538.12	1084.84
538.47	1094.67
538.83	1081.56
539.18	1081.09
539.54	1084.60
539.89	1089.05
540.25	1079.46
540.60	1084.14
540.96	1086.48
541.31	1078.99
541.67	1076.18
542.02	1072.67
542.38	1071.03
542.73	1064.48
543.09	1073.60
543.44	1061.67
543.80	1058.62
544.15	1061.20
544.51	1074.31
544.86	1070.33
545.22	1075.71
545.57	1087.41
545.93	1090.46
546.28	1084.37
546.64	1080.39
546.99	1078.28
547.35	1074.54
547.70	1071.03
548.05	1075.48
548.41	1079.46
548.76	1068.92
549.12	1070.09
549.47	1078.28
549.83	1071.26
550.18	1071.50
550.53	1094.90
550.89	1096.78
551.24	1090.22
551.60	1087.88
551.95	1089.75
552.30	1082.73
552.66	1086.48
553.01	1095.84
553.37	1093.50
553.72	1095.60
554.07	1082.97
554.43	1075.71
554.78	1074.77
555.13	1071.26
555.49	1065.18
555.84	1069.86
556.19	1066.35
556.55	1063.31
556.90	1074.31
557.26	1082.50
557.61	1083.67
557.96	1092.56
558.32	1082.26
558.67	1083.43
559.02	1064.24
559.37	1068.69
559.73	1069.39
560.08	1077.58
560.43	1078.28
560.79	1081.33
561.14	1072.90
561.49	1071.97
561.85	1074.31
562.20	1069.86
562.55	1087.41
562.90	1086.71
563.26	1086.24
563.61	1085.77
563.96	1080.39
564.32	1065.18
564.67	1064.01
565.02	1055.35
565.37	1044.35
565.73	1052.30
566.08	1063.77
566.43	1065.88
566.78	1079.22
567.14	1094.20
567.49	1099.82
567.84	1097.24
568.19	1105.90
568.54	1095.84
568.90	1088.12
569.25	1082.03
569.60	1070.56
569.95	1066.82
570.31	1067.52
570.66	1064.71
571.01	1060.03
571.36	1075.48
571.71	1065.18
572.06	1063.77
572.42	1065.88
572.77	1059.79
573.12	1052.54
573.47	1055.82
573.82	1067.28
574.18	1067.52
574.53	1078.99
574.88	1085.54
575.23	1097.95
575.58	1092.56
575.93	1092.09
576.28	1092.80
576.64	1084.14
576.99	1085.31
577.34	1091.16
577.69	1094.67
578.04	1091.16
578.39	1099.58
578.74	1086.94
579.09	1076.18
579.44	1069.16
579.80	1070.56
580.15	1065.18
580.50	1064.01
580.85	1072.43
581.20	1070.09
581.55	1070.56
581.90	1080.39
582.25	1095.60
582.60	1083.20
582.95	1082.97
583.30	1080.63
583.65	1068.69
584.00	1062.14
584.35	1061.90
584.71	1064.48
585.06	1066.35
585.41	1065.65
585.76	1069.39
586.11	1080.63
586.46	1090.46
586.81	1086.71
587.16	1088.82
587.51	1082.50
587.86	1079.22
588.21	1071.73
588.56	1073.84
588.91	1069.86
589.26	1076.41
589.61	1081.80
589.96	1077.35
590.31	1086.01
590.66	1084.37
591.01	1086.71
591.36	1084.60
591.71	1091.16
592.06	1074.77
592.41	1081.33
592.76	1080.39
593.10	1083.90
593.45	1086.94
593.80	1097.71
594.15	1095.14
594.50	1086.71
594.85	1083.43
595.20	1085.07
595.55	1077.58
595.90	1079.22
596.25	1073.60
596.60	1074.07
596.95	1072.20
597.30	1082.26
597.64	1131.65
597.99	1145.22
598.34	1138.67
598.69	1137.03
599.04	1132.82
599.39	1088.35
599.74	1079.92
600.09	1078.99
600.44	1073.37
600.78	1071.26
601.13	1070.33
601.48	1070.80
601.83	1066.11
602.18	1066.82
602.53	1065.65
602.88	1074.54
603.22	1070.56
603.57	1082.03
603.92	1084.37
604.27	1086.94
604.62	1069.86
604.97	1073.14
605.31	1072.20
605.66	1078.52
606.01	1079.69
606.36	1083.67
606.71	1076.18
607.05	1076.65
607.40	1071.26
607.75	1074.31
608.10	1083.67
608.44	1092.09
608.79	1085.07
609.14	1100.05
609.49	1091.16
609.84	1076.88
610.18	1082.97
610.53	1095.84
610.88	1083.67
611.23	1088.12
611.57	1102.16
611.92	1093.50
612.27	1089.99
612.62	1085.31
612.96	1086.48
613.31	1075.94
613.66	1075.94
614.00	1071.50
614.35	1080.16
614.70	1084.37
615.05	1082.73
615.39	1094.20
615.74	1100.99
616.09	1088.82
616.43	1091.63
616.78	1098.65
617.13	1091.39
617.47	1084.84
617.82	1096.31
618.17	1093.73
618.51	1082.50
618.86	1083.67
619.21	1084.37
619.55	1079.69
619.90	1078.52
620.25	1101.22
620.59	1104.97
620.94	1108.24
621.29	1098.18
621.63	1098.18
621.98	1081.09
622.32	1085.77
622.67	1088.12
623.02	1086.01
623.36	1083.20
623.71	1078.75
624.05	1062.14
624.40	1053.94
624.75	1075.01
625.09	1067.52
625.44	1066.11
625.78	1067.05
626.13	1066.35
626.48	1058.86
626.82	1073.60
627.17	1083.67
627.51	1089.99
627.86	1090.46
628.20	1088.82
628.55	1076.65
628.89	1076.65
629.24	1073.60
629.58	1067.99
629.93	1073.60
630.28	1086.01
630.62	1090.22
630.97	1089.52
631.31	1088.58
631.66	1079.92
632.00	1073.84
632.35	1077.35
632.69	1077.11
633.04	1095.14
633.38	1096.78
633.73	1096.31
634.07	1085.07
634.42	1093.73
634.76	1084.37
635.11	1091.16
635.45	1090.22
635.79	1089.29
636.14	1086.71
636.48	1084.84
636.83	1080.16
637.17	1077.58
637.52	1088.58
637.86	1093.97
638.21	1091.86
638.55	1099.58
638.89	1103.33
639.24	1092.33
639.58	1083.90
639.93	1083.20
640.27	1076.18
640.61	1072.67
640.96	1075.48
641.30	1078.52
641.65	1082.50
641.99	1081.56
642.33	1084.14
642.68	1087.41
643.02	1092.80
643.37	1096.07
643.71	1099.58
644.05	1097.01
644.40	1092.80
644.74	1081.56
645.08	1077.35
645.43	1078.99
645.77	1077.11
646.11	1075.24
646.46	1072.90
646.80	1080.86
647.14	1078.28
647.49	1072.20
647.83	1083.90
648.17	1083.90
648.52	1063.07
648.86	1064.24
649.20	1074.07
649.55	1064.94
649.89	1067.99
650.23	1091.86
650.57	1096.54
650.92	1093.50
651.26	1094.90
651.60	1101.22
651.95	1082.73
652.29	1075.71
652.63	1079.69
652.97	1086.71
653.32	1076.88
653.66	1086.01
654.00	1081.80
654.34	1081.80
654.69	1078.75
655.03	1085.31
655.37	1082.97
655.71	1087.41
656.05	1086.48
656.40	1080.39
656.74	1082.73
657.08	1086.71
657.42	1093.73
657.76	1095.37
658.11	1100.52
658.45	1104.73
658.79	1097.48
659.13	1089.75
659.47	1082.50
659.82	1077.11
660.16	1064.94
660.50	1070.33
660.84	1064.48
661.18	1074.31
661.52	1073.37
661.87	1086.01
662.21	1086.24
662.55	1089.05
662.89	1089.05
663.23	1097.48
663.57	1103.80
663.91	1104.03
664.25	1105.90
664.60	1102.86
664.94	1096.78
665.28	1084.84
665.62	1082.97
665.96	1085.07
666.30	1095.37
666.64	1095.37
666.98	1090.69
667.32	1085.54
667.66	1082.50
668.01	1064.24
668.35	1063.54
668.69	1060.50
669.03	1062.37
669.37	1063.31
669.71	1065.18
670.05	1071.26
670.39	1076.88
670.73	1075.01
671.07	1081.56
671.41	1080.39
671.75	1076.65
672.09	1080.63
672.43	1082.73
672.77	1076.18
673.11	1081.56
673.45	1072.90
673.79	1065.41
674.13	1066.35
674.47	1067.05
674.81	1073.14
675.15	1082.26
675.49	1073.84
675.83	1072.20
676.17	1075.94
676.51	1068.45
676.85	1067.05
677.19	1080.39
677.53	1084.84
677.87	1075.48
678.21	1077.35
678.55	1066.35
678.89	1063.54
679.23	1059.56
679.57	1064.71
679.90	1062.84
680.24	1070.09
680.58	1081.33
680.92	1077.35
681.26	1081.09
681.60	1086.01
681.94	1094.20
682.28	1091.39
682.62	1101.69
682.96	1098.88
683.29	1103.09
683.63	1088.35
683.97	1082.50
684.31	1082.50
684.65	1075.01
684.99	1067.05
685.33	1077.82
685.67	1073.84
686.00	1064.48
686.34	1065.41
686.68	1057.45
687.02	1055.82
687.36	1062.14
687.70	1065.88
688.03	1076.88
688.37	1078.99
688.71	1081.80
689.05	1078.05
689.39	1087.88
689.72	1076.88
690.06	1080.39
690.40	1073.60
690.74	1062.14
691.08	1049.50
691.41	1052.77
691.75	1060.26
692.09	1068.92
692.43	1084.14
692.76	1089.29
693.10	1093.50
693.44	1091.39
693.78	1090.69
694.11	1089.05
694.45	1091.16
694.79	1087.18
695.13	1071.97
695.46	1072.20
695.80	1063.54
696.14	1070.09
696.48	1075.71
696.81	1095.37
697.15	1100.99
697.49	1102.39
697.82	1093.97
698.16	1091.16
698.50	1080.63
698.83	1071.26
699.17	1084.37
699.51	1085.77
699.84	1077.58
700.18	1076.41
700.52	1083.67
700.85	1065.88
701.19	1066.82
701.53	1064.48
701.86	1062.14
702.20	1063.31
702.54	1070.09
702.87	1065.88
703.21	1080.63
703.55	1085.31
703.88	1076.41
704.22	1075.71
704.55	1082.97
704.89	1075.24
705.23	1079.92
705.56	1077.82
705.90	1082.50
706.23	1075.71
706.57	1083.90
706.91	1083.43
707.24	1089.75
707.58	1095.37
707.91	1099.12
708.25	1091.39
708.58	1093.97
708.92	1090.92
709.26	1083.43
709.59	1089.52
709.93	1085.77
710.26	1079.92
710.60	1077.11
710.93	1075.48
711.27	1065.65
711.60	1078.52
711.94	1083.20
712.27	1095.37
712.61	1096.07
712.94	1096.31
713.28	1097.95
713.61	1094.67
713.95	1075.01
714.28	1078.05
714.62	1075.48
714.95	1074.31
715.29	1070.80
715.62	1080.16
715.96	1074.54
716.29	1081.09
716.63	1077.11
716.96	1078.99
717.29	1078.28
717.63	1082.50
717.96	1069.86
718.30	1062.14
718.63	1061.67
718.97	1063.77
719.30	1065.88
719.63	1080.86
719.97	1081.56
720.30	1081.80
720.64	1078.99
720.97	1078.52
721.30	1079.46
721.64	1080.86
721.97	1084.84
722.31	1079.92
722.64	1079.46
722.97	1077.82
723.31	1083.67
723.64	1084.84
723.97	1088.35
724.31	1092.80
724.64	1091.86
724.98	1086.48
725.31	1075.71
725.64	1085.77
725.98	1081.09
726.31	1083.43
726.64	1079.46
726.97	1088.82
727.31	1087.41
727.64	1096.07
727.97	1093.73
728.31	1099.82
728.64	1094.67
728.97	1089.05
729.31	1084.37
729.64	1078.75
729.97	1076.65
730.30	1082.03
730.64	1075.71
730.97	1062.37
731.30	1064.94
731.63	1071.73
731.97	1062.37
732.30	1063.31
732.63	1076.65
732.96	1077.82
733.30	1074.31
733.63	1085.07
733.96	1088.35
734.29	1089.05
734.63	1096.31
734.96	1089.99
735.29	1091.39
735.62	1090.92
735.95	1090.92
736.29	1085.77
736.62	1089.99
736.95	1088.35
737.28	1089.75
737.61	1093.50
737.94	1086.24
738.28	1090.22
738.61	1085.07
738.94	1084.60
739.27	1084.14
739.60	1089.29
739.93	1094.43
740.27	1097.48
740.60	1108.01
740.93	1101.92
741.26	1096.31
741.59	1085.54
741.92	1084.37
742.25	1079.22
742.58	1087.65
742.91	1089.75
743.25	1088.35
743.58	1089.29
743.91	1089.99
744.24	1079.69
744.57	1081.56
744.90	1083.43
745.23	1084.37
745.56	1083.43
745.89	1084.14
746.22	1078.75
746.55	1084.14
746.88	1078.99
747.21	1076.41
747.54	1075.01
747.87	1086.71
748.20	1089.29
748.53	1095.14
748.87	1092.33
749.20	1089.52
749.53	1085.31
749.86	1078.99
750.19	1064.94
750.52	1069.16
750.85	1075.01
751.18	1061.43
751.51	1049.96
751.84	1060.03
752.16	1060.96
752.49	1057.69
752.82	1068.45
753.15	1077.82
753.48	1078.75
753.81	1065.65
754.14	1059.56
754.47	1057.92
754.80	1053.94
755.13	1053.71
755.46	1068.22
755.79	1069.86
756.12	1081.09
756.45	1081.80
756.78	1070.56
757.11	1054.65
757.43	1064.94
757.76	1053.48
758.09	1060.73
758.42	1077.35
758.75	1084.84
759.08	1076.65
759.41	1082.97
759.74	1082.26
760.07	1073.37
760.39	1071.97
760.72	1077.82
761.05	1076.88
761.38	1081.33
761.71	1086.01
762.04	1098.65
762.36	1100.05
762.69	1106.37
763.02	1099.82
763.35	1107.54
763.68	1103.33
764.01	1095.60
764.33	1086.01
764.66	1089.29
764.99	1082.03
765.32	1076.88
765.65	1087.18
765.97	1092.09
766.30	1088.82
