SpectraSuite Data File
++++++++++++++++++++++++++++++++++++
Date: Mon Aug 26 10:24:34 PDT 2019
User: corrico
Dark Spectrum Present: No
Reference Spectrum Present: No
Number of Sampled Component Spectra: 1
Spectrometers: USB2+H06089
Integration Time (usec): 10000 (USB2+H06089)
Spectra Averaged: 2 (USB2+H06089)
Boxcar Smoothing: 2 (USB2+H06089)
Correct for Electrical Dark: No (USB2+H06089)
Strobe/Lamp Enabled: No (USB2+H06089)
Correct for Detector Non-linearity: No (USB2+H06089)
Correct for Stray Light: No (USB2+H06089)
Number of Pixels in Processed Spectrum: 2048
>>>>>Begin Processed Spectral Data<<<<<
339.70	983.03
340.07	983.03
340.45	965.00
340.82	956.81
341.19	939.49
341.57	924.98
341.94	912.11
342.31	918.89
342.69	912.34
343.06	916.55
343.43	917.72
343.81	918.66
344.18	910.70
344.55	918.66
344.93	921.00
345.30	925.21
345.67	925.45
346.04	940.43
346.42	950.49
346.79	954.24
347.16	954.70
347.54	973.90
347.91	978.58
348.28	976.71
348.65	978.81
349.03	994.96
349.40	995.90
349.77	1005.03
350.14	1005.96
350.52	1018.84
350.89	1025.62
351.26	1038.96
351.63	1053.01
352.01	1069.39
352.38	1073.37
352.75	1079.92
353.12	1066.82
353.50	1059.09
353.87	1053.48
354.24	1056.52
354.61	1054.88
354.98	1067.75
355.36	1070.80
355.73	1078.99
356.10	1085.54
356.47	1087.18
356.84	1090.69
357.22	1092.80
357.59	1092.09
357.96	1098.18
358.33	1108.01
358.70	1101.92
359.08	1105.67
359.45	1105.90
359.82	1107.54
360.19	1092.33
360.56	1089.75
360.94	1095.37
361.31	1091.86
361.68	1081.09
362.05	1083.67
362.42	1082.97
362.79	1071.73
363.16	1078.99
363.54	1079.92
363.91	1079.92
364.28	1084.60
364.65	1084.60
365.02	1078.05
365.39	1080.39
365.76	1082.50
366.14	1077.82
366.51	1078.75
366.88	1074.07
367.25	1069.86
367.62	1071.73
367.99	1075.71
368.36	1073.60
368.73	1072.90
369.10	1078.28
369.48	1079.22
369.85	1078.75
370.22	1075.71
370.59	1075.24
370.96	1060.96
371.33	1055.11
371.70	1045.52
372.07	1049.96
372.44	1056.75
372.81	1060.50
373.18	1049.03
373.55	1059.56
373.93	1062.84
374.30	1064.24
374.67	1070.33
375.04	1079.22
375.41	1082.03
375.78	1085.54
376.15	1086.48
376.52	1093.03
376.89	1093.50
377.26	1081.56
377.63	1078.28
378.00	1070.33
378.37	1065.65
378.74	1069.16
379.11	1071.26
379.48	1077.35
379.85	1078.05
380.22	1074.54
380.59	1082.26
380.96	1078.05
381.33	1068.22
381.70	1066.82
382.07	1068.45
382.44	1058.16
382.81	1065.65
383.18	1065.41
383.55	1064.24
383.92	1076.18
384.29	1092.09
384.66	1093.97
385.03	1100.99
385.40	1110.12
385.77	1093.50
386.14	1081.80
386.51	1079.69
386.88	1073.37
387.25	1067.05
387.62	1070.56
387.99	1067.99
388.36	1072.90
388.73	1076.65
389.10	1093.97
389.46	1095.37
389.83	1091.39
390.20	1086.71
390.57	1079.22
390.94	1067.52
391.31	1075.48
391.68	1079.69
392.05	1088.58
392.42	1088.82
392.79	1090.92
393.16	1085.54
393.53	1079.46
393.89	1058.16
394.26	1064.71
394.63	1059.56
395.00	1057.92
395.37	1059.33
395.74	1076.88
396.11	1079.22
396.48	1078.28
396.84	1078.28
397.21	1088.35
397.58	1080.16
397.95	1070.56
398.32	1083.20
398.69	1082.03
399.06	1074.07
399.42	1079.22
399.79	1084.14
400.16	1076.88
400.53	1076.88
400.90	1091.86
401.27	1096.54
401.64	1089.05
402.00	1084.14
402.37	1092.33
402.74	1084.14
403.11	1083.43
403.48	1089.29
403.84	1099.12
404.21	1096.78
404.58	1096.78
404.95	1098.65
405.32	1110.58
405.68	1115.73
406.05	1114.56
406.42	1118.78
406.79	1127.20
407.16	1114.80
407.52	1104.26
407.89	1106.84
408.26	1101.92
408.63	1091.63
408.99	1100.52
409.36	1114.80
409.73	1116.44
410.10	1126.97
410.47	1127.90
410.83	1130.71
411.20	1139.37
411.57	1148.97
411.94	1155.52
412.30	1165.59
412.67	1170.74
413.04	1155.76
413.40	1167.93
413.77	1177.76
414.14	1188.29
414.51	1195.55
414.87	1217.08
415.24	1217.78
415.61	1215.67
415.97	1222.46
416.34	1242.12
416.71	1255.70
417.08	1266.46
417.44	1285.89
417.81	1300.64
418.18	1309.76
418.54	1324.28
418.91	1343.00
419.28	1361.26
419.64	1377.87
420.01	1392.38
420.38	1414.85
420.74	1428.43
421.11	1458.39
421.48	1486.01
421.84	1510.58
422.21	1537.97
422.58	1584.07
422.94	1605.61
423.31	1632.06
423.68	1674.65
424.04	1707.65
424.41	1739.72
424.77	1783.72
425.14	1823.04
425.51	1866.81
425.87	1917.13
426.24	1960.20
426.61	2024.33
426.97	2096.18
427.34	2155.63
427.70	2221.64
428.07	2282.96
428.44	2331.17
428.80	2397.41
429.17	2464.58
429.53	2512.33
429.90	2603.38
430.27	2691.38
430.63	2757.39
431.00	2835.79
431.36	2934.33
431.73	3012.27
432.09	3079.21
432.46	3191.79
432.83	3275.58
433.19	3363.35
433.56	3454.86
433.92	3548.25
434.29	3624.09
434.65	3715.60
435.02	3781.60
435.38	3840.82
435.75	3906.82
436.11	3994.36
436.48	4075.34
436.84	4164.52
437.21	4244.33
437.57	4317.12
437.94	4363.93
438.30	4420.10
438.67	4450.53
439.03	4487.51
439.40	4506.47
439.76	4470.19
440.13	4440.00
440.49	4423.61
440.86	4392.02
441.22	4362.99
441.59	4358.08
441.95	4333.27
442.32	4302.84
442.68	4250.65
443.05	4206.18
443.41	4151.88
443.78	4078.85
444.14	4003.02
444.51	3953.63
444.87	3904.95
445.24	3851.82
445.60	3784.65
445.96	3704.37
446.33	3634.85
446.69	3545.21
447.06	3459.31
447.42	3397.29
447.79	3351.18
448.15	3268.09
448.51	3214.26
448.88	3158.55
449.24	3101.21
449.61	3042.70
449.97	3005.25
450.33	2941.82
450.70	2878.86
451.06	2827.60
451.43	2753.41
451.79	2693.02
452.15	2661.42
452.52	2626.32
452.88	2581.61
453.24	2565.23
453.61	2516.54
453.97	2461.78
454.34	2420.11
454.70	2387.35
455.06	2359.26
455.43	2322.98
455.79	2273.36
456.15	2239.42
456.52	2198.93
456.88	2151.89
457.24	2135.04
457.61	2093.14
457.97	2062.48
458.33	2032.99
458.70	1999.52
459.06	1958.56
459.42	1946.16
459.79	1903.56
460.15	1871.73
460.51	1844.81
460.88	1817.43
461.24	1789.11
461.60	1771.08
461.96	1757.04
462.33	1725.68
462.69	1687.99
463.05	1677.93
463.42	1654.76
463.78	1617.08
464.14	1603.50
464.50	1592.50
464.87	1561.37
465.23	1538.90
465.59	1526.03
465.95	1515.03
466.32	1508.01
466.68	1503.33
467.04	1498.65
467.40	1490.22
467.77	1467.98
468.13	1461.43
468.49	1446.92
468.85	1444.11
469.22	1437.09
469.58	1433.34
469.94	1421.64
470.30	1419.30
470.66	1408.30
471.03	1394.96
471.39	1384.19
471.75	1376.24
472.11	1364.53
472.47	1356.11
472.84	1350.72
473.20	1353.30
473.56	1351.66
473.92	1335.98
474.28	1338.55
474.65	1338.79
475.01	1327.08
475.37	1315.15
475.73	1307.66
476.09	1304.15
476.45	1291.98
476.81	1289.64
477.18	1288.70
477.54	1294.55
477.90	1278.17
478.26	1275.59
478.62	1278.63
478.98	1272.08
479.34	1259.44
479.71	1257.34
480.07	1236.27
480.43	1216.84
480.79	1209.12
481.15	1207.48
481.51	1198.12
481.87	1206.31
482.23	1208.42
482.59	1204.67
482.96	1210.06
483.32	1202.80
483.68	1199.52
484.04	1196.01
484.40	1201.63
484.76	1202.80
485.12	1197.42
485.48	1206.31
485.84	1205.61
486.20	1199.76
486.56	1191.33
486.92	1193.44
487.28	1183.37
487.64	1186.18
488.00	1179.63
488.37	1177.99
488.73	1177.52
489.09	1179.16
489.45	1172.14
489.81	1158.33
490.17	1152.01
490.53	1149.91
490.89	1135.39
491.25	1123.69
491.61	1129.54
491.97	1131.18
492.33	1133.05
492.69	1142.65
493.05	1149.44
493.41	1141.95
493.77	1139.84
494.13	1142.88
494.49	1139.37
494.85	1142.18
495.21	1160.20
495.57	1160.67
495.93	1155.05
496.29	1151.08
496.64	1147.33
497.00	1133.52
497.36	1124.86
497.72	1113.39
498.08	1111.05
498.44	1107.31
498.80	1108.71
499.16	1107.07
499.52	1114.56
499.88	1119.95
500.24	1119.24
500.60	1117.61
500.96	1115.73
501.32	1111.75
501.68	1110.12
502.03	1114.10
502.39	1118.07
502.75	1119.71
503.11	1119.01
503.47	1114.10
503.83	1112.92
504.19	1115.50
504.55	1114.33
504.91	1113.39
505.26	1118.54
505.62	1108.48
505.98	1094.43
506.34	1097.71
506.70	1107.31
507.06	1100.99
507.42	1101.69
507.78	1105.67
508.13	1109.65
508.49	1097.71
508.85	1093.97
509.21	1097.48
509.57	1104.26
509.93	1087.88
510.28	1086.94
510.64	1088.12
511.00	1083.67
511.36	1064.24
511.72	1073.60
512.07	1073.14
512.43	1070.56
512.79	1069.39
513.15	1090.22
513.51	1085.54
513.86	1088.58
514.22	1099.12
514.58	1103.80
514.94	1097.48
515.30	1101.69
515.65	1103.56
516.01	1094.90
516.37	1095.37
516.73	1096.54
517.08	1090.22
517.44	1094.90
517.80	1098.88
518.16	1093.73
518.51	1097.48
518.87	1111.75
519.23	1101.69
519.59	1091.86
519.94	1102.63
520.30	1092.80
520.66	1078.52
521.01	1076.41
521.37	1084.84
521.73	1082.73
522.09	1087.88
522.44	1086.71
522.80	1090.92
523.16	1084.14
523.51	1072.43
523.87	1073.37
524.23	1078.99
524.58	1081.09
524.94	1086.01
525.30	1096.54
525.65	1096.54
526.01	1088.58
526.37	1081.33
526.72	1086.01
527.08	1082.50
527.44	1076.65
527.79	1084.37
528.15	1084.37
528.51	1079.46
528.86	1079.46
529.22	1078.52
529.58	1085.31
529.93	1082.97
530.29	1085.31
530.65	1077.11
531.00	1075.71
531.36	1074.77
531.71	1068.22
532.07	1073.84
532.43	1078.28
532.78	1081.56
533.14	1071.03
533.49	1078.28
533.85	1072.43
534.21	1077.11
534.56	1071.03
534.92	1086.94
535.27	1096.31
535.63	1096.31
535.98	1102.86
536.34	1100.99
536.69	1086.01
537.05	1083.20
537.41	1083.20
537.76	1079.92
538.12	1091.39
538.47	1086.01
538.83	1084.84
539.18	1096.78
539.54	1096.31
539.89	1097.01
540.25	1104.03
540.60	1106.84
540.96	1093.26
541.31	1083.67
541.67	1077.58
542.02	1090.92
542.38	1091.86
542.73	1087.41
543.09	1088.35
543.44	1096.07
543.80	1086.71
544.15	1089.29
544.51	1090.69
544.86	1093.03
545.22	1078.99
545.57	1082.97
545.93	1075.01
546.28	1082.73
546.64	1086.48
546.99	1085.07
547.35	1083.67
547.70	1087.41
548.05	1087.41
548.41	1076.41
548.76	1098.65
549.12	1098.41
549.47	1101.69
549.83	1094.90
550.18	1107.31
550.53	1091.16
550.89	1088.35
551.24	1089.29
551.60	1097.01
551.95	1100.05
552.30	1099.82
552.66	1100.99
553.01	1103.56
553.37	1107.78
553.72	1098.88
554.07	1096.31
554.43	1089.05
554.78	1080.39
555.13	1071.97
555.49	1075.94
555.84	1087.18
556.19	1092.09
556.55	1091.63
556.90	1091.16
557.26	1088.12
557.61	1085.54
557.96	1071.26
558.32	1081.56
558.67	1073.37
559.02	1069.16
559.37	1062.60
559.73	1078.52
560.08	1060.50
560.43	1068.45
560.79	1072.67
561.14	1075.01
561.49	1063.77
561.85	1078.52
562.20	1074.31
562.55	1076.41
562.90	1072.20
563.26	1082.03
563.61	1081.56
563.96	1078.99
564.32	1075.94
564.67	1083.20
565.02	1088.12
565.37	1079.46
565.73	1090.22
566.08	1091.86
566.43	1094.43
566.78	1079.69
567.14	1084.37
567.49	1076.18
567.84	1078.28
568.19	1072.67
568.54	1079.69
568.90	1077.58
569.25	1082.50
569.60	1078.05
569.95	1078.99
570.31	1080.86
570.66	1086.24
571.01	1087.65
571.36	1086.94
571.71	1084.60
572.06	1081.09
572.42	1079.46
572.77	1075.94
573.12	1081.33
573.47	1089.52
573.82	1096.31
574.18	1091.63
574.53	1087.18
574.88	1081.80
575.23	1088.58
575.58	1078.52
575.93	1074.07
576.28	1076.18
576.64	1069.86
576.99	1056.99
577.34	1066.11
577.69	1075.94
578.04	1073.37
578.39	1075.71
578.74	1072.90
579.09	1071.73
579.44	1065.18
579.80	1069.62
580.15	1081.56
580.50	1083.43
580.85	1080.39
581.20	1081.56
581.55	1080.86
581.90	1077.11
582.25	1075.01
582.60	1066.82
582.95	1068.22
583.30	1069.39
583.65	1064.24
584.00	1065.18
584.35	1070.56
584.71	1066.82
585.06	1060.96
585.41	1064.48
585.76	1068.22
586.11	1076.65
586.46	1078.52
586.81	1085.31
587.16	1087.88
587.51	1076.18
587.86	1067.28
588.21	1070.09
588.56	1074.07
588.91	1076.88
589.26	1076.18
589.61	1086.01
589.96	1083.43
590.31	1085.54
590.66	1074.54
591.01	1087.18
591.36	1081.80
591.71	1082.73
592.06	1075.94
592.41	1080.63
592.76	1080.39
593.10	1086.24
593.45	1086.48
593.80	1076.18
594.15	1082.03
594.50	1079.22
594.85	1068.69
595.20	1069.62
595.55	1087.88
595.90	1072.90
596.25	1069.86
596.60	1080.39
596.95	1082.73
597.30	1074.54
597.64	1130.48
597.99	1135.16
598.34	1130.71
598.69	1119.48
599.04	1122.29
599.39	1077.35
599.74	1073.60
600.09	1074.54
600.44	1076.88
600.78	1073.37
601.13	1064.24
601.48	1068.22
601.83	1063.31
602.18	1064.24
602.53	1068.22
602.88	1066.35
603.22	1058.16
603.57	1055.58
603.92	1061.20
604.27	1055.58
604.62	1067.99
604.97	1076.65
605.31	1074.31
605.66	1078.05
606.01	1074.31
606.36	1069.39
606.71	1070.33
607.05	1077.11
607.40	1075.24
607.75	1075.71
608.10	1078.99
608.44	1072.20
608.79	1077.35
609.14	1081.80
609.49	1082.26
609.84	1088.82
610.18	1100.99
610.53	1097.01
610.88	1090.69
611.23	1093.97
611.57	1086.24
611.92	1078.05
612.27	1083.90
612.62	1087.18
612.96	1095.37
613.31	1087.88
613.66	1089.52
614.00	1083.67
614.35	1080.16
614.70	1075.48
615.05	1089.99
615.39	1089.75
615.74	1083.20
616.09	1082.26
616.43	1078.52
616.78	1071.73
617.13	1073.37
617.47	1073.84
617.82	1070.09
618.17	1065.41
618.51	1067.52
618.86	1064.24
619.21	1072.67
619.55	1076.41
619.90	1083.43
620.25	1082.26
620.59	1086.71
620.94	1091.63
621.29	1090.69
621.63	1092.09
621.98	1088.58
622.32	1088.58
622.67	1088.12
623.02	1090.22
623.36	1085.31
623.71	1087.65
624.05	1084.60
624.40	1073.14
624.75	1071.73
625.09	1068.22
625.44	1069.62
625.78	1061.67
626.13	1059.09
626.48	1065.65
626.82	1076.18
627.17	1068.45
627.51	1082.26
627.86	1093.97
628.20	1091.39
628.55	1089.99
628.89	1095.37
629.24	1092.09
629.58	1086.94
629.93	1084.37
630.28	1069.62
630.62	1070.80
630.97	1075.71
631.31	1077.35
631.66	1077.11
632.00	1089.99
632.35	1087.88
632.69	1077.58
633.04	1072.90
633.38	1081.80
633.73	1084.14
634.07	1097.48
634.42	1109.18
634.76	1103.33
635.11	1089.99
635.45	1083.67
635.79	1069.39
636.14	1057.92
636.48	1062.60
636.83	1066.11
637.17	1064.24
637.52	1067.52
637.86	1061.90
638.21	1061.67
638.55	1056.75
638.89	1060.26
639.24	1056.75
639.58	1069.62
639.93	1073.60
640.27	1080.86
640.61	1083.20
640.96	1081.56
641.30	1079.46
641.65	1089.75
641.99	1092.09
642.33	1103.33
642.68	1109.41
643.02	1108.71
643.37	1097.95
643.71	1091.86
644.05	1081.56
644.40	1073.60
644.74	1066.82
645.08	1073.37
645.43	1073.14
645.77	1074.07
646.11	1090.69
646.46	1099.82
646.80	1086.48
647.14	1089.29
647.49	1098.18
647.83	1086.24
648.17	1078.75
648.52	1083.20
648.86	1086.24
649.20	1072.43
649.55	1082.97
649.89	1084.60
650.23	1092.09
650.57	1092.33
650.92	1097.71
651.26	1087.88
651.60	1091.16
651.95	1082.97
652.29	1080.16
652.63	1070.80
652.97	1070.33
653.32	1069.39
653.66	1081.09
654.00	1078.99
654.34	1083.43
654.69	1091.63
655.03	1093.03
655.37	1082.73
655.71	1078.52
656.05	1082.50
656.40	1075.01
656.74	1069.86
657.08	1075.94
657.42	1078.75
657.76	1082.73
658.11	1086.71
658.45	1082.03
658.79	1073.60
659.13	1069.62
659.47	1062.37
659.82	1061.20
660.16	1066.58
660.50	1073.60
660.84	1075.48
661.18	1080.86
661.52	1087.18
661.87	1095.60
662.21	1086.48
662.55	1086.24
662.89	1086.01
663.23	1075.94
663.57	1072.67
663.91	1086.48
664.25	1091.16
664.60	1088.12
664.94	1088.58
665.28	1086.24
665.62	1081.09
665.96	1085.54
666.30	1078.05
666.64	1090.69
666.98	1098.18
667.32	1101.92
667.66	1101.22
668.01	1118.78
668.35	1123.93
668.69	1111.29
669.03	1112.69
669.37	1098.41
669.71	1080.86
670.05	1061.20
670.39	1064.24
670.73	1064.71
671.07	1069.16
671.41	1076.18
671.75	1078.05
672.09	1068.92
672.43	1066.35
672.77	1067.05
673.11	1061.20
673.45	1062.37
673.79	1067.28
674.13	1058.39
674.47	1063.54
674.81	1066.35
675.15	1062.60
675.49	1064.48
675.83	1061.90
676.17	1049.73
676.51	1046.22
676.85	1040.13
677.19	1043.64
677.53	1043.18
677.87	1059.33
678.21	1074.07
678.55	1085.54
678.89	1094.67
679.23	1105.20
679.57	1100.05
679.90	1095.60
680.24	1093.26
680.58	1078.52
680.92	1073.60
681.26	1073.84
681.60	1067.99
681.94	1065.65
682.28	1070.56
682.62	1072.90
682.96	1073.37
683.29	1072.90
683.63	1072.90
683.97	1076.41
684.31	1075.48
684.65	1078.75
684.99	1089.29
685.33	1087.18
685.67	1069.86
686.00	1065.88
686.34	1068.22
686.68	1067.99
687.02	1070.56
687.36	1085.31
687.70	1089.75
688.03	1089.75
688.37	1078.52
688.71	1084.84
689.05	1082.97
689.39	1081.56
689.72	1076.18
690.06	1077.35
690.40	1065.88
690.74	1066.35
691.08	1068.92
691.41	1070.33
691.75	1084.14
692.09	1093.50
692.43	1090.92
692.76	1099.35
693.10	1099.35
693.44	1087.88
693.78	1090.92
694.11	1090.69
694.45	1074.31
694.79	1070.09
695.13	1071.97
695.46	1075.01
695.80	1067.99
696.14	1075.24
696.48	1076.88
696.81	1082.73
697.15	1077.11
697.49	1082.50
697.82	1076.88
698.16	1079.92
698.50	1076.18
698.83	1068.22
699.17	1072.20
699.51	1080.63
699.84	1081.33
700.18	1080.63
700.52	1093.50
700.85	1088.82
701.19	1087.88
701.53	1086.01
701.86	1075.71
702.20	1074.07
702.54	1086.71
702.87	1082.73
703.21	1075.48
703.55	1078.28
703.88	1071.50
704.22	1064.24
704.55	1069.86
704.89	1074.77
705.23	1077.82
705.56	1081.09
705.90	1088.12
706.23	1080.86
706.57	1077.82
706.91	1081.33
707.24	1075.71
707.58	1066.11
707.91	1073.84
708.25	1086.71
708.58	1085.54
708.92	1088.82
709.26	1093.73
709.59	1089.52
709.93	1077.58
710.26	1075.94
710.60	1090.22
710.93	1088.12
711.27	1092.80
711.60	1085.31
711.94	1086.24
712.27	1068.22
712.61	1079.69
712.94	1067.05
713.28	1087.18
713.61	1083.67
713.95	1085.07
714.28	1069.39
714.62	1072.43
714.95	1059.56
715.29	1060.26
715.62	1064.48
715.96	1077.58
716.29	1079.22
716.63	1087.18
716.96	1087.88
717.29	1085.31
717.63	1081.80
717.96	1087.88
718.30	1086.24
718.63	1089.99
718.97	1087.18
719.30	1079.22
719.63	1077.11
719.97	1075.94
720.30	1068.22
720.64	1077.82
720.97	1077.58
721.30	1085.31
721.64	1080.63
721.97	1089.99
722.31	1091.63
722.64	1087.88
722.97	1082.97
723.31	1082.97
723.64	1074.54
723.97	1060.03
724.31	1068.92
724.64	1061.20
724.98	1070.09
725.31	1070.56
725.64	1074.31
725.98	1065.18
726.31	1075.24
726.64	1068.45
726.97	1074.07
727.31	1074.07
727.64	1083.20
727.97	1070.56
728.31	1069.39
728.64	1062.14
728.97	1059.33
729.31	1065.18
729.64	1070.33
729.97	1074.77
730.30	1084.37
730.64	1092.56
730.97	1083.67
731.30	1094.67
731.63	1091.86
731.97	1089.99
732.30	1094.20
732.63	1102.86
732.96	1099.58
733.30	1094.20
733.63	1091.86
733.96	1078.52
734.29	1063.54
734.63	1064.01
734.96	1070.80
735.29	1064.94
735.62	1075.71
735.95	1086.94
736.29	1080.63
736.62	1081.09
736.95	1090.46
737.28	1083.20
737.61	1075.71
737.94	1075.48
738.28	1076.65
738.61	1067.75
738.94	1065.65
739.27	1073.37
739.60	1070.33
739.93	1072.43
740.27	1075.01
740.60	1081.09
740.93	1077.11
741.26	1083.20
741.59	1076.88
741.92	1084.84
742.25	1079.46
742.58	1081.56
742.91	1084.14
743.25	1082.73
743.58	1075.71
743.91	1081.33
744.24	1079.92
744.57	1077.35
744.90	1081.09
745.23	1089.75
745.56	1092.56
745.89	1094.43
746.22	1096.07
746.55	1087.41
746.88	1081.33
747.21	1075.48
747.54	1072.43
747.87	1066.35
748.20	1076.18
748.53	1073.60
748.87	1073.84
749.20	1076.88
749.53	1078.99
749.86	1071.97
750.19	1078.52
750.52	1076.88
750.85	1075.48
751.18	1083.67
751.51	1092.56
751.84	1087.65
752.16	1089.05
752.49	1083.67
752.82	1077.35
753.15	1073.84
753.48	1070.09
753.81	1070.33
754.14	1075.48
754.47	1071.26
754.80	1078.05
755.13	1083.20
755.46	1085.77
755.79	1086.24
756.12	1091.39
756.45	1088.82
756.78	1091.16
757.11	1088.58
757.43	1084.37
757.76	1080.16
758.09	1072.43
758.42	1060.03
758.75	1060.50
759.08	1061.43
759.41	1063.31
759.74	1058.62
760.07	1072.67
760.39	1074.31
760.72	1084.84
761.05	1078.05
761.38	1075.48
761.71	1071.03
762.04	1073.84
762.36	1071.97
762.69	1077.82
763.02	1089.05
763.35	1083.20
763.68	1078.28
764.01	1061.90
764.33	1063.31
764.66	1064.01
764.99	1069.16
765.32	1075.01
765.65	1089.99
765.97	1086.94
766.30	1087.88
