SpectraSuite Data File
++++++++++++++++++++++++++++++++++++
Date: Mon Aug 26 10:24:34 PDT 2019
User: corrico
Dark Spectrum Present: No
Reference Spectrum Present: No
Number of Sampled Component Spectra: 1
Spectrometers: USB2+H06089
Integration Time (usec): 10000 (USB2+H06089)
Spectra Averaged: 2 (USB2+H06089)
Boxcar Smoothing: 2 (USB2+H06089)
Correct for Electrical Dark: No (USB2+H06089)
Strobe/Lamp Enabled: No (USB2+H06089)
Correct for Detector Non-linearity: No (USB2+H06089)
Correct for Stray Light: No (USB2+H06089)
Number of Pixels in Processed Spectrum: 2048
>>>>>Begin Processed Spectral Data<<<<<
339.70	1015.79
340.07	1015.79
340.45	983.96
340.82	961.02
341.19	940.66
341.57	921.00
341.94	906.72
342.31	899.47
342.69	897.83
343.06	892.45
343.43	882.38
343.81	882.62
344.18	894.32
344.55	909.06
344.93	913.98
345.30	922.87
345.67	932.00
346.04	942.53
346.42	938.79
346.79	955.17
347.16	970.62
347.54	979.28
347.91	979.05
348.28	983.96
348.65	988.17
349.03	989.58
349.40	992.39
349.77	1001.52
350.14	1023.52
350.52	1021.64
350.89	1021.18
351.26	1035.22
351.63	1043.41
352.01	1041.30
352.38	1052.54
352.75	1073.84
353.12	1065.18
353.50	1065.41
353.87	1066.11
354.24	1078.75
354.61	1072.67
354.98	1079.46
355.36	1082.97
355.73	1079.22
356.10	1069.16
356.47	1079.46
356.84	1089.05
357.22	1074.54
357.59	1080.86
357.96	1078.99
358.33	1062.84
358.70	1059.33
359.08	1072.43
359.45	1073.84
359.82	1086.24
360.19	1091.63
360.56	1085.54
360.94	1086.71
361.31	1079.69
361.68	1070.56
362.05	1064.01
362.42	1065.88
362.79	1067.99
363.16	1077.82
363.54	1077.11
363.91	1080.63
364.28	1086.71
364.65	1085.31
365.02	1074.77
365.39	1067.75
365.76	1075.48
366.14	1067.05
366.51	1058.16
366.88	1060.50
367.25	1065.65
367.62	1058.62
367.99	1061.20
368.36	1065.41
368.73	1066.58
369.10	1060.73
369.48	1060.96
369.85	1064.71
370.22	1068.22
370.59	1063.77
370.96	1071.73
371.33	1075.24
371.70	1071.26
372.07	1061.43
372.44	1070.09
372.81	1062.84
373.18	1070.33
373.55	1067.05
373.93	1065.41
374.30	1060.73
374.67	1065.65
375.04	1052.07
375.41	1054.65
375.78	1064.24
376.15	1064.48
376.52	1062.37
376.89	1067.05
377.26	1067.99
377.63	1069.86
378.00	1073.37
378.37	1081.09
378.74	1077.35
379.11	1082.73
379.48	1085.07
379.85	1081.09
380.22	1076.41
380.59	1086.01
380.96	1078.75
381.33	1070.80
381.70	1078.28
382.07	1091.39
382.44	1088.12
382.81	1086.48
383.18	1099.35
383.55	1097.71
383.92	1079.92
384.29	1078.75
384.66	1088.58
385.03	1079.69
385.40	1078.52
385.77	1073.84
386.14	1067.99
386.51	1045.05
386.88	1049.73
387.25	1042.94
387.62	1045.99
387.99	1055.11
388.36	1072.90
388.73	1064.24
389.10	1069.39
389.46	1069.62
389.83	1060.50
390.20	1056.52
390.57	1068.69
390.94	1076.88
391.31	1089.52
391.68	1097.01
392.05	1098.18
392.42	1080.63
392.79	1065.65
393.16	1062.14
393.53	1054.88
393.89	1056.52
394.26	1072.43
394.63	1075.94
395.00	1074.77
395.37	1081.09
395.74	1088.82
396.11	1081.80
396.48	1087.88
396.84	1082.03
397.21	1076.41
397.58	1060.73
397.95	1076.65
398.32	1075.71
398.69	1072.90
399.06	1090.22
399.42	1101.92
399.79	1090.69
400.16	1082.03
400.53	1091.16
400.90	1081.09
401.27	1081.09
401.64	1084.84
402.00	1088.82
402.37	1089.05
402.74	1089.29
403.11	1087.41
403.48	1087.18
403.84	1087.65
404.21	1090.22
404.58	1093.26
404.95	1094.67
405.32	1094.43
405.68	1098.88
406.05	1093.03
406.42	1092.80
406.79	1091.39
407.16	1092.09
407.52	1093.26
407.89	1106.37
408.26	1100.99
408.63	1104.03
408.99	1099.12
409.36	1106.14
409.73	1107.78
410.10	1123.93
410.47	1134.22
410.83	1145.46
411.20	1146.86
411.57	1146.63
411.94	1148.27
412.30	1145.69
412.67	1155.99
413.04	1177.99
413.40	1191.33
413.77	1195.31
414.14	1215.91
414.51	1226.44
414.87	1217.78
415.24	1232.53
415.61	1244.93
415.97	1247.97
416.34	1258.97
416.71	1284.49
417.08	1294.78
417.44	1307.89
417.81	1324.98
418.18	1333.87
418.54	1335.04
418.91	1355.40
419.28	1373.66
419.64	1396.36
420.01	1431.47
420.38	1471.96
420.74	1487.64
421.11	1513.16
421.48	1538.67
421.84	1559.26
422.21	1584.07
422.58	1629.01
422.94	1676.06
423.31	1721.00
423.68	1757.04
424.04	1786.30
424.41	1818.83
424.77	1872.90
425.14	1916.66
425.51	1972.60
425.87	2032.29
426.24	2074.88
426.61	2122.40
426.97	2192.85
427.34	2255.57
427.70	2338.20
428.07	2427.84
428.44	2496.42
428.80	2559.84
429.17	2638.49
429.53	2694.42
429.90	2771.66
430.27	2857.33
430.63	2932.22
431.00	3024.44
431.36	3128.36
431.73	3212.15
432.09	3304.13
432.46	3411.56
432.83	3504.48
433.19	3595.77
433.56	3704.60
433.92	3814.37
434.29	3913.61
434.65	4009.81
435.02	4128.00
435.38	4220.45
435.75	4299.33
436.11	4400.68
436.48	4474.64
436.84	4552.58
437.21	4630.28
437.57	4674.52
437.94	4748.95
438.30	4835.78
438.67	4867.85
439.03	4927.76
439.40	4992.36
439.76	4974.81
440.13	4944.62
440.49	4968.49
440.86	4949.06
441.22	4928.93
441.59	4917.23
441.95	4910.91
442.32	4851.23
442.68	4778.67
443.05	4706.82
443.41	4627.24
443.78	4536.66
444.14	4438.83
444.51	4368.61
444.87	4306.82
445.24	4231.22
445.60	4170.37
445.96	4102.26
446.33	4025.96
446.69	3925.08
447.06	3841.29
447.42	3743.69
447.79	3649.83
448.15	3579.62
448.51	3518.29
448.88	3460.95
449.24	3398.22
449.61	3358.67
449.97	3319.35
450.33	3265.28
450.70	3197.41
451.06	3144.98
451.43	3067.27
451.79	2973.88
452.15	2903.20
452.52	2855.22
452.88	2799.98
453.24	2776.34
453.61	2746.62
453.97	2718.06
454.34	2649.95
454.70	2612.04
455.06	2548.84
455.43	2491.97
455.79	2425.26
456.15	2396.71
456.52	2337.02
456.88	2300.75
457.24	2257.21
457.61	2221.64
457.97	2189.34
458.33	2168.97
458.70	2124.27
459.06	2090.33
459.42	2063.18
459.79	2021.75
460.15	1986.65
460.51	1961.13
460.88	1919.01
461.24	1898.17
461.60	1885.77
461.96	1849.73
462.33	1824.45
462.69	1815.09
463.05	1786.76
463.42	1753.53
463.78	1740.89
464.14	1725.91
464.50	1699.46
464.87	1669.27
465.23	1657.57
465.59	1633.23
465.95	1612.40
466.32	1596.71
466.68	1592.50
467.04	1562.31
467.40	1542.65
467.77	1524.62
468.13	1505.67
468.49	1490.92
468.85	1487.18
469.22	1487.41
469.58	1472.67
469.94	1465.88
470.30	1446.92
470.66	1430.30
471.03	1421.17
471.39	1421.88
471.75	1418.13
472.11	1414.62
472.47	1415.09
472.84	1406.19
473.20	1395.19
473.56	1387.47
473.92	1385.60
474.28	1376.70
474.65	1368.04
475.01	1365.47
475.37	1345.81
475.73	1335.28
476.09	1337.85
476.45	1333.64
476.81	1317.02
477.18	1327.79
477.54	1324.98
477.90	1318.42
478.26	1303.68
478.62	1296.42
478.98	1290.10
479.34	1276.76
479.71	1266.23
480.07	1257.10
480.43	1257.57
480.79	1248.21
481.15	1232.76
481.51	1230.42
481.87	1237.21
482.23	1231.59
482.59	1229.02
482.96	1244.70
483.32	1237.44
483.68	1236.27
484.04	1229.48
484.40	1222.23
484.76	1211.23
485.12	1212.63
485.48	1207.95
485.84	1204.21
486.20	1207.48
486.56	1196.25
486.92	1192.50
487.28	1197.65
487.64	1204.44
488.00	1199.06
488.37	1207.95
488.73	1195.08
489.09	1190.86
489.45	1185.95
489.81	1183.14
490.17	1181.74
490.53	1187.59
490.89	1178.93
491.25	1181.03
491.61	1192.50
491.97	1183.14
492.33	1178.93
492.69	1174.25
493.05	1165.35
493.41	1151.08
493.77	1151.78
494.13	1147.33
494.49	1148.50
494.85	1155.99
495.21	1150.84
495.57	1149.67
495.93	1153.18
496.29	1141.25
496.64	1128.37
497.00	1124.39
497.36	1131.65
497.72	1132.82
498.08	1144.76
498.44	1156.46
498.80	1166.29
499.16	1153.18
499.52	1147.33
499.88	1141.48
500.24	1127.44
500.60	1121.58
500.96	1123.22
501.32	1130.95
501.68	1131.65
502.03	1147.10
502.39	1137.73
502.75	1140.31
503.11	1133.99
503.47	1126.03
503.83	1115.27
504.19	1123.22
504.55	1114.33
504.91	1111.05
505.26	1118.31
505.62	1116.20
505.98	1109.65
506.34	1109.18
506.70	1110.82
507.06	1099.12
507.42	1095.84
507.78	1100.05
508.13	1114.80
508.49	1105.90
508.85	1101.92
509.21	1104.03
509.57	1096.78
509.93	1086.01
510.28	1082.03
510.64	1094.20
511.00	1091.86
511.36	1093.26
511.72	1097.71
512.07	1110.12
512.43	1107.31
512.79	1100.29
513.15	1100.05
513.51	1098.41
513.86	1088.35
514.22	1089.52
514.58	1088.35
514.94	1089.29
515.30	1084.37
515.65	1084.37
516.01	1074.77
516.37	1078.75
516.73	1079.69
517.08	1079.69
517.44	1101.22
517.80	1105.90
518.16	1114.56
518.51	1114.09
518.87	1116.90
519.23	1098.18
519.59	1103.56
519.94	1100.52
520.30	1103.09
520.66	1110.12
521.01	1111.52
521.37	1116.90
521.73	1112.69
522.09	1112.69
522.44	1106.37
522.80	1109.65
523.16	1095.84
523.51	1090.46
523.87	1080.39
524.23	1075.94
524.58	1077.58
524.94	1086.48
525.30	1091.16
525.65	1099.58
526.01	1100.05
526.37	1090.69
526.72	1085.31
527.08	1090.69
527.44	1088.82
527.79	1086.48
528.15	1085.31
528.51	1087.41
528.86	1077.11
529.22	1076.88
529.58	1076.41
529.93	1084.84
530.29	1084.84
530.65	1087.41
531.00	1078.52
531.36	1081.09
531.71	1063.31
532.07	1065.65
532.43	1075.24
532.78	1092.09
533.14	1084.37
533.49	1097.48
533.85	1099.58
534.21	1088.35
534.56	1083.43
534.92	1095.60
535.27	1098.41
535.63	1092.56
535.98	1096.78
536.34	1088.35
536.69	1084.37
537.05	1080.39
537.41	1082.26
537.76	1080.39
538.12	1075.71
538.47	1075.71
538.83	1072.67
539.18	1070.56
539.54	1070.80
539.89	1074.77
540.25	1082.50
540.60	1080.39
540.96	1084.14
541.31	1084.60
541.67	1091.86
542.02	1079.69
542.38	1096.78
542.73	1094.20
543.09	1104.97
543.44	1098.88
543.80	1107.07
544.15	1093.50
544.51	1089.52
544.86	1077.82
545.22	1082.26
545.57	1078.05
545.93	1080.63
546.28	1076.65
546.64	1078.52
546.99	1086.48
547.35	1084.37
547.70	1080.39
548.05	1087.88
548.41	1094.90
548.76	1091.63
549.12	1091.39
549.47	1084.60
549.83	1079.92
550.18	1073.60
550.53	1071.73
550.89	1085.07
551.24	1081.80
551.60	1078.75
551.95	1074.31
552.30	1062.60
552.66	1049.50
553.01	1059.09
553.37	1070.33
553.72	1062.60
554.07	1062.60
554.43	1061.43
554.78	1061.90
555.13	1062.60
555.49	1078.75
555.84	1088.58
556.19	1092.56
556.55	1091.63
556.90	1086.24
557.26	1089.75
557.61	1085.54
557.96	1081.80
558.32	1077.35
558.67	1075.94
559.02	1074.54
559.37	1083.67
559.73	1093.50
560.08	1105.90
560.43	1102.63
560.79	1104.97
561.14	1099.35
561.49	1091.86
561.85	1093.26
562.20	1099.35
562.55	1085.07
562.90	1084.14
563.26	1090.69
563.61	1086.24
563.96	1092.80
564.32	1101.69
564.67	1103.09
565.02	1098.88
565.37	1085.77
565.73	1084.14
566.08	1084.60
566.43	1081.33
566.78	1085.31
567.14	1096.78
567.49	1086.48
567.84	1086.24
568.19	1092.80
568.54	1089.05
568.90	1087.18
569.25	1092.80
569.60	1087.18
569.95	1078.99
570.31	1076.88
570.66	1072.20
571.01	1059.79
571.36	1071.50
571.71	1071.50
572.06	1065.88
572.42	1066.35
572.77	1082.73
573.12	1072.20
573.47	1080.39
573.82	1085.77
574.18	1098.65
574.53	1087.41
574.88	1087.65
575.23	1083.90
575.58	1080.86
575.93	1070.09
576.28	1071.03
576.64	1067.75
576.99	1066.82
577.34	1062.14
577.69	1056.28
578.04	1057.92
578.39	1060.50
578.74	1050.67
579.09	1062.14
579.44	1071.03
579.80	1082.50
580.15	1078.75
580.50	1089.52
580.85	1078.75
581.20	1077.35
581.55	1063.54
581.90	1078.05
582.25	1067.99
582.60	1075.01
582.95	1075.01
583.30	1077.82
583.65	1069.86
584.00	1078.05
584.35	1071.97
584.71	1072.20
585.06	1076.88
585.41	1083.90
585.76	1083.20
586.11	1090.22
586.46	1092.80
586.81	1088.58
587.16	1074.07
587.51	1072.43
587.86	1065.18
588.21	1066.11
588.56	1064.24
588.91	1065.88
589.26	1063.77
589.61	1072.20
589.96	1074.07
590.31	1075.24
590.66	1081.09
591.01	1084.37
591.36	1083.20
591.71	1079.69
592.06	1080.63
592.41	1077.58
592.76	1066.58
593.10	1066.35
593.45	1072.67
593.80	1080.16
594.15	1076.65
594.50	1089.29
594.85	1085.77
595.20	1082.97
595.55	1075.48
595.90	1082.03
596.25	1085.07
596.60	1087.88
596.95	1073.37
597.30	1073.84
597.64	1127.44
597.99	1129.07
598.34	1134.46
598.69	1141.01
599.04	1142.18
599.39	1088.12
599.74	1083.43
600.09	1080.63
600.44	1083.67
600.78	1082.97
601.13	1083.67
601.48	1079.92
601.83	1082.26
602.18	1086.24
602.53	1089.75
602.88	1090.22
603.22	1091.63
603.57	1088.12
603.92	1091.63
604.27	1094.43
604.62	1085.54
604.97	1088.12
605.31	1083.90
605.66	1094.67
606.01	1084.37
606.36	1090.69
606.71	1093.73
607.05	1101.22
607.40	1081.56
607.75	1089.99
608.10	1091.39
608.44	1085.77
608.79	1082.26
609.14	1079.46
609.49	1069.16
609.84	1062.84
610.18	1067.05
610.53	1065.65
610.88	1074.07
611.23	1078.75
611.57	1085.54
611.92	1084.84
612.27	1077.82
612.62	1073.84
612.96	1083.43
613.31	1081.80
613.66	1090.22
614.00	1097.48
614.35	1103.56
614.70	1097.71
615.05	1098.18
615.39	1086.24
615.74	1086.94
616.09	1086.48
616.43	1088.35
616.78	1085.54
617.13	1085.54
617.47	1086.24
617.82	1078.52
618.17	1072.67
618.51	1068.92
618.86	1077.11
619.21	1081.56
619.55	1085.77
619.90	1083.43
620.25	1085.54
620.59	1073.60
620.94	1070.09
621.29	1067.99
621.63	1074.77
621.98	1081.56
622.32	1086.71
622.67	1091.39
623.02	1100.29
623.36	1098.65
623.71	1096.54
624.05	1101.46
624.40	1095.14
624.75	1091.63
625.09	1091.39
625.44	1089.99
625.78	1091.39
626.13	1088.82
626.48	1080.86
626.82	1086.48
627.17	1088.35
627.51	1082.97
627.86	1077.82
628.20	1077.35
628.55	1070.33
628.89	1078.99
629.24	1078.05
629.58	1082.26
629.93	1091.39
630.28	1092.80
630.62	1074.54
630.97	1069.39
631.31	1075.94
631.66	1057.69
632.00	1056.05
632.35	1067.05
632.69	1063.07
633.04	1066.35
633.38	1085.54
633.73	1086.01
634.07	1081.56
634.42	1091.86
634.76	1086.01
635.11	1082.50
635.45	1077.11
635.79	1081.80
636.14	1083.90
636.48	1078.52
636.83	1075.48
637.17	1079.92
637.52	1074.77
637.86	1076.18
638.21	1081.09
638.55	1080.39
638.89	1081.56
639.24	1086.48
639.58	1085.54
639.93	1086.24
640.27	1097.48
640.61	1094.20
640.96	1091.39
641.30	1077.35
641.65	1083.43
641.99	1074.54
642.33	1077.82
642.68	1072.20
643.02	1078.05
643.37	1069.39
643.71	1084.84
644.05	1089.29
644.40	1092.56
644.74	1091.86
645.08	1087.88
645.43	1066.35
645.77	1060.03
646.11	1066.58
646.46	1069.86
646.80	1081.09
647.14	1080.16
647.49	1076.18
647.83	1072.43
648.17	1087.65
648.52	1083.43
648.86	1079.69
649.20	1081.33
649.55	1077.82
649.89	1054.65
650.23	1052.30
650.57	1059.79
650.92	1069.39
651.26	1069.39
651.60	1086.01
651.95	1097.71
652.29	1101.46
652.63	1102.16
652.97	1108.48
653.32	1101.22
653.66	1099.12
654.00	1100.52
654.34	1091.16
654.69	1087.41
655.03	1094.20
655.37	1087.41
655.71	1084.37
656.05	1090.92
656.40	1091.39
656.74	1083.90
657.08	1077.82
657.42	1079.69
657.76	1070.80
658.11	1069.39
658.45	1070.33
658.79	1081.56
659.13	1078.05
659.47	1087.18
659.82	1086.48
660.16	1083.43
660.50	1070.80
660.84	1077.82
661.18	1065.41
661.52	1066.11
661.87	1073.84
662.21	1088.35
662.55	1079.69
662.89	1089.75
663.23	1092.33
663.57	1091.86
663.91	1076.65
664.25	1077.11
664.60	1071.50
664.94	1070.56
665.28	1059.09
665.62	1067.75
665.96	1081.56
666.30	1091.86
666.64	1090.22
666.98	1108.01
667.32	1106.84
667.66	1101.46
668.01	1093.97
668.35	1089.75
668.69	1077.35
669.03	1082.26
669.37	1084.14
669.71	1092.56
670.05	1084.37
670.39	1090.22
670.73	1092.09
671.07	1085.77
671.41	1081.56
671.75	1091.86
672.09	1089.05
672.43	1076.18
672.77	1074.54
673.11	1075.71
673.45	1074.07
673.79	1074.07
674.13	1075.71
674.47	1076.88
674.81	1084.14
675.15	1094.67
675.49	1096.54
675.83	1102.63
676.17	1111.52
676.51	1096.54
676.85	1087.88
677.19	1089.75
677.53	1085.77
677.87	1071.03
678.21	1075.71
678.55	1086.01
678.89	1089.99
679.23	1084.60
679.57	1090.92
679.90	1092.33
680.24	1079.22
680.58	1079.69
680.92	1082.97
681.26	1085.31
681.60	1084.14
681.94	1094.20
682.28	1087.18
682.62	1089.99
682.96	1087.65
683.29	1092.56
683.63	1082.03
683.97	1078.28
684.31	1082.50
684.65	1079.46
684.99	1066.58
685.33	1074.31
685.67	1077.58
686.00	1073.14
686.34	1075.48
686.68	1082.73
687.02	1074.77
687.36	1074.77
687.70	1071.26
688.03	1071.97
688.37	1069.39
688.71	1069.62
689.05	1072.43
689.39	1082.50
689.72	1077.58
690.06	1087.18
690.40	1099.35
690.74	1090.69
691.08	1085.77
691.41	1093.26
691.75	1089.75
692.09	1088.82
692.43	1096.07
692.76	1095.60
693.10	1089.75
693.44	1080.86
693.78	1075.94
694.11	1071.73
694.45	1065.18
694.79	1064.24
695.13	1066.35
695.46	1068.92
695.80	1066.82
696.14	1073.37
696.48	1075.24
696.81	1081.56
697.15	1074.07
697.49	1072.20
697.82	1068.45
698.16	1057.69
698.50	1055.11
698.83	1063.77
699.17	1072.90
699.51	1079.92
699.84	1080.63
700.18	1083.67
700.52	1080.16
700.85	1072.43
701.19	1067.05
701.53	1082.03
701.86	1073.37
702.20	1075.48
702.54	1079.92
702.87	1078.05
703.21	1072.20
703.55	1078.52
703.88	1073.84
704.22	1069.16
704.55	1072.20
704.89	1081.09
705.23	1078.05
705.56	1086.24
705.90	1090.22
706.23	1085.54
706.57	1075.94
706.91	1071.26
707.24	1063.54
707.58	1061.20
707.91	1063.77
708.25	1064.24
708.58	1070.33
708.92	1068.22
709.26	1072.43
709.59	1076.41
709.93	1079.46
710.26	1076.65
710.60	1079.22
710.93	1082.50
711.27	1077.58
711.60	1076.65
711.94	1075.01
712.27	1078.99
712.61	1077.82
712.94	1081.33
713.28	1083.90
713.61	1085.54
713.95	1086.24
714.28	1074.07
714.62	1068.22
714.95	1065.88
715.29	1064.01
715.62	1062.37
715.96	1070.80
716.29	1077.82
716.63	1070.33
716.96	1070.33
717.29	1068.22
717.63	1071.73
717.96	1071.03
718.30	1074.54
718.63	1073.60
718.97	1071.26
719.30	1068.22
719.63	1067.05
719.97	1076.88
720.30	1083.43
720.64	1084.37
720.97	1084.60
721.30	1083.20
721.64	1079.69
721.97	1081.33
722.31	1083.90
722.64	1080.63
722.97	1080.86
723.31	1074.31
723.64	1077.11
723.97	1081.56
724.31	1078.28
724.64	1085.07
724.98	1093.73
725.31	1093.03
725.64	1081.56
725.98	1090.22
726.31	1080.39
726.64	1079.22
726.97	1080.86
727.31	1091.39
727.64	1094.43
727.97	1089.05
728.31	1086.01
728.64	1084.14
728.97	1074.77
729.31	1075.01
729.64	1081.56
729.97	1085.31
730.30	1083.90
730.64	1104.26
730.97	1096.07
731.30	1096.07
731.63	1092.09
731.97	1093.50
732.30	1070.33
732.63	1073.37
732.96	1075.94
733.30	1075.71
733.63	1073.84
733.96	1089.05
734.29	1089.29
734.63	1087.88
734.96	1090.69
735.29	1089.99
735.62	1081.33
735.95	1079.69
736.29	1073.14
736.62	1061.43
736.95	1058.86
737.28	1056.75
737.61	1051.60
737.94	1065.41
738.28	1074.54
738.61	1080.39
738.94	1088.82
739.27	1098.65
739.60	1092.80
739.93	1096.31
740.27	1103.33
740.60	1103.33
740.93	1107.54
741.26	1112.22
741.59	1101.22
741.92	1082.26
742.25	1077.11
742.58	1063.07
742.91	1059.33
743.25	1071.97
743.58	1086.24
743.91	1082.03
744.24	1089.52
744.57	1091.63
744.90	1080.86
745.23	1072.20
745.56	1073.14
745.89	1068.92
746.22	1063.31
746.55	1072.67
746.88	1073.14
747.21	1079.22
747.54	1084.84
747.87	1090.69
748.20	1096.78
748.53	1096.78
748.87	1085.07
749.20	1085.77
749.53	1082.73
749.86	1071.50
750.19	1071.26
750.52	1087.65
750.85	1081.33
751.18	1086.94
751.51	1083.43
751.84	1083.43
752.16	1070.56
752.49	1073.14
752.82	1066.11
753.15	1066.35
753.48	1056.75
753.81	1057.92
754.14	1054.88
754.47	1053.24
754.80	1060.03
755.13	1075.48
755.46	1080.63
755.79	1082.97
756.12	1093.97
756.45	1094.43
756.78	1084.14
757.11	1082.97
757.43	1082.03
757.76	1067.28
758.09	1061.20
758.42	1055.82
758.75	1057.22
759.08	1057.22
759.41	1064.01
759.74	1069.39
760.07	1084.84
760.39	1077.58
760.72	1071.03
761.05	1067.52
761.38	1061.90
761.71	1068.22
762.04	1073.14
762.36	1081.80
762.69	1087.88
763.02	1092.09
763.35	1083.20
763.68	1081.33
764.01	1070.33
764.33	1071.50
764.66	1069.86
764.99	1065.88
765.32	1062.60
765.65	1067.99
765.97	1069.62
766.30	1065.41
