SpectraSuite Data File
++++++++++++++++++++++++++++++++++++
Date: Mon Aug 26 10:24:34 PDT 2019
User: corrico
Dark Spectrum Present: No
Reference Spectrum Present: No
Number of Sampled Component Spectra: 1
Spectrometers: USB2+H06089
Integration Time (usec): 10000 (USB2+H06089)
Spectra Averaged: 2 (USB2+H06089)
Boxcar Smoothing: 2 (USB2+H06089)
Correct for Electrical Dark: No (USB2+H06089)
Strobe/Lamp Enabled: No (USB2+H06089)
Correct for Detector Non-linearity: No (USB2+H06089)
Correct for Stray Light: No (USB2+H06089)
Number of Pixels in Processed Spectrum: 2048
>>>>>Begin Processed Spectral Data<<<<<
339.70	1014.62
340.07	1014.62
340.45	989.34
340.82	964.30
341.19	946.28
341.57	924.75
341.94	916.55
342.31	905.55
342.69	898.30
343.06	894.32
343.43	896.43
343.81	892.21
344.18	893.85
344.55	905.32
344.93	910.00
345.30	909.30
345.67	918.19
346.04	934.11
346.42	941.83
346.79	953.77
347.16	961.26
347.54	972.96
347.91	975.30
348.28	985.60
348.65	986.07
349.03	996.60
349.40	1005.96
349.77	1020.71
350.14	1025.86
350.52	1038.03
350.89	1042.47
351.26	1040.84
351.63	1042.01
352.01	1045.99
352.38	1046.69
352.75	1064.94
353.12	1061.43
353.50	1073.14
353.87	1084.14
354.24	1088.12
354.61	1081.09
354.98	1096.54
355.36	1088.35
355.73	1093.50
356.10	1097.24
356.47	1100.99
356.84	1097.48
357.22	1094.20
357.59	1089.52
357.96	1083.90
358.33	1081.33
358.70	1082.50
359.08	1080.16
359.45	1079.22
359.82	1087.18
360.19	1085.77
360.56	1075.71
360.94	1081.56
361.31	1088.58
361.68	1081.33
362.05	1079.69
362.42	1078.99
362.79	1071.03
363.16	1068.45
363.54	1076.41
363.91	1083.43
364.28	1089.05
364.65	1088.82
365.02	1083.43
365.39	1082.03
365.76	1077.35
366.14	1072.43
366.51	1077.82
366.88	1074.54
367.25	1072.90
367.62	1074.77
367.99	1079.22
368.36	1085.77
368.73	1083.67
369.10	1081.56
369.48	1081.80
369.85	1084.60
370.22	1085.07
370.59	1089.29
370.96	1089.05
371.33	1078.28
371.70	1086.48
372.07	1080.86
372.44	1078.75
372.81	1077.35
373.18	1084.37
373.55	1073.14
373.93	1077.11
374.30	1077.58
374.67	1069.86
375.04	1069.39
375.41	1061.43
375.78	1057.92
376.15	1061.90
376.52	1075.24
376.89	1079.69
377.26	1083.43
377.63	1077.11
378.00	1076.65
378.37	1077.11
378.74	1064.48
379.11	1070.09
379.48	1073.60
379.85	1064.94
380.22	1061.90
380.59	1070.33
380.96	1071.03
381.33	1076.41
381.70	1080.63
382.07	1081.33
382.44	1083.90
382.81	1085.54
383.18	1077.82
383.55	1077.82
383.92	1066.58
384.29	1066.11
384.66	1063.31
385.03	1070.09
385.40	1075.01
385.77	1077.82
386.14	1073.84
386.51	1073.60
386.88	1078.52
387.25	1071.50
387.62	1076.65
387.99	1077.82
388.36	1090.69
388.73	1089.05
389.10	1095.37
389.46	1102.39
389.83	1099.12
390.20	1083.90
390.57	1088.58
390.94	1088.58
391.31	1088.35
391.68	1092.33
392.05	1093.03
392.42	1087.88
392.79	1093.03
393.16	1090.69
393.53	1092.56
393.89	1103.33
394.26	1109.41
394.63	1106.61
395.00	1112.92
395.37	1117.37
395.74	1102.86
396.11	1093.73
396.48	1086.71
396.84	1072.67
397.21	1067.75
397.58	1077.35
397.95	1083.20
398.32	1081.33
398.69	1083.90
399.06	1087.41
399.42	1087.41
399.79	1076.18
400.16	1078.75
400.53	1091.39
400.90	1093.97
401.27	1091.63
401.64	1100.75
402.00	1109.88
402.37	1100.05
402.74	1100.05
403.11	1109.88
403.48	1122.29
403.84	1126.27
404.21	1123.69
404.58	1122.75
404.95	1113.16
405.32	1112.22
405.68	1118.54
406.05	1127.90
406.42	1136.10
406.79	1146.39
407.16	1142.42
407.52	1144.29
407.89	1154.82
408.26	1159.74
408.63	1170.50
408.99	1183.14
409.36	1186.65
409.73	1182.67
410.10	1186.18
410.47	1200.69
410.83	1212.40
411.20	1227.61
411.57	1255.00
411.94	1275.83
412.30	1301.10
412.67	1327.55
413.04	1342.77
413.40	1369.21
413.77	1403.85
414.14	1414.62
414.51	1430.77
414.87	1463.54
415.24	1480.15
415.61	1499.82
415.97	1535.16
416.34	1566.75
416.71	1592.73
417.08	1629.95
417.44	1666.93
417.81	1713.27
418.18	1751.19
418.54	1807.36
418.91	1862.36
419.28	1911.75
419.64	1959.03
420.01	2025.50
420.38	2090.10
420.74	2152.12
421.11	2222.34
421.48	2289.98
421.84	2359.03
422.21	2444.92
422.58	2544.86
422.94	2645.27
423.31	2732.81
423.68	2824.56
424.04	2913.97
424.41	3005.95
424.77	3105.19
425.14	3221.51
425.51	3332.69
425.87	3450.42
426.24	3581.25
426.61	3724.26
426.97	3875.93
427.34	4063.17
427.70	4256.26
428.07	4446.08
428.44	4641.05
428.80	4827.12
429.17	5000.55
429.53	5158.77
429.90	5340.17
430.27	5518.05
430.63	5705.06
431.00	5916.41
431.36	6173.87
431.73	6395.05
432.09	6621.14
432.46	6865.49
432.83	7077.55
433.19	7272.28
433.56	7522.01
433.92	7768.71
434.29	8013.29
434.65	8256.24
435.02	8453.08
435.38	8621.60
435.75	8727.39
436.11	8925.16
436.48	9116.39
436.84	9306.20
437.21	9468.40
437.57	9639.50
437.94	9724.46
438.30	9796.31
438.67	9838.68
439.03	9902.10
439.40	9972.79
439.76	9951.72
440.13	9907.25
440.49	9887.83
440.86	9768.69
441.22	9646.99
441.59	9517.79
441.95	9412.00
442.32	9240.44
442.68	9113.11
443.05	8951.61
443.41	8777.01
443.78	8534.76
444.14	8321.07
444.51	8088.42
444.87	7916.63
445.24	7724.47
445.60	7578.19
445.96	7401.71
446.33	7270.41
446.69	7035.18
447.06	6888.66
447.42	6708.91
447.79	6554.67
448.15	6384.75
448.51	6235.66
448.88	6072.52
449.24	5944.02
449.61	5815.53
449.97	5696.40
450.33	5603.94
450.70	5463.04
451.06	5312.78
451.43	5151.99
451.79	5004.77
452.15	4886.34
452.52	4799.97
452.88	4738.88
453.24	4692.31
453.61	4613.20
453.97	4516.30
454.34	4395.06
454.70	4271.71
455.06	4162.64
455.43	4056.85
455.79	3929.99
456.15	3844.10
456.52	3728.01
456.88	3653.11
457.24	3564.64
457.61	3508.46
457.97	3436.37
458.33	3365.92
458.70	3267.39
459.06	3177.98
459.42	3100.04
459.79	3016.72
460.15	2954.69
460.51	2886.58
460.88	2820.11
461.24	2747.32
461.60	2708.47
461.96	2654.64
462.33	2606.42
462.69	2558.44
463.05	2516.54
463.42	2464.58
463.78	2435.80
464.14	2391.33
464.50	2337.49
464.87	2283.19
465.23	2228.89
465.59	2161.72
465.95	2121.23
466.32	2099.93
466.68	2079.33
467.04	2052.88
467.40	2044.69
467.77	2014.50
468.13	1990.39
468.49	1969.09
468.85	1956.92
469.22	1928.84
469.58	1920.64
469.94	1899.11
470.30	1873.60
470.66	1836.85
471.03	1825.85
471.39	1795.66
471.75	1760.32
472.11	1743.70
472.47	1746.51
472.84	1713.74
473.20	1685.42
473.56	1679.33
473.92	1666.70
474.28	1646.33
474.65	1646.33
475.01	1648.67
475.37	1641.42
475.73	1618.25
476.09	1593.20
476.45	1571.20
476.81	1555.99
477.18	1536.80
477.54	1536.56
477.90	1535.86
478.26	1529.31
478.62	1523.22
478.98	1518.07
479.34	1504.73
479.71	1489.52
480.07	1477.11
480.43	1467.52
480.79	1454.88
481.15	1443.88
481.51	1438.26
481.87	1422.81
482.23	1409.70
482.59	1405.96
482.96	1396.60
483.32	1386.07
483.68	1389.34
484.04	1380.92
484.40	1366.40
484.76	1362.43
485.12	1358.92
485.48	1347.91
485.84	1333.17
486.20	1328.96
486.56	1322.17
486.92	1317.02
487.28	1312.34
487.64	1307.42
488.00	1299.70
488.37	1292.91
488.73	1286.83
489.09	1282.61
489.45	1285.19
489.81	1283.32
490.17	1280.04
490.53	1268.57
490.89	1255.00
491.25	1255.23
491.61	1257.57
491.97	1251.48
492.33	1253.82
492.69	1245.40
493.05	1228.31
493.41	1215.91
493.77	1214.97
494.13	1211.70
494.49	1216.38
494.85	1216.14
495.21	1207.95
495.57	1212.16
495.93	1203.27
496.29	1194.84
496.64	1201.63
497.00	1204.91
497.36	1188.06
497.72	1181.27
498.08	1178.23
498.44	1170.50
498.80	1169.33
499.16	1173.08
499.52	1185.48
499.88	1183.61
500.24	1181.97
500.60	1178.23
500.96	1166.52
501.32	1153.88
501.68	1152.01
502.03	1149.91
502.39	1148.50
502.75	1159.74
503.11	1160.20
503.47	1165.82
503.83	1160.67
504.19	1165.35
504.55	1156.46
504.91	1158.80
505.26	1161.84
505.62	1164.42
505.98	1156.69
506.34	1146.16
506.70	1144.76
507.06	1129.07
507.42	1123.93
507.78	1115.50
508.13	1121.12
508.49	1117.61
508.85	1120.41
509.21	1122.05
509.57	1129.54
509.93	1133.99
510.28	1123.93
510.64	1127.20
511.00	1131.65
511.36	1129.54
511.72	1126.97
512.07	1133.05
512.43	1133.99
512.79	1132.82
513.15	1131.65
513.51	1125.10
513.86	1128.14
514.22	1123.69
514.58	1114.33
514.94	1108.71
515.30	1116.67
515.65	1114.80
516.01	1114.56
516.37	1117.84
516.73	1119.48
517.08	1104.73
517.44	1104.03
517.80	1104.26
518.16	1102.16
518.51	1104.26
518.87	1119.48
519.23	1119.48
519.59	1117.14
519.94	1117.37
520.30	1124.39
520.66	1117.14
521.01	1106.37
521.37	1100.05
521.73	1095.60
522.09	1093.03
522.44	1088.12
522.80	1097.71
523.16	1110.58
523.51	1107.31
523.87	1095.84
524.23	1094.43
524.58	1089.29
524.94	1080.63
525.30	1083.43
525.65	1085.77
526.01	1096.07
526.37	1106.37
526.72	1106.37
527.08	1106.84
527.44	1108.01
527.79	1103.09
528.15	1087.41
528.51	1090.69
528.86	1085.31
529.22	1084.37
529.58	1079.46
529.93	1086.94
530.29	1095.14
530.65	1103.09
531.00	1104.03
531.36	1110.82
531.71	1111.05
532.07	1097.01
532.43	1095.14
532.78	1098.41
533.14	1094.90
533.49	1089.29
533.85	1095.60
534.21	1091.16
534.56	1090.46
534.92	1091.63
535.27	1089.75
535.63	1081.09
535.98	1078.99
536.34	1079.69
536.69	1079.92
537.05	1090.92
537.41	1092.56
537.76	1094.20
538.12	1091.39
538.47	1091.16
538.83	1081.80
539.18	1091.39
539.54	1098.88
539.89	1106.14
540.25	1105.44
540.60	1112.46
540.96	1104.50
541.31	1098.88
541.67	1092.80
542.02	1088.12
542.38	1075.94
542.73	1077.58
543.09	1074.31
543.44	1075.71
543.80	1091.39
544.15	1098.88
544.51	1094.67
544.86	1100.05
545.22	1092.09
545.57	1081.09
545.93	1083.20
546.28	1089.52
546.64	1086.94
546.99	1091.63
547.35	1101.69
547.70	1101.69
548.05	1103.33
548.41	1097.95
548.76	1092.33
549.12	1075.01
549.47	1073.14
549.83	1065.65
550.18	1068.92
550.53	1076.88
550.89	1085.31
551.24	1083.20
551.60	1081.33
551.95	1080.63
552.30	1080.16
552.66	1072.90
553.01	1071.73
553.37	1078.05
553.72	1083.90
554.07	1082.26
554.43	1088.12
554.78	1100.05
555.13	1102.63
555.49	1098.88
555.84	1091.39
556.19	1091.16
556.55	1078.99
556.90	1069.62
557.26	1075.94
557.61	1083.67
557.96	1079.22
558.32	1079.22
558.67	1083.67
559.02	1083.43
559.37	1089.75
559.73	1093.26
560.08	1104.50
560.43	1100.75
560.79	1096.31
561.14	1089.75
561.49	1092.56
561.85	1090.22
562.20	1088.82
562.55	1090.22
562.90	1088.12
563.26	1088.82
563.61	1088.58
563.96	1101.22
564.32	1106.37
564.67	1111.52
565.02	1115.03
565.37	1112.69
565.73	1111.29
566.08	1108.95
566.43	1107.07
566.78	1097.48
567.14	1092.56
567.49	1087.41
567.84	1085.07
568.19	1087.18
568.54	1087.65
568.90	1079.46
569.25	1083.43
569.60	1095.37
569.95	1094.90
570.31	1103.56
570.66	1122.05
571.01	1122.99
571.36	1102.63
571.71	1106.84
572.06	1096.07
572.42	1087.65
572.77	1075.71
573.12	1075.01
573.47	1066.11
573.82	1073.84
574.18	1080.39
574.53	1085.07
574.88	1094.67
575.23	1092.80
575.58	1085.31
575.93	1069.39
576.28	1070.09
576.64	1067.05
576.99	1065.88
577.34	1059.33
577.69	1067.28
578.04	1063.54
578.39	1065.18
578.74	1067.99
579.09	1085.77
579.44	1088.58
579.80	1092.56
580.15	1098.41
580.50	1098.41
580.85	1092.56
581.20	1088.35
581.55	1096.07
581.90	1083.20
582.25	1089.05
582.60	1087.41
582.95	1095.14
583.30	1092.80
583.65	1102.63
584.00	1107.54
584.35	1112.69
584.71	1112.92
585.06	1108.95
585.41	1105.20
585.76	1092.56
586.11	1090.22
586.46	1085.31
586.81	1081.80
587.16	1087.41
587.51	1092.80
587.86	1083.43
588.21	1088.35
588.56	1091.16
588.91	1079.92
589.26	1078.99
589.61	1086.71
589.96	1078.52
590.31	1087.65
590.66	1093.97
591.01	1089.99
591.36	1083.90
591.71	1091.39
592.06	1074.31
592.41	1078.52
592.76	1075.24
593.10	1082.03
593.45	1088.12
593.80	1096.78
594.15	1093.97
594.50	1096.07
594.85	1093.26
595.20	1078.05
595.55	1081.09
595.90	1085.31
596.25	1092.09
596.60	1093.73
596.95	1094.90
597.30	1089.05
597.64	1126.27
597.99	1123.93
598.34	1125.56
598.69	1133.52
599.04	1134.22
599.39	1087.41
599.74	1088.35
600.09	1089.29
600.44	1087.65
600.78	1087.65
601.13	1087.18
601.48	1083.43
601.83	1072.90
602.18	1065.65
602.53	1072.43
602.88	1078.05
603.22	1073.84
603.57	1078.05
603.92	1087.65
604.27	1085.77
604.62	1088.35
604.97	1092.80
605.31	1095.60
605.66	1097.95
606.01	1104.26
606.36	1095.60
606.71	1089.75
607.05	1088.35
607.40	1083.43
607.75	1064.94
608.10	1072.67
608.44	1082.73
608.79	1084.14
609.14	1076.88
609.49	1095.37
609.84	1089.29
610.18	1092.56
610.53	1099.58
610.88	1099.82
611.23	1087.41
611.57	1092.09
611.92	1081.56
612.27	1074.07
612.62	1077.82
612.96	1088.12
613.31	1087.88
613.66	1084.60
614.00	1083.67
614.35	1083.20
614.70	1081.80
615.05	1093.26
615.39	1094.43
615.74	1099.12
616.09	1105.90
616.43	1097.24
616.78	1081.56
617.13	1091.16
617.47	1089.99
617.82	1080.86
618.17	1091.86
618.51	1094.43
618.86	1093.73
619.21	1093.50
619.55	1097.24
619.90	1090.22
620.25	1097.48
620.59	1102.63
620.94	1108.71
621.29	1112.22
621.63	1115.03
621.98	1106.14
622.32	1095.60
622.67	1075.94
623.02	1066.11
623.36	1069.62
623.71	1069.39
624.05	1067.99
624.40	1076.41
624.75	1080.86
625.09	1076.65
625.44	1077.11
625.78	1073.60
626.13	1078.05
626.48	1073.84
626.82	1063.07
627.17	1056.28
627.51	1066.58
627.86	1067.05
628.20	1069.39
628.55	1075.48
628.89	1089.05
629.24	1085.54
629.58	1088.58
629.93	1093.73
630.28	1105.20
630.62	1104.26
630.97	1110.12
631.31	1101.46
631.66	1098.41
632.00	1089.29
632.35	1079.69
632.69	1074.54
633.04	1076.41
633.38	1076.65
633.73	1078.75
634.07	1085.31
634.42	1089.29
634.76	1093.03
635.11	1089.99
635.45	1079.46
635.79	1082.97
636.14	1076.18
636.48	1071.73
636.83	1064.01
637.17	1071.97
637.52	1064.01
637.86	1066.58
638.21	1070.09
638.55	1081.80
638.89	1081.09
639.24	1075.48
639.58	1082.73
639.93	1088.35
640.27	1094.43
640.61	1100.99
640.96	1111.05
641.30	1104.97
641.65	1101.22
641.99	1107.31
642.33	1100.99
642.68	1091.39
643.02	1090.22
643.37	1088.35
643.71	1071.97
644.05	1071.03
644.40	1078.05
644.74	1078.99
645.08	1084.60
645.43	1083.90
645.77	1084.60
646.11	1089.05
646.46	1097.95
646.80	1093.26
647.14	1101.69
647.49	1105.90
647.83	1108.01
648.17	1097.71
648.52	1097.01
648.86	1093.26
649.20	1093.73
649.55	1095.14
649.89	1090.22
650.23	1084.37
650.57	1091.63
650.92	1089.52
651.26	1077.82
651.60	1079.69
651.95	1085.31
652.29	1082.97
652.63	1084.60
652.97	1085.54
653.32	1091.86
653.66	1098.41
654.00	1091.63
654.34	1086.48
654.69	1081.09
655.03	1075.94
655.37	1069.86
655.71	1064.48
656.05	1065.41
656.40	1075.01
656.74	1078.99
657.08	1065.41
657.42	1068.92
657.76	1064.94
658.11	1060.26
658.45	1053.01
658.79	1069.86
659.13	1073.84
659.47	1074.07
659.82	1086.24
660.16	1093.97
660.50	1082.97
660.84	1085.31
661.18	1095.60
661.52	1093.73
661.87	1089.05
662.21	1090.22
662.55	1086.48
662.89	1078.05
663.23	1076.41
663.57	1067.05
663.91	1076.41
664.25	1086.01
664.60	1082.73
664.94	1078.75
665.28	1089.99
665.62	1077.11
665.96	1065.88
666.30	1065.18
666.64	1059.09
666.98	1059.33
667.32	1075.01
667.66	1085.54
668.01	1093.97
668.35	1105.67
668.69	1106.37
669.03	1104.97
669.37	1096.78
669.71	1091.63
670.05	1087.41
670.39	1089.75
670.73	1085.31
671.07	1081.56
671.41	1084.84
671.75	1082.97
672.09	1081.09
672.43	1076.65
672.77	1082.50
673.11	1084.14
673.45	1086.24
673.79	1082.03
674.13	1082.03
674.47	1085.07
674.81	1084.60
675.15	1068.22
675.49	1068.69
675.83	1068.92
676.17	1059.33
676.51	1058.39
676.85	1073.84
677.19	1075.01
677.53	1079.92
677.87	1084.84
678.21	1087.18
678.55	1089.75
678.89	1094.20
679.23	1095.14
679.57	1098.41
679.90	1094.90
680.24	1087.65
680.58	1089.75
680.92	1082.97
681.26	1075.94
681.60	1064.48
681.94	1065.88
682.28	1066.11
682.62	1076.18
682.96	1080.86
683.29	1100.99
683.63	1104.73
683.97	1092.56
684.31	1088.58
684.65	1095.84
684.99	1097.71
685.33	1092.09
685.67	1097.48
686.00	1091.63
686.34	1076.18
686.68	1063.54
687.02	1059.33
687.36	1062.37
687.70	1062.14
688.03	1075.71
688.37	1076.88
688.71	1079.22
689.05	1073.60
689.39	1071.03
689.72	1063.31
690.06	1064.01
690.40	1070.33
690.74	1069.39
691.08	1070.80
691.41	1070.56
691.75	1070.33
692.09	1068.22
692.43	1074.77
692.76	1071.26
693.10	1073.84
693.44	1080.39
693.78	1082.26
694.11	1082.03
694.45	1086.24
694.79	1085.77
695.13	1075.94
695.46	1076.88
695.80	1076.88
696.14	1075.48
696.48	1082.97
696.81	1086.01
697.15	1082.73
697.49	1074.31
697.82	1072.43
698.16	1063.54
698.50	1064.01
698.83	1065.88
699.17	1068.92
699.51	1076.18
699.84	1068.45
700.18	1081.33
700.52	1087.18
700.85	1091.63
701.19	1089.29
701.53	1098.65
701.86	1091.63
702.20	1085.77
702.54	1085.77
702.87	1091.86
703.21	1090.92
703.55	1082.73
703.88	1088.35
704.22	1089.75
704.55	1089.99
704.89	1087.65
705.23	1095.84
705.56	1094.90
705.90	1101.46
706.23	1092.80
706.57	1089.29
706.91	1083.43
707.24	1076.18
707.58	1064.48
707.91	1068.92
708.25	1081.09
708.58	1075.24
708.92	1077.11
709.26	1075.24
709.59	1069.16
709.93	1060.96
710.26	1063.77
710.60	1068.92
710.93	1068.92
711.27	1081.56
711.60	1084.37
711.94	1086.94
712.27	1079.69
712.61	1088.82
712.94	1078.52
713.28	1077.11
713.61	1070.33
713.95	1074.31
714.28	1065.88
714.62	1062.60
714.95	1064.71
715.29	1070.33
715.62	1066.11
715.96	1067.52
716.29	1081.56
716.63	1079.46
716.96	1089.52
717.29	1087.88
717.63	1090.92
717.96	1083.20
718.30	1078.05
718.63	1068.45
718.97	1077.58
719.30	1071.73
719.63	1072.43
719.97	1082.03
720.30	1082.26
720.64	1079.22
720.97	1085.77
721.30	1081.56
721.64	1074.77
721.97	1066.58
722.31	1066.58
722.64	1065.88
722.97	1068.22
723.31	1067.99
723.64	1071.03
723.97	1073.60
724.31	1075.48
724.64	1081.09
724.98	1085.31
725.31	1100.05
725.64	1096.31
725.98	1083.67
726.31	1081.80
726.64	1078.75
726.97	1069.39
727.31	1077.82
727.64	1085.54
727.97	1086.24
728.31	1085.31
728.64	1084.84
728.97	1074.77
729.31	1068.45
729.64	1075.01
729.97	1077.82
730.30	1073.37
730.64	1074.77
730.97	1086.71
731.30	1080.86
731.63	1082.73
731.97	1090.22
732.30	1086.24
732.63	1079.69
732.96	1071.97
733.30	1071.50
733.63	1074.31
733.96	1075.94
734.29	1085.54
734.63	1095.14
734.96	1093.03
735.29	1095.84
735.62	1099.35
735.95	1098.88
736.29	1093.97
736.62	1100.99
736.95	1091.39
737.28	1089.52
737.61	1090.69
737.94	1101.69
738.28	1100.99
738.61	1108.01
738.94	1110.35
739.27	1097.71
739.60	1090.46
739.93	1084.84
740.27	1091.63
740.60	1090.46
740.93	1100.75
741.26	1099.82
741.59	1102.39
741.92	1091.39
742.25	1088.12
742.58	1082.26
742.91	1085.77
743.25	1081.09
743.58	1083.20
743.91	1078.75
744.24	1076.41
744.57	1067.52
744.90	1064.24
745.23	1056.99
745.56	1065.88
745.89	1085.77
746.22	1089.99
746.55	1096.78
746.88	1104.50
747.21	1105.67
747.54	1086.71
747.87	1083.20
748.20	1079.69
748.53	1080.86
748.87	1071.26
749.20	1078.52
749.53	1070.80
749.86	1063.77
750.19	1058.39
750.52	1064.24
750.85	1061.20
751.18	1071.73
751.51	1077.35
751.84	1075.01
752.16	1077.82
752.49	1074.54
752.82	1072.67
753.15	1071.97
753.48	1067.99
753.81	1063.54
754.14	1062.14
754.47	1068.45
754.80	1080.16
755.13	1085.31
755.46	1080.86
755.79	1084.84
756.12	1074.31
756.45	1065.41
756.78	1060.26
757.11	1067.52
757.43	1062.84
757.76	1066.58
758.09	1066.35
758.42	1079.46
758.75	1080.16
759.08	1092.33
759.41	1090.22
759.74	1083.20
760.07	1068.69
760.39	1071.03
760.72	1058.16
761.05	1064.24
761.38	1061.43
761.71	1072.67
762.04	1072.67
762.36	1075.01
762.69	1074.54
763.02	1082.50
763.35	1081.80
763.68	1073.14
764.01	1079.46
764.33	1081.09
764.66	1086.94
764.99	1078.99
765.32	1078.99
765.65	1076.41
765.97	1070.09
766.30	1067.75
