SpectraSuite Data File
++++++++++++++++++++++++++++++++++++
Date: Mon Aug 26 10:24:34 PDT 2019
User: corrico
Dark Spectrum Present: No
Reference Spectrum Present: No
Number of Sampled Component Spectra: 1
Spectrometers: USB2+H06089
Integration Time (usec): 10000 (USB2+H06089)
Spectra Averaged: 2 (USB2+H06089)
Boxcar Smoothing: 2 (USB2+H06089)
Correct for Electrical Dark: No (USB2+H06089)
Strobe/Lamp Enabled: No (USB2+H06089)
Correct for Detector Non-linearity: No (USB2+H06089)
Correct for Stray Light: No (USB2+H06089)
Number of Pixels in Processed Spectrum: 2048
>>>>>Begin Processed Spectral Data<<<<<
339.70	1039.20
340.07	1039.20
340.45	1000.81
340.82	976.00
341.19	952.36
341.57	922.17
341.94	915.85
342.31	901.81
342.69	895.72
343.06	893.62
343.43	897.83
343.81	900.64
344.18	902.04
344.55	906.72
344.93	911.87
345.30	912.11
345.67	911.87
346.04	920.53
346.42	938.09
346.79	942.30
347.16	948.85
347.54	962.66
347.91	977.64
348.28	980.68
348.65	1001.28
349.03	1015.09
349.40	1017.66
349.77	1024.45
350.14	1034.52
350.52	1027.50
350.89	1034.28
351.26	1047.39
351.63	1054.41
352.01	1054.88
352.38	1057.92
352.75	1063.54
353.12	1059.56
353.50	1062.84
353.87	1062.60
354.24	1070.56
354.61	1074.31
354.98	1078.05
355.36	1082.03
355.73	1076.18
356.10	1079.69
356.47	1075.94
356.84	1079.69
357.22	1069.62
357.59	1073.60
357.96	1071.73
358.33	1079.46
358.70	1080.39
359.08	1088.35
359.45	1094.43
359.82	1090.22
360.19	1086.01
360.56	1084.84
360.94	1079.92
361.31	1081.09
361.68	1075.48
362.05	1073.84
362.42	1071.26
362.79	1067.05
363.16	1071.97
363.54	1080.39
363.91	1079.22
364.28	1077.58
364.65	1074.07
365.02	1061.67
365.39	1055.11
365.76	1046.69
366.14	1050.67
366.51	1065.41
366.88	1069.16
367.25	1070.33
367.62	1073.37
367.99	1081.33
368.36	1075.01
368.73	1067.28
369.10	1070.33
369.48	1069.39
369.85	1059.09
370.22	1054.65
370.59	1053.71
370.96	1053.71
371.33	1058.62
371.70	1068.45
372.07	1079.92
372.44	1091.86
372.81	1103.80
373.18	1104.03
373.55	1092.33
373.93	1074.54
374.30	1064.24
374.67	1053.01
375.04	1055.11
375.41	1060.73
375.78	1070.33
376.15	1081.09
376.52	1080.86
376.89	1074.31
377.26	1073.84
377.63	1076.88
378.00	1081.56
378.37	1089.52
378.74	1093.73
379.11	1091.86
379.48	1087.65
379.85	1084.60
380.22	1075.24
380.59	1077.82
380.96	1075.48
381.33	1075.71
381.70	1061.67
382.07	1059.33
382.44	1067.99
382.81	1078.28
383.18	1079.69
383.55	1082.26
383.92	1089.99
384.29	1076.88
384.66	1059.56
385.03	1063.07
385.40	1078.52
385.77	1082.26
386.14	1086.24
386.51	1087.18
386.88	1091.16
387.25	1083.90
387.62	1068.92
387.99	1073.37
388.36	1078.75
388.73	1074.31
389.10	1075.24
389.46	1079.92
389.83	1081.56
390.20	1091.16
390.57	1095.14
390.94	1089.05
391.31	1083.43
391.68	1074.77
392.05	1060.50
392.42	1057.22
392.79	1059.09
393.16	1072.43
393.53	1069.39
393.89	1077.11
394.26	1071.97
394.63	1078.05
395.00	1069.16
395.37	1085.31
395.74	1079.92
396.11	1085.54
396.48	1087.41
396.84	1097.95
397.21	1090.92
397.58	1099.35
397.95	1093.26
398.32	1084.84
398.69	1086.71
399.06	1089.99
399.42	1086.24
399.79	1091.63
400.16	1103.33
400.53	1103.33
400.90	1100.75
401.27	1105.67
401.64	1104.73
402.00	1099.35
402.37	1096.78
402.74	1092.33
403.11	1098.18
403.48	1102.86
403.84	1109.18
404.21	1115.27
404.58	1121.12
404.95	1119.01
405.32	1124.16
405.68	1126.97
406.05	1129.78
406.42	1138.90
406.79	1136.56
407.16	1141.01
407.52	1146.86
407.89	1159.74
408.26	1166.29
408.63	1182.44
408.99	1183.37
409.36	1190.40
409.73	1188.76
410.10	1192.97
410.47	1196.25
410.83	1214.04
411.20	1230.89
411.57	1247.97
411.94	1263.66
412.30	1280.27
412.67	1288.93
413.04	1290.34
413.40	1301.81
413.77	1320.53
414.14	1337.62
414.51	1364.06
414.87	1391.21
415.24	1417.43
415.61	1438.96
415.97	1460.73
416.34	1475.47
416.71	1516.43
417.08	1544.75
417.44	1575.88
417.81	1630.42
418.18	1692.21
418.54	1728.95
418.91	1781.38
419.28	1834.51
419.64	1884.13
420.01	1910.58
420.38	1957.62
420.74	2012.63
421.11	2082.61
421.48	2135.97
421.84	2206.19
422.21	2272.19
422.58	2338.66
422.94	2401.86
423.31	2473.95
423.68	2567.33
424.04	2672.42
424.41	2765.81
424.77	2859.67
425.14	2971.31
425.51	3072.42
425.87	3170.72
426.24	3275.81
426.61	3399.39
426.97	3545.91
427.34	3678.62
427.70	3827.48
428.07	3984.53
428.44	4147.90
428.80	4290.67
429.17	4459.66
429.53	4596.34
429.90	4789.44
430.27	4947.19
430.63	5100.03
431.00	5265.50
431.36	5493.47
431.73	5642.80
432.09	5840.81
432.46	6060.58
432.83	6245.25
433.19	6435.54
433.56	6656.25
433.92	6890.07
434.29	7058.35
434.65	7265.73
435.02	7412.71
435.38	7569.76
435.75	7677.43
436.11	7867.71
436.48	8008.85
436.84	8200.53
437.21	8356.65
437.57	8446.76
437.94	8539.21
438.30	8618.55
438.67	8616.92
439.03	8625.81
439.40	8689.47
439.76	8653.43
440.13	8612.47
440.49	8590.00
440.86	8516.74
441.22	8398.08
441.59	8287.13
441.95	8203.11
442.32	8063.15
442.68	7949.40
443.05	7813.88
443.41	7676.02
443.78	7455.54
444.14	7270.17
444.51	7068.18
444.87	6921.67
445.24	6762.28
445.60	6645.72
445.96	6499.43
446.33	6357.13
446.69	6175.27
447.06	5999.26
447.42	5823.72
447.79	5654.97
448.15	5528.11
448.51	5412.72
448.88	5318.17
449.24	5238.12
449.61	5160.41
449.97	5040.81
450.33	4939.93
450.70	4802.55
451.06	4671.24
451.43	4545.79
451.79	4452.87
452.15	4347.31
452.52	4271.95
452.88	4195.18
453.24	4129.88
453.61	4052.64
453.97	3983.59
454.34	3895.12
454.70	3823.50
455.06	3735.26
455.43	3612.85
455.79	3503.55
456.15	3414.37
456.52	3316.07
456.88	3252.41
457.24	3204.19
457.61	3144.04
457.97	3077.34
458.33	3012.50
458.70	2930.12
459.06	2859.43
459.42	2799.51
459.79	2730.94
460.15	2665.64
460.51	2610.40
460.88	2548.38
461.24	2490.56
461.60	2447.03
461.96	2400.45
462.33	2344.28
462.69	2287.17
463.05	2238.49
463.42	2210.64
463.78	2182.32
464.14	2154.46
464.50	2144.40
464.87	2115.84
465.23	2085.18
465.59	2036.97
465.95	2005.37
466.32	1977.75
466.68	1952.71
467.04	1924.39
467.40	1914.79
467.77	1896.30
468.13	1866.11
468.49	1839.43
468.85	1805.02
469.22	1783.02
469.58	1757.04
469.94	1737.85
470.30	1722.63
470.66	1710.23
471.03	1685.42
471.39	1683.55
471.75	1659.91
472.11	1641.18
472.47	1623.63
472.84	1611.93
473.20	1588.52
473.56	1588.29
473.92	1583.84
474.28	1587.12
474.65	1587.82
475.01	1580.56
475.37	1563.24
475.73	1536.80
476.09	1514.56
476.45	1491.39
476.81	1481.79
477.18	1476.41
477.54	1473.13
477.90	1461.90
478.26	1448.32
478.62	1435.92
478.98	1422.58
479.34	1410.17
479.71	1408.30
480.07	1400.11
480.43	1394.96
480.79	1377.87
481.15	1369.21
481.51	1351.19
481.87	1342.06
482.23	1336.45
482.59	1343.00
482.96	1340.66
483.32	1341.36
483.68	1340.66
484.04	1327.79
484.40	1324.51
484.76	1334.81
485.12	1324.28
485.48	1317.72
485.84	1313.51
486.20	1302.27
486.56	1287.76
486.92	1290.57
487.28	1292.44
487.64	1288.70
488.00	1289.64
488.37	1285.19
488.73	1287.29
489.09	1280.27
489.45	1270.44
489.81	1259.91
490.17	1249.38
490.53	1231.59
490.89	1221.99
491.25	1221.76
491.61	1214.74
491.97	1212.16
492.33	1210.76
492.69	1212.16
493.05	1216.84
493.41	1223.40
493.77	1213.80
494.13	1205.61
494.49	1205.84
494.85	1191.33
495.21	1184.55
495.57	1183.84
495.93	1188.29
496.29	1189.23
496.64	1185.01
497.00	1172.84
497.36	1173.08
497.72	1177.76
498.08	1157.86
498.44	1168.40
498.80	1180.80
499.16	1168.16
499.52	1152.01
499.88	1166.05
500.24	1160.67
500.60	1143.59
500.96	1149.20
501.32	1154.59
501.68	1137.73
502.03	1126.97
502.39	1133.05
502.75	1135.39
503.11	1135.63
503.47	1141.25
503.83	1138.44
504.19	1133.99
504.55	1125.80
504.91	1119.48
505.26	1124.63
505.62	1127.20
505.98	1130.24
506.34	1139.84
506.70	1136.10
507.06	1122.99
507.42	1122.52
507.78	1119.95
508.13	1112.92
508.49	1127.20
508.85	1136.80
509.21	1129.54
509.57	1130.48
509.93	1133.29
510.28	1121.35
510.64	1120.88
511.00	1124.63
511.36	1119.95
511.72	1117.37
512.07	1112.92
512.43	1108.24
512.79	1116.20
513.15	1115.03
513.51	1104.50
513.86	1111.29
514.22	1116.20
514.58	1102.39
514.94	1111.75
515.30	1116.67
515.65	1123.93
516.01	1104.26
516.37	1104.26
516.73	1093.26
517.08	1088.82
517.44	1079.92
517.80	1099.58
518.16	1104.50
518.51	1106.14
518.87	1111.29
519.23	1112.92
519.59	1097.01
519.94	1097.01
520.30	1091.86
520.66	1093.97
521.01	1084.84
521.37	1093.50
521.73	1091.63
522.09	1086.48
522.44	1078.28
522.80	1078.99
523.16	1082.97
523.51	1086.71
523.87	1090.92
524.23	1099.12
524.58	1105.67
524.94	1098.65
525.30	1095.84
525.65	1097.01
526.01	1106.14
526.37	1105.67
526.72	1107.54
527.08	1111.99
527.44	1108.71
527.79	1091.39
528.15	1087.65
528.51	1079.22
528.86	1070.09
529.22	1082.73
529.58	1090.92
529.93	1085.77
530.29	1094.67
530.65	1100.29
531.00	1101.22
531.36	1105.90
531.71	1105.20
532.07	1093.03
532.43	1083.67
532.78	1071.97
533.14	1059.79
533.49	1064.24
533.85	1075.94
534.21	1080.39
534.56	1080.63
534.92	1079.46
535.27	1079.46
535.63	1075.01
535.98	1086.71
536.34	1087.18
536.69	1094.67
537.05	1092.09
537.41	1099.35
537.76	1093.03
538.12	1093.03
538.47	1078.75
538.83	1080.86
539.18	1077.82
539.54	1077.58
539.89	1081.09
540.25	1092.80
540.60	1090.46
540.96	1095.60
541.31	1095.37
541.67	1096.54
542.02	1109.41
542.38	1114.56
542.73	1117.61
543.09	1118.78
543.44	1111.75
543.80	1101.92
544.15	1094.20
544.51	1089.75
544.86	1089.52
545.22	1089.99
545.57	1088.82
545.93	1093.26
546.28	1085.54
546.64	1082.73
546.99	1087.65
547.35	1086.24
547.70	1091.63
548.05	1097.24
548.41	1105.20
548.76	1102.16
549.12	1094.43
549.47	1100.99
549.83	1089.99
550.18	1079.69
550.53	1082.26
550.89	1092.09
551.24	1086.24
551.60	1090.22
551.95	1091.16
552.30	1086.48
552.66	1089.29
553.01	1082.26
553.37	1083.67
553.72	1074.77
554.07	1075.94
554.43	1079.92
554.78	1086.24
555.13	1090.46
555.49	1095.60
555.84	1099.58
556.19	1082.97
556.55	1083.20
556.90	1086.24
557.26	1088.82
557.61	1089.99
557.96	1090.69
558.32	1080.63
558.67	1090.22
559.02	1095.14
559.37	1082.03
559.73	1080.16
560.08	1077.58
560.43	1069.39
560.79	1065.65
561.14	1078.52
561.49	1097.01
561.85	1105.20
562.20	1104.50
562.55	1105.44
562.90	1099.12
563.26	1086.24
563.61	1078.52
563.96	1068.22
564.32	1068.69
564.67	1074.31
565.02	1085.54
565.37	1084.14
565.73	1081.80
566.08	1082.97
566.43	1080.16
566.78	1077.35
567.14	1074.54
567.49	1075.24
567.84	1070.09
568.19	1070.80
568.54	1066.58
568.90	1076.18
569.25	1084.14
569.60	1087.41
569.95	1094.43
570.31	1102.16
570.66	1101.69
571.01	1102.39
571.36	1111.29
571.71	1107.07
572.06	1105.20
572.42	1101.46
572.77	1097.95
573.12	1089.52
573.47	1089.52
573.82	1079.22
574.18	1083.43
574.53	1083.67
574.88	1082.73
575.23	1087.88
575.58	1090.69
575.93	1093.26
576.28	1093.26
576.64	1099.82
576.99	1093.73
577.34	1091.63
577.69	1075.71
578.04	1074.31
578.39	1067.05
578.74	1078.05
579.09	1093.03
579.44	1104.73
579.80	1108.48
580.15	1111.29
580.50	1094.90
580.85	1090.46
581.20	1097.01
581.55	1094.67
581.90	1096.78
582.25	1103.09
582.60	1092.80
582.95	1088.82
583.30	1087.18
583.65	1083.90
584.00	1075.71
584.35	1078.52
584.71	1082.26
585.06	1086.01
585.41	1100.05
585.76	1105.67
586.11	1100.05
586.46	1096.54
586.81	1106.61
587.16	1093.73
587.51	1092.56
587.86	1098.18
588.21	1095.37
588.56	1085.07
588.91	1084.60
589.26	1082.26
589.61	1086.48
589.96	1089.52
590.31	1084.84
590.66	1086.01
591.01	1084.14
591.36	1082.73
591.71	1080.16
592.06	1088.12
592.41	1078.52
592.76	1079.92
593.10	1069.16
593.45	1073.37
593.80	1069.86
594.15	1082.50
594.50	1092.33
594.85	1098.41
595.20	1091.63
595.55	1095.14
595.90	1090.22
596.25	1088.82
596.60	1084.60
596.95	1096.07
597.30	1095.37
597.64	1149.44
597.99	1148.50
598.34	1154.35
598.69	1145.22
599.04	1141.95
599.39	1083.20
599.74	1075.01
600.09	1077.11
600.44	1088.58
600.78	1086.94
601.13	1088.12
601.48	1082.97
601.83	1069.62
602.18	1061.43
602.53	1070.09
602.88	1081.80
603.22	1092.56
603.57	1101.22
603.92	1100.75
604.27	1102.16
604.62	1085.54
604.97	1091.63
605.31	1096.54
605.66	1098.88
606.01	1089.99
606.36	1107.54
606.71	1100.52
607.05	1100.99
607.40	1101.22
607.75	1095.60
608.10	1078.99
608.44	1070.33
608.79	1062.14
609.14	1053.01
609.49	1058.39
609.84	1067.52
610.18	1074.31
610.53	1075.01
610.88	1078.52
611.23	1088.35
611.57	1092.56
611.92	1102.39
612.27	1103.56
612.62	1114.10
612.96	1105.67
613.31	1098.18
613.66	1095.14
614.00	1091.86
614.35	1086.24
614.70	1083.67
615.05	1086.48
615.39	1078.28
615.74	1087.65
616.09	1081.09
616.43	1086.71
616.78	1095.14
617.13	1100.05
617.47	1097.71
617.82	1102.16
618.17	1099.82
618.51	1091.16
618.86	1079.92
619.21	1079.22
619.55	1082.97
619.90	1096.07
620.25	1089.99
620.59	1088.35
620.94	1083.20
621.29	1076.18
621.63	1059.56
621.98	1063.31
622.32	1074.31
622.67	1065.41
623.02	1071.26
623.36	1069.86
623.71	1068.69
624.05	1063.31
624.40	1077.11
624.75	1078.28
625.09	1078.05
625.44	1072.20
625.78	1081.33
626.13	1067.05
626.48	1044.58
626.82	1050.43
627.17	1060.50
627.51	1058.62
627.86	1076.65
628.20	1093.97
628.55	1087.65
628.89	1087.41
629.24	1084.60
629.58	1076.41
629.93	1075.94
630.28	1075.71
630.62	1076.65
630.97	1080.86
631.31	1082.03
631.66	1083.43
632.00	1091.16
632.35	1092.09
632.69	1091.39
633.04	1100.75
633.38	1099.35
633.73	1094.43
634.07	1087.65
634.42	1081.33
634.76	1077.11
635.11	1077.35
635.45	1083.20
635.79	1084.60
636.14	1085.07
636.48	1075.71
636.83	1080.16
637.17	1075.48
637.52	1073.84
637.86	1078.99
638.21	1082.03
638.55	1081.80
638.89	1078.05
639.24	1080.63
639.58	1081.56
639.93	1086.24
640.27	1086.48
640.61	1086.01
640.96	1089.29
641.30	1087.41
641.65	1082.50
641.99	1085.54
642.33	1082.26
642.68	1074.77
643.02	1071.97
643.37	1075.01
643.71	1075.24
644.05	1078.75
644.40	1091.39
644.74	1097.71
645.08	1102.39
645.43	1097.24
645.77	1091.39
646.11	1080.16
646.46	1079.22
646.80	1082.03
647.14	1081.56
647.49	1091.16
647.83	1093.50
648.17	1092.80
648.52	1089.99
648.86	1094.43
649.20	1102.39
649.55	1104.50
649.89	1098.88
650.23	1091.39
650.57	1081.80
650.92	1075.48
651.26	1069.62
651.60	1077.58
651.95	1078.05
652.29	1068.92
652.63	1067.05
652.97	1068.92
653.32	1059.56
653.66	1060.03
654.00	1076.18
654.34	1070.33
654.69	1068.92
655.03	1082.03
655.37	1093.03
655.71	1087.18
656.05	1084.84
656.40	1086.24
656.74	1071.97
657.08	1071.50
657.42	1082.50
657.76	1087.65
658.11	1085.31
658.45	1086.71
658.79	1086.94
659.13	1082.03
659.47	1088.35
659.82	1092.56
660.16	1097.48
660.50	1079.92
660.84	1088.12
661.18	1095.60
661.52	1102.86
661.87	1102.16
662.21	1111.75
662.55	1096.78
662.89	1083.67
663.23	1074.07
663.57	1068.92
663.91	1064.01
664.25	1074.77
664.60	1085.54
664.94	1088.58
665.28	1082.97
665.62	1084.37
665.96	1074.77
666.30	1062.84
666.64	1063.77
666.98	1077.35
667.32	1078.28
667.66	1074.54
668.01	1076.65
668.35	1075.48
668.69	1066.58
669.03	1071.26
669.37	1072.43
669.71	1065.18
670.05	1067.52
670.39	1071.73
670.73	1072.90
671.07	1086.94
671.41	1096.54
671.75	1089.29
672.09	1095.37
672.43	1086.01
672.77	1067.05
673.11	1062.37
673.45	1077.82
673.79	1075.48
674.13	1073.14
674.47	1076.18
674.81	1076.88
675.15	1066.35
675.49	1066.11
675.83	1071.73
676.17	1078.05
676.51	1075.94
676.85	1077.82
677.19	1077.11
677.53	1085.31
677.87	1090.69
678.21	1096.07
678.55	1089.99
678.89	1090.46
679.23	1087.41
679.57	1083.43
679.90	1092.56
680.24	1089.29
680.58	1084.14
680.92	1080.39
681.26	1077.82
681.60	1059.56
681.94	1067.28
682.28	1067.05
682.62	1073.14
682.96	1079.22
683.29	1090.22
683.63	1091.63
683.97	1091.63
684.31	1083.20
684.65	1084.14
684.99	1083.43
685.33	1072.20
685.67	1073.37
686.00	1076.88
686.34	1073.84
686.68	1072.90
687.02	1083.67
687.36	1092.33
687.70	1092.56
688.03	1092.33
688.37	1093.73
688.71	1091.86
689.05	1092.09
689.39	1089.99
689.72	1087.88
690.06	1088.35
690.40	1088.35
690.74	1075.48
691.08	1076.41
691.41	1071.50
691.75	1073.60
692.09	1078.75
692.43	1085.07
692.76	1081.80
693.10	1094.67
693.44	1091.63
693.78	1078.99
694.11	1089.52
694.45	1094.67
694.79	1083.90
695.13	1082.97
695.46	1091.86
695.80	1086.71
696.14	1082.97
696.48	1087.41
696.81	1078.28
697.15	1076.65
697.49	1074.07
697.82	1080.63
698.16	1090.22
698.50	1102.16
698.83	1101.92
699.17	1099.12
699.51	1097.95
699.84	1087.18
700.18	1076.88
700.52	1076.65
700.85	1081.56
701.19	1069.62
701.53	1070.33
701.86	1066.11
702.20	1064.24
702.54	1054.18
702.87	1060.96
703.21	1068.69
703.55	1080.86
703.88	1082.97
704.22	1082.03
704.55	1082.26
704.89	1072.67
705.23	1072.43
705.56	1067.05
705.90	1073.37
706.23	1077.58
706.57	1084.60
706.91	1086.71
707.24	1086.24
707.58	1086.94
707.91	1089.29
708.25	1089.29
708.58	1094.67
708.92	1102.86
709.26	1105.44
709.59	1101.22
709.93	1090.46
710.26	1078.75
710.60	1071.03
710.93	1062.37
711.27	1057.22
711.60	1061.20
711.94	1075.71
712.27	1074.07
712.61	1085.77
712.94	1096.07
713.28	1100.99
713.61	1093.50
713.95	1107.07
714.28	1100.52
714.62	1098.65
714.95	1093.03
715.29	1078.99
715.62	1080.63
715.96	1078.28
716.29	1071.73
716.63	1070.33
716.96	1085.54
717.29	1085.31
717.63	1087.18
717.96	1084.14
718.30	1083.43
718.63	1076.18
718.97	1068.69
719.30	1070.33
719.63	1079.69
719.97	1086.24
720.30	1081.80
720.64	1085.77
720.97	1087.65
721.30	1086.01
721.64	1088.82
721.97	1097.48
722.31	1088.58
722.64	1092.56
722.97	1096.07
723.31	1100.29
723.64	1104.26
723.97	1105.67
724.31	1096.78
724.64	1094.90
724.98	1097.24
725.31	1086.94
725.64	1088.82
725.98	1089.05
726.31	1076.65
726.64	1063.31
726.97	1061.43
727.31	1051.84
727.64	1053.24
727.97	1077.35
728.31	1075.48
728.64	1089.99
728.97	1104.26
729.31	1107.78
729.64	1086.01
729.97	1095.84
730.30	1091.39
730.64	1091.16
730.97	1081.33
731.30	1089.99
731.63	1089.29
731.97	1094.67
732.30	1089.05
732.63	1091.86
732.96	1089.99
733.30	1081.09
733.63	1068.22
733.96	1072.20
734.29	1085.31
734.63	1087.88
734.96	1097.71
735.29	1109.18
735.62	1101.46
735.95	1093.50
736.29	1097.95
736.62	1083.43
736.95	1078.52
737.28	1100.05
737.61	1093.03
737.94	1085.31
738.28	1084.60
738.61	1083.20
738.94	1073.84
739.27	1081.56
739.60	1087.18
739.93	1093.03
740.27	1085.07
740.60	1077.35
740.93	1074.07
741.26	1065.88
741.59	1067.52
741.92	1068.92
742.25	1082.03
742.58	1085.07
742.91	1092.09
743.25	1093.03
743.58	1099.58
743.91	1084.84
744.24	1075.48
744.57	1066.82
744.90	1066.82
745.23	1060.50
745.56	1061.43
745.89	1060.03
746.22	1068.69
746.55	1071.50
746.88	1075.94
747.21	1077.11
747.54	1088.82
747.87	1080.63
748.20	1081.09
748.53	1078.05
748.87	1081.80
749.20	1083.20
749.53	1093.97
749.86	1090.69
750.19	1089.99
750.52	1092.33
750.85	1094.67
751.18	1100.52
751.51	1095.60
751.84	1104.73
752.16	1096.31
752.49	1098.18
752.82	1086.24
753.15	1083.20
753.48	1077.58
753.81	1072.43
754.14	1064.01
754.47	1061.20
754.80	1068.92
755.13	1071.50
755.46	1079.92
755.79	1084.37
756.12	1094.90
756.45	1096.54
756.78	1089.29
757.11	1092.80
757.43	1088.35
757.76	1089.52
758.09	1083.20
758.42	1087.88
758.75	1085.54
759.08	1088.12
759.41	1090.22
759.74	1096.07
760.07	1103.56
760.39	1103.09
760.72	1099.12
761.05	1092.09
761.38	1089.29
761.71	1081.56
762.04	1083.67
762.36	1079.46
762.69	1067.05
763.02	1070.56
763.35	1078.05
763.68	1081.09
764.01	1083.90
764.33	1092.33
764.66	1092.56
764.99	1089.99
765.32	1093.50
765.65	1103.80
765.97	1104.73
766.30	1107.31
