SpectraSuite Data File
++++++++++++++++++++++++++++++++++++
Date: Mon Aug 26 10:24:33 PDT 2019
User: corrico
Dark Spectrum Present: No
Reference Spectrum Present: No
Number of Sampled Component Spectra: 1
Spectrometers: USB2+H06089
Integration Time (usec): 10000 (USB2+H06089)
Spectra Averaged: 2 (USB2+H06089)
Boxcar Smoothing: 2 (USB2+H06089)
Correct for Electrical Dark: No (USB2+H06089)
Strobe/Lamp Enabled: No (USB2+H06089)
Correct for Detector Non-linearity: No (USB2+H06089)
Correct for Stray Light: No (USB2+H06089)
Number of Pixels in Processed Spectrum: 2048
>>>>>Begin Processed Spectral Data<<<<<
339.70	1031.01
340.07	1031.01
340.45	990.28
340.82	966.17
341.19	943.70
341.57	921.23
341.94	920.06
342.31	906.26
342.69	908.36
343.06	907.43
343.43	901.34
343.81	901.11
344.18	918.89
344.55	915.38
344.93	910.47
345.30	924.28
345.67	924.51
346.04	920.30
346.42	928.72
346.79	945.58
347.16	949.79
347.54	956.81
347.91	964.53
348.28	976.94
348.65	977.88
349.03	984.43
349.40	998.71
349.77	1013.45
350.14	1013.22
350.52	1028.90
350.89	1034.52
351.26	1038.73
351.63	1047.16
352.01	1060.96
352.38	1065.88
352.75	1071.73
353.12	1081.33
353.50	1077.11
353.87	1081.56
354.24	1078.28
354.61	1083.90
354.98	1075.71
355.36	1075.24
355.73	1085.77
356.10	1090.46
356.47	1091.39
356.84	1102.63
357.22	1108.95
357.59	1086.48
357.96	1090.46
358.33	1084.60
358.70	1080.16
359.08	1073.14
359.45	1074.07
359.82	1066.35
360.19	1062.14
360.56	1068.69
360.94	1070.80
361.31	1078.05
361.68	1082.26
362.05	1089.29
362.42	1077.35
362.79	1082.50
363.16	1091.16
363.54	1091.86
363.91	1091.16
364.28	1096.78
364.65	1100.05
365.02	1089.52
365.39	1095.37
365.76	1093.73
366.14	1093.97
366.51	1084.60
366.88	1092.80
367.25	1080.63
367.62	1078.28
367.99	1081.80
368.36	1084.84
368.73	1078.28
369.10	1074.07
369.48	1075.01
369.85	1064.48
370.22	1060.03
370.59	1055.35
370.96	1062.84
371.33	1065.65
371.70	1070.33
372.07	1073.60
372.44	1077.11
372.81	1067.05
373.18	1059.56
373.55	1057.92
373.93	1062.84
374.30	1065.41
374.67	1070.80
375.04	1073.14
375.41	1073.14
375.78	1073.37
376.15	1075.48
376.52	1071.97
376.89	1069.62
377.26	1069.39
377.63	1065.41
378.00	1064.24
378.37	1067.52
378.74	1070.56
379.11	1074.77
379.48	1079.46
379.85	1077.35
380.22	1080.63
380.59	1083.43
380.96	1074.54
381.33	1065.65
381.70	1063.77
382.07	1061.67
382.44	1059.56
382.81	1064.01
383.18	1076.88
383.55	1075.01
383.92	1072.43
384.29	1072.20
384.66	1078.52
385.03	1058.86
385.40	1064.94
385.77	1070.80
386.14	1076.65
386.51	1070.09
386.88	1077.11
387.25	1067.99
387.62	1075.01
387.99	1060.96
388.36	1055.58
388.73	1062.60
389.10	1074.31
389.46	1078.05
389.83	1101.22
390.20	1114.10
390.57	1108.71
390.94	1094.67
391.31	1082.73
391.68	1072.43
392.05	1069.16
392.42	1072.67
392.79	1095.60
393.16	1104.73
393.53	1104.97
393.89	1105.90
394.26	1102.16
394.63	1088.12
395.00	1080.39
395.37	1079.46
395.74	1076.65
396.11	1081.09
396.48	1082.26
396.84	1086.94
397.21	1085.31
397.58	1085.31
397.95	1085.31
398.32	1099.35
398.69	1100.05
399.06	1107.07
399.42	1113.86
399.79	1119.71
400.16	1105.20
400.53	1110.35
400.90	1104.03
401.27	1106.14
401.64	1101.46
402.00	1103.56
402.37	1088.58
402.74	1085.77
403.11	1079.69
403.48	1089.29
403.84	1094.67
404.21	1108.24
404.58	1121.58
404.95	1127.44
405.32	1128.14
405.68	1129.78
406.05	1135.16
406.42	1128.84
406.79	1131.88
407.16	1127.67
407.52	1138.90
407.89	1140.78
408.26	1144.52
408.63	1153.88
408.99	1159.03
409.36	1161.14
409.73	1167.93
410.10	1192.50
410.47	1199.29
410.83	1217.08
411.20	1229.48
411.57	1242.12
411.94	1245.63
412.30	1263.89
412.67	1277.70
413.04	1294.08
413.40	1310.93
413.77	1332.00
414.14	1347.68
414.51	1362.89
414.87	1380.21
415.24	1392.38
415.61	1409.24
415.97	1436.62
416.34	1477.81
416.71	1514.56
417.08	1560.44
417.44	1599.52
417.81	1632.76
418.18	1661.08
418.54	1696.42
418.91	1743.47
419.28	1789.81
419.64	1841.53
420.01	1893.26
420.38	1944.28
420.74	1981.26
421.11	2038.61
421.48	2099.23
421.84	2159.38
422.21	2224.21
422.58	2317.83
422.94	2389.69
423.31	2469.97
423.68	2552.12
424.04	2641.53
424.41	2722.04
424.77	2816.37
425.14	2908.58
425.51	3007.82
425.87	3099.81
426.24	3212.39
426.61	3336.20
426.97	3471.25
427.34	3591.08
427.70	3757.26
428.07	3875.93
428.44	4026.66
428.80	4171.77
429.17	4351.06
429.53	4470.66
429.90	4646.20
430.27	4790.37
430.63	4929.87
431.00	5086.45
431.36	5302.48
431.73	5475.68
432.09	5652.86
432.46	5848.76
432.83	6008.86
433.19	6160.06
433.56	6350.34
433.92	6567.31
434.29	6766.49
434.65	6987.44
435.02	7177.72
435.38	7340.62
435.75	7435.41
436.11	7594.34
436.48	7730.32
436.84	7865.37
437.21	7991.99
437.57	8130.79
437.94	8218.56
438.30	8300.94
438.67	8326.22
439.03	8364.37
439.40	8384.74
439.76	8325.29
440.13	8232.37
440.49	8176.66
440.86	8062.68
441.22	7951.03
441.59	7876.14
441.95	7818.33
442.32	7693.11
442.68	7597.38
443.05	7490.88
443.41	7330.09
443.78	7120.14
444.14	6981.12
444.51	6802.77
444.87	6657.42
445.24	6518.86
445.60	6393.88
445.96	6240.34
446.33	6111.14
446.69	5930.92
447.06	5776.21
447.42	5637.41
447.79	5494.88
448.15	5380.66
448.51	5261.76
448.88	5186.16
449.24	5083.88
449.61	4999.38
449.97	4869.02
450.33	4781.48
450.70	4632.86
451.06	4510.68
451.43	4402.08
451.79	4313.14
452.15	4213.43
452.52	4137.83
452.88	4079.55
453.24	3992.25
453.61	3920.16
453.97	3848.78
454.34	3769.90
454.70	3699.68
455.06	3632.98
455.43	3535.15
455.79	3427.71
456.15	3341.11
456.52	3254.51
456.88	3165.81
457.24	3094.66
457.61	3048.08
457.97	2990.74
458.33	2922.39
458.70	2857.33
459.06	2799.75
459.42	2727.43
459.79	2660.96
460.15	2585.82
460.51	2528.48
460.88	2473.01
461.24	2412.16
461.60	2352.24
461.96	2309.17
462.33	2264.23
462.69	2215.55
463.05	2193.08
463.42	2164.53
463.78	2131.06
464.14	2106.48
464.50	2079.10
464.87	2040.24
465.23	1997.18
465.59	1972.14
465.95	1936.79
466.32	1904.03
466.68	1883.20
467.04	1871.96
467.40	1848.79
467.77	1840.83
468.13	1831.94
468.49	1798.00
468.85	1788.17
469.22	1763.59
469.58	1730.36
469.94	1691.97
470.30	1683.08
470.66	1666.93
471.03	1647.97
471.39	1642.12
471.75	1636.74
472.11	1624.33
472.47	1597.88
472.84	1596.48
473.20	1579.39
473.56	1570.27
473.92	1549.43
474.28	1552.71
474.65	1529.77
475.01	1508.48
475.37	1498.18
475.73	1495.60
476.09	1473.13
476.45	1470.09
476.81	1471.03
477.18	1460.96
477.54	1457.92
477.90	1445.05
478.26	1427.02
478.62	1411.81
478.98	1406.66
479.34	1407.83
479.71	1406.43
480.07	1415.79
480.43	1418.36
480.79	1407.60
481.15	1385.13
481.51	1385.83
481.87	1373.66
482.23	1354.70
482.59	1341.36
482.96	1332.94
483.32	1319.59
483.68	1306.49
484.04	1301.10
484.40	1304.38
484.76	1306.96
485.12	1303.91
485.48	1302.27
485.84	1305.32
486.20	1304.38
486.56	1299.23
486.92	1292.91
487.28	1290.10
487.64	1279.80
488.00	1271.14
488.37	1255.70
488.73	1244.46
489.09	1233.93
489.45	1223.63
489.81	1221.53
490.17	1225.27
490.53	1229.25
490.89	1227.38
491.25	1232.06
491.61	1229.02
491.97	1221.06
492.33	1209.82
492.69	1206.55
493.05	1205.84
493.41	1191.80
493.77	1186.42
494.13	1180.10
494.49	1175.65
494.85	1168.86
495.21	1177.99
495.57	1174.25
495.93	1178.46
496.29	1178.93
496.64	1177.29
497.00	1167.46
497.36	1174.01
497.72	1164.65
498.08	1157.63
498.44	1150.14
498.80	1146.63
499.16	1138.44
499.52	1137.73
499.88	1142.42
500.24	1147.80
500.60	1144.76
500.96	1128.37
501.32	1135.16
501.68	1126.50
502.03	1116.67
502.39	1114.56
502.75	1127.20
503.11	1117.84
503.47	1117.37
503.83	1121.82
504.19	1122.75
504.55	1120.18
504.91	1127.67
505.26	1136.80
505.62	1132.12
505.98	1130.01
506.34	1131.18
506.70	1127.67
507.06	1127.90
507.42	1149.91
507.78	1155.99
508.13	1157.63
508.49	1162.08
508.85	1153.65
509.21	1133.76
509.57	1119.01
509.93	1119.24
510.28	1112.22
510.64	1113.63
511.00	1112.22
511.36	1127.44
511.72	1125.10
512.07	1115.73
512.43	1109.41
512.79	1105.20
513.15	1100.29
513.51	1093.26
513.86	1111.29
514.22	1112.46
514.58	1109.41
514.94	1110.35
515.30	1108.95
515.65	1103.33
516.01	1101.92
516.37	1106.61
516.73	1100.52
517.08	1099.35
517.44	1091.63
517.80	1098.88
518.16	1095.14
518.51	1101.46
518.87	1107.54
519.23	1115.27
519.59	1104.03
519.94	1111.05
520.30	1109.18
520.66	1107.07
521.01	1098.65
521.37	1097.24
521.73	1093.26
522.09	1089.05
522.44	1091.39
522.80	1092.33
523.16	1097.01
523.51	1102.39
523.87	1105.67
524.23	1108.48
524.58	1108.71
524.94	1102.39
525.30	1099.35
525.65	1091.39
526.01	1090.69
526.37	1083.90
526.72	1086.01
527.08	1082.73
527.44	1097.01
527.79	1085.54
528.15	1086.71
528.51	1087.65
528.86	1096.31
529.22	1086.71
529.58	1091.63
529.93	1094.90
530.29	1097.71
530.65	1085.31
531.00	1082.97
531.36	1079.92
531.71	1085.07
532.07	1090.92
532.43	1101.46
532.78	1100.29
533.14	1097.95
533.49	1087.88
533.85	1084.84
534.21	1072.90
534.56	1075.24
534.92	1086.24
535.27	1090.46
535.63	1087.65
535.98	1093.73
536.34	1087.18
536.69	1077.11
537.05	1077.11
537.41	1074.77
537.76	1066.58
538.12	1076.65
538.47	1083.90
538.83	1089.99
539.18	1081.33
539.54	1090.92
539.89	1091.16
540.25	1079.92
540.60	1071.50
540.96	1078.75
541.31	1072.67
541.67	1071.73
542.02	1084.37
542.38	1087.88
542.73	1097.01
543.09	1093.50
543.44	1086.01
543.80	1090.22
544.15	1086.94
544.51	1084.37
544.86	1090.46
545.22	1093.26
545.57	1084.14
545.93	1091.86
546.28	1089.05
546.64	1082.03
546.99	1088.35
547.35	1081.56
547.70	1074.54
548.05	1075.94
548.41	1078.99
548.76	1069.39
549.12	1083.43
549.47	1091.63
549.83	1091.86
550.18	1095.14
550.53	1101.69
550.89	1097.01
551.24	1087.41
551.60	1079.69
551.95	1079.46
552.30	1079.69
552.66	1076.88
553.01	1082.97
553.37	1095.60
553.72	1093.97
554.07	1089.75
554.43	1091.16
554.78	1090.92
555.13	1090.69
555.49	1093.50
555.84	1101.92
556.19	1100.75
556.55	1100.99
556.90	1086.48
557.26	1081.56
557.61	1078.75
557.96	1075.71
558.32	1068.22
558.67	1070.56
559.02	1072.90
559.37	1074.07
559.73	1076.18
560.08	1095.37
560.43	1093.97
560.79	1089.99
561.14	1085.77
561.49	1088.12
561.85	1080.63
562.20	1084.60
562.55	1097.71
562.90	1107.07
563.26	1109.18
563.61	1098.41
563.96	1102.86
564.32	1104.73
564.67	1095.14
565.02	1090.92
565.37	1100.05
565.73	1104.73
566.08	1092.56
566.43	1096.31
566.78	1101.22
567.14	1103.09
567.49	1098.65
567.84	1091.16
568.19	1091.16
568.54	1084.14
568.90	1079.46
569.25	1082.03
569.60	1080.16
569.95	1081.33
570.31	1083.67
570.66	1079.46
571.01	1080.16
571.36	1089.29
571.71	1077.35
572.06	1079.46
572.42	1084.14
572.77	1082.26
573.12	1077.58
573.47	1087.41
573.82	1085.07
574.18	1073.14
574.53	1069.39
574.88	1074.54
575.23	1073.84
575.58	1070.80
575.93	1079.92
576.28	1078.75
576.64	1080.39
576.99	1083.90
577.34	1094.20
577.69	1097.48
578.04	1095.37
578.39	1102.39
578.74	1102.63
579.09	1100.29
579.44	1089.99
579.80	1091.16
580.15	1093.03
580.50	1091.86
580.85	1086.01
581.20	1090.22
581.55	1089.29
581.90	1076.65
582.25	1078.28
582.60	1086.01
582.95	1093.26
583.30	1097.24
583.65	1107.07
584.00	1104.26
584.35	1095.14
584.71	1094.67
585.06	1082.97
585.41	1069.86
585.76	1065.18
586.11	1064.24
586.46	1062.37
586.81	1078.52
587.16	1087.41
587.51	1096.07
587.86	1098.18
588.21	1098.41
588.56	1095.84
588.91	1087.65
589.26	1074.31
589.61	1074.77
589.96	1078.05
590.31	1079.69
590.66	1086.01
591.01	1099.35
591.36	1097.01
591.71	1093.97
592.06	1084.37
592.41	1084.84
592.76	1082.73
593.10	1094.20
593.45	1087.88
593.80	1091.16
594.15	1091.16
594.50	1083.20
594.85	1076.41
595.20	1079.92
595.55	1086.71
595.90	1092.80
596.25	1094.67
596.60	1093.73
596.95	1088.58
597.30	1082.73
597.64	1132.82
597.99	1143.59
598.34	1143.82
598.69	1147.33
599.04	1150.14
599.39	1087.65
599.74	1071.26
600.09	1074.77
600.44	1078.05
600.78	1076.88
601.13	1077.82
601.48	1090.92
601.83	1085.77
602.18	1078.99
602.53	1090.92
602.88	1092.56
603.22	1087.18
603.57	1085.31
603.92	1084.84
604.27	1075.24
604.62	1076.88
604.97	1078.28
605.31	1089.99
605.66	1095.37
606.01	1083.67
606.36	1084.14
606.71	1078.75
607.05	1070.33
607.40	1080.86
607.75	1088.12
608.10	1088.82
608.44	1090.22
608.79	1084.84
609.14	1079.22
609.49	1071.26
609.84	1063.77
610.18	1068.45
610.53	1082.97
610.88	1080.86
611.23	1085.07
611.57	1093.97
611.92	1082.50
612.27	1079.22
612.62	1086.24
612.96	1090.22
613.31	1090.46
613.66	1107.07
614.00	1103.80
614.35	1096.78
614.70	1092.09
615.05	1086.94
615.39	1079.22
615.74	1077.11
616.09	1077.82
616.43	1089.52
616.78	1092.09
617.13	1086.48
617.47	1089.75
617.82	1088.12
618.17	1082.26
618.51	1088.35
618.86	1096.07
619.21	1085.77
619.55	1087.65
619.90	1087.65
620.25	1085.31
620.59	1087.65
620.94	1082.03
621.29	1073.60
621.63	1071.97
621.98	1073.14
622.32	1066.82
622.67	1080.86
623.02	1084.60
623.36	1092.56
623.71	1076.88
624.05	1082.26
624.40	1082.26
624.75	1080.39
625.09	1089.29
625.44	1096.31
625.78	1095.14
626.13	1089.05
626.48	1095.37
626.82	1082.50
627.17	1092.33
627.51	1089.29
627.86	1095.84
628.20	1086.01
628.55	1087.88
628.89	1083.67
629.24	1083.43
629.58	1088.82
629.93	1086.24
630.28	1083.90
630.62	1088.82
630.97	1104.03
631.31	1107.54
631.66	1111.52
632.00	1112.92
632.35	1108.48
632.69	1089.75
633.04	1081.33
633.38	1104.03
633.73	1104.26
634.07	1103.56
634.42	1108.01
634.76	1107.31
635.11	1099.12
635.45	1092.56
635.79	1085.77
636.14	1097.48
636.48	1100.52
636.83	1101.22
637.17	1106.61
637.52	1119.01
637.86	1117.37
638.21	1110.82
638.55	1102.86
638.89	1095.14
639.24	1099.35
639.58	1091.63
639.93	1085.77
640.27	1085.77
640.61	1092.80
640.96	1079.92
641.30	1064.01
641.65	1073.37
641.99	1069.86
642.33	1061.43
642.68	1057.92
643.02	1076.18
643.37	1075.01
643.71	1075.24
644.05	1081.09
644.40	1083.20
644.74	1075.48
645.08	1077.11
645.43	1066.58
645.77	1072.43
646.11	1075.71
646.46	1074.54
646.80	1074.07
647.14	1089.29
647.49	1087.65
647.83	1082.73
648.17	1077.11
648.52	1078.28
648.86	1070.56
649.20	1066.82
649.55	1069.62
649.89	1080.86
650.23	1078.28
650.57	1087.65
650.92	1091.63
651.26	1087.88
651.60	1087.88
651.95	1093.50
652.29	1084.84
652.63	1073.37
652.97	1078.05
653.32	1084.84
653.66	1081.56
654.00	1089.75
654.34	1096.31
654.69	1107.31
655.03	1097.71
655.37	1088.35
655.71	1086.24
656.05	1085.07
656.40	1072.20
656.74	1074.07
657.08	1077.11
657.42	1074.31
657.76	1073.60
658.11	1085.07
658.45	1087.65
658.79	1082.03
659.13	1083.20
659.47	1089.05
659.82	1079.46
660.16	1078.52
660.50	1083.43
660.84	1079.92
661.18	1075.24
661.52	1085.07
661.87	1081.56
662.21	1084.60
662.55	1084.37
662.89	1086.24
663.23	1084.14
663.57	1092.09
663.91	1090.69
664.25	1098.18
664.60	1103.80
664.94	1097.01
665.28	1088.35
665.62	1091.16
665.96	1089.29
666.30	1079.92
666.64	1089.99
666.98	1083.67
667.32	1080.63
667.66	1077.82
668.01	1080.16
668.35	1072.67
668.69	1077.58
669.03	1065.88
669.37	1061.43
669.71	1057.92
670.05	1056.75
670.39	1058.16
670.73	1082.03
671.07	1079.69
671.41	1086.71
671.75	1084.60
672.09	1100.05
672.43	1089.29
672.77	1089.75
673.11	1090.22
673.45	1096.31
673.79	1082.73
674.13	1087.88
674.47	1088.58
674.81	1079.69
675.15	1073.37
675.49	1070.80
675.83	1060.50
676.17	1069.62
676.51	1069.39
676.85	1071.03
677.19	1071.26
677.53	1072.43
677.87	1069.62
678.21	1071.97
678.55	1075.94
678.89	1077.35
679.23	1077.82
679.57	1079.69
679.90	1077.82
680.24	1075.48
680.58	1072.43
680.92	1077.11
681.26	1066.35
681.60	1067.52
681.94	1064.24
682.28	1071.50
682.62	1064.94
682.96	1073.84
683.29	1086.94
683.63	1091.16
683.97	1089.05
684.31	1092.80
684.65	1092.33
684.99	1081.80
685.33	1084.84
685.67	1080.39
686.00	1087.18
686.34	1090.22
686.68	1098.65
687.02	1087.65
687.36	1087.65
687.70	1080.86
688.03	1081.33
688.37	1079.22
688.71	1083.67
689.05	1085.54
689.39	1089.99
689.72	1090.92
690.06	1087.88
690.40	1095.37
690.74	1092.80
691.08	1085.54
691.41	1088.82
691.75	1085.54
692.09	1071.73
692.43	1075.24
692.76	1075.48
693.10	1074.54
693.44	1080.39
693.78	1087.41
694.11	1085.07
694.45	1099.82
694.79	1091.16
695.13	1083.20
695.46	1086.48
695.80	1085.54
696.14	1083.90
696.48	1078.99
696.81	1089.75
697.15	1089.75
697.49	1087.88
697.82	1080.63
698.16	1085.54
698.50	1085.77
698.83	1076.65
699.17	1092.80
699.51	1093.50
699.84	1093.73
700.18	1085.54
700.52	1095.14
700.85	1080.16
701.19	1079.46
701.53	1079.92
701.86	1077.11
702.20	1069.86
702.54	1068.92
702.87	1065.18
703.21	1059.33
703.55	1070.09
703.88	1072.90
704.22	1081.56
704.55	1082.50
704.89	1089.05
705.23	1084.14
705.56	1088.82
705.90	1085.07
706.23	1085.31
706.57	1089.05
706.91	1082.26
707.24	1071.26
707.58	1072.90
707.91	1074.07
708.25	1080.39
708.58	1089.29
708.92	1097.01
709.26	1092.09
709.59	1101.46
709.93	1094.90
710.26	1088.82
710.60	1091.16
710.93	1086.01
711.27	1076.65
711.60	1068.45
711.94	1064.94
712.27	1067.28
712.61	1074.54
712.94	1076.18
713.28	1082.03
713.61	1097.24
713.95	1083.43
714.28	1079.69
714.62	1082.03
714.95	1079.46
715.29	1064.24
715.62	1082.97
715.96	1092.33
716.29	1088.35
716.63	1088.58
716.96	1099.58
717.29	1086.71
717.63	1078.75
717.96	1081.33
718.30	1080.63
718.63	1074.77
718.97	1073.60
719.30	1074.07
719.63	1066.82
719.97	1067.28
720.30	1073.14
720.64	1084.84
720.97	1085.07
721.30	1087.65
721.64	1088.12
721.97	1075.71
722.31	1066.35
722.64	1067.99
722.97	1062.84
723.31	1055.58
723.64	1067.75
723.97	1059.33
724.31	1054.88
724.64	1067.28
724.98	1072.43
725.31	1060.03
725.64	1067.52
725.98	1072.20
726.31	1067.05
726.64	1063.77
726.97	1072.67
727.31	1074.54
727.64	1069.16
727.97	1068.22
728.31	1073.14
728.64	1072.90
728.97	1076.18
729.31	1083.20
729.64	1074.07
729.97	1079.92
730.30	1071.97
730.64	1075.71
730.97	1059.09
731.30	1076.18
731.63	1076.18
731.97	1079.46
732.30	1064.24
732.63	1084.60
732.96	1071.97
733.30	1063.07
733.63	1071.03
733.96	1069.16
734.29	1063.77
734.63	1074.31
734.96	1080.39
735.29	1076.18
735.62	1085.07
735.95	1088.12
736.29	1088.58
736.62	1082.03
736.95	1083.67
737.28	1087.41
737.61	1087.18
737.94	1088.12
738.28	1088.82
738.61	1080.86
738.94	1077.82
739.27	1073.84
739.60	1062.37
739.93	1058.16
740.27	1060.73
740.60	1066.58
740.93	1064.94
741.26	1066.58
741.59	1074.77
741.92	1078.75
742.25	1079.22
742.58	1078.05
742.91	1085.07
743.25	1087.41
743.58	1077.35
743.91	1071.26
744.24	1078.52
744.57	1072.67
744.90	1070.09
745.23	1073.37
745.56	1071.97
745.89	1064.01
746.22	1068.92
746.55	1068.92
746.88	1074.31
747.21	1071.73
747.54	1075.01
747.87	1072.43
748.20	1067.75
748.53	1071.50
748.87	1067.05
749.20	1073.84
749.53	1077.58
749.86	1084.60
750.19	1076.88
750.52	1087.18
750.85	1087.41
751.18	1085.77
751.51	1077.82
751.84	1078.52
752.16	1088.82
752.49	1075.94
752.82	1074.54
753.15	1080.63
753.48	1086.01
753.81	1074.07
754.14	1077.58
754.47	1078.99
754.80	1068.22
755.13	1072.90
755.46	1073.37
755.79	1072.90
756.12	1075.01
756.45	1086.48
756.78	1073.60
757.11	1077.82
757.43	1085.54
757.76	1084.60
758.09	1087.41
758.42	1097.24
758.75	1090.22
759.08	1079.46
759.41	1078.52
759.74	1079.22
760.07	1069.86
760.39	1072.20
760.72	1085.77
761.05	1086.94
761.38	1082.73
761.71	1087.18
762.04	1086.71
762.36	1079.22
762.69	1086.01
763.02	1085.31
763.35	1082.26
763.68	1080.63
764.01	1082.26
764.33	1071.03
764.66	1075.71
764.99	1077.82
765.32	1080.16
765.65	1068.45
765.97	1068.92
766.30	1066.82
