SpectraSuite Data File
++++++++++++++++++++++++++++++++++++
Date: Mon Aug 26 10:24:33 PDT 2019
User: corrico
Dark Spectrum Present: No
Reference Spectrum Present: No
Number of Sampled Component Spectra: 1
Spectrometers: USB2+H06089
Integration Time (usec): 10000 (USB2+H06089)
Spectra Averaged: 2 (USB2+H06089)
Boxcar Smoothing: 2 (USB2+H06089)
Correct for Electrical Dark: No (USB2+H06089)
Strobe/Lamp Enabled: No (USB2+H06089)
Correct for Detector Non-linearity: No (USB2+H06089)
Correct for Stray Light: No (USB2+H06089)
Number of Pixels in Processed Spectrum: 2048
>>>>>Begin Processed Spectral Data<<<<<
339.70	1026.32
340.07	1026.32
340.45	1001.98
340.82	979.28
341.19	958.45
341.57	940.19
341.94	923.81
342.31	916.09
342.69	915.38
343.06	905.09
343.43	900.17
343.81	902.51
344.18	902.98
344.55	901.34
344.93	905.55
345.30	918.66
345.67	919.13
346.04	927.55
346.42	941.13
346.79	953.77
347.16	957.98
347.54	968.51
347.91	971.09
348.28	975.54
348.65	988.41
349.03	990.28
349.40	1012.28
349.77	1022.81
350.14	1032.64
350.52	1039.67
350.89	1043.41
351.26	1034.75
351.63	1038.50
352.01	1040.60
352.38	1043.64
352.75	1061.43
353.12	1071.26
353.50	1075.94
353.87	1080.16
354.24	1082.50
354.61	1076.88
354.98	1085.77
355.36	1092.33
355.73	1096.78
356.10	1099.12
356.47	1098.41
356.84	1089.29
357.22	1083.90
357.59	1084.14
357.96	1074.77
358.33	1069.62
358.70	1067.75
359.08	1065.18
359.45	1068.92
359.82	1071.73
360.19	1077.11
360.56	1082.26
360.94	1087.41
361.31	1086.71
361.68	1091.39
362.05	1089.75
362.42	1080.86
362.79	1084.14
363.16	1079.92
363.54	1068.22
363.91	1063.31
364.28	1068.92
364.65	1062.37
365.02	1052.54
365.39	1073.37
365.76	1078.99
366.14	1079.69
366.51	1076.88
366.88	1087.88
367.25	1068.92
367.62	1069.62
367.99	1073.14
368.36	1084.37
368.73	1080.16
369.10	1090.69
369.48	1078.28
369.85	1073.37
370.22	1066.58
370.59	1065.18
370.96	1059.33
371.33	1062.84
371.70	1056.52
372.07	1062.14
372.44	1069.62
372.81	1071.50
373.18	1083.67
373.55	1088.12
373.93	1089.52
374.30	1081.56
374.67	1085.54
375.04	1076.41
375.41	1077.35
375.78	1068.45
376.15	1075.71
376.52	1071.03
376.89	1066.82
377.26	1065.41
377.63	1068.92
378.00	1067.28
378.37	1073.14
378.74	1080.39
379.11	1083.67
379.48	1078.75
379.85	1084.60
380.22	1083.67
380.59	1086.71
380.96	1081.33
381.33	1090.22
381.70	1081.80
382.07	1078.52
382.44	1071.03
382.81	1084.14
383.18	1075.01
383.55	1077.82
383.92	1073.84
384.29	1078.05
384.66	1074.31
385.03	1075.94
385.40	1067.75
385.77	1075.94
386.14	1070.33
386.51	1067.52
386.88	1073.84
387.25	1069.86
387.62	1055.82
387.99	1060.73
388.36	1063.07
388.73	1065.65
389.10	1069.86
389.46	1070.09
389.83	1069.16
390.20	1065.65
390.57	1062.60
390.94	1067.05
391.31	1074.54
391.68	1075.94
392.05	1080.86
392.42	1070.33
392.79	1073.60
393.16	1092.33
393.53	1096.07
393.89	1088.12
394.26	1090.69
394.63	1080.63
395.00	1072.20
395.37	1078.99
395.74	1073.14
396.11	1081.09
396.48	1090.22
396.84	1092.56
397.21	1088.58
397.58	1097.95
397.95	1095.84
398.32	1104.73
398.69	1098.88
399.06	1095.14
399.42	1092.80
399.79	1089.75
400.16	1085.54
400.53	1092.09
400.90	1095.60
401.27	1117.61
401.64	1113.86
402.00	1114.80
402.37	1113.39
402.74	1118.07
403.11	1100.29
403.48	1110.82
403.84	1110.58
404.21	1101.92
404.58	1114.10
404.95	1122.75
405.32	1126.27
405.68	1127.44
406.05	1135.39
406.42	1116.20
406.79	1118.31
407.16	1120.88
407.52	1131.88
407.89	1143.12
408.26	1158.10
408.63	1159.50
408.99	1170.74
409.36	1176.12
409.73	1191.33
410.10	1202.57
410.47	1218.01
410.83	1221.99
411.20	1225.74
411.57	1222.23
411.94	1228.08
412.30	1231.82
412.67	1252.65
413.04	1279.10
413.40	1301.57
413.77	1331.06
414.14	1346.51
414.51	1358.68
414.87	1369.21
415.24	1390.51
415.61	1394.26
415.97	1436.85
416.34	1464.24
416.71	1491.62
417.08	1519.24
417.44	1561.84
417.81	1587.12
418.18	1620.12
418.54	1651.48
418.91	1680.50
419.28	1707.65
419.64	1743.93
420.01	1790.74
420.38	1839.19
420.74	1908.47
421.11	1966.05
421.48	2025.73
421.84	2087.99
422.21	2144.16
422.58	2205.02
422.94	2265.64
423.31	2332.81
423.68	2395.54
424.04	2481.67
424.41	2549.08
424.77	2650.19
425.14	2734.21
425.51	2838.13
425.87	2939.01
426.24	3019.29
426.61	3102.38
426.97	3237.43
427.34	3344.86
427.70	3461.89
428.07	3607.94
428.44	3767.56
428.80	3900.50
429.17	4034.62
429.53	4168.03
429.90	4338.42
430.27	4468.08
430.63	4579.26
431.00	4720.63
431.36	4884.46
431.73	5003.36
432.09	5162.52
432.46	5356.32
432.83	5548.94
433.19	5718.16
433.56	5934.66
433.92	6142.97
434.29	6305.87
434.65	6482.82
435.02	6627.46
435.38	6751.04
435.75	6832.49
436.11	6974.80
436.48	7069.82
436.84	7195.74
437.21	7288.19
437.57	7394.69
437.94	7481.05
438.30	7535.59
438.67	7555.72
439.03	7600.89
439.40	7621.72
439.76	7568.12
440.13	7521.78
440.49	7488.08
440.86	7373.62
441.22	7279.77
441.59	7184.27
441.95	7120.61
442.32	6988.37
442.68	6886.79
443.05	6775.15
443.41	6643.38
443.78	6484.22
444.14	6366.96
444.51	6214.12
444.87	6098.03
445.24	5987.79
445.60	5874.98
445.96	5732.44
446.33	5615.41
446.69	5449.24
447.06	5284.23
447.42	5100.26
447.79	4957.49
448.15	4847.48
448.51	4744.50
448.88	4664.22
449.24	4585.34
449.61	4537.60
449.97	4462.23
450.33	4360.42
450.70	4259.07
451.06	4169.66
451.43	4037.19
451.79	3928.82
452.15	3860.95
452.52	3796.58
452.88	3750.01
453.24	3705.54
453.61	3649.83
453.97	3569.79
454.34	3488.33
454.70	3410.16
455.06	3327.77
455.43	3252.88
455.79	3182.19
456.15	3111.98
456.52	3023.27
456.88	2969.20
457.24	2899.46
457.61	2827.60
457.97	2761.60
458.33	2702.38
458.70	2641.06
459.06	2569.44
459.42	2512.80
459.79	2453.58
460.15	2409.58
460.51	2361.83
460.88	2320.41
461.24	2279.92
461.60	2244.81
461.96	2205.02
462.33	2154.70
462.69	2119.36
463.05	2091.74
463.42	2056.16
463.78	2020.35
464.14	1978.22
464.50	1942.88
464.87	1915.26
465.23	1889.28
465.59	1871.02
465.95	1855.34
466.32	1837.32
466.68	1810.40
467.04	1789.11
467.40	1772.96
467.77	1760.55
468.13	1749.08
468.49	1734.10
468.85	1719.36
469.22	1693.38
469.58	1677.23
469.94	1655.23
470.30	1637.91
470.66	1623.40
471.03	1614.27
471.39	1597.88
471.75	1582.67
472.11	1556.22
472.47	1544.75
472.84	1528.14
473.20	1508.01
473.56	1505.43
473.92	1503.56
474.28	1481.33
474.65	1476.18
475.01	1478.28
475.37	1459.79
475.73	1444.81
476.09	1438.73
476.45	1432.64
476.81	1415.56
477.18	1407.60
477.54	1402.21
477.90	1400.34
478.26	1387.24
478.62	1377.87
478.98	1370.85
479.34	1364.53
479.71	1361.49
480.07	1357.04
480.43	1357.74
480.79	1361.02
481.15	1343.47
481.51	1327.32
481.87	1309.06
482.23	1294.32
482.59	1282.15
482.96	1288.23
483.32	1297.83
483.68	1301.57
484.04	1302.27
484.40	1293.38
484.76	1285.66
485.12	1267.87
485.48	1258.27
485.84	1246.57
486.20	1245.87
486.56	1238.61
486.92	1233.70
487.28	1227.14
487.64	1228.55
488.00	1227.38
488.37	1229.02
488.73	1238.38
489.09	1246.10
489.45	1250.31
489.81	1249.38
490.17	1251.02
490.53	1228.78
490.89	1221.53
491.25	1212.63
491.61	1197.89
491.97	1185.01
492.33	1196.95
492.69	1186.89
493.05	1189.69
493.41	1181.27
493.77	1184.55
494.13	1173.31
494.49	1169.80
494.85	1152.01
495.21	1155.76
495.57	1157.39
495.93	1163.25
496.29	1166.05
496.64	1165.12
497.00	1161.84
497.36	1155.29
497.72	1142.18
498.08	1137.03
498.44	1145.93
498.80	1136.10
499.16	1127.67
499.52	1130.24
499.88	1127.20
500.24	1129.07
500.60	1146.63
500.96	1152.25
501.32	1155.76
501.68	1155.52
502.03	1148.03
502.39	1134.22
502.75	1124.86
503.11	1110.82
503.47	1105.44
503.83	1104.26
504.19	1108.48
504.55	1107.07
504.91	1115.97
505.26	1108.71
505.62	1111.05
505.98	1109.65
506.34	1104.26
506.70	1112.92
507.06	1128.84
507.42	1123.46
507.78	1119.24
508.13	1128.61
508.49	1116.44
508.85	1110.58
509.21	1101.92
509.57	1106.84
509.93	1109.18
510.28	1108.24
510.64	1112.92
511.00	1125.33
511.36	1121.12
511.72	1113.86
512.07	1121.35
512.43	1109.41
512.79	1093.26
513.15	1096.07
513.51	1100.75
513.86	1094.20
514.22	1099.82
514.58	1112.69
514.94	1109.18
515.30	1111.29
515.65	1111.52
516.01	1107.31
516.37	1107.07
516.73	1115.27
517.08	1107.54
517.44	1101.69
517.80	1106.84
518.16	1103.33
518.51	1097.48
518.87	1101.69
519.23	1104.26
519.59	1095.37
519.94	1094.43
520.30	1084.84
520.66	1086.24
521.01	1084.84
521.37	1091.86
521.73	1099.12
522.09	1099.12
522.44	1090.46
522.80	1088.12
523.16	1082.03
523.51	1083.43
523.87	1093.26
524.23	1093.73
524.58	1093.03
524.94	1102.39
525.30	1086.01
525.65	1086.71
526.01	1096.54
526.37	1097.48
526.72	1094.67
527.08	1101.22
527.44	1103.56
527.79	1088.58
528.15	1086.71
528.51	1081.09
528.86	1084.84
529.22	1073.84
529.58	1073.14
529.93	1077.82
530.29	1081.09
530.65	1069.16
531.00	1067.52
531.36	1083.20
531.71	1072.67
532.07	1071.73
532.43	1088.35
532.78	1095.60
533.14	1089.99
533.49	1097.48
533.85	1094.20
534.21	1080.86
534.56	1074.31
534.92	1070.33
535.27	1071.97
535.63	1083.43
535.98	1087.18
536.34	1091.39
536.69	1091.86
537.05	1090.92
537.41	1077.35
537.76	1080.86
538.12	1084.37
538.47	1084.60
538.83	1088.58
539.18	1092.56
539.54	1099.12
539.89	1096.78
540.25	1106.37
540.60	1107.07
540.96	1110.12
541.31	1102.16
541.67	1097.48
542.02	1085.31
542.38	1085.31
542.73	1077.11
543.09	1071.97
543.44	1074.77
543.80	1080.63
544.15	1085.07
544.51	1095.60
544.86	1110.35
545.22	1110.12
545.57	1105.44
545.93	1094.67
546.28	1091.63
546.64	1078.52
546.99	1077.58
547.35	1080.86
547.70	1089.29
548.05	1088.35
548.41	1088.58
548.76	1089.05
549.12	1092.33
549.47	1088.35
549.83	1087.18
550.18	1087.41
550.53	1081.56
550.89	1076.88
551.24	1074.31
551.60	1090.22
551.95	1080.86
552.30	1091.16
552.66	1094.43
553.01	1094.20
553.37	1083.90
553.72	1089.29
554.07	1082.26
554.43	1086.24
554.78	1098.41
555.13	1102.86
555.49	1106.14
555.84	1113.16
556.19	1103.09
556.55	1091.86
556.90	1078.99
557.26	1079.92
557.61	1077.82
557.96	1085.31
558.32	1085.07
558.67	1090.92
559.02	1095.84
559.37	1092.33
559.73	1088.58
560.08	1091.63
560.43	1086.01
560.79	1080.39
561.14	1079.22
561.49	1075.48
561.85	1076.65
562.20	1083.20
562.55	1082.26
562.90	1083.43
563.26	1086.01
563.61	1082.26
563.96	1077.11
564.32	1074.31
564.67	1076.65
565.02	1074.54
565.37	1072.43
565.73	1077.82
566.08	1077.58
566.43	1079.92
566.78	1077.58
567.14	1077.35
567.49	1063.07
567.84	1063.07
568.19	1057.22
568.54	1065.65
568.90	1068.45
569.25	1075.71
569.60	1081.09
569.95	1082.97
570.31	1078.28
570.66	1078.99
571.01	1078.28
571.36	1077.82
571.71	1077.82
572.06	1084.84
572.42	1091.39
572.77	1091.63
573.12	1088.58
573.47	1087.88
573.82	1081.09
574.18	1075.24
574.53	1082.26
574.88	1085.77
575.23	1088.12
575.58	1084.37
575.93	1085.07
576.28	1089.99
576.64	1090.69
576.99	1086.71
577.34	1094.67
577.69	1093.50
578.04	1085.07
578.39	1079.46
578.74	1080.63
579.09	1072.67
579.44	1072.20
579.80	1080.86
580.15	1075.94
580.50	1086.01
580.85	1098.18
581.20	1094.43
581.55	1084.14
581.90	1096.07
582.25	1077.11
582.60	1065.88
582.95	1059.79
583.30	1063.07
583.65	1066.35
584.00	1075.94
584.35	1079.92
584.71	1091.63
585.06	1088.12
585.41	1080.63
585.76	1081.09
586.11	1088.58
586.46	1091.86
586.81	1096.78
587.16	1093.50
587.51	1088.58
587.86	1086.48
588.21	1076.18
588.56	1088.58
588.91	1094.90
589.26	1113.63
589.61	1104.26
589.96	1109.88
590.31	1097.48
590.66	1095.84
591.01	1089.99
591.36	1084.60
591.71	1079.92
592.06	1089.05
592.41	1090.22
592.76	1083.20
593.10	1098.18
593.45	1105.90
593.80	1096.78
594.15	1093.73
594.50	1093.73
594.85	1088.82
595.20	1088.12
595.55	1078.75
595.90	1084.37
596.25	1090.92
596.60	1096.54
596.95	1090.69
597.30	1106.61
597.64	1148.50
597.99	1151.78
598.34	1155.29
598.69	1163.25
599.04	1168.86
599.39	1125.33
599.74	1111.99
600.09	1102.39
600.44	1094.67
600.78	1081.80
601.13	1075.24
601.48	1078.75
601.83	1073.60
602.18	1079.46
602.53	1077.35
602.88	1078.99
603.22	1070.09
603.57	1069.39
603.92	1061.67
604.27	1057.22
604.62	1067.75
604.97	1072.20
605.31	1064.24
605.66	1065.88
606.01	1063.31
606.36	1055.58
606.71	1057.45
607.05	1066.58
607.40	1069.86
607.75	1082.50
608.10	1082.03
608.44	1087.41
608.79	1092.56
609.14	1091.86
609.49	1088.12
609.84	1095.84
610.18	1093.50
610.53	1104.73
610.88	1110.12
611.23	1118.07
611.57	1114.10
611.92	1116.67
612.27	1102.39
612.62	1102.63
612.96	1095.37
613.31	1091.63
613.66	1092.56
614.00	1089.75
614.35	1078.05
614.70	1075.71
615.05	1075.24
615.39	1072.43
615.74	1076.65
616.09	1085.54
616.43	1087.18
616.78	1094.20
617.13	1093.73
617.47	1091.63
617.82	1086.24
618.17	1088.82
618.51	1082.97
618.86	1080.16
619.21	1091.86
619.55	1096.78
619.90	1097.48
620.25	1098.88
620.59	1092.80
620.94	1075.71
621.29	1071.26
621.63	1071.73
621.98	1073.84
622.32	1085.54
622.67	1091.39
623.02	1089.75
623.36	1089.52
623.71	1078.05
624.05	1074.54
624.40	1072.20
624.75	1087.88
625.09	1092.80
625.44	1092.56
625.78	1087.65
626.13	1087.88
626.48	1074.54
626.82	1074.54
627.17	1082.03
627.51	1089.52
627.86	1100.52
628.20	1111.29
628.55	1097.71
628.89	1094.67
629.24	1086.71
629.58	1078.52
629.93	1069.86
630.28	1085.54
630.62	1088.58
630.97	1094.43
631.31	1102.16
631.66	1104.03
632.00	1089.75
632.35	1096.78
632.69	1101.92
633.04	1097.71
633.38	1089.29
633.73	1084.60
634.07	1084.60
634.42	1077.35
634.76	1080.39
635.11	1084.60
635.45	1097.24
635.79	1091.39
636.14	1092.09
636.48	1093.26
636.83	1095.60
637.17	1092.33
637.52	1089.29
637.86	1090.92
638.21	1078.99
638.55	1075.71
638.89	1076.18
639.24	1083.90
639.58	1082.97
639.93	1098.88
640.27	1106.84
640.61	1105.44
640.96	1092.56
641.30	1091.16
641.65	1074.31
641.99	1071.26
642.33	1074.31
642.68	1084.14
643.02	1088.12
643.37	1098.41
643.71	1099.35
644.05	1096.07
644.40	1095.84
644.74	1085.07
645.08	1081.09
645.43	1072.67
645.77	1074.07
646.11	1073.14
646.46	1079.69
646.80	1081.80
647.14	1086.71
647.49	1085.77
647.83	1086.48
648.17	1087.41
648.52	1083.90
648.86	1087.18
649.20	1085.77
649.55	1077.11
649.89	1072.20
650.23	1078.75
650.57	1066.82
650.92	1069.39
651.26	1075.94
651.60	1080.39
651.95	1074.54
652.29	1080.39
652.63	1075.94
652.97	1076.41
653.32	1076.18
653.66	1085.77
654.00	1081.56
654.34	1081.56
654.69	1087.65
655.03	1097.71
655.37	1084.14
655.71	1090.22
656.05	1090.22
656.40	1079.92
656.74	1071.73
657.08	1078.05
657.42	1077.35
657.76	1083.90
658.11	1093.50
658.45	1094.20
658.79	1097.01
659.13	1096.78
659.47	1096.54
659.82	1090.69
660.16	1084.37
660.50	1079.69
660.84	1081.56
661.18	1077.35
661.52	1077.11
661.87	1086.24
662.21	1077.35
662.55	1075.24
662.89	1077.82
663.23	1077.11
663.57	1076.41
663.91	1087.88
664.25	1082.73
664.60	1071.03
664.94	1071.97
665.28	1064.01
665.62	1063.77
665.96	1064.71
666.30	1081.80
666.64	1077.35
666.98	1088.12
667.32	1086.48
667.66	1099.35
668.01	1090.92
668.35	1092.09
668.69	1083.90
669.03	1082.50
669.37	1077.58
669.71	1084.60
670.05	1088.58
670.39	1094.43
670.73	1103.09
671.07	1094.90
671.41	1086.24
671.75	1088.12
672.09	1078.75
672.43	1062.84
672.77	1067.28
673.11	1064.71
673.45	1067.28
673.79	1074.31
674.13	1087.41
674.47	1089.99
674.81	1102.16
675.15	1096.54
675.49	1082.26
675.83	1080.86
676.17	1082.50
676.51	1071.50
676.85	1063.77
677.19	1073.84
677.53	1065.18
677.87	1064.71
678.21	1060.26
678.55	1074.77
678.89	1078.28
679.23	1078.99
679.57	1081.56
679.90	1093.26
680.24	1086.94
680.58	1081.80
680.92	1089.05
681.26	1079.69
681.60	1073.37
681.94	1063.31
682.28	1065.65
682.62	1055.35
682.96	1054.41
683.29	1064.24
683.63	1071.03
683.97	1073.84
684.31	1087.41
684.65	1091.63
684.99	1082.50
685.33	1092.80
685.67	1085.31
686.00	1075.94
686.34	1078.05
686.68	1070.80
687.02	1065.18
687.36	1063.54
687.70	1070.09
688.03	1067.52
688.37	1076.41
688.71	1070.09
689.05	1067.52
689.39	1071.97
689.72	1074.07
690.06	1075.94
690.40	1077.82
690.74	1088.35
691.08	1075.94
691.41	1072.67
691.75	1077.35
692.09	1082.03
692.43	1083.90
692.76	1098.18
693.10	1097.71
693.44	1104.73
693.78	1109.88
694.11	1109.41
694.45	1098.65
694.79	1096.07
695.13	1085.07
695.46	1077.82
695.80	1077.82
696.14	1077.11
696.48	1092.33
696.81	1090.46
697.15	1086.24
697.49	1083.67
697.82	1089.29
698.16	1076.65
698.50	1072.67
698.83	1077.82
699.17	1074.07
699.51	1069.39
699.84	1071.03
700.18	1067.52
700.52	1072.67
700.85	1079.92
701.19	1085.54
701.53	1086.94
701.86	1093.97
702.20	1092.33
702.54	1086.48
702.87	1080.86
703.21	1086.24
703.55	1088.35
703.88	1085.07
704.22	1091.16
704.55	1093.26
704.89	1096.31
705.23	1100.29
705.56	1104.03
705.90	1107.31
706.23	1101.69
706.57	1094.90
706.91	1079.46
707.24	1074.77
707.58	1071.97
707.91	1074.07
708.25	1071.97
708.58	1088.82
708.92	1086.01
709.26	1088.12
709.59	1090.92
709.93	1097.01
710.26	1085.07
710.60	1092.56
710.93	1091.16
711.27	1087.18
711.60	1078.99
711.94	1084.37
712.27	1078.28
712.61	1080.39
712.94	1088.82
713.28	1088.82
713.61	1085.54
713.95	1081.09
714.28	1068.45
714.62	1058.86
714.95	1061.43
715.29	1060.26
715.62	1066.82
715.96	1077.58
716.29	1075.48
716.63	1076.18
716.96	1074.54
717.29	1072.67
717.63	1067.05
717.96	1065.41
718.30	1064.71
718.63	1071.97
718.97	1078.28
719.30	1082.97
719.63	1087.88
719.97	1082.97
720.30	1086.24
720.64	1078.52
720.97	1081.56
721.30	1095.14
721.64	1099.82
721.97	1095.60
722.31	1098.88
722.64	1089.75
722.97	1083.67
723.31	1087.88
723.64	1082.03
723.97	1078.28
724.31	1093.26
724.64	1093.97
724.98	1093.26
725.31	1097.24
725.64	1104.97
725.98	1090.92
726.31	1079.46
726.64	1080.16
726.97	1086.94
727.31	1082.97
727.64	1091.39
727.97	1096.31
728.31	1091.39
728.64	1080.39
728.97	1082.73
729.31	1072.43
729.64	1072.20
729.97	1062.37
730.30	1075.48
730.64	1086.24
730.97	1087.41
731.30	1095.14
731.63	1106.37
731.97	1104.03
732.30	1091.16
732.63	1095.84
732.96	1090.46
733.30	1091.16
733.63	1080.86
733.96	1085.31
734.29	1086.94
734.63	1086.24
734.96	1078.52
735.29	1081.56
735.62	1083.20
735.95	1080.16
736.29	1078.99
736.62	1081.09
736.95	1089.29
737.28	1079.46
737.61	1083.20
737.94	1087.18
738.28	1094.20
738.61	1081.80
738.94	1082.03
739.27	1075.48
739.60	1075.24
739.93	1074.77
740.27	1079.46
740.60	1077.82
740.93	1076.41
741.26	1069.39
741.59	1064.48
741.92	1067.75
742.25	1071.97
742.58	1081.09
742.91	1089.99
743.25	1093.50
743.58	1083.43
743.91	1079.69
744.24	1075.01
744.57	1072.43
744.90	1071.73
745.23	1082.97
745.56	1086.01
745.89	1087.65
746.22	1089.75
746.55	1088.58
746.88	1073.14
747.21	1071.97
747.54	1075.48
747.87	1077.11
748.20	1082.97
748.53	1095.60
748.87	1095.37
749.20	1086.71
749.53	1080.63
749.86	1080.63
750.19	1081.80
750.52	1082.26
750.85	1091.16
751.18	1094.67
751.51	1082.03
751.84	1078.99
752.16	1082.26
752.49	1073.37
752.82	1070.33
753.15	1078.75
753.48	1076.88
753.81	1075.01
754.14	1074.07
754.47	1069.16
754.80	1071.50
755.13	1073.60
755.46	1074.77
755.79	1082.73
756.12	1097.01
756.45	1095.37
756.78	1095.60
757.11	1096.78
757.43	1096.54
757.76	1095.37
758.09	1090.92
758.42	1090.22
758.75	1081.09
759.08	1077.58
759.41	1064.71
759.74	1064.71
760.07	1074.31
760.39	1083.43
760.72	1083.90
761.05	1099.82
761.38	1104.26
761.71	1097.95
762.04	1090.69
762.36	1082.03
762.69	1073.60
763.02	1071.03
763.35	1071.26
763.68	1072.90
764.01	1083.43
764.33	1079.46
764.66	1075.94
764.99	1072.67
765.32	1077.82
765.65	1074.54
765.97	1075.24
766.30	1090.69
