SpectraSuite Data File
++++++++++++++++++++++++++++++++++++
Date: Mon Aug 26 10:24:32 PDT 2019
User: corrico
Dark Spectrum Present: No
Reference Spectrum Present: No
Number of Sampled Component Spectra: 1
Spectrometers: USB2+H06089
Integration Time (usec): 10000 (USB2+H06089)
Spectra Averaged: 2 (USB2+H06089)
Boxcar Smoothing: 2 (USB2+H06089)
Correct for Electrical Dark: No (USB2+H06089)
Strobe/Lamp Enabled: No (USB2+H06089)
Correct for Detector Non-linearity: No (USB2+H06089)
Correct for Stray Light: No (USB2+H06089)
Number of Pixels in Processed Spectrum: 2048
>>>>>Begin Processed Spectral Data<<<<<
339.70	1016.96
340.07	1016.96
340.45	994.96
340.82	975.30
341.19	952.13
341.57	931.77
341.94	915.62
342.31	904.85
342.69	895.02
343.06	895.02
343.43	882.85
343.81	880.51
344.18	888.47
344.55	893.62
344.93	892.91
345.30	907.66
345.67	918.19
346.04	918.89
346.42	936.68
346.79	949.09
347.16	955.41
347.54	959.15
347.91	968.05
348.28	972.02
348.65	983.49
349.03	992.15
349.40	997.30
349.77	1001.75
350.14	1018.60
350.52	1027.96
350.89	1034.28
351.26	1048.09
351.63	1064.71
352.01	1068.45
352.38	1062.84
352.75	1067.05
353.12	1064.71
353.50	1068.45
353.87	1066.11
354.24	1076.88
354.61	1092.80
354.98	1098.65
355.36	1104.50
355.73	1100.99
356.10	1095.14
356.47	1096.07
356.84	1098.18
357.22	1087.18
357.59	1082.26
357.96	1085.77
358.33	1071.26
358.70	1060.26
359.08	1065.41
359.45	1074.31
359.82	1078.75
360.19	1083.67
360.56	1101.46
360.94	1103.56
361.31	1096.78
361.68	1090.46
362.05	1080.16
362.42	1072.67
362.79	1064.24
363.16	1061.43
363.54	1058.86
363.91	1066.58
364.28	1056.05
364.65	1067.28
365.02	1078.99
365.39	1087.18
365.76	1084.84
366.14	1092.33
366.51	1083.67
366.88	1076.41
367.25	1069.62
367.62	1074.77
367.99	1075.71
368.36	1074.07
368.73	1076.18
369.10	1076.88
369.48	1071.73
369.85	1058.62
370.22	1060.73
370.59	1058.16
370.96	1066.58
371.33	1060.96
371.70	1076.88
372.07	1078.99
372.44	1070.56
372.81	1056.05
373.18	1058.16
373.55	1059.33
373.93	1057.69
374.30	1061.90
374.67	1063.77
375.04	1069.16
375.41	1058.86
375.78	1053.94
376.15	1051.37
376.52	1049.73
376.89	1042.01
377.26	1041.07
377.63	1054.41
378.00	1064.01
378.37	1067.52
378.74	1075.94
379.11	1082.73
379.48	1070.56
379.85	1059.79
380.22	1069.16
380.59	1066.35
380.96	1062.84
381.33	1075.01
381.70	1079.22
382.07	1074.31
382.44	1067.99
382.81	1067.52
383.18	1067.75
383.55	1076.41
383.92	1077.11
384.29	1076.88
384.66	1076.18
385.03	1061.43
385.40	1064.94
385.77	1053.01
386.14	1049.26
386.51	1047.39
386.88	1051.60
387.25	1051.37
387.62	1064.24
387.99	1072.90
388.36	1083.20
388.73	1084.37
389.10	1075.24
389.46	1071.26
389.83	1078.75
390.20	1081.33
390.57	1083.20
390.94	1078.99
391.31	1075.94
391.68	1068.22
392.05	1055.58
392.42	1052.30
392.79	1063.77
393.16	1062.60
393.53	1071.73
393.89	1078.75
394.26	1077.58
394.63	1067.99
395.00	1075.24
395.37	1070.56
395.74	1059.56
396.11	1064.71
396.48	1061.20
396.84	1055.82
397.21	1047.16
397.58	1061.20
397.95	1061.67
398.32	1064.94
398.69	1064.94
399.06	1069.86
399.42	1067.52
399.79	1067.52
400.16	1075.71
400.53	1077.58
400.90	1082.73
401.27	1075.71
401.64	1077.82
402.00	1078.05
402.37	1079.22
402.74	1072.43
403.11	1085.07
403.48	1082.73
403.84	1078.99
404.21	1075.01
404.58	1077.82
404.95	1062.84
405.32	1065.88
405.68	1065.88
406.05	1069.16
406.42	1078.75
406.79	1093.26
407.16	1085.07
407.52	1082.26
407.89	1090.69
408.26	1079.92
408.63	1076.65
408.99	1087.41
409.36	1098.65
409.73	1097.95
410.10	1112.22
410.47	1116.67
410.83	1118.78
411.20	1122.75
411.57	1123.69
411.94	1127.44
412.30	1131.88
412.67	1134.93
413.04	1118.78
413.40	1123.46
413.77	1114.80
414.14	1114.33
414.51	1116.67
414.87	1138.20
415.24	1149.20
415.61	1164.88
415.97	1166.29
416.34	1179.16
416.71	1181.74
417.08	1185.01
417.44	1193.44
417.81	1206.31
418.18	1211.93
418.54	1223.63
418.91	1237.44
419.28	1246.57
419.64	1263.89
420.01	1278.17
420.38	1300.87
420.74	1318.89
421.11	1335.98
421.48	1351.19
421.84	1358.92
422.21	1378.34
422.58	1378.11
422.94	1389.11
423.31	1402.68
423.68	1430.07
424.04	1439.43
424.41	1475.01
424.77	1486.47
425.14	1511.28
425.51	1528.37
425.87	1563.01
426.24	1595.54
426.61	1645.16
426.97	1678.87
427.34	1703.44
427.70	1731.29
428.07	1749.32
428.44	1790.98
428.80	1828.43
429.17	1876.88
429.53	1911.28
429.90	1970.26
430.27	2000.22
430.63	2035.56
431.00	2073.71
431.36	2114.67
431.73	2137.14
432.09	2168.51
432.46	2218.36
432.83	2260.49
433.19	2297.94
433.56	2336.09
433.92	2361.83
434.29	2385.24
434.65	2421.28
435.02	2459.43
435.38	2513.03
435.75	2564.29
436.11	2623.51
436.48	2670.32
436.84	2703.32
437.21	2729.53
437.57	2758.79
437.94	2763.00
438.30	2757.39
438.67	2756.92
439.03	2752.47
439.40	2729.53
439.76	2716.19
440.13	2709.17
440.49	2706.13
440.86	2684.83
441.22	2673.13
441.59	2644.34
441.95	2612.97
442.32	2583.72
442.68	2561.95
443.05	2553.76
443.41	2519.12
443.78	2493.61
444.14	2453.12
444.51	2405.84
444.87	2350.37
445.24	2318.53
445.60	2300.75
445.96	2276.17
446.33	2259.32
446.69	2230.06
447.06	2208.06
447.42	2167.10
447.79	2112.57
448.15	2075.12
448.51	2048.20
448.88	2015.44
449.24	1990.16
449.61	1980.33
449.97	1947.33
450.33	1920.41
450.70	1901.69
451.06	1878.51
451.43	1853.70
451.79	1832.17
452.15	1813.45
452.52	1795.89
452.88	1769.45
453.24	1752.83
453.61	1743.23
453.97	1721.70
454.34	1695.72
454.70	1678.87
455.06	1660.84
455.43	1628.31
455.79	1610.99
456.15	1593.90
456.52	1578.93
456.88	1565.82
457.24	1557.63
457.61	1543.35
457.97	1516.20
458.33	1489.28
458.70	1464.94
459.06	1446.69
459.42	1432.64
459.79	1437.32
460.15	1431.47
460.51	1432.88
460.88	1422.58
461.24	1417.43
461.60	1398.24
461.96	1388.87
462.33	1367.81
462.69	1367.58
463.05	1354.70
463.42	1352.13
463.78	1342.30
464.14	1334.11
464.50	1323.34
464.87	1313.98
465.23	1298.53
465.59	1294.55
465.95	1297.83
466.32	1291.27
466.68	1278.63
467.04	1273.49
467.40	1262.02
467.77	1243.53
468.13	1238.61
468.49	1244.70
468.85	1239.31
469.22	1241.42
469.58	1246.34
469.94	1239.55
470.30	1225.04
470.66	1228.55
471.03	1219.89
471.39	1213.10
471.75	1206.08
472.11	1209.35
472.47	1200.93
472.84	1194.84
473.20	1195.08
473.56	1196.95
473.92	1192.74
474.28	1190.40
474.65	1189.69
475.01	1184.08
475.37	1179.86
475.73	1180.80
476.09	1178.46
476.45	1150.61
476.81	1149.20
477.18	1144.05
477.54	1137.97
477.90	1148.97
478.26	1173.08
478.62	1165.59
478.98	1174.95
479.34	1179.63
479.71	1171.20
480.07	1165.12
480.43	1166.99
480.79	1157.86
481.15	1154.59
481.51	1149.91
481.87	1160.44
482.23	1155.05
482.59	1154.82
482.96	1147.56
483.32	1142.65
483.68	1132.59
484.04	1140.31
484.40	1139.14
484.76	1137.03
485.12	1130.24
485.48	1128.14
485.84	1126.27
486.20	1123.46
486.56	1122.75
486.92	1128.14
487.28	1128.61
487.64	1116.90
488.00	1112.92
488.37	1115.27
488.73	1116.67
489.09	1112.69
489.45	1114.33
489.81	1119.95
490.17	1122.52
490.53	1115.73
490.89	1117.14
491.25	1124.39
491.61	1114.10
491.97	1103.56
492.33	1107.54
492.69	1106.61
493.05	1102.16
493.41	1100.75
493.77	1108.95
494.13	1113.63
494.49	1109.88
494.85	1094.90
495.21	1096.07
495.57	1088.82
495.93	1084.37
496.29	1094.43
496.64	1110.82
497.00	1106.14
497.36	1102.63
497.72	1095.84
498.08	1079.46
498.44	1078.99
498.80	1088.35
499.16	1100.99
499.52	1108.48
499.88	1126.97
500.24	1120.41
500.60	1118.54
500.96	1117.37
501.32	1110.35
501.68	1094.43
502.03	1099.35
502.39	1101.46
502.75	1097.24
503.11	1100.99
503.47	1111.52
503.83	1107.07
504.19	1103.33
504.55	1102.16
504.91	1105.90
505.26	1102.86
505.62	1098.88
505.98	1100.52
506.34	1105.44
506.70	1101.22
507.06	1098.18
507.42	1104.97
507.78	1105.20
508.13	1093.97
508.49	1085.07
508.85	1087.88
509.21	1096.54
509.57	1094.90
509.93	1099.35
510.28	1102.86
510.64	1099.12
511.00	1094.67
511.36	1088.35
511.72	1086.94
512.07	1089.05
512.43	1096.54
512.79	1095.84
513.15	1088.82
513.51	1091.86
513.86	1085.07
514.22	1073.14
514.58	1069.86
514.94	1075.94
515.30	1067.99
515.65	1085.77
516.01	1096.54
516.37	1090.92
516.73	1099.35
517.08	1100.75
517.44	1090.22
517.80	1082.03
518.16	1084.14
518.51	1081.80
518.87	1082.50
519.23	1080.39
519.59	1080.63
519.94	1088.35
520.30	1078.05
520.66	1083.67
521.01	1080.39
521.37	1088.12
521.73	1088.82
522.09	1093.73
522.44	1093.26
522.80	1098.18
523.16	1090.22
523.51	1082.03
523.87	1082.26
524.23	1079.69
524.58	1075.94
524.94	1074.77
525.30	1080.16
525.65	1078.05
526.01	1079.46
526.37	1087.18
526.72	1090.69
527.08	1086.01
527.44	1095.60
527.79	1090.46
528.15	1094.67
528.51	1094.90
528.86	1087.18
529.22	1085.07
529.58	1088.35
529.93	1085.77
530.29	1077.11
530.65	1077.82
531.00	1078.52
531.36	1073.60
531.71	1067.75
532.07	1071.50
532.43	1075.24
532.78	1067.52
533.14	1070.80
533.49	1079.22
533.85	1096.07
534.21	1097.95
534.56	1095.37
534.92	1101.22
535.27	1091.39
535.63	1073.37
535.98	1077.82
536.34	1083.20
536.69	1080.86
537.05	1081.56
537.41	1098.18
537.76	1093.50
538.12	1096.78
538.47	1094.43
538.83	1088.82
539.18	1075.94
539.54	1066.11
539.89	1057.92
540.25	1058.62
540.60	1064.71
540.96	1063.77
541.31	1072.90
541.67	1083.67
542.02	1081.09
542.38	1071.03
542.73	1077.82
543.09	1084.14
543.44	1082.26
543.80	1096.54
544.15	1101.92
544.51	1093.50
544.86	1099.12
545.22	1104.50
545.57	1094.43
545.93	1096.07
546.28	1097.95
546.64	1088.82
546.99	1072.43
547.35	1068.69
547.70	1075.01
548.05	1079.69
548.41	1078.99
548.76	1088.12
549.12	1090.92
549.47	1084.60
549.83	1081.09
550.18	1074.31
550.53	1084.60
550.89	1083.67
551.24	1085.54
551.60	1077.82
551.95	1083.43
552.30	1067.28
552.66	1069.39
553.01	1065.41
553.37	1073.37
553.72	1081.56
554.07	1088.82
554.43	1088.35
554.78	1089.75
555.13	1088.12
555.49	1080.86
555.84	1082.97
556.19	1089.05
556.55	1091.39
556.90	1096.54
557.26	1086.71
557.61	1078.75
557.96	1068.92
558.32	1065.65
558.67	1053.24
559.02	1054.41
559.37	1059.09
559.73	1066.58
560.08	1062.37
560.43	1076.18
560.79	1086.24
561.14	1086.24
561.49	1085.77
561.85	1094.43
562.20	1091.16
562.55	1087.41
562.90	1084.60
563.26	1084.60
563.61	1077.58
563.96	1073.37
564.32	1077.58
564.67	1083.20
565.02	1080.86
565.37	1088.82
565.73	1087.88
566.08	1083.67
566.43	1079.92
566.78	1077.11
567.14	1075.48
567.49	1081.56
567.84	1074.07
568.19	1066.58
568.54	1067.75
568.90	1069.86
569.25	1071.97
569.60	1084.37
569.95	1082.97
570.31	1081.33
570.66	1077.58
571.01	1079.92
571.36	1076.88
571.71	1090.22
572.06	1087.18
572.42	1096.31
572.77	1087.88
573.12	1087.65
573.47	1093.50
573.82	1097.24
574.18	1090.46
574.53	1097.24
574.88	1100.75
575.23	1079.69
575.58	1071.97
575.93	1065.18
576.28	1049.26
576.64	1048.09
576.99	1054.41
577.34	1051.84
577.69	1055.35
578.04	1059.79
578.39	1058.16
578.74	1058.86
579.09	1070.56
579.44	1079.46
579.80	1074.07
580.15	1069.39
580.50	1077.58
580.85	1071.26
581.20	1064.71
581.55	1082.26
581.90	1078.75
582.25	1078.99
582.60	1093.73
582.95	1091.86
583.30	1099.82
583.65	1114.80
584.00	1106.61
584.35	1095.84
584.71	1090.92
585.06	1075.94
585.41	1072.43
585.76	1071.03
586.11	1075.71
586.46	1090.46
586.81	1084.14
587.16	1085.07
587.51	1089.29
587.86	1086.24
588.21	1080.39
588.56	1084.84
588.91	1078.52
589.26	1090.92
589.61	1096.54
589.96	1090.92
590.31	1093.26
590.66	1090.92
591.01	1080.16
591.36	1075.94
591.71	1082.97
592.06	1086.01
592.41	1089.29
592.76	1091.63
593.10	1087.88
593.45	1078.05
593.80	1070.56
594.15	1071.03
594.50	1068.45
594.85	1065.88
595.20	1080.63
595.55	1081.56
595.90	1087.41
596.25	1091.86
596.60	1100.75
596.95	1105.20
597.30	1112.69
597.64	1148.97
597.99	1149.91
598.34	1144.99
598.69	1131.41
599.04	1126.27
599.39	1087.65
599.74	1080.86
600.09	1074.07
600.44	1069.16
600.78	1071.26
601.13	1064.94
601.48	1065.65
601.83	1076.18
602.18	1091.16
602.53	1093.03
602.88	1101.22
603.22	1094.43
603.57	1085.54
603.92	1076.18
604.27	1074.07
604.62	1069.62
604.97	1079.22
605.31	1091.86
605.66	1096.31
606.01	1094.90
606.36	1095.37
606.71	1089.05
607.05	1076.41
607.40	1069.16
607.75	1064.94
608.10	1064.01
608.44	1071.50
608.79	1082.03
609.14	1084.14
609.49	1097.71
609.84	1098.88
610.18	1097.01
610.53	1095.37
610.88	1093.03
611.23	1085.77
611.57	1083.43
611.92	1088.82
612.27	1088.58
612.62	1095.84
612.96	1098.88
613.31	1094.43
613.66	1083.43
614.00	1080.16
614.35	1081.56
614.70	1071.03
615.05	1079.46
615.39	1082.26
615.74	1076.18
616.09	1071.50
616.43	1079.46
616.78	1071.26
617.13	1073.60
617.47	1074.31
617.82	1077.82
618.17	1070.09
618.51	1078.05
618.86	1081.33
619.21	1085.07
619.55	1089.05
619.90	1096.07
620.25	1091.86
620.59	1086.94
620.94	1095.14
621.29	1082.26
621.63	1079.46
621.98	1081.80
622.32	1083.20
622.67	1080.16
623.02	1082.97
623.36	1074.07
623.71	1076.41
624.05	1078.28
624.40	1070.33
624.75	1069.39
625.09	1084.37
625.44	1078.05
625.78	1074.54
626.13	1073.14
626.48	1078.99
626.82	1072.67
627.17	1073.37
627.51	1072.43
627.86	1083.43
628.20	1073.60
628.55	1070.33
628.89	1069.62
629.24	1069.16
629.58	1066.58
629.93	1078.75
630.28	1074.07
630.62	1077.58
630.97	1086.94
631.31	1075.24
631.66	1066.35
632.00	1079.46
632.35	1078.28
632.69	1071.03
633.04	1073.84
633.38	1082.97
633.73	1076.88
634.07	1074.07
634.42	1075.94
634.76	1091.86
635.11	1086.71
635.45	1082.50
635.79	1085.31
636.14	1090.22
636.48	1075.94
636.83	1070.56
637.17	1072.67
637.52	1068.45
637.86	1057.69
638.21	1068.69
638.55	1079.22
638.89	1082.03
639.24	1100.29
639.58	1103.33
639.93	1097.24
640.27	1101.46
640.61	1104.50
640.96	1092.56
641.30	1086.24
641.65	1094.20
641.99	1085.31
642.33	1080.16
642.68	1078.52
643.02	1087.18
643.37	1078.75
643.71	1084.37
644.05	1087.18
644.40	1087.88
644.74	1080.86
645.08	1079.22
645.43	1081.09
645.77	1079.92
646.11	1078.05
646.46	1084.37
646.80	1089.29
647.14	1086.01
647.49	1091.63
647.83	1090.69
648.17	1098.41
648.52	1100.29
648.86	1100.99
649.20	1095.60
649.55	1094.67
649.89	1082.26
650.23	1075.01
650.57	1060.96
650.92	1057.92
651.26	1059.56
651.60	1061.43
651.95	1055.35
652.29	1067.28
652.63	1064.71
652.97	1068.69
653.32	1076.88
653.66	1075.94
654.00	1074.31
654.34	1090.92
654.69	1089.75
655.03	1075.94
655.37	1087.18
655.71	1088.58
656.05	1078.99
656.40	1069.86
656.74	1077.58
657.08	1070.80
657.42	1064.48
657.76	1064.01
658.11	1067.99
658.45	1069.39
658.79	1068.22
659.13	1070.33
659.47	1075.01
659.82	1073.60
660.16	1070.56
660.50	1076.18
660.84	1074.54
661.18	1076.88
661.52	1080.39
661.87	1076.41
662.21	1072.90
662.55	1079.69
662.89	1076.41
663.23	1077.11
663.57	1085.31
663.91	1083.43
664.25	1079.22
664.60	1078.99
664.94	1076.88
665.28	1072.43
665.62	1072.90
665.96	1074.31
666.30	1073.37
666.64	1072.90
666.98	1072.20
667.32	1081.09
667.66	1082.03
668.01	1081.56
668.35	1076.18
668.69	1074.07
669.03	1069.62
669.37	1071.97
669.71	1076.41
670.05	1077.11
670.39	1086.71
670.73	1078.05
671.07	1071.50
671.41	1059.56
671.75	1062.60
672.09	1069.16
672.43	1087.65
672.77	1092.80
673.11	1094.20
673.45	1095.14
673.79	1087.65
674.13	1087.88
674.47	1077.11
674.81	1084.84
675.15	1093.97
675.49	1090.92
675.83	1081.56
676.17	1079.92
676.51	1071.26
676.85	1071.26
677.19	1069.39
677.53	1069.86
677.87	1074.77
678.21	1083.20
678.55	1079.22
678.89	1084.60
679.23	1077.82
679.57	1076.41
679.90	1074.31
680.24	1062.37
680.58	1056.52
680.92	1048.33
681.26	1053.01
681.60	1054.65
681.94	1054.18
682.28	1051.84
682.62	1062.37
682.96	1061.90
683.29	1053.01
683.63	1061.90
683.97	1050.67
684.31	1055.58
684.65	1056.75
684.99	1063.07
685.33	1070.33
685.67	1086.24
686.00	1081.33
686.34	1077.35
686.68	1072.43
687.02	1063.31
687.36	1057.45
687.70	1063.54
688.03	1066.58
688.37	1060.73
688.71	1056.28
689.05	1060.50
689.39	1057.92
689.72	1056.52
690.06	1072.43
690.40	1079.92
690.74	1080.16
691.08	1081.80
691.41	1089.05
691.75	1082.03
692.09	1080.39
692.43	1078.52
692.76	1069.39
693.10	1065.18
693.44	1074.77
693.78	1071.50
694.11	1070.80
694.45	1074.31
694.79	1076.88
695.13	1073.60
695.46	1078.52
695.80	1079.46
696.14	1084.84
696.48	1087.18
696.81	1085.54
697.15	1083.43
697.49	1086.48
697.82	1081.80
698.16	1075.24
698.50	1071.73
698.83	1077.35
699.17	1073.14
699.51	1077.82
699.84	1078.05
700.18	1079.92
700.52	1077.82
700.85	1085.54
701.19	1082.73
701.53	1088.58
701.86	1082.97
702.20	1080.16
702.54	1066.82
702.87	1066.35
703.21	1052.54
703.55	1060.50
703.88	1062.60
704.22	1072.20
704.55	1074.07
704.89	1082.03
705.23	1076.41
705.56	1079.92
705.90	1082.26
706.23	1083.67
706.57	1082.03
706.91	1090.92
707.24	1091.16
707.58	1092.33
707.91	1087.65
708.25	1092.09
708.58	1086.01
708.92	1088.82
709.26	1087.18
709.59	1087.65
709.93	1083.43
710.26	1084.14
710.60	1080.86
710.93	1080.63
711.27	1083.20
711.60	1087.65
711.94	1088.12
712.27	1075.94
712.61	1075.71
712.94	1078.99
713.28	1082.97
713.61	1079.92
713.95	1085.77
714.28	1082.50
714.62	1077.82
714.95	1072.67
715.29	1081.56
715.62	1082.73
715.96	1089.99
716.29	1090.46
716.63	1084.37
716.96	1078.52
717.29	1082.26
717.63	1061.43
717.96	1059.33
718.30	1061.20
718.63	1066.11
718.97	1070.80
719.30	1080.39
719.63	1082.97
719.97	1079.46
720.30	1074.07
720.64	1065.18
720.97	1064.01
721.30	1069.86
721.64	1071.73
721.97	1066.35
722.31	1071.97
722.64	1072.67
722.97	1070.56
723.31	1076.18
723.64	1081.80
723.97	1075.94
724.31	1082.73
724.64	1078.99
724.98	1088.82
725.31	1086.24
725.64	1078.28
725.98	1076.65
726.31	1079.92
726.64	1064.94
726.97	1058.39
727.31	1063.07
727.64	1063.77
727.97	1066.11
728.31	1070.80
728.64	1078.05
728.97	1084.84
729.31	1072.90
729.64	1063.31
729.97	1059.56
730.30	1061.20
730.64	1068.45
730.97	1071.97
731.30	1072.67
731.63	1088.58
731.97	1082.50
732.30	1076.41
732.63	1085.54
732.96	1096.54
733.30	1084.14
733.63	1084.14
733.96	1070.33
734.29	1067.99
734.63	1062.60
734.96	1065.41
735.29	1059.79
735.62	1076.65
735.95	1077.82
736.29	1077.35
736.62	1075.01
736.95	1089.75
737.28	1088.58
737.61	1078.52
737.94	1078.99
738.28	1074.31
738.61	1071.50
738.94	1059.56
739.27	1065.65
739.60	1061.67
739.93	1059.09
740.27	1051.60
740.60	1058.16
740.93	1060.50
741.26	1070.80
741.59	1082.03
741.92	1080.39
742.25	1084.37
742.58	1092.80
742.91	1073.37
743.25	1074.54
743.58	1078.75
743.91	1085.07
744.24	1076.88
744.57	1086.94
744.90	1069.86
745.23	1074.07
745.56	1063.54
745.89	1062.84
746.22	1060.26
746.55	1075.71
746.88	1080.86
747.21	1087.65
747.54	1084.37
747.87	1096.78
748.20	1087.41
748.53	1087.88
748.87	1085.31
749.20	1100.52
749.53	1092.33
749.86	1085.31
750.19	1084.14
750.52	1078.05
750.85	1064.94
751.18	1057.69
751.51	1062.14
751.84	1061.67
752.16	1065.18
752.49	1069.39
752.82	1085.07
753.15	1094.90
753.48	1091.39
753.81	1091.86
754.14	1084.60
754.47	1077.82
754.80	1070.33
755.13	1059.79
755.46	1052.07
755.79	1057.22
756.12	1058.86
756.45	1065.65
756.78	1081.56
757.11	1101.46
757.43	1098.65
757.76	1103.80
758.09	1104.26
758.42	1094.90
758.75	1081.56
759.08	1080.16
759.41	1066.35
759.74	1067.05
760.07	1067.75
760.39	1059.79
760.72	1071.73
761.05	1078.28
761.38	1074.77
761.71	1077.82
762.04	1083.20
762.36	1074.07
762.69	1075.48
763.02	1080.63
763.35	1084.37
763.68	1080.63
764.01	1078.28
764.33	1069.86
764.66	1070.09
764.99	1062.60
765.32	1075.71
765.65	1077.58
765.97	1086.01
766.30	1083.20
