SpectraSuite Data File
++++++++++++++++++++++++++++++++++++
Date: Mon Aug 26 10:24:33 PDT 2019
User: corrico
Dark Spectrum Present: No
Reference Spectrum Present: No
Number of Sampled Component Spectra: 1
Spectrometers: USB2+H06089
Integration Time (usec): 10000 (USB2+H06089)
Spectra Averaged: 2 (USB2+H06089)
Boxcar Smoothing: 2 (USB2+H06089)
Correct for Electrical Dark: No (USB2+H06089)
Strobe/Lamp Enabled: No (USB2+H06089)
Correct for Detector Non-linearity: No (USB2+H06089)
Correct for Stray Light: No (USB2+H06089)
Number of Pixels in Processed Spectrum: 2048
>>>>>Begin Processed Spectral Data<<<<<
339.70	987.71
340.07	987.71
340.45	977.64
340.82	966.88
341.19	946.04
341.57	932.00
341.94	923.11
342.31	913.75
342.69	897.36
343.06	901.11
343.43	894.79
343.81	889.87
344.18	900.87
344.55	916.09
344.93	923.81
345.30	933.17
345.67	946.28
346.04	943.00
346.42	949.79
346.79	965.94
347.16	973.43
347.54	975.07
347.91	983.02
348.28	989.11
348.65	988.64
349.03	998.94
349.40	1001.05
349.77	1010.41
350.14	1023.75
350.52	1032.88
350.89	1045.52
351.26	1060.26
351.63	1061.90
352.01	1060.96
352.38	1061.20
352.75	1056.52
353.12	1059.56
353.50	1075.24
353.87	1073.84
354.24	1090.22
354.61	1089.99
354.98	1079.92
355.36	1070.80
355.73	1079.69
356.10	1062.84
356.47	1068.45
356.84	1077.82
357.22	1077.11
357.59	1067.99
357.96	1067.75
358.33	1067.52
358.70	1077.35
359.08	1075.24
359.45	1086.94
359.82	1093.03
360.19	1089.99
360.56	1075.01
360.94	1075.24
361.31	1071.26
361.68	1070.80
362.05	1078.99
362.42	1080.63
362.79	1082.50
363.16	1079.22
363.54	1077.58
363.91	1072.20
364.28	1072.90
364.65	1074.77
365.02	1071.73
365.39	1070.33
365.76	1072.67
366.14	1075.48
366.51	1072.90
366.88	1079.69
367.25	1079.92
367.62	1080.16
367.99	1087.41
368.36	1088.82
368.73	1082.26
369.10	1079.22
369.48	1069.62
369.85	1057.69
370.22	1057.92
370.59	1058.86
370.96	1053.24
371.33	1064.01
371.70	1070.80
372.07	1080.16
372.44	1086.71
372.81	1094.20
373.18	1076.88
373.55	1076.18
373.93	1065.65
374.30	1061.67
374.67	1060.50
375.04	1069.39
375.41	1067.05
375.78	1060.50
376.15	1067.99
376.52	1080.16
376.89	1084.14
377.26	1083.20
377.63	1096.78
378.00	1094.90
378.37	1097.01
378.74	1097.01
379.11	1089.52
379.48	1085.07
379.85	1079.69
380.22	1068.22
380.59	1065.41
380.96	1084.37
381.33	1088.12
381.70	1097.48
382.07	1103.80
382.44	1113.16
382.81	1106.61
383.18	1098.18
383.55	1085.54
383.92	1077.11
384.29	1068.92
384.66	1068.69
385.03	1080.39
385.40	1079.22
385.77	1084.84
386.14	1086.48
386.51	1087.41
386.88	1081.80
387.25	1078.05
387.62	1077.11
387.99	1081.09
388.36	1071.97
388.73	1079.92
389.10	1105.44
389.46	1102.86
389.83	1100.75
390.20	1097.95
390.57	1089.75
390.94	1076.41
391.31	1068.92
391.68	1069.16
392.05	1084.84
392.42	1081.09
392.79	1081.80
393.16	1090.22
393.53	1087.88
393.89	1085.31
394.26	1095.37
394.63	1096.07
395.00	1094.67
395.37	1099.82
395.74	1094.20
396.11	1082.50
396.48	1072.20
396.84	1081.80
397.21	1076.88
397.58	1078.52
397.95	1089.75
398.32	1104.03
398.69	1101.22
399.06	1106.37
399.42	1108.01
399.79	1102.86
400.16	1093.73
400.53	1091.86
400.90	1100.29
401.27	1099.12
401.64	1104.03
402.00	1114.80
402.37	1111.99
402.74	1104.50
403.11	1110.82
403.48	1110.12
403.84	1102.63
404.21	1116.67
404.58	1110.82
404.95	1114.33
405.32	1125.56
405.68	1127.20
406.05	1119.24
406.42	1129.31
406.79	1126.50
407.16	1127.20
407.52	1137.03
407.89	1146.16
408.26	1156.93
408.63	1168.16
408.99	1184.31
409.36	1200.23
409.73	1210.99
410.10	1216.84
410.47	1229.02
410.83	1233.23
411.20	1238.85
411.57	1253.59
411.94	1274.89
412.30	1289.40
412.67	1305.08
413.04	1318.19
413.40	1334.11
413.77	1356.57
414.14	1383.96
414.51	1403.15
414.87	1435.68
415.24	1465.41
415.61	1482.73
415.97	1514.33
416.34	1553.65
416.71	1599.52
417.08	1642.12
417.44	1697.12
417.81	1746.51
418.18	1781.38
418.54	1813.45
418.91	1853.24
419.28	1893.96
419.64	1940.54
420.01	2011.46
420.38	2090.33
420.74	2156.34
421.11	2225.38
421.48	2289.51
421.84	2355.28
422.21	2424.33
422.58	2507.88
422.94	2610.63
423.31	2700.98
423.68	2806.30
424.04	2895.71
424.41	3002.91
424.77	3102.61
425.14	3219.87
425.51	3324.03
425.87	3465.87
426.24	3588.28
426.61	3715.13
426.97	3889.50
427.34	4053.57
427.70	4212.26
428.07	4395.76
428.44	4593.07
428.80	4760.42
429.17	4933.15
429.53	5097.45
429.90	5290.55
430.27	5443.62
430.63	5618.69
431.00	5829.10
431.36	6079.54
431.73	6286.21
432.09	6543.20
432.46	6780.53
432.83	6995.39
433.19	7185.91
433.56	7463.50
433.92	7703.41
434.29	7953.84
434.65	8167.53
435.02	8380.29
435.38	8509.25
435.75	8635.17
436.11	8805.56
436.48	9015.28
436.84	9221.71
437.21	9383.91
437.57	9509.36
437.94	9628.26
438.30	9692.86
438.67	9704.10
439.03	9773.37
439.40	9841.95
439.76	9790.69
440.13	9775.72
440.49	9742.71
440.86	9628.50
441.22	9523.17
441.59	9413.87
441.95	9271.10
442.32	9080.34
442.68	8924.93
443.05	8773.73
443.41	8583.21
443.78	8343.31
444.14	8151.85
444.51	7924.35
444.87	7726.11
445.24	7550.57
445.60	7419.97
445.96	7260.81
446.33	7123.65
446.69	6890.77
447.06	6701.42
447.42	6528.92
447.79	6368.36
448.15	6224.89
448.51	6132.91
448.88	6003.01
449.24	5835.66
449.61	5723.78
449.97	5575.86
450.33	5421.62
450.70	5286.80
451.06	5191.78
451.43	5038.47
451.79	4931.27
452.15	4846.31
452.52	4768.61
452.88	4667.96
453.24	4596.81
453.61	4511.15
453.97	4404.65
454.34	4283.88
454.70	4205.94
455.06	4105.30
455.43	3984.76
455.79	3862.59
456.15	3770.13
456.52	3655.92
456.88	3555.51
457.24	3488.33
457.61	3419.76
457.97	3344.16
458.33	3264.58
458.70	3188.98
459.06	3093.25
459.42	3030.99
459.79	2973.42
460.15	2905.07
460.51	2838.37
460.88	2771.66
461.24	2684.36
461.60	2606.19
461.96	2548.84
462.33	2518.18
462.69	2482.37
463.05	2456.86
463.42	2413.56
463.78	2377.05
464.14	2317.36
464.50	2287.64
464.87	2238.96
465.23	2204.78
465.59	2160.55
465.95	2134.57
466.32	2083.08
466.68	2069.03
467.04	2039.31
467.40	2004.43
467.77	1973.31
468.13	1950.13
468.49	1914.79
468.85	1900.98
469.22	1887.64
469.58	1861.90
469.94	1860.02
470.30	1842.00
470.66	1818.60
471.03	1811.57
471.39	1817.19
471.75	1781.85
472.11	1757.98
472.47	1744.40
472.84	1714.91
473.20	1677.93
473.56	1660.84
473.92	1649.14
474.28	1627.14
474.65	1614.74
475.01	1599.05
475.37	1586.42
475.73	1564.65
476.09	1548.03
476.45	1526.50
476.81	1518.07
477.18	1500.05
477.54	1492.33
477.90	1495.37
478.26	1480.39
478.62	1471.96
478.98	1467.75
479.34	1464.24
479.71	1452.30
480.07	1459.09
480.43	1457.69
480.79	1455.11
481.15	1451.13
481.51	1437.09
481.87	1420.24
482.23	1403.39
482.59	1397.30
482.96	1389.81
483.32	1381.38
483.68	1382.55
484.04	1370.85
484.40	1364.53
484.76	1357.98
485.12	1353.77
485.48	1351.19
485.84	1348.62
486.20	1337.62
486.56	1328.25
486.92	1328.25
487.28	1318.89
487.64	1318.42
488.00	1316.08
488.37	1313.98
488.73	1304.85
489.09	1289.87
489.45	1281.21
489.81	1269.51
490.17	1258.74
490.53	1249.61
490.89	1255.70
491.25	1246.34
491.61	1250.55
491.97	1250.08
492.33	1254.06
492.69	1245.63
493.05	1236.97
493.41	1226.21
493.77	1217.08
494.13	1210.99
494.49	1207.01
494.85	1207.25
495.21	1209.82
495.57	1208.42
495.93	1199.52
496.29	1198.35
496.64	1197.18
497.00	1178.69
497.36	1166.99
497.72	1167.69
498.08	1164.42
498.44	1160.20
498.80	1171.44
499.16	1179.86
499.52	1181.27
499.88	1177.76
500.24	1176.35
500.60	1171.20
500.96	1153.42
501.32	1146.63
501.68	1143.35
502.03	1156.69
502.39	1158.10
502.75	1180.33
503.11	1178.69
503.47	1173.31
503.83	1154.12
504.19	1156.69
504.55	1145.69
504.91	1137.03
505.26	1137.27
505.62	1137.97
505.98	1119.48
506.34	1120.18
506.70	1119.95
507.06	1116.67
507.42	1114.10
507.78	1121.58
508.13	1115.97
508.49	1118.78
508.85	1122.99
509.21	1127.44
509.57	1134.46
509.93	1132.59
510.28	1127.90
510.64	1114.56
511.00	1109.18
511.36	1107.07
511.72	1109.18
512.07	1110.58
512.43	1118.31
512.79	1123.22
513.15	1107.54
513.51	1100.05
513.86	1088.12
514.22	1087.18
514.58	1078.75
514.94	1078.52
515.30	1082.50
515.65	1096.54
516.01	1093.97
516.37	1104.26
516.73	1121.35
517.08	1112.69
517.44	1104.73
517.80	1104.73
518.16	1101.22
518.51	1094.90
518.87	1104.50
519.23	1109.41
519.59	1118.54
519.94	1115.03
520.30	1115.27
520.66	1111.05
521.01	1110.58
521.37	1098.41
521.73	1097.71
522.09	1094.90
522.44	1102.39
522.80	1104.73
523.16	1110.58
523.51	1105.67
523.87	1099.82
524.23	1087.41
524.58	1078.99
524.94	1072.90
525.30	1082.73
525.65	1082.03
526.01	1086.24
526.37	1086.01
526.72	1080.86
527.08	1071.73
527.44	1071.73
527.79	1074.54
528.15	1076.88
528.51	1079.92
528.86	1084.14
529.22	1092.09
529.58	1083.67
529.93	1085.07
530.29	1097.01
530.65	1096.07
531.00	1089.52
531.36	1092.09
531.71	1089.52
532.07	1082.73
532.43	1080.39
532.78	1080.39
533.14	1086.94
533.49	1093.50
533.85	1094.67
534.21	1093.50
534.56	1095.60
534.92	1093.03
535.27	1096.54
535.63	1103.33
535.98	1114.80
536.34	1114.56
536.69	1119.24
537.05	1111.29
537.41	1104.73
537.76	1089.29
538.12	1091.63
538.47	1085.07
538.83	1089.29
539.18	1081.56
539.54	1083.43
539.89	1079.92
540.25	1092.56
540.60	1089.29
540.96	1095.60
541.31	1093.73
541.67	1103.80
542.02	1090.92
542.38	1098.88
542.73	1107.54
543.09	1118.54
543.44	1107.31
543.80	1111.29
544.15	1103.09
544.51	1098.18
544.86	1099.12
545.22	1100.05
545.57	1094.90
545.93	1090.22
546.28	1087.65
546.64	1073.14
546.99	1081.09
547.35	1086.94
547.70	1094.67
548.05	1099.35
548.41	1110.12
548.76	1111.05
549.12	1112.69
549.47	1112.46
549.83	1109.18
550.18	1110.58
550.53	1101.92
550.89	1103.80
551.24	1103.80
551.60	1110.35
551.95	1110.58
552.30	1109.18
552.66	1095.14
553.01	1081.09
553.37	1075.24
553.72	1074.77
554.07	1068.69
554.43	1076.18
554.78	1092.33
555.13	1091.16
555.49	1085.31
555.84	1087.65
556.19	1089.99
556.55	1086.94
556.90	1085.54
557.26	1090.69
557.61	1101.69
557.96	1108.48
558.32	1104.73
558.67	1111.99
559.02	1107.54
559.37	1092.80
559.73	1081.56
560.08	1081.33
560.43	1079.22
560.79	1077.58
561.14	1088.58
561.49	1100.29
561.85	1103.33
562.20	1096.54
562.55	1102.39
562.90	1094.43
563.26	1079.22
563.61	1069.16
563.96	1076.65
564.32	1074.54
564.67	1077.35
565.02	1078.99
565.37	1100.75
565.73	1095.84
566.08	1095.14
566.43	1101.46
566.78	1102.16
567.14	1085.77
567.49	1089.99
567.84	1082.97
568.19	1080.16
568.54	1081.33
568.90	1082.03
569.25	1078.99
569.60	1077.11
569.95	1078.05
570.31	1081.33
570.66	1075.94
571.01	1072.67
571.36	1077.58
571.71	1084.14
572.06	1084.37
572.42	1093.03
572.77	1095.14
573.12	1103.56
573.47	1096.78
573.82	1102.16
574.18	1098.65
574.53	1096.78
574.88	1082.26
575.23	1081.56
575.58	1074.54
575.93	1078.99
576.28	1079.22
576.64	1089.52
576.99	1088.58
577.34	1091.63
577.69	1092.09
578.04	1093.26
578.39	1083.43
578.74	1086.94
579.09	1081.80
579.44	1072.67
579.80	1063.07
580.15	1064.48
580.50	1053.01
580.85	1055.58
581.20	1064.01
581.55	1067.05
581.90	1083.90
582.25	1092.56
582.60	1089.05
582.95	1090.69
583.30	1093.97
583.65	1080.39
584.00	1085.07
584.35	1093.03
584.71	1087.88
585.06	1087.18
585.41	1098.88
585.76	1094.90
586.11	1098.41
586.46	1098.41
586.81	1101.92
587.16	1096.78
587.51	1094.43
587.86	1090.69
588.21	1091.39
588.56	1091.63
588.91	1091.63
589.26	1079.92
589.61	1070.33
589.96	1074.07
590.31	1076.18
590.66	1077.35
591.01	1084.14
591.36	1087.41
591.71	1084.84
592.06	1071.03
592.41	1067.05
592.76	1074.31
593.10	1075.94
593.45	1066.11
593.80	1082.73
594.15	1089.29
594.50	1087.41
594.85	1095.14
595.20	1105.67
595.55	1105.67
595.90	1102.63
596.25	1101.22
596.60	1096.07
596.95	1097.95
597.30	1091.16
597.64	1139.37
597.99	1141.71
598.34	1133.76
598.69	1132.12
599.04	1131.41
599.39	1071.73
599.74	1071.50
600.09	1076.18
600.44	1075.71
600.78	1091.39
601.13	1105.20
601.48	1108.24
601.83	1111.75
602.18	1105.20
602.53	1088.82
602.88	1082.26
603.22	1082.03
603.57	1074.07
603.92	1074.54
604.27	1068.92
604.62	1068.22
604.97	1071.97
605.31	1090.69
605.66	1090.92
606.01	1106.37
606.36	1108.24
606.71	1099.12
607.05	1086.01
607.40	1093.97
607.75	1090.46
608.10	1086.71
608.44	1086.24
608.79	1095.60
609.14	1099.12
609.49	1095.37
609.84	1097.01
610.18	1099.58
610.53	1086.71
610.88	1082.03
611.23	1082.03
611.57	1076.65
611.92	1071.26
612.27	1078.75
612.62	1076.18
612.96	1075.01
613.31	1089.75
613.66	1094.20
614.00	1078.52
614.35	1082.73
614.70	1088.35
615.05	1077.82
615.39	1080.16
615.74	1087.88
616.09	1082.50
616.43	1074.31
616.78	1082.26
617.13	1082.03
617.47	1080.39
617.82	1082.73
618.17	1085.77
618.51	1082.50
618.86	1078.75
619.21	1090.92
619.55	1097.48
619.90	1098.41
620.25	1091.16
620.59	1088.35
620.94	1081.09
621.29	1067.99
621.63	1076.41
621.98	1083.20
622.32	1082.73
622.67	1083.43
623.02	1092.09
623.36	1090.22
623.71	1091.86
624.05	1101.69
624.40	1092.80
624.75	1084.84
625.09	1076.88
625.44	1069.16
625.78	1060.50
626.13	1068.69
626.48	1073.84
626.82	1074.77
627.17	1076.18
627.51	1076.18
627.86	1073.14
628.20	1077.35
628.55	1069.86
628.89	1067.52
629.24	1079.69
629.58	1086.01
629.93	1089.29
630.28	1098.41
630.62	1101.92
630.97	1091.16
631.31	1082.97
631.66	1072.90
632.00	1060.73
632.35	1053.71
632.69	1060.73
633.04	1064.24
633.38	1066.11
633.73	1068.69
634.07	1075.01
634.42	1058.86
634.76	1057.22
635.11	1056.75
635.45	1067.52
635.79	1073.37
636.14	1093.50
636.48	1098.41
636.83	1105.44
637.17	1096.78
637.52	1093.50
637.86	1080.86
638.21	1082.73
638.55	1078.52
638.89	1080.16
639.24	1075.71
639.58	1071.73
639.93	1069.86
640.27	1070.56
640.61	1078.52
640.96	1078.75
641.30	1084.14
641.65	1091.86
641.99	1086.01
642.33	1083.90
642.68	1092.80
643.02	1098.88
643.37	1087.41
643.71	1087.18
644.05	1082.50
644.40	1083.20
644.74	1085.31
645.08	1092.33
645.43	1084.14
645.77	1073.60
646.11	1064.48
646.46	1061.90
646.80	1057.45
647.14	1061.67
647.49	1074.54
647.83	1077.58
648.17	1070.56
648.52	1070.56
648.86	1077.35
649.20	1076.41
649.55	1076.18
649.89	1085.31
650.23	1080.86
650.57	1081.80
650.92	1089.52
651.26	1092.56
651.60	1086.94
651.95	1089.52
652.29	1083.67
652.63	1082.03
652.97	1080.39
653.32	1078.75
653.66	1075.01
654.00	1077.58
654.34	1069.86
654.69	1067.75
655.03	1060.50
655.37	1059.09
655.71	1061.20
656.05	1064.48
656.40	1072.20
656.74	1079.22
657.08	1088.82
657.42	1095.37
657.76	1090.92
658.11	1079.69
658.45	1088.58
658.79	1086.71
659.13	1076.65
659.47	1079.46
659.82	1085.77
660.16	1079.46
660.50	1065.65
660.84	1074.54
661.18	1076.88
661.52	1083.90
661.87	1086.01
662.21	1095.37
662.55	1091.16
662.89	1099.35
663.23	1079.46
663.57	1075.71
663.91	1077.35
664.25	1084.84
664.60	1074.54
664.94	1086.48
665.28	1095.84
665.62	1097.71
665.96	1091.63
666.30	1095.14
666.64	1094.43
666.98	1083.43
667.32	1086.48
667.66	1074.54
668.01	1080.86
668.35	1082.50
668.69	1091.63
669.03	1091.39
669.37	1099.35
669.71	1091.63
670.05	1089.52
670.39	1089.05
670.73	1091.16
671.07	1095.14
671.41	1088.12
671.75	1085.77
672.09	1082.97
672.43	1078.28
672.77	1069.86
673.11	1075.01
673.45	1081.80
673.79	1085.77
674.13	1100.75
674.47	1109.88
674.81	1113.86
675.15	1107.78
675.49	1106.37
675.83	1081.09
676.17	1081.33
676.51	1079.69
676.85	1081.09
677.19	1075.01
677.53	1083.67
677.87	1069.16
678.21	1062.14
678.55	1063.31
678.89	1066.35
679.23	1060.73
679.57	1071.97
679.90	1083.67
680.24	1081.56
680.58	1067.28
680.92	1073.37
681.26	1076.88
681.60	1073.37
681.94	1074.54
682.28	1088.82
682.62	1093.26
682.96	1100.52
683.29	1096.07
683.63	1091.16
683.97	1092.56
684.31	1084.14
684.65	1071.50
684.99	1073.14
685.33	1067.52
685.67	1062.14
686.00	1067.75
686.34	1066.58
686.68	1065.65
687.02	1078.52
687.36	1074.54
687.70	1080.63
688.03	1088.58
688.37	1094.90
688.71	1093.50
689.05	1102.39
689.39	1091.16
689.72	1088.12
690.06	1083.43
690.40	1093.26
690.74	1094.43
691.08	1094.43
691.41	1094.43
691.75	1100.75
692.09	1102.16
692.43	1097.95
692.76	1100.29
693.10	1094.20
693.44	1080.16
693.78	1060.03
694.11	1063.77
694.45	1056.52
694.79	1062.84
695.13	1070.80
695.46	1072.67
695.80	1070.33
696.14	1081.56
696.48	1082.97
696.81	1073.84
697.15	1094.43
697.49	1098.18
697.82	1091.16
698.16	1090.22
698.50	1091.86
698.83	1072.90
699.17	1069.16
699.51	1069.39
699.84	1066.58
700.18	1078.28
700.52	1082.73
700.85	1092.09
701.19	1094.67
701.53	1096.54
701.86	1088.35
702.20	1088.35
702.54	1084.14
702.87	1087.18
703.21	1084.37
703.55	1083.90
703.88	1087.41
704.22	1083.43
704.55	1077.58
704.89	1081.80
705.23	1092.09
705.56	1090.46
705.90	1082.50
706.23	1087.65
706.57	1087.41
706.91	1087.18
707.24	1090.92
707.58	1097.24
707.91	1092.09
708.25	1097.48
708.58	1082.73
708.92	1086.94
709.26	1078.75
709.59	1073.60
709.93	1064.01
710.26	1069.86
710.60	1058.62
710.93	1062.60
711.27	1075.24
711.60	1076.88
711.94	1082.73
712.27	1082.73
712.61	1075.24
712.94	1071.26
713.28	1060.26
713.61	1061.43
713.95	1069.16
714.28	1088.35
714.62	1082.73
714.95	1094.90
715.29	1089.75
715.62	1083.43
715.96	1078.99
716.29	1092.33
716.63	1094.43
716.96	1096.78
717.29	1088.82
717.63	1080.39
717.96	1072.90
718.30	1072.90
718.63	1075.48
718.97	1080.39
719.30	1083.67
719.63	1076.18
719.97	1069.16
720.30	1064.01
720.64	1059.79
720.97	1060.26
721.30	1060.50
721.64	1064.01
721.97	1061.90
722.31	1062.14
722.64	1053.48
722.97	1061.90
723.31	1062.60
723.64	1067.99
723.97	1069.39
724.31	1077.58
724.64	1077.11
724.98	1074.31
725.31	1061.20
725.64	1065.88
725.98	1074.77
726.31	1071.50
726.64	1074.07
726.97	1078.05
727.31	1076.65
727.64	1061.20
727.97	1066.11
728.31	1065.18
728.64	1066.11
728.97	1067.99
729.31	1079.22
729.64	1077.58
729.97	1080.16
730.30	1086.01
730.64	1091.63
730.97	1083.43
731.30	1075.01
731.63	1067.52
731.97	1075.24
732.30	1073.60
732.63	1076.18
732.96	1080.63
733.30	1091.16
733.63	1086.71
733.96	1082.03
734.29	1086.01
734.63	1082.97
734.96	1081.56
735.29	1075.01
735.62	1077.35
735.95	1071.97
736.29	1080.16
736.62	1085.77
736.95	1088.58
737.28	1081.09
737.61	1090.22
737.94	1085.77
738.28	1081.80
738.61	1086.24
738.94	1093.03
739.27	1083.67
739.60	1082.97
739.93	1079.22
740.27	1078.99
740.60	1082.26
740.93	1090.92
741.26	1091.63
741.59	1081.09
741.92	1075.24
742.25	1079.92
742.58	1078.75
742.91	1084.37
743.25	1097.01
743.58	1102.16
743.91	1091.63
744.24	1090.46
744.57	1082.97
744.90	1082.97
745.23	1075.24
745.56	1078.52
745.89	1078.28
746.22	1085.07
746.55	1086.48
746.88	1098.65
747.21	1093.73
747.54	1093.03
747.87	1087.88
748.20	1088.12
748.53	1062.37
748.87	1067.52
749.20	1066.35
749.53	1077.11
749.86	1070.33
750.19	1084.60
750.52	1075.01
750.85	1073.14
751.18	1068.45
751.51	1075.48
751.84	1084.60
752.16	1093.97
752.49	1095.84
752.82	1091.86
753.15	1093.73
753.48	1085.77
753.81	1086.24
754.14	1091.39
754.47	1087.41
754.80	1080.86
755.13	1088.12
755.46	1085.77
755.79	1085.31
756.12	1090.92
756.45	1090.46
756.78	1094.20
757.11	1096.54
757.43	1092.56
757.76	1093.03
758.09	1094.67
758.42	1086.71
758.75	1085.54
759.08	1083.20
759.41	1087.18
759.74	1082.97
760.07	1083.43
760.39	1083.43
760.72	1094.90
761.05	1084.84
761.38	1091.16
761.71	1086.24
762.04	1086.24
762.36	1082.50
762.69	1080.63
763.02	1073.60
763.35	1077.82
763.68	1080.86
764.01	1072.90
764.33	1076.65
764.66	1086.24
764.99	1083.90
765.32	1075.24
765.65	1078.75
765.97	1083.67
766.30	1084.14
