SpectraSuite Data File
++++++++++++++++++++++++++++++++++++
Date: Mon Aug 26 10:24:29 PDT 2019
User: corrico
Dark Spectrum Present: No
Reference Spectrum Present: No
Number of Sampled Component Spectra: 1
Spectrometers: USB2+H06089
Integration Time (usec): 10000 (USB2+H06089)
Spectra Averaged: 2 (USB2+H06089)
Boxcar Smoothing: 2 (USB2+H06089)
Correct for Electrical Dark: No (USB2+H06089)
Strobe/Lamp Enabled: No (USB2+H06089)
Correct for Detector Non-linearity: No (USB2+H06089)
Correct for Stray Light: No (USB2+H06089)
Number of Pixels in Processed Spectrum: 2048
>>>>>Begin Processed Spectral Data<<<<<
339.70	1039.20
340.07	1039.20
340.45	994.96
340.82	969.68
341.19	942.07
341.57	912.81
341.94	901.34
342.31	888.47
342.69	884.02
343.06	887.06
343.43	882.62
343.81	884.96
344.18	895.49
344.55	899.23
344.93	901.57
345.30	911.17
345.67	920.53
346.04	932.24
346.42	929.19
346.79	934.81
347.16	944.64
347.54	950.49
347.91	958.22
348.28	985.13
348.65	992.15
349.03	1003.39
349.40	1017.66
349.77	1037.56
350.14	1042.01
350.52	1039.90
350.89	1037.79
351.26	1036.39
351.63	1029.37
352.01	1023.05
352.38	1036.62
352.75	1044.58
353.12	1042.24
353.50	1040.37
353.87	1039.90
354.24	1046.92
354.61	1043.88
354.98	1049.50
355.36	1052.77
355.73	1075.94
356.10	1073.84
356.47	1081.80
356.84	1089.29
357.22	1091.86
357.59	1084.14
357.96	1083.43
358.33	1084.14
358.70	1078.28
359.08	1078.28
359.45	1076.41
359.82	1081.33
360.19	1082.50
360.56	1076.88
360.94	1071.97
361.31	1061.43
361.68	1049.26
362.05	1049.03
362.42	1058.86
362.79	1054.41
363.16	1058.86
363.54	1060.26
363.91	1055.82
364.28	1050.90
364.65	1058.16
365.02	1055.11
365.39	1064.24
365.76	1063.54
366.14	1061.67
366.51	1061.20
366.88	1063.77
367.25	1060.03
367.62	1069.16
367.99	1065.18
368.36	1067.52
368.73	1069.39
369.10	1067.99
369.48	1061.90
369.85	1058.62
370.22	1051.13
370.59	1041.77
370.96	1037.79
371.33	1037.56
371.70	1049.26
372.07	1047.62
372.44	1064.24
372.81	1065.65
373.18	1065.65
373.55	1067.75
373.93	1072.90
374.30	1066.58
374.67	1072.20
375.04	1072.43
375.41	1063.77
375.78	1068.45
376.15	1067.05
376.52	1067.28
376.89	1056.05
377.26	1053.71
377.63	1052.77
378.00	1052.54
378.37	1047.39
378.74	1068.92
379.11	1083.43
379.48	1080.16
379.85	1085.54
380.22	1087.65
380.59	1077.11
380.96	1070.56
381.33	1071.03
381.70	1068.69
382.07	1069.62
382.44	1067.99
382.81	1059.33
383.18	1062.37
383.55	1067.99
383.92	1070.80
384.29	1081.56
384.66	1105.20
385.03	1099.12
385.40	1089.99
385.77	1093.26
386.14	1088.35
386.51	1073.37
386.88	1071.26
387.25	1075.01
387.62	1064.48
387.99	1059.56
388.36	1057.45
388.73	1062.84
389.10	1073.37
389.46	1079.46
389.83	1084.14
390.20	1084.84
390.57	1075.71
390.94	1061.67
391.31	1054.65
391.68	1049.03
392.05	1054.18
392.42	1070.56
392.79	1078.75
393.16	1078.75
393.53	1082.97
393.89	1079.46
394.26	1067.52
394.63	1065.41
395.00	1077.58
395.37	1077.82
395.74	1077.58
396.11	1082.03
396.48	1076.18
396.84	1071.97
397.21	1068.69
397.58	1073.14
397.95	1071.26
398.32	1070.56
398.69	1067.52
399.06	1059.09
399.42	1054.18
399.79	1052.30
400.16	1052.07
400.53	1052.07
400.90	1063.31
401.27	1062.84
401.64	1067.99
402.00	1075.01
402.37	1077.82
402.74	1070.56
403.11	1065.88
403.48	1069.86
403.84	1071.97
404.21	1074.54
404.58	1069.16
404.95	1068.45
405.32	1071.50
405.68	1062.37
406.05	1057.22
406.42	1070.09
406.79	1077.58
407.16	1064.01
407.52	1064.71
407.89	1069.16
408.26	1068.22
408.63	1062.14
408.99	1069.16
409.36	1072.43
409.73	1070.80
410.10	1077.35
410.47	1091.39
410.83	1090.46
411.20	1100.75
411.57	1097.01
411.94	1080.39
412.30	1083.90
412.67	1093.73
413.04	1092.56
413.40	1096.54
413.77	1114.56
414.14	1103.56
414.51	1100.29
414.87	1096.31
415.24	1104.26
415.61	1101.69
415.97	1108.01
416.34	1102.86
416.71	1109.88
417.08	1116.67
417.44	1119.95
417.81	1126.97
418.18	1133.05
418.54	1133.52
418.91	1126.50
419.28	1129.54
419.64	1133.99
420.01	1153.18
420.38	1163.25
420.74	1177.99
421.11	1184.31
421.48	1189.69
421.84	1182.91
422.21	1193.67
422.58	1196.95
422.94	1205.61
423.31	1204.44
423.68	1210.06
424.04	1209.82
424.41	1216.14
424.77	1225.74
425.14	1240.95
425.51	1246.34
425.87	1261.08
426.24	1281.68
426.61	1297.36
426.97	1307.19
427.34	1329.89
427.70	1347.21
428.07	1360.32
428.44	1382.32
428.80	1404.32
429.17	1418.13
429.53	1426.56
429.90	1439.43
430.27	1432.41
430.63	1438.73
431.00	1457.69
431.36	1480.62
431.73	1501.69
432.09	1528.60
432.46	1555.99
432.83	1581.03
433.19	1592.73
433.56	1594.84
433.92	1612.40
434.29	1635.80
434.65	1651.01
435.02	1668.10
435.38	1699.70
435.75	1719.83
436.11	1722.63
436.48	1732.70
436.84	1739.72
437.21	1745.81
437.57	1759.38
437.94	1784.19
438.30	1795.66
438.67	1814.15
439.03	1825.15
439.40	1825.38
439.76	1813.68
440.13	1817.89
440.49	1819.53
440.86	1800.57
441.22	1796.13
441.59	1787.23
441.95	1767.81
442.32	1751.42
442.68	1757.51
443.05	1745.34
443.41	1735.51
443.78	1724.04
444.14	1703.91
444.51	1682.61
444.87	1671.38
445.24	1664.12
445.60	1660.61
445.96	1657.57
446.33	1652.42
446.69	1632.29
447.06	1617.31
447.42	1583.61
447.79	1561.61
448.15	1540.07
448.51	1525.33
448.88	1501.22
449.24	1494.20
449.61	1487.88
449.97	1469.15
450.33	1467.52
450.70	1451.60
451.06	1449.03
451.43	1428.19
451.79	1425.15
452.15	1400.34
452.52	1409.47
452.88	1392.62
453.24	1380.68
453.61	1372.02
453.97	1367.11
454.34	1352.83
454.70	1355.64
455.06	1350.96
455.43	1343.23
455.79	1331.30
456.15	1319.13
456.52	1303.44
456.88	1295.02
457.24	1285.19
457.61	1292.68
457.97	1289.17
458.33	1283.08
458.70	1284.25
459.06	1276.06
459.42	1266.93
459.79	1264.83
460.15	1264.59
460.51	1266.23
460.88	1260.85
461.24	1249.61
461.60	1235.80
461.96	1218.01
462.33	1197.42
462.69	1178.93
463.05	1178.23
463.42	1170.74
463.78	1181.27
464.14	1174.95
464.50	1186.65
464.87	1185.72
465.23	1173.54
465.59	1162.08
465.95	1165.12
466.32	1158.80
466.68	1156.46
467.04	1170.03
467.40	1162.78
467.77	1162.31
468.13	1163.48
468.49	1150.61
468.85	1151.54
469.22	1162.54
469.58	1155.29
469.94	1153.42
470.30	1152.48
470.66	1144.76
471.03	1134.46
471.39	1139.84
471.75	1134.22
472.11	1141.71
472.47	1139.14
472.84	1141.95
473.20	1139.61
473.56	1146.39
473.92	1147.33
474.28	1154.35
474.65	1159.27
475.01	1159.03
475.37	1158.10
475.73	1150.84
476.09	1154.59
476.45	1141.95
476.81	1131.18
477.18	1128.37
477.54	1126.50
477.90	1119.24
478.26	1118.54
478.62	1118.78
478.98	1112.92
479.34	1110.58
479.71	1105.20
480.07	1112.92
480.43	1124.63
480.79	1120.88
481.15	1121.58
481.51	1122.05
481.87	1119.01
482.23	1111.05
482.59	1115.27
482.96	1113.39
483.32	1103.33
483.68	1100.05
484.04	1095.37
484.40	1080.86
484.76	1075.94
485.12	1083.20
485.48	1086.24
485.84	1089.99
486.20	1107.07
486.56	1118.07
486.92	1123.46
487.28	1111.99
487.64	1111.99
488.00	1109.88
488.37	1105.20
488.73	1103.33
489.09	1105.67
489.45	1095.37
489.81	1090.22
490.17	1095.84
490.53	1084.14
490.89	1089.75
491.25	1105.20
491.61	1107.07
491.97	1096.07
492.33	1093.50
492.69	1084.60
493.05	1083.20
493.41	1087.18
493.77	1090.92
494.13	1101.46
494.49	1115.73
494.85	1107.31
495.21	1099.35
495.57	1105.20
495.93	1108.71
496.29	1090.92
496.64	1093.50
497.00	1093.73
497.36	1084.84
497.72	1079.22
498.08	1093.03
498.44	1086.48
498.80	1086.01
499.16	1080.16
499.52	1085.77
499.88	1087.41
500.24	1095.60
500.60	1098.65
500.96	1103.09
501.32	1097.48
501.68	1097.95
502.03	1087.41
502.39	1083.67
502.75	1077.82
503.11	1065.65
503.47	1050.43
503.83	1055.82
504.19	1059.33
504.55	1069.16
504.91	1082.73
505.26	1086.94
505.62	1091.16
505.98	1096.54
506.34	1087.18
506.70	1086.94
507.06	1096.31
507.42	1095.84
507.78	1077.82
508.13	1089.75
508.49	1091.39
508.85	1083.43
509.21	1081.09
509.57	1084.84
509.93	1083.20
510.28	1082.50
510.64	1060.73
511.00	1057.45
511.36	1062.60
511.72	1062.37
512.07	1054.65
512.43	1068.92
512.79	1082.26
513.15	1074.77
513.51	1067.75
513.86	1068.92
514.22	1065.88
514.58	1063.31
514.94	1078.75
515.30	1077.58
515.65	1076.41
516.01	1082.73
516.37	1075.01
516.73	1076.65
517.08	1078.75
517.44	1077.35
517.80	1085.77
518.16	1084.14
518.51	1086.71
518.87	1085.31
519.23	1089.75
519.59	1078.52
519.94	1069.39
520.30	1056.99
520.66	1048.79
521.01	1045.05
521.37	1059.09
521.73	1071.97
522.09	1068.92
522.44	1075.24
522.80	1086.01
523.16	1084.60
523.51	1080.63
523.87	1079.69
524.23	1088.82
524.58	1071.50
524.94	1069.16
525.30	1076.88
525.65	1078.28
526.01	1073.37
526.37	1092.56
526.72	1088.58
527.08	1097.24
527.44	1097.24
527.79	1093.97
528.15	1089.52
528.51	1088.35
528.86	1069.16
529.22	1067.05
529.58	1061.20
529.93	1044.58
530.29	1036.16
530.65	1045.05
531.00	1048.56
531.36	1053.71
531.71	1067.52
532.07	1083.20
532.43	1079.46
532.78	1078.99
533.14	1086.71
533.49	1086.94
533.85	1082.26
534.21	1078.52
534.56	1079.22
534.92	1064.01
535.27	1069.62
535.63	1071.50
535.98	1078.05
536.34	1083.67
536.69	1087.41
537.05	1081.80
537.41	1082.50
537.76	1079.69
538.12	1083.43
538.47	1095.37
538.83	1097.48
539.18	1095.14
539.54	1098.65
539.89	1099.12
540.25	1093.97
540.60	1089.05
540.96	1086.01
541.31	1076.88
541.67	1072.20
542.02	1077.82
542.38	1078.52
542.73	1088.12
543.09	1095.37
543.44	1095.84
543.80	1088.82
544.15	1084.84
544.51	1076.41
544.86	1071.26
545.22	1070.56
545.57	1073.37
545.93	1080.39
546.28	1079.69
546.64	1081.80
546.99	1072.20
547.35	1069.86
547.70	1076.41
548.05	1078.75
548.41	1089.75
548.76	1093.50
549.12	1099.82
549.47	1088.12
549.83	1080.16
550.18	1072.20
550.53	1072.20
550.89	1069.16
551.24	1068.92
551.60	1064.94
551.95	1057.92
552.30	1063.31
552.66	1055.11
553.01	1057.69
553.37	1065.65
553.72	1072.43
554.07	1067.05
554.43	1064.01
554.78	1061.90
555.13	1064.71
555.49	1063.77
555.84	1068.69
556.19	1083.43
556.55	1092.09
556.90	1093.73
557.26	1093.26
557.61	1089.29
557.96	1083.90
558.32	1075.24
558.67	1072.43
559.02	1072.20
559.37	1071.50
559.73	1059.56
560.08	1062.37
560.43	1059.33
560.79	1054.65
561.14	1061.20
561.49	1074.31
561.85	1067.28
562.20	1073.60
562.55	1081.33
562.90	1084.37
563.26	1099.58
563.61	1115.50
563.96	1113.16
564.32	1116.44
564.67	1115.73
565.02	1093.73
565.37	1089.29
565.73	1083.90
566.08	1066.11
566.43	1057.69
566.78	1060.26
567.14	1046.45
567.49	1049.50
567.84	1068.92
568.19	1075.71
568.54	1082.03
568.90	1091.16
569.25	1108.24
569.60	1092.09
569.95	1088.12
570.31	1080.39
570.66	1078.52
571.01	1065.41
571.36	1075.48
571.71	1077.58
572.06	1081.09
572.42	1087.18
572.77	1085.07
573.12	1088.12
573.47	1082.03
573.82	1084.84
574.18	1081.56
574.53	1082.26
574.88	1081.09
575.23	1082.26
575.58	1073.37
575.93	1068.92
576.28	1068.22
576.64	1055.82
576.99	1050.20
577.34	1054.88
577.69	1058.16
578.04	1062.37
578.39	1072.43
578.74	1074.31
579.09	1075.71
579.44	1074.77
579.80	1070.09
580.15	1072.20
580.50	1078.99
580.85	1074.31
581.20	1070.80
581.55	1066.58
581.90	1061.20
582.25	1063.54
582.60	1067.28
582.95	1066.82
583.30	1071.03
583.65	1073.84
584.00	1076.41
584.35	1088.82
584.71	1090.92
585.06	1086.94
585.41	1086.01
585.76	1081.80
586.11	1068.92
586.46	1075.01
586.81	1087.41
587.16	1078.52
587.51	1071.26
587.86	1078.75
588.21	1072.90
588.56	1066.35
588.91	1078.52
589.26	1083.90
589.61	1079.92
589.96	1086.94
590.31	1087.41
590.66	1078.99
591.01	1079.92
591.36	1077.11
591.71	1071.73
592.06	1069.86
592.41	1074.31
592.76	1076.88
593.10	1079.69
593.45	1085.31
593.80	1084.60
594.15	1088.58
594.50	1073.60
594.85	1067.52
595.20	1056.05
595.55	1061.43
595.90	1055.11
596.25	1072.43
596.60	1067.28
596.95	1082.97
597.30	1075.94
597.64	1134.69
597.99	1131.18
598.34	1140.78
598.69	1132.12
599.04	1130.48
599.39	1071.26
599.74	1073.60
600.09	1070.56
600.44	1069.39
600.78	1070.09
601.13	1077.11
601.48	1080.39
601.83	1076.88
602.18	1074.54
602.53	1072.20
602.88	1073.84
603.22	1060.26
603.57	1065.41
603.92	1068.45
604.27	1073.60
604.62	1067.52
604.97	1085.54
605.31	1082.50
605.66	1078.05
606.01	1078.75
606.36	1079.46
606.71	1081.56
607.05	1088.12
607.40	1093.50
607.75	1083.90
608.10	1088.82
608.44	1081.80
608.79	1072.43
609.14	1075.48
609.49	1081.56
609.84	1073.84
610.18	1074.54
610.53	1086.94
610.88	1085.77
611.23	1090.46
611.57	1085.54
611.92	1078.99
612.27	1073.37
612.62	1073.14
612.96	1069.62
613.31	1081.56
613.66	1082.50
614.00	1088.35
614.35	1081.80
614.70	1080.63
615.05	1077.35
615.39	1076.88
615.74	1069.62
616.09	1074.07
616.43	1082.97
616.78	1087.18
617.13	1089.99
617.47	1096.54
617.82	1101.69
618.17	1090.92
618.51	1093.03
618.86	1089.75
619.21	1077.35
619.55	1076.18
619.90	1077.82
620.25	1073.60
620.59	1072.20
620.94	1083.90
621.29	1074.07
621.63	1082.97
621.98	1083.67
622.32	1086.48
622.67	1083.90
623.02	1095.84
623.36	1093.73
623.71	1088.58
624.05	1089.29
624.40	1097.24
624.75	1089.52
625.09	1077.11
625.44	1083.43
625.78	1077.11
626.13	1074.54
626.48	1075.48
626.82	1080.63
627.17	1070.33
627.51	1070.56
627.86	1064.01
628.20	1067.28
628.55	1069.86
628.89	1075.94
629.24	1077.35
629.58	1078.05
629.93	1085.77
630.28	1096.31
630.62	1097.95
630.97	1096.07
631.31	1099.12
631.66	1096.54
632.00	1088.12
632.35	1085.54
632.69	1098.41
633.04	1098.65
633.38	1082.73
633.73	1075.01
634.07	1072.67
634.42	1065.65
634.76	1063.07
635.11	1076.65
635.45	1088.58
635.79	1093.97
636.14	1090.69
636.48	1085.77
636.83	1085.07
637.17	1084.37
637.52	1080.39
637.86	1086.01
638.21	1091.63
638.55	1089.75
638.89	1083.90
639.24	1077.82
639.58	1069.86
639.93	1071.03
640.27	1070.80
640.61	1076.18
640.96	1088.12
641.30	1088.82
641.65	1089.99
641.99	1087.65
642.33	1082.50
642.68	1077.11
643.02	1081.33
643.37	1083.90
643.71	1079.22
644.05	1074.31
644.40	1071.50
644.74	1077.35
645.08	1076.41
645.43	1073.37
645.77	1085.07
646.11	1094.67
646.46	1090.22
646.80	1077.82
647.14	1076.18
647.49	1067.99
647.83	1065.41
648.17	1059.33
648.52	1053.71
648.86	1065.18
649.20	1071.50
649.55	1060.50
649.89	1069.16
650.23	1083.20
650.57	1080.39
650.92	1078.28
651.26	1097.01
651.60	1085.07
651.95	1082.97
652.29	1085.77
652.63	1090.69
652.97	1078.05
653.32	1088.82
653.66	1096.31
654.00	1092.09
654.34	1086.01
654.69	1082.26
655.03	1076.88
655.37	1067.05
655.71	1065.41
656.05	1067.05
656.40	1071.97
656.74	1064.48
657.08	1070.09
657.42	1068.69
657.76	1072.43
658.11	1078.99
658.45	1080.39
658.79	1085.31
659.13	1098.18
659.47	1092.33
659.82	1090.46
660.16	1083.67
660.50	1078.75
660.84	1074.77
661.18	1073.37
661.52	1069.39
661.87	1086.48
662.21	1082.50
662.55	1084.14
662.89	1085.31
663.23	1081.56
663.57	1077.58
663.91	1076.65
664.25	1067.52
664.60	1072.43
664.94	1067.28
665.28	1066.58
665.62	1074.77
665.96	1074.31
666.30	1067.52
666.64	1072.43
666.98	1075.71
667.32	1074.54
667.66	1073.60
668.01	1086.94
668.35	1096.07
668.69	1097.71
669.03	1089.99
669.37	1089.52
669.71	1079.22
670.05	1064.94
670.39	1060.73
670.73	1067.28
671.07	1068.45
671.41	1067.99
671.75	1075.71
672.09	1061.90
672.43	1058.39
672.77	1064.48
673.11	1066.58
673.45	1070.56
673.79	1097.71
674.13	1090.69
674.47	1098.88
674.81	1100.52
675.15	1099.12
675.49	1094.20
675.83	1104.73
676.17	1085.31
676.51	1078.52
676.85	1066.11
677.19	1060.73
677.53	1060.96
677.87	1066.58
678.21	1070.33
678.55	1091.16
678.89	1088.12
679.23	1076.18
679.57	1078.99
679.90	1082.73
680.24	1074.31
680.58	1078.52
680.92	1082.26
681.26	1079.22
681.60	1070.56
681.94	1066.11
682.28	1064.94
682.62	1070.33
682.96	1079.69
683.29	1086.01
683.63	1098.18
683.97	1094.43
684.31	1099.82
684.65	1081.09
684.99	1073.84
685.33	1061.20
685.67	1061.20
686.00	1059.33
686.34	1071.97
686.68	1069.62
687.02	1072.67
687.36	1083.43
687.70	1085.31
688.03	1082.73
688.37	1091.63
688.71	1098.65
689.05	1081.33
689.39	1069.62
689.72	1075.71
690.06	1070.33
690.40	1067.52
690.74	1067.75
691.08	1073.37
691.41	1076.18
691.75	1078.99
692.09	1066.35
692.43	1073.84
692.76	1080.16
693.10	1078.05
693.44	1082.97
693.78	1098.88
694.11	1094.43
694.45	1083.90
694.79	1080.16
695.13	1073.14
695.46	1065.41
695.80	1069.39
696.14	1071.50
696.48	1075.01
696.81	1078.75
697.15	1081.80
697.49	1088.12
697.82	1093.50
698.16	1090.22
698.50	1093.50
698.83	1097.95
699.17	1089.05
699.51	1088.82
699.84	1082.97
700.18	1074.31
700.52	1059.33
700.85	1059.09
701.19	1062.60
701.53	1071.73
701.86	1086.48
702.20	1094.90
702.54	1090.46
702.87	1088.58
703.21	1085.07
703.55	1072.67
703.88	1078.75
704.22	1082.73
704.55	1079.69
704.89	1075.24
705.23	1076.41
705.56	1071.73
705.90	1072.43
706.23	1064.71
706.57	1065.41
706.91	1064.24
707.24	1058.39
707.58	1067.28
707.91	1078.52
708.25	1083.20
708.58	1093.03
708.92	1100.75
709.26	1100.29
709.59	1095.84
709.93	1089.75
710.26	1082.97
710.60	1079.22
710.93	1077.82
711.27	1071.26
711.60	1074.54
711.94	1072.43
712.27	1072.43
712.61	1071.26
712.94	1077.82
713.28	1081.09
713.61	1079.92
713.95	1079.22
714.28	1081.09
714.62	1082.50
714.95	1084.14
715.29	1092.80
715.62	1092.80
715.96	1088.58
716.29	1082.26
716.63	1082.50
716.96	1078.99
717.29	1076.88
717.63	1070.56
717.96	1071.50
718.30	1072.67
718.63	1069.39
718.97	1071.26
719.30	1083.43
719.63	1080.39
719.97	1076.88
720.30	1079.69
720.64	1089.52
720.97	1080.86
721.30	1084.60
721.64	1080.63
721.97	1075.24
722.31	1065.65
722.64	1061.67
722.97	1069.62
723.31	1076.41
723.64	1078.75
723.97	1078.75
724.31	1082.03
724.64	1073.84
724.98	1072.90
725.31	1075.01
725.64	1079.22
725.98	1090.69
726.31	1093.73
726.64	1097.24
726.97	1083.43
727.31	1085.54
727.64	1081.09
727.97	1086.48
728.31	1075.24
728.64	1086.24
728.97	1081.33
729.31	1078.75
729.64	1073.60
729.97	1082.50
730.30	1083.67
730.64	1085.77
730.97	1086.48
731.30	1089.99
731.63	1101.92
731.97	1105.44
732.30	1100.75
732.63	1102.39
732.96	1093.50
733.30	1079.22
733.63	1083.90
733.96	1080.39
734.29	1080.63
734.63	1079.92
734.96	1081.80
735.29	1079.46
735.62	1091.39
735.95	1088.58
736.29	1094.20
736.62	1092.09
736.95	1086.24
737.28	1080.16
737.61	1084.37
737.94	1084.84
738.28	1085.77
738.61	1091.86
738.94	1090.92
739.27	1088.58
739.60	1086.71
739.93	1082.50
740.27	1077.58
740.60	1074.31
740.93	1066.82
741.26	1073.60
741.59	1079.46
741.92	1075.48
742.25	1084.60
742.58	1092.09
742.91	1086.01
743.25	1078.28
743.58	1078.99
743.91	1069.62
744.24	1068.45
744.57	1074.07
744.90	1075.24
745.23	1079.22
745.56	1091.16
745.89	1089.75
746.22	1084.14
746.55	1085.31
746.88	1085.77
747.21	1079.92
747.54	1081.56
747.87	1086.71
748.20	1086.94
748.53	1085.07
748.87	1075.01
749.20	1072.67
749.53	1067.52
749.86	1067.52
750.19	1066.11
750.52	1075.71
750.85	1081.09
751.18	1075.71
751.51	1078.99
751.84	1078.28
752.16	1082.03
752.49	1079.46
752.82	1085.07
753.15	1077.82
753.48	1069.86
753.81	1063.54
754.14	1062.60
754.47	1059.09
754.80	1059.56
755.13	1069.86
755.46	1066.82
755.79	1064.01
756.12	1071.97
756.45	1079.69
756.78	1085.07
757.11	1083.67
757.43	1085.77
757.76	1069.16
758.09	1070.33
758.42	1069.62
758.75	1073.37
759.08	1077.82
759.41	1086.01
759.74	1084.84
760.07	1071.73
760.39	1080.39
760.72	1072.43
761.05	1079.92
761.38	1075.01
761.71	1095.60
762.04	1089.05
762.36	1087.65
762.69	1074.77
763.02	1087.18
763.35	1083.90
763.68	1088.35
764.01	1083.43
764.33	1092.80
764.66	1081.33
764.99	1064.94
765.32	1055.82
765.65	1060.26
765.97	1055.82
766.30	1050.43
