SpectraSuite Data File
++++++++++++++++++++++++++++++++++++
Date: Mon Aug 26 10:24:30 PDT 2019
User: corrico
Dark Spectrum Present: No
Reference Spectrum Present: No
Number of Sampled Component Spectra: 1
Spectrometers: USB2+H06089
Integration Time (usec): 10000 (USB2+H06089)
Spectra Averaged: 2 (USB2+H06089)
Boxcar Smoothing: 2 (USB2+H06089)
Correct for Electrical Dark: No (USB2+H06089)
Strobe/Lamp Enabled: No (USB2+H06089)
Correct for Detector Non-linearity: No (USB2+H06089)
Correct for Stray Light: No (USB2+H06089)
Number of Pixels in Processed Spectrum: 2048
>>>>>Begin Processed Spectral Data<<<<<
339.70	1049.73
340.07	1049.73
340.45	1007.37
340.82	980.45
341.19	954.70
341.57	936.45
341.94	925.92
342.31	920.53
342.69	915.38
343.06	909.77
343.43	896.89
343.81	895.02
344.18	900.40
344.55	899.70
344.93	908.83
345.30	920.06
345.67	931.07
346.04	937.85
346.42	959.39
346.79	968.05
347.16	972.49
347.54	978.58
347.91	983.26
348.28	982.32
348.65	987.71
349.03	997.54
349.40	1020.71
349.77	1029.37
350.14	1035.92
350.52	1039.67
350.89	1044.82
351.26	1027.96
351.63	1025.62
352.01	1034.28
352.38	1042.71
352.75	1054.88
353.12	1063.31
353.50	1066.35
353.87	1069.39
354.24	1065.65
354.61	1059.79
354.98	1056.52
355.36	1062.84
355.73	1057.22
356.10	1066.11
356.47	1065.88
356.84	1072.90
357.22	1073.84
357.59	1073.37
357.96	1070.80
358.33	1068.22
358.70	1065.18
359.08	1069.86
359.45	1079.69
359.82	1076.65
360.19	1083.90
360.56	1081.56
360.94	1071.26
361.31	1063.31
361.68	1056.52
362.05	1045.05
362.42	1045.99
362.79	1056.05
363.16	1055.11
363.54	1059.09
363.91	1069.16
364.28	1073.37
364.65	1072.20
365.02	1083.43
365.39	1083.90
365.76	1081.33
366.14	1076.41
366.51	1077.35
366.88	1069.39
367.25	1081.33
367.62	1079.69
367.99	1086.94
368.36	1079.22
368.73	1079.69
369.10	1071.03
369.48	1065.65
369.85	1059.79
370.22	1068.22
370.59	1066.58
370.96	1060.03
371.33	1058.39
371.70	1060.50
372.07	1049.50
372.44	1058.86
372.81	1065.88
373.18	1071.97
373.55	1062.60
373.93	1062.60
374.30	1061.90
374.67	1063.54
375.04	1061.67
375.41	1062.14
375.78	1066.82
376.15	1054.41
376.52	1050.67
376.89	1052.77
377.26	1057.92
377.63	1060.73
378.00	1058.86
378.37	1060.03
378.74	1064.94
379.11	1075.24
379.48	1063.54
379.85	1076.65
380.22	1072.90
380.59	1078.99
380.96	1065.41
381.33	1076.18
381.70	1069.62
382.07	1074.54
382.44	1061.43
382.81	1068.45
383.18	1062.60
383.55	1066.35
383.92	1069.16
384.29	1073.84
384.66	1066.11
385.03	1069.62
385.40	1071.50
385.77	1058.86
386.14	1057.22
386.51	1066.82
386.88	1078.05
387.25	1083.90
387.62	1092.80
387.99	1090.46
388.36	1083.43
388.73	1065.18
389.10	1052.30
389.46	1047.39
389.83	1049.26
390.20	1056.05
390.57	1069.62
390.94	1077.35
391.31	1080.86
391.68	1092.09
392.05	1087.18
392.42	1085.31
392.79	1081.09
393.16	1085.77
393.53	1071.97
393.89	1079.22
394.26	1080.63
394.63	1082.97
395.00	1079.69
395.37	1088.58
395.74	1092.33
396.11	1082.26
396.48	1085.31
396.84	1088.82
397.21	1085.07
397.58	1081.33
397.95	1096.78
398.32	1093.73
398.69	1089.52
399.06	1090.69
399.42	1092.56
399.79	1084.14
400.16	1081.80
400.53	1077.35
400.90	1071.50
401.27	1071.03
401.64	1065.65
402.00	1059.56
402.37	1062.84
402.74	1058.39
403.11	1054.88
403.48	1061.43
403.84	1065.65
404.21	1071.97
404.58	1079.69
404.95	1085.54
405.32	1075.71
405.68	1074.07
406.05	1074.54
406.42	1083.43
406.79	1083.20
407.16	1098.41
407.52	1091.86
407.89	1090.92
408.26	1082.97
408.63	1080.16
408.99	1070.80
409.36	1083.20
409.73	1086.48
410.10	1085.07
410.47	1082.97
410.83	1093.26
411.20	1092.09
411.57	1083.67
411.94	1093.50
412.30	1094.90
412.67	1095.14
413.04	1086.48
413.40	1097.01
413.77	1099.82
414.14	1105.67
414.51	1106.84
414.87	1120.18
415.24	1113.16
415.61	1108.95
415.97	1103.33
416.34	1105.20
416.71	1100.05
417.08	1106.37
417.44	1123.93
417.81	1135.86
418.18	1145.46
418.54	1159.97
418.91	1170.74
419.28	1161.61
419.64	1169.33
420.01	1169.80
420.38	1174.25
420.74	1171.20
421.11	1171.20
421.48	1173.78
421.84	1175.18
422.21	1179.63
422.58	1200.69
422.94	1214.97
423.31	1226.67
423.68	1225.27
424.04	1231.12
424.41	1233.93
424.77	1242.82
425.14	1249.38
425.51	1271.14
425.87	1282.85
426.24	1291.04
426.61	1296.89
426.97	1300.87
427.34	1320.06
427.70	1335.51
428.07	1346.98
428.44	1365.94
428.80	1381.38
429.17	1387.24
429.53	1406.90
429.90	1430.07
430.27	1439.90
430.63	1458.86
431.00	1482.03
431.36	1501.69
431.73	1516.67
432.09	1535.63
432.46	1553.88
432.83	1563.71
433.19	1576.58
433.56	1591.56
433.92	1626.44
434.29	1645.16
434.65	1675.36
435.02	1701.34
435.38	1716.08
435.75	1716.78
436.11	1746.04
436.48	1774.13
436.84	1792.62
437.21	1805.02
437.57	1814.15
437.94	1820.23
438.30	1806.66
438.67	1800.81
439.03	1807.13
439.40	1813.68
439.76	1811.34
440.13	1814.15
440.49	1814.15
440.86	1813.45
441.22	1817.89
441.59	1804.08
441.95	1801.51
442.32	1790.04
442.68	1779.04
443.05	1767.10
443.41	1758.91
443.78	1728.02
444.14	1716.08
444.51	1705.78
444.87	1700.17
445.24	1682.85
445.60	1689.16
445.96	1679.57
446.33	1682.14
446.69	1658.97
447.06	1655.69
447.42	1626.20
447.79	1609.12
448.15	1566.05
448.51	1543.35
448.88	1532.58
449.24	1530.01
449.61	1505.20
449.97	1511.99
450.33	1497.94
450.70	1463.77
451.06	1446.22
451.43	1443.17
451.79	1432.17
452.15	1423.28
452.52	1420.47
452.88	1405.73
453.24	1394.49
453.61	1386.30
453.97	1385.60
454.34	1376.94
454.70	1378.11
455.06	1383.96
455.43	1367.11
455.79	1352.36
456.15	1346.28
456.52	1328.96
456.88	1314.44
457.24	1301.57
457.61	1304.61
457.97	1292.21
458.33	1284.95
458.70	1270.44
459.06	1263.89
459.42	1246.34
459.79	1248.44
460.15	1254.53
460.51	1255.93
460.88	1264.12
461.24	1247.74
461.60	1239.31
461.96	1221.29
462.33	1206.08
462.69	1185.95
463.05	1197.18
463.42	1191.57
463.78	1192.03
464.14	1194.84
464.50	1191.10
464.87	1189.69
465.23	1181.27
465.59	1180.57
465.95	1180.57
466.32	1175.89
466.68	1161.61
467.04	1156.93
467.40	1152.95
467.77	1133.76
468.13	1138.20
468.49	1139.61
468.85	1152.95
469.22	1161.37
469.58	1169.10
469.94	1163.95
470.30	1162.54
470.66	1160.44
471.03	1145.93
471.39	1144.52
471.75	1141.01
472.11	1145.69
472.47	1136.56
472.84	1143.12
473.20	1144.52
473.56	1140.31
473.92	1136.10
474.28	1136.56
474.65	1127.44
475.01	1119.71
475.37	1113.63
475.73	1112.69
476.09	1110.12
476.45	1109.41
476.81	1106.14
477.18	1115.27
477.54	1117.84
477.90	1118.07
478.26	1111.05
478.62	1106.61
478.98	1109.18
479.34	1110.82
479.71	1105.44
480.07	1120.65
480.43	1128.37
480.79	1118.31
481.15	1108.48
481.51	1111.52
481.87	1099.12
482.23	1099.12
482.59	1099.35
482.96	1104.50
483.32	1100.99
483.68	1098.41
484.04	1091.86
484.40	1086.71
484.76	1079.69
485.12	1077.11
485.48	1078.28
485.84	1085.31
486.20	1095.84
486.56	1103.33
486.92	1104.73
487.28	1099.12
487.64	1104.26
488.00	1095.84
488.37	1083.43
488.73	1082.50
489.09	1091.39
489.45	1087.18
489.81	1087.41
490.17	1100.75
490.53	1101.22
490.89	1093.03
491.25	1089.05
491.61	1088.12
491.97	1073.60
492.33	1070.56
492.69	1079.22
493.05	1079.46
493.41	1083.43
493.77	1081.80
494.13	1083.67
494.49	1082.50
494.85	1069.62
495.21	1070.09
495.57	1079.46
495.93	1076.88
496.29	1071.73
496.64	1089.52
497.00	1088.12
497.36	1077.35
497.72	1087.18
498.08	1089.29
498.44	1081.56
498.80	1082.50
499.16	1084.60
499.52	1080.39
499.88	1083.20
500.24	1090.22
500.60	1088.35
500.96	1096.78
501.32	1091.39
501.68	1088.82
502.03	1073.84
502.39	1081.33
502.75	1079.69
503.11	1083.67
503.47	1079.22
503.83	1092.09
504.19	1086.24
504.55	1078.99
504.91	1083.90
505.26	1096.78
505.62	1098.18
505.98	1110.35
506.34	1114.33
506.70	1114.10
507.06	1109.41
507.42	1105.44
507.78	1097.01
508.13	1099.12
508.49	1101.22
508.85	1097.48
509.21	1093.50
509.57	1083.67
509.93	1082.50
510.28	1077.82
510.64	1078.75
511.00	1072.20
511.36	1075.01
511.72	1083.20
512.07	1083.43
512.43	1080.39
512.79	1094.90
513.15	1105.90
513.51	1109.88
513.86	1110.12
514.22	1112.46
514.58	1098.41
514.94	1087.65
515.30	1073.60
515.65	1061.90
516.01	1059.33
516.37	1053.71
516.73	1048.56
517.08	1041.07
517.44	1061.43
517.80	1072.90
518.16	1091.39
518.51	1098.88
518.87	1111.52
519.23	1098.18
519.59	1089.75
519.94	1084.14
520.30	1079.92
520.66	1072.20
521.01	1070.80
521.37	1065.88
521.73	1059.09
522.09	1056.28
522.44	1058.86
522.80	1058.62
523.16	1070.33
523.51	1077.11
523.87	1090.46
524.23	1088.82
524.58	1092.56
524.94	1081.33
525.30	1080.39
525.65	1075.71
526.01	1086.01
526.37	1080.63
526.72	1080.86
527.08	1077.11
527.44	1072.20
527.79	1058.16
528.15	1061.67
528.51	1061.20
528.86	1070.56
529.22	1082.03
529.58	1092.80
529.93	1088.82
530.29	1092.33
530.65	1097.24
531.00	1092.80
531.36	1091.63
531.71	1093.03
532.07	1096.54
532.43	1082.03
532.78	1089.52
533.14	1083.90
533.49	1087.41
533.85	1085.07
534.21	1087.88
534.56	1075.94
534.92	1079.22
535.27	1073.14
535.63	1073.14
535.98	1071.73
536.34	1079.22
536.69	1077.82
537.05	1079.22
537.41	1075.71
537.76	1081.56
538.12	1083.43
538.47	1089.05
538.83	1089.99
539.18	1082.26
539.54	1078.05
539.89	1064.94
540.25	1056.99
540.60	1064.71
540.96	1073.14
541.31	1080.16
541.67	1091.86
542.02	1102.39
542.38	1101.22
542.73	1103.56
543.09	1101.69
543.44	1091.39
543.80	1081.56
544.15	1081.09
544.51	1081.33
544.86	1083.67
545.22	1088.12
545.57	1086.01
545.93	1071.73
546.28	1065.18
546.64	1062.84
546.99	1058.86
547.35	1060.96
547.70	1073.84
548.05	1084.60
548.41	1085.54
548.76	1082.97
549.12	1086.48
549.47	1079.69
549.83	1071.03
550.18	1072.43
550.53	1080.86
550.89	1086.94
551.24	1091.39
551.60	1097.95
551.95	1096.07
552.30	1091.39
552.66	1086.24
553.01	1081.09
553.37	1080.16
553.72	1076.41
554.07	1071.26
554.43	1059.09
554.78	1056.99
555.13	1050.43
555.49	1050.20
555.84	1053.24
556.19	1058.16
556.55	1067.28
556.90	1064.48
557.26	1073.37
557.61	1083.90
557.96	1088.82
558.32	1097.71
558.67	1100.99
559.02	1086.24
559.37	1081.80
559.73	1078.99
560.08	1067.52
560.43	1069.16
560.79	1080.39
561.14	1081.33
561.49	1087.41
561.85	1086.94
562.20	1086.94
562.55	1087.18
562.90	1086.24
563.26	1092.33
563.61	1091.16
563.96	1084.37
564.32	1072.43
564.67	1070.33
565.02	1068.92
565.37	1077.82
565.73	1090.22
566.08	1099.35
566.43	1097.95
566.78	1089.29
567.14	1084.84
567.49	1082.97
567.84	1085.77
568.19	1090.69
568.54	1092.09
568.90	1089.29
569.25	1089.99
569.60	1079.22
569.95	1076.41
570.31	1077.35
570.66	1080.63
571.01	1079.92
571.36	1089.75
571.71	1077.35
572.06	1075.71
572.42	1076.88
572.77	1073.14
573.12	1067.05
573.47	1081.09
573.82	1080.39
574.18	1078.75
574.53	1075.94
574.88	1080.63
575.23	1079.92
575.58	1079.22
575.93	1076.18
576.28	1080.86
576.64	1079.69
576.99	1075.94
577.34	1076.18
577.69	1068.45
578.04	1059.33
578.39	1060.26
578.74	1066.82
579.09	1062.14
579.44	1062.84
579.80	1075.94
580.15	1071.73
580.50	1061.43
580.85	1066.35
581.20	1073.14
581.55	1069.62
581.90	1065.88
582.25	1071.03
582.60	1072.90
582.95	1075.71
583.30	1072.43
583.65	1072.90
584.00	1071.50
584.35	1073.14
584.71	1071.26
585.06	1074.31
585.41	1078.52
585.76	1077.35
586.11	1080.63
586.46	1079.92
586.81	1082.03
587.16	1080.86
587.51	1080.86
587.86	1079.69
588.21	1090.22
588.56	1089.05
588.91	1087.88
589.26	1083.67
589.61	1081.56
589.96	1070.09
590.31	1062.84
590.66	1064.01
591.01	1072.90
591.36	1071.97
591.71	1073.84
592.06	1086.48
592.41	1094.43
592.76	1100.29
593.10	1087.88
593.45	1089.05
593.80	1082.97
594.15	1077.35
594.50	1068.69
594.85	1086.01
595.20	1090.22
595.55	1104.73
595.90	1113.63
596.25	1108.01
596.60	1110.58
596.95	1099.35
597.30	1084.37
597.64	1120.88
597.99	1124.86
598.34	1114.33
598.69	1117.61
599.04	1116.67
599.39	1071.73
599.74	1069.16
600.09	1062.37
600.44	1058.39
600.78	1053.71
601.13	1052.54
601.48	1063.77
601.83	1066.35
602.18	1075.71
602.53	1086.24
602.88	1081.80
603.22	1073.84
603.57	1078.99
603.92	1078.05
604.27	1079.22
604.62	1077.82
604.97	1081.80
605.31	1081.09
605.66	1080.86
606.01	1066.11
606.36	1066.82
606.71	1068.45
607.05	1066.11
607.40	1062.84
607.75	1071.73
608.10	1074.77
608.44	1068.92
608.79	1078.28
609.14	1085.77
609.49	1076.18
609.84	1081.33
610.18	1092.80
610.53	1090.92
610.88	1086.48
611.23	1099.58
611.57	1100.05
611.92	1093.26
612.27	1098.41
612.62	1100.05
612.96	1087.88
613.31	1087.41
613.66	1082.26
614.00	1069.39
614.35	1069.62
614.70	1080.39
615.05	1082.73
615.39	1083.67
615.74	1088.58
616.09	1080.63
616.43	1071.97
616.78	1070.09
617.13	1063.07
617.47	1053.94
617.82	1052.77
618.17	1056.52
618.51	1057.69
618.86	1058.86
619.21	1075.94
619.55	1082.26
619.90	1073.37
620.25	1073.60
620.59	1090.22
620.94	1089.75
621.29	1091.16
621.63	1101.22
621.98	1095.84
622.32	1083.20
622.67	1075.48
623.02	1075.01
623.36	1071.97
623.71	1075.24
624.05	1065.65
624.40	1058.16
624.75	1061.20
625.09	1065.65
625.44	1061.67
625.78	1073.84
626.13	1076.88
626.48	1073.37
626.82	1074.77
627.17	1077.11
627.51	1073.14
627.86	1072.43
628.20	1060.96
628.55	1059.79
628.89	1062.84
629.24	1067.99
629.58	1073.37
629.93	1080.63
630.28	1078.99
630.62	1072.90
630.97	1080.39
631.31	1079.46
631.66	1078.99
632.00	1078.99
632.35	1081.56
632.69	1074.07
633.04	1078.28
633.38	1082.03
633.73	1080.86
634.07	1073.60
634.42	1068.69
634.76	1062.37
635.11	1076.65
635.45	1076.65
635.79	1081.56
636.14	1087.18
636.48	1080.63
636.83	1060.03
637.17	1065.88
637.52	1062.60
637.86	1055.58
638.21	1064.01
638.55	1072.20
638.89	1067.52
639.24	1074.31
639.58	1088.12
639.93	1092.56
640.27	1092.56
640.61	1083.43
640.96	1087.65
641.30	1078.52
641.65	1072.20
641.99	1068.69
642.33	1080.63
642.68	1077.58
643.02	1081.09
643.37	1074.31
643.71	1082.03
644.05	1086.01
644.40	1081.33
644.74	1082.73
645.08	1089.05
645.43	1087.65
645.77	1080.16
646.11	1083.20
646.46	1078.05
646.80	1070.56
647.14	1059.56
647.49	1058.39
647.83	1053.71
648.17	1060.26
648.52	1064.01
648.86	1065.88
649.20	1064.01
649.55	1059.33
649.89	1048.33
650.23	1052.30
650.57	1056.05
650.92	1050.90
651.26	1062.60
651.60	1067.28
651.95	1070.80
652.29	1073.14
652.63	1089.99
652.97	1094.20
653.32	1094.20
653.66	1090.46
654.00	1090.92
654.34	1083.90
654.69	1077.82
655.03	1084.60
655.37	1093.03
655.71	1094.20
656.05	1100.52
656.40	1096.54
656.74	1091.39
657.08	1082.97
657.42	1082.73
657.76	1065.65
658.11	1060.73
658.45	1069.86
658.79	1082.50
659.13	1075.71
659.47	1089.29
659.82	1095.84
660.16	1082.03
660.50	1070.80
660.84	1071.97
661.18	1072.90
661.52	1070.33
661.87	1070.80
662.21	1064.71
662.55	1064.48
662.89	1064.01
663.23	1065.41
663.57	1062.37
663.91	1070.09
664.25	1068.22
664.60	1069.86
664.94	1057.92
665.28	1073.37
665.62	1063.07
665.96	1066.58
666.30	1065.18
666.64	1082.03
666.98	1069.62
667.32	1075.48
667.66	1070.80
668.01	1068.69
668.35	1065.65
668.69	1063.54
669.03	1062.84
669.37	1065.88
669.71	1067.75
670.05	1073.37
670.39	1084.37
670.73	1080.86
671.07	1075.24
671.41	1073.37
671.75	1057.45
672.09	1048.33
672.43	1060.03
672.77	1066.82
673.11	1067.75
673.45	1079.92
673.79	1089.52
674.13	1076.88
674.47	1080.39
674.81	1085.77
675.15	1081.33
675.49	1077.35
675.83	1086.48
676.17	1080.16
676.51	1062.60
676.85	1065.65
677.19	1061.90
677.53	1063.07
677.87	1062.14
678.21	1070.33
678.55	1071.50
678.89	1073.84
679.23	1075.48
679.57	1076.65
679.90	1079.22
680.24	1082.50
680.58	1083.43
680.92	1084.14
681.26	1086.01
681.60	1075.24
681.94	1070.33
682.28	1071.03
682.62	1063.31
682.96	1066.11
683.29	1065.65
683.63	1056.75
683.97	1043.41
684.31	1047.16
684.65	1046.69
684.99	1057.22
685.33	1068.69
685.67	1075.24
686.00	1068.22
686.34	1061.90
686.68	1058.62
687.02	1054.41
687.36	1043.64
687.70	1049.73
688.03	1058.86
688.37	1069.16
688.71	1070.33
689.05	1086.24
689.39	1084.60
689.72	1090.69
690.06	1082.26
690.40	1081.09
690.74	1077.82
691.08	1086.24
691.41	1070.09
691.75	1068.22
692.09	1069.39
692.43	1059.33
692.76	1058.39
693.10	1070.56
693.44	1079.46
693.78	1073.14
694.11	1092.09
694.45	1082.97
694.79	1078.52
695.13	1068.45
695.46	1080.86
695.80	1077.11
696.14	1087.88
696.48	1085.54
696.81	1098.88
697.15	1088.35
697.49	1084.37
697.82	1082.97
698.16	1081.56
698.50	1062.37
698.83	1066.11
699.17	1070.80
699.51	1064.48
699.84	1074.77
700.18	1076.65
700.52	1068.92
700.85	1058.62
701.19	1055.11
701.53	1038.96
701.86	1042.94
702.20	1051.84
702.54	1060.50
702.87	1055.35
703.21	1063.07
703.55	1071.97
703.88	1071.03
704.22	1074.07
704.55	1084.14
704.89	1084.37
705.23	1081.56
705.56	1075.48
705.90	1073.14
706.23	1073.14
706.57	1086.48
706.91	1086.94
707.24	1091.16
707.58	1097.24
707.91	1097.95
708.25	1080.63
708.58	1082.03
708.92	1080.86
709.26	1073.14
709.59	1065.18
709.93	1067.28
710.26	1066.11
710.60	1066.82
710.93	1069.16
711.27	1067.52
711.60	1075.71
711.94	1072.43
712.27	1073.60
712.61	1076.18
712.94	1082.73
713.28	1081.09
713.61	1082.03
713.95	1080.39
714.28	1074.31
714.62	1069.39
714.95	1068.45
715.29	1070.56
715.62	1070.80
715.96	1078.52
716.29	1095.14
716.63	1095.60
716.96	1096.54
717.29	1096.07
717.63	1088.35
717.96	1073.37
718.30	1071.03
718.63	1073.37
718.97	1086.01
719.30	1087.88
719.63	1100.99
719.97	1110.58
720.30	1107.78
720.64	1098.88
720.97	1094.20
721.30	1086.24
721.64	1080.86
721.97	1082.50
722.31	1082.97
722.64	1086.24
722.97	1093.73
723.31	1083.90
723.64	1084.37
723.97	1087.88
724.31	1093.03
724.64	1087.18
724.98	1089.75
725.31	1075.48
725.64	1070.56
725.98	1075.48
726.31	1074.07
726.64	1075.24
726.97	1083.90
727.31	1086.24
727.64	1081.09
727.97	1086.24
728.31	1085.77
728.64	1087.65
728.97	1086.01
729.31	1090.22
729.64	1088.58
729.97	1091.86
730.30	1092.56
730.64	1093.73
730.97	1082.50
731.30	1087.41
731.63	1084.60
731.97	1083.43
732.30	1079.69
732.63	1088.82
732.96	1078.52
733.30	1086.01
733.63	1088.82
733.96	1089.52
734.29	1078.05
734.63	1082.26
734.96	1077.58
735.29	1073.84
735.62	1072.20
735.95	1083.43
736.29	1078.05
736.62	1075.01
736.95	1067.28
737.28	1074.07
737.61	1064.01
737.94	1067.05
738.28	1078.28
738.61	1097.01
738.94	1089.29
739.27	1107.31
739.60	1107.78
739.93	1093.03
740.27	1074.54
740.60	1078.28
740.93	1070.56
741.26	1067.05
741.59	1074.07
741.92	1077.11
742.25	1075.71
742.58	1059.33
742.91	1063.54
743.25	1066.58
743.58	1072.67
743.91	1071.97
744.24	1081.80
744.57	1082.50
744.90	1085.54
745.23	1078.28
745.56	1078.75
745.89	1070.80
746.22	1075.01
746.55	1074.31
746.88	1081.80
747.21	1085.54
747.54	1096.54
747.87	1096.54
748.20	1086.24
748.53	1080.63
748.87	1077.82
749.20	1073.37
749.53	1067.05
749.86	1077.11
750.19	1082.73
750.52	1075.01
750.85	1078.75
751.18	1078.52
751.51	1062.14
751.84	1057.22
752.16	1063.31
752.49	1055.82
752.82	1055.35
753.15	1060.73
753.48	1059.79
753.81	1063.54
754.14	1064.48
754.47	1066.11
754.80	1079.69
755.13	1085.54
755.46	1088.58
755.79	1081.80
756.12	1082.50
756.45	1072.67
756.78	1071.26
757.11	1064.24
757.43	1082.26
757.76	1086.71
758.09	1083.67
758.42	1071.50
758.75	1070.80
759.08	1067.52
759.41	1061.20
759.74	1057.22
760.07	1063.31
760.39	1058.16
760.72	1049.50
761.05	1054.41
761.38	1065.41
761.71	1068.69
762.04	1075.71
762.36	1079.22
762.69	1075.94
763.02	1061.43
763.35	1071.26
763.68	1077.82
764.01	1071.73
764.33	1067.99
764.66	1075.01
764.99	1052.30
765.32	1050.90
765.65	1053.94
765.97	1047.16
766.30	1049.03
