SpectraSuite Data File
++++++++++++++++++++++++++++++++++++
Date: Mon Aug 26 10:24:33 PDT 2019
User: corrico
Dark Spectrum Present: No
Reference Spectrum Present: No
Number of Sampled Component Spectra: 1
Spectrometers: USB2+H06089
Integration Time (usec): 10000 (USB2+H06089)
Spectra Averaged: 2 (USB2+H06089)
Boxcar Smoothing: 2 (USB2+H06089)
Correct for Electrical Dark: No (USB2+H06089)
Strobe/Lamp Enabled: No (USB2+H06089)
Correct for Detector Non-linearity: No (USB2+H06089)
Correct for Stray Light: No (USB2+H06089)
Number of Pixels in Processed Spectrum: 2048
>>>>>Begin Processed Spectral Data<<<<<
339.70	1039.20
340.07	1039.20
340.45	1010.88
340.82	991.22
341.19	966.41
341.57	942.77
341.94	930.60
342.31	915.85
342.69	908.36
343.06	907.66
343.43	897.60
343.81	891.98
344.18	899.70
344.55	908.60
344.93	909.30
345.30	910.23
345.67	932.00
346.04	929.43
346.42	932.47
346.79	935.04
347.16	953.77
347.54	960.09
347.91	979.05
348.28	986.07
348.65	997.54
349.03	1011.35
349.40	1006.66
349.77	1017.20
350.14	1033.35
350.52	1046.45
350.89	1044.58
351.26	1048.56
351.63	1051.13
352.01	1054.18
352.38	1063.07
352.75	1073.84
353.12	1085.07
353.50	1080.86
353.87	1079.69
354.24	1079.69
354.61	1078.75
354.98	1084.37
355.36	1090.92
355.73	1094.67
356.10	1093.50
356.47	1086.94
356.84	1078.75
357.22	1089.29
357.59	1083.43
357.96	1085.77
358.33	1099.35
358.70	1106.37
359.08	1098.88
359.45	1094.43
359.82	1087.41
360.19	1078.75
360.56	1070.33
360.94	1061.20
361.31	1064.94
361.68	1071.50
362.05	1071.97
362.42	1080.16
362.79	1085.54
363.16	1073.37
363.54	1068.69
363.91	1067.05
364.28	1063.07
364.65	1058.86
365.02	1070.80
365.39	1066.58
365.76	1070.09
366.14	1071.03
366.51	1079.69
366.88	1077.58
367.25	1083.67
367.62	1078.75
367.99	1074.77
368.36	1066.35
368.73	1073.14
369.10	1067.28
369.48	1063.54
369.85	1058.39
370.22	1056.99
370.59	1048.56
370.96	1049.03
371.33	1051.84
371.70	1058.16
372.07	1066.35
372.44	1076.41
372.81	1074.31
373.18	1079.22
373.55	1071.03
373.93	1069.39
374.30	1061.43
374.67	1067.52
375.04	1070.33
375.41	1081.33
375.78	1082.03
376.15	1083.20
376.52	1082.50
376.89	1080.16
377.26	1074.54
377.63	1074.31
378.00	1077.11
378.37	1078.99
378.74	1074.07
379.11	1078.52
379.48	1071.26
379.85	1069.62
380.22	1065.88
380.59	1075.71
380.96	1080.16
381.33	1086.94
381.70	1087.65
382.07	1088.58
382.44	1075.01
382.81	1080.39
383.18	1080.63
383.55	1075.01
383.92	1077.35
384.29	1087.18
384.66	1080.39
385.03	1078.28
385.40	1077.58
385.77	1069.39
386.14	1070.80
386.51	1068.92
386.88	1067.52
387.25	1063.07
387.62	1054.88
387.99	1045.75
388.36	1044.58
388.73	1040.37
389.10	1049.03
389.46	1064.48
389.83	1073.60
390.20	1066.58
390.57	1073.60
390.94	1076.41
391.31	1073.84
391.68	1085.77
392.05	1097.95
392.42	1092.80
392.79	1087.41
393.16	1097.71
393.53	1084.60
393.89	1076.18
394.26	1079.69
394.63	1089.05
395.00	1086.24
395.37	1092.09
395.74	1098.18
396.11	1095.14
396.48	1088.82
396.84	1092.33
397.21	1087.65
397.58	1083.20
397.95	1088.58
398.32	1099.12
398.69	1092.80
399.06	1087.65
399.42	1087.41
399.79	1089.05
400.16	1084.60
400.53	1092.09
400.90	1103.80
401.27	1106.61
401.64	1100.75
402.00	1094.67
402.37	1082.50
402.74	1083.43
403.11	1086.71
403.48	1090.69
403.84	1095.14
404.21	1105.67
404.58	1095.37
404.95	1104.03
405.32	1117.37
405.68	1127.44
406.05	1129.31
406.42	1146.63
406.79	1154.12
407.16	1157.16
407.52	1153.42
407.89	1162.54
408.26	1157.86
408.63	1159.74
408.99	1160.91
409.36	1174.71
409.73	1177.76
410.10	1195.78
410.47	1189.46
410.83	1192.27
411.20	1197.18
411.57	1208.89
411.94	1206.31
412.30	1226.44
412.67	1254.06
413.04	1272.08
413.40	1282.38
413.77	1315.15
414.14	1350.72
414.51	1360.09
414.87	1372.72
415.24	1396.60
415.61	1414.15
415.97	1427.26
416.34	1453.94
416.71	1485.07
417.08	1514.09
417.44	1544.29
417.81	1566.75
418.18	1600.69
418.54	1632.29
418.91	1667.87
419.28	1717.49
419.64	1768.04
420.01	1814.38
420.38	1870.09
420.74	1933.28
421.11	1976.58
421.48	2036.73
421.84	2080.27
422.21	2137.14
422.58	2200.57
422.94	2261.66
423.31	2336.79
423.68	2415.20
424.04	2491.03
424.41	2571.31
424.77	2659.08
425.14	2734.45
425.51	2826.43
425.87	2930.58
426.24	3010.16
426.61	3123.44
426.97	3242.81
427.34	3371.78
427.70	3511.04
428.07	3634.38
428.44	3772.01
428.80	3907.99
429.17	4040.00
429.53	4161.24
429.90	4356.21
430.27	4508.57
430.63	4646.67
431.00	4801.37
431.36	4974.81
431.73	5092.07
432.09	5229.46
432.46	5396.81
432.83	5566.96
433.19	5707.63
433.56	5903.53
433.92	6082.12
434.29	6265.85
434.65	6424.30
435.02	6595.16
435.38	6738.40
435.75	6858.00
436.11	6984.39
436.48	7103.06
436.84	7236.47
437.21	7329.86
437.57	7413.65
437.94	7493.23
438.30	7560.87
438.67	7593.17
439.03	7623.83
439.40	7663.38
439.76	7620.55
440.13	7554.55
440.49	7495.33
440.86	7408.97
441.22	7332.90
441.59	7227.81
441.95	7158.53
442.32	7036.35
442.68	6950.45
443.05	6834.36
443.41	6727.17
443.78	6574.80
444.14	6434.37
444.51	6260.70
444.87	6134.08
445.24	6011.20
445.60	5896.98
445.96	5771.06
446.33	5650.76
446.69	5489.02
447.06	5327.53
447.42	5159.71
447.79	5010.62
448.15	4915.12
448.51	4811.91
448.88	4743.10
449.24	4667.03
449.61	4610.86
449.97	4511.85
450.33	4406.29
450.70	4281.54
451.06	4192.60
451.43	4082.83
451.79	3968.14
452.15	3881.78
452.52	3808.75
452.88	3737.37
453.24	3670.90
453.61	3619.17
453.97	3562.30
454.34	3493.48
454.70	3419.52
455.06	3346.03
455.43	3252.41
455.79	3156.68
456.15	3086.23
456.52	3014.84
456.88	2956.80
457.24	2898.99
457.61	2844.22
457.97	2779.15
458.33	2728.36
458.70	2658.38
459.06	2599.40
459.42	2547.21
459.79	2489.86
460.15	2427.84
460.51	2365.81
460.88	2331.17
461.24	2277.34
461.60	2242.47
461.96	2212.27
462.33	2175.53
462.69	2117.72
463.05	2084.25
463.42	2045.63
463.78	2012.16
464.14	1990.63
464.50	1967.69
464.87	1939.84
465.23	1918.77
465.59	1892.09
465.95	1861.19
466.32	1846.21
466.68	1826.55
467.04	1813.45
467.40	1791.21
467.77	1783.49
468.13	1762.89
468.49	1746.27
468.85	1711.40
469.22	1691.74
469.58	1669.74
469.94	1653.82
470.30	1629.95
470.66	1621.76
471.03	1603.03
471.39	1584.54
471.75	1576.82
472.11	1577.05
472.47	1569.80
472.84	1557.63
473.20	1544.05
473.56	1521.58
473.92	1498.88
474.28	1479.92
474.65	1461.90
475.01	1458.39
475.37	1458.86
475.73	1457.45
476.09	1457.92
476.45	1466.35
476.81	1452.77
477.18	1425.85
477.54	1413.22
477.90	1397.53
478.26	1387.94
478.62	1378.34
478.98	1381.15
479.34	1367.34
479.71	1361.26
480.07	1356.57
480.43	1349.32
480.79	1332.23
481.15	1325.45
481.51	1325.21
481.87	1309.76
482.23	1299.00
482.59	1297.12
482.96	1291.04
483.32	1271.14
483.68	1269.74
484.04	1272.32
484.40	1273.02
484.76	1273.72
485.12	1274.89
485.48	1269.27
485.84	1273.72
486.20	1261.31
486.56	1261.08
486.92	1250.31
487.28	1253.36
487.64	1233.46
488.00	1249.38
488.37	1239.78
488.73	1246.10
489.09	1251.25
489.45	1257.57
489.81	1241.65
490.17	1246.34
490.53	1244.23
490.89	1226.91
491.25	1216.84
491.61	1208.65
491.97	1198.82
492.33	1184.55
492.69	1178.46
493.05	1180.10
493.41	1171.91
493.77	1172.14
494.13	1180.57
494.49	1180.80
494.85	1186.42
495.21	1191.57
495.57	1189.93
495.93	1181.97
496.29	1180.33
496.64	1173.31
497.00	1172.37
497.36	1161.37
497.72	1159.50
498.08	1149.67
498.44	1139.61
498.80	1134.22
499.16	1129.54
499.52	1127.67
499.88	1119.71
500.24	1126.27
500.60	1119.95
500.96	1118.07
501.32	1126.50
501.68	1137.03
502.03	1126.73
502.39	1139.61
502.75	1150.37
503.11	1130.71
503.47	1122.05
503.83	1119.24
504.19	1100.29
504.55	1095.37
504.91	1102.39
505.26	1118.07
505.62	1126.03
505.98	1130.01
506.34	1124.86
506.70	1130.95
507.06	1117.37
507.42	1113.39
507.78	1110.58
508.13	1108.95
508.49	1105.90
508.85	1110.58
509.21	1113.16
509.57	1123.46
509.93	1126.97
510.28	1124.86
510.64	1111.05
511.00	1104.97
511.36	1098.41
511.72	1096.54
512.07	1088.82
512.43	1083.90
512.79	1074.31
513.15	1069.62
513.51	1071.50
513.86	1079.46
514.22	1088.82
514.58	1098.41
514.94	1096.78
515.30	1096.78
515.65	1094.67
516.01	1092.56
516.37	1091.63
516.73	1093.26
517.08	1092.09
517.44	1097.71
517.80	1105.44
518.16	1103.80
518.51	1103.80
518.87	1106.61
519.23	1102.39
519.59	1095.37
519.94	1098.18
520.30	1101.92
520.66	1103.80
521.01	1106.61
521.37	1119.71
521.73	1123.46
522.09	1126.50
522.44	1124.86
522.80	1118.31
523.16	1106.61
523.51	1100.52
523.87	1096.54
524.23	1092.09
524.58	1087.41
524.94	1083.43
525.30	1087.88
525.65	1089.05
526.01	1077.35
526.37	1085.31
526.72	1092.80
527.08	1094.67
527.44	1082.73
527.79	1089.75
528.15	1089.99
528.51	1092.56
528.86	1084.60
529.22	1095.84
529.58	1099.82
529.93	1101.22
530.29	1093.03
530.65	1099.35
531.00	1098.18
531.36	1098.41
531.71	1089.75
532.07	1085.31
532.43	1073.60
532.78	1074.31
533.14	1069.39
533.49	1064.71
533.85	1063.54
534.21	1071.73
534.56	1067.52
534.92	1058.86
535.27	1068.45
535.63	1078.05
535.98	1074.31
536.34	1079.22
536.69	1096.54
537.05	1090.69
537.41	1088.58
537.76	1085.54
538.12	1081.33
538.47	1069.62
538.83	1085.31
539.18	1089.75
539.54	1094.20
539.89	1099.35
540.25	1104.97
540.60	1098.41
540.96	1099.12
541.31	1094.20
541.67	1094.90
542.02	1096.78
542.38	1091.16
542.73	1091.39
543.09	1097.71
543.44	1094.43
543.80	1093.73
544.15	1105.44
544.51	1100.05
544.86	1094.90
545.22	1091.86
545.57	1096.31
545.93	1082.50
546.28	1082.97
546.64	1079.22
546.99	1095.84
547.35	1095.14
547.70	1096.07
548.05	1093.03
548.41	1105.20
548.76	1095.14
549.12	1084.60
549.47	1083.67
549.83	1089.05
550.18	1091.39
550.53	1088.82
550.89	1097.71
551.24	1099.12
551.60	1090.69
551.95	1080.63
552.30	1082.03
552.66	1084.37
553.01	1089.99
553.37	1103.80
553.72	1100.29
554.07	1101.69
554.43	1104.73
554.78	1100.52
555.13	1089.52
555.49	1101.92
555.84	1087.41
556.19	1073.84
556.55	1074.31
556.90	1077.58
557.26	1073.84
557.61	1087.41
557.96	1086.94
558.32	1085.77
558.67	1086.48
559.02	1089.29
559.37	1079.92
559.73	1089.29
560.08	1089.05
560.43	1084.60
560.79	1078.28
561.14	1086.94
561.49	1073.60
561.85	1070.33
562.20	1073.37
562.55	1077.82
562.90	1078.05
563.26	1091.16
563.61	1089.05
563.96	1086.24
564.32	1082.97
564.67	1093.97
565.02	1086.01
565.37	1089.75
565.73	1097.01
566.08	1099.82
566.43	1089.99
566.78	1091.39
567.14	1094.43
567.49	1094.43
567.84	1094.20
568.19	1106.37
568.54	1108.48
568.90	1102.86
569.25	1104.50
569.60	1105.20
569.95	1086.94
570.31	1084.60
570.66	1085.54
571.01	1075.48
571.36	1067.75
571.71	1069.86
572.06	1066.11
572.42	1073.84
572.77	1082.50
573.12	1082.97
573.47	1080.16
573.82	1086.01
574.18	1074.77
574.53	1073.14
574.88	1080.16
575.23	1087.41
575.58	1085.31
575.93	1093.03
576.28	1085.54
576.64	1078.75
576.99	1075.71
577.34	1076.88
577.69	1074.07
578.04	1080.39
578.39	1088.58
578.74	1092.80
579.09	1098.65
579.44	1099.12
579.80	1100.05
580.15	1100.99
580.50	1092.80
580.85	1086.48
581.20	1088.12
581.55	1090.46
581.90	1083.90
582.25	1087.18
582.60	1086.01
582.95	1085.07
583.30	1080.39
583.65	1074.07
584.00	1072.43
584.35	1073.84
584.71	1078.52
585.06	1089.05
585.41	1089.75
585.76	1088.58
586.11	1084.14
586.46	1077.82
586.81	1066.82
587.16	1072.90
587.51	1076.65
587.86	1078.99
588.21	1075.24
588.56	1072.67
588.91	1064.24
589.26	1063.54
589.61	1069.62
589.96	1075.48
590.31	1075.94
590.66	1083.67
591.01	1079.69
591.36	1071.97
591.71	1069.39
592.06	1076.88
592.41	1089.75
592.76	1095.37
593.10	1108.48
593.45	1112.69
593.80	1109.18
594.15	1099.12
594.50	1095.84
594.85	1096.07
595.20	1094.43
595.55	1093.03
595.90	1093.03
596.25	1093.26
596.60	1085.54
596.95	1082.50
597.30	1071.73
597.64	1119.24
597.99	1131.41
598.34	1128.37
598.69	1129.78
599.04	1141.71
599.39	1093.73
599.74	1081.56
600.09	1074.54
600.44	1074.31
600.78	1064.24
601.13	1063.77
601.48	1066.58
601.83	1076.18
602.18	1081.33
602.53	1089.99
602.88	1086.48
603.22	1083.67
603.57	1074.77
603.92	1069.16
604.27	1067.75
604.62	1064.71
604.97	1061.67
605.31	1067.52
605.66	1064.48
606.01	1062.60
606.36	1065.65
606.71	1066.35
607.05	1056.28
607.40	1066.11
607.75	1073.37
608.10	1075.94
608.44	1074.54
608.79	1078.05
609.14	1068.92
609.49	1073.84
609.84	1075.24
610.18	1081.80
610.53	1092.80
610.88	1104.97
611.23	1095.84
611.57	1098.41
611.92	1095.84
612.27	1093.50
612.62	1092.33
612.96	1100.29
613.31	1100.52
613.66	1102.86
614.00	1104.03
614.35	1096.07
614.70	1084.60
615.05	1076.18
615.39	1075.01
615.74	1069.86
616.09	1071.26
616.43	1067.52
616.78	1066.35
617.13	1065.65
617.47	1066.11
617.82	1066.11
618.17	1069.86
618.51	1078.99
618.86	1077.82
619.21	1072.90
619.55	1070.80
619.90	1071.03
620.25	1064.94
620.59	1069.16
620.94	1084.84
621.29	1091.16
621.63	1099.12
621.98	1101.69
622.32	1103.56
622.67	1090.22
623.02	1090.69
623.36	1081.80
623.71	1075.24
624.05	1061.67
624.40	1070.33
624.75	1070.56
625.09	1067.99
625.44	1067.75
625.78	1071.26
626.13	1062.84
626.48	1062.60
626.82	1069.86
627.17	1084.60
627.51	1083.20
627.86	1095.37
628.20	1086.71
628.55	1084.37
628.89	1075.94
629.24	1086.94
629.58	1078.28
629.93	1081.56
630.28	1085.54
630.62	1084.14
630.97	1068.92
631.31	1074.54
631.66	1068.92
632.00	1058.16
632.35	1061.43
632.69	1077.58
633.04	1082.26
633.38	1087.41
633.73	1087.18
634.07	1088.58
634.42	1093.26
634.76	1085.07
635.11	1087.65
635.45	1098.18
635.79	1095.60
636.14	1083.43
636.48	1080.63
636.83	1078.28
637.17	1074.77
637.52	1074.31
637.86	1077.11
638.21	1073.84
638.55	1067.05
638.89	1074.07
639.24	1070.09
639.58	1060.03
639.93	1067.99
640.27	1079.69
640.61	1085.31
640.96	1089.75
641.30	1106.37
641.65	1111.75
641.99	1106.14
642.33	1099.82
642.68	1097.95
643.02	1093.26
643.37	1081.80
643.71	1078.75
644.05	1068.69
644.40	1060.96
644.74	1065.18
645.08	1065.41
645.43	1068.45
645.77	1078.52
646.11	1081.09
646.46	1075.94
646.80	1078.05
647.14	1074.77
647.49	1062.84
647.83	1072.20
648.17	1074.77
648.52	1078.05
648.86	1081.80
649.20	1088.12
649.55	1090.22
649.89	1075.94
650.23	1073.84
650.57	1078.52
650.92	1076.88
651.26	1077.35
651.60	1088.35
651.95	1083.43
652.29	1077.82
652.63	1082.97
652.97	1081.09
653.32	1088.35
653.66	1091.86
654.00	1096.31
654.34	1093.26
654.69	1089.05
655.03	1072.90
655.37	1075.48
655.71	1062.60
656.05	1065.88
656.40	1068.69
656.74	1090.69
657.08	1093.50
657.42	1105.67
657.76	1109.65
658.11	1118.78
658.45	1104.03
658.79	1097.48
659.13	1090.69
659.47	1080.63
659.82	1067.05
660.16	1065.65
660.50	1069.62
660.84	1074.31
661.18	1077.35
661.52	1077.35
661.87	1075.48
662.21	1077.82
662.55	1071.26
662.89	1075.48
663.23	1081.33
663.57	1093.50
663.91	1087.65
664.25	1098.65
664.60	1100.99
664.94	1102.63
665.28	1095.60
665.62	1101.69
665.96	1082.97
666.30	1068.22
666.64	1068.45
666.98	1071.50
667.32	1064.24
667.66	1081.56
668.01	1081.80
668.35	1072.43
668.69	1068.69
669.03	1078.52
669.37	1079.22
669.71	1079.46
670.05	1083.43
670.39	1085.07
670.73	1080.39
671.07	1085.07
671.41	1097.48
671.75	1096.31
672.09	1097.95
672.43	1090.69
672.77	1082.50
673.11	1083.43
673.45	1084.60
673.79	1081.80
674.13	1092.09
674.47	1100.99
674.81	1092.80
675.15	1095.84
675.49	1093.03
675.83	1091.39
676.17	1089.75
676.51	1096.54
676.85	1094.43
677.19	1099.82
677.53	1100.52
677.87	1089.75
678.21	1090.46
678.55	1085.31
678.89	1087.18
679.23	1085.54
679.57	1094.43
679.90	1087.18
680.24	1087.88
680.58	1082.50
680.92	1089.05
681.26	1093.50
681.60	1094.43
681.94	1100.05
682.28	1094.67
682.62	1087.88
682.96	1073.84
683.29	1070.56
683.63	1071.97
683.97	1073.37
684.31	1067.28
684.65	1071.26
684.99	1067.05
685.33	1058.86
685.67	1054.18
686.00	1064.01
686.34	1067.99
686.68	1082.50
687.02	1075.94
687.36	1083.43
687.70	1077.82
688.03	1079.46
688.37	1075.94
688.71	1088.12
689.05	1094.20
689.39	1091.16
689.72	1081.80
690.06	1074.77
690.40	1061.43
690.74	1048.79
691.08	1044.35
691.41	1056.28
691.75	1054.65
692.09	1068.69
692.43	1075.24
692.76	1083.67
693.10	1075.48
693.44	1081.33
693.78	1081.33
694.11	1083.67
694.45	1078.99
694.79	1075.71
695.13	1071.26
695.46	1064.71
695.80	1066.35
696.14	1074.07
696.48	1082.50
696.81	1086.24
697.15	1085.54
697.49	1078.75
697.82	1072.20
698.16	1072.43
698.50	1073.60
698.83	1081.80
699.17	1086.24
699.51	1083.43
699.84	1084.60
700.18	1080.16
700.52	1083.67
700.85	1090.46
701.19	1104.03
701.53	1102.63
701.86	1105.67
702.20	1097.71
702.54	1087.88
702.87	1078.28
703.21	1077.35
703.55	1085.07
703.88	1087.88
704.22	1085.54
704.55	1088.58
704.89	1079.92
705.23	1065.65
705.56	1061.67
705.90	1069.16
706.23	1067.52
706.57	1074.77
706.91	1087.18
707.24	1093.50
707.58	1088.82
707.91	1088.35
708.25	1086.24
708.58	1079.46
708.92	1077.11
709.26	1073.84
709.59	1071.97
709.93	1076.88
710.26	1082.73
710.60	1078.28
710.93	1075.24
711.27	1075.01
711.60	1077.35
711.94	1069.62
712.27	1070.33
712.61	1077.58
712.94	1078.52
713.28	1076.65
713.61	1085.54
713.95	1086.94
714.28	1096.78
714.62	1100.52
714.95	1095.84
715.29	1086.94
715.62	1092.56
715.96	1076.41
716.29	1077.11
716.63	1074.31
716.96	1075.48
717.29	1067.28
717.63	1071.03
717.96	1074.07
718.30	1076.18
718.63	1080.86
718.97	1085.31
719.30	1084.84
719.63	1076.88
719.97	1072.67
720.30	1067.99
720.64	1065.41
720.97	1067.99
721.30	1071.26
721.64	1073.84
721.97	1074.31
722.31	1082.03
722.64	1079.69
722.97	1080.16
723.31	1086.71
723.64	1099.82
723.97	1089.75
724.31	1089.99
724.64	1080.16
724.98	1069.86
725.31	1059.56
725.64	1069.62
725.98	1076.65
726.31	1076.41
726.64	1076.41
726.97	1068.45
727.31	1062.37
727.64	1048.33
727.97	1055.11
728.31	1060.26
728.64	1064.24
728.97	1061.43
729.31	1064.94
729.64	1065.18
729.97	1070.56
730.30	1076.88
730.64	1076.18
730.97	1087.18
731.30	1082.26
731.63	1075.71
731.97	1078.99
732.30	1078.75
732.63	1072.43
732.96	1068.22
733.30	1068.92
733.63	1061.43
733.96	1073.37
734.29	1079.69
734.63	1093.26
734.96	1093.03
735.29	1083.20
735.62	1063.77
735.95	1058.62
736.29	1051.60
736.62	1049.50
736.95	1059.79
737.28	1067.05
737.61	1064.71
737.94	1076.88
738.28	1080.86
738.61	1073.84
738.94	1075.71
739.27	1082.26
739.60	1072.43
739.93	1073.14
740.27	1079.69
740.60	1075.94
740.93	1068.69
741.26	1071.50
741.59	1064.24
741.92	1064.94
742.25	1069.62
742.58	1074.07
742.91	1078.75
743.25	1078.05
743.58	1086.01
743.91	1092.09
744.24	1097.95
744.57	1093.73
744.90	1091.16
745.23	1079.92
745.56	1076.41
745.89	1060.96
746.22	1062.84
746.55	1067.28
746.88	1074.07
747.21	1060.26
747.54	1062.84
747.87	1056.75
748.20	1056.05
748.53	1046.45
748.87	1051.84
749.20	1058.62
749.53	1065.41
749.86	1075.71
750.19	1074.07
750.52	1089.05
750.85	1089.75
751.18	1083.90
751.51	1075.94
751.84	1082.50
752.16	1075.94
752.49	1073.14
752.82	1064.24
753.15	1057.69
753.48	1053.71
753.81	1043.88
754.14	1047.16
754.47	1053.94
754.80	1057.69
755.13	1061.90
755.46	1069.39
755.79	1070.80
756.12	1084.37
756.45	1086.24
756.78	1079.46
757.11	1069.62
757.43	1066.35
757.76	1057.69
758.09	1067.75
758.42	1081.56
758.75	1094.90
759.08	1102.16
759.41	1100.05
759.74	1089.29
760.07	1081.09
760.39	1081.56
760.72	1068.92
761.05	1064.48
761.38	1067.28
761.71	1068.92
762.04	1067.75
762.36	1077.82
762.69	1085.77
763.02	1082.97
763.35	1079.22
763.68	1078.28
764.01	1070.33
764.33	1062.60
764.66	1065.65
764.99	1073.37
765.32	1070.80
765.65	1071.50
765.97	1078.99
766.30	1076.88
