SpectraSuite Data File
++++++++++++++++++++++++++++++++++++
Date: Mon Aug 26 10:24:31 PDT 2019
User: corrico
Dark Spectrum Present: No
Reference Spectrum Present: No
Number of Sampled Component Spectra: 1
Spectrometers: USB2+H06089
Integration Time (usec): 10000 (USB2+H06089)
Spectra Averaged: 2 (USB2+H06089)
Boxcar Smoothing: 2 (USB2+H06089)
Correct for Electrical Dark: No (USB2+H06089)
Strobe/Lamp Enabled: No (USB2+H06089)
Correct for Detector Non-linearity: No (USB2+H06089)
Correct for Stray Light: No (USB2+H06089)
Number of Pixels in Processed Spectrum: 2048
>>>>>Begin Processed Spectral Data<<<<<
339.70	1075.48
340.07	1075.48
340.45	1018.60
340.82	993.32
341.19	964.77
341.57	924.04
341.94	918.89
342.31	914.92
342.69	906.26
343.06	897.13
343.43	895.72
343.81	892.45
344.18	902.98
344.55	916.09
344.93	921.00
345.30	938.79
345.67	936.68
346.04	941.36
346.42	925.45
346.79	930.13
347.16	926.62
347.54	945.81
347.91	949.32
348.28	970.85
348.65	986.77
349.03	999.64
349.40	1005.73
349.77	1011.58
350.14	1013.22
350.52	1020.94
350.89	1031.24
351.26	1037.79
351.63	1044.35
352.01	1051.60
352.38	1054.41
352.75	1056.05
353.12	1055.35
353.50	1067.99
353.87	1072.67
354.24	1069.62
354.61	1072.67
354.98	1073.84
355.36	1067.99
355.73	1072.67
356.10	1077.58
356.47	1071.50
356.84	1073.37
357.22	1068.92
357.59	1080.63
357.96	1072.43
358.33	1071.26
358.70	1072.43
359.08	1069.86
359.45	1049.73
359.82	1057.22
360.19	1068.92
360.56	1067.05
360.94	1073.84
361.31	1078.75
361.68	1090.69
362.05	1090.92
362.42	1087.65
362.79	1092.56
363.16	1097.01
363.54	1075.48
363.91	1072.20
364.28	1078.52
364.65	1076.41
365.02	1070.80
365.39	1084.60
365.76	1085.31
366.14	1082.73
366.51	1074.77
366.88	1080.39
367.25	1077.35
367.62	1078.05
367.99	1075.01
368.36	1077.58
368.73	1072.43
369.10	1075.48
369.48	1071.97
369.85	1079.69
370.22	1078.05
370.59	1079.92
370.96	1082.97
371.33	1077.11
371.70	1073.37
372.07	1079.92
372.44	1075.71
372.81	1070.33
373.18	1073.14
373.55	1078.75
373.93	1072.20
374.30	1072.90
374.67	1072.43
375.04	1078.99
375.41	1073.84
375.78	1073.37
376.15	1076.88
376.52	1077.35
376.89	1077.11
377.26	1071.97
377.63	1081.09
378.00	1082.26
378.37	1077.58
378.74	1081.09
379.11	1090.22
379.48	1075.94
379.85	1080.39
380.22	1083.20
380.59	1084.14
380.96	1075.01
381.33	1086.24
381.70	1078.05
382.07	1072.67
382.44	1054.88
382.81	1055.82
383.18	1047.16
383.55	1043.88
383.92	1048.56
384.29	1057.22
384.66	1056.05
385.03	1059.33
385.40	1059.56
385.77	1057.92
386.14	1056.99
386.51	1060.03
386.88	1063.31
387.25	1073.37
387.62	1061.43
387.99	1063.07
388.36	1064.01
388.73	1069.62
389.10	1066.35
389.46	1081.56
389.83	1075.24
390.20	1083.20
390.57	1064.24
390.94	1062.84
391.31	1048.33
391.68	1054.41
392.05	1049.96
392.42	1054.18
392.79	1053.01
393.16	1070.09
393.53	1072.20
393.89	1075.71
394.26	1080.86
394.63	1086.71
395.00	1082.97
395.37	1087.18
395.74	1077.35
396.11	1078.28
396.48	1076.88
396.84	1076.88
397.21	1074.54
397.58	1088.58
397.95	1082.73
398.32	1064.24
398.69	1061.20
399.06	1060.26
399.42	1048.09
399.79	1049.96
400.16	1068.69
400.53	1074.07
400.90	1072.90
401.27	1071.03
401.64	1074.77
402.00	1061.43
402.37	1058.16
402.74	1058.16
403.11	1061.90
403.48	1060.03
403.84	1068.22
404.21	1069.16
404.58	1064.24
404.95	1069.39
405.32	1066.35
405.68	1068.45
406.05	1068.22
406.42	1073.84
406.79	1075.01
407.16	1080.86
407.52	1078.99
407.89	1087.41
408.26	1088.35
408.63	1078.75
408.99	1081.80
409.36	1074.77
409.73	1078.52
410.10	1082.03
410.47	1088.82
410.83	1082.26
411.20	1089.29
411.57	1079.46
411.94	1075.94
412.30	1076.18
412.67	1080.16
413.04	1082.26
413.40	1086.24
413.77	1078.28
414.14	1071.26
414.51	1063.31
414.87	1066.82
415.24	1056.99
415.61	1060.73
415.97	1067.05
416.34	1081.09
416.71	1073.60
417.08	1077.82
417.44	1079.69
417.81	1077.11
418.18	1079.46
418.54	1083.20
418.91	1086.24
419.28	1088.35
419.64	1085.77
420.01	1078.52
420.38	1077.58
420.74	1075.01
421.11	1089.99
421.48	1090.92
421.84	1095.37
422.21	1111.05
422.58	1120.18
422.94	1112.22
423.31	1114.56
423.68	1116.20
424.04	1102.63
424.41	1099.12
424.77	1100.05
425.14	1100.29
425.51	1103.33
425.87	1110.82
426.24	1112.22
426.61	1115.03
426.97	1113.63
427.34	1111.05
427.70	1107.54
428.07	1099.58
428.44	1094.90
428.80	1093.26
429.17	1100.29
429.53	1093.50
429.90	1104.50
430.27	1108.01
430.63	1112.69
431.00	1113.16
431.36	1123.46
431.73	1120.18
432.09	1122.05
432.46	1139.84
432.83	1134.69
433.19	1134.22
433.56	1136.33
433.92	1127.67
434.29	1124.63
434.65	1123.93
435.02	1130.01
435.38	1129.54
435.75	1147.10
436.11	1147.10
436.48	1155.29
436.84	1164.65
437.21	1179.40
437.57	1162.08
437.94	1170.74
438.30	1174.95
438.67	1162.78
439.03	1153.65
439.40	1159.50
439.76	1137.73
440.13	1132.59
440.49	1134.69
440.86	1144.29
441.22	1147.10
441.59	1155.05
441.95	1148.50
442.32	1144.76
442.68	1133.52
443.05	1130.95
443.41	1145.93
443.78	1145.22
444.14	1144.76
444.51	1148.50
444.87	1156.93
445.24	1132.12
445.60	1134.93
445.96	1135.16
446.33	1130.24
446.69	1122.05
447.06	1136.10
447.42	1129.54
447.79	1121.35
448.15	1119.71
448.51	1112.92
448.88	1104.26
449.24	1108.01
449.61	1117.84
449.97	1126.27
450.33	1125.33
450.70	1129.31
451.06	1123.93
451.43	1115.73
451.79	1093.73
452.15	1100.52
452.52	1095.84
452.88	1107.31
453.24	1108.01
453.61	1115.03
453.97	1101.22
454.34	1087.18
454.70	1078.52
455.06	1073.14
455.43	1074.54
455.79	1078.28
456.15	1088.82
456.52	1087.41
456.88	1086.48
457.24	1085.77
457.61	1086.48
457.97	1083.43
458.33	1083.20
458.70	1091.39
459.06	1088.12
459.42	1086.48
459.79	1085.54
460.15	1083.20
460.51	1075.94
460.88	1078.75
461.24	1079.92
461.60	1080.39
461.96	1080.16
462.33	1090.92
462.69	1082.97
463.05	1086.71
463.42	1092.09
463.78	1091.63
464.14	1085.77
464.50	1091.63
464.87	1094.67
465.23	1095.14
465.59	1097.24
465.95	1091.86
466.32	1097.01
466.68	1092.09
467.04	1087.88
467.40	1086.71
467.77	1083.90
468.13	1073.14
468.49	1070.56
468.85	1063.07
469.22	1067.75
469.58	1071.03
469.94	1075.71
470.30	1083.67
470.66	1087.88
471.03	1079.46
471.39	1081.80
471.75	1084.84
472.11	1075.24
472.47	1082.50
472.84	1083.43
473.20	1086.48
473.56	1093.03
473.92	1099.58
474.28	1092.33
474.65	1100.29
475.01	1095.37
475.37	1083.67
475.73	1076.18
476.09	1081.80
476.45	1072.90
476.81	1064.24
477.18	1061.90
477.54	1069.86
477.90	1066.82
478.26	1067.28
478.62	1071.03
478.98	1067.52
479.34	1069.62
479.71	1073.37
480.07	1082.03
480.43	1089.99
480.79	1098.88
481.15	1088.58
481.51	1080.63
481.87	1077.11
482.23	1075.48
482.59	1080.16
482.96	1087.88
483.32	1086.48
483.68	1086.94
484.04	1084.14
484.40	1078.28
484.76	1081.09
485.12	1084.14
485.48	1082.03
485.84	1084.84
486.20	1083.67
486.56	1073.84
486.92	1069.86
487.28	1069.16
487.64	1060.26
488.00	1062.37
488.37	1062.84
488.73	1067.28
489.09	1060.26
489.45	1065.18
489.81	1067.52
490.17	1059.56
490.53	1067.75
490.89	1079.46
491.25	1083.90
491.61	1076.65
491.97	1088.12
492.33	1081.56
492.69	1082.73
493.05	1082.73
493.41	1083.20
493.77	1081.09
494.13	1074.31
494.49	1073.37
494.85	1072.67
495.21	1071.50
495.57	1071.03
495.93	1069.62
496.29	1079.22
496.64	1082.03
497.00	1084.60
497.36	1088.12
497.72	1091.86
498.08	1086.24
498.44	1085.31
498.80	1091.86
499.16	1096.78
499.52	1098.41
499.88	1101.92
500.24	1103.09
500.60	1097.24
500.96	1089.05
501.32	1088.35
501.68	1083.90
502.03	1091.63
502.39	1100.52
502.75	1105.44
503.11	1104.97
503.47	1091.16
503.83	1081.80
504.19	1068.92
504.55	1057.69
504.91	1055.11
505.26	1054.18
505.62	1044.11
505.98	1046.69
506.34	1052.54
506.70	1066.11
507.06	1062.84
507.42	1071.26
507.78	1070.33
508.13	1068.45
508.49	1060.03
508.85	1068.92
509.21	1066.82
509.57	1070.33
509.93	1080.39
510.28	1080.39
510.64	1087.18
511.00	1098.88
511.36	1105.44
511.72	1099.82
512.07	1095.14
512.43	1084.84
512.79	1082.03
513.15	1077.11
513.51	1071.03
513.86	1076.41
514.22	1088.58
514.58	1086.24
514.94	1086.71
515.30	1084.37
515.65	1085.31
516.01	1071.50
516.37	1071.03
516.73	1063.77
517.08	1073.37
517.44	1078.99
517.80	1077.82
518.16	1079.92
518.51	1088.82
518.87	1084.14
519.23	1061.90
519.59	1075.01
519.94	1064.94
520.30	1058.62
520.66	1064.24
521.01	1080.63
521.37	1070.56
521.73	1070.33
522.09	1073.14
522.44	1077.35
522.80	1082.73
523.16	1086.24
523.51	1085.54
523.87	1084.14
524.23	1078.75
524.58	1065.65
524.94	1056.05
525.30	1062.14
525.65	1058.62
526.01	1059.33
526.37	1080.16
526.72	1088.82
527.08	1085.07
527.44	1084.60
527.79	1080.63
528.15	1071.50
528.51	1067.05
528.86	1073.14
529.22	1077.82
529.58	1078.28
529.93	1067.75
530.29	1066.35
530.65	1070.80
531.00	1074.54
531.36	1068.22
531.71	1071.97
532.07	1081.09
532.43	1070.80
532.78	1066.35
533.14	1073.14
533.49	1083.67
533.85	1087.41
534.21	1089.75
534.56	1092.56
534.92	1095.37
535.27	1090.46
535.63	1093.26
535.98	1093.73
536.34	1102.16
536.69	1100.75
537.05	1097.95
537.41	1087.18
537.76	1092.09
538.12	1078.05
538.47	1075.94
538.83	1074.77
539.18	1072.43
539.54	1071.50
539.89	1079.69
540.25	1080.63
540.60	1081.80
540.96	1082.97
541.31	1072.43
541.67	1070.56
542.02	1079.92
542.38	1075.48
542.73	1082.50
543.09	1089.29
543.44	1086.24
543.80	1077.58
544.15	1082.50
544.51	1079.92
544.86	1075.48
545.22	1076.88
545.57	1083.43
545.93	1084.60
546.28	1087.88
546.64	1103.56
546.99	1101.46
547.35	1099.35
547.70	1101.46
548.05	1100.52
548.41	1091.63
548.76	1093.03
549.12	1086.94
549.47	1078.99
549.83	1079.92
550.18	1078.05
550.53	1078.52
550.89	1077.35
551.24	1082.73
551.60	1076.88
551.95	1073.14
552.30	1072.20
552.66	1077.82
553.01	1069.62
553.37	1067.28
553.72	1066.35
554.07	1060.96
554.43	1067.28
554.78	1071.97
555.13	1070.56
555.49	1085.77
555.84	1089.52
556.19	1078.52
556.55	1082.97
556.90	1083.90
557.26	1073.37
557.61	1074.77
557.96	1082.73
558.32	1079.92
558.67	1083.67
559.02	1074.31
559.37	1082.73
559.73	1073.14
560.08	1070.56
560.43	1066.82
560.79	1068.92
561.14	1066.35
561.49	1068.22
561.85	1065.18
562.20	1075.94
562.55	1079.92
562.90	1077.82
563.26	1074.07
563.61	1066.82
563.96	1060.26
564.32	1061.43
564.67	1059.33
565.02	1078.52
565.37	1079.46
565.73	1082.50
566.08	1084.84
566.43	1086.01
566.78	1071.73
567.14	1074.54
567.49	1071.03
567.84	1065.65
568.19	1057.22
568.54	1059.79
568.90	1070.56
569.25	1073.37
569.60	1082.97
569.95	1084.84
570.31	1082.50
570.66	1078.28
571.01	1066.35
571.36	1065.41
571.71	1069.39
572.06	1068.92
572.42	1072.43
572.77	1083.43
573.12	1068.92
573.47	1068.45
573.82	1067.99
574.18	1064.71
574.53	1064.94
574.88	1078.05
575.23	1084.37
575.58	1078.52
575.93	1085.54
576.28	1074.07
576.64	1072.43
576.99	1060.96
577.34	1066.11
577.69	1059.79
578.04	1075.24
578.39	1075.24
578.74	1084.37
579.09	1089.52
579.44	1092.09
579.80	1087.41
580.15	1087.88
580.50	1087.65
580.85	1090.22
581.20	1083.20
581.55	1083.67
581.90	1081.56
582.25	1079.92
582.60	1063.07
582.95	1066.82
583.30	1061.90
583.65	1061.67
584.00	1064.94
584.35	1073.37
584.71	1066.35
585.06	1060.03
585.41	1060.96
585.76	1061.20
586.11	1063.31
586.46	1063.07
586.81	1080.63
587.16	1079.92
587.51	1085.54
587.86	1085.77
588.21	1100.29
588.56	1091.16
588.91	1089.52
589.26	1082.26
589.61	1072.20
589.96	1064.24
590.31	1058.16
590.66	1064.71
591.01	1064.48
591.36	1071.50
591.71	1085.07
592.06	1089.29
592.41	1087.41
592.76	1085.31
593.10	1092.80
593.45	1086.71
593.80	1086.48
594.15	1089.05
594.50	1085.07
594.85	1079.46
595.20	1067.99
595.55	1086.01
595.90	1082.26
596.25	1088.12
596.60	1093.50
596.95	1104.73
597.30	1095.60
597.64	1144.76
597.99	1148.73
598.34	1139.61
598.69	1141.95
599.04	1132.12
599.39	1082.03
599.74	1082.73
600.09	1096.07
600.44	1091.63
600.78	1093.03
601.13	1087.18
601.48	1082.26
601.83	1077.35
602.18	1077.35
602.53	1079.46
602.88	1084.14
603.22	1088.82
603.57	1088.35
603.92	1086.94
604.27	1079.22
604.62	1081.33
604.97	1074.77
605.31	1076.18
605.66	1074.31
606.01	1087.65
606.36	1094.43
606.71	1089.99
607.05	1080.39
607.40	1085.07
607.75	1084.37
608.10	1076.65
608.44	1091.16
608.79	1088.82
609.14	1083.90
609.49	1076.65
609.84	1075.94
610.18	1069.16
610.53	1076.41
610.88	1078.05
611.23	1089.52
611.57	1089.29
611.92	1088.82
612.27	1088.82
612.62	1095.14
612.96	1083.43
613.31	1083.43
613.66	1080.86
614.00	1085.77
614.35	1078.52
614.70	1089.05
615.05	1097.95
615.39	1097.71
615.74	1087.65
616.09	1081.56
616.43	1076.18
616.78	1063.77
617.13	1063.31
617.47	1069.16
617.82	1076.18
618.17	1069.86
618.51	1080.63
618.86	1091.16
619.21	1089.99
619.55	1089.29
619.90	1100.75
620.25	1096.78
620.59	1081.09
620.94	1082.50
621.29	1075.24
621.63	1075.94
621.98	1067.28
622.32	1071.26
622.67	1067.52
623.02	1080.16
623.36	1071.50
623.71	1075.94
624.05	1070.80
624.40	1082.73
624.75	1082.50
625.09	1079.46
625.44	1081.56
625.78	1086.94
626.13	1090.92
626.48	1086.48
626.82	1088.12
627.17	1082.50
627.51	1084.37
627.86	1082.73
628.20	1081.09
628.55	1082.26
628.89	1080.63
629.24	1074.07
629.58	1060.03
629.93	1056.28
630.28	1061.67
630.62	1063.77
630.97	1071.97
631.31	1080.86
631.66	1083.67
632.00	1082.26
632.35	1084.37
632.69	1088.12
633.04	1072.20
633.38	1075.01
633.73	1075.48
634.07	1075.24
634.42	1064.48
634.76	1074.07
635.11	1083.67
635.45	1086.24
635.79	1085.07
636.14	1086.94
636.48	1089.05
636.83	1075.94
637.17	1060.03
637.52	1067.75
637.86	1072.90
638.21	1070.33
638.55	1070.09
638.89	1092.56
639.24	1095.84
639.58	1094.20
639.93	1098.65
640.27	1104.73
640.61	1084.14
640.96	1069.39
641.30	1075.94
641.65	1074.07
641.99	1061.67
642.33	1073.37
642.68	1075.01
643.02	1064.71
643.37	1062.14
643.71	1079.92
644.05	1079.92
644.40	1085.31
644.74	1086.71
645.08	1081.80
645.43	1078.28
645.77	1085.77
646.11	1088.12
646.46	1082.73
646.80	1092.56
647.14	1088.58
647.49	1076.18
647.83	1067.28
648.17	1072.90
648.52	1064.48
648.86	1064.48
649.20	1071.73
649.55	1080.63
649.89	1081.33
650.23	1087.65
650.57	1084.84
650.92	1090.22
651.26	1087.41
651.60	1083.20
651.95	1085.77
652.29	1082.73
652.63	1079.22
652.97	1076.41
653.32	1077.35
653.66	1070.33
654.00	1070.33
654.34	1062.37
654.69	1070.33
655.03	1070.09
655.37	1067.99
655.71	1070.80
656.05	1076.41
656.40	1060.73
656.74	1061.67
657.08	1068.69
657.42	1068.69
657.76	1064.48
658.11	1070.09
658.45	1088.12
658.79	1079.22
659.13	1075.94
659.47	1076.18
659.82	1093.73
660.16	1074.54
660.50	1074.77
660.84	1082.50
661.18	1092.33
661.52	1081.56
661.87	1088.12
662.21	1096.54
662.55	1095.60
662.89	1085.31
663.23	1071.73
663.57	1069.16
663.91	1063.54
664.25	1064.24
664.60	1066.11
664.94	1075.94
665.28	1080.39
665.62	1078.28
665.96	1065.65
666.30	1065.65
666.64	1074.31
666.98	1071.97
667.32	1079.46
667.66	1097.48
668.01	1098.18
668.35	1093.26
668.69	1089.99
669.03	1092.33
669.37	1081.09
669.71	1074.07
670.05	1069.62
670.39	1069.16
670.73	1056.99
671.07	1067.75
671.41	1066.82
671.75	1072.67
672.09	1067.52
672.43	1072.67
672.77	1054.65
673.11	1064.71
673.45	1054.65
673.79	1066.82
674.13	1067.75
674.47	1078.05
674.81	1078.52
675.15	1082.26
675.49	1079.22
675.83	1083.43
676.17	1080.16
676.51	1080.86
676.85	1085.31
677.19	1073.84
677.53	1073.60
677.87	1076.65
678.21	1076.88
678.55	1067.52
678.89	1074.77
679.23	1071.26
679.57	1066.11
679.90	1061.90
680.24	1072.67
680.58	1071.50
680.92	1074.77
681.26	1086.24
681.60	1086.24
681.94	1084.14
682.28	1085.77
682.62	1076.65
682.96	1069.86
683.29	1067.75
683.63	1068.45
683.97	1061.67
684.31	1071.03
684.65	1070.80
684.99	1069.86
685.33	1062.84
685.67	1069.86
686.00	1061.20
686.34	1068.22
686.68	1061.20
687.02	1062.37
687.36	1077.82
687.70	1081.80
688.03	1076.41
688.37	1077.82
688.71	1077.35
689.05	1062.84
689.39	1069.16
689.72	1064.24
690.06	1066.35
690.40	1060.03
690.74	1065.88
691.08	1062.37
691.41	1069.86
691.75	1072.90
692.09	1078.52
692.43	1075.94
692.76	1084.37
693.10	1084.37
693.44	1087.88
693.78	1111.05
694.11	1113.39
694.45	1105.44
694.79	1095.60
695.13	1096.78
695.46	1090.46
695.80	1080.86
696.14	1079.22
696.48	1089.29
696.81	1078.05
697.15	1064.71
697.49	1070.33
697.82	1076.65
698.16	1074.31
698.50	1088.12
698.83	1087.88
699.17	1086.24
699.51	1083.20
699.84	1084.14
700.18	1081.80
700.52	1085.07
700.85	1082.50
701.19	1079.92
701.53	1074.54
701.86	1063.54
702.20	1060.26
702.54	1065.41
702.87	1070.33
703.21	1076.88
703.55	1081.56
703.88	1088.58
704.22	1087.88
704.55	1076.41
704.89	1075.24
705.23	1082.73
705.56	1091.63
705.90	1095.37
706.23	1106.37
706.57	1111.29
706.91	1109.88
707.24	1100.05
707.58	1094.67
707.91	1090.22
708.25	1076.88
708.58	1073.84
708.92	1071.97
709.26	1081.09
709.59	1084.37
709.93	1086.94
710.26	1080.86
710.60	1080.16
710.93	1074.07
711.27	1067.99
711.60	1077.82
711.94	1084.60
712.27	1084.60
712.61	1082.26
712.94	1089.75
713.28	1085.54
713.61	1081.09
713.95	1078.75
714.28	1085.54
714.62	1089.99
714.95	1079.22
715.29	1090.46
715.62	1093.50
715.96	1081.80
716.29	1075.71
716.63	1085.54
716.96	1075.01
717.29	1073.60
717.63	1073.37
717.96	1071.50
718.30	1073.37
718.63	1078.28
718.97	1073.84
719.30	1082.73
719.63	1074.77
719.97	1071.73
720.30	1064.48
720.64	1071.26
720.97	1064.94
721.30	1072.90
721.64	1071.50
721.97	1075.94
722.31	1066.82
722.64	1070.33
722.97	1069.62
723.31	1073.37
723.64	1073.84
723.97	1088.58
724.31	1080.16
724.64	1077.11
724.98	1074.54
725.31	1071.73
725.64	1058.62
725.98	1065.65
726.31	1064.71
726.64	1070.09
726.97	1063.31
727.31	1069.39
727.64	1067.52
727.97	1075.48
728.31	1078.52
728.64	1089.75
728.97	1087.88
729.31	1091.63
729.64	1078.99
729.97	1067.52
730.30	1068.45
730.64	1078.75
730.97	1076.41
731.30	1079.92
731.63	1077.82
731.97	1075.71
732.30	1067.05
732.63	1068.22
732.96	1073.60
733.30	1082.26
733.63	1084.14
733.96	1087.18
734.29	1088.35
734.63	1096.54
734.96	1094.20
735.29	1096.78
735.62	1088.12
735.95	1082.03
736.29	1078.28
736.62	1082.97
736.95	1074.31
737.28	1084.84
737.61	1086.24
737.94	1091.16
738.28	1091.63
738.61	1095.37
738.94	1084.60
739.27	1089.75
739.60	1077.82
739.93	1083.43
740.27	1079.46
740.60	1080.16
740.93	1079.46
741.26	1076.88
741.59	1068.92
741.92	1077.58
742.25	1080.39
742.58	1081.80
742.91	1079.92
743.25	1079.46
743.58	1080.86
743.91	1084.37
744.24	1082.26
744.57	1092.80
744.90	1088.35
745.23	1086.94
745.56	1082.03
745.89	1078.05
746.22	1064.94
746.55	1071.26
746.88	1062.14
747.21	1056.75
747.54	1051.84
747.87	1056.99
748.20	1059.56
748.53	1061.67
748.87	1065.18
749.20	1074.07
749.53	1069.16
749.86	1064.71
750.19	1066.82
750.52	1073.14
750.85	1071.73
751.18	1078.75
751.51	1081.56
751.84	1086.48
752.16	1089.05
752.49	1085.31
752.82	1088.35
753.15	1086.48
753.48	1079.22
753.81	1072.90
754.14	1079.46
754.47	1082.50
754.80	1073.14
755.13	1081.33
755.46	1076.41
755.79	1069.16
756.12	1073.84
756.45	1081.80
756.78	1083.43
757.11	1095.14
757.43	1098.18
757.76	1086.48
758.09	1081.80
758.42	1071.03
758.75	1060.50
759.08	1062.37
759.41	1066.58
759.74	1062.37
760.07	1070.80
760.39	1084.37
760.72	1082.73
761.05	1080.63
761.38	1086.01
761.71	1085.07
762.04	1079.22
762.36	1076.88
762.69	1073.60
763.02	1077.11
763.35	1077.35
763.68	1079.69
764.01	1075.94
764.33	1079.22
764.66	1079.92
764.99	1073.84
765.32	1063.54
765.65	1065.88
765.97	1065.18
766.30	1064.48
