SpectraSuite Data File
++++++++++++++++++++++++++++++++++++
Date: Mon Aug 26 10:24:34 PDT 2019
User: corrico
Dark Spectrum Present: No
Reference Spectrum Present: No
Number of Sampled Component Spectra: 1
Spectrometers: USB2+H06089
Integration Time (usec): 10000 (USB2+H06089)
Spectra Averaged: 2 (USB2+H06089)
Boxcar Smoothing: 2 (USB2+H06089)
Correct for Electrical Dark: No (USB2+H06089)
Strobe/Lamp Enabled: No (USB2+H06089)
Correct for Detector Non-linearity: No (USB2+H06089)
Correct for Stray Light: No (USB2+H06089)
Number of Pixels in Processed Spectrum: 2048
>>>>>Begin Processed Spectral Data<<<<<
339.70	1060.26
340.07	1060.26
340.45	1027.26
340.82	994.49
341.19	957.98
341.57	914.68
341.94	903.21
342.31	885.19
342.69	889.17
343.06	893.85
343.43	900.40
343.81	890.81
344.18	895.72
344.55	902.04
344.93	906.26
345.30	914.21
345.67	935.28
346.04	946.75
346.42	953.53
346.79	958.22
347.16	972.26
347.54	972.49
347.91	972.02
348.28	972.26
348.65	979.51
349.03	982.09
349.40	990.28
349.77	999.41
350.14	1009.24
350.52	1025.39
350.89	1036.62
351.26	1040.13
351.63	1046.45
352.01	1053.01
352.38	1046.22
352.75	1046.22
353.12	1060.96
353.50	1068.22
353.87	1077.82
354.24	1086.48
354.61	1085.31
354.98	1071.26
355.36	1072.90
355.73	1069.16
356.10	1069.62
356.47	1081.33
356.84	1093.03
357.22	1083.67
357.59	1085.31
357.96	1089.29
358.33	1082.26
358.70	1082.03
359.08	1096.78
359.45	1099.35
359.82	1092.56
360.19	1088.35
360.56	1088.58
360.94	1080.39
361.31	1072.20
361.68	1072.20
362.05	1080.16
362.42	1078.05
362.79	1079.92
363.16	1090.46
363.54	1095.60
363.91	1097.95
364.28	1096.54
364.65	1087.88
365.02	1079.46
365.39	1073.37
365.76	1076.65
366.14	1077.11
366.51	1078.75
366.88	1078.05
367.25	1092.80
367.62	1087.41
367.99	1079.22
368.36	1086.71
368.73	1080.16
369.10	1066.11
369.48	1055.58
369.85	1061.67
370.22	1057.45
370.59	1062.60
370.96	1061.90
371.33	1069.39
371.70	1070.56
372.07	1072.90
372.44	1074.07
372.81	1076.65
373.18	1065.88
373.55	1063.54
373.93	1070.56
374.30	1066.82
374.67	1057.92
375.04	1071.97
375.41	1071.50
375.78	1069.16
376.15	1078.05
376.52	1087.88
376.89	1093.26
377.26	1098.41
377.63	1093.97
378.00	1090.46
378.37	1099.12
378.74	1089.99
379.11	1091.39
379.48	1092.33
379.85	1091.16
380.22	1090.46
380.59	1091.39
380.96	1090.22
381.33	1096.07
381.70	1095.60
382.07	1099.35
382.44	1102.16
382.81	1098.18
383.18	1089.29
383.55	1086.24
383.92	1072.43
384.29	1066.11
384.66	1063.31
385.03	1064.24
385.40	1065.88
385.77	1069.62
386.14	1075.94
386.51	1077.35
386.88	1076.65
387.25	1078.52
387.62	1078.52
387.99	1071.73
388.36	1067.99
388.73	1070.56
389.10	1072.43
389.46	1077.11
389.83	1086.01
390.20	1091.86
390.57	1087.18
390.94	1086.71
391.31	1082.03
391.68	1084.14
392.05	1080.16
392.42	1081.33
392.79	1082.03
393.16	1089.29
393.53	1082.73
393.89	1078.75
394.26	1084.14
394.63	1077.82
395.00	1071.73
395.37	1077.58
395.74	1083.20
396.11	1080.63
396.48	1083.90
396.84	1085.07
397.21	1077.35
397.58	1076.65
397.95	1071.03
398.32	1064.24
398.69	1078.28
399.06	1081.33
399.42	1091.39
399.79	1104.97
400.16	1111.29
400.53	1097.48
400.90	1099.58
401.27	1095.37
401.64	1084.14
402.00	1094.20
402.37	1099.58
402.74	1107.07
403.11	1115.97
403.48	1136.33
403.84	1140.54
404.21	1136.80
404.58	1134.69
404.95	1139.61
405.32	1136.10
405.68	1139.37
406.05	1148.50
406.42	1149.44
406.79	1158.80
407.16	1157.63
407.52	1158.33
407.89	1162.31
408.26	1175.89
408.63	1170.03
408.99	1182.20
409.36	1192.27
409.73	1205.14
410.10	1215.91
410.47	1237.44
410.83	1244.70
411.20	1262.02
411.57	1269.97
411.94	1275.83
412.30	1273.95
412.67	1301.34
413.04	1308.36
413.40	1336.21
413.77	1360.32
414.14	1389.81
414.51	1406.66
414.87	1438.49
415.24	1457.45
415.61	1484.37
415.97	1513.86
416.34	1542.65
416.71	1580.10
417.08	1618.01
417.44	1649.61
417.81	1709.53
418.18	1746.98
418.54	1793.08
418.91	1828.89
419.28	1898.41
419.64	1942.64
420.01	2009.12
420.38	2060.84
420.74	2146.04
421.11	2209.47
421.48	2270.32
421.84	2323.68
422.21	2382.43
422.58	2454.75
422.94	2536.91
423.31	2632.17
423.68	2720.64
424.04	2829.94
424.41	2922.39
424.77	3018.59
425.14	3096.53
425.51	3229.94
425.87	3341.82
426.24	3452.52
426.61	3588.74
426.97	3747.20
427.34	3899.33
427.70	4071.13
428.07	4243.16
428.44	4411.44
428.80	4593.54
429.17	4762.99
429.53	4905.53
429.90	5105.88
430.27	5286.33
430.63	5480.36
431.00	5686.10
431.36	5923.66
431.73	6105.99
432.09	6326.70
432.46	6537.12
432.83	6738.87
433.19	6961.22
433.56	7237.87
433.92	7498.61
434.29	7684.45
434.65	7908.44
435.02	8048.87
435.38	8223.00
435.75	8322.01
436.11	8526.10
436.48	8700.24
436.84	8902.23
437.21	9028.38
437.57	9169.75
437.94	9269.22
438.30	9340.14
438.67	9351.14
439.03	9399.59
439.40	9475.19
439.76	9445.00
440.13	9407.78
440.49	9432.59
440.86	9309.25
441.22	9173.73
441.59	9042.19
441.95	8906.44
442.32	8718.50
442.68	8619.49
443.05	8454.25
443.41	8290.18
443.78	8083.04
444.14	7904.69
444.51	7700.83
444.87	7528.80
445.24	7365.20
445.60	7210.72
445.96	7014.12
446.33	6831.09
446.69	6636.35
447.06	6483.28
447.42	6339.81
447.79	6212.02
448.15	6079.31
448.51	5956.90
448.88	5835.66
449.24	5696.16
449.61	5595.05
449.97	5463.28
450.33	5329.40
450.70	5176.09
451.06	5069.60
451.43	4932.44
451.79	4841.63
452.15	4739.58
452.52	4662.82
452.88	4555.38
453.24	4481.19
453.61	4384.06
453.97	4305.65
454.34	4219.99
454.70	4122.39
455.06	4016.59
455.43	3898.86
455.79	3785.35
456.15	3667.15
456.52	3573.06
456.88	3497.93
457.24	3412.27
457.61	3348.14
457.97	3273.94
458.33	3205.60
458.70	3105.42
459.06	3040.59
459.42	2947.90
459.79	2873.24
460.15	2816.13
460.51	2755.04
460.88	2686.94
461.24	2627.72
461.60	2586.99
461.96	2540.65
462.33	2492.20
462.69	2445.86
463.05	2412.62
463.42	2371.66
463.78	2317.36
464.14	2282.96
464.50	2253.94
464.87	2195.42
465.23	2160.78
465.59	2114.21
465.95	2084.48
466.32	2045.63
466.68	2031.82
467.04	1993.67
467.40	1981.50
467.77	1957.16
468.13	1937.73
468.49	1924.15
468.85	1903.56
469.22	1878.75
469.58	1856.98
469.94	1821.87
470.30	1792.38
470.66	1775.76
471.03	1761.02
471.39	1748.15
471.75	1741.12
472.11	1729.66
472.47	1719.36
472.84	1713.51
473.20	1693.85
473.56	1674.65
473.92	1650.08
474.28	1640.72
474.65	1615.91
475.01	1596.71
475.37	1588.52
475.73	1584.78
476.09	1555.75
476.45	1538.90
476.81	1517.14
477.18	1497.94
477.54	1493.73
477.90	1492.56
478.26	1487.18
478.62	1487.64
478.98	1491.16
479.34	1482.96
479.71	1473.37
480.07	1449.96
480.43	1448.79
480.79	1427.96
481.15	1414.15
481.51	1403.39
481.87	1409.24
482.23	1390.98
482.59	1391.21
482.96	1371.09
483.32	1370.38
483.68	1356.57
484.04	1362.19
484.40	1357.04
484.76	1357.74
485.12	1349.32
485.48	1345.11
485.84	1336.91
486.20	1321.70
486.56	1317.49
486.92	1311.40
487.28	1314.44
487.64	1309.76
488.00	1310.93
488.37	1311.40
488.73	1306.02
489.09	1289.87
489.45	1282.61
489.81	1280.27
490.17	1267.63
490.53	1268.80
490.89	1263.89
491.25	1246.34
491.61	1239.55
491.97	1230.19
492.33	1215.67
492.69	1218.95
493.05	1223.40
493.41	1221.29
493.77	1228.08
494.13	1225.97
494.49	1210.76
494.85	1207.25
495.21	1191.10
495.57	1182.67
495.93	1163.25
496.29	1170.97
496.64	1164.42
497.00	1164.65
497.36	1159.74
497.72	1176.12
498.08	1168.16
498.44	1180.33
498.80	1174.25
499.16	1159.50
499.52	1143.59
499.88	1150.84
500.24	1143.12
500.60	1146.16
500.96	1158.10
501.32	1176.35
501.68	1170.50
502.03	1169.10
502.39	1160.67
502.75	1146.16
503.11	1137.03
503.47	1131.88
503.83	1123.93
504.19	1137.50
504.55	1146.86
504.91	1133.05
505.26	1144.05
505.62	1145.69
505.98	1146.16
506.34	1148.50
506.70	1157.16
507.06	1132.12
507.42	1125.56
507.78	1115.73
508.13	1118.78
508.49	1118.07
508.85	1132.59
509.21	1143.12
509.57	1136.56
509.93	1138.44
510.28	1139.84
510.64	1130.95
511.00	1123.22
511.36	1132.35
511.72	1123.22
512.07	1112.46
512.43	1111.99
512.79	1104.50
513.15	1099.58
513.51	1101.46
513.86	1114.80
514.22	1114.56
514.58	1120.18
514.94	1118.78
515.30	1112.46
515.65	1097.48
516.01	1096.07
516.37	1087.88
516.73	1084.60
517.08	1081.56
517.44	1085.07
517.80	1094.20
518.16	1093.03
518.51	1092.33
518.87	1092.09
519.23	1093.97
519.59	1088.82
519.94	1092.80
520.30	1086.01
520.66	1083.90
521.01	1082.73
521.37	1087.88
521.73	1101.22
522.09	1116.20
522.44	1121.82
522.80	1114.80
523.16	1102.39
523.51	1094.67
523.87	1094.20
524.23	1092.56
524.58	1101.22
524.94	1105.44
525.30	1109.18
525.65	1109.65
526.01	1118.31
526.37	1114.80
526.72	1107.07
527.08	1096.54
527.44	1086.71
527.79	1079.69
528.15	1079.46
528.51	1085.54
528.86	1084.60
529.22	1077.35
529.58	1078.28
529.93	1082.26
530.29	1081.80
530.65	1091.16
531.00	1104.26
531.36	1116.44
531.71	1110.82
532.07	1110.58
532.43	1109.65
532.78	1108.48
533.14	1092.80
533.49	1100.05
533.85	1107.54
534.21	1101.22
534.56	1102.16
534.92	1108.71
535.27	1099.58
535.63	1099.58
535.98	1092.56
536.34	1094.67
536.69	1091.86
537.05	1103.80
537.41	1099.82
537.76	1106.37
538.12	1103.56
538.47	1103.80
538.83	1097.71
539.18	1094.67
539.54	1100.05
539.89	1093.03
540.25	1099.58
540.60	1093.26
540.96	1090.92
541.31	1079.92
541.67	1088.82
542.02	1080.86
542.38	1090.46
542.73	1097.24
543.09	1107.31
543.44	1104.26
543.80	1103.09
544.15	1107.54
544.51	1109.88
544.86	1108.24
545.22	1109.18
545.57	1110.82
545.93	1101.46
546.28	1096.78
546.64	1094.67
546.99	1088.35
547.35	1081.09
547.70	1086.71
548.05	1091.16
548.41	1092.33
548.76	1093.97
549.12	1097.24
549.47	1087.18
549.83	1087.18
550.18	1096.07
550.53	1100.52
550.89	1097.48
551.24	1104.26
551.60	1104.26
551.95	1093.73
552.30	1085.54
552.66	1090.69
553.01	1083.67
553.37	1082.73
553.72	1084.14
554.07	1087.41
554.43	1082.50
554.78	1080.39
555.13	1072.90
555.49	1073.14
555.84	1079.22
556.19	1079.22
556.55	1078.75
556.90	1077.82
557.26	1074.07
557.61	1068.69
557.96	1074.31
558.32	1075.24
558.67	1091.16
559.02	1089.52
559.37	1093.73
559.73	1096.31
560.08	1105.67
560.43	1086.71
560.79	1091.16
561.14	1085.31
561.49	1080.16
561.85	1077.35
562.20	1073.60
562.55	1067.75
562.90	1066.35
563.26	1067.28
563.61	1073.60
563.96	1078.99
564.32	1081.80
564.67	1089.05
565.02	1086.01
565.37	1079.92
565.73	1097.24
566.08	1101.92
566.43	1098.41
566.78	1099.82
567.14	1102.63
567.49	1096.54
567.84	1087.41
568.19	1091.63
568.54	1099.82
568.90	1093.03
569.25	1082.26
569.60	1082.26
569.95	1081.33
570.31	1078.99
570.66	1082.03
571.01	1084.60
571.36	1089.29
571.71	1082.73
572.06	1079.46
572.42	1076.41
572.77	1082.97
573.12	1076.41
573.47	1079.22
573.82	1075.71
574.18	1075.24
574.53	1080.39
574.88	1080.86
575.23	1090.69
575.58	1092.09
575.93	1098.41
576.28	1094.20
576.64	1095.84
576.99	1087.41
577.34	1091.39
577.69	1093.97
578.04	1094.20
578.39	1091.16
578.74	1089.05
579.09	1093.97
579.44	1089.75
579.80	1092.33
580.15	1104.73
580.50	1106.61
580.85	1096.78
581.20	1093.97
581.55	1086.01
581.90	1082.50
582.25	1086.24
582.60	1091.16
582.95	1101.92
583.30	1095.60
583.65	1090.22
584.00	1092.33
584.35	1086.24
584.71	1072.20
585.06	1080.63
585.41	1084.84
585.76	1078.75
586.11	1079.22
586.46	1083.43
586.81	1086.24
587.16	1089.75
587.51	1089.99
587.86	1100.29
588.21	1095.37
588.56	1088.35
588.91	1082.73
589.26	1092.33
589.61	1092.33
589.96	1100.99
590.31	1106.84
590.66	1105.90
591.01	1088.35
591.36	1083.20
591.71	1074.54
592.06	1076.88
592.41	1082.03
592.76	1095.84
593.10	1095.14
593.45	1101.22
593.80	1095.37
594.15	1093.03
594.50	1086.48
594.85	1086.94
595.20	1088.35
595.55	1087.41
595.90	1086.94
596.25	1089.99
596.60	1087.18
596.95	1079.22
597.30	1076.18
597.64	1124.16
597.99	1121.82
598.34	1122.05
598.69	1135.63
599.04	1138.44
599.39	1089.99
599.74	1089.99
600.09	1083.20
600.44	1073.60
600.78	1076.41
601.13	1069.62
601.48	1066.58
601.83	1068.22
602.18	1076.88
602.53	1065.88
602.88	1071.03
603.22	1068.22
603.57	1068.69
603.92	1062.84
604.27	1070.09
604.62	1061.43
604.97	1063.31
605.31	1070.33
605.66	1080.39
606.01	1079.46
606.36	1092.56
606.71	1103.56
607.05	1099.58
607.40	1080.63
607.75	1077.58
608.10	1076.65
608.44	1076.88
608.79	1071.73
609.14	1084.37
609.49	1089.75
609.84	1089.05
610.18	1082.03
610.53	1081.56
610.88	1073.84
611.23	1064.48
611.57	1059.79
611.92	1054.65
612.27	1069.62
612.62	1071.50
612.96	1075.48
613.31	1088.82
613.66	1089.29
614.00	1079.69
614.35	1087.41
614.70	1093.03
615.05	1087.18
615.39	1082.73
615.74	1077.82
616.09	1072.20
616.43	1073.84
616.78	1070.33
617.13	1083.90
617.47	1096.78
617.82	1099.12
618.17	1096.07
618.51	1098.18
618.86	1094.43
619.21	1093.73
619.55	1089.75
619.90	1082.50
620.25	1075.71
620.59	1074.54
620.94	1080.16
621.29	1078.75
621.63	1089.05
621.98	1097.24
622.32	1096.31
622.67	1085.77
623.02	1086.94
623.36	1079.46
623.71	1080.16
624.05	1082.97
624.40	1082.97
624.75	1084.14
625.09	1088.58
625.44	1081.09
625.78	1071.03
626.13	1069.86
626.48	1071.97
626.82	1079.46
627.17	1083.43
627.51	1085.54
627.86	1088.12
628.20	1084.84
628.55	1083.67
628.89	1087.41
629.24	1089.29
629.58	1083.43
629.93	1082.03
630.28	1066.82
630.62	1065.41
630.97	1068.69
631.31	1071.97
631.66	1071.50
632.00	1086.48
632.35	1090.22
632.69	1089.52
633.04	1086.94
633.38	1084.60
633.73	1078.05
634.07	1066.82
634.42	1065.88
634.76	1065.65
635.11	1068.92
635.45	1070.56
635.79	1072.20
636.14	1072.20
636.48	1076.88
636.83	1085.54
637.17	1082.03
637.52	1082.03
637.86	1086.94
638.21	1094.90
638.55	1088.82
638.89	1089.29
639.24	1091.39
639.58	1087.65
639.93	1068.45
640.27	1064.71
640.61	1060.96
640.96	1061.90
641.30	1062.60
641.65	1071.50
641.99	1074.31
642.33	1079.46
642.68	1085.54
643.02	1090.46
643.37	1100.99
643.71	1101.92
644.05	1108.71
644.40	1106.61
644.74	1098.65
645.08	1090.69
645.43	1088.82
645.77	1082.26
646.11	1079.46
646.46	1076.65
646.80	1071.73
647.14	1076.65
647.49	1077.58
647.83	1072.90
648.17	1085.54
648.52	1093.50
648.86	1084.37
649.20	1093.73
649.55	1099.35
649.89	1094.43
650.23	1104.50
650.57	1105.44
650.92	1101.92
651.26	1095.60
651.60	1090.22
651.95	1068.92
652.29	1083.90
652.63	1083.43
652.97	1093.03
653.32	1104.50
653.66	1113.86
654.00	1101.92
654.34	1099.12
654.69	1097.48
655.03	1088.12
655.37	1087.18
655.71	1074.77
656.05	1066.11
656.40	1063.31
656.74	1060.26
657.08	1059.56
657.42	1072.90
657.76	1071.97
658.11	1077.35
658.45	1087.65
658.79	1091.39
659.13	1086.48
659.47	1095.84
659.82	1086.24
660.16	1080.16
660.50	1083.90
660.84	1090.46
661.18	1086.01
661.52	1100.52
661.87	1094.90
662.21	1082.03
662.55	1070.33
662.89	1070.80
663.23	1053.71
663.57	1055.58
663.91	1069.16
664.25	1080.16
664.60	1078.52
664.94	1084.14
665.28	1087.18
665.62	1078.28
665.96	1081.09
666.30	1083.43
666.64	1083.90
666.98	1085.31
667.32	1087.41
667.66	1084.37
668.01	1083.90
668.35	1083.20
668.69	1084.84
669.03	1079.69
669.37	1084.37
669.71	1080.63
670.05	1085.54
670.39	1081.56
670.73	1086.24
671.07	1081.09
671.41	1086.24
671.75	1081.09
672.09	1084.60
672.43	1078.28
672.77	1067.99
673.11	1065.18
673.45	1063.77
673.79	1062.37
674.13	1063.54
674.47	1068.45
674.81	1073.37
675.15	1077.11
675.49	1077.58
675.83	1082.73
676.17	1081.56
676.51	1077.58
676.85	1073.37
677.19	1081.33
677.53	1079.69
677.87	1086.24
678.21	1086.71
678.55	1090.69
678.89	1076.18
679.23	1076.88
679.57	1073.84
679.90	1074.54
680.24	1069.16
680.58	1075.94
680.92	1070.80
681.26	1079.69
681.60	1091.39
681.94	1095.37
682.28	1097.95
682.62	1113.16
682.96	1104.03
683.29	1094.90
683.63	1101.92
683.97	1103.09
684.31	1089.99
684.65	1097.24
684.99	1098.18
685.33	1081.09
685.67	1076.65
686.00	1078.75
686.34	1076.18
686.68	1078.99
687.02	1092.56
687.36	1092.09
687.70	1097.48
688.03	1097.48
688.37	1095.60
688.71	1099.58
689.05	1103.80
689.39	1098.41
689.72	1089.75
690.06	1082.73
690.40	1075.94
690.74	1080.63
691.08	1080.63
691.41	1081.56
691.75	1086.48
692.09	1084.84
692.43	1084.14
692.76	1091.39
693.10	1093.50
693.44	1088.35
693.78	1086.24
694.11	1074.31
694.45	1071.50
694.79	1072.43
695.13	1083.67
695.46	1086.94
695.80	1089.29
696.14	1086.71
696.48	1084.60
696.81	1075.71
697.15	1078.05
697.49	1077.82
697.82	1080.39
698.16	1081.33
698.50	1075.24
698.83	1077.11
699.17	1078.52
699.51	1070.80
699.84	1073.84
700.18	1078.52
700.52	1073.37
700.85	1084.84
701.19	1089.05
701.53	1082.26
701.86	1083.43
702.20	1087.65
702.54	1076.88
702.87	1077.35
703.21	1087.65
703.55	1087.41
703.88	1088.12
704.22	1093.97
704.55	1091.86
704.89	1079.46
705.23	1073.37
705.56	1065.18
705.90	1055.11
706.23	1050.43
706.57	1063.31
706.91	1064.94
707.24	1068.45
707.58	1078.75
707.91	1084.37
708.25	1079.46
708.58	1087.41
708.92	1083.67
709.26	1077.82
709.59	1080.39
709.93	1078.99
710.26	1082.26
710.60	1080.16
710.93	1086.48
711.27	1085.77
711.60	1088.35
711.94	1075.71
712.27	1081.56
712.61	1074.54
712.94	1075.48
713.28	1078.99
713.61	1093.97
713.95	1093.73
714.28	1094.43
714.62	1089.75
714.95	1084.60
715.29	1080.39
715.62	1083.90
715.96	1083.90
716.29	1085.77
716.63	1082.73
716.96	1080.39
717.29	1070.33
717.63	1066.58
717.96	1068.69
718.30	1072.90
718.63	1073.60
718.97	1082.26
719.30	1083.90
719.63	1082.73
719.97	1074.31
720.30	1063.07
720.64	1064.24
720.97	1057.22
721.30	1055.82
721.64	1063.77
721.97	1083.43
722.31	1074.77
722.64	1080.39
722.97	1083.90
723.31	1086.94
723.64	1072.90
723.97	1079.46
724.31	1076.65
724.64	1068.45
724.98	1071.97
725.31	1073.14
725.64	1069.16
725.98	1072.20
726.31	1075.71
726.64	1068.45
726.97	1077.82
727.31	1080.86
727.64	1084.60
727.97	1091.16
728.31	1094.90
728.64	1097.95
728.97	1100.99
729.31	1097.71
729.64	1090.92
729.97	1083.67
730.30	1071.97
730.64	1066.11
730.97	1063.77
731.30	1064.24
731.63	1072.67
731.97	1072.90
732.30	1071.97
732.63	1074.07
732.96	1068.69
733.30	1062.84
733.63	1067.05
733.96	1063.77
734.29	1066.58
734.63	1067.52
734.96	1075.71
735.29	1070.09
735.62	1084.37
735.95	1079.46
736.29	1073.84
736.62	1066.82
736.95	1069.16
737.28	1061.67
737.61	1062.37
737.94	1075.94
738.28	1072.90
738.61	1072.67
738.94	1066.11
739.27	1067.52
739.60	1065.18
739.93	1070.56
740.27	1080.39
740.60	1086.01
740.93	1082.97
741.26	1091.63
741.59	1093.50
741.92	1089.29
742.25	1096.54
742.58	1096.07
742.91	1093.26
743.25	1095.14
743.58	1098.88
743.91	1093.50
744.24	1093.03
744.57	1086.24
744.90	1082.50
745.23	1061.67
745.56	1056.05
745.89	1064.24
746.22	1064.01
746.55	1063.77
746.88	1070.33
747.21	1070.56
747.54	1078.28
747.87	1078.75
748.20	1073.84
748.53	1073.14
748.87	1080.63
749.20	1074.07
749.53	1081.09
749.86	1086.71
750.19	1095.14
750.52	1093.50
750.85	1082.03
751.18	1077.58
751.51	1079.46
751.84	1080.16
752.16	1085.31
752.49	1098.65
752.82	1097.95
753.15	1095.60
753.48	1090.46
753.81	1081.33
754.14	1077.35
754.47	1077.11
754.80	1077.11
755.13	1069.39
755.46	1060.03
755.79	1055.11
756.12	1063.07
756.45	1055.11
756.78	1068.45
757.11	1085.77
757.43	1093.50
757.76	1078.05
758.09	1093.03
758.42	1097.24
758.75	1100.29
759.08	1101.22
759.41	1115.03
759.74	1099.12
760.07	1097.95
760.39	1088.35
760.72	1086.01
761.05	1078.99
761.38	1085.31
761.71	1085.07
762.04	1089.99
762.36	1089.52
762.69	1092.80
763.02	1086.94
763.35	1076.65
763.68	1075.48
764.01	1072.43
764.33	1056.99
764.66	1062.60
764.99	1062.60
765.32	1061.20
765.65	1051.37
765.97	1061.20
766.30	1067.28
