SpectraSuite Data File
++++++++++++++++++++++++++++++++++++
Date: Mon Aug 26 10:24:32 PDT 2019
User: corrico
Dark Spectrum Present: No
Reference Spectrum Present: No
Number of Sampled Component Spectra: 1
Spectrometers: USB2+H06089
Integration Time (usec): 10000 (USB2+H06089)
Spectra Averaged: 2 (USB2+H06089)
Boxcar Smoothing: 2 (USB2+H06089)
Correct for Electrical Dark: No (USB2+H06089)
Strobe/Lamp Enabled: No (USB2+H06089)
Correct for Detector Non-linearity: No (USB2+H06089)
Correct for Stray Light: No (USB2+H06089)
Number of Pixels in Processed Spectrum: 2048
>>>>>Begin Processed Spectral Data<<<<<
339.70	1014.62
340.07	1014.62
340.45	987.94
340.82	967.58
341.19	952.36
341.57	929.19
341.94	907.89
342.31	909.77
342.69	901.57
343.06	884.96
343.43	897.83
343.81	903.21
344.18	901.81
344.55	911.40
344.93	921.47
345.30	909.77
345.67	906.49
346.04	910.00
346.42	916.09
346.79	917.49
347.16	931.07
347.54	936.68
347.91	954.47
348.28	962.19
348.65	979.75
349.03	995.20
349.40	1017.90
349.77	1026.09
350.14	1034.52
350.52	1045.99
350.89	1045.28
351.26	1042.24
351.63	1044.82
352.01	1054.18
352.38	1054.88
352.75	1053.94
353.12	1071.73
353.50	1069.86
353.87	1078.52
354.24	1073.60
354.61	1079.92
354.98	1068.92
355.36	1074.07
355.73	1066.82
356.10	1077.58
356.47	1079.69
356.84	1086.94
357.22	1086.24
357.59	1090.22
357.96	1081.80
358.33	1082.26
358.70	1073.14
359.08	1078.75
359.45	1072.67
359.82	1078.75
360.19	1075.71
360.56	1075.71
360.94	1068.69
361.31	1069.86
361.68	1074.54
362.05	1077.35
362.42	1082.03
362.79	1091.39
363.16	1084.84
363.54	1084.60
363.91	1078.05
364.28	1068.22
364.65	1055.11
365.02	1062.60
365.39	1060.96
365.76	1059.33
366.14	1076.41
366.51	1080.16
366.88	1070.80
367.25	1056.52
367.62	1060.03
367.99	1045.52
368.36	1033.35
368.73	1035.69
369.10	1045.75
369.48	1038.96
369.85	1040.60
370.22	1061.90
370.59	1071.73
370.96	1071.50
371.33	1080.63
371.70	1089.52
372.07	1082.97
372.44	1082.26
372.81	1088.58
373.18	1096.54
373.55	1095.37
373.93	1092.09
374.30	1082.03
374.67	1077.82
375.04	1069.86
375.41	1047.16
375.78	1053.71
376.15	1060.50
376.52	1057.92
376.89	1063.07
377.26	1089.75
377.63	1088.12
378.00	1081.09
378.37	1080.16
378.74	1071.03
379.11	1062.84
379.48	1063.31
379.85	1063.77
380.22	1064.48
380.59	1072.90
380.96	1070.33
381.33	1070.80
381.70	1078.75
382.07	1082.97
382.44	1085.31
382.81	1092.09
383.18	1084.14
383.55	1086.48
383.92	1085.31
384.29	1078.99
384.66	1072.90
385.03	1080.63
385.40	1079.46
385.77	1074.77
386.14	1066.35
386.51	1067.52
386.88	1066.82
387.25	1061.20
387.62	1066.11
387.99	1072.90
388.36	1077.11
388.73	1067.52
389.10	1070.56
389.46	1064.48
389.83	1071.50
390.20	1076.18
390.57	1079.22
390.94	1074.77
391.31	1072.20
391.68	1067.99
392.05	1056.75
392.42	1060.73
392.79	1062.14
393.16	1067.28
393.53	1068.45
393.89	1069.16
394.26	1075.01
394.63	1084.37
395.00	1084.84
395.37	1080.39
395.74	1085.07
396.11	1070.56
396.48	1065.88
396.84	1069.39
397.21	1075.94
397.58	1077.11
397.95	1082.03
398.32	1079.46
398.69	1085.77
399.06	1080.39
399.42	1076.41
399.79	1080.63
400.16	1082.73
400.53	1073.37
400.90	1073.84
401.27	1086.71
401.64	1088.12
402.00	1084.37
402.37	1082.03
402.74	1087.18
403.11	1071.97
403.48	1072.20
403.84	1080.39
404.21	1089.99
404.58	1091.16
404.95	1092.33
405.32	1104.50
405.68	1097.71
406.05	1097.71
406.42	1092.56
406.79	1103.56
407.16	1090.69
407.52	1096.31
407.89	1102.16
408.26	1110.58
408.63	1109.88
408.99	1116.44
409.36	1120.18
409.73	1116.67
410.10	1116.44
410.47	1119.95
410.83	1112.46
411.20	1129.31
411.57	1136.33
411.94	1144.05
412.30	1153.42
412.67	1175.42
413.04	1158.10
413.40	1161.84
413.77	1171.44
414.14	1174.48
414.51	1173.54
414.87	1192.50
415.24	1214.50
415.61	1221.06
415.97	1230.65
416.34	1249.85
416.71	1259.91
417.08	1253.59
417.44	1264.83
417.81	1288.00
418.18	1296.66
418.54	1314.44
418.91	1343.94
419.28	1349.32
419.64	1354.23
420.01	1373.66
420.38	1401.51
420.74	1414.85
421.11	1443.64
421.48	1475.94
421.84	1502.39
422.21	1514.56
422.58	1548.03
422.94	1581.03
423.31	1607.01
423.68	1634.86
424.04	1678.87
424.41	1709.53
424.77	1734.81
425.14	1770.38
425.51	1810.17
425.87	1835.68
426.24	1864.70
426.61	1912.45
426.97	1969.56
427.34	2014.03
427.70	2069.27
428.07	2121.70
428.44	2191.44
428.80	2237.55
429.17	2293.96
429.53	2350.60
429.90	2425.03
430.27	2462.71
430.63	2515.14
431.00	2580.21
431.36	2649.72
431.73	2718.30
432.09	2789.45
432.46	2866.45
432.83	2931.29
433.19	2984.89
433.56	3030.76
433.92	3100.04
434.29	3153.64
434.65	3206.07
435.02	3278.39
435.38	3340.41
435.75	3398.69
436.11	3462.59
436.48	3534.68
436.84	3593.89
437.21	3641.17
437.57	3651.24
437.94	3679.56
438.30	3662.94
438.67	3650.53
439.03	3641.41
439.40	3663.41
439.76	3647.26
440.13	3652.17
440.49	3643.04
440.86	3599.51
441.22	3549.42
441.59	3505.65
441.95	3455.33
442.32	3399.86
442.68	3385.12
443.05	3341.82
443.41	3285.64
443.78	3238.83
444.14	3176.81
444.51	3110.10
444.87	3071.25
445.24	3033.33
445.60	2987.69
445.96	2941.35
446.33	2921.22
446.69	2861.07
447.06	2804.66
447.42	2756.68
447.79	2699.34
448.15	2616.25
448.51	2566.63
448.88	2517.95
449.24	2449.14
449.61	2421.75
449.97	2402.33
450.33	2351.54
450.70	2319.70
451.06	2319.94
451.43	2290.68
451.79	2260.72
452.15	2247.85
452.52	2224.68
452.88	2181.61
453.24	2147.44
453.61	2111.87
453.97	2090.33
454.34	2049.14
454.70	2022.69
455.06	1999.05
455.43	1967.22
455.79	1918.54
456.15	1887.88
456.52	1841.77
456.88	1820.00
457.24	1787.94
457.61	1779.04
457.97	1757.51
458.33	1750.02
458.70	1706.02
459.06	1695.48
459.42	1664.12
459.79	1649.38
460.15	1630.42
460.51	1624.10
460.88	1579.86
461.24	1560.67
461.60	1546.63
461.96	1539.84
462.33	1513.86
462.69	1510.82
463.05	1503.33
463.42	1476.41
463.78	1449.49
464.14	1435.22
464.50	1426.56
464.87	1417.66
465.23	1411.11
465.59	1403.39
465.95	1406.90
466.32	1398.47
466.68	1388.41
467.04	1383.02
467.40	1364.30
467.77	1346.74
468.13	1342.30
468.49	1325.68
468.85	1302.98
469.22	1315.38
469.58	1311.17
469.94	1300.40
470.30	1295.49
470.66	1307.19
471.03	1295.49
471.39	1285.66
471.75	1295.02
472.11	1304.85
472.47	1290.57
472.84	1279.34
473.20	1288.46
473.56	1270.91
473.92	1251.72
474.28	1248.91
474.65	1241.42
475.01	1225.50
475.37	1208.18
475.73	1206.08
476.09	1197.42
476.45	1198.82
476.81	1194.84
477.18	1201.63
477.54	1204.44
477.90	1211.93
478.26	1207.72
478.62	1205.61
478.98	1204.67
479.34	1195.31
479.71	1198.82
480.07	1194.61
480.43	1195.78
480.79	1196.95
481.15	1198.12
481.51	1183.14
481.87	1180.33
482.23	1178.46
482.59	1165.35
482.96	1159.03
483.32	1164.18
483.68	1159.27
484.04	1160.67
484.40	1161.84
484.76	1174.95
485.12	1173.54
485.48	1172.84
485.84	1174.71
486.20	1173.08
486.56	1152.25
486.92	1148.50
487.28	1158.57
487.64	1147.80
488.00	1153.88
488.37	1155.29
488.73	1155.76
489.09	1148.73
489.45	1155.52
489.81	1144.99
490.17	1150.84
490.53	1148.97
490.89	1145.93
491.25	1130.71
491.61	1130.71
491.97	1131.18
492.33	1128.84
492.69	1126.03
493.05	1134.93
493.41	1137.27
493.77	1137.27
494.13	1132.59
494.49	1136.56
494.85	1127.90
495.21	1130.48
495.57	1127.90
495.93	1132.35
496.29	1121.35
496.64	1125.10
497.00	1121.58
497.36	1113.16
497.72	1104.97
498.08	1099.12
498.44	1101.22
498.80	1079.92
499.16	1074.54
499.52	1082.03
499.88	1089.75
500.24	1086.01
500.60	1108.95
500.96	1114.56
501.32	1104.73
501.68	1106.37
502.03	1104.97
502.39	1095.84
502.75	1091.16
503.11	1100.75
503.47	1106.84
503.83	1100.75
504.19	1109.18
504.55	1105.67
504.91	1092.09
505.26	1080.63
505.62	1088.35
505.98	1087.65
506.34	1098.88
506.70	1115.97
507.06	1114.56
507.42	1106.84
507.78	1103.09
508.13	1099.58
508.49	1096.54
508.85	1105.20
509.21	1105.90
509.57	1097.01
509.93	1092.80
510.28	1079.69
510.64	1075.48
511.00	1082.26
511.36	1094.67
511.72	1093.73
512.07	1097.71
512.43	1099.58
512.79	1097.48
513.15	1095.84
513.51	1101.69
513.86	1101.69
514.22	1099.82
514.58	1091.16
514.94	1078.05
515.30	1075.01
515.65	1074.07
516.01	1080.39
516.37	1090.22
516.73	1093.26
517.08	1095.14
517.44	1096.31
517.80	1095.37
518.16	1092.56
518.51	1092.80
518.87	1081.33
519.23	1080.16
519.59	1078.99
519.94	1081.33
520.30	1084.37
520.66	1089.99
521.01	1095.37
521.37	1091.39
521.73	1094.90
522.09	1098.41
522.44	1108.95
522.80	1100.05
523.16	1091.39
523.51	1091.16
523.87	1086.94
524.23	1075.01
524.58	1083.43
524.94	1087.88
525.30	1083.67
525.65	1075.48
526.01	1079.69
526.37	1081.33
526.72	1083.90
527.08	1069.86
527.44	1084.37
527.79	1090.46
528.15	1085.31
528.51	1087.65
528.86	1096.54
529.22	1079.22
529.58	1072.43
529.93	1067.99
530.29	1070.56
530.65	1074.07
531.00	1081.09
531.36	1084.37
531.71	1097.71
532.07	1095.60
532.43	1104.03
532.78	1106.14
533.14	1100.75
533.49	1084.37
533.85	1092.80
534.21	1086.24
534.56	1093.73
534.92	1098.18
535.27	1105.67
535.63	1094.43
535.98	1094.43
536.34	1082.97
536.69	1084.37
537.05	1083.67
537.41	1084.14
537.76	1077.82
538.12	1087.88
538.47	1081.80
538.83	1080.63
539.18	1084.14
539.54	1083.67
539.89	1077.58
540.25	1073.37
540.60	1069.39
540.96	1066.11
541.31	1070.56
541.67	1072.43
542.02	1089.52
542.38	1093.73
542.73	1084.84
543.09	1077.11
543.44	1080.39
543.80	1079.69
544.15	1079.46
544.51	1094.20
544.86	1101.22
545.22	1101.92
545.57	1092.33
545.93	1089.52
546.28	1082.03
546.64	1093.26
546.99	1096.54
547.35	1094.90
547.70	1105.90
548.05	1107.78
548.41	1095.84
548.76	1099.35
549.12	1100.05
549.47	1092.09
549.83	1096.31
550.18	1104.97
550.53	1092.80
550.89	1090.46
551.24	1091.39
551.60	1086.71
551.95	1079.92
552.30	1078.99
552.66	1081.80
553.01	1076.18
553.37	1075.24
553.72	1068.22
554.07	1073.84
554.43	1075.24
554.78	1070.09
555.13	1075.71
555.49	1075.71
555.84	1072.43
556.19	1074.54
556.55	1090.46
556.90	1086.48
557.26	1078.52
557.61	1073.60
557.96	1067.52
558.32	1065.41
558.67	1053.48
559.02	1067.99
559.37	1073.37
559.73	1076.65
560.08	1069.62
560.43	1074.54
560.79	1064.01
561.14	1059.79
561.49	1059.33
561.85	1064.94
562.20	1064.71
562.55	1065.65
562.90	1073.37
563.26	1070.09
563.61	1064.94
563.96	1078.52
564.32	1088.58
564.67	1083.43
565.02	1092.80
565.37	1093.26
565.73	1088.35
566.08	1087.65
566.43	1094.67
566.78	1088.82
567.14	1092.56
567.49	1085.07
567.84	1081.09
568.19	1083.67
568.54	1078.75
568.90	1080.63
569.25	1079.22
569.60	1075.94
569.95	1068.45
570.31	1074.07
570.66	1060.26
571.01	1067.75
571.36	1074.31
571.71	1071.26
572.06	1063.07
572.42	1078.05
572.77	1069.62
573.12	1070.09
573.47	1066.35
573.82	1078.52
574.18	1070.33
574.53	1076.18
574.88	1068.69
575.23	1071.73
575.58	1069.86
575.93	1060.96
576.28	1065.18
576.64	1080.16
576.99	1071.26
577.34	1072.20
577.69	1091.16
578.04	1090.69
578.39	1088.35
578.74	1094.90
579.09	1091.86
579.44	1080.16
579.80	1069.39
580.15	1066.58
580.50	1070.33
580.85	1072.20
581.20	1075.24
581.55	1086.94
581.90	1083.20
582.25	1083.43
582.60	1083.20
582.95	1095.84
583.30	1097.01
583.65	1105.67
584.00	1105.67
584.35	1094.43
584.71	1082.03
585.06	1084.14
585.41	1076.18
585.76	1081.09
586.11	1086.48
586.46	1081.33
586.81	1076.18
587.16	1065.18
587.51	1060.50
587.86	1062.60
588.21	1072.67
588.56	1071.97
588.91	1076.18
589.26	1082.73
589.61	1080.63
589.96	1078.75
590.31	1075.71
590.66	1080.16
591.01	1075.94
591.36	1082.03
591.71	1072.67
592.06	1072.20
592.41	1073.14
592.76	1071.50
593.10	1060.03
593.45	1063.54
593.80	1064.48
594.15	1058.86
594.50	1060.50
594.85	1063.31
595.20	1068.22
595.55	1064.94
595.90	1073.84
596.25	1076.88
596.60	1086.94
596.95	1080.86
597.30	1090.22
597.64	1134.22
597.99	1130.48
598.34	1130.95
598.69	1138.90
599.04	1133.76
599.39	1097.48
599.74	1092.80
600.09	1090.22
600.44	1089.05
600.78	1087.65
601.13	1085.07
601.48	1089.05
601.83	1089.52
602.18	1082.73
602.53	1083.67
602.88	1072.67
603.22	1077.11
603.57	1070.80
603.92	1074.07
604.27	1078.99
604.62	1085.07
604.97	1080.16
605.31	1087.88
605.66	1097.24
606.01	1101.69
606.36	1104.73
606.71	1097.71
607.05	1099.35
607.40	1098.88
607.75	1087.18
608.10	1083.67
608.44	1094.20
608.79	1085.31
609.14	1071.03
609.49	1082.03
609.84	1088.12
610.18	1089.05
610.53	1097.71
610.88	1108.95
611.23	1109.18
611.57	1101.92
611.92	1090.46
612.27	1076.18
612.62	1071.26
612.96	1064.71
613.31	1072.43
613.66	1084.60
614.00	1088.12
614.35	1092.33
614.70	1096.54
615.05	1086.71
615.39	1083.90
615.74	1092.80
616.09	1089.29
616.43	1085.77
616.78	1092.09
617.13	1091.63
617.47	1080.39
617.82	1086.24
618.17	1078.05
618.51	1072.43
618.86	1074.31
619.21	1087.18
619.55	1087.18
619.90	1106.14
620.25	1111.99
620.59	1110.58
620.94	1104.97
621.29	1101.92
621.63	1098.88
621.98	1090.92
622.32	1088.82
622.67	1085.77
623.02	1088.58
623.36	1079.92
623.71	1079.69
624.05	1071.50
624.40	1068.22
624.75	1057.22
625.09	1048.09
625.44	1052.07
625.78	1055.82
626.13	1068.92
626.48	1075.94
626.82	1086.01
627.17	1086.48
627.51	1092.33
627.86	1082.73
628.20	1082.26
628.55	1070.09
628.89	1063.07
629.24	1065.41
629.58	1075.71
629.93	1081.56
630.28	1093.97
630.62	1102.86
630.97	1100.75
631.31	1095.84
631.66	1089.75
632.00	1082.97
632.35	1078.99
632.69	1078.05
633.04	1072.90
633.38	1061.67
633.73	1066.58
634.07	1073.14
634.42	1064.01
634.76	1068.69
635.11	1081.56
635.45	1074.31
635.79	1071.73
636.14	1080.39
636.48	1079.22
636.83	1079.69
637.17	1084.37
637.52	1069.86
637.86	1069.62
638.21	1066.35
638.55	1060.96
638.89	1067.52
639.24	1087.88
639.58	1095.84
639.93	1107.07
640.27	1111.52
640.61	1108.24
640.96	1100.75
641.30	1089.75
641.65	1082.03
641.99	1076.88
642.33	1075.94
642.68	1068.92
643.02	1070.80
643.37	1062.14
643.71	1065.41
644.05	1067.05
644.40	1070.80
644.74	1074.31
645.08	1084.14
645.43	1074.77
645.77	1070.56
646.11	1082.97
646.46	1080.16
646.80	1075.24
647.14	1083.67
647.49	1081.09
647.83	1065.41
648.17	1060.50
648.52	1060.26
648.86	1060.96
649.20	1058.86
649.55	1062.37
649.89	1064.01
650.23	1062.84
650.57	1058.62
650.92	1065.88
651.26	1063.77
651.60	1064.48
651.95	1076.65
652.29	1081.80
652.63	1078.99
652.97	1079.22
653.32	1076.41
653.66	1075.24
654.00	1074.77
654.34	1077.35
654.69	1080.63
655.03	1087.88
655.37	1085.07
655.71	1089.75
656.05	1086.94
656.40	1087.88
656.74	1084.60
657.08	1079.69
657.42	1068.69
657.76	1065.18
658.11	1063.31
658.45	1064.01
658.79	1059.09
659.13	1068.69
659.47	1074.54
659.82	1076.88
660.16	1076.65
660.50	1088.82
660.84	1089.05
661.18	1090.46
661.52	1091.39
661.87	1090.22
662.21	1089.99
662.55	1095.60
662.89	1099.12
663.23	1082.97
663.57	1081.09
663.91	1082.73
664.25	1064.94
664.60	1063.54
664.94	1078.52
665.28	1078.99
665.62	1067.28
665.96	1075.94
666.30	1069.62
666.64	1062.84
666.98	1071.50
667.32	1074.07
667.66	1075.24
668.01	1081.56
668.35	1091.16
668.69	1087.88
669.03	1094.67
669.37	1091.16
669.71	1094.90
670.05	1090.92
670.39	1094.20
670.73	1095.14
671.07	1093.97
671.41	1096.54
671.75	1100.29
672.09	1097.71
672.43	1095.14
672.77	1107.78
673.11	1103.80
673.45	1098.88
673.79	1095.14
674.13	1083.67
674.47	1072.43
674.81	1078.52
675.15	1075.71
675.49	1073.14
675.83	1074.07
676.17	1070.33
676.51	1062.84
676.85	1066.11
677.19	1067.52
677.53	1080.63
677.87	1087.18
678.21	1083.20
678.55	1085.31
678.89	1083.43
679.23	1080.39
679.57	1076.18
679.90	1075.48
680.24	1079.92
680.58	1082.97
680.92	1076.41
681.26	1083.20
681.60	1085.31
681.94	1083.90
682.28	1091.39
682.62	1092.56
682.96	1093.03
683.29	1094.90
683.63	1092.33
683.97	1090.92
684.31	1086.71
684.65	1075.24
684.99	1067.52
685.33	1060.50
685.67	1053.48
686.00	1060.26
686.34	1064.24
686.68	1069.86
687.02	1082.03
687.36	1077.58
687.70	1085.54
688.03	1089.99
688.37	1093.50
688.71	1091.63
689.05	1099.12
689.39	1094.20
689.72	1101.22
690.06	1102.86
690.40	1093.73
690.74	1096.07
691.08	1098.18
691.41	1092.56
691.75	1086.01
692.09	1093.97
692.43	1095.14
692.76	1087.18
693.10	1084.84
693.44	1078.99
693.78	1076.18
694.11	1074.31
694.45	1076.65
694.79	1074.77
695.13	1076.88
695.46	1081.09
695.80	1073.60
696.14	1072.20
696.48	1068.69
696.81	1064.48
697.15	1055.82
697.49	1063.07
697.82	1072.20
698.16	1084.84
698.50	1085.77
698.83	1086.01
699.17	1082.03
699.51	1074.54
699.84	1066.35
700.18	1071.73
700.52	1073.14
700.85	1072.90
701.19	1076.88
701.53	1067.75
701.86	1065.41
702.20	1071.26
702.54	1075.71
702.87	1074.54
703.21	1088.82
703.55	1091.39
703.88	1081.09
704.22	1073.60
704.55	1069.62
704.89	1063.31
705.23	1064.71
705.56	1065.18
705.90	1076.65
706.23	1080.86
706.57	1081.80
706.91	1080.63
707.24	1080.86
707.58	1071.26
707.91	1064.94
708.25	1073.84
708.58	1078.99
708.92	1084.84
709.26	1093.97
709.59	1100.52
709.93	1091.39
710.26	1092.09
710.60	1098.41
710.93	1089.05
711.27	1077.11
711.60	1072.20
711.94	1074.54
712.27	1072.90
712.61	1074.77
712.94	1071.97
713.28	1070.33
713.61	1053.24
713.95	1050.43
714.28	1051.60
714.62	1055.82
714.95	1067.05
715.29	1083.20
715.62	1073.84
715.96	1076.18
716.29	1080.16
716.63	1069.62
716.96	1055.35
717.29	1052.54
717.63	1050.20
717.96	1046.45
718.30	1060.03
718.63	1068.22
718.97	1084.84
719.30	1095.84
719.63	1109.88
719.97	1108.95
720.30	1113.39
720.64	1100.52
720.97	1086.01
721.30	1087.41
721.64	1086.94
721.97	1079.46
722.31	1081.09
722.64	1088.12
722.97	1090.92
723.31	1095.14
723.64	1096.31
723.97	1099.12
724.31	1092.33
724.64	1075.01
724.98	1068.22
725.31	1062.14
725.64	1064.48
725.98	1061.90
726.31	1069.86
726.64	1061.90
726.97	1078.05
727.31	1076.41
727.64	1087.18
727.97	1080.86
728.31	1081.09
728.64	1074.54
728.97	1078.28
729.31	1066.82
729.64	1066.82
729.97	1063.77
730.30	1056.05
730.64	1054.88
730.97	1064.71
731.30	1070.09
731.63	1068.22
731.97	1073.84
732.30	1075.94
732.63	1072.43
732.96	1071.73
733.30	1076.18
733.63	1071.03
733.96	1063.07
734.29	1068.69
734.63	1075.01
734.96	1077.35
735.29	1087.88
735.62	1094.20
735.95	1087.88
736.29	1078.28
736.62	1082.97
736.95	1069.39
737.28	1069.86
737.61	1071.26
737.94	1067.75
738.28	1075.48
738.61	1084.60
738.94	1089.75
739.27	1092.56
739.60	1089.52
739.93	1088.58
740.27	1090.46
740.60	1078.75
740.93	1078.75
741.26	1092.33
741.59	1084.37
741.92	1088.35
742.25	1089.75
742.58	1094.20
742.91	1091.86
743.25	1088.58
743.58	1078.99
743.91	1074.54
744.24	1072.43
744.57	1057.69
744.90	1067.28
745.23	1070.33
745.56	1071.26
745.89	1067.28
746.22	1072.20
746.55	1069.86
746.88	1072.43
747.21	1075.94
747.54	1076.65
747.87	1080.63
748.20	1081.09
748.53	1085.31
748.87	1088.12
749.20	1087.65
749.53	1087.18
749.86	1083.43
750.19	1076.88
750.52	1073.84
750.85	1075.94
751.18	1075.71
751.51	1074.31
751.84	1076.65
752.16	1074.31
752.49	1068.92
752.82	1070.09
753.15	1067.75
753.48	1067.28
753.81	1072.20
754.14	1081.09
754.47	1084.14
754.80	1094.20
755.13	1085.77
755.46	1090.22
755.79	1085.54
756.12	1093.03
756.45	1084.14
756.78	1084.84
757.11	1077.35
757.43	1071.26
757.76	1060.50
758.09	1055.11
758.42	1059.56
758.75	1058.86
759.08	1057.45
759.41	1062.37
759.74	1066.11
760.07	1065.88
760.39	1074.07
760.72	1085.07
761.05	1087.41
761.38	1092.56
761.71	1089.99
762.04	1088.35
762.36	1073.37
762.69	1066.11
763.02	1052.07
763.35	1053.24
763.68	1046.69
764.01	1061.90
764.33	1068.45
764.66	1083.67
764.99	1085.77
765.32	1083.67
765.65	1078.52
765.97	1073.37
766.30	1064.71
