SpectraSuite Data File
++++++++++++++++++++++++++++++++++++
Date: Mon Aug 26 10:24:30 PDT 2019
User: corrico
Dark Spectrum Present: No
Reference Spectrum Present: No
Number of Sampled Component Spectra: 1
Spectrometers: USB2+H06089
Integration Time (usec): 10000 (USB2+H06089)
Spectra Averaged: 2 (USB2+H06089)
Boxcar Smoothing: 2 (USB2+H06089)
Correct for Electrical Dark: No (USB2+H06089)
Strobe/Lamp Enabled: No (USB2+H06089)
Correct for Detector Non-linearity: No (USB2+H06089)
Correct for Stray Light: No (USB2+H06089)
Number of Pixels in Processed Spectrum: 2048
>>>>>Begin Processed Spectral Data<<<<<
339.70	978.34
340.07	978.34
340.45	952.60
340.82	945.58
341.19	929.43
341.57	905.09
341.94	911.40
342.31	906.26
342.69	897.83
343.06	901.81
343.43	910.23
343.81	906.49
344.18	904.62
344.55	901.11
344.93	897.13
345.30	896.19
345.67	901.34
346.04	910.23
346.42	913.75
346.79	928.26
347.16	949.79
347.54	961.49
347.91	964.77
348.28	971.56
348.65	978.81
349.03	974.83
349.40	987.00
349.77	1006.43
350.14	1025.86
350.52	1039.20
350.89	1050.90
351.26	1045.52
351.63	1034.28
352.01	1040.37
352.38	1030.30
352.75	1043.64
353.12	1052.54
353.50	1070.33
353.87	1074.31
354.24	1087.88
354.61	1078.52
354.98	1074.77
355.36	1075.94
355.73	1076.65
356.10	1079.92
356.47	1095.60
356.84	1098.41
357.22	1095.60
357.59	1101.46
357.96	1084.84
358.33	1069.86
358.70	1080.16
359.08	1077.58
359.45	1068.92
359.82	1084.60
360.19	1078.05
360.56	1075.24
360.94	1071.50
361.31	1069.16
361.68	1065.18
362.05	1073.37
362.42	1072.43
362.79	1070.09
363.16	1068.22
363.54	1068.69
363.91	1064.48
364.28	1062.60
364.65	1073.84
365.02	1084.60
365.39	1080.63
365.76	1082.03
366.14	1063.31
366.51	1054.88
366.88	1045.99
367.25	1033.81
367.62	1032.64
367.99	1044.82
368.36	1050.43
368.73	1049.50
369.10	1056.28
369.48	1060.03
369.85	1063.07
370.22	1062.14
370.59	1068.45
370.96	1074.07
371.33	1079.46
371.70	1078.28
372.07	1070.56
372.44	1064.24
372.81	1056.75
373.18	1045.52
373.55	1039.43
373.93	1045.52
374.30	1046.92
374.67	1051.84
375.04	1053.48
375.41	1056.99
375.78	1054.65
376.15	1060.03
376.52	1065.65
376.89	1069.16
377.26	1073.84
377.63	1074.54
378.00	1082.97
378.37	1081.09
378.74	1078.52
379.11	1071.97
379.48	1078.99
379.85	1068.45
380.22	1074.77
380.59	1076.65
380.96	1071.97
381.33	1059.09
381.70	1054.41
382.07	1041.30
382.44	1038.96
382.81	1053.01
383.18	1064.94
383.55	1077.82
383.92	1088.35
384.29	1094.67
384.66	1089.52
385.03	1087.18
385.40	1073.37
385.77	1078.52
386.14	1082.73
386.51	1080.16
386.88	1072.43
387.25	1080.39
387.62	1072.67
387.99	1071.73
388.36	1069.39
388.73	1067.99
389.10	1075.94
389.46	1077.82
389.83	1077.58
390.20	1087.65
390.57	1092.56
390.94	1086.48
391.31	1081.09
391.68	1075.94
392.05	1075.71
392.42	1075.48
392.79	1066.11
393.16	1067.75
393.53	1071.50
393.89	1074.31
394.26	1077.82
394.63	1077.11
395.00	1087.65
395.37	1079.22
395.74	1078.52
396.11	1079.69
396.48	1087.18
396.84	1071.73
397.21	1081.80
397.58	1069.39
397.95	1072.43
398.32	1067.28
398.69	1070.80
399.06	1059.09
399.42	1066.58
399.79	1062.84
400.16	1064.94
400.53	1065.65
400.90	1076.41
401.27	1074.31
401.64	1074.07
402.00	1082.97
402.37	1085.77
402.74	1083.67
403.11	1087.18
403.48	1085.77
403.84	1077.82
404.21	1079.46
404.58	1077.58
404.95	1086.24
405.32	1085.77
405.68	1084.14
406.05	1085.77
406.42	1080.63
406.79	1076.41
407.16	1076.65
407.52	1077.58
407.89	1066.35
408.26	1076.18
408.63	1071.73
408.99	1078.28
409.36	1077.35
409.73	1081.33
410.10	1078.28
410.47	1077.11
410.83	1080.39
411.20	1081.33
411.57	1093.26
411.94	1094.20
412.30	1101.22
412.67	1088.58
413.04	1086.48
413.40	1078.52
413.77	1070.33
414.14	1065.41
414.51	1074.54
414.87	1072.43
415.24	1070.56
415.61	1076.41
415.97	1077.35
416.34	1078.28
416.71	1080.63
417.08	1091.63
417.44	1095.60
417.81	1098.18
418.18	1101.22
418.54	1107.54
418.91	1096.78
419.28	1092.80
419.64	1101.46
420.01	1096.07
420.38	1096.54
420.74	1099.12
421.11	1110.12
421.48	1105.44
421.84	1105.90
422.21	1103.56
422.58	1106.61
422.94	1102.63
423.31	1103.33
423.68	1102.63
424.04	1110.12
424.41	1112.69
424.77	1115.73
425.14	1114.56
425.51	1124.16
425.87	1128.37
426.24	1137.03
426.61	1135.86
426.97	1143.82
427.34	1139.84
427.70	1144.52
428.07	1142.42
428.44	1149.91
428.80	1148.97
429.17	1163.48
429.53	1166.99
429.90	1177.76
430.27	1176.59
430.63	1170.27
431.00	1168.16
431.36	1176.35
431.73	1171.67
432.09	1175.42
432.46	1198.12
432.83	1197.42
433.19	1191.80
433.56	1202.33
433.92	1209.35
434.29	1203.97
434.65	1207.95
435.02	1214.04
435.38	1216.84
435.75	1222.46
436.11	1229.72
436.48	1234.40
436.84	1238.61
437.21	1236.51
437.57	1238.61
437.94	1236.04
438.30	1248.68
438.67	1248.91
439.03	1250.55
439.40	1255.93
439.76	1257.34
440.13	1250.78
440.49	1251.48
440.86	1250.55
441.22	1240.72
441.59	1235.57
441.95	1232.53
442.32	1232.29
442.68	1230.42
443.05	1230.65
443.41	1228.78
443.78	1228.08
444.14	1219.89
444.51	1217.31
444.87	1210.76
445.24	1212.40
445.60	1197.18
445.96	1192.74
446.33	1190.40
446.69	1185.95
447.06	1180.10
447.42	1185.72
447.79	1183.14
448.15	1174.25
448.51	1174.71
448.88	1168.86
449.24	1161.37
449.61	1160.67
449.97	1160.20
450.33	1153.88
450.70	1153.18
451.06	1161.84
451.43	1165.59
451.79	1167.46
452.15	1167.46
452.52	1172.37
452.88	1163.01
453.24	1143.59
453.61	1141.25
453.97	1144.52
454.34	1140.54
454.70	1139.61
455.06	1151.08
455.43	1144.29
455.79	1145.22
456.15	1137.97
456.52	1137.73
456.88	1132.12
457.24	1132.82
457.61	1136.10
457.97	1127.90
458.33	1120.41
458.70	1119.48
459.06	1119.01
459.42	1108.01
459.79	1116.90
460.15	1122.29
460.51	1115.73
460.88	1104.97
461.24	1105.44
461.60	1108.95
461.96	1103.80
462.33	1098.65
462.69	1104.97
463.05	1103.33
463.42	1094.67
463.78	1091.16
464.14	1100.05
464.50	1104.50
464.87	1100.05
465.23	1092.33
465.59	1091.16
465.95	1089.52
466.32	1092.56
466.68	1091.86
467.04	1094.90
467.40	1089.75
467.77	1094.20
468.13	1088.58
468.49	1079.46
468.85	1082.50
469.22	1084.60
469.58	1089.05
469.94	1089.99
470.30	1099.82
470.66	1098.41
471.03	1111.05
471.39	1090.46
471.75	1087.41
472.11	1088.12
472.47	1091.86
472.84	1076.88
473.20	1082.03
473.56	1087.18
473.92	1081.80
474.28	1079.46
474.65	1077.58
475.01	1078.28
475.37	1076.18
475.73	1080.39
476.09	1077.82
476.45	1084.14
476.81	1082.50
477.18	1079.92
477.54	1080.63
477.90	1074.54
478.26	1082.50
478.62	1091.86
478.98	1095.84
479.34	1095.60
479.71	1100.52
480.07	1098.88
480.43	1101.46
480.79	1089.29
481.15	1098.18
481.51	1097.48
481.87	1095.84
482.23	1091.16
482.59	1089.99
482.96	1078.28
483.32	1079.92
483.68	1082.50
484.04	1071.73
484.40	1073.84
484.76	1073.84
485.12	1070.56
485.48	1062.60
485.84	1064.71
486.20	1059.56
486.56	1066.11
486.92	1070.33
487.28	1071.50
487.64	1076.88
488.00	1076.41
488.37	1070.56
488.73	1069.16
489.09	1069.39
489.45	1078.05
489.81	1093.26
490.17	1097.48
490.53	1106.84
490.89	1105.67
491.25	1100.52
491.61	1095.84
491.97	1100.05
492.33	1086.48
492.69	1090.22
493.05	1083.90
493.41	1083.90
493.77	1069.62
494.13	1076.18
494.49	1067.99
494.85	1065.41
495.21	1069.39
495.57	1077.58
495.93	1085.77
496.29	1089.29
496.64	1091.16
497.00	1086.01
497.36	1082.97
497.72	1070.80
498.08	1070.09
498.44	1066.11
498.80	1071.73
499.16	1062.84
499.52	1064.48
499.88	1064.01
500.24	1075.94
500.60	1077.58
500.96	1090.69
501.32	1104.97
501.68	1106.37
502.03	1096.78
502.39	1090.69
502.75	1086.71
503.11	1083.43
503.47	1085.07
503.83	1086.01
504.19	1085.77
504.55	1079.92
504.91	1075.24
505.26	1080.63
505.62	1091.63
505.98	1084.60
506.34	1087.41
506.70	1086.48
507.06	1085.31
507.42	1078.52
507.78	1083.20
508.13	1082.50
508.49	1080.63
508.85	1077.58
509.21	1079.22
509.57	1084.84
509.93	1099.82
510.28	1098.65
510.64	1095.37
511.00	1093.26
511.36	1091.63
511.72	1077.35
512.07	1070.56
512.43	1077.58
512.79	1074.77
513.15	1067.99
513.51	1077.58
513.86	1087.65
514.22	1077.82
514.58	1076.88
514.94	1072.20
515.30	1071.03
515.65	1071.50
516.01	1072.20
516.37	1075.01
516.73	1085.07
517.08	1074.31
517.44	1074.54
517.80	1079.46
518.16	1077.35
518.51	1075.48
518.87	1072.90
519.23	1064.48
519.59	1060.03
519.94	1060.26
520.30	1065.88
520.66	1072.90
521.01	1072.20
521.37	1080.39
521.73	1080.16
522.09	1085.54
522.44	1086.48
522.80	1098.41
523.16	1090.92
523.51	1089.99
523.87	1080.63
524.23	1072.43
524.58	1054.41
524.94	1058.86
525.30	1065.41
525.65	1055.58
526.01	1062.37
526.37	1072.20
526.72	1066.11
527.08	1058.86
527.44	1059.09
527.79	1057.45
528.15	1056.05
528.51	1057.69
528.86	1060.26
529.22	1063.77
529.58	1061.20
529.93	1063.54
530.29	1065.65
530.65	1069.39
531.00	1070.33
531.36	1077.82
531.71	1071.26
532.07	1074.54
532.43	1075.24
532.78	1085.07
533.14	1086.01
533.49	1089.05
533.85	1088.35
534.21	1080.86
534.56	1079.22
534.92	1073.84
535.27	1073.84
535.63	1066.82
535.98	1072.67
536.34	1068.69
536.69	1069.62
537.05	1074.07
537.41	1083.67
537.76	1077.11
538.12	1084.14
538.47	1089.05
538.83	1093.73
539.18	1097.01
539.54	1099.58
539.89	1095.37
540.25	1090.69
540.60	1082.03
540.96	1071.97
541.31	1073.84
541.67	1073.14
542.02	1078.05
542.38	1080.63
542.73	1079.22
543.09	1079.69
543.44	1074.54
543.80	1073.37
544.15	1073.84
544.51	1079.69
544.86	1079.92
545.22	1082.73
545.57	1089.99
545.93	1088.12
546.28	1081.56
546.64	1076.41
546.99	1069.16
547.35	1060.73
547.70	1057.45
548.05	1073.60
548.41	1077.82
548.76	1084.60
549.12	1086.01
549.47	1086.01
549.83	1069.62
550.18	1064.94
550.53	1066.82
550.89	1064.01
551.24	1063.54
551.60	1071.26
551.95	1069.62
552.30	1077.35
552.66	1078.05
553.01	1084.37
553.37	1083.43
553.72	1091.63
554.07	1081.33
554.43	1075.94
554.78	1074.31
555.13	1077.58
555.49	1068.69
555.84	1063.07
556.19	1064.01
556.55	1058.16
556.90	1054.65
557.26	1062.84
557.61	1074.07
557.96	1075.24
558.32	1073.37
558.67	1066.58
559.02	1075.94
559.37	1073.84
559.73	1078.52
560.08	1089.75
560.43	1100.99
560.79	1087.41
561.14	1082.50
561.49	1083.20
561.85	1082.73
562.20	1071.97
562.55	1079.92
562.90	1082.50
563.26	1076.41
563.61	1078.75
563.96	1080.63
564.32	1069.16
564.67	1067.75
565.02	1077.35
565.37	1074.54
565.73	1085.31
566.08	1092.33
566.43	1097.95
566.78	1098.18
567.14	1102.16
567.49	1097.95
567.84	1105.90
568.19	1113.16
568.54	1103.56
568.90	1086.94
569.25	1083.67
569.60	1081.56
569.95	1074.54
570.31	1067.05
570.66	1077.11
571.01	1084.14
571.36	1084.84
571.71	1082.50
572.06	1097.01
572.42	1088.35
572.77	1077.11
573.12	1073.84
573.47	1070.09
573.82	1057.92
574.18	1067.52
574.53	1074.77
574.88	1072.67
575.23	1075.01
575.58	1079.92
575.93	1082.50
576.28	1083.67
576.64	1082.50
576.99	1085.77
577.34	1089.75
577.69	1084.14
578.04	1081.33
578.39	1078.99
578.74	1077.35
579.09	1071.26
579.44	1078.75
579.80	1084.84
580.15	1086.01
580.50	1084.37
580.85	1090.69
581.20	1084.84
581.55	1073.60
581.90	1068.22
582.25	1063.77
582.60	1071.50
582.95	1074.54
583.30	1082.73
583.65	1101.69
584.00	1111.99
584.35	1110.58
584.71	1109.65
585.06	1105.90
585.41	1090.92
585.76	1077.82
586.11	1066.35
586.46	1065.88
586.81	1063.07
587.16	1065.18
587.51	1071.73
587.86	1076.41
588.21	1076.18
588.56	1079.22
588.91	1074.31
589.26	1075.94
589.61	1071.26
589.96	1075.24
590.31	1069.16
590.66	1080.16
591.01	1076.18
591.36	1074.31
591.71	1064.01
592.06	1065.18
592.41	1057.45
592.76	1053.71
593.10	1051.84
593.45	1055.58
593.80	1061.20
594.15	1063.77
594.50	1070.56
594.85	1078.99
595.20	1082.73
595.55	1084.37
595.90	1086.71
596.25	1083.20
596.60	1080.39
596.95	1075.01
597.30	1066.82
597.64	1117.37
597.99	1130.71
598.34	1122.52
598.69	1114.10
599.04	1123.93
599.39	1070.56
599.74	1061.67
600.09	1074.77
600.44	1089.52
600.78	1083.67
601.13	1078.28
601.48	1077.82
601.83	1077.82
602.18	1071.73
602.53	1070.33
602.88	1085.31
603.22	1092.56
603.57	1096.31
603.92	1093.03
604.27	1095.14
604.62	1086.94
604.97	1087.65
605.31	1080.63
605.66	1064.24
606.01	1065.88
606.36	1067.05
606.71	1060.50
607.05	1065.65
607.40	1090.92
607.75	1103.33
608.10	1108.01
608.44	1102.86
608.79	1092.80
609.14	1100.05
609.49	1079.92
609.84	1075.01
610.18	1085.31
610.53	1089.29
610.88	1098.41
611.23	1109.18
611.57	1109.18
611.92	1090.69
612.27	1096.07
612.62	1079.22
612.96	1070.56
613.31	1077.11
613.66	1085.77
614.00	1082.50
614.35	1084.14
614.70	1089.29
615.05	1082.26
615.39	1092.56
615.74	1082.03
616.09	1073.14
616.43	1072.20
616.78	1069.39
617.13	1064.48
617.47	1069.62
617.82	1075.94
618.17	1070.56
618.51	1071.97
618.86	1078.99
619.21	1082.97
619.55	1087.65
619.90	1092.80
620.25	1104.73
620.59	1095.14
620.94	1094.20
621.29	1086.71
621.63	1094.67
621.98	1085.77
622.32	1086.94
622.67	1092.80
623.02	1100.99
623.36	1095.60
623.71	1091.63
624.05	1092.33
624.40	1083.67
624.75	1079.46
625.09	1087.41
625.44	1086.71
625.78	1091.86
626.13	1107.78
626.48	1104.73
626.82	1096.07
627.17	1104.97
627.51	1099.58
627.86	1094.43
628.20	1101.22
628.55	1090.46
628.89	1085.31
629.24	1083.67
629.58	1094.67
629.93	1099.58
630.28	1110.12
630.62	1113.16
630.97	1112.69
631.31	1101.69
631.66	1096.54
632.00	1094.67
632.35	1083.43
632.69	1088.35
633.04	1085.31
633.38	1088.35
633.73	1090.69
634.07	1093.50
634.42	1086.24
634.76	1093.03
635.11	1090.69
635.45	1089.99
635.79	1095.84
636.14	1103.80
636.48	1095.60
636.83	1084.14
637.17	1086.01
637.52	1082.97
637.86	1068.92
638.21	1067.28
638.55	1071.03
638.89	1071.97
639.24	1077.11
639.58	1093.03
639.93	1091.86
640.27	1096.78
640.61	1097.24
640.96	1089.05
641.30	1080.16
641.65	1084.37
641.99	1070.80
642.33	1077.82
642.68	1074.54
643.02	1081.80
643.37	1081.56
643.71	1090.22
644.05	1080.16
644.40	1092.56
644.74	1086.48
645.08	1093.26
645.43	1097.01
645.77	1095.60
646.11	1092.56
646.46	1084.14
646.80	1083.20
647.14	1083.90
647.49	1082.73
647.83	1078.28
648.17	1084.37
648.52	1078.28
648.86	1082.03
649.20	1085.07
649.55	1089.05
649.89	1095.60
650.23	1101.22
650.57	1100.99
650.92	1096.54
651.26	1095.37
651.60	1086.24
651.95	1080.16
652.29	1072.43
652.63	1078.52
652.97	1086.71
653.32	1098.18
653.66	1101.69
654.00	1106.14
654.34	1105.90
654.69	1095.60
655.03	1087.41
655.37	1080.86
655.71	1080.63
656.05	1084.84
656.40	1095.60
656.74	1103.56
657.08	1107.07
657.42	1109.65
657.76	1094.20
658.11	1085.07
658.45	1079.22
658.79	1079.69
659.13	1076.88
659.47	1087.18
659.82	1086.48
660.16	1081.09
660.50	1070.33
660.84	1068.92
661.18	1060.03
661.52	1060.03
661.87	1064.48
662.21	1075.71
662.55	1070.80
662.89	1074.77
663.23	1073.60
663.57	1064.01
663.91	1062.84
664.25	1065.88
664.60	1076.65
664.94	1077.58
665.28	1089.99
665.62	1090.46
665.96	1095.60
666.30	1081.09
666.64	1080.63
666.98	1077.11
667.32	1074.31
667.66	1076.18
668.01	1085.07
668.35	1092.09
668.69	1092.09
669.03	1094.43
669.37	1085.54
669.71	1082.97
670.05	1072.43
670.39	1066.11
670.73	1059.33
671.07	1060.96
671.41	1064.24
671.75	1069.39
672.09	1077.35
672.43	1083.90
672.77	1081.80
673.11	1080.63
673.45	1077.82
673.79	1077.82
674.13	1079.22
674.47	1080.86
674.81	1069.16
675.15	1074.07
675.49	1075.71
675.83	1079.46
676.17	1075.01
676.51	1084.84
676.85	1077.35
677.19	1078.99
677.53	1077.11
677.87	1084.60
678.21	1082.03
678.55	1089.52
678.89	1083.43
679.23	1073.37
679.57	1066.35
679.90	1063.07
680.24	1051.37
680.58	1055.82
680.92	1052.07
681.26	1057.45
681.60	1060.50
681.94	1068.45
682.28	1053.01
682.62	1058.16
682.96	1057.69
683.29	1060.50
683.63	1064.94
683.97	1073.84
684.31	1078.28
684.65	1074.77
684.99	1073.84
685.33	1075.01
685.67	1083.43
686.00	1073.14
686.34	1085.31
686.68	1085.07
687.02	1069.39
687.36	1066.82
687.70	1079.46
688.03	1075.24
688.37	1075.48
688.71	1075.71
689.05	1063.77
689.39	1062.14
689.72	1058.62
690.06	1064.01
690.40	1077.35
690.74	1079.92
691.08	1072.43
691.41	1066.11
691.75	1063.54
692.09	1062.60
692.43	1089.29
692.76	1094.20
693.10	1104.03
693.44	1100.99
693.78	1103.56
694.11	1078.05
694.45	1078.05
694.79	1068.92
695.13	1061.20
695.46	1067.05
695.80	1067.28
696.14	1066.82
696.48	1069.62
696.81	1081.80
697.15	1070.33
697.49	1068.22
697.82	1076.41
698.16	1088.58
698.50	1081.33
698.83	1078.28
699.17	1094.43
699.51	1082.97
699.84	1078.05
700.18	1086.71
700.52	1094.90
700.85	1082.73
701.19	1085.07
701.53	1077.82
701.86	1073.37
702.20	1067.99
702.54	1082.73
702.87	1077.82
703.21	1079.46
703.55	1080.63
703.88	1085.77
704.22	1081.33
704.55	1088.82
704.89	1086.71
705.23	1080.86
705.56	1089.99
705.90	1082.97
706.23	1083.67
706.57	1085.77
706.91	1086.94
707.24	1086.24
707.58	1092.09
707.91	1097.01
708.25	1106.37
708.58	1103.33
708.92	1088.58
709.26	1086.48
709.59	1084.84
709.93	1079.22
710.26	1082.97
710.60	1092.80
710.93	1088.12
711.27	1083.67
711.60	1082.97
711.94	1089.52
712.27	1082.73
712.61	1089.52
712.94	1084.14
713.28	1083.90
713.61	1083.90
713.95	1086.48
714.28	1069.39
714.62	1085.31
714.95	1089.29
715.29	1083.20
715.62	1083.67
715.96	1104.73
716.29	1097.01
716.63	1090.92
716.96	1087.88
717.29	1079.69
717.63	1072.90
717.96	1065.88
718.30	1063.31
718.63	1069.39
718.97	1078.52
719.30	1077.82
719.63	1077.82
719.97	1083.20
720.30	1076.65
720.64	1070.56
720.97	1077.35
721.30	1086.94
721.64	1081.80
721.97	1089.29
722.31	1086.24
722.64	1074.07
722.97	1076.65
723.31	1078.28
723.64	1065.18
723.97	1077.82
724.31	1088.12
724.64	1069.86
724.98	1073.60
725.31	1086.24
725.64	1074.54
725.98	1064.24
726.31	1067.05
726.64	1058.39
726.97	1054.18
727.31	1060.96
727.64	1071.73
727.97	1082.97
728.31	1087.41
728.64	1086.48
728.97	1089.29
729.31	1082.73
729.64	1067.75
729.97	1068.92
730.30	1076.41
730.64	1069.16
730.97	1075.01
731.30	1087.88
731.63	1097.01
731.97	1093.26
732.30	1098.41
732.63	1085.31
732.96	1086.01
733.30	1074.77
733.63	1081.33
733.96	1079.22
734.29	1087.65
734.63	1089.75
734.96	1087.18
735.29	1074.54
735.62	1079.69
735.95	1078.05
736.29	1064.94
736.62	1067.28
736.95	1073.14
737.28	1055.11
737.61	1051.60
737.94	1064.71
738.28	1071.26
738.61	1073.84
738.94	1084.60
739.27	1093.97
739.60	1091.16
739.93	1089.52
740.27	1083.20
740.60	1085.31
740.93	1078.75
741.26	1078.28
741.59	1080.63
741.92	1083.20
742.25	1085.07
742.58	1089.05
742.91	1086.24
743.25	1078.28
743.58	1081.56
743.91	1068.22
744.24	1068.45
744.57	1071.97
744.90	1086.94
745.23	1086.71
745.56	1108.01
745.89	1095.37
746.22	1088.12
746.55	1075.71
746.88	1072.67
747.21	1061.20
747.54	1079.69
747.87	1085.31
748.20	1078.05
748.53	1080.39
748.87	1089.52
749.20	1083.67
749.53	1082.50
749.86	1098.88
750.19	1099.58
750.52	1081.56
750.85	1074.77
751.18	1074.54
751.51	1063.54
751.84	1060.73
752.16	1076.41
752.49	1087.88
752.82	1088.82
753.15	1095.60
753.48	1093.50
753.81	1080.86
754.14	1078.05
754.47	1075.01
754.80	1069.16
755.13	1071.73
755.46	1078.75
755.79	1079.22
756.12	1076.88
756.45	1073.14
756.78	1078.52
757.11	1077.58
757.43	1065.41
757.76	1062.60
758.09	1072.67
758.42	1061.20
758.75	1064.48
759.08	1063.77
759.41	1071.73
759.74	1069.62
760.07	1076.65
760.39	1068.45
760.72	1078.75
761.05	1080.16
761.38	1073.37
761.71	1073.60
762.04	1089.05
762.36	1085.54
762.69	1087.18
763.02	1083.20
763.35	1083.20
763.68	1077.58
764.01	1085.77
764.33	1080.86
764.66	1086.24
764.99	1083.43
765.32	1081.56
765.65	1074.31
765.97	1072.20
766.30	1076.18
