SpectraSuite Data File
++++++++++++++++++++++++++++++++++++
Date: Mon Aug 26 10:24:33 PDT 2019
User: corrico
Dark Spectrum Present: No
Reference Spectrum Present: No
Number of Sampled Component Spectra: 1
Spectrometers: USB2+H06089
Integration Time (usec): 10000 (USB2+H06089)
Spectra Averaged: 2 (USB2+H06089)
Boxcar Smoothing: 2 (USB2+H06089)
Correct for Electrical Dark: No (USB2+H06089)
Strobe/Lamp Enabled: No (USB2+H06089)
Correct for Detector Non-linearity: No (USB2+H06089)
Correct for Stray Light: No (USB2+H06089)
Number of Pixels in Processed Spectrum: 2048
>>>>>Begin Processed Spectral Data<<<<<
339.70	1027.50
340.07	1027.50
340.45	995.90
340.82	980.68
341.19	950.49
341.57	928.96
341.94	910.47
342.31	902.74
342.69	885.19
343.06	888.23
343.43	879.57
343.81	878.17
344.18	883.32
344.55	899.23
344.93	911.17
345.30	929.89
345.67	933.64
346.04	935.75
346.42	936.68
346.79	953.07
347.16	954.47
347.54	970.62
347.91	980.45
348.28	987.24
348.65	980.92
349.03	986.54
349.40	1005.73
349.77	1012.75
350.14	1032.41
350.52	1039.43
350.89	1051.84
351.26	1052.07
351.63	1059.33
352.01	1056.99
352.38	1060.26
352.75	1059.09
353.12	1056.28
353.50	1059.56
353.87	1055.35
354.24	1064.01
354.61	1063.54
354.98	1074.31
355.36	1076.65
355.73	1088.35
356.10	1083.67
356.47	1082.03
356.84	1075.48
357.22	1078.52
357.59	1082.03
357.96	1091.63
358.33	1093.03
358.70	1103.56
359.08	1102.86
359.45	1091.16
359.82	1077.82
360.19	1088.58
360.56	1079.92
360.94	1077.58
361.31	1082.97
361.68	1079.46
362.05	1080.63
362.42	1075.48
362.79	1078.28
363.16	1067.28
363.54	1072.67
363.91	1067.52
364.28	1081.33
364.65	1071.26
365.02	1077.35
365.39	1078.99
365.76	1078.52
366.14	1071.50
366.51	1075.01
366.88	1073.84
367.25	1077.82
367.62	1076.41
367.99	1070.80
368.36	1077.11
368.73	1081.56
369.10	1083.20
369.48	1087.41
369.85	1086.94
370.22	1077.58
370.59	1072.43
370.96	1063.54
371.33	1059.56
371.70	1073.37
372.07	1077.35
372.44	1088.12
372.81	1092.56
373.18	1095.84
373.55	1077.35
373.93	1083.90
374.30	1075.01
374.67	1077.35
375.04	1068.69
375.41	1086.24
375.78	1075.71
376.15	1079.22
376.52	1072.67
376.89	1078.99
377.26	1066.58
377.63	1076.65
378.00	1069.62
378.37	1081.80
378.74	1079.92
379.11	1096.54
379.48	1088.58
379.85	1093.73
380.22	1088.12
380.59	1090.92
380.96	1086.48
381.33	1094.67
381.70	1089.99
382.07	1083.67
382.44	1081.33
382.81	1076.88
383.18	1078.52
383.55	1079.22
383.92	1085.77
384.29	1090.92
384.66	1093.50
385.03	1089.05
385.40	1095.60
385.77	1100.05
386.14	1094.20
386.51	1095.60
386.88	1093.26
387.25	1091.86
387.62	1074.31
387.99	1080.16
388.36	1076.41
388.73	1089.05
389.10	1087.18
389.46	1098.88
389.83	1097.01
390.20	1097.71
390.57	1079.22
390.94	1084.60
391.31	1084.60
391.68	1082.50
392.05	1080.16
392.42	1092.33
392.79	1091.86
393.16	1097.01
393.53	1088.82
393.89	1083.67
394.26	1075.24
394.63	1075.94
395.00	1068.69
395.37	1070.33
395.74	1071.26
396.11	1067.52
396.48	1071.03
396.84	1069.86
397.21	1079.92
397.58	1093.50
397.95	1110.82
398.32	1113.16
398.69	1114.33
399.06	1113.39
399.42	1108.71
399.79	1100.75
400.16	1077.58
400.53	1071.73
400.90	1070.33
401.27	1071.50
401.64	1075.71
402.00	1099.82
402.37	1115.50
402.74	1116.90
403.11	1114.80
403.48	1105.90
403.84	1099.12
404.21	1089.29
404.58	1089.75
404.95	1089.29
405.32	1094.90
405.68	1101.92
406.05	1123.69
406.42	1137.73
406.79	1147.56
407.16	1157.16
407.52	1168.86
407.89	1174.95
408.26	1172.14
408.63	1179.86
408.99	1186.18
409.36	1181.03
409.73	1192.03
410.10	1205.14
410.47	1208.18
410.83	1223.16
411.20	1252.42
411.57	1255.46
411.94	1270.91
412.30	1303.21
412.67	1312.10
413.04	1331.30
413.40	1349.55
413.77	1373.89
414.14	1376.70
414.51	1405.73
414.87	1415.09
415.24	1437.32
415.61	1479.92
415.97	1517.84
416.34	1562.31
416.71	1595.08
417.08	1629.48
417.44	1646.80
417.81	1680.74
418.18	1705.31
418.54	1751.19
418.91	1799.64
419.28	1843.87
419.64	1904.26
420.01	1966.75
420.38	2022.46
420.74	2084.95
421.11	2154.93
421.48	2219.06
421.84	2284.60
422.21	2360.43
422.58	2436.97
422.94	2520.76
423.31	2602.21
423.68	2700.28
424.04	2795.54
424.41	2894.31
424.77	2989.10
425.14	3076.40
425.51	3167.45
425.87	3270.90
426.24	3383.95
426.61	3516.19
426.97	3693.37
427.34	3845.97
427.70	4021.98
428.07	4196.58
428.44	4376.33
428.80	4526.13
429.17	4671.24
429.53	4835.55
429.90	5031.45
430.27	5209.10
430.63	5377.38
431.00	5606.52
431.36	5801.49
431.73	5974.92
432.09	6178.55
432.46	6375.39
432.83	6576.91
433.19	6783.81
433.56	7008.73
433.92	7226.17
434.29	7459.76
434.65	7665.72
435.02	7850.62
435.38	8016.80
435.75	8117.21
436.11	8268.18
436.48	8417.27
436.84	8594.92
437.21	8707.26
437.57	8826.39
437.94	8948.57
438.30	9012.93
438.67	9041.02
439.03	9115.68
439.40	9177.01
439.76	9131.60
440.13	9080.11
440.49	8988.59
440.86	8867.12
441.22	8766.01
441.59	8628.15
441.95	8545.76
442.32	8401.12
442.68	8280.35
443.05	8121.19
443.41	7980.52
443.78	7766.83
444.14	7605.80
444.51	7400.54
444.87	7234.83
445.24	7045.25
445.60	6900.84
445.96	6757.83
446.33	6630.74
446.69	6440.92
447.06	6315.47
447.42	6122.14
447.79	5946.13
448.15	5811.32
448.51	5702.72
448.88	5588.73
449.24	5489.49
449.61	5408.51
449.97	5265.50
450.33	5130.69
450.70	4983.70
451.06	4864.34
451.43	4721.33
451.79	4627.24
452.15	4540.64
452.52	4453.81
452.88	4385.70
453.24	4316.88
453.61	4234.26
453.97	4140.64
454.34	4043.98
454.70	3944.74
455.06	3846.20
455.43	3731.28
455.79	3621.28
456.15	3537.72
456.52	3448.08
456.88	3368.26
457.24	3298.75
457.61	3249.83
457.97	3192.72
458.33	3108.93
458.70	3044.10
459.06	2965.46
459.42	2874.88
459.79	2801.86
460.15	2749.66
460.51	2679.68
460.88	2616.72
461.24	2570.38
461.60	2522.40
461.96	2469.03
462.33	2429.01
462.69	2384.30
463.05	2345.92
463.42	2299.34
463.78	2263.30
464.14	2218.59
464.50	2187.46
464.87	2146.04
465.23	2095.25
465.59	2057.56
465.95	2019.18
466.32	1983.37
466.68	1954.11
467.04	1940.07
467.40	1916.90
467.77	1906.13
468.13	1894.20
468.49	1878.28
468.85	1853.94
469.22	1841.53
469.58	1816.26
469.94	1797.53
470.30	1780.91
470.66	1772.02
471.03	1751.19
471.39	1738.78
471.75	1713.04
472.11	1699.46
472.47	1683.31
472.84	1665.99
473.20	1647.27
473.56	1640.72
473.92	1617.78
474.28	1597.42
474.65	1579.86
475.01	1559.03
475.37	1532.11
475.73	1513.62
476.09	1500.05
476.45	1488.81
476.81	1497.94
477.18	1491.16
477.54	1488.11
477.90	1469.62
478.26	1466.11
478.62	1442.47
478.98	1442.71
479.34	1437.79
479.71	1435.68
480.07	1430.54
480.43	1426.32
480.79	1416.73
481.15	1395.66
481.51	1392.15
481.87	1385.36
482.23	1384.89
482.59	1373.43
482.96	1379.75
483.32	1372.96
483.68	1360.32
484.04	1338.79
484.40	1337.38
484.76	1319.13
485.12	1311.17
485.48	1296.19
485.84	1305.55
486.20	1295.49
486.56	1300.87
486.92	1298.53
487.28	1308.13
487.64	1294.55
488.00	1295.02
488.37	1287.76
488.73	1280.27
489.09	1268.57
489.45	1267.87
489.81	1250.31
490.17	1241.42
490.53	1232.53
490.89	1223.40
491.25	1220.12
491.61	1225.74
491.97	1225.27
492.33	1225.97
492.69	1228.08
493.05	1211.93
493.41	1207.48
493.77	1206.08
494.13	1201.40
494.49	1198.35
494.85	1197.65
495.21	1192.03
495.57	1192.03
495.93	1185.25
496.29	1181.97
496.64	1189.93
497.00	1188.99
497.36	1173.54
497.72	1176.82
498.08	1180.80
498.44	1168.86
498.80	1177.52
499.16	1185.48
499.52	1180.33
499.88	1165.35
500.24	1174.25
500.60	1174.01
500.96	1172.37
501.32	1174.95
501.68	1170.97
502.03	1159.50
502.39	1137.03
502.75	1137.97
503.11	1141.48
503.47	1145.46
503.83	1146.86
504.19	1149.91
504.55	1138.90
504.91	1120.88
505.26	1124.39
505.62	1118.07
505.98	1122.05
506.34	1124.39
506.70	1137.03
507.06	1124.16
507.42	1117.37
507.78	1101.46
508.13	1101.69
508.49	1095.14
508.85	1115.97
509.21	1133.52
509.57	1140.07
509.93	1130.48
510.28	1132.12
510.64	1120.88
511.00	1124.63
511.36	1123.93
511.72	1127.44
512.07	1128.14
512.43	1125.80
512.79	1110.58
513.15	1112.46
513.51	1114.10
513.86	1105.67
514.22	1105.44
514.58	1107.31
514.94	1107.78
515.30	1110.12
515.65	1115.03
516.01	1112.22
516.37	1115.97
516.73	1118.07
517.08	1113.16
517.44	1114.09
517.80	1114.10
518.16	1106.84
518.51	1102.63
518.87	1105.67
519.23	1092.33
519.59	1089.52
519.94	1091.16
520.30	1096.31
520.66	1091.63
521.01	1096.07
521.37	1093.73
521.73	1090.92
522.09	1087.41
522.44	1097.24
522.80	1110.58
523.16	1112.69
523.51	1105.90
523.87	1105.44
524.23	1092.33
524.58	1078.05
524.94	1080.16
525.30	1090.46
525.65	1089.99
526.01	1090.22
526.37	1092.09
526.72	1096.07
527.08	1091.63
527.44	1099.58
527.79	1103.80
528.15	1110.12
528.51	1100.99
528.86	1104.73
529.22	1097.48
529.58	1097.95
529.93	1094.67
530.29	1097.95
530.65	1099.12
531.00	1100.29
531.36	1102.16
531.71	1094.67
532.07	1096.78
532.43	1100.99
532.78	1095.14
533.14	1087.18
533.49	1092.80
533.85	1095.14
534.21	1071.97
534.56	1072.43
534.92	1074.77
535.27	1072.43
535.63	1062.60
535.98	1085.54
536.34	1087.65
536.69	1092.09
537.05	1100.29
537.41	1104.50
537.76	1104.73
538.12	1112.92
538.47	1103.56
538.83	1101.92
539.18	1094.67
539.54	1089.75
539.89	1082.97
540.25	1089.99
540.60	1086.01
540.96	1089.29
541.31	1082.03
541.67	1080.63
542.02	1081.56
542.38	1084.60
542.73	1095.84
543.09	1102.39
543.44	1105.90
543.80	1113.63
544.15	1110.12
544.51	1103.56
544.86	1097.95
545.22	1096.54
545.57	1094.90
545.93	1097.95
546.28	1090.92
546.64	1093.03
546.99	1095.60
547.35	1094.67
547.70	1091.86
548.05	1089.52
548.41	1088.58
548.76	1086.48
549.12	1079.46
549.47	1092.56
549.83	1101.69
550.18	1106.37
550.53	1101.69
550.89	1097.48
551.24	1078.99
551.60	1071.73
551.95	1063.31
552.30	1067.05
552.66	1064.24
553.01	1067.52
553.37	1082.50
553.72	1086.94
554.07	1084.60
554.43	1092.09
554.78	1092.09
555.13	1081.56
555.49	1078.28
555.84	1079.69
556.19	1075.48
556.55	1074.77
556.90	1076.18
557.26	1070.80
557.61	1070.33
557.96	1068.45
558.32	1071.03
558.67	1063.54
559.02	1076.88
559.37	1083.43
559.73	1097.01
560.08	1104.03
560.43	1113.16
560.79	1108.71
561.14	1100.52
561.49	1090.92
561.85	1078.28
562.20	1078.28
562.55	1081.33
562.90	1072.20
563.26	1076.41
563.61	1085.31
563.96	1082.97
564.32	1083.20
564.67	1093.26
565.02	1093.03
565.37	1090.22
565.73	1093.97
566.08	1096.78
566.43	1104.03
566.78	1098.41
567.14	1095.37
567.49	1105.67
567.84	1098.88
568.19	1091.63
568.54	1091.63
568.90	1098.65
569.25	1085.77
569.60	1089.29
569.95	1092.33
570.31	1098.18
570.66	1096.31
571.01	1097.71
571.36	1096.31
571.71	1094.20
572.06	1092.56
572.42	1088.58
572.77	1088.12
573.12	1086.71
573.47	1070.56
573.82	1066.82
574.18	1071.73
574.53	1076.88
574.88	1073.37
575.23	1086.01
575.58	1093.26
575.93	1081.56
576.28	1083.20
576.64	1083.43
576.99	1090.46
577.34	1084.84
577.69	1086.24
578.04	1072.67
578.39	1069.62
578.74	1062.84
579.09	1067.99
579.44	1065.41
579.80	1069.62
580.15	1075.24
580.50	1080.63
580.85	1074.31
581.20	1080.39
581.55	1075.94
581.90	1066.11
582.25	1064.24
582.60	1067.99
582.95	1068.22
583.30	1076.65
583.65	1084.14
584.00	1082.26
584.35	1076.65
584.71	1081.33
585.06	1089.52
585.41	1081.56
585.76	1088.12
586.11	1085.31
586.46	1077.35
586.81	1054.41
587.16	1061.43
587.51	1056.99
587.86	1068.45
588.21	1084.60
588.56	1096.31
588.91	1095.37
589.26	1089.05
589.61	1089.05
589.96	1086.94
590.31	1081.80
590.66	1084.60
591.01	1094.67
591.36	1088.35
591.71	1077.35
592.06	1084.37
592.41	1082.50
592.76	1081.09
593.10	1086.24
593.45	1091.63
593.80	1090.22
594.15	1088.12
594.50	1091.63
594.85	1084.37
595.20	1086.48
595.55	1081.80
595.90	1091.16
596.25	1092.80
596.60	1091.16
596.95	1084.84
597.30	1087.41
597.64	1139.14
597.99	1137.03
598.34	1140.78
598.69	1148.03
599.04	1159.27
599.39	1106.61
599.74	1102.63
600.09	1102.63
600.44	1099.35
600.78	1086.94
601.13	1084.84
601.48	1082.03
601.83	1075.48
602.18	1073.84
602.53	1068.69
602.88	1061.90
603.22	1050.20
603.57	1057.22
603.92	1063.07
604.27	1080.39
604.62	1094.90
604.97	1098.41
605.31	1109.65
605.66	1103.09
606.01	1092.56
606.36	1076.65
606.71	1083.20
607.05	1075.01
607.40	1075.71
607.75	1075.24
608.10	1080.86
608.44	1081.33
608.79	1079.92
609.14	1073.84
609.49	1078.75
609.84	1079.92
610.18	1081.80
610.53	1082.97
610.88	1095.60
611.23	1093.03
611.57	1088.35
611.92	1089.52
612.27	1085.31
612.62	1076.88
612.96	1081.33
613.31	1085.54
613.66	1086.94
614.00	1094.20
614.35	1099.58
614.70	1093.97
615.05	1094.20
615.39	1094.67
615.74	1088.35
616.09	1081.56
616.43	1085.31
616.78	1083.20
617.13	1080.39
617.47	1079.46
617.82	1085.31
618.17	1080.16
618.51	1084.14
618.86	1079.46
619.21	1081.80
619.55	1076.65
619.90	1079.22
620.25	1078.99
620.59	1081.09
620.94	1077.82
621.29	1078.75
621.63	1078.99
621.98	1079.69
622.32	1086.71
622.67	1093.50
623.02	1099.12
623.36	1100.99
623.71	1109.18
624.05	1107.07
624.40	1102.39
624.75	1097.01
625.09	1092.33
625.44	1085.54
625.78	1079.92
626.13	1084.14
626.48	1086.01
626.82	1090.69
627.17	1087.88
627.51	1090.22
627.86	1083.67
628.20	1075.24
628.55	1071.26
628.89	1072.43
629.24	1075.94
629.58	1078.75
629.93	1084.60
630.28	1081.33
630.62	1082.50
630.97	1079.69
631.31	1083.20
631.66	1088.82
632.00	1088.82
632.35	1082.26
632.69	1086.24
633.04	1076.65
633.38	1071.73
633.73	1069.39
634.07	1068.69
634.42	1076.41
634.76	1077.82
635.11	1077.35
635.45	1080.16
635.79	1082.73
636.14	1071.26
636.48	1067.75
636.83	1071.50
637.17	1075.71
637.52	1073.37
637.86	1075.71
638.21	1087.18
638.55	1094.20
638.89	1096.54
639.24	1102.16
639.58	1103.09
639.93	1104.26
640.27	1097.24
640.61	1095.84
640.96	1091.63
641.30	1085.31
641.65	1076.88
641.99	1070.09
642.33	1070.09
642.68	1074.54
643.02	1077.35
643.37	1083.43
643.71	1084.84
644.05	1078.75
644.40	1079.22
644.74	1082.97
645.08	1085.54
645.43	1085.31
645.77	1093.97
646.11	1095.14
646.46	1093.50
646.80	1084.60
647.14	1090.92
647.49	1085.54
647.83	1085.07
648.17	1080.16
648.52	1083.90
648.86	1090.69
649.20	1095.37
649.55	1091.39
649.89	1089.52
650.23	1096.54
650.57	1079.92
650.92	1073.84
651.26	1077.58
651.60	1082.73
651.95	1071.50
652.29	1084.37
652.63	1090.22
652.97	1076.18
653.32	1071.97
653.66	1078.05
654.00	1072.90
654.34	1072.90
654.69	1084.37
655.03	1094.20
655.37	1083.90
655.71	1077.11
656.05	1066.58
656.40	1059.56
656.74	1045.75
657.08	1055.11
657.42	1059.09
657.76	1073.60
658.11	1080.16
658.45	1090.22
658.79	1097.01
659.13	1104.26
659.47	1105.67
659.82	1096.54
660.16	1092.33
660.50	1090.92
660.84	1082.03
661.18	1080.63
661.52	1090.69
661.87	1089.05
662.21	1083.67
662.55	1089.52
662.89	1080.16
663.23	1080.16
663.57	1082.73
663.91	1081.33
664.25	1075.71
664.60	1074.77
664.94	1074.07
665.28	1071.73
665.62	1069.86
665.96	1072.67
666.30	1067.28
666.64	1071.97
666.98	1083.43
667.32	1080.63
667.66	1080.63
668.01	1089.05
668.35	1079.92
668.69	1075.94
669.03	1081.33
669.37	1070.33
669.71	1071.97
670.05	1067.75
670.39	1059.33
670.73	1062.14
671.07	1082.97
671.41	1084.37
671.75	1086.71
672.09	1090.69
672.43	1090.46
672.77	1084.84
673.11	1078.75
673.45	1079.69
673.79	1071.03
674.13	1080.63
674.47	1075.24
674.81	1080.86
675.15	1076.41
675.49	1081.56
675.83	1071.73
676.17	1073.60
676.51	1068.69
676.85	1080.63
677.19	1081.09
677.53	1078.75
677.87	1082.97
678.21	1078.28
678.55	1059.56
678.89	1067.99
679.23	1065.18
679.57	1056.28
679.90	1061.90
680.24	1079.46
680.58	1074.77
680.92	1084.60
681.26	1086.94
681.60	1085.31
681.94	1077.58
682.28	1073.37
682.62	1067.99
682.96	1064.94
683.29	1069.62
683.63	1071.73
683.97	1076.88
684.31	1075.48
684.65	1078.75
684.99	1073.60
685.33	1079.92
685.67	1073.84
686.00	1074.07
686.34	1074.77
686.68	1077.58
687.02	1086.48
687.36	1087.41
687.70	1094.20
688.03	1097.71
688.37	1101.92
688.71	1086.24
689.05	1085.77
689.39	1078.99
689.72	1079.46
690.06	1075.71
690.40	1076.65
690.74	1080.63
691.08	1081.56
691.41	1081.33
691.75	1093.73
692.09	1102.63
692.43	1105.90
692.76	1103.80
693.10	1103.56
693.44	1084.14
693.78	1076.18
694.11	1069.86
694.45	1065.18
694.79	1063.07
695.13	1066.82
695.46	1071.26
695.80	1069.16
696.14	1074.77
696.48	1074.77
696.81	1082.50
697.15	1078.05
697.49	1076.18
697.82	1081.33
698.16	1083.20
698.50	1081.56
698.83	1082.03
699.17	1082.26
699.51	1074.31
699.84	1073.60
700.18	1071.73
700.52	1072.20
700.85	1080.39
701.19	1084.14
701.53	1082.50
701.86	1078.28
702.20	1076.41
702.54	1073.60
702.87	1064.94
703.21	1061.67
703.55	1070.09
703.88	1076.88
704.22	1077.11
704.55	1086.71
704.89	1090.46
705.23	1082.50
705.56	1079.22
705.90	1074.07
706.23	1065.18
706.57	1066.11
706.91	1078.75
707.24	1067.28
707.58	1072.20
707.91	1076.41
708.25	1076.65
708.58	1064.71
708.92	1080.16
709.26	1076.88
709.59	1084.14
709.93	1083.90
710.26	1091.86
710.60	1085.54
710.93	1090.22
711.27	1082.73
711.60	1082.26
711.94	1083.43
712.27	1087.18
712.61	1089.05
712.94	1095.14
713.28	1083.90
713.61	1072.20
713.95	1075.48
714.28	1074.54
714.62	1073.60
714.95	1084.14
715.29	1081.33
715.62	1073.60
715.96	1074.77
716.29	1076.65
716.63	1081.56
716.96	1091.63
717.29	1097.01
717.63	1103.80
717.96	1099.82
718.30	1087.88
718.63	1078.28
718.97	1082.26
719.30	1073.37
719.63	1069.39
719.97	1082.97
720.30	1094.90
720.64	1095.60
720.97	1095.60
721.30	1089.52
721.64	1078.28
721.97	1068.92
722.31	1059.79
722.64	1060.96
722.97	1082.03
723.31	1084.37
723.64	1081.09
723.97	1069.16
724.31	1066.11
724.64	1054.65
724.98	1055.35
725.31	1071.73
725.64	1081.80
725.98	1077.58
726.31	1068.45
726.64	1064.71
726.97	1065.65
727.31	1073.84
727.64	1085.77
727.97	1101.46
728.31	1109.41
728.64	1101.46
728.97	1092.80
729.31	1081.09
729.64	1075.01
729.97	1076.88
730.30	1081.09
730.64	1088.58
730.97	1095.37
731.30	1089.75
731.63	1083.67
731.97	1076.65
732.30	1069.39
732.63	1069.39
732.96	1078.52
733.30	1079.22
733.63	1086.48
733.96	1086.24
734.29	1098.65
734.63	1090.92
734.96	1092.56
735.29	1092.09
735.62	1095.60
735.95	1086.94
736.29	1095.37
736.62	1098.65
736.95	1096.31
737.28	1101.69
737.61	1094.67
737.94	1096.31
738.28	1101.46
738.61	1097.95
738.94	1095.60
739.27	1091.63
739.60	1081.56
739.93	1071.73
740.27	1069.16
740.60	1068.45
740.93	1077.58
741.26	1081.33
741.59	1076.88
741.92	1076.65
742.25	1067.28
742.58	1059.79
742.91	1055.82
743.25	1046.92
743.58	1044.11
743.91	1053.94
744.24	1063.77
744.57	1073.84
744.90	1082.73
745.23	1082.73
745.56	1090.46
745.89	1083.43
746.22	1072.43
746.55	1082.97
746.88	1086.71
747.21	1076.18
747.54	1091.16
747.87	1098.65
748.20	1101.46
748.53	1101.69
748.87	1104.26
749.20	1093.03
749.53	1084.37
749.86	1075.01
750.19	1069.62
750.52	1070.33
750.85	1065.41
751.18	1068.22
751.51	1072.43
751.84	1089.75
752.16	1090.46
752.49	1095.14
752.82	1092.80
753.15	1089.29
753.48	1084.37
753.81	1088.35
754.14	1089.05
754.47	1096.78
754.80	1096.07
755.13	1090.46
755.46	1080.39
755.79	1076.65
756.12	1080.39
756.45	1083.90
756.78	1083.43
757.11	1092.33
757.43	1100.99
757.76	1093.03
758.09	1087.18
758.42	1094.90
758.75	1091.63
759.08	1085.54
759.41	1084.37
759.74	1091.63
760.07	1085.77
760.39	1086.24
760.72	1087.18
761.05	1093.03
761.38	1088.82
761.71	1091.16
762.04	1087.88
762.36	1088.12
762.69	1075.71
763.02	1072.20
763.35	1064.01
763.68	1055.82
764.01	1056.75
764.33	1063.77
764.66	1070.09
764.99	1071.03
765.32	1074.77
765.65	1076.41
765.97	1084.37
766.30	1083.90
