SpectraSuite Data File
++++++++++++++++++++++++++++++++++++
Date: Mon Aug 26 10:24:31 PDT 2019
User: corrico
Dark Spectrum Present: No
Reference Spectrum Present: No
Number of Sampled Component Spectra: 1
Spectrometers: USB2+H06089
Integration Time (usec): 10000 (USB2+H06089)
Spectra Averaged: 2 (USB2+H06089)
Boxcar Smoothing: 2 (USB2+H06089)
Correct for Electrical Dark: No (USB2+H06089)
Strobe/Lamp Enabled: No (USB2+H06089)
Correct for Detector Non-linearity: No (USB2+H06089)
Correct for Stray Light: No (USB2+H06089)
Number of Pixels in Processed Spectrum: 2048
>>>>>Begin Processed Spectral Data<<<<<
339.70	1062.60
340.07	1062.60
340.45	1007.60
340.82	984.66
341.19	962.66
341.57	940.66
341.94	934.34
342.31	926.38
342.69	901.81
343.06	895.96
343.43	884.72
343.81	882.85
344.18	888.94
344.55	902.04
344.93	896.66
345.30	901.57
345.67	911.64
346.04	908.60
346.42	920.06
346.79	933.87
347.16	949.56
347.54	954.47
347.91	965.47
348.28	979.98
348.65	982.56
349.03	984.90
349.40	997.07
349.77	1007.83
350.14	1014.86
350.52	1025.15
350.89	1027.26
351.26	1042.24
351.63	1044.11
352.01	1040.37
352.38	1048.56
352.75	1059.56
353.12	1061.20
353.50	1077.58
353.87	1081.33
354.24	1080.86
354.61	1081.09
354.98	1080.86
355.36	1072.67
355.73	1077.82
356.10	1074.07
356.47	1072.43
356.84	1069.16
357.22	1062.60
357.59	1069.39
357.96	1080.63
358.33	1089.05
358.70	1092.33
359.08	1106.14
359.45	1097.01
359.82	1090.69
360.19	1075.94
360.56	1068.69
360.94	1069.16
361.31	1064.71
361.68	1063.54
362.05	1071.73
362.42	1071.97
362.79	1061.90
363.16	1068.69
363.54	1068.92
363.91	1065.18
364.28	1060.50
364.65	1057.92
365.02	1066.35
365.39	1065.41
365.76	1060.50
366.14	1068.45
366.51	1075.48
366.88	1057.69
367.25	1058.86
367.62	1061.67
367.99	1056.52
368.36	1049.50
368.73	1055.35
369.10	1059.33
369.48	1060.73
369.85	1065.18
370.22	1064.24
370.59	1065.65
370.96	1056.99
371.33	1061.67
371.70	1066.82
372.07	1078.52
372.44	1077.11
372.81	1080.86
373.18	1068.45
373.55	1046.69
373.93	1051.84
374.30	1055.58
374.67	1056.99
375.04	1064.48
375.41	1076.88
375.78	1066.58
376.15	1059.33
376.52	1057.22
376.89	1051.37
377.26	1051.13
377.63	1055.58
378.00	1051.60
378.37	1052.54
378.74	1061.67
379.11	1064.71
379.48	1066.58
379.85	1078.99
380.22	1079.69
380.59	1077.11
380.96	1073.60
381.33	1065.88
381.70	1051.84
382.07	1051.60
382.44	1063.07
382.81	1070.56
383.18	1075.48
383.55	1081.33
383.92	1071.97
384.29	1065.65
384.66	1065.18
385.03	1054.88
385.40	1062.37
385.77	1069.16
386.14	1069.39
386.51	1065.65
386.88	1070.09
387.25	1067.75
387.62	1064.48
387.99	1049.73
388.36	1045.99
388.73	1047.86
389.10	1043.64
389.46	1060.03
389.83	1071.50
390.20	1077.35
390.57	1082.03
390.94	1092.33
391.31	1065.41
391.68	1053.01
392.05	1056.28
392.42	1055.35
392.79	1040.37
393.16	1060.50
393.53	1072.20
393.89	1067.52
394.26	1068.69
394.63	1079.46
395.00	1075.24
395.37	1078.75
395.74	1072.67
396.11	1065.65
396.48	1063.31
396.84	1054.65
397.21	1049.03
397.58	1052.54
397.95	1050.67
398.32	1048.33
398.69	1061.20
399.06	1058.39
399.42	1053.71
399.79	1061.67
400.16	1061.90
400.53	1054.65
400.90	1060.26
401.27	1070.80
401.64	1070.56
402.00	1064.94
402.37	1065.18
402.74	1070.33
403.11	1060.03
403.48	1059.33
403.84	1062.84
404.21	1067.05
404.58	1064.71
404.95	1075.48
405.32	1082.97
405.68	1090.69
406.05	1097.48
406.42	1103.80
406.79	1100.05
407.16	1092.33
407.52	1088.58
407.89	1078.99
408.26	1082.26
408.63	1084.14
408.99	1086.24
409.36	1084.37
409.73	1079.69
410.10	1064.94
410.47	1060.03
410.83	1062.60
411.20	1064.01
411.57	1073.84
411.94	1081.09
412.30	1084.14
412.67	1070.33
413.04	1066.82
413.40	1070.80
413.77	1074.07
414.14	1066.11
414.51	1068.45
414.87	1072.20
415.24	1074.31
415.61	1063.54
415.97	1070.56
416.34	1073.60
416.71	1071.50
417.08	1066.58
417.44	1072.20
417.81	1066.35
418.18	1071.50
418.54	1064.01
418.91	1053.01
419.28	1054.88
419.64	1059.79
420.01	1062.14
420.38	1071.97
420.74	1077.82
421.11	1070.80
421.48	1076.88
421.84	1080.86
422.21	1082.26
422.58	1084.60
422.94	1090.22
423.31	1083.43
423.68	1081.56
424.04	1081.33
424.41	1076.18
424.77	1084.37
425.14	1088.58
425.51	1086.94
425.87	1089.75
426.24	1098.65
426.61	1091.63
426.97	1094.90
427.34	1092.09
427.70	1083.20
428.07	1080.39
428.44	1083.20
428.80	1074.07
429.17	1076.41
429.53	1082.50
429.90	1077.58
430.27	1076.88
430.63	1086.94
431.00	1077.82
431.36	1070.56
431.73	1071.03
432.09	1059.79
432.46	1054.88
432.83	1054.88
433.19	1063.07
433.56	1064.48
433.92	1071.73
434.29	1074.54
434.65	1078.28
435.02	1075.01
435.38	1072.67
435.75	1066.58
436.11	1059.33
436.48	1060.03
436.84	1064.71
437.21	1064.48
437.57	1072.67
437.94	1075.94
438.30	1075.48
438.67	1072.90
439.03	1083.90
439.40	1082.50
439.76	1081.33
440.13	1082.26
440.49	1081.33
440.86	1075.01
441.22	1070.56
441.59	1073.37
441.95	1076.65
442.32	1073.37
442.68	1076.18
443.05	1075.01
443.41	1078.05
443.78	1077.35
444.14	1078.05
444.51	1074.77
444.87	1078.28
445.24	1075.01
445.60	1065.41
445.96	1065.41
446.33	1064.94
446.69	1060.50
447.06	1061.43
447.42	1065.65
447.79	1073.60
448.15	1074.77
448.51	1081.09
448.88	1083.43
449.24	1094.90
449.61	1092.33
449.97	1091.39
450.33	1090.22
450.70	1080.16
451.06	1071.97
451.43	1074.77
451.79	1077.11
452.15	1075.24
452.52	1079.92
452.88	1077.11
453.24	1073.60
453.61	1074.54
453.97	1076.18
454.34	1074.77
454.70	1082.97
455.06	1087.88
455.43	1079.46
455.79	1077.82
456.15	1082.73
456.52	1080.63
456.88	1067.52
457.24	1072.90
457.61	1071.73
457.97	1072.90
458.33	1067.28
458.70	1081.56
459.06	1078.28
459.42	1077.11
459.79	1073.84
460.15	1076.41
460.51	1070.09
460.88	1070.09
461.24	1075.24
461.60	1067.05
461.96	1063.31
462.33	1067.28
462.69	1071.97
463.05	1065.18
463.42	1073.37
463.78	1075.94
464.14	1068.69
464.50	1070.56
464.87	1066.58
465.23	1065.18
465.59	1071.97
465.95	1069.86
466.32	1054.41
466.68	1059.33
467.04	1056.75
467.40	1054.65
467.77	1058.39
468.13	1075.01
468.49	1086.71
468.85	1090.22
469.22	1089.75
469.58	1083.90
469.94	1082.97
470.30	1080.63
470.66	1086.71
471.03	1084.14
471.39	1090.69
471.75	1088.82
472.11	1090.22
472.47	1091.16
472.84	1089.99
473.20	1083.67
473.56	1081.80
473.92	1081.33
474.28	1075.24
474.65	1086.71
475.01	1088.82
475.37	1087.88
475.73	1084.84
476.09	1083.67
476.45	1078.28
476.81	1085.54
477.18	1086.71
477.54	1082.50
477.90	1088.12
478.26	1083.20
478.62	1080.63
478.98	1082.97
479.34	1083.20
479.71	1076.65
480.07	1076.88
480.43	1085.77
480.79	1079.69
481.15	1083.20
481.51	1085.07
481.87	1084.60
482.23	1076.41
482.59	1086.94
482.96	1086.94
483.32	1087.65
483.68	1085.31
484.04	1082.26
484.40	1071.03
484.76	1077.58
485.12	1072.20
485.48	1074.54
485.84	1076.88
486.20	1082.73
486.56	1063.77
486.92	1067.28
487.28	1066.35
487.64	1077.11
488.00	1073.60
488.37	1076.18
488.73	1068.45
489.09	1067.52
489.45	1056.52
489.81	1058.16
490.17	1056.99
490.53	1067.75
490.89	1069.86
491.25	1054.18
491.61	1042.71
491.97	1050.20
492.33	1039.67
492.69	1044.58
493.05	1057.92
493.41	1077.11
493.77	1067.28
494.13	1079.92
494.49	1073.60
494.85	1072.43
495.21	1053.71
495.57	1066.11
495.93	1055.58
496.29	1055.58
496.64	1061.20
497.00	1077.58
497.36	1072.67
497.72	1081.09
498.08	1090.46
498.44	1092.80
498.80	1095.14
499.16	1107.31
499.52	1108.01
499.88	1093.97
500.24	1090.46
500.60	1073.14
500.96	1054.88
501.32	1055.82
501.68	1064.48
502.03	1063.54
502.39	1082.26
502.75	1097.48
503.11	1094.67
503.47	1101.69
503.83	1101.92
504.19	1105.44
504.55	1102.86
504.91	1107.07
505.26	1083.67
505.62	1078.52
505.98	1058.62
506.34	1057.92
506.70	1054.65
507.06	1065.41
507.42	1069.86
507.78	1082.50
508.13	1087.18
508.49	1093.03
508.85	1091.39
509.21	1089.52
509.57	1087.41
509.93	1084.37
510.28	1079.92
510.64	1089.75
511.00	1098.88
511.36	1097.71
511.72	1100.99
512.07	1094.20
512.43	1082.26
512.79	1074.54
513.15	1075.24
513.51	1068.22
513.86	1073.60
514.22	1070.80
514.58	1070.33
514.94	1072.43
515.30	1065.65
515.65	1067.05
516.01	1082.50
516.37	1082.97
516.73	1073.84
517.08	1084.37
517.44	1083.67
517.80	1074.31
518.16	1074.31
518.51	1084.84
518.87	1088.58
519.23	1089.05
519.59	1093.50
519.94	1082.97
520.30	1074.54
520.66	1073.37
521.01	1068.22
521.37	1074.07
521.73	1082.50
522.09	1081.56
522.44	1080.63
522.80	1079.46
523.16	1077.11
523.51	1082.97
523.87	1088.82
524.23	1083.67
524.58	1089.05
524.94	1085.54
525.30	1089.05
525.65	1089.52
526.01	1088.82
526.37	1076.88
526.72	1077.11
527.08	1068.22
527.44	1077.58
527.79	1076.88
528.15	1075.01
528.51	1075.71
528.86	1072.43
529.22	1064.48
529.58	1073.60
529.93	1091.16
530.29	1078.05
530.65	1085.31
531.00	1080.63
531.36	1068.45
531.71	1064.48
532.07	1068.92
532.43	1061.67
532.78	1071.03
533.14	1068.45
533.49	1077.11
533.85	1087.65
534.21	1088.58
534.56	1079.46
534.92	1078.05
535.27	1057.69
535.63	1053.48
535.98	1062.37
536.34	1066.11
536.69	1074.31
537.05	1086.94
537.41	1084.37
537.76	1074.77
538.12	1077.82
538.47	1077.82
538.83	1069.39
539.18	1073.14
539.54	1082.50
539.89	1077.82
540.25	1070.33
540.60	1071.73
540.96	1068.92
541.31	1062.14
541.67	1068.22
542.02	1082.03
542.38	1093.97
542.73	1096.31
543.09	1100.29
543.44	1087.18
543.80	1074.07
544.15	1061.20
544.51	1061.90
544.86	1068.45
545.22	1070.33
545.57	1073.14
545.93	1078.99
546.28	1072.90
546.64	1068.69
546.99	1070.33
547.35	1083.43
547.70	1082.03
548.05	1090.46
548.41	1089.52
548.76	1093.73
549.12	1084.84
549.47	1079.22
549.83	1069.62
550.18	1074.31
550.53	1069.86
550.89	1075.94
551.24	1090.46
551.60	1089.52
551.95	1071.50
552.30	1077.58
552.66	1071.50
553.01	1062.14
553.37	1071.26
553.72	1082.73
554.07	1079.69
554.43	1085.07
554.78	1089.75
555.13	1088.12
555.49	1093.50
555.84	1096.78
556.19	1085.31
556.55	1080.16
556.90	1077.82
557.26	1078.52
557.61	1077.82
557.96	1088.12
558.32	1084.14
558.67	1083.67
559.02	1078.28
559.37	1072.90
559.73	1066.58
560.08	1074.54
560.43	1072.20
560.79	1065.65
561.14	1064.71
561.49	1071.50
561.85	1065.65
562.20	1064.24
562.55	1063.07
562.90	1061.90
563.26	1062.37
563.61	1070.80
563.96	1070.33
564.32	1080.16
564.67	1077.35
565.02	1077.82
565.37	1068.92
565.73	1086.71
566.08	1089.99
566.43	1104.73
566.78	1097.95
567.14	1096.54
567.49	1079.92
567.84	1077.35
568.19	1070.80
568.54	1073.84
568.90	1079.22
569.25	1081.80
569.60	1086.94
569.95	1089.05
570.31	1081.09
570.66	1093.03
571.01	1098.65
571.36	1078.52
571.71	1074.54
572.06	1074.54
572.42	1059.79
572.77	1059.56
573.12	1067.05
573.47	1072.90
573.82	1070.09
574.18	1077.58
574.53	1076.18
574.88	1092.56
575.23	1085.54
575.58	1093.03
575.93	1089.99
576.28	1080.16
576.64	1067.52
576.99	1060.73
577.34	1067.99
577.69	1064.01
578.04	1075.71
578.39	1071.26
578.74	1075.48
579.09	1064.94
579.44	1071.73
579.80	1066.35
580.15	1061.67
580.50	1067.52
580.85	1065.18
581.20	1058.86
581.55	1059.79
581.90	1066.82
582.25	1068.22
582.60	1069.62
582.95	1069.39
583.30	1071.50
583.65	1076.41
584.00	1066.58
584.35	1068.69
584.71	1074.54
585.06	1074.31
585.41	1078.28
585.76	1097.24
586.11	1098.18
586.46	1094.67
586.81	1091.39
587.16	1081.33
587.51	1064.48
587.86	1061.20
588.21	1058.86
588.56	1059.33
588.91	1068.45
589.26	1069.86
589.61	1075.01
589.96	1075.24
590.31	1086.94
590.66	1082.03
591.01	1090.22
591.36	1086.01
591.71	1077.35
592.06	1067.52
592.41	1073.60
592.76	1073.60
593.10	1078.99
593.45	1090.22
593.80	1092.80
594.15	1093.26
594.50	1078.52
594.85	1075.01
595.20	1074.07
595.55	1065.88
595.90	1061.20
596.25	1067.52
596.60	1065.41
596.95	1076.88
597.30	1086.01
597.64	1136.56
597.99	1143.12
598.34	1144.52
598.69	1142.88
599.04	1140.31
599.39	1093.73
599.74	1091.63
600.09	1096.54
600.44	1093.03
600.78	1086.24
601.13	1088.35
601.48	1089.52
601.83	1097.48
602.18	1089.05
602.53	1096.31
602.88	1088.35
603.22	1089.52
603.57	1083.43
603.92	1087.88
604.27	1084.14
604.62	1085.31
604.97	1071.26
605.31	1063.07
605.66	1068.69
606.01	1075.24
606.36	1073.84
606.71	1086.71
607.05	1081.56
607.40	1071.03
607.75	1062.60
608.10	1062.37
608.44	1061.90
608.79	1065.88
609.14	1074.07
609.49	1083.20
609.84	1093.73
610.18	1097.48
610.53	1109.88
610.88	1101.22
611.23	1097.95
611.57	1092.80
611.92	1090.22
612.27	1080.16
612.62	1078.52
612.96	1079.92
613.31	1071.97
613.66	1077.11
614.00	1075.71
614.35	1078.52
614.70	1075.71
615.05	1078.52
615.39	1071.73
615.74	1077.35
616.09	1081.09
616.43	1080.63
616.78	1075.01
617.13	1074.54
617.47	1065.65
617.82	1067.99
618.17	1065.18
618.51	1070.80
618.86	1069.16
619.21	1079.46
619.55	1078.99
619.90	1086.71
620.25	1076.88
620.59	1081.09
620.94	1077.58
621.29	1077.58
621.63	1069.39
621.98	1083.90
622.32	1075.48
622.67	1075.94
623.02	1073.14
623.36	1081.33
623.71	1075.94
624.05	1079.69
624.40	1079.22
624.75	1084.84
625.09	1087.41
625.44	1093.73
625.78	1101.92
626.13	1096.78
626.48	1092.56
626.82	1085.31
627.17	1080.86
627.51	1070.09
627.86	1080.16
628.20	1078.52
628.55	1078.52
628.89	1079.46
629.24	1091.16
629.58	1089.99
629.93	1086.48
630.28	1075.71
630.62	1075.24
630.97	1073.14
631.31	1070.33
631.66	1078.05
632.00	1095.37
632.35	1096.07
632.69	1091.63
633.04	1090.92
633.38	1082.03
633.73	1070.09
634.07	1064.24
634.42	1062.14
634.76	1065.18
635.11	1070.80
635.45	1086.24
635.79	1095.37
636.14	1094.90
636.48	1092.80
636.83	1085.07
637.17	1073.37
637.52	1069.86
637.86	1074.31
638.21	1061.20
638.55	1058.86
638.89	1062.37
639.24	1067.99
639.58	1068.22
639.93	1079.69
640.27	1083.67
640.61	1079.69
640.96	1071.50
641.30	1069.16
641.65	1068.22
641.99	1075.48
642.33	1080.86
642.68	1085.31
643.02	1088.35
643.37	1093.97
643.71	1087.65
644.05	1083.20
644.40	1079.92
644.74	1078.52
645.08	1075.24
645.43	1075.71
645.77	1081.33
646.11	1079.22
646.46	1080.63
646.80	1085.07
647.14	1094.67
647.49	1090.69
647.83	1097.24
648.17	1091.86
648.52	1090.46
648.86	1084.37
649.20	1082.03
649.55	1073.84
649.89	1075.71
650.23	1072.90
650.57	1066.82
650.92	1066.35
651.26	1072.67
651.60	1080.16
651.95	1075.94
652.29	1074.31
652.63	1078.75
652.97	1072.20
653.32	1071.97
653.66	1079.69
654.00	1077.11
654.34	1067.99
654.69	1067.52
655.03	1048.09
655.37	1047.86
655.71	1053.94
656.05	1058.86
656.40	1064.01
656.74	1075.01
657.08	1072.67
657.42	1069.62
657.76	1068.45
658.11	1074.77
658.45	1078.05
658.79	1076.88
659.13	1085.31
659.47	1077.82
659.82	1057.45
660.16	1058.16
660.50	1064.94
660.84	1062.84
661.18	1077.35
661.52	1095.60
661.87	1087.18
662.21	1083.90
662.55	1086.94
662.89	1088.58
663.23	1087.41
663.57	1093.26
663.91	1087.41
664.25	1088.12
664.60	1078.99
664.94	1074.77
665.28	1083.43
665.62	1082.26
665.96	1095.60
666.30	1105.90
666.64	1105.67
666.98	1092.56
667.32	1095.14
667.66	1078.05
668.01	1066.58
668.35	1063.07
668.69	1061.43
669.03	1069.16
669.37	1068.92
669.71	1074.54
670.05	1079.92
670.39	1082.26
670.73	1073.14
671.07	1070.80
671.41	1076.65
671.75	1074.31
672.09	1081.09
672.43	1089.29
672.77	1100.75
673.11	1093.50
673.45	1087.41
673.79	1081.80
674.13	1084.60
674.47	1077.82
674.81	1084.84
675.15	1084.37
675.49	1096.31
675.83	1083.67
676.17	1078.99
676.51	1069.62
676.85	1076.41
677.19	1064.24
677.53	1063.77
677.87	1072.90
678.21	1082.97
678.55	1076.18
678.89	1073.37
679.23	1076.18
679.57	1062.84
679.90	1056.52
680.24	1061.90
680.58	1068.69
680.92	1068.69
681.26	1073.60
681.60	1074.07
681.94	1072.43
682.28	1076.18
682.62	1081.09
682.96	1087.18
683.29	1089.75
683.63	1079.46
683.97	1078.05
684.31	1081.80
684.65	1082.50
684.99	1070.33
685.33	1089.52
685.67	1093.50
686.00	1082.50
686.34	1076.65
686.68	1086.71
687.02	1087.88
687.36	1085.77
687.70	1090.92
688.03	1086.71
688.37	1083.43
688.71	1081.33
689.05	1076.18
689.39	1068.22
689.72	1078.99
690.06	1087.18
690.40	1080.63
690.74	1086.48
691.08	1097.01
691.41	1098.41
691.75	1080.39
692.09	1081.33
692.43	1071.26
692.76	1064.94
693.10	1052.07
693.44	1061.67
693.78	1058.62
694.11	1058.39
694.45	1057.69
694.79	1053.94
695.13	1058.62
695.46	1057.69
695.80	1056.75
696.14	1063.07
696.48	1071.50
696.81	1071.03
697.15	1078.05
697.49	1069.62
697.82	1067.75
698.16	1071.50
698.50	1069.62
698.83	1071.50
699.17	1086.24
699.51	1081.56
699.84	1079.69
700.18	1084.84
700.52	1082.03
700.85	1085.77
701.19	1087.65
701.53	1086.01
701.86	1079.69
702.20	1078.99
702.54	1067.75
702.87	1065.41
703.21	1068.45
703.55	1072.67
703.88	1060.96
704.22	1075.01
704.55	1072.43
704.89	1072.20
705.23	1074.54
705.56	1079.46
705.90	1067.28
706.23	1075.94
706.57	1074.77
706.91	1070.80
707.24	1080.86
707.58	1081.09
707.91	1082.50
708.25	1081.09
708.58	1082.73
708.92	1082.03
709.26	1088.58
709.59	1092.33
709.93	1096.54
710.26	1093.03
710.60	1090.46
710.93	1090.92
711.27	1092.33
711.60	1082.97
711.94	1084.37
712.27	1090.22
712.61	1089.05
712.94	1090.22
713.28	1102.86
713.61	1108.71
713.95	1093.73
714.28	1093.73
714.62	1085.31
714.95	1068.45
715.29	1058.62
715.62	1066.11
715.96	1060.26
716.29	1065.88
716.63	1084.60
716.96	1084.14
717.29	1079.92
717.63	1088.58
717.96	1083.43
718.30	1081.09
718.63	1084.37
718.97	1088.35
719.30	1081.09
719.63	1079.69
719.97	1064.71
720.30	1060.50
720.64	1056.28
720.97	1056.05
721.30	1051.60
721.64	1057.45
721.97	1057.22
722.31	1060.50
722.64	1067.52
722.97	1068.22
723.31	1073.84
723.64	1077.35
723.97	1077.11
724.31	1071.26
724.64	1074.31
724.98	1063.54
725.31	1057.45
725.64	1063.54
725.98	1065.65
726.31	1074.77
726.64	1082.97
726.97	1090.22
727.31	1083.20
727.64	1080.39
727.97	1064.71
728.31	1060.73
728.64	1065.41
728.97	1072.43
729.31	1078.28
729.64	1081.33
729.97	1082.97
730.30	1067.52
730.64	1068.69
730.97	1076.18
731.30	1088.82
731.63	1097.01
731.97	1104.50
732.30	1101.69
732.63	1087.65
732.96	1076.65
733.30	1072.20
733.63	1062.14
733.96	1059.56
734.29	1066.11
734.63	1068.45
734.96	1068.45
735.29	1080.16
735.62	1084.37
735.95	1085.54
736.29	1097.01
736.62	1099.35
736.95	1092.09
737.28	1086.01
737.61	1074.54
737.94	1063.31
738.28	1067.52
738.61	1079.92
738.94	1078.52
739.27	1078.28
739.60	1073.84
739.93	1065.18
740.27	1061.67
740.60	1067.52
740.93	1071.97
741.26	1074.54
741.59	1069.16
741.92	1074.77
742.25	1078.05
742.58	1074.54
742.91	1073.14
743.25	1072.90
743.58	1063.54
743.91	1053.01
744.24	1067.28
744.57	1067.99
744.90	1071.03
745.23	1083.20
745.56	1084.84
745.89	1067.52
746.22	1066.58
746.55	1068.45
746.88	1058.39
747.21	1054.41
747.54	1064.94
747.87	1075.24
748.20	1078.05
748.53	1085.77
748.87	1083.90
749.20	1080.86
749.53	1074.77
749.86	1079.92
750.19	1069.86
750.52	1077.82
750.85	1082.50
751.18	1083.67
751.51	1070.33
751.84	1076.65
752.16	1066.58
752.49	1067.28
752.82	1066.35
753.15	1062.14
753.48	1052.77
753.81	1062.60
754.14	1056.75
754.47	1059.56
754.80	1074.07
755.13	1077.58
755.46	1089.05
755.79	1090.69
756.12	1087.65
756.45	1093.26
756.78	1104.03
757.11	1096.54
757.43	1097.24
757.76	1095.84
758.09	1084.60
758.42	1071.26
758.75	1073.37
759.08	1075.71
759.41	1087.41
759.74	1083.67
760.07	1097.95
760.39	1096.78
760.72	1101.92
761.05	1097.48
761.38	1107.54
761.71	1094.20
762.04	1088.58
762.36	1076.41
762.69	1068.69
763.02	1069.62
763.35	1065.65
763.68	1070.09
764.01	1078.28
764.33	1082.50
764.66	1079.22
764.99	1088.12
765.32	1084.60
765.65	1083.43
765.97	1083.90
766.30	1085.31
