SpectraSuite Data File
++++++++++++++++++++++++++++++++++++
Date: Mon Aug 26 10:24:32 PDT 2019
User: corrico
Dark Spectrum Present: No
Reference Spectrum Present: No
Number of Sampled Component Spectra: 1
Spectrometers: USB2+H06089
Integration Time (usec): 10000 (USB2+H06089)
Spectra Averaged: 2 (USB2+H06089)
Boxcar Smoothing: 2 (USB2+H06089)
Correct for Electrical Dark: No (USB2+H06089)
Strobe/Lamp Enabled: No (USB2+H06089)
Correct for Detector Non-linearity: No (USB2+H06089)
Correct for Stray Light: No (USB2+H06089)
Number of Pixels in Processed Spectrum: 2048
>>>>>Begin Processed Spectral Data<<<<<
339.70	1034.52
340.07	1034.52
340.45	987.00
340.82	961.02
341.19	930.83
341.57	893.85
341.94	884.25
342.31	881.45
342.69	889.40
343.06	883.08
343.43	888.70
343.81	894.32
344.18	894.79
344.55	889.87
344.93	903.45
345.30	906.96
345.67	915.15
346.04	922.64
346.42	929.89
346.79	942.53
347.16	956.58
347.54	963.13
347.91	968.28
348.28	974.83
348.65	974.60
349.03	992.15
349.40	1005.26
349.77	1013.22
350.14	1014.62
350.52	1030.07
350.89	1025.86
351.26	1032.18
351.63	1041.54
352.01	1053.71
352.38	1054.18
352.75	1062.37
353.12	1064.48
353.50	1071.97
353.87	1085.54
354.24	1084.84
354.61	1079.69
354.98	1078.28
355.36	1072.20
355.73	1061.67
356.10	1066.35
356.47	1070.56
356.84	1072.20
357.22	1080.86
357.59	1084.37
357.96	1097.24
358.33	1093.73
358.70	1094.43
359.08	1077.11
359.45	1075.71
359.82	1063.77
360.19	1067.05
360.56	1063.54
360.94	1074.77
361.31	1081.80
361.68	1082.26
362.05	1086.24
362.42	1092.56
362.79	1085.07
363.16	1074.54
363.54	1069.39
363.91	1057.92
364.28	1045.75
364.65	1053.24
365.02	1050.90
365.39	1050.67
365.76	1057.22
366.14	1063.77
366.51	1067.28
366.88	1066.11
367.25	1065.41
367.62	1074.07
367.99	1074.07
368.36	1060.96
368.73	1064.71
369.10	1067.28
369.48	1067.52
369.85	1067.75
370.22	1072.67
370.59	1068.22
370.96	1065.65
371.33	1060.73
371.70	1060.73
372.07	1067.05
372.44	1073.84
372.81	1078.28
373.18	1072.90
373.55	1071.03
373.93	1059.79
374.30	1055.58
374.67	1051.60
375.04	1048.79
375.41	1048.33
375.78	1046.45
376.15	1042.01
376.52	1041.30
376.89	1052.07
377.26	1051.60
377.63	1057.92
378.00	1067.52
378.37	1071.73
378.74	1061.43
379.11	1070.56
379.48	1064.01
379.85	1064.94
380.22	1068.69
380.59	1076.65
380.96	1076.88
381.33	1094.67
381.70	1091.86
382.07	1086.94
382.44	1088.12
382.81	1091.63
383.18	1075.24
383.55	1064.24
383.92	1067.99
384.29	1064.01
384.66	1055.35
385.03	1065.88
385.40	1078.52
385.77	1067.75
386.14	1062.37
386.51	1065.88
386.88	1055.82
387.25	1054.18
387.62	1057.22
387.99	1062.14
388.36	1060.96
388.73	1075.01
389.10	1065.88
389.46	1071.97
389.83	1071.50
390.20	1066.35
390.57	1064.01
390.94	1071.97
391.31	1065.18
391.68	1064.94
392.05	1070.09
392.42	1068.45
392.79	1068.22
393.16	1064.71
393.53	1057.92
393.89	1048.79
394.26	1051.84
394.63	1056.75
395.00	1066.35
395.37	1083.20
395.74	1091.39
396.11	1090.22
396.48	1088.58
396.84	1096.31
397.21	1091.16
397.58	1099.82
397.95	1101.22
398.32	1097.48
398.69	1086.24
399.06	1081.80
399.42	1064.01
399.79	1049.73
400.16	1059.33
400.53	1054.65
400.90	1049.50
401.27	1055.35
401.64	1064.24
402.00	1053.48
402.37	1063.07
402.74	1073.84
403.11	1078.05
403.48	1082.50
403.84	1093.03
404.21	1091.16
404.58	1084.14
404.95	1089.05
405.32	1093.03
405.68	1093.97
406.05	1092.33
406.42	1098.65
406.79	1093.73
407.16	1089.75
407.52	1091.16
407.89	1096.54
408.26	1098.18
408.63	1112.46
408.99	1108.95
409.36	1109.88
409.73	1114.09
410.10	1115.73
410.47	1112.22
410.83	1119.48
411.20	1125.33
411.57	1137.50
411.94	1148.03
412.30	1152.01
412.67	1162.08
413.04	1162.54
413.40	1163.95
413.77	1166.76
414.14	1168.86
414.51	1178.93
414.87	1184.55
415.24	1197.89
415.61	1209.12
415.97	1203.74
416.34	1209.12
416.71	1226.21
417.08	1236.27
417.44	1237.44
417.81	1268.10
418.18	1279.34
418.54	1294.08
418.91	1302.98
419.28	1323.57
419.64	1338.08
420.01	1363.13
420.38	1380.45
420.74	1398.24
421.11	1425.39
421.48	1457.45
421.84	1485.07
422.21	1503.56
422.58	1534.69
422.94	1546.86
423.31	1556.92
423.68	1573.78
424.04	1607.25
424.41	1621.99
424.77	1659.21
425.14	1705.55
425.51	1749.08
425.87	1787.00
426.24	1831.00
426.61	1878.51
426.97	1936.56
427.34	1970.73
427.70	2010.75
428.07	2061.31
428.44	2124.97
428.80	2174.12
429.17	2231.93
429.53	2297.00
429.90	2370.26
430.27	2420.11
430.63	2462.71
431.00	2521.69
431.36	2587.23
431.73	2634.74
432.09	2710.81
432.46	2773.53
432.83	2838.37
433.19	2899.22
433.56	2978.57
433.92	3031.70
434.29	3087.87
434.65	3145.45
435.02	3202.09
435.38	3244.45
435.75	3289.86
436.11	3361.95
436.48	3423.27
436.84	3455.10
437.21	3485.06
437.57	3511.27
437.94	3526.02
438.30	3519.00
438.67	3532.57
439.03	3528.59
439.40	3527.19
439.76	3515.72
440.13	3520.87
440.49	3511.97
440.86	3483.42
441.22	3459.78
441.59	3416.71
441.95	3367.80
442.32	3315.60
442.68	3280.03
443.05	3234.85
443.41	3184.06
443.78	3129.76
444.14	3063.29
444.51	3006.89
444.87	2961.01
445.24	2922.16
445.60	2876.28
445.96	2831.81
446.33	2808.88
446.69	2752.94
447.06	2705.19
447.42	2660.72
447.79	2620.00
448.15	2577.40
448.51	2542.06
448.88	2493.37
449.24	2445.63
449.61	2417.07
449.97	2356.22
450.33	2303.09
450.70	2275.94
451.06	2246.21
451.43	2208.53
451.79	2190.51
452.15	2172.49
452.52	2141.82
452.88	2120.53
453.24	2080.97
453.61	2053.35
453.97	2019.65
454.34	1980.09
454.70	1946.86
455.06	1935.86
455.43	1909.17
455.79	1868.68
456.15	1849.02
456.52	1823.75
456.88	1790.04
457.24	1754.00
457.61	1742.53
457.97	1720.76
458.33	1698.99
458.70	1673.48
459.06	1643.99
459.42	1611.22
459.79	1581.97
460.15	1549.67
460.51	1540.07
460.88	1528.14
461.24	1513.62
461.60	1510.58
461.96	1509.88
462.33	1491.62
462.69	1475.47
463.05	1476.64
463.42	1464.47
463.78	1455.35
464.14	1434.98
464.50	1440.37
464.87	1432.17
465.23	1413.45
465.59	1394.73
465.95	1394.49
466.32	1372.72
466.68	1356.81
467.04	1346.74
467.40	1342.06
467.77	1340.89
468.13	1339.49
468.49	1323.81
468.85	1328.72
469.22	1329.19
469.58	1322.17
469.94	1319.36
470.30	1324.04
470.66	1311.17
471.03	1293.38
471.39	1281.21
471.75	1273.95
472.11	1269.97
472.47	1257.80
472.84	1257.10
473.20	1259.91
473.56	1252.42
473.92	1247.74
474.28	1241.89
474.65	1235.57
475.01	1218.01
475.37	1214.50
475.73	1195.31
476.09	1196.95
476.45	1201.87
476.81	1199.76
477.18	1188.76
477.54	1202.10
477.90	1204.91
478.26	1201.63
478.62	1203.50
478.98	1214.97
479.34	1207.01
479.71	1193.21
480.07	1183.14
480.43	1181.50
480.79	1164.88
481.15	1162.31
481.51	1166.76
481.87	1171.20
482.23	1167.23
482.59	1169.80
482.96	1170.27
483.32	1168.63
483.68	1148.97
484.04	1158.57
484.40	1167.93
484.76	1161.37
485.12	1163.25
485.48	1173.54
485.84	1164.65
486.20	1150.84
486.56	1154.35
486.92	1144.99
487.28	1146.63
487.64	1133.76
488.00	1129.54
488.37	1118.78
488.73	1122.99
489.09	1121.35
489.45	1126.97
489.81	1131.65
490.17	1139.61
490.53	1126.97
490.89	1123.93
491.25	1122.29
491.61	1123.46
491.97	1119.48
492.33	1128.14
492.69	1132.59
493.05	1133.99
493.41	1134.22
493.77	1134.46
494.13	1129.31
494.49	1116.90
494.85	1105.90
495.21	1093.26
495.57	1087.65
495.93	1093.50
496.29	1098.88
496.64	1107.07
497.00	1111.29
497.36	1115.27
497.72	1115.03
498.08	1111.52
498.44	1104.73
498.80	1110.58
499.16	1114.80
499.52	1115.73
499.88	1125.80
500.24	1130.71
500.60	1115.50
500.96	1109.41
501.32	1099.82
501.68	1085.07
502.03	1080.16
502.39	1096.07
502.75	1096.54
503.11	1100.75
503.47	1106.37
503.83	1119.24
504.19	1112.92
504.55	1106.14
504.91	1104.73
505.26	1103.09
505.62	1092.09
505.98	1088.35
506.34	1089.99
506.70	1093.03
507.06	1089.99
507.42	1096.07
507.78	1110.58
508.13	1111.99
508.49	1097.95
508.85	1102.86
509.21	1101.46
509.57	1082.97
509.93	1087.41
510.28	1100.99
510.64	1098.65
511.00	1100.29
511.36	1104.73
511.72	1106.14
512.07	1093.50
512.43	1087.88
512.79	1083.43
513.15	1088.12
513.51	1081.56
513.86	1095.84
514.22	1106.14
514.58	1100.75
514.94	1093.73
515.30	1086.94
515.65	1081.56
516.01	1080.63
516.37	1097.71
516.73	1096.54
517.08	1111.52
517.44	1114.80
517.80	1116.20
518.16	1106.37
518.51	1105.44
518.87	1102.63
519.23	1101.69
519.59	1088.58
519.94	1086.01
520.30	1087.88
520.66	1086.24
521.01	1092.09
521.37	1097.24
521.73	1100.75
522.09	1106.61
522.44	1102.86
522.80	1097.01
523.16	1095.14
523.51	1099.12
523.87	1092.80
524.23	1095.84
524.58	1083.20
524.94	1092.33
525.30	1098.18
525.65	1102.63
526.01	1087.18
526.37	1094.90
526.72	1087.88
527.08	1076.41
527.44	1078.05
527.79	1086.01
528.15	1085.77
528.51	1094.67
528.86	1086.24
529.22	1097.48
529.58	1100.29
529.93	1100.29
530.29	1098.65
530.65	1106.61
531.00	1089.52
531.36	1082.97
531.71	1085.31
532.07	1086.24
532.43	1081.56
532.78	1095.37
533.14	1104.26
533.49	1098.18
533.85	1090.46
534.21	1089.29
534.56	1083.67
534.92	1082.73
535.27	1091.63
535.63	1095.60
535.98	1088.58
536.34	1080.86
536.69	1076.41
537.05	1078.28
537.41	1076.18
537.76	1085.54
538.12	1099.58
538.47	1105.90
538.83	1099.82
539.18	1092.80
539.54	1089.75
539.89	1076.65
540.25	1074.77
540.60	1086.24
540.96	1089.99
541.31	1094.67
541.67	1097.95
542.02	1090.46
542.38	1079.69
542.73	1085.31
543.09	1089.99
543.44	1087.65
543.80	1086.01
544.15	1082.73
544.51	1078.99
544.86	1068.69
545.22	1057.92
545.57	1067.28
545.93	1069.39
546.28	1071.26
546.64	1077.58
546.99	1092.09
547.35	1092.56
547.70	1099.12
548.05	1103.80
548.41	1107.07
548.76	1104.50
549.12	1097.48
549.47	1094.90
549.83	1087.18
550.18	1084.37
550.53	1084.84
550.89	1096.31
551.24	1095.37
551.60	1094.90
551.95	1095.14
552.30	1089.29
552.66	1082.26
553.01	1080.39
553.37	1084.60
553.72	1074.31
554.07	1079.69
554.43	1082.26
554.78	1085.77
555.13	1071.97
555.49	1071.26
555.84	1072.20
556.19	1057.92
556.55	1052.30
556.90	1057.69
557.26	1061.67
557.61	1061.20
557.96	1067.75
558.32	1069.86
558.67	1062.84
559.02	1067.75
559.37	1067.52
559.73	1070.33
560.08	1068.69
560.43	1077.11
560.79	1077.11
561.14	1069.16
561.49	1071.97
561.85	1069.86
562.20	1078.75
562.55	1077.11
562.90	1090.22
563.26	1089.05
563.61	1091.86
563.96	1086.48
564.32	1089.75
564.67	1090.46
565.02	1087.18
565.37	1087.18
565.73	1091.16
566.08	1085.07
566.43	1078.75
566.78	1087.65
567.14	1090.69
567.49	1087.88
567.84	1098.41
568.19	1090.46
568.54	1086.48
568.90	1089.75
569.25	1086.71
569.60	1084.37
569.95	1091.39
570.31	1088.58
570.66	1083.20
571.01	1080.16
571.36	1072.20
571.71	1075.01
572.06	1075.94
572.42	1084.37
572.77	1090.46
573.12	1097.01
573.47	1090.46
573.82	1086.71
574.18	1074.77
574.53	1067.99
574.88	1056.52
575.23	1062.14
575.58	1063.54
575.93	1063.31
576.28	1071.50
576.64	1076.88
576.99	1079.92
577.34	1080.39
577.69	1081.56
578.04	1080.86
578.39	1079.22
578.74	1086.71
579.09	1089.29
579.44	1088.12
579.80	1087.18
580.15	1093.97
580.50	1086.01
580.85	1082.73
581.20	1091.86
581.55	1091.86
581.90	1081.56
582.25	1082.26
582.60	1082.50
582.95	1079.22
583.30	1085.07
583.65	1089.75
584.00	1082.03
584.35	1078.28
584.71	1075.24
585.06	1064.94
585.41	1065.65
585.76	1069.86
586.11	1082.03
586.46	1078.28
586.81	1083.20
587.16	1079.92
587.51	1076.65
587.86	1070.80
588.21	1089.29
588.56	1088.82
588.91	1093.97
589.26	1090.46
589.61	1085.77
589.96	1070.56
590.31	1072.20
590.66	1069.86
591.01	1076.88
591.36	1088.12
591.71	1087.88
592.06	1087.65
592.41	1095.37
592.76	1093.50
593.10	1089.52
593.45	1095.37
593.80	1104.03
594.15	1091.16
594.50	1097.24
594.85	1101.46
595.20	1101.69
595.55	1090.46
595.90	1097.71
596.25	1097.95
596.60	1078.99
596.95	1077.58
597.30	1078.75
597.64	1131.88
597.99	1119.24
598.34	1123.69
598.69	1127.67
599.04	1122.05
599.39	1056.75
599.74	1060.26
600.09	1063.77
600.44	1055.58
600.78	1055.58
601.13	1066.35
601.48	1063.07
601.83	1066.58
602.18	1062.14
602.53	1071.03
602.88	1071.26
603.22	1074.07
603.57	1075.24
603.92	1082.50
604.27	1086.48
604.62	1089.75
604.97	1094.67
605.31	1087.65
605.66	1084.14
606.01	1074.77
606.36	1075.01
606.71	1075.71
607.05	1086.48
607.40	1094.43
607.75	1091.63
608.10	1091.63
608.44	1085.31
608.79	1076.88
609.14	1071.73
609.49	1071.97
609.84	1065.18
610.18	1069.86
610.53	1079.22
610.88	1082.73
611.23	1095.60
611.57	1110.12
611.92	1105.44
612.27	1109.18
612.62	1099.12
612.96	1084.37
613.31	1071.26
613.66	1078.99
614.00	1071.97
614.35	1073.84
614.70	1079.92
615.05	1082.50
615.39	1076.65
615.74	1081.33
616.09	1076.88
616.43	1075.94
616.78	1075.24
617.13	1084.14
617.47	1081.56
617.82	1087.18
618.17	1084.37
618.51	1088.12
618.86	1082.26
619.21	1083.20
619.55	1087.18
619.90	1094.20
620.25	1094.67
620.59	1099.35
620.94	1091.39
621.29	1090.22
621.63	1091.86
621.98	1086.24
622.32	1079.46
622.67	1086.48
623.02	1093.50
623.36	1086.48
623.71	1096.31
624.05	1101.46
624.40	1096.31
624.75	1081.56
625.09	1079.46
625.44	1075.94
625.78	1065.88
626.13	1075.48
626.48	1083.67
626.82	1079.69
627.17	1072.90
627.51	1077.82
627.86	1075.01
628.20	1082.97
628.55	1090.69
628.89	1099.12
629.24	1094.67
629.58	1089.75
629.93	1074.07
630.28	1074.31
630.62	1070.80
630.97	1072.43
631.31	1064.48
631.66	1080.16
632.00	1084.37
632.35	1090.22
632.69	1094.90
633.04	1101.69
633.38	1092.56
633.73	1085.31
634.07	1084.60
634.42	1078.99
634.76	1077.82
635.11	1082.50
635.45	1089.29
635.79	1075.24
636.14	1080.39
636.48	1083.90
636.83	1075.24
637.17	1073.60
637.52	1082.73
637.86	1086.48
638.21	1082.97
638.55	1085.54
638.89	1085.31
639.24	1084.60
639.58	1085.54
639.93	1087.18
640.27	1089.05
640.61	1095.14
640.96	1092.33
641.30	1090.69
641.65	1087.18
641.99	1094.90
642.33	1081.80
642.68	1082.26
643.02	1077.35
643.37	1079.22
643.71	1074.31
644.05	1086.24
644.40	1085.77
644.74	1074.31
645.08	1075.94
645.43	1071.03
645.77	1072.67
646.11	1074.07
646.46	1088.82
646.80	1084.84
647.14	1082.73
647.49	1070.09
647.83	1070.09
648.17	1070.56
648.52	1068.22
648.86	1066.82
649.20	1072.67
649.55	1069.39
649.89	1064.71
650.23	1073.37
650.57	1081.56
650.92	1082.26
651.26	1089.05
651.60	1088.12
651.95	1079.22
652.29	1075.71
652.63	1074.07
652.97	1069.16
653.32	1080.86
653.66	1082.26
654.00	1085.54
654.34	1083.67
654.69	1088.58
655.03	1082.97
655.37	1083.90
655.71	1077.82
656.05	1078.99
656.40	1076.41
656.74	1081.09
657.08	1083.67
657.42	1087.88
657.76	1091.16
658.11	1100.29
658.45	1091.39
658.79	1092.56
659.13	1088.82
659.47	1080.86
659.82	1072.43
660.16	1077.82
660.50	1076.65
660.84	1077.82
661.18	1076.41
661.52	1068.22
661.87	1070.33
662.21	1069.86
662.55	1069.86
662.89	1077.11
663.23	1087.18
663.57	1082.73
663.91	1084.84
664.25	1095.37
664.60	1092.80
664.94	1089.75
665.28	1091.86
665.62	1086.48
665.96	1072.43
666.30	1069.62
666.64	1070.33
666.98	1065.18
667.32	1071.50
667.66	1075.94
668.01	1075.71
668.35	1069.62
668.69	1072.20
669.03	1073.60
669.37	1078.99
669.71	1084.84
670.05	1079.69
670.39	1084.37
670.73	1077.58
671.07	1072.67
671.41	1068.69
671.75	1077.35
672.09	1063.77
672.43	1073.60
672.77	1069.86
673.11	1064.71
673.45	1062.37
673.79	1070.80
674.13	1063.54
674.47	1070.80
674.81	1076.18
675.15	1086.71
675.49	1092.80
675.83	1090.92
676.17	1081.33
676.51	1080.39
676.85	1067.05
677.19	1059.79
677.53	1061.43
677.87	1054.65
678.21	1053.48
678.55	1058.62
678.89	1058.16
679.23	1060.50
679.57	1070.56
679.90	1079.69
680.24	1073.60
680.58	1076.18
680.92	1074.77
681.26	1081.33
681.60	1072.20
681.94	1073.84
682.28	1073.84
682.62	1062.60
682.96	1065.65
683.29	1067.05
683.63	1077.11
683.97	1071.97
684.31	1083.20
684.65	1079.46
684.99	1083.90
685.33	1071.50
685.67	1078.75
686.00	1079.92
686.34	1072.67
686.68	1069.86
687.02	1076.41
687.36	1072.43
687.70	1067.28
688.03	1061.43
688.37	1055.58
688.71	1063.07
689.05	1060.26
689.39	1075.94
689.72	1087.41
690.06	1100.52
690.40	1099.12
690.74	1101.22
691.08	1090.46
691.41	1084.84
691.75	1073.37
692.09	1066.35
692.43	1066.11
692.76	1066.58
693.10	1072.90
693.44	1076.88
693.78	1073.37
694.11	1075.01
694.45	1067.75
694.79	1065.18
695.13	1068.92
695.46	1077.11
695.80	1067.75
696.14	1067.28
696.48	1067.99
696.81	1060.50
697.15	1056.52
697.49	1066.58
697.82	1073.84
698.16	1064.01
698.50	1074.31
698.83	1075.24
699.17	1073.60
699.51	1069.86
699.84	1084.14
700.18	1081.09
700.52	1081.56
700.85	1086.24
701.19	1085.31
701.53	1081.09
701.86	1082.97
702.20	1085.31
702.54	1074.07
702.87	1076.88
703.21	1078.28
703.55	1079.92
703.88	1085.31
704.22	1086.48
704.55	1087.41
704.89	1082.97
705.23	1080.16
705.56	1075.01
705.90	1078.05
706.23	1079.92
706.57	1083.43
706.91	1075.94
707.24	1077.58
707.58	1078.05
707.91	1070.80
708.25	1071.50
708.58	1072.90
708.92	1065.88
709.26	1072.20
709.59	1082.26
709.93	1077.58
710.26	1078.52
710.60	1078.99
710.93	1070.09
711.27	1068.22
711.60	1078.05
711.94	1082.73
712.27	1088.12
712.61	1081.80
712.94	1074.07
713.28	1060.73
713.61	1053.48
713.95	1051.84
714.28	1060.03
714.62	1077.82
714.95	1078.28
715.29	1084.60
715.62	1081.33
715.96	1086.94
716.29	1080.16
716.63	1094.43
716.96	1101.92
717.29	1112.46
717.63	1114.56
717.96	1111.29
718.30	1097.95
718.63	1085.77
718.97	1076.18
719.30	1064.48
719.63	1065.18
719.97	1072.90
720.30	1075.94
720.64	1077.35
720.97	1083.43
721.30	1079.92
721.64	1077.82
721.97	1075.48
722.31	1077.82
722.64	1079.22
722.97	1083.67
723.31	1078.99
723.64	1076.88
723.97	1081.80
724.31	1082.97
724.64	1074.77
724.98	1075.71
725.31	1084.14
725.64	1074.77
725.98	1070.33
726.31	1072.67
726.64	1079.22
726.97	1072.67
727.31	1074.54
727.64	1077.11
727.97	1083.43
728.31	1085.77
728.64	1089.05
728.97	1094.43
729.31	1099.82
729.64	1101.22
729.97	1104.26
730.30	1103.09
730.64	1089.99
730.97	1084.84
731.30	1078.99
731.63	1069.16
731.97	1058.16
732.30	1062.60
732.63	1070.56
732.96	1066.11
733.30	1063.77
733.63	1079.69
733.96	1079.69
734.29	1073.60
734.63	1075.48
734.96	1075.24
735.29	1072.20
735.62	1075.01
735.95	1075.94
736.29	1070.56
736.62	1073.84
736.95	1069.62
737.28	1070.56
737.61	1064.01
737.94	1067.99
738.28	1066.82
738.61	1071.50
738.94	1074.31
739.27	1080.16
739.60	1083.43
739.93	1077.82
740.27	1071.50
740.60	1076.41
740.93	1076.88
741.26	1079.69
741.59	1089.05
741.92	1082.03
742.25	1066.58
742.58	1049.26
742.91	1051.37
743.25	1045.99
743.58	1061.20
743.91	1063.31
744.24	1084.84
744.57	1075.01
744.90	1082.50
745.23	1086.01
745.56	1092.80
745.89	1082.97
746.22	1090.92
746.55	1078.52
746.88	1077.11
747.21	1076.65
747.54	1080.39
747.87	1082.97
748.20	1089.99
748.53	1080.39
748.87	1089.52
749.20	1083.67
749.53	1080.63
749.86	1083.43
750.19	1083.67
750.52	1072.43
750.85	1076.65
751.18	1074.31
751.51	1071.03
751.84	1073.37
752.16	1079.22
752.49	1070.09
752.82	1060.03
753.15	1067.28
753.48	1072.20
753.81	1069.62
754.14	1078.52
754.47	1087.41
754.80	1078.52
755.13	1078.75
755.46	1078.05
755.79	1075.94
756.12	1089.29
756.45	1088.12
756.78	1082.03
757.11	1081.56
757.43	1084.37
757.76	1077.58
758.09	1082.03
758.42	1082.03
758.75	1080.39
759.08	1078.28
759.41	1070.80
759.74	1069.39
760.07	1075.71
760.39	1073.84
760.72	1075.01
761.05	1075.71
761.38	1078.75
761.71	1066.58
762.04	1064.01
762.36	1068.92
762.69	1068.45
763.02	1064.48
763.35	1068.45
763.68	1068.92
764.01	1058.62
764.33	1061.20
764.66	1064.01
764.99	1067.52
765.32	1070.33
765.65	1074.07
765.97	1072.43
766.30	1071.50
