SpectraSuite Data File
++++++++++++++++++++++++++++++++++++
Date: Mon Aug 26 10:24:33 PDT 2019
User: corrico
Dark Spectrum Present: No
Reference Spectrum Present: No
Number of Sampled Component Spectra: 1
Spectrometers: USB2+H06089
Integration Time (usec): 10000 (USB2+H06089)
Spectra Averaged: 2 (USB2+H06089)
Boxcar Smoothing: 2 (USB2+H06089)
Correct for Electrical Dark: No (USB2+H06089)
Strobe/Lamp Enabled: No (USB2+H06089)
Correct for Detector Non-linearity: No (USB2+H06089)
Correct for Stray Light: No (USB2+H06089)
Number of Pixels in Processed Spectrum: 2048
>>>>>Begin Processed Spectral Data<<<<<
339.70	1023.98
340.07	1023.98
340.45	988.88
340.82	967.81
341.19	939.26
341.57	909.77
341.94	912.34
342.31	909.06
342.69	899.23
343.06	902.04
343.43	903.21
343.81	882.15
344.18	876.76
344.55	891.28
344.93	898.53
345.30	903.21
345.67	927.55
346.04	944.41
346.42	956.34
346.79	965.00
347.16	976.94
347.54	978.34
347.91	974.37
348.28	969.68
348.65	976.94
349.03	989.11
349.40	1001.28
349.77	1017.20
350.14	1027.96
350.52	1031.24
350.89	1039.20
351.26	1042.01
351.63	1054.65
352.01	1062.37
352.38	1072.67
352.75	1063.54
353.12	1049.26
353.50	1053.94
353.87	1050.90
354.24	1043.41
354.61	1050.43
354.98	1061.67
355.36	1059.33
355.73	1067.75
356.10	1077.58
356.47	1080.86
356.84	1087.88
357.22	1082.50
357.59	1089.05
357.96	1086.94
358.33	1093.26
358.70	1088.35
359.08	1095.14
359.45	1078.99
359.82	1075.24
360.19	1064.01
360.56	1066.35
360.94	1071.03
361.31	1066.35
361.68	1068.69
362.05	1077.82
362.42	1082.26
362.79	1072.20
363.16	1081.33
363.54	1089.29
363.91	1084.37
364.28	1078.28
364.65	1071.03
365.02	1066.35
365.39	1052.77
365.76	1053.24
366.14	1058.62
366.51	1065.18
366.88	1052.54
367.25	1060.50
367.62	1059.56
367.99	1057.69
368.36	1053.48
368.73	1070.80
369.10	1069.16
369.48	1073.84
369.85	1064.01
370.22	1069.62
370.59	1063.07
370.96	1056.52
371.33	1052.77
371.70	1067.05
372.07	1068.92
372.44	1077.58
372.81	1086.94
373.18	1082.97
373.55	1076.18
373.93	1075.94
374.30	1078.75
374.67	1078.28
375.04	1081.80
375.41	1085.77
375.78	1086.48
376.15	1083.20
376.52	1081.80
376.89	1084.60
377.26	1078.52
377.63	1068.22
378.00	1063.31
378.37	1067.28
378.74	1070.33
379.11	1071.73
379.48	1080.63
379.85	1085.07
380.22	1083.20
380.59	1088.82
380.96	1091.39
381.33	1087.41
381.70	1081.56
382.07	1078.99
382.44	1071.73
382.81	1072.67
383.18	1077.82
383.55	1086.71
383.92	1072.67
384.29	1074.07
384.66	1069.16
385.03	1074.31
385.40	1068.45
385.77	1079.22
386.14	1072.43
386.51	1077.11
386.88	1072.43
387.25	1080.39
387.62	1087.88
387.99	1092.09
388.36	1089.52
388.73	1086.24
389.10	1076.88
389.46	1081.33
389.83	1080.63
390.20	1082.73
390.57	1078.75
390.94	1085.77
391.31	1072.43
391.68	1074.31
392.05	1073.84
392.42	1082.26
392.79	1071.73
393.16	1078.28
393.53	1077.11
393.89	1081.09
394.26	1076.18
394.63	1075.48
395.00	1076.65
395.37	1068.45
395.74	1067.75
396.11	1069.86
396.48	1090.69
396.84	1091.39
397.21	1096.54
397.58	1096.78
397.95	1106.61
398.32	1087.88
398.69	1084.37
399.06	1078.75
399.42	1080.86
399.79	1086.48
400.16	1100.99
400.53	1106.37
400.90	1123.46
401.27	1123.93
401.64	1112.46
402.00	1110.58
402.37	1116.44
402.74	1110.35
403.11	1115.03
403.48	1119.71
403.84	1125.33
404.21	1115.73
404.58	1121.58
404.95	1118.78
405.32	1125.80
405.68	1130.71
406.05	1140.07
406.42	1141.71
406.79	1146.39
407.16	1138.67
407.52	1138.67
407.89	1150.84
408.26	1157.63
408.63	1163.01
408.99	1174.25
409.36	1187.12
409.73	1186.18
410.10	1197.89
410.47	1204.44
410.83	1213.80
411.20	1208.89
411.57	1220.82
411.94	1237.68
412.30	1260.38
412.67	1278.40
413.04	1304.15
413.40	1335.74
413.77	1350.26
414.14	1370.85
414.51	1400.11
414.87	1420.24
415.24	1441.07
415.61	1474.07
415.97	1516.20
416.34	1539.14
416.71	1582.20
417.08	1612.63
417.44	1634.86
417.81	1661.31
418.18	1694.31
418.54	1734.34
418.91	1777.40
419.28	1830.30
419.64	1871.49
420.01	1935.86
420.38	1985.01
420.74	2037.90
421.11	2110.46
421.48	2187.46
421.84	2258.62
422.21	2335.15
422.58	2424.09
422.94	2491.27
423.31	2553.52
423.68	2628.66
424.04	2710.34
424.41	2789.92
424.77	2897.58
425.14	3008.29
425.51	3103.55
425.87	3222.92
426.24	3330.35
426.61	3431.93
426.97	3586.87
427.34	3739.24
427.70	3886.93
428.07	4052.40
428.44	4212.26
428.80	4352.93
429.17	4496.87
429.53	4639.41
429.90	4802.31
430.27	4968.72
430.63	5122.26
431.00	5290.78
431.36	5509.39
431.73	5700.61
432.09	5904.70
432.46	6103.41
432.83	6346.13
433.19	6525.18
433.56	6734.42
433.92	6952.56
434.29	7141.68
434.65	7308.79
435.02	7471.22
435.38	7645.36
435.75	7760.51
436.11	7956.18
436.48	8094.04
436.84	8264.67
437.21	8388.25
437.57	8514.40
437.94	8590.23
438.30	8678.71
438.67	8703.28
439.03	8720.37
439.40	8751.26
439.76	8683.15
440.13	8595.38
440.49	8574.32
440.86	8474.14
441.22	8362.03
441.59	8277.54
441.95	8200.30
442.32	8024.06
442.68	7929.03
443.05	7787.20
443.41	7647.23
443.78	7450.39
444.14	7298.49
444.51	7082.23
444.87	6927.99
445.24	6751.74
445.60	6628.63
445.96	6474.62
446.33	6336.30
446.69	6138.29
447.06	5996.92
447.42	5833.08
447.79	5672.52
448.15	5554.56
448.51	5440.11
448.88	5334.78
449.24	5231.80
449.61	5145.90
449.97	5038.71
450.33	4955.62
450.70	4823.61
451.06	4697.22
451.43	4573.87
451.79	4468.55
452.15	4358.31
452.52	4287.39
452.88	4228.65
453.24	4146.96
453.61	4067.62
453.97	3980.08
454.34	3889.74
454.70	3782.54
455.06	3722.15
455.43	3617.77
455.79	3516.89
456.15	3433.33
456.52	3352.12
456.88	3264.35
457.24	3199.04
457.61	3160.19
457.97	3091.61
458.33	3043.87
458.70	2969.67
459.06	2896.88
459.42	2822.92
459.79	2748.73
460.15	2680.38
460.51	2626.78
460.88	2568.74
461.24	2503.44
461.60	2452.41
461.96	2411.22
462.33	2350.60
462.69	2305.19
463.05	2268.21
463.42	2248.08
463.78	2194.95
464.14	2156.34
464.50	2116.31
464.87	2100.63
465.23	2051.71
465.59	2023.39
465.95	1997.88
466.32	1985.71
466.68	1954.11
467.04	1934.22
467.40	1915.26
467.77	1902.39
468.13	1862.36
468.49	1828.43
468.85	1802.45
469.22	1788.87
469.58	1763.59
469.94	1767.57
470.30	1747.91
470.66	1733.63
471.03	1712.57
471.39	1687.99
471.75	1660.84
472.11	1654.52
472.47	1641.18
472.84	1624.80
473.20	1619.18
473.56	1610.99
473.92	1595.78
474.28	1578.93
474.65	1554.35
475.01	1542.41
475.37	1529.31
475.73	1531.41
476.09	1525.33
476.45	1523.22
476.81	1518.31
477.18	1507.07
477.54	1482.26
477.90	1473.37
478.26	1466.58
478.62	1444.58
478.98	1425.15
479.34	1420.71
479.71	1403.62
480.07	1390.04
480.43	1386.53
480.79	1383.72
481.15	1371.09
481.51	1366.17
481.87	1368.75
482.23	1356.81
482.59	1344.87
482.96	1332.00
483.32	1328.25
483.68	1311.40
484.04	1308.36
484.40	1303.91
484.76	1303.21
485.12	1300.17
485.48	1300.40
485.84	1297.12
486.20	1296.19
486.56	1283.32
486.92	1275.12
487.28	1269.51
487.64	1271.38
488.00	1278.17
488.37	1283.55
488.73	1282.15
489.09	1273.72
489.45	1271.14
489.81	1251.48
490.17	1236.04
490.53	1220.12
490.89	1230.65
491.25	1214.74
491.61	1220.59
491.97	1229.72
492.33	1229.25
492.69	1210.53
493.05	1203.04
493.41	1194.84
493.77	1191.80
494.13	1192.50
494.49	1199.29
494.85	1199.76
495.21	1200.23
495.57	1197.89
495.93	1204.44
496.29	1198.59
496.64	1205.14
497.00	1196.01
497.36	1191.57
497.72	1179.63
498.08	1180.10
498.44	1172.37
498.80	1179.63
499.16	1183.14
499.52	1185.95
499.88	1172.14
500.24	1171.44
500.60	1157.63
500.96	1152.71
501.32	1148.03
501.68	1158.57
502.03	1154.35
502.39	1159.97
502.75	1138.67
503.11	1132.35
503.47	1126.50
503.83	1131.88
504.19	1126.73
504.55	1144.99
504.91	1145.46
505.26	1143.12
505.62	1139.14
505.98	1133.99
506.34	1131.88
506.70	1121.12
507.06	1116.90
507.42	1108.24
507.78	1112.69
508.13	1107.31
508.49	1111.75
508.85	1120.41
509.21	1120.18
509.57	1124.63
509.93	1125.33
510.28	1135.86
510.64	1124.39
511.00	1119.48
511.36	1105.90
511.72	1099.58
512.07	1090.22
512.43	1094.67
512.79	1097.48
513.15	1111.05
513.51	1110.58
513.86	1115.73
514.22	1111.52
514.58	1114.33
514.94	1104.26
515.30	1104.03
515.65	1102.63
516.01	1107.07
516.37	1106.37
516.73	1105.44
517.08	1110.35
517.44	1110.35
517.80	1112.69
518.16	1117.84
518.51	1119.48
518.87	1112.22
519.23	1103.33
519.59	1088.82
519.94	1089.75
520.30	1087.41
520.66	1094.20
521.01	1088.82
521.37	1097.24
521.73	1089.05
522.09	1093.97
522.44	1083.43
522.80	1093.26
523.16	1090.46
523.51	1089.29
523.87	1094.20
524.23	1100.99
524.58	1095.84
524.94	1103.80
525.30	1106.37
525.65	1096.54
526.01	1089.52
526.37	1087.88
526.72	1088.35
527.08	1085.77
527.44	1088.82
527.79	1094.43
528.15	1095.60
528.51	1085.31
528.86	1086.71
529.22	1086.94
529.58	1089.29
529.93	1090.69
530.29	1098.65
530.65	1094.67
531.00	1095.14
531.36	1088.58
531.71	1097.01
532.07	1091.63
532.43	1092.09
532.78	1089.05
533.14	1097.71
533.49	1097.01
533.85	1100.99
534.21	1114.09
534.56	1115.03
534.92	1105.90
535.27	1102.16
535.63	1091.16
535.98	1087.18
536.34	1081.80
536.69	1074.77
537.05	1071.50
537.41	1073.60
537.76	1073.37
538.12	1076.41
538.47	1089.75
538.83	1094.20
539.18	1096.54
539.54	1090.22
539.89	1093.97
540.25	1099.82
540.60	1104.03
540.96	1104.97
541.31	1109.18
541.67	1105.90
542.02	1101.69
542.38	1101.69
542.73	1102.86
543.09	1096.07
543.44	1099.35
543.80	1085.77
544.15	1080.16
544.51	1080.39
544.86	1101.46
545.22	1104.73
545.57	1112.92
545.93	1114.33
546.28	1109.88
546.64	1094.20
546.99	1091.86
547.35	1098.41
547.70	1098.18
548.05	1109.18
548.41	1103.09
548.76	1102.63
549.12	1095.37
549.47	1096.78
549.83	1086.01
550.18	1091.16
550.53	1077.82
550.89	1080.16
551.24	1068.92
551.60	1077.11
551.95	1077.35
552.30	1087.41
552.66	1086.71
553.01	1095.60
553.37	1087.41
553.72	1091.39
554.07	1097.01
554.43	1095.84
554.78	1093.50
555.13	1094.43
555.49	1091.86
555.84	1093.73
556.19	1093.26
556.55	1089.29
556.90	1101.92
557.26	1106.37
557.61	1100.99
557.96	1104.73
558.32	1107.78
558.67	1097.95
559.02	1092.56
559.37	1094.20
559.73	1089.99
560.08	1089.29
560.43	1087.18
560.79	1091.63
561.14	1083.20
561.49	1092.09
561.85	1094.43
562.20	1092.09
562.55	1090.22
562.90	1087.88
563.26	1086.48
563.61	1084.14
563.96	1090.46
564.32	1089.05
564.67	1094.43
565.02	1088.58
565.37	1085.77
565.73	1086.71
566.08	1080.16
566.43	1089.75
566.78	1096.07
567.14	1102.86
567.49	1105.44
567.84	1108.95
568.19	1093.97
568.54	1097.95
568.90	1097.71
569.25	1095.84
569.60	1096.31
569.95	1096.07
570.31	1088.12
570.66	1090.92
571.01	1085.77
571.36	1076.41
571.71	1086.94
572.06	1092.56
572.42	1075.24
572.77	1088.12
573.12	1098.18
573.47	1090.46
573.82	1084.60
574.18	1089.99
574.53	1083.43
574.88	1086.71
575.23	1092.56
575.58	1090.69
575.93	1108.01
576.28	1105.44
576.64	1100.75
576.99	1097.24
577.34	1092.33
577.69	1088.82
578.04	1085.07
578.39	1075.01
578.74	1072.67
579.09	1074.54
579.44	1073.60
579.80	1074.77
580.15	1083.43
580.50	1090.46
580.85	1086.24
581.20	1082.97
581.55	1079.92
581.90	1075.24
582.25	1067.75
582.60	1076.41
582.95	1069.39
583.30	1071.26
583.65	1071.50
584.00	1076.88
584.35	1074.77
584.71	1070.33
585.06	1069.39
585.41	1073.14
585.76	1063.54
586.11	1068.69
586.46	1069.39
586.81	1074.54
587.16	1070.80
587.51	1077.11
587.86	1076.18
588.21	1078.75
588.56	1071.03
588.91	1080.86
589.26	1076.18
589.61	1072.67
589.96	1071.97
590.31	1089.75
590.66	1086.94
591.01	1100.29
591.36	1099.82
591.71	1108.24
592.06	1095.14
592.41	1096.31
592.76	1088.82
593.10	1083.90
593.45	1087.88
593.80	1089.99
594.15	1084.84
594.50	1090.46
594.85	1099.35
595.20	1098.65
595.55	1103.33
595.90	1100.29
596.25	1097.71
596.60	1093.50
596.95	1087.18
597.30	1083.20
597.64	1144.52
597.99	1137.03
598.34	1132.12
598.69	1141.71
599.04	1142.65
599.39	1089.05
599.74	1087.18
600.09	1088.12
600.44	1075.48
600.78	1073.14
601.13	1067.99
601.48	1074.54
601.83	1082.50
602.18	1088.82
602.53	1087.41
602.88	1092.80
603.22	1097.71
603.57	1089.29
603.92	1086.71
604.27	1090.46
604.62	1085.54
604.97	1078.75
605.31	1079.22
605.66	1078.75
606.01	1074.07
606.36	1078.52
606.71	1078.28
607.05	1084.14
607.40	1085.54
607.75	1079.46
608.10	1075.71
608.44	1070.80
608.79	1066.11
609.14	1059.79
609.49	1069.39
609.84	1074.54
610.18	1085.77
610.53	1087.65
610.88	1093.97
611.23	1094.20
611.57	1091.63
611.92	1091.39
612.27	1086.94
612.62	1087.18
612.96	1078.52
613.31	1076.88
613.66	1078.75
614.00	1093.97
614.35	1088.82
614.70	1102.16
615.05	1100.52
615.39	1096.78
615.74	1092.09
616.09	1094.67
616.43	1094.67
616.78	1101.69
617.13	1100.52
617.47	1099.82
617.82	1103.56
618.17	1095.84
618.51	1076.41
618.86	1072.90
619.21	1073.60
619.55	1074.54
619.90	1075.01
620.25	1086.48
620.59	1081.09
620.94	1084.14
621.29	1087.88
621.63	1087.65
621.98	1091.39
622.32	1099.35
622.67	1092.09
623.02	1082.97
623.36	1081.33
623.71	1080.16
624.05	1081.09
624.40	1069.62
624.75	1067.99
625.09	1069.62
625.44	1080.39
625.78	1074.77
626.13	1086.71
626.48	1090.69
626.82	1086.71
627.17	1076.18
627.51	1076.65
627.86	1071.26
628.20	1063.31
628.55	1060.26
628.89	1054.18
629.24	1055.58
629.58	1066.82
629.93	1074.54
630.28	1098.65
630.62	1109.18
630.97	1119.48
631.31	1113.39
631.66	1116.44
632.00	1104.03
632.35	1100.05
632.69	1085.31
633.04	1085.31
633.38	1076.65
633.73	1073.60
634.07	1079.92
634.42	1090.22
634.76	1086.48
635.11	1098.41
635.45	1101.69
635.79	1095.37
636.14	1086.24
636.48	1095.84
636.83	1095.14
637.17	1079.69
637.52	1073.37
637.86	1080.39
638.21	1067.05
638.55	1070.80
638.89	1080.16
639.24	1078.75
639.58	1070.56
639.93	1082.03
640.27	1076.65
640.61	1081.80
640.96	1094.67
641.30	1098.41
641.65	1087.18
641.99	1085.07
642.33	1085.31
642.68	1082.97
643.02	1082.50
643.37	1089.99
643.71	1098.18
644.05	1100.99
644.40	1105.20
644.74	1114.33
645.08	1109.41
645.43	1106.61
645.77	1098.88
646.11	1091.86
646.46	1084.84
646.80	1091.39
647.14	1084.84
647.49	1080.39
647.83	1077.35
648.17	1081.09
648.52	1070.80
648.86	1062.37
649.20	1085.07
649.55	1093.73
649.89	1093.03
650.23	1099.12
650.57	1109.18
650.92	1090.69
651.26	1081.80
651.60	1084.84
651.95	1084.14
652.29	1079.22
652.63	1073.84
652.97	1071.03
653.32	1071.50
653.66	1078.99
654.00	1074.77
654.34	1077.35
654.69	1080.39
655.03	1078.05
655.37	1070.80
655.71	1074.31
656.05	1072.90
656.40	1073.60
656.74	1071.26
657.08	1075.01
657.42	1066.82
657.76	1068.69
658.11	1075.01
658.45	1072.67
658.79	1072.43
659.13	1081.33
659.47	1075.94
659.82	1062.37
660.16	1063.77
660.50	1063.77
660.84	1055.35
661.18	1050.43
661.52	1058.16
661.87	1057.92
662.21	1058.16
662.55	1069.16
662.89	1080.16
663.23	1089.75
663.57	1093.73
663.91	1100.05
664.25	1106.14
664.60	1102.63
664.94	1087.65
665.28	1081.80
665.62	1088.12
665.96	1083.20
666.30	1086.48
666.64	1088.12
666.98	1086.94
667.32	1078.52
667.66	1076.88
668.01	1075.48
668.35	1074.07
668.69	1074.54
669.03	1066.11
669.37	1057.22
669.71	1068.45
670.05	1081.56
670.39	1089.99
670.73	1095.14
671.07	1106.14
671.41	1095.84
671.75	1083.67
672.09	1083.67
672.43	1076.18
672.77	1071.97
673.11	1070.33
673.45	1075.01
673.79	1061.90
674.13	1071.26
674.47	1076.65
674.81	1081.09
675.15	1086.71
675.49	1100.52
675.83	1104.50
676.17	1099.35
676.51	1098.41
676.85	1095.37
677.19	1087.65
677.53	1081.33
677.87	1084.14
678.21	1080.63
678.55	1082.26
678.89	1082.03
679.23	1082.26
679.57	1079.92
679.90	1089.52
680.24	1093.26
680.58	1089.05
680.92	1084.37
681.26	1080.63
681.60	1078.05
681.94	1076.41
682.28	1083.90
682.62	1089.29
682.96	1089.99
683.29	1085.31
683.63	1081.09
683.97	1071.26
684.31	1058.62
684.65	1059.09
684.99	1063.54
685.33	1058.16
685.67	1064.71
686.00	1076.88
686.34	1078.75
686.68	1071.26
687.02	1080.39
687.36	1085.54
687.70	1091.16
688.03	1094.90
688.37	1093.03
688.71	1086.48
689.05	1077.11
689.39	1069.86
689.72	1069.62
690.06	1072.67
690.40	1074.54
690.74	1082.50
691.08	1081.33
691.41	1086.48
691.75	1088.12
692.09	1085.77
692.43	1082.97
692.76	1081.80
693.10	1070.56
693.44	1077.58
693.78	1068.69
694.11	1075.71
694.45	1079.92
694.79	1076.18
695.13	1068.45
695.46	1068.92
695.80	1062.84
696.14	1053.01
696.48	1071.73
696.81	1068.22
697.15	1080.86
697.49	1071.50
697.82	1089.29
698.16	1084.14
698.50	1094.43
698.83	1091.16
699.17	1093.97
699.51	1083.43
699.84	1076.18
700.18	1073.37
700.52	1079.92
700.85	1089.05
701.19	1088.58
701.53	1090.92
701.86	1088.82
702.20	1073.14
702.54	1061.90
702.87	1060.50
703.21	1055.58
703.55	1056.05
703.88	1064.01
704.22	1069.39
704.55	1077.58
704.89	1080.63
705.23	1083.90
705.56	1091.63
705.90	1097.24
706.23	1083.43
706.57	1083.90
706.91	1073.14
707.24	1064.01
707.58	1068.92
707.91	1077.58
708.25	1083.67
708.58	1098.65
708.92	1107.07
709.26	1102.86
709.59	1101.46
709.93	1089.29
710.26	1087.88
710.60	1082.73
710.93	1086.01
711.27	1088.82
711.60	1095.84
711.94	1088.58
712.27	1089.05
712.61	1083.20
712.94	1081.56
713.28	1079.22
713.61	1084.37
713.95	1078.52
714.28	1093.03
714.62	1084.37
714.95	1090.69
715.29	1092.33
715.62	1101.22
715.96	1086.24
716.29	1094.43
716.63	1091.86
716.96	1082.73
717.29	1076.41
717.63	1070.09
717.96	1064.71
718.30	1067.28
718.63	1069.62
718.97	1074.54
719.30	1080.16
719.63	1090.22
719.97	1088.35
720.30	1094.90
720.64	1091.16
720.97	1099.82
721.30	1088.12
721.64	1095.60
721.97	1088.58
722.31	1085.54
722.64	1080.86
722.97	1086.01
723.31	1083.43
723.64	1079.69
723.97	1087.88
724.31	1082.50
724.64	1077.58
724.98	1069.62
725.31	1069.86
725.64	1055.11
725.98	1061.90
726.31	1062.60
726.64	1065.88
726.97	1080.16
727.31	1092.56
727.64	1093.97
727.97	1103.09
728.31	1092.56
728.64	1082.73
728.97	1077.82
729.31	1074.31
729.64	1066.35
729.97	1064.01
730.30	1068.92
730.64	1066.35
730.97	1061.20
731.30	1063.31
731.63	1074.07
731.97	1060.26
732.30	1073.84
732.63	1085.31
732.96	1090.46
733.30	1090.46
733.63	1102.86
733.96	1089.29
734.29	1085.07
734.63	1078.52
734.96	1074.54
735.29	1067.52
735.62	1078.99
735.95	1076.88
736.29	1082.97
736.62	1094.43
736.95	1094.43
737.28	1087.41
737.61	1086.48
737.94	1082.50
738.28	1071.03
738.61	1075.94
738.94	1073.60
739.27	1077.58
739.60	1072.67
739.93	1077.35
740.27	1075.01
740.60	1087.41
740.93	1082.97
741.26	1078.28
741.59	1074.54
741.92	1077.35
742.25	1070.09
742.58	1062.37
742.91	1072.67
743.25	1076.18
743.58	1072.67
743.91	1075.01
744.24	1076.41
744.57	1085.77
744.90	1088.12
745.23	1101.22
745.56	1093.03
745.89	1096.31
746.22	1085.07
746.55	1075.48
746.88	1068.45
747.21	1069.16
747.54	1077.11
747.87	1078.75
748.20	1087.41
748.53	1088.58
748.87	1094.67
749.20	1097.24
749.53	1097.01
749.86	1092.09
750.19	1089.05
750.52	1084.84
750.85	1075.01
751.18	1073.84
751.51	1066.82
751.84	1060.96
752.16	1053.48
752.49	1048.33
752.82	1046.22
753.15	1053.24
753.48	1048.79
753.81	1046.69
754.14	1051.13
754.47	1056.52
754.80	1058.86
755.13	1066.58
755.46	1079.92
755.79	1080.86
756.12	1076.88
756.45	1075.01
756.78	1069.39
757.11	1058.86
757.43	1061.43
757.76	1063.31
758.09	1063.07
758.42	1070.80
758.75	1079.46
759.08	1078.05
759.41	1080.16
759.74	1086.01
760.07	1081.80
760.39	1076.65
760.72	1073.14
761.05	1076.88
761.38	1064.71
761.71	1060.03
762.04	1069.86
762.36	1068.92
762.69	1068.92
763.02	1078.28
763.35	1097.71
763.68	1093.03
764.01	1094.90
764.33	1083.90
764.66	1072.20
764.99	1065.88
765.32	1072.43
765.65	1060.96
765.97	1065.18
766.30	1069.62
