SpectraSuite Data File
++++++++++++++++++++++++++++++++++++
Date: Mon Aug 26 10:24:33 PDT 2019
User: corrico
Dark Spectrum Present: No
Reference Spectrum Present: No
Number of Sampled Component Spectra: 1
Spectrometers: USB2+H06089
Integration Time (usec): 10000 (USB2+H06089)
Spectra Averaged: 2 (USB2+H06089)
Boxcar Smoothing: 2 (USB2+H06089)
Correct for Electrical Dark: No (USB2+H06089)
Strobe/Lamp Enabled: No (USB2+H06089)
Correct for Detector Non-linearity: No (USB2+H06089)
Correct for Stray Light: No (USB2+H06089)
Number of Pixels in Processed Spectrum: 2048
>>>>>Begin Processed Spectral Data<<<<<
339.70	1036.86
340.07	1036.86
340.45	985.60
340.82	961.73
341.19	932.00
341.57	906.49
341.94	902.74
342.31	900.64
342.69	895.02
343.06	897.60
343.43	890.34
343.81	897.36
344.18	904.15
344.55	910.23
344.93	923.34
345.30	940.19
345.67	944.41
346.04	943.00
346.42	954.24
346.79	947.21
347.16	948.39
347.54	959.15
347.91	976.94
348.28	974.83
348.65	986.30
349.03	997.30
349.40	998.24
349.77	1006.90
350.14	1021.41
350.52	1029.84
350.89	1040.13
351.26	1044.82
351.63	1048.56
352.01	1043.18
352.38	1048.56
352.75	1042.71
353.12	1053.48
353.50	1051.13
353.87	1064.24
354.24	1068.45
354.61	1071.26
354.98	1071.26
355.36	1081.56
355.73	1073.14
356.10	1078.99
356.47	1084.37
356.84	1095.60
357.22	1089.29
357.59	1095.14
357.96	1090.46
358.33	1097.48
358.70	1094.20
359.08	1092.33
359.45	1093.73
359.82	1092.09
360.19	1082.97
360.56	1080.86
360.94	1075.94
361.31	1063.77
361.68	1067.05
362.05	1064.94
362.42	1051.84
362.79	1053.01
363.16	1072.20
363.54	1068.69
363.91	1072.90
364.28	1078.52
364.65	1078.75
365.02	1075.01
365.39	1074.77
365.76	1070.80
366.14	1060.96
366.51	1057.45
366.88	1046.69
367.25	1035.92
367.62	1037.09
367.99	1044.11
368.36	1054.65
368.73	1068.45
369.10	1079.69
369.48	1077.11
369.85	1084.60
370.22	1074.54
370.59	1073.37
370.96	1073.37
371.33	1076.65
371.70	1075.01
372.07	1084.37
372.44	1074.31
372.81	1070.33
373.18	1067.99
373.55	1069.39
373.93	1074.54
374.30	1084.37
374.67	1086.48
375.04	1085.54
375.41	1083.20
375.78	1071.03
376.15	1070.56
376.52	1076.65
376.89	1078.52
377.26	1071.73
377.63	1072.20
378.00	1072.67
378.37	1062.60
378.74	1062.60
379.11	1072.67
379.48	1075.71
379.85	1080.86
380.22	1087.88
380.59	1096.07
380.96	1094.90
381.33	1099.35
381.70	1089.99
382.07	1088.58
382.44	1081.80
382.81	1071.73
383.18	1067.05
383.55	1070.33
383.92	1060.73
384.29	1061.90
384.66	1066.82
385.03	1072.20
385.40	1070.33
385.77	1084.14
386.14	1089.52
386.51	1098.18
386.88	1090.92
387.25	1092.80
387.62	1092.33
387.99	1094.43
388.36	1087.65
388.73	1093.97
389.10	1087.18
389.46	1080.16
389.83	1068.92
390.20	1058.62
390.57	1052.54
390.94	1053.01
391.31	1056.52
391.68	1056.99
392.05	1071.73
392.42	1073.14
392.79	1078.28
393.16	1082.03
393.53	1089.99
393.89	1083.67
394.26	1085.77
394.63	1084.60
395.00	1091.86
395.37	1082.26
395.74	1088.35
396.11	1098.18
396.48	1101.69
396.84	1089.52
397.21	1094.43
397.58	1091.39
397.95	1073.84
398.32	1076.65
398.69	1080.16
399.06	1076.65
399.42	1080.39
399.79	1091.16
400.16	1077.58
400.53	1087.65
400.90	1093.97
401.27	1100.52
401.64	1096.31
402.00	1102.86
402.37	1098.65
402.74	1098.65
403.11	1090.69
403.48	1095.60
403.84	1105.20
404.21	1108.24
404.58	1108.71
404.95	1111.05
405.32	1113.39
405.68	1114.56
406.05	1112.69
406.42	1115.03
406.79	1113.63
407.16	1120.88
407.52	1128.84
407.89	1136.80
408.26	1152.01
408.63	1180.80
408.99	1188.99
409.36	1182.44
409.73	1189.46
410.10	1199.52
410.47	1189.69
410.83	1195.31
411.20	1214.04
411.57	1222.23
411.94	1224.57
412.30	1239.55
412.67	1254.53
413.04	1272.78
413.40	1296.66
413.77	1319.36
414.14	1349.08
414.51	1374.60
414.87	1394.96
415.24	1409.94
415.61	1429.13
415.97	1446.69
416.34	1461.43
416.71	1497.47
417.08	1536.33
417.44	1571.20
417.81	1603.74
418.18	1654.06
418.54	1697.12
418.91	1724.97
419.28	1770.85
419.64	1816.26
420.01	1853.70
420.38	1908.00
420.74	1971.90
421.11	2031.35
421.48	2087.99
421.84	2158.68
422.21	2207.13
422.58	2272.89
422.94	2348.96
423.31	2426.20
423.68	2488.22
424.04	2571.78
424.41	2654.17
424.77	2735.38
425.14	2833.45
425.51	2953.99
425.87	3056.04
426.24	3173.30
426.61	3283.07
426.97	3402.20
427.34	3516.42
427.70	3659.19
428.07	3794.48
428.44	3953.87
428.80	4112.56
429.17	4269.84
429.53	4391.78
429.90	4573.41
430.27	4726.48
430.63	4857.31
431.00	5021.62
431.36	5218.46
431.73	5354.44
432.09	5513.37
432.46	5692.18
432.83	5882.70
433.19	6062.92
433.56	6266.78
433.92	6480.71
434.29	6673.57
434.65	6843.26
435.02	7016.22
435.38	7165.78
435.75	7273.21
436.11	7449.46
436.48	7586.38
436.84	7720.26
437.21	7837.28
437.57	7947.05
437.94	8013.76
438.30	8078.12
438.67	8105.74
439.03	8129.85
439.40	8169.41
439.76	8115.11
440.13	8074.61
440.49	8010.25
440.86	7954.31
441.22	7857.65
441.59	7781.35
441.95	7678.13
442.32	7542.14
442.68	7417.16
443.05	7267.13
443.41	7138.63
443.78	6960.52
444.14	6825.94
444.51	6653.21
444.87	6516.29
445.24	6349.17
445.60	6212.95
445.96	6075.56
446.33	5946.83
446.69	5784.63
447.06	5651.93
447.42	5527.18
447.79	5383.00
448.15	5235.08
448.51	5151.75
448.88	5056.73
449.24	4947.89
449.61	4858.02
449.97	4766.03
450.33	4645.96
450.70	4512.79
451.06	4402.08
451.43	4287.63
451.79	4202.43
452.15	4116.07
452.52	4048.66
452.88	3983.12
453.24	3920.63
453.61	3854.86
453.97	3787.92
454.34	3696.41
454.70	3612.62
455.06	3535.38
455.43	3431.69
455.79	3334.33
456.15	3266.22
456.52	3184.30
456.88	3125.55
457.24	3068.68
457.61	2998.93
457.97	2932.69
458.33	2878.16
458.70	2809.81
459.06	2738.43
459.42	2690.45
459.79	2618.12
460.15	2567.10
460.51	2498.05
460.88	2442.82
461.24	2386.18
461.60	2353.64
461.96	2307.53
462.33	2279.21
462.69	2235.91
463.05	2192.38
463.42	2167.10
463.78	2129.19
464.14	2080.97
464.50	2051.01
464.87	2013.80
465.23	1981.03
465.59	1946.62
465.95	1937.03
466.32	1916.90
466.68	1913.62
467.04	1890.92
467.40	1865.41
467.77	1841.07
468.13	1822.11
468.49	1797.77
468.85	1771.55
469.22	1762.19
469.58	1738.32
469.94	1720.29
470.30	1698.99
470.66	1679.80
471.03	1657.57
471.39	1652.65
471.75	1638.61
472.11	1621.99
472.47	1616.61
472.84	1614.27
473.20	1591.80
473.56	1574.01
473.92	1548.73
474.28	1531.18
474.65	1511.99
475.01	1499.35
475.37	1474.77
475.73	1488.58
476.09	1480.15
476.45	1478.05
476.81	1470.56
477.18	1473.37
477.54	1448.56
477.90	1419.53
478.26	1408.77
478.62	1398.70
478.98	1381.15
479.34	1369.45
479.71	1376.47
480.07	1355.17
480.43	1349.08
480.79	1344.87
481.15	1342.53
481.51	1342.53
481.87	1336.68
482.23	1333.17
482.59	1332.00
482.96	1324.51
483.32	1317.25
483.68	1319.59
484.04	1310.70
484.40	1302.27
484.76	1307.42
485.12	1303.91
485.48	1296.89
485.84	1278.40
486.20	1277.23
486.56	1265.29
486.92	1263.42
487.28	1252.65
487.64	1255.46
488.00	1257.80
488.37	1255.00
488.73	1239.31
489.09	1247.51
489.45	1240.25
489.81	1225.74
490.17	1218.48
490.53	1216.84
490.89	1203.50
491.25	1214.27
491.61	1212.40
491.97	1212.87
492.33	1216.38
492.69	1207.48
493.05	1199.29
493.41	1195.55
493.77	1193.91
494.13	1186.89
494.49	1195.78
494.85	1184.78
495.21	1177.06
495.57	1168.16
495.93	1171.20
496.29	1172.37
496.64	1172.14
497.00	1171.20
497.36	1173.78
497.72	1156.93
498.08	1153.65
498.44	1159.27
498.80	1158.10
499.16	1147.56
499.52	1158.10
499.88	1142.65
500.24	1130.95
500.60	1137.73
500.96	1142.42
501.32	1148.50
501.68	1142.65
502.03	1142.88
502.39	1139.84
502.75	1141.25
503.11	1126.27
503.47	1140.54
503.83	1144.05
504.19	1140.31
504.55	1137.27
504.91	1136.56
505.26	1130.71
505.62	1137.27
505.98	1141.71
506.34	1142.88
506.70	1149.67
507.06	1161.84
507.42	1152.25
507.78	1131.65
508.13	1124.63
508.49	1126.73
508.85	1116.90
509.21	1111.52
509.57	1137.03
509.93	1131.88
510.28	1120.88
510.64	1118.07
511.00	1123.22
511.36	1114.56
511.72	1115.03
512.07	1107.78
512.43	1107.78
512.79	1104.26
513.15	1093.50
513.51	1092.33
513.86	1098.88
514.22	1095.14
514.58	1099.82
514.94	1099.35
515.30	1101.69
515.65	1101.92
516.01	1097.95
516.37	1095.14
516.73	1101.92
517.08	1107.07
517.44	1108.71
517.80	1114.33
518.16	1112.46
518.51	1117.37
518.87	1113.63
519.23	1120.88
519.59	1116.90
519.94	1119.95
520.30	1110.82
520.66	1107.78
521.01	1095.84
521.37	1097.01
521.73	1093.50
522.09	1098.65
522.44	1106.37
522.80	1101.92
523.16	1106.84
523.51	1100.29
523.87	1102.63
524.23	1091.39
524.58	1099.58
524.94	1091.86
525.30	1102.86
525.65	1092.56
526.01	1105.67
526.37	1100.29
526.72	1102.16
527.08	1088.35
527.44	1086.71
527.79	1072.20
528.15	1067.75
528.51	1076.18
528.86	1081.56
529.22	1086.71
529.58	1085.77
529.93	1092.09
530.29	1085.54
530.65	1090.22
531.00	1100.29
531.36	1102.39
531.71	1102.39
532.07	1102.63
532.43	1103.09
532.78	1092.80
533.14	1094.43
533.49	1094.67
533.85	1097.71
534.21	1095.84
534.56	1090.69
534.92	1094.20
535.27	1100.52
535.63	1094.43
535.98	1100.29
536.34	1112.22
536.69	1101.46
537.05	1080.39
537.41	1076.65
537.76	1066.58
538.12	1066.11
538.47	1072.67
538.83	1089.05
539.18	1098.88
539.54	1105.44
539.89	1097.71
540.25	1097.24
540.60	1094.20
540.96	1086.24
541.31	1085.07
541.67	1087.65
542.02	1095.84
542.38	1102.39
542.73	1102.16
543.09	1099.12
543.44	1103.80
543.80	1093.97
544.15	1084.60
544.51	1090.46
544.86	1095.84
545.22	1092.33
545.57	1101.46
545.93	1108.95
546.28	1118.78
546.64	1107.07
546.99	1111.29
547.35	1108.48
547.70	1104.97
548.05	1096.31
548.41	1099.82
548.76	1087.65
549.12	1089.29
549.47	1084.14
549.83	1087.65
550.18	1086.01
550.53	1092.33
550.89	1080.86
551.24	1082.26
551.60	1072.67
551.95	1083.67
552.30	1086.48
552.66	1094.67
553.01	1100.05
553.37	1097.24
553.72	1084.60
554.07	1086.48
554.43	1083.20
554.78	1080.39
555.13	1093.26
555.49	1097.95
555.84	1086.94
556.19	1084.37
556.55	1093.50
556.90	1083.67
557.26	1074.54
557.61	1086.24
557.96	1085.54
558.32	1080.16
558.67	1083.90
559.02	1099.58
559.37	1087.88
559.73	1089.05
560.08	1091.86
560.43	1087.65
560.79	1080.63
561.14	1080.39
561.49	1079.46
561.85	1070.09
562.20	1074.77
562.55	1075.01
562.90	1069.86
563.26	1073.60
563.61	1085.54
563.96	1083.67
564.32	1091.63
564.67	1108.01
565.02	1100.52
565.37	1086.71
565.73	1081.56
566.08	1063.07
566.43	1052.07
566.78	1069.16
567.14	1086.24
567.49	1088.58
567.84	1106.37
568.19	1110.58
568.54	1098.18
568.90	1084.37
569.25	1086.94
569.60	1087.18
569.95	1092.56
570.31	1097.24
570.66	1093.50
571.01	1093.73
571.36	1094.90
571.71	1084.14
572.06	1086.71
572.42	1095.37
572.77	1091.39
573.12	1087.65
573.47	1091.86
573.82	1091.16
574.18	1087.88
574.53	1077.11
574.88	1065.88
575.23	1067.75
575.58	1069.62
575.93	1072.20
576.28	1086.24
576.64	1095.14
576.99	1104.03
577.34	1102.63
577.69	1103.80
578.04	1109.65
578.39	1103.80
578.74	1094.90
579.09	1084.37
579.44	1080.16
579.80	1066.11
580.15	1066.11
580.50	1067.28
580.85	1069.39
581.20	1071.73
581.55	1077.58
581.90	1072.67
582.25	1067.52
582.60	1071.97
582.95	1085.77
583.30	1083.67
583.65	1096.54
584.00	1102.16
584.35	1106.14
584.71	1093.03
585.06	1095.14
585.41	1093.03
585.76	1094.90
586.11	1097.24
586.46	1095.14
586.81	1091.86
587.16	1093.03
587.51	1079.46
587.86	1073.60
588.21	1078.75
588.56	1079.22
588.91	1072.67
589.26	1087.41
589.61	1087.88
589.96	1088.82
590.31	1091.39
590.66	1088.58
591.01	1081.33
591.36	1078.99
591.71	1064.01
592.06	1069.16
592.41	1072.90
592.76	1072.90
593.10	1071.26
593.45	1081.33
593.80	1076.41
594.15	1073.14
594.50	1072.20
594.85	1074.31
595.20	1067.52
595.55	1061.43
595.90	1071.26
596.25	1070.09
596.60	1077.58
596.95	1089.05
597.30	1094.43
597.64	1139.61
597.99	1149.20
598.34	1145.46
598.69	1144.29
599.04	1140.31
599.39	1088.12
599.74	1082.97
600.09	1079.69
600.44	1075.94
600.78	1081.09
601.13	1089.52
601.48	1088.12
601.83	1096.07
602.18	1093.26
602.53	1094.43
602.88	1090.69
603.22	1091.39
603.57	1097.24
603.92	1091.86
604.27	1092.80
604.62	1089.75
604.97	1085.07
605.31	1071.73
605.66	1073.60
606.01	1071.03
606.36	1064.24
606.71	1059.56
607.05	1064.48
607.40	1071.50
607.75	1056.52
608.10	1067.28
608.44	1074.31
608.79	1063.07
609.14	1057.45
609.49	1069.62
609.84	1065.65
610.18	1079.46
610.53	1094.67
610.88	1101.22
611.23	1109.41
611.57	1118.31
611.92	1113.63
612.27	1105.90
612.62	1105.90
612.96	1101.22
613.31	1101.69
613.66	1093.26
614.00	1099.35
614.35	1100.05
614.70	1105.44
615.05	1092.80
615.39	1096.31
615.74	1089.52
616.09	1085.31
616.43	1074.54
616.78	1078.99
617.13	1083.90
617.47	1074.77
617.82	1072.20
618.17	1081.80
618.51	1085.31
618.86	1078.52
619.21	1091.86
619.55	1093.26
619.90	1091.86
620.25	1091.16
620.59	1090.92
620.94	1078.75
621.29	1075.24
621.63	1073.14
621.98	1075.24
622.32	1064.01
622.67	1069.62
623.02	1075.48
623.36	1071.50
623.71	1075.94
624.05	1090.46
624.40	1107.31
624.75	1117.84
625.09	1124.16
625.44	1121.12
625.78	1122.52
626.13	1100.29
626.48	1084.84
626.82	1082.26
627.17	1075.71
627.51	1071.73
627.86	1076.18
628.20	1076.88
628.55	1075.48
628.89	1075.24
629.24	1074.07
629.58	1071.73
629.93	1080.86
630.28	1077.11
630.62	1072.90
630.97	1071.03
631.31	1077.11
631.66	1069.16
632.00	1069.39
632.35	1066.35
632.69	1062.84
633.04	1064.94
633.38	1075.01
633.73	1070.80
634.07	1084.14
634.42	1102.86
634.76	1098.65
635.11	1088.82
635.45	1100.75
635.79	1092.09
636.14	1082.73
636.48	1083.90
636.83	1083.67
637.17	1082.03
637.52	1089.99
637.86	1090.22
638.21	1093.03
638.55	1098.88
638.89	1096.07
639.24	1088.58
639.58	1090.69
639.93	1083.67
640.27	1076.41
640.61	1074.77
640.96	1079.46
641.30	1067.75
641.65	1080.63
641.99	1088.58
642.33	1088.58
642.68	1086.24
643.02	1089.29
643.37	1081.09
643.71	1073.60
644.05	1074.07
644.40	1071.73
644.74	1069.16
645.08	1074.07
645.43	1087.65
645.77	1103.80
646.11	1102.86
646.46	1102.86
646.80	1102.86
647.14	1093.97
647.49	1088.35
647.83	1100.29
648.17	1108.48
648.52	1104.73
648.86	1097.01
649.20	1093.97
649.55	1083.90
649.89	1078.99
650.23	1074.31
650.57	1081.56
650.92	1072.43
651.26	1071.73
651.60	1070.09
651.95	1066.58
652.29	1067.05
652.63	1064.24
652.97	1068.45
653.32	1079.46
653.66	1084.84
654.00	1085.07
654.34	1090.22
654.69	1094.90
655.03	1079.46
655.37	1072.20
655.71	1071.26
656.05	1072.43
656.40	1074.77
656.74	1085.07
657.08	1100.05
657.42	1099.82
657.76	1106.84
658.11	1106.14
658.45	1104.03
658.79	1103.80
659.13	1105.90
659.47	1091.16
659.82	1084.84
660.16	1092.56
660.50	1082.73
660.84	1079.92
661.18	1089.05
661.52	1092.80
661.87	1094.90
662.21	1106.61
662.55	1113.86
662.89	1123.46
663.23	1127.90
663.57	1117.84
663.91	1115.73
664.25	1109.88
664.60	1092.80
664.94	1090.69
665.28	1096.31
665.62	1090.46
665.96	1087.41
666.30	1095.37
666.64	1087.18
666.98	1079.92
667.32	1082.97
667.66	1076.18
668.01	1079.22
668.35	1082.26
668.69	1086.94
669.03	1083.43
669.37	1084.60
669.71	1087.88
670.05	1083.43
670.39	1079.46
670.73	1079.69
671.07	1080.63
671.41	1073.60
671.75	1079.69
672.09	1079.69
672.43	1078.28
672.77	1076.41
673.11	1075.71
673.45	1067.05
673.79	1076.41
674.13	1074.54
674.47	1077.11
674.81	1087.18
675.15	1096.07
675.49	1088.82
675.83	1084.37
676.17	1081.09
676.51	1074.77
676.85	1074.77
677.19	1080.86
677.53	1086.24
677.87	1101.92
678.21	1089.99
678.55	1079.22
678.89	1070.33
679.23	1079.22
679.57	1071.73
679.90	1077.11
680.24	1077.35
680.58	1076.18
680.92	1078.05
681.26	1079.22
681.60	1089.75
681.94	1097.24
682.28	1098.65
682.62	1095.60
682.96	1097.71
683.29	1090.92
683.63	1091.16
683.97	1089.05
684.31	1095.60
684.65	1097.24
684.99	1092.56
685.33	1089.29
685.67	1096.07
686.00	1093.26
686.34	1099.35
686.68	1108.01
687.02	1111.05
687.36	1109.88
687.70	1094.90
688.03	1078.99
688.37	1070.09
688.71	1067.99
689.05	1063.31
689.39	1062.84
689.72	1074.31
690.06	1074.77
690.40	1075.24
690.74	1079.46
691.08	1086.94
691.41	1087.65
691.75	1097.71
692.09	1099.35
692.43	1098.18
692.76	1089.75
693.10	1077.35
693.44	1071.97
693.78	1060.73
694.11	1066.35
694.45	1068.22
694.79	1070.56
695.13	1068.92
695.46	1078.52
695.80	1066.11
696.14	1057.45
696.48	1055.82
696.81	1061.90
697.15	1065.65
697.49	1068.69
697.82	1094.67
698.16	1106.61
698.50	1103.33
698.83	1099.35
699.17	1093.73
699.51	1077.58
699.84	1063.07
700.18	1061.20
700.52	1057.22
700.85	1062.14
701.19	1062.84
701.53	1072.67
701.86	1067.99
702.20	1068.22
702.54	1068.92
702.87	1074.31
703.21	1075.24
703.55	1075.01
703.88	1080.86
704.22	1081.80
704.55	1083.67
704.89	1079.92
705.23	1092.80
705.56	1090.46
705.90	1088.35
706.23	1088.58
706.57	1087.65
706.91	1073.14
707.24	1077.82
707.58	1089.52
707.91	1097.95
708.25	1105.44
708.58	1110.58
708.92	1103.56
709.26	1088.35
709.59	1081.33
709.93	1079.22
710.26	1084.37
710.60	1082.03
710.93	1090.92
711.27	1089.29
711.60	1082.73
711.94	1071.97
712.27	1089.29
712.61	1083.90
712.94	1078.05
713.28	1069.62
713.61	1074.31
713.95	1063.31
714.28	1058.62
714.62	1061.90
714.95	1071.50
715.29	1071.03
715.62	1064.94
715.96	1072.43
716.29	1073.60
716.63	1075.71
716.96	1078.28
717.29	1076.18
717.63	1078.28
717.96	1077.35
718.30	1078.75
718.63	1083.20
718.97	1089.29
719.30	1088.35
719.63	1089.05
719.97	1086.24
720.30	1083.20
720.64	1081.56
720.97	1084.14
721.30	1087.41
721.64	1090.22
721.97	1091.86
722.31	1087.88
722.64	1089.99
722.97	1082.03
723.31	1085.77
723.64	1079.92
723.97	1081.09
724.31	1072.90
724.64	1065.18
724.98	1061.67
725.31	1058.16
725.64	1072.43
725.98	1076.88
726.31	1071.26
726.64	1066.82
726.97	1070.56
727.31	1052.07
727.64	1050.90
727.97	1072.67
728.31	1071.97
728.64	1073.84
728.97	1085.07
729.31	1083.20
729.64	1073.14
729.97	1075.71
730.30	1075.94
730.64	1074.07
730.97	1078.05
731.30	1083.67
731.63	1079.22
731.97	1083.90
732.30	1082.26
732.63	1074.54
732.96	1071.50
733.30	1070.80
733.63	1058.16
733.96	1060.50
734.29	1065.88
734.63	1067.75
734.96	1077.11
735.29	1084.60
735.62	1083.90
735.95	1086.71
736.29	1089.05
736.62	1093.73
736.95	1093.97
737.28	1089.52
737.61	1094.20
737.94	1084.84
738.28	1067.28
738.61	1072.20
738.94	1079.69
739.27	1067.75
739.60	1073.84
739.93	1088.35
740.27	1072.90
740.60	1067.99
740.93	1067.05
741.26	1066.35
741.59	1060.50
741.92	1064.24
742.25	1074.31
742.58	1077.35
742.91	1077.35
743.25	1074.77
743.58	1088.35
743.91	1073.14
744.24	1069.16
744.57	1071.50
744.90	1074.54
745.23	1063.31
745.56	1069.62
745.89	1080.63
746.22	1082.97
746.55	1085.07
746.88	1092.80
747.21	1098.88
747.54	1100.05
747.87	1088.58
748.20	1087.65
748.53	1076.41
748.87	1064.71
749.20	1051.60
749.53	1064.94
749.86	1062.14
750.19	1076.41
750.52	1088.58
750.85	1102.63
751.18	1095.84
751.51	1092.09
751.84	1082.50
752.16	1080.63
752.49	1077.82
752.82	1084.37
753.15	1090.46
753.48	1088.12
753.81	1086.01
754.14	1076.18
754.47	1071.73
754.80	1070.56
755.13	1071.26
755.46	1074.07
755.79	1075.01
756.12	1083.43
756.45	1073.84
756.78	1082.97
757.11	1076.65
757.43	1083.67
757.76	1070.56
758.09	1079.69
758.42	1078.52
758.75	1075.24
759.08	1073.14
759.41	1081.56
759.74	1082.50
760.07	1064.94
760.39	1065.65
760.72	1064.71
761.05	1060.50
761.38	1066.82
761.71	1081.80
762.04	1081.09
762.36	1091.16
762.69	1085.77
763.02	1075.24
763.35	1082.50
763.68	1092.09
764.01	1082.03
764.33	1088.82
764.66	1086.48
764.99	1076.88
765.32	1075.24
765.65	1071.26
765.97	1065.65
766.30	1067.05
