SpectraSuite Data File
++++++++++++++++++++++++++++++++++++
Date: Mon Aug 26 10:24:30 PDT 2019
User: corrico
Dark Spectrum Present: No
Reference Spectrum Present: No
Number of Sampled Component Spectra: 1
Spectrometers: USB2+H06089
Integration Time (usec): 10000 (USB2+H06089)
Spectra Averaged: 2 (USB2+H06089)
Boxcar Smoothing: 2 (USB2+H06089)
Correct for Electrical Dark: No (USB2+H06089)
Strobe/Lamp Enabled: No (USB2+H06089)
Correct for Detector Non-linearity: No (USB2+H06089)
Correct for Stray Light: No (USB2+H06089)
Number of Pixels in Processed Spectrum: 2048
>>>>>Begin Processed Spectral Data<<<<<
339.70	1033.35
340.07	1033.35
340.45	996.37
340.82	974.60
341.19	951.19
341.57	924.04
341.94	911.87
342.31	900.17
342.69	886.83
343.06	879.81
343.43	881.45
343.81	886.13
344.18	893.38
344.55	911.17
344.93	917.26
345.30	921.23
345.67	929.66
346.04	945.58
346.42	946.51
346.79	965.24
347.16	981.62
347.54	981.15
347.91	991.22
348.28	999.17
348.65	995.20
349.03	993.79
349.40	1008.77
349.77	1013.92
350.14	1022.11
350.52	1035.22
350.89	1041.30
351.26	1045.75
351.63	1042.94
352.01	1041.77
352.38	1043.88
352.75	1046.22
353.12	1056.05
353.50	1061.43
353.87	1070.80
354.24	1079.22
354.61	1092.09
354.98	1089.75
355.36	1076.41
355.73	1078.99
356.10	1070.56
356.47	1064.48
356.84	1067.75
357.22	1082.26
357.59	1081.80
357.96	1081.09
358.33	1083.67
358.70	1079.92
359.08	1079.92
359.45	1069.86
359.82	1075.71
360.19	1078.52
360.56	1074.54
360.94	1060.26
361.31	1075.71
361.68	1064.71
362.05	1051.84
362.42	1057.22
362.79	1069.86
363.16	1063.77
363.54	1064.71
363.91	1073.14
364.28	1060.73
364.65	1060.96
365.02	1062.84
365.39	1071.97
365.76	1071.50
366.14	1082.97
366.51	1080.86
366.88	1073.84
367.25	1075.24
367.62	1073.37
367.99	1072.20
368.36	1077.82
368.73	1080.86
369.10	1084.60
369.48	1086.24
369.85	1075.48
370.22	1071.26
370.59	1078.05
370.96	1072.90
371.33	1065.65
371.70	1077.58
372.07	1089.05
372.44	1077.35
372.81	1066.82
373.18	1071.97
373.55	1062.84
373.93	1041.54
374.30	1040.37
374.67	1045.99
375.04	1041.07
375.41	1045.75
375.78	1049.50
376.15	1050.20
376.52	1052.54
376.89	1055.11
377.26	1061.43
377.63	1064.94
378.00	1065.18
378.37	1067.99
378.74	1078.52
379.11	1076.41
379.48	1071.50
379.85	1081.09
380.22	1079.22
380.59	1072.20
380.96	1074.77
381.33	1083.67
381.70	1075.94
382.07	1076.88
382.44	1069.86
382.81	1070.09
383.18	1058.62
383.55	1067.05
383.92	1065.18
384.29	1074.07
384.66	1073.60
385.03	1085.31
385.40	1074.54
385.77	1074.77
386.14	1073.60
386.51	1060.73
386.88	1059.79
387.25	1066.11
387.62	1060.96
387.99	1054.88
388.36	1062.84
388.73	1063.77
389.10	1068.92
389.46	1075.24
389.83	1086.71
390.20	1087.41
390.57	1087.88
390.94	1086.24
391.31	1084.84
391.68	1078.28
392.05	1073.84
392.42	1066.11
392.79	1061.90
393.16	1062.14
393.53	1063.54
393.89	1060.73
394.26	1067.52
394.63	1073.84
395.00	1083.20
395.37	1083.20
395.74	1088.58
396.11	1080.86
396.48	1073.14
396.84	1061.43
397.21	1061.90
397.58	1061.20
397.95	1075.71
398.32	1082.26
398.69	1078.28
399.06	1077.58
399.42	1086.48
399.79	1078.75
400.16	1076.88
400.53	1095.37
400.90	1095.14
401.27	1088.82
401.64	1091.86
402.00	1092.09
402.37	1086.01
402.74	1090.22
403.11	1092.56
403.48	1083.90
403.84	1083.67
404.21	1090.69
404.58	1089.99
404.95	1094.43
405.32	1107.07
405.68	1107.78
406.05	1098.18
406.42	1097.95
406.79	1095.14
407.16	1091.63
407.52	1088.12
407.89	1087.65
408.26	1091.63
408.63	1089.05
408.99	1097.71
409.36	1103.09
409.73	1103.56
410.10	1098.65
410.47	1103.56
410.83	1089.05
411.20	1084.84
411.57	1087.65
411.94	1090.92
412.30	1086.94
412.67	1087.18
413.04	1084.84
413.40	1087.88
413.77	1089.29
414.14	1081.80
414.51	1088.12
414.87	1092.33
415.24	1083.43
415.61	1080.86
415.97	1102.16
416.34	1104.73
416.71	1107.07
417.08	1120.18
417.44	1136.10
417.81	1133.52
418.18	1145.93
418.54	1156.22
418.91	1165.59
419.28	1163.25
419.64	1171.20
420.01	1176.59
420.38	1177.99
420.74	1174.01
421.11	1182.91
421.48	1183.37
421.84	1184.31
422.21	1199.29
422.58	1202.33
422.94	1206.55
423.31	1218.01
423.68	1230.65
424.04	1249.38
424.41	1270.68
424.77	1291.51
425.14	1308.36
425.51	1309.30
425.87	1307.19
426.24	1322.64
426.61	1326.15
426.97	1330.59
427.34	1346.28
427.70	1363.60
428.07	1382.55
428.44	1404.56
428.80	1437.79
429.17	1456.05
429.53	1483.67
429.90	1505.67
430.27	1530.48
430.63	1549.20
431.00	1582.67
431.36	1597.88
431.73	1607.48
432.09	1626.20
432.46	1640.95
432.83	1652.18
433.19	1671.61
433.56	1692.68
433.92	1714.21
434.29	1728.25
434.65	1755.87
435.02	1766.64
435.38	1797.30
435.75	1805.96
436.11	1837.09
436.48	1857.45
436.84	1876.17
437.21	1883.66
437.57	1913.86
437.94	1921.58
438.30	1937.03
438.67	1963.48
439.03	1967.45
439.40	1971.43
439.76	1968.86
440.13	1954.11
440.49	1947.09
440.86	1944.05
441.22	1927.20
441.59	1926.49
441.95	1935.62
442.32	1915.26
442.68	1904.26
443.05	1896.77
443.41	1875.47
443.78	1851.36
444.14	1839.19
444.51	1815.55
444.87	1797.77
445.24	1779.51
445.60	1767.34
445.96	1756.10
446.33	1746.74
446.69	1716.31
447.06	1700.40
447.42	1675.12
447.79	1647.03
448.15	1620.12
448.51	1604.44
448.88	1580.33
449.24	1562.07
449.61	1553.65
449.97	1555.99
450.33	1560.20
450.70	1549.90
451.06	1551.07
451.43	1537.73
451.79	1515.96
452.15	1495.60
452.52	1497.71
452.88	1475.47
453.24	1460.49
453.61	1444.34
453.97	1435.68
454.34	1415.56
454.70	1400.58
455.06	1392.62
455.43	1382.55
455.79	1361.26
456.15	1345.34
456.52	1338.32
456.88	1332.70
457.24	1326.38
457.61	1317.25
457.97	1314.21
458.33	1303.21
458.70	1301.57
459.06	1288.70
459.42	1287.06
459.79	1280.98
460.15	1273.02
460.51	1258.27
460.88	1256.17
461.24	1250.31
461.60	1235.80
461.96	1232.06
462.33	1227.85
462.69	1227.85
463.05	1216.61
463.42	1216.14
463.78	1214.97
464.14	1199.99
464.50	1190.16
464.87	1184.08
465.23	1188.52
465.59	1180.80
465.95	1185.01
466.32	1182.67
466.68	1192.03
467.04	1190.16
467.40	1190.63
467.77	1187.82
468.13	1196.72
468.49	1181.97
468.85	1167.23
469.22	1154.82
469.58	1154.59
469.94	1141.25
470.30	1145.22
470.66	1150.14
471.03	1153.65
471.39	1152.25
471.75	1156.69
472.11	1154.59
472.47	1147.80
472.84	1142.88
473.20	1137.97
473.56	1131.18
473.92	1128.14
474.28	1134.46
474.65	1134.46
475.01	1128.84
475.37	1130.24
475.73	1127.67
476.09	1122.75
476.45	1120.41
476.81	1113.86
477.18	1121.35
477.54	1121.58
477.90	1124.86
478.26	1120.65
478.62	1119.48
478.98	1109.65
479.34	1109.88
479.71	1106.14
480.07	1117.14
480.43	1124.16
480.79	1115.03
481.15	1118.07
481.51	1115.27
481.87	1109.88
482.23	1111.52
482.59	1116.44
482.96	1109.65
483.32	1104.97
483.68	1103.09
484.04	1103.09
484.40	1093.97
484.76	1089.05
485.12	1095.37
485.48	1095.84
485.84	1093.97
486.20	1098.65
486.56	1100.99
486.92	1094.90
487.28	1087.65
487.64	1093.73
488.00	1100.75
488.37	1095.37
488.73	1098.88
489.09	1107.31
489.45	1100.05
489.81	1092.80
490.17	1101.92
490.53	1106.61
490.89	1106.14
491.25	1101.22
491.61	1099.35
491.97	1087.41
492.33	1067.52
492.69	1057.45
493.05	1066.35
493.41	1066.58
493.77	1075.71
494.13	1091.86
494.49	1101.22
494.85	1094.43
495.21	1088.82
495.57	1095.84
495.93	1094.20
496.29	1086.71
496.64	1082.50
497.00	1092.80
497.36	1089.99
497.72	1089.99
498.08	1101.69
498.44	1108.24
498.80	1102.63
499.16	1092.09
499.52	1085.07
499.88	1077.11
500.24	1078.75
500.60	1087.18
500.96	1085.77
501.32	1088.12
501.68	1091.39
502.03	1081.09
502.39	1085.31
502.75	1082.50
503.11	1088.12
503.47	1077.11
503.83	1080.16
504.19	1070.80
504.55	1083.90
504.91	1078.99
505.26	1082.26
505.62	1087.65
505.98	1083.43
506.34	1077.35
506.70	1090.69
507.06	1096.31
507.42	1088.82
507.78	1089.05
508.13	1093.73
508.49	1075.48
508.85	1066.11
509.21	1073.84
509.57	1079.92
509.93	1083.90
510.28	1098.18
510.64	1109.41
511.00	1104.03
511.36	1103.80
511.72	1079.69
512.07	1071.97
512.43	1063.54
512.79	1066.11
513.15	1054.88
513.51	1078.05
513.86	1089.05
514.22	1102.86
514.58	1099.35
514.94	1108.71
515.30	1101.69
515.65	1089.52
516.01	1080.16
516.37	1085.77
516.73	1089.52
517.08	1094.67
517.44	1094.43
517.80	1093.73
518.16	1075.24
518.51	1064.01
518.87	1060.03
519.23	1057.22
519.59	1055.82
519.94	1071.73
520.30	1085.77
520.66	1089.52
521.01	1095.60
521.37	1093.97
521.73	1087.88
522.09	1078.99
522.44	1078.75
522.80	1075.94
523.16	1076.88
523.51	1079.92
523.87	1087.18
524.23	1087.41
524.58	1084.60
524.94	1095.14
525.30	1098.88
525.65	1089.52
526.01	1083.90
526.37	1079.22
526.72	1070.33
527.08	1069.39
527.44	1069.16
527.79	1063.54
528.15	1076.65
528.51	1080.63
528.86	1085.54
529.22	1088.58
529.58	1095.37
529.93	1083.43
530.29	1077.11
530.65	1077.58
531.00	1084.60
531.36	1075.24
531.71	1074.77
532.07	1083.67
532.43	1069.39
532.78	1061.20
533.14	1074.07
533.49	1079.46
533.85	1078.28
534.21	1088.58
534.56	1091.39
534.92	1089.99
535.27	1085.77
535.63	1082.73
535.98	1077.82
536.34	1080.86
536.69	1079.92
537.05	1080.39
537.41	1086.01
537.76	1093.73
538.12	1082.26
538.47	1082.03
538.83	1086.48
539.18	1081.56
539.54	1087.65
539.89	1086.01
540.25	1080.39
540.60	1077.58
540.96	1078.52
541.31	1063.31
541.67	1076.65
542.02	1085.07
542.38	1087.88
542.73	1093.03
543.09	1101.46
543.44	1103.56
543.80	1100.99
544.15	1103.33
544.51	1097.95
544.86	1097.48
545.22	1096.54
545.57	1100.29
545.93	1099.58
546.28	1096.31
546.64	1087.41
546.99	1076.18
547.35	1073.14
547.70	1061.90
548.05	1067.28
548.41	1070.09
548.76	1069.62
549.12	1067.52
549.47	1076.18
549.83	1075.48
550.18	1076.65
550.53	1079.92
550.89	1081.80
551.24	1087.65
551.60	1073.14
551.95	1068.92
552.30	1072.43
552.66	1070.09
553.01	1059.79
553.37	1072.43
553.72	1084.60
554.07	1089.52
554.43	1085.77
554.78	1090.69
555.13	1092.80
555.49	1090.22
555.84	1078.99
556.19	1072.90
556.55	1072.43
556.90	1067.75
557.26	1063.07
557.61	1060.50
557.96	1065.41
558.32	1061.90
558.67	1057.92
559.02	1060.26
559.37	1061.67
559.73	1072.20
560.08	1071.50
560.43	1068.22
560.79	1068.22
561.14	1076.18
561.49	1062.84
561.85	1066.11
562.20	1081.09
562.55	1078.05
562.90	1073.60
563.26	1083.90
563.61	1082.97
563.96	1073.37
564.32	1075.24
564.67	1075.71
565.02	1069.62
565.37	1075.01
565.73	1074.54
566.08	1066.58
566.43	1065.88
566.78	1066.58
567.14	1062.37
567.49	1065.18
567.84	1070.80
568.19	1080.86
568.54	1087.18
568.90	1089.52
569.25	1091.16
569.60	1082.26
569.95	1072.90
570.31	1067.05
570.66	1068.92
571.01	1070.80
571.36	1080.16
571.71	1075.71
572.06	1078.52
572.42	1073.84
572.77	1068.45
573.12	1067.99
573.47	1071.26
573.82	1068.69
574.18	1078.28
574.53	1084.60
574.88	1085.31
575.23	1091.16
575.58	1096.78
575.93	1083.20
576.28	1078.75
576.64	1081.56
576.99	1080.63
577.34	1080.39
577.69	1085.31
578.04	1078.28
578.39	1079.22
578.74	1071.26
579.09	1068.92
579.44	1067.28
579.80	1072.67
580.15	1072.43
580.50	1083.90
580.85	1086.48
581.20	1084.37
581.55	1091.63
581.90	1087.65
582.25	1083.20
582.60	1086.01
582.95	1089.05
583.30	1089.99
583.65	1091.63
584.00	1093.73
584.35	1090.46
584.71	1093.26
585.06	1080.86
585.41	1080.39
585.76	1072.43
586.11	1076.88
586.46	1078.28
586.81	1089.52
587.16	1088.58
587.51	1094.67
587.86	1090.92
588.21	1100.52
588.56	1092.80
588.91	1090.22
589.26	1090.22
589.61	1086.48
589.96	1072.67
590.31	1073.37
590.66	1074.77
591.01	1073.14
591.36	1069.86
591.71	1060.26
592.06	1059.33
592.41	1058.39
592.76	1055.58
593.10	1067.99
593.45	1082.26
593.80	1083.43
594.15	1090.92
594.50	1088.35
594.85	1083.43
595.20	1087.41
595.55	1083.90
595.90	1072.67
596.25	1096.31
596.60	1089.52
596.95	1086.71
597.30	1094.90
597.64	1146.86
597.99	1127.67
598.34	1132.35
598.69	1136.56
599.04	1136.80
599.39	1098.41
599.74	1098.18
600.09	1092.33
600.44	1076.88
600.78	1069.62
601.13	1063.07
601.48	1069.16
601.83	1074.07
602.18	1073.84
602.53	1079.92
602.88	1079.69
603.22	1075.48
603.57	1073.84
603.92	1079.69
604.27	1078.52
604.62	1080.16
604.97	1075.94
605.31	1075.71
605.66	1082.26
606.01	1078.52
606.36	1075.48
606.71	1080.63
607.05	1088.35
607.40	1083.43
607.75	1087.65
608.10	1093.73
608.44	1095.14
608.79	1099.82
609.14	1096.07
609.49	1085.54
609.84	1077.58
610.18	1083.90
610.53	1083.43
610.88	1091.39
611.23	1105.90
611.57	1115.27
611.92	1115.27
612.27	1105.44
612.62	1100.52
612.96	1092.33
613.31	1083.67
613.66	1082.03
614.00	1080.63
614.35	1082.73
614.70	1076.88
615.05	1081.09
615.39	1070.33
615.74	1074.31
616.09	1073.37
616.43	1080.86
616.78	1075.71
617.13	1079.22
617.47	1077.35
617.82	1076.65
618.17	1071.97
618.51	1085.07
618.86	1078.52
619.21	1081.80
619.55	1071.73
619.90	1075.71
620.25	1077.82
620.59	1082.26
620.94	1077.58
621.29	1083.43
621.63	1084.37
621.98	1069.39
622.32	1068.45
622.67	1071.03
623.02	1075.71
623.36	1070.33
623.71	1078.75
624.05	1083.20
624.40	1082.73
624.75	1087.88
625.09	1096.54
625.44	1095.84
625.78	1089.52
626.13	1090.69
626.48	1090.69
626.82	1084.84
627.17	1077.35
627.51	1082.97
627.86	1074.54
628.20	1069.62
628.55	1068.92
628.89	1071.26
629.24	1072.90
629.58	1078.05
629.93	1073.84
630.28	1078.99
630.62	1077.82
630.97	1070.80
631.31	1068.45
631.66	1069.62
632.00	1068.92
632.35	1068.45
632.69	1078.52
633.04	1085.77
633.38	1090.46
633.73	1090.92
634.07	1086.94
634.42	1084.14
634.76	1078.28
635.11	1078.05
635.45	1087.88
635.79	1094.90
636.14	1092.09
636.48	1095.14
636.83	1099.82
637.17	1088.58
637.52	1092.09
637.86	1094.20
638.21	1094.20
638.55	1095.84
638.89	1096.07
639.24	1083.90
639.58	1075.24
639.93	1070.33
640.27	1057.92
640.61	1051.60
640.96	1069.86
641.30	1075.01
641.65	1080.16
641.99	1076.65
642.33	1084.37
642.68	1067.28
643.02	1067.75
643.37	1067.99
643.71	1074.07
644.05	1064.94
644.40	1075.01
644.74	1079.69
645.08	1076.65
645.43	1080.86
645.77	1082.03
646.11	1080.63
646.46	1071.97
646.80	1072.67
647.14	1061.90
647.49	1070.80
647.83	1066.58
648.17	1081.80
648.52	1081.80
648.86	1096.31
649.20	1092.09
649.55	1095.14
649.89	1078.75
650.23	1078.52
650.57	1076.41
650.92	1087.18
651.26	1093.03
651.60	1100.52
651.95	1096.07
652.29	1083.20
652.63	1075.01
652.97	1065.88
653.32	1063.31
653.66	1056.52
654.00	1066.35
654.34	1060.50
654.69	1066.82
655.03	1066.58
655.37	1074.77
655.71	1079.92
656.05	1089.29
656.40	1084.84
656.74	1085.77
657.08	1078.05
657.42	1068.92
657.76	1052.77
658.11	1046.69
658.45	1051.13
658.79	1057.69
659.13	1052.77
659.47	1067.28
659.82	1078.05
660.16	1069.62
660.50	1064.71
660.84	1078.99
661.18	1081.80
661.52	1069.16
661.87	1070.80
662.21	1082.73
662.55	1074.07
662.89	1067.99
663.23	1079.92
663.57	1087.41
663.91	1085.31
664.25	1084.84
664.60	1083.43
664.94	1075.24
665.28	1067.75
665.62	1065.88
665.96	1070.33
666.30	1077.11
666.64	1086.48
666.98	1092.80
667.32	1094.20
667.66	1085.31
668.01	1084.14
668.35	1075.48
668.69	1074.07
669.03	1079.69
669.37	1090.22
669.71	1099.12
670.05	1099.12
670.39	1099.82
670.73	1098.18
671.07	1087.18
671.41	1079.92
671.75	1082.26
672.09	1079.46
672.43	1072.20
672.77	1077.58
673.11	1066.58
673.45	1066.35
673.79	1071.50
674.13	1074.77
674.47	1074.54
674.81	1079.69
675.15	1079.92
675.49	1072.20
675.83	1067.75
676.17	1062.60
676.51	1061.20
676.85	1071.50
677.19	1082.26
677.53	1095.84
677.87	1106.84
678.21	1107.54
678.55	1089.52
678.89	1086.48
679.23	1087.65
679.57	1088.82
679.90	1092.33
680.24	1099.35
680.58	1099.58
680.92	1084.14
681.26	1082.03
681.60	1075.24
681.94	1088.35
682.28	1081.80
682.62	1077.82
682.96	1071.50
683.29	1077.11
683.63	1063.77
683.97	1062.60
684.31	1079.22
684.65	1082.97
684.99	1081.33
685.33	1083.90
685.67	1081.09
686.00	1072.43
686.34	1074.31
686.68	1075.01
687.02	1071.73
687.36	1078.28
687.70	1081.09
688.03	1071.73
688.37	1072.43
688.71	1077.35
689.05	1075.24
689.39	1065.65
689.72	1069.39
690.06	1063.77
690.40	1058.16
690.74	1061.90
691.08	1071.26
691.41	1070.09
691.75	1074.31
692.09	1070.09
692.43	1066.82
692.76	1070.80
693.10	1068.92
693.44	1073.37
693.78	1082.03
694.11	1084.60
694.45	1079.46
694.79	1084.14
695.13	1078.75
695.46	1079.69
695.80	1075.71
696.14	1064.94
696.48	1066.82
696.81	1066.35
697.15	1068.69
697.49	1064.94
697.82	1073.37
698.16	1075.01
698.50	1077.11
698.83	1076.41
699.17	1073.60
699.51	1074.77
699.84	1072.43
700.18	1081.33
700.52	1076.65
700.85	1074.07
701.19	1067.52
701.53	1065.41
701.86	1056.75
702.20	1060.96
702.54	1074.07
702.87	1081.80
703.21	1083.20
703.55	1086.48
703.88	1081.56
704.22	1079.46
704.55	1084.84
704.89	1087.65
705.23	1088.35
705.56	1090.46
705.90	1093.50
706.23	1089.99
706.57	1092.09
706.91	1093.50
707.24	1097.71
707.58	1094.90
707.91	1090.92
708.25	1091.39
708.58	1086.24
708.92	1082.73
709.26	1081.09
709.59	1085.07
709.93	1087.41
710.26	1082.97
710.60	1082.50
710.93	1081.56
711.27	1082.73
711.60	1079.46
711.94	1083.90
712.27	1080.63
712.61	1076.41
712.94	1070.56
713.28	1066.82
713.61	1066.82
713.95	1067.52
714.28	1079.22
714.62	1083.90
714.95	1076.18
715.29	1074.31
715.62	1074.07
715.96	1077.11
716.29	1076.88
716.63	1094.43
716.96	1108.48
717.29	1108.01
717.63	1094.43
717.96	1088.35
718.30	1083.67
718.63	1073.60
718.97	1069.16
719.30	1076.18
719.63	1079.22
719.97	1069.62
720.30	1065.41
720.64	1068.22
720.97	1064.71
721.30	1060.50
721.64	1058.86
721.97	1059.09
722.31	1059.79
722.64	1049.26
722.97	1051.60
723.31	1056.52
723.64	1048.56
723.97	1058.86
724.31	1067.99
724.64	1066.58
724.98	1070.09
725.31	1076.65
725.64	1074.77
725.98	1078.52
726.31	1081.09
726.64	1069.62
726.97	1071.73
727.31	1067.05
727.64	1070.56
727.97	1070.33
728.31	1079.69
728.64	1079.69
728.97	1086.24
729.31	1087.41
729.64	1092.80
729.97	1098.41
730.30	1097.95
730.64	1089.75
730.97	1077.58
731.30	1073.37
731.63	1075.48
731.97	1063.07
732.30	1062.84
732.63	1065.88
732.96	1065.88
733.30	1058.16
733.63	1066.11
733.96	1060.73
734.29	1064.94
734.63	1067.05
734.96	1068.45
735.29	1086.71
735.62	1093.50
735.95	1101.46
736.29	1100.29
736.62	1100.75
736.95	1079.92
737.28	1073.60
737.61	1064.24
737.94	1059.79
738.28	1061.90
738.61	1063.54
738.94	1072.43
739.27	1074.77
739.60	1087.88
739.93	1083.20
740.27	1091.39
740.60	1082.73
740.93	1077.35
741.26	1060.03
741.59	1047.16
741.92	1049.96
742.25	1053.48
742.58	1049.96
742.91	1055.11
743.25	1063.77
743.58	1059.56
743.91	1054.88
744.24	1061.90
744.57	1069.86
744.90	1077.11
745.23	1071.97
745.56	1074.31
745.89	1073.14
746.22	1070.09
746.55	1061.43
746.88	1066.11
747.21	1075.94
747.54	1083.43
747.87	1077.11
748.20	1083.90
748.53	1083.20
748.87	1079.69
749.20	1077.82
749.53	1075.94
749.86	1070.33
750.19	1066.58
750.52	1060.50
750.85	1056.75
751.18	1068.45
751.51	1075.48
751.84	1081.80
752.16	1089.75
752.49	1094.20
752.82	1087.41
753.15	1082.73
753.48	1078.05
753.81	1084.14
754.14	1084.60
754.47	1086.24
754.80	1095.60
755.13	1108.01
755.46	1089.99
755.79	1086.48
756.12	1082.97
756.45	1074.77
756.78	1059.56
757.11	1060.96
757.43	1060.26
757.76	1064.24
758.09	1071.03
758.42	1073.84
758.75	1093.03
759.08	1089.75
759.41	1090.46
759.74	1085.07
760.07	1084.84
760.39	1071.03
760.72	1078.75
761.05	1074.54
761.38	1070.09
761.71	1070.33
762.04	1077.35
762.36	1075.24
762.69	1071.97
763.02	1077.82
763.35	1076.65
763.68	1073.60
764.01	1065.65
764.33	1071.03
764.66	1076.65
764.99	1082.03
765.32	1089.29
765.65	1098.88
765.97	1105.67
766.30	1092.33
