SpectraSuite Data File
++++++++++++++++++++++++++++++++++++
Date: Mon Aug 26 10:24:34 PDT 2019
User: corrico
Dark Spectrum Present: No
Reference Spectrum Present: No
Number of Sampled Component Spectra: 1
Spectrometers: USB2+H06089
Integration Time (usec): 10000 (USB2+H06089)
Spectra Averaged: 2 (USB2+H06089)
Boxcar Smoothing: 2 (USB2+H06089)
Correct for Electrical Dark: No (USB2+H06089)
Strobe/Lamp Enabled: No (USB2+H06089)
Correct for Detector Non-linearity: No (USB2+H06089)
Correct for Stray Light: No (USB2+H06089)
Number of Pixels in Processed Spectrum: 2048
>>>>>Begin Processed Spectral Data<<<<<
339.70	1032.18
340.07	1032.18
340.45	1004.56
340.82	980.45
341.19	961.02
341.57	937.38
341.94	923.81
342.31	913.98
342.69	912.11
343.06	899.70
343.43	890.11
343.81	885.42
344.18	881.91
344.55	883.79
344.93	888.70
345.30	897.36
345.67	913.04
346.04	921.70
346.42	926.38
346.79	937.85
347.16	956.34
347.54	957.98
347.91	978.58
348.28	998.00
348.65	1007.83
349.03	1009.00
349.40	1022.58
349.77	1015.79
350.14	1012.05
350.52	1019.54
350.89	1032.64
351.26	1042.01
351.63	1054.88
352.01	1075.48
352.38	1079.46
352.75	1076.88
353.12	1074.77
353.50	1074.31
353.87	1065.88
354.24	1073.37
354.61	1082.97
354.98	1078.52
355.36	1077.35
355.73	1082.26
356.10	1077.82
356.47	1068.92
356.84	1070.33
357.22	1076.88
357.59	1082.50
357.96	1085.54
358.33	1090.22
358.70	1090.46
359.08	1087.88
359.45	1072.67
359.82	1070.33
360.19	1067.05
360.56	1070.09
360.94	1070.56
361.31	1075.94
361.68	1070.33
362.05	1071.03
362.42	1073.14
362.79	1075.71
363.16	1071.03
363.54	1082.03
363.91	1081.09
364.28	1078.52
364.65	1070.33
365.02	1067.99
365.39	1070.80
365.76	1071.26
366.14	1064.94
366.51	1058.39
366.88	1063.77
367.25	1054.88
367.62	1057.69
367.99	1062.84
368.36	1075.48
368.73	1072.67
369.10	1068.92
369.48	1066.11
369.85	1066.82
370.22	1074.31
370.59	1078.05
370.96	1082.73
371.33	1084.84
371.70	1091.16
372.07	1068.92
372.44	1063.54
372.81	1053.48
373.18	1050.43
373.55	1056.75
373.93	1073.37
374.30	1072.67
374.67	1079.92
375.04	1086.94
375.41	1073.14
375.78	1074.77
376.15	1083.43
376.52	1086.48
376.89	1074.77
377.26	1083.43
377.63	1083.20
378.00	1083.20
378.37	1080.16
378.74	1088.58
379.11	1085.77
379.48	1080.39
379.85	1077.58
380.22	1074.77
380.59	1072.90
380.96	1071.73
381.33	1070.09
381.70	1070.09
382.07	1068.22
382.44	1069.62
382.81	1065.41
383.18	1066.35
383.55	1066.35
383.92	1066.35
384.29	1062.37
384.66	1062.84
385.03	1064.71
385.40	1066.35
385.77	1067.75
386.14	1070.33
386.51	1072.67
386.88	1069.39
387.25	1066.11
387.62	1064.01
387.99	1058.16
388.36	1054.18
388.73	1064.01
389.10	1066.58
389.46	1071.50
389.83	1073.84
390.20	1075.01
390.57	1065.41
390.94	1060.50
391.31	1066.58
391.68	1060.03
392.05	1060.03
392.42	1061.43
392.79	1065.88
393.16	1061.20
393.53	1079.92
393.89	1084.60
394.26	1083.43
394.63	1086.48
395.00	1081.33
395.37	1074.54
395.74	1067.05
396.11	1067.28
396.48	1058.39
396.84	1063.07
397.21	1054.88
397.58	1053.01
397.95	1060.03
398.32	1069.62
398.69	1071.50
399.06	1074.31
399.42	1089.99
399.79	1082.97
400.16	1079.92
400.53	1078.52
400.90	1075.01
401.27	1066.82
401.64	1073.60
402.00	1074.31
402.37	1082.03
402.74	1084.14
403.11	1092.09
403.48	1095.14
403.84	1098.41
404.21	1093.97
404.58	1103.56
404.95	1110.58
405.32	1118.54
405.68	1121.35
406.05	1116.67
406.42	1120.41
406.79	1112.69
407.16	1107.54
407.52	1102.39
407.89	1113.63
408.26	1112.69
408.63	1110.82
408.99	1114.56
409.36	1125.80
409.73	1132.82
410.10	1136.80
410.47	1146.16
410.83	1143.82
411.20	1142.65
411.57	1151.54
411.94	1163.71
412.30	1169.80
412.67	1181.97
413.04	1186.65
413.40	1189.69
413.77	1193.91
414.14	1201.87
414.51	1210.76
414.87	1235.57
415.24	1243.99
415.61	1258.97
415.97	1272.32
416.34	1290.57
416.71	1304.61
417.08	1329.19
417.44	1342.30
417.81	1361.96
418.18	1386.53
418.54	1405.96
418.91	1422.81
419.28	1450.66
419.64	1478.98
420.01	1499.82
420.38	1519.24
420.74	1549.43
421.11	1581.97
421.48	1611.93
421.84	1648.67
422.21	1693.85
422.58	1736.91
422.94	1769.21
423.31	1802.68
423.68	1853.00
424.04	1902.62
424.41	1943.58
424.77	2010.52
425.14	2074.42
425.51	2122.63
425.87	2177.87
426.24	2240.83
426.61	2299.58
426.97	2383.13
427.34	2458.26
427.70	2540.18
428.07	2622.34
428.44	2710.34
428.80	2798.34
429.17	2904.84
429.53	3003.14
429.90	3114.78
430.27	3221.98
430.63	3317.71
431.00	3408.29
431.36	3523.91
431.73	3610.04
432.09	3711.39
432.46	3805.01
432.83	3914.78
433.19	4019.64
433.56	4170.83
433.92	4286.69
434.29	4416.82
434.65	4521.92
435.02	4605.47
435.38	4693.24
435.75	4789.67
436.11	4889.85
436.48	4983.94
436.84	5119.92
437.21	5190.14
437.57	5261.06
437.94	5322.38
438.30	5401.49
438.67	5427.23
439.03	5488.79
439.40	5540.98
439.76	5546.37
440.13	5525.54
440.49	5522.73
440.86	5488.56
441.22	5434.49
441.59	5423.49
441.95	5416.23
442.32	5353.04
442.68	5292.42
443.05	5242.80
443.41	5179.61
443.78	5061.17
444.14	4991.89
444.51	4880.49
444.87	4784.52
445.24	4662.82
445.60	4590.96
445.96	4472.53
446.33	4401.85
446.69	4309.16
447.06	4214.13
447.42	4104.60
447.79	4005.36
448.15	3946.61
448.51	3885.06
448.88	3831.69
449.24	3764.99
449.61	3747.43
449.97	3667.39
450.33	3585.23
450.70	3500.04
451.06	3439.42
451.43	3336.67
451.79	3265.05
452.15	3199.28
452.52	3141.70
452.88	3068.21
453.24	3029.12
453.61	2976.46
453.97	2926.61
454.34	2866.69
454.70	2821.28
455.06	2748.02
455.43	2679.45
455.79	2611.80
456.15	2573.89
456.52	2530.35
456.88	2489.16
457.24	2461.07
457.61	2418.48
457.97	2370.96
458.33	2322.98
458.70	2283.43
459.06	2230.53
459.42	2205.49
459.79	2167.10
460.15	2140.42
460.51	2105.78
460.88	2064.35
461.24	2011.46
461.60	1980.09
461.96	1940.54
462.33	1913.39
462.69	1890.45
463.05	1885.07
463.42	1852.77
463.78	1825.38
464.14	1796.83
464.50	1775.76
464.87	1739.49
465.23	1704.61
465.59	1696.89
465.95	1677.93
466.32	1668.33
466.68	1658.27
467.04	1663.18
467.40	1638.84
467.77	1615.91
468.13	1592.03
468.49	1575.18
468.85	1558.09
469.22	1548.26
469.58	1541.48
469.94	1529.07
470.30	1519.48
470.66	1509.88
471.03	1499.11
471.39	1490.22
471.75	1475.94
472.11	1455.81
472.47	1442.24
472.84	1429.13
473.20	1413.45
473.56	1409.24
473.92	1405.26
474.28	1397.77
474.65	1391.68
475.01	1386.53
475.37	1377.87
475.73	1359.85
476.09	1347.21
476.45	1332.47
476.81	1318.19
477.18	1316.79
477.54	1320.30
477.90	1321.93
478.26	1321.00
478.62	1325.21
478.98	1310.47
479.34	1306.96
479.71	1300.40
480.07	1291.27
480.43	1276.06
480.79	1275.83
481.15	1271.14
481.51	1264.12
481.87	1260.14
482.23	1262.25
482.59	1257.80
482.96	1247.97
483.32	1239.08
483.68	1244.93
484.04	1240.25
484.40	1236.04
484.76	1231.12
485.12	1224.33
485.48	1216.14
485.84	1218.95
486.20	1214.74
486.56	1214.74
486.92	1216.84
487.28	1210.76
487.64	1199.99
488.00	1186.89
488.37	1189.23
488.73	1179.86
489.09	1176.59
489.45	1174.25
489.81	1176.82
490.17	1168.86
490.53	1178.69
490.89	1186.89
491.25	1191.33
491.61	1192.27
491.97	1199.99
492.33	1188.76
492.69	1168.86
493.05	1163.01
493.41	1161.84
493.77	1149.20
494.13	1154.82
494.49	1169.57
494.85	1167.46
495.21	1152.71
495.57	1150.61
495.93	1146.16
496.29	1137.97
496.64	1136.10
497.00	1138.44
497.36	1140.07
497.72	1138.44
498.08	1129.31
498.44	1128.37
498.80	1133.29
499.16	1135.86
499.52	1124.63
499.88	1127.44
500.24	1121.35
500.60	1115.97
500.96	1102.63
501.32	1105.20
501.68	1103.33
502.03	1102.86
502.39	1108.24
502.75	1109.65
503.11	1109.88
503.47	1103.80
503.83	1110.58
504.19	1110.35
504.55	1118.31
504.91	1119.48
505.26	1126.97
505.62	1124.39
505.98	1123.46
506.34	1114.33
506.70	1119.48
507.06	1120.41
507.42	1108.01
507.78	1107.07
508.13	1116.44
508.49	1113.86
508.85	1115.27
509.21	1124.39
509.57	1126.50
509.93	1111.05
510.28	1109.88
510.64	1097.01
511.00	1091.39
511.36	1086.94
511.72	1093.97
512.07	1089.75
512.43	1098.65
512.79	1099.35
513.15	1099.12
513.51	1107.54
513.86	1103.56
514.22	1098.65
514.58	1097.01
514.94	1093.03
515.30	1086.94
515.65	1099.58
516.01	1107.54
516.37	1113.39
516.73	1113.16
517.08	1115.50
517.44	1110.12
517.80	1111.29
518.16	1107.54
518.51	1105.67
518.87	1104.97
519.23	1103.33
519.59	1084.84
519.94	1089.29
520.30	1097.01
520.66	1088.12
521.01	1091.86
521.37	1101.69
521.73	1101.69
522.09	1095.60
522.44	1096.07
522.80	1084.84
523.16	1083.67
523.51	1076.88
523.87	1078.05
524.23	1076.18
524.58	1073.14
524.94	1074.31
525.30	1076.18
525.65	1075.48
526.01	1077.82
526.37	1086.48
526.72	1089.52
527.08	1089.29
527.44	1084.84
527.79	1089.05
528.15	1084.84
528.51	1087.41
528.86	1100.52
529.22	1100.29
529.58	1095.14
529.93	1104.03
530.29	1095.14
530.65	1086.94
531.00	1082.26
531.36	1082.97
531.71	1088.58
532.07	1090.92
532.43	1087.88
532.78	1095.37
533.14	1092.09
533.49	1079.46
533.85	1078.05
534.21	1071.26
534.56	1068.92
534.92	1081.33
535.27	1075.48
535.63	1089.99
535.98	1097.95
536.34	1103.80
536.69	1097.95
537.05	1103.33
537.41	1089.75
537.76	1093.26
538.12	1085.31
538.47	1086.94
538.83	1085.07
539.18	1091.63
539.54	1087.88
539.89	1096.54
540.25	1092.09
540.60	1094.67
540.96	1090.22
541.31	1082.97
541.67	1075.94
542.02	1084.14
542.38	1083.67
542.73	1080.39
543.09	1094.90
543.44	1097.24
543.80	1084.60
544.15	1083.67
544.51	1086.71
544.86	1070.80
545.22	1076.41
545.57	1082.50
545.93	1080.86
546.28	1074.31
546.64	1081.33
546.99	1071.50
547.35	1074.07
547.70	1078.28
548.05	1073.14
548.41	1071.73
548.76	1091.63
549.12	1087.88
549.47	1080.86
549.83	1094.43
550.18	1092.09
550.53	1081.33
550.89	1076.41
551.24	1086.01
551.60	1081.33
551.95	1075.48
552.30	1072.67
552.66	1070.80
553.01	1068.69
553.37	1066.11
553.72	1070.56
554.07	1066.82
554.43	1076.41
554.78	1073.14
555.13	1091.63
555.49	1097.95
555.84	1093.26
556.19	1087.65
556.55	1088.58
556.90	1072.90
557.26	1070.56
557.61	1086.71
557.96	1093.26
558.32	1106.84
558.67	1111.75
559.02	1111.99
559.37	1113.86
559.73	1106.37
560.08	1102.39
560.43	1093.50
560.79	1088.82
561.14	1081.09
561.49	1079.69
561.85	1074.77
562.20	1077.11
562.55	1082.50
562.90	1083.90
563.26	1082.26
563.61	1079.46
563.96	1080.39
564.32	1084.14
564.67	1084.14
565.02	1086.48
565.37	1086.71
565.73	1088.82
566.08	1083.43
566.43	1076.65
566.78	1070.33
567.14	1076.18
567.49	1075.01
567.84	1080.63
568.19	1082.26
568.54	1093.03
568.90	1083.43
569.25	1076.18
569.60	1066.82
569.95	1066.58
570.31	1062.60
570.66	1066.82
571.01	1068.45
571.36	1071.26
571.71	1078.99
572.06	1081.09
572.42	1072.67
572.77	1084.60
573.12	1096.31
573.47	1089.99
573.82	1092.09
574.18	1097.95
574.53	1090.22
574.88	1079.46
575.23	1077.11
575.58	1069.62
575.93	1068.92
576.28	1061.67
576.64	1063.54
576.99	1068.92
577.34	1078.28
577.69	1076.18
578.04	1081.09
578.39	1081.33
578.74	1074.54
579.09	1076.65
579.44	1077.58
579.80	1083.43
580.15	1080.39
580.50	1088.58
580.85	1084.14
581.20	1091.39
581.55	1088.35
581.90	1083.43
582.25	1076.18
582.60	1075.01
582.95	1072.20
583.30	1073.60
583.65	1071.50
584.00	1077.11
584.35	1076.65
584.71	1068.92
585.06	1066.82
585.41	1084.14
585.76	1083.90
586.11	1081.80
586.46	1085.31
586.81	1087.65
587.16	1078.52
587.51	1079.22
587.86	1082.73
588.21	1080.63
588.56	1085.54
588.91	1091.86
589.26	1082.26
589.61	1081.33
589.96	1082.73
590.31	1074.54
590.66	1073.60
591.01	1074.77
591.36	1077.35
591.71	1074.54
592.06	1081.56
592.41	1075.24
592.76	1079.69
593.10	1072.20
593.45	1082.26
593.80	1076.88
594.15	1084.14
594.50	1089.29
594.85	1094.90
595.20	1092.09
595.55	1097.95
595.90	1087.18
596.25	1086.01
596.60	1082.26
596.95	1080.39
597.30	1074.31
597.64	1132.82
597.99	1127.90
598.34	1134.22
598.69	1135.63
599.04	1139.37
599.39	1090.69
599.74	1097.48
600.09	1100.05
600.44	1102.86
600.78	1103.33
601.13	1099.12
601.48	1097.01
601.83	1093.97
602.18	1091.86
602.53	1092.80
602.88	1090.22
603.22	1089.05
603.57	1082.26
603.92	1078.75
604.27	1073.14
604.62	1083.43
604.97	1072.43
605.31	1083.90
605.66	1075.48
606.01	1076.88
606.36	1065.41
606.71	1071.03
607.05	1064.24
607.40	1076.88
607.75	1078.99
608.10	1084.84
608.44	1084.84
608.79	1092.80
609.14	1092.80
609.49	1103.56
609.84	1114.56
610.18	1122.29
610.53	1121.12
610.88	1120.41
611.23	1109.88
611.57	1098.18
611.92	1104.03
612.27	1095.37
612.62	1085.54
612.96	1086.94
613.31	1088.82
613.66	1081.09
614.00	1076.41
614.35	1074.77
614.70	1075.71
615.05	1078.75
615.39	1071.50
615.74	1074.77
616.09	1087.18
616.43	1083.67
616.78	1086.48
617.13	1094.43
617.47	1097.01
617.82	1097.71
618.17	1093.26
618.51	1071.50
618.86	1061.43
619.21	1053.94
619.55	1050.90
619.90	1052.30
620.25	1067.52
620.59	1078.99
620.94	1090.92
621.29	1086.94
621.63	1095.60
621.98	1084.84
622.32	1078.05
622.67	1072.43
623.02	1080.39
623.36	1068.45
623.71	1064.94
624.05	1070.56
624.40	1066.35
624.75	1064.48
625.09	1057.69
625.44	1077.11
625.78	1077.82
626.13	1080.39
626.48	1071.73
626.82	1086.48
627.17	1080.63
627.51	1071.50
627.86	1075.01
628.20	1085.54
628.55	1079.92
628.89	1073.37
629.24	1081.33
629.58	1072.67
629.93	1071.73
630.28	1078.99
630.62	1093.97
630.97	1090.46
631.31	1097.01
631.66	1085.77
632.00	1083.20
632.35	1075.24
632.69	1069.62
633.04	1075.94
633.38	1081.33
633.73	1079.46
634.07	1083.20
634.42	1086.48
634.76	1079.22
635.11	1088.12
635.45	1087.41
635.79	1085.54
636.14	1090.46
636.48	1093.73
636.83	1083.43
637.17	1087.88
637.52	1083.43
637.86	1089.75
638.21	1093.73
638.55	1105.90
638.89	1104.73
639.24	1100.99
639.58	1093.03
639.93	1086.24
640.27	1082.26
640.61	1086.48
640.96	1088.12
641.30	1096.78
641.65	1101.69
641.99	1096.78
642.33	1091.39
642.68	1095.37
643.02	1093.03
643.37	1099.35
643.71	1099.58
644.05	1105.20
644.40	1106.61
644.74	1099.82
645.08	1091.16
645.43	1095.14
645.77	1092.80
646.11	1084.14
646.46	1081.80
646.80	1080.16
647.14	1076.18
647.49	1079.92
647.83	1076.88
648.17	1086.24
648.52	1088.12
648.86	1093.50
649.20	1078.99
649.55	1090.22
649.89	1087.18
650.23	1082.97
650.57	1080.16
650.92	1090.46
651.26	1084.14
651.60	1083.90
651.95	1083.20
652.29	1075.01
652.63	1070.80
652.97	1071.03
653.32	1064.71
653.66	1058.86
654.00	1067.75
654.34	1066.58
654.69	1066.58
655.03	1073.37
655.37	1078.52
655.71	1069.39
656.05	1080.16
656.40	1086.48
656.74	1076.88
657.08	1080.63
657.42	1088.12
657.76	1077.58
658.11	1073.60
658.45	1071.50
658.79	1064.24
659.13	1061.90
659.47	1064.94
659.82	1070.56
660.16	1078.75
660.50	1084.60
660.84	1078.28
661.18	1078.05
661.52	1077.35
661.87	1074.77
662.21	1074.54
662.55	1078.99
662.89	1077.11
663.23	1078.28
663.57	1079.92
663.91	1085.31
664.25	1089.05
664.60	1086.48
664.94	1078.99
665.28	1073.60
665.62	1075.48
665.96	1085.77
666.30	1093.50
666.64	1095.84
666.98	1099.82
667.32	1094.20
667.66	1088.58
668.01	1083.67
668.35	1083.43
668.69	1078.52
669.03	1070.33
669.37	1059.33
669.71	1064.71
670.05	1058.39
670.39	1061.20
670.73	1063.54
671.07	1068.69
671.41	1059.79
671.75	1062.84
672.09	1061.43
672.43	1062.37
672.77	1067.75
673.11	1074.07
673.45	1081.80
673.79	1094.90
674.13	1095.14
674.47	1094.67
674.81	1083.20
675.15	1086.01
675.49	1076.88
675.83	1077.82
676.17	1067.52
676.51	1068.92
676.85	1061.90
677.19	1071.26
677.53	1075.24
677.87	1076.41
678.21	1088.58
678.55	1096.31
678.89	1083.20
679.23	1084.60
679.57	1095.37
679.90	1091.39
680.24	1082.97
680.58	1085.54
680.92	1077.35
681.26	1067.05
681.60	1070.80
681.94	1078.75
682.28	1079.92
682.62	1085.07
682.96	1084.60
683.29	1087.88
683.63	1083.90
683.97	1083.67
684.31	1078.99
684.65	1072.90
684.99	1069.86
685.33	1071.26
685.67	1076.41
686.00	1090.69
686.34	1098.41
686.68	1081.80
687.02	1079.46
687.36	1087.88
687.70	1079.92
688.03	1080.16
688.37	1095.37
688.71	1091.63
689.05	1083.20
689.39	1091.39
689.72	1091.63
690.06	1086.01
690.40	1086.48
690.74	1077.82
691.08	1072.43
691.41	1080.39
691.75	1091.16
692.09	1092.33
692.43	1092.80
692.76	1086.01
693.10	1085.07
693.44	1071.50
693.78	1076.18
694.11	1073.37
694.45	1074.77
694.79	1067.75
695.13	1073.84
695.46	1065.41
695.80	1065.41
696.14	1061.43
696.48	1063.77
696.81	1063.07
697.15	1064.24
697.49	1067.99
697.82	1075.24
698.16	1074.07
698.50	1075.48
698.83	1074.77
699.17	1071.50
699.51	1068.92
699.84	1066.35
700.18	1063.07
700.52	1059.33
700.85	1064.71
701.19	1067.52
701.53	1078.28
701.86	1071.73
702.20	1073.84
702.54	1075.71
702.87	1075.01
703.21	1059.79
703.55	1066.11
703.88	1069.16
704.22	1067.99
704.55	1069.16
704.89	1074.31
705.23	1078.99
705.56	1078.99
705.90	1078.28
706.23	1083.90
706.57	1092.33
706.91	1088.12
707.24	1093.97
707.58	1096.07
707.91	1094.20
708.25	1084.84
708.58	1078.28
708.92	1067.52
709.26	1073.14
709.59	1068.22
709.93	1070.80
710.26	1076.65
710.60	1084.37
710.93	1073.14
711.27	1067.52
711.60	1074.54
711.94	1075.71
712.27	1076.65
712.61	1074.77
712.94	1074.31
713.28	1066.58
713.61	1060.50
713.95	1057.45
714.28	1072.43
714.62	1078.75
714.95	1081.56
715.29	1092.09
715.62	1093.50
715.96	1081.80
716.29	1076.41
716.63	1069.39
716.96	1062.60
717.29	1053.71
717.63	1061.67
717.96	1061.20
718.30	1058.16
718.63	1063.54
718.97	1077.82
719.30	1072.67
719.63	1075.94
719.97	1079.69
720.30	1071.97
720.64	1069.16
720.97	1067.28
721.30	1069.39
721.64	1068.69
721.97	1077.35
722.31	1073.84
722.64	1075.01
722.97	1072.20
723.31	1077.35
723.64	1067.75
723.97	1062.37
724.31	1063.07
724.64	1061.20
724.98	1056.99
725.31	1062.14
725.64	1070.33
725.98	1075.71
726.31	1080.39
726.64	1085.31
726.97	1084.14
727.31	1082.73
727.64	1073.14
727.97	1075.48
728.31	1079.69
728.64	1082.26
728.97	1084.60
729.31	1099.82
729.64	1106.14
729.97	1111.29
730.30	1117.84
730.64	1121.58
730.97	1107.07
731.30	1094.90
731.63	1085.31
731.97	1082.50
732.30	1077.82
732.63	1086.48
732.96	1088.12
733.30	1085.77
733.63	1074.54
733.96	1073.60
734.29	1071.26
734.63	1067.52
734.96	1066.11
735.29	1073.84
735.62	1071.50
735.95	1071.73
736.29	1072.43
736.62	1071.26
736.95	1073.37
737.28	1070.33
737.61	1071.03
737.94	1077.58
738.28	1078.99
738.61	1075.48
738.94	1078.52
739.27	1077.11
739.60	1080.86
739.93	1089.29
740.27	1079.92
740.60	1085.31
740.93	1087.88
741.26	1085.54
741.59	1081.33
741.92	1082.50
742.25	1072.67
742.58	1066.35
742.91	1062.14
743.25	1051.37
743.58	1054.88
743.91	1063.54
744.24	1065.41
744.57	1067.52
744.90	1081.80
745.23	1081.80
745.56	1082.26
745.89	1084.84
746.22	1090.22
746.55	1080.86
746.88	1090.46
747.21	1082.97
747.54	1083.67
747.87	1069.62
748.20	1065.18
748.53	1054.88
748.87	1050.67
749.20	1046.45
749.53	1051.37
749.86	1057.69
750.19	1068.92
750.52	1079.46
750.85	1075.71
751.18	1077.35
751.51	1079.22
751.84	1069.86
752.16	1050.90
752.49	1042.71
752.82	1040.13
753.15	1047.86
753.48	1053.48
753.81	1065.41
754.14	1075.71
754.47	1078.99
754.80	1063.31
755.13	1061.20
755.46	1068.69
755.79	1076.88
756.12	1071.73
756.45	1076.41
756.78	1078.28
757.11	1076.18
757.43	1078.75
757.76	1084.37
758.09	1092.33
758.42	1093.03
758.75	1086.24
759.08	1078.75
759.41	1078.52
759.74	1076.41
760.07	1066.11
760.39	1072.90
760.72	1073.60
761.05	1067.99
761.38	1070.80
761.71	1080.16
762.04	1092.56
762.36	1082.26
762.69	1090.22
763.02	1078.52
763.35	1074.07
763.68	1057.92
764.01	1060.26
764.33	1064.24
764.66	1067.75
764.99	1077.35
765.32	1085.07
765.65	1088.35
765.97	1077.35
766.30	1089.52
