SpectraSuite Data File
++++++++++++++++++++++++++++++++++++
Date: Mon Aug 26 10:24:32 PDT 2019
User: corrico
Dark Spectrum Present: No
Reference Spectrum Present: No
Number of Sampled Component Spectra: 1
Spectrometers: USB2+H06089
Integration Time (usec): 10000 (USB2+H06089)
Spectra Averaged: 2 (USB2+H06089)
Boxcar Smoothing: 2 (USB2+H06089)
Correct for Electrical Dark: No (USB2+H06089)
Strobe/Lamp Enabled: No (USB2+H06089)
Correct for Detector Non-linearity: No (USB2+H06089)
Correct for Stray Light: No (USB2+H06089)
Number of Pixels in Processed Spectrum: 2048
>>>>>Begin Processed Spectral Data<<<<<
339.70	1046.22
340.07	1046.22
340.45	998.94
340.82	975.30
341.19	942.30
341.57	909.30
341.94	908.13
342.31	894.79
342.69	885.19
343.06	889.87
343.43	898.30
343.81	891.98
344.18	899.00
344.55	911.17
344.93	914.92
345.30	923.58
345.67	929.66
346.04	940.19
346.42	942.07
346.79	951.66
347.16	950.02
347.54	957.75
347.91	962.19
348.28	968.98
348.65	967.81
349.03	976.94
349.40	984.90
349.77	995.90
350.14	1000.81
350.52	1020.24
350.89	1033.58
351.26	1045.28
351.63	1053.48
352.01	1063.31
352.38	1064.71
352.75	1076.88
353.12	1082.03
353.50	1083.43
353.87	1101.22
354.24	1103.33
354.61	1101.69
354.98	1098.88
355.36	1101.69
355.73	1090.69
356.10	1092.80
356.47	1077.35
356.84	1087.41
357.22	1085.31
357.59	1076.41
357.96	1071.50
358.33	1078.28
358.70	1070.56
359.08	1069.86
359.45	1082.97
359.82	1091.63
360.19	1093.26
360.56	1095.14
360.94	1098.41
361.31	1093.73
361.68	1084.14
362.05	1082.26
362.42	1075.24
362.79	1076.65
363.16	1076.88
363.54	1079.69
363.91	1075.71
364.28	1075.71
364.65	1067.99
365.02	1060.73
365.39	1063.31
365.76	1062.60
366.14	1067.99
366.51	1067.28
366.88	1065.88
367.25	1065.65
367.62	1067.28
367.99	1070.09
368.36	1069.16
368.73	1068.22
369.10	1067.28
369.48	1072.20
369.85	1077.11
370.22	1081.09
370.59	1083.90
370.96	1071.73
371.33	1069.86
371.70	1060.03
372.07	1056.75
372.44	1057.22
372.81	1064.48
373.18	1060.03
373.55	1053.94
373.93	1053.71
374.30	1056.75
374.67	1055.58
375.04	1059.09
375.41	1063.31
375.78	1066.11
376.15	1065.88
376.52	1072.43
376.89	1069.39
377.26	1073.84
377.63	1070.80
378.00	1070.80
378.37	1058.16
378.74	1058.39
379.11	1055.35
379.48	1053.01
379.85	1055.82
380.22	1062.60
380.59	1060.96
380.96	1063.54
381.33	1066.82
381.70	1063.07
382.07	1062.14
382.44	1066.35
382.81	1062.60
383.18	1061.67
383.55	1069.62
383.92	1075.48
384.29	1067.99
384.66	1082.73
385.03	1087.65
385.40	1081.09
385.77	1093.97
386.14	1103.09
386.51	1089.75
386.88	1082.03
387.25	1078.99
387.62	1073.14
387.99	1066.82
388.36	1068.69
388.73	1080.16
389.10	1076.88
389.46	1071.03
389.83	1070.09
390.20	1069.39
390.57	1062.37
390.94	1069.39
391.31	1063.31
391.68	1067.52
392.05	1064.24
392.42	1061.67
392.79	1059.79
393.16	1070.09
393.53	1061.43
393.89	1065.65
394.26	1067.75
394.63	1066.82
395.00	1058.39
395.37	1073.14
395.74	1074.77
396.11	1069.16
396.48	1071.03
396.84	1071.26
397.21	1064.01
397.58	1063.54
397.95	1076.88
398.32	1074.07
398.69	1075.71
399.06	1078.99
399.42	1083.90
399.79	1075.94
400.16	1082.03
400.53	1086.71
400.90	1082.97
401.27	1073.60
401.64	1067.52
402.00	1067.52
402.37	1059.33
402.74	1065.65
403.11	1065.41
403.48	1077.82
403.84	1071.26
404.21	1073.84
404.58	1074.77
404.95	1093.97
405.32	1088.82
405.68	1100.75
406.05	1106.37
406.42	1089.05
406.79	1069.62
407.16	1075.24
407.52	1068.92
407.89	1060.73
408.26	1084.60
408.63	1092.09
408.99	1079.92
409.36	1077.35
409.73	1091.16
410.10	1072.67
410.47	1066.82
410.83	1076.18
411.20	1075.94
411.57	1067.28
411.94	1080.16
412.30	1082.03
412.67	1095.14
413.04	1092.56
413.40	1093.03
413.77	1086.94
414.14	1089.05
414.51	1075.24
414.87	1083.90
415.24	1084.84
415.61	1085.77
415.97	1089.99
416.34	1093.26
416.71	1089.05
417.08	1086.94
417.44	1090.46
417.81	1088.35
418.18	1086.24
418.54	1080.39
418.91	1077.35
419.28	1067.75
419.64	1058.39
420.01	1057.92
420.38	1067.99
420.74	1074.77
421.11	1084.60
421.48	1083.20
421.84	1091.39
422.21	1082.50
422.58	1072.43
422.94	1067.99
423.31	1073.60
423.68	1059.79
424.04	1058.16
424.41	1064.94
424.77	1067.75
425.14	1070.09
425.51	1076.41
425.87	1087.65
426.24	1082.26
426.61	1087.18
426.97	1096.07
427.34	1102.86
427.70	1103.80
428.07	1103.33
428.44	1101.22
428.80	1084.37
429.17	1067.05
429.53	1064.71
429.90	1078.75
430.27	1078.28
430.63	1081.33
431.00	1083.20
431.36	1081.09
431.73	1066.58
432.09	1066.11
432.46	1064.01
432.83	1067.52
433.19	1064.48
433.56	1069.16
433.92	1066.58
434.29	1069.39
434.65	1068.69
435.02	1073.14
435.38	1075.71
435.75	1079.46
436.11	1080.39
436.48	1100.99
436.84	1101.69
437.21	1105.44
437.57	1088.12
437.94	1091.39
438.30	1081.09
438.67	1071.97
439.03	1058.16
439.40	1070.80
439.76	1068.45
440.13	1070.56
440.49	1073.14
440.86	1080.63
441.22	1081.56
441.59	1081.80
441.95	1063.54
442.32	1061.43
442.68	1061.43
443.05	1060.50
443.41	1074.77
443.78	1092.33
444.14	1103.56
444.51	1109.41
444.87	1114.33
445.24	1097.24
445.60	1082.73
445.96	1063.77
446.33	1060.03
446.69	1053.24
447.06	1060.96
447.42	1070.56
447.79	1078.99
448.15	1075.94
448.51	1085.31
448.88	1080.39
449.24	1081.56
449.61	1087.65
449.97	1090.22
450.33	1089.05
450.70	1092.33
451.06	1089.52
451.43	1079.69
451.79	1076.18
452.15	1058.86
452.52	1054.18
452.88	1047.39
453.24	1063.77
453.61	1057.69
453.97	1064.94
454.34	1072.43
454.70	1079.92
455.06	1068.92
455.43	1085.77
455.79	1085.54
456.15	1091.16
456.52	1089.29
456.88	1099.58
457.24	1092.80
457.61	1097.48
457.97	1092.56
458.33	1084.14
458.70	1078.28
459.06	1080.86
459.42	1078.99
459.79	1070.09
460.15	1073.14
460.51	1075.94
460.88	1072.67
461.24	1084.37
461.60	1087.88
461.96	1093.97
462.33	1095.14
462.69	1097.48
463.05	1082.03
463.42	1083.67
463.78	1079.46
464.14	1078.99
464.50	1076.18
464.87	1069.62
465.23	1068.69
465.59	1068.92
465.95	1067.28
466.32	1060.96
466.68	1071.03
467.04	1071.50
467.40	1067.99
467.77	1056.99
468.13	1060.73
468.49	1055.82
468.85	1069.86
469.22	1074.77
469.58	1090.22
469.94	1096.54
470.30	1103.80
470.66	1086.71
471.03	1082.97
471.39	1072.90
471.75	1071.50
472.11	1066.35
472.47	1068.69
472.84	1077.35
473.20	1083.67
473.56	1076.41
473.92	1076.18
474.28	1077.35
474.65	1074.77
475.01	1064.48
475.37	1070.33
475.73	1069.86
476.09	1069.86
476.45	1071.26
476.81	1077.82
477.18	1081.56
477.54	1088.35
477.90	1090.46
478.26	1080.39
478.62	1080.39
478.98	1071.50
479.34	1074.77
479.71	1070.33
480.07	1073.14
480.43	1071.50
480.79	1077.35
481.15	1077.35
481.51	1084.14
481.87	1082.97
482.23	1082.97
482.59	1084.14
482.96	1087.41
483.32	1073.60
483.68	1071.73
484.04	1071.03
484.40	1065.41
484.76	1044.82
485.12	1059.56
485.48	1071.03
485.84	1066.11
486.20	1069.16
486.56	1078.52
486.92	1075.01
487.28	1073.84
487.64	1074.54
488.00	1068.22
488.37	1074.77
488.73	1075.94
489.09	1077.82
489.45	1075.01
489.81	1087.18
490.17	1086.24
490.53	1083.20
490.89	1088.82
491.25	1098.41
491.61	1088.12
491.97	1078.28
492.33	1073.60
492.69	1057.69
493.05	1062.60
493.41	1073.14
493.77	1080.16
494.13	1073.60
494.49	1079.69
494.85	1080.63
495.21	1073.84
495.57	1084.37
495.93	1095.14
496.29	1090.92
496.64	1077.82
497.00	1072.43
497.36	1062.14
497.72	1067.52
498.08	1076.65
498.44	1091.86
498.80	1102.86
499.16	1103.80
499.52	1104.97
499.88	1096.07
500.24	1092.09
500.60	1084.60
500.96	1085.54
501.32	1071.50
501.68	1072.67
502.03	1067.28
502.39	1071.73
502.75	1075.71
503.11	1090.22
503.47	1093.50
503.83	1098.65
504.19	1093.03
504.55	1089.75
504.91	1083.20
505.26	1089.52
505.62	1090.46
505.98	1097.01
506.34	1088.58
506.70	1083.20
507.06	1075.48
507.42	1062.14
507.78	1066.11
508.13	1075.71
508.49	1083.90
508.85	1086.71
509.21	1098.41
509.57	1089.75
509.93	1084.14
510.28	1088.35
510.64	1088.82
511.00	1090.92
511.36	1084.14
511.72	1078.75
512.07	1067.99
512.43	1073.14
512.79	1065.88
513.15	1071.26
513.51	1082.03
513.86	1086.48
514.22	1081.56
514.58	1081.33
514.94	1076.88
515.30	1065.65
515.65	1062.37
516.01	1056.05
516.37	1054.18
516.73	1061.43
517.08	1072.90
517.44	1071.03
517.80	1080.86
518.16	1078.05
518.51	1061.90
518.87	1058.86
519.23	1064.01
519.59	1056.05
519.94	1062.84
520.30	1083.90
520.66	1079.69
521.01	1072.20
521.37	1065.18
521.73	1056.75
522.09	1048.33
522.44	1047.39
522.80	1055.35
523.16	1064.24
523.51	1076.18
523.87	1071.97
524.23	1075.94
524.58	1080.39
524.94	1082.97
525.30	1073.14
525.65	1082.03
526.01	1089.05
526.37	1080.86
526.72	1077.11
527.08	1082.73
527.44	1097.71
527.79	1098.41
528.15	1092.80
528.51	1095.60
528.86	1090.69
529.22	1081.56
529.58	1074.31
529.93	1079.92
530.29	1083.20
530.65	1088.82
531.00	1076.88
531.36	1076.65
531.71	1072.90
532.07	1074.31
532.43	1069.86
532.78	1078.28
533.14	1081.09
533.49	1088.82
533.85	1087.18
534.21	1089.75
534.56	1088.82
534.92	1091.63
535.27	1084.60
535.63	1075.01
535.98	1078.75
536.34	1079.46
536.69	1067.28
537.05	1068.69
537.41	1077.11
537.76	1073.37
538.12	1070.33
538.47	1074.77
538.83	1077.35
539.18	1073.37
539.54	1075.24
539.89	1071.50
540.25	1066.82
540.60	1066.11
540.96	1063.07
541.31	1058.62
541.67	1066.11
542.02	1071.50
542.38	1074.07
542.73	1071.03
543.09	1084.60
543.44	1089.75
543.80	1088.12
544.15	1093.50
544.51	1105.44
544.86	1097.95
545.22	1095.60
545.57	1099.58
545.93	1094.67
546.28	1093.97
546.64	1089.05
546.99	1084.60
547.35	1085.07
547.70	1085.31
548.05	1081.09
548.41	1085.07
548.76	1075.94
549.12	1079.22
549.47	1073.37
549.83	1070.56
550.18	1064.01
550.53	1067.75
550.89	1054.88
551.24	1055.35
551.60	1057.22
551.95	1065.88
552.30	1065.65
552.66	1076.88
553.01	1073.14
553.37	1072.20
553.72	1072.43
554.07	1075.24
554.43	1074.31
554.78	1080.86
555.13	1081.09
555.49	1076.18
555.84	1075.71
556.19	1074.31
556.55	1086.71
556.90	1089.52
557.26	1090.69
557.61	1094.43
557.96	1086.24
558.32	1071.73
558.67	1063.54
559.02	1068.45
559.37	1067.05
559.73	1067.28
560.08	1075.01
560.43	1079.92
560.79	1076.65
561.14	1073.84
561.49	1079.69
561.85	1077.82
562.20	1073.84
562.55	1069.62
562.90	1067.75
563.26	1064.24
563.61	1062.60
563.96	1079.69
564.32	1085.31
564.67	1092.56
565.02	1095.84
565.37	1088.82
565.73	1073.84
566.08	1071.97
566.43	1067.99
566.78	1066.11
567.14	1078.75
567.49	1078.28
567.84	1079.46
568.19	1083.20
568.54	1093.50
568.90	1085.77
569.25	1092.33
569.60	1094.20
569.95	1098.65
570.31	1093.26
570.66	1095.14
571.01	1103.09
571.36	1097.71
571.71	1090.22
572.06	1094.43
572.42	1092.56
572.77	1082.03
573.12	1083.67
573.47	1085.77
573.82	1076.88
574.18	1073.84
574.53	1072.43
574.88	1066.35
575.23	1064.24
575.58	1067.75
575.93	1068.22
576.28	1073.14
576.64	1090.46
576.99	1090.46
577.34	1088.58
577.69	1088.58
578.04	1080.86
578.39	1069.39
578.74	1059.56
579.09	1061.67
579.44	1060.96
579.80	1067.05
580.15	1063.07
580.50	1069.62
580.85	1064.71
581.20	1062.60
581.55	1052.54
581.90	1055.82
582.25	1061.43
582.60	1078.05
582.95	1089.52
583.30	1102.86
583.65	1102.86
584.00	1102.63
584.35	1093.26
584.71	1089.29
585.06	1082.03
585.41	1086.01
585.76	1083.90
586.11	1084.84
586.46	1084.84
586.81	1084.14
587.16	1083.90
587.51	1093.97
587.86	1088.12
588.21	1083.43
588.56	1085.07
588.91	1079.46
589.26	1070.80
589.61	1066.82
589.96	1061.67
590.31	1054.88
590.66	1060.26
591.01	1045.52
591.36	1052.77
591.71	1053.48
592.06	1056.05
592.41	1057.22
592.76	1075.24
593.10	1074.77
593.45	1089.75
593.80	1094.20
594.15	1096.78
594.50	1094.90
594.85	1095.84
595.20	1087.65
595.55	1084.84
595.90	1081.33
596.25	1083.67
596.60	1084.84
596.95	1090.22
597.30	1095.37
597.64	1142.18
597.99	1145.22
598.34	1141.71
598.69	1138.44
599.04	1131.18
599.39	1072.90
599.74	1068.92
600.09	1072.20
600.44	1072.20
600.78	1071.03
601.13	1086.01
601.48	1075.71
601.83	1072.20
602.18	1074.07
602.53	1074.07
602.88	1067.05
603.22	1070.80
603.57	1072.20
603.92	1064.24
604.27	1063.31
604.62	1062.14
604.97	1063.77
605.31	1063.07
605.66	1067.28
606.01	1081.33
606.36	1085.77
606.71	1085.31
607.05	1089.52
607.40	1095.60
607.75	1090.69
608.10	1081.33
608.44	1082.97
608.79	1076.65
609.14	1069.86
609.49	1070.33
609.84	1082.97
610.18	1081.56
610.53	1090.69
610.88	1100.05
611.23	1098.88
611.57	1094.20
611.92	1102.86
612.27	1107.31
612.62	1095.14
612.96	1091.86
613.31	1089.52
613.66	1081.56
614.00	1072.20
614.35	1067.99
614.70	1074.77
615.05	1085.07
615.39	1077.82
615.74	1075.71
616.09	1090.46
616.43	1086.94
616.78	1079.46
617.13	1092.09
617.47	1093.97
617.82	1094.90
618.17	1090.92
618.51	1085.31
618.86	1077.35
619.21	1078.28
619.55	1069.62
619.90	1065.65
620.25	1075.94
620.59	1076.88
620.94	1078.28
621.29	1087.88
621.63	1091.86
621.98	1078.28
622.32	1083.20
622.67	1086.94
623.02	1070.80
623.36	1065.65
623.71	1070.80
624.05	1067.52
624.40	1057.22
624.75	1067.99
625.09	1073.84
625.44	1076.18
625.78	1078.05
626.13	1081.80
626.48	1078.52
626.82	1080.39
627.17	1079.22
627.51	1075.71
627.86	1067.52
628.20	1067.28
628.55	1073.84
628.89	1080.63
629.24	1083.43
629.58	1089.99
629.93	1087.18
630.28	1072.20
630.62	1071.50
630.97	1067.99
631.31	1070.33
631.66	1069.16
632.00	1077.58
632.35	1071.03
632.69	1067.99
633.04	1067.99
633.38	1074.77
633.73	1075.24
634.07	1066.82
634.42	1076.88
634.76	1079.46
635.11	1082.97
635.45	1079.69
635.79	1081.80
636.14	1073.84
636.48	1074.54
636.83	1081.33
637.17	1084.84
637.52	1093.97
637.86	1106.61
638.21	1102.16
638.55	1091.63
638.89	1099.82
639.24	1096.31
639.58	1093.73
639.93	1091.63
640.27	1090.46
640.61	1081.56
640.96	1072.20
641.30	1074.07
641.65	1080.63
641.99	1076.41
642.33	1080.86
642.68	1087.65
643.02	1073.37
643.37	1066.82
643.71	1071.97
644.05	1078.75
644.40	1081.09
644.74	1082.03
645.08	1085.54
645.43	1086.24
645.77	1061.43
646.11	1065.88
646.46	1072.90
646.80	1069.39
647.14	1064.48
647.49	1077.35
647.83	1073.14
648.17	1082.03
648.52	1085.07
648.86	1083.20
649.20	1084.84
649.55	1092.56
649.89	1073.14
650.23	1068.92
650.57	1063.07
650.92	1059.56
651.26	1057.22
651.60	1064.71
651.95	1060.96
652.29	1076.65
652.63	1079.22
652.97	1073.37
653.32	1075.71
653.66	1087.65
654.00	1084.14
654.34	1082.73
654.69	1082.97
655.03	1085.31
655.37	1079.92
655.71	1081.09
656.05	1079.22
656.40	1078.52
656.74	1073.60
657.08	1074.77
657.42	1072.43
657.76	1072.90
658.11	1072.67
658.45	1066.82
658.79	1067.75
659.13	1066.82
659.47	1066.58
659.82	1075.01
660.16	1079.22
660.50	1077.58
660.84	1080.16
661.18	1090.92
661.52	1078.28
661.87	1083.67
662.21	1076.65
662.55	1086.24
662.89	1079.46
663.23	1089.05
663.57	1091.86
663.91	1093.97
664.25	1078.75
664.60	1080.86
664.94	1080.16
665.28	1066.35
665.62	1066.11
665.96	1063.07
666.30	1055.35
666.64	1057.22
666.98	1066.11
667.32	1069.86
667.66	1081.09
668.01	1078.99
668.35	1071.73
668.69	1073.84
669.03	1076.41
669.37	1077.35
669.71	1078.52
670.05	1085.07
670.39	1078.28
670.73	1071.50
671.07	1065.65
671.41	1076.65
671.75	1063.77
672.09	1066.82
672.43	1068.22
672.77	1068.22
673.11	1074.54
673.45	1083.67
673.79	1087.88
674.13	1090.46
674.47	1082.26
674.81	1068.92
675.15	1064.94
675.49	1063.07
675.83	1066.82
676.17	1076.41
676.51	1075.48
676.85	1081.56
677.19	1074.77
677.53	1074.07
677.87	1069.62
678.21	1070.80
678.55	1072.67
678.89	1068.69
679.23	1068.22
679.57	1066.82
679.90	1071.03
680.24	1063.07
680.58	1070.09
680.92	1058.39
681.26	1058.39
681.60	1060.03
681.94	1060.50
682.28	1061.67
682.62	1071.50
682.96	1071.03
683.29	1068.22
683.63	1070.80
683.97	1065.65
684.31	1068.45
684.65	1077.11
684.99	1073.37
685.33	1077.35
685.67	1090.46
686.00	1089.99
686.34	1086.01
686.68	1091.63
687.02	1082.03
687.36	1070.56
687.70	1071.26
688.03	1066.58
688.37	1064.94
688.71	1073.37
689.05	1080.39
689.39	1080.16
689.72	1099.82
690.06	1102.16
690.40	1096.78
690.74	1097.48
691.08	1089.52
691.41	1073.60
691.75	1074.77
692.09	1079.46
692.43	1069.62
692.76	1075.24
693.10	1077.11
693.44	1063.54
693.78	1059.33
694.11	1068.45
694.45	1071.03
694.79	1071.73
695.13	1087.41
695.46	1090.46
695.80	1084.14
696.14	1073.84
696.48	1078.75
696.81	1082.03
697.15	1083.20
697.49	1091.16
697.82	1098.88
698.16	1099.12
698.50	1087.18
698.83	1087.41
699.17	1081.09
699.51	1079.69
699.84	1065.65
700.18	1060.50
700.52	1064.24
700.85	1065.18
701.19	1059.79
701.53	1061.43
701.86	1065.41
702.20	1060.73
702.54	1062.37
702.87	1074.31
703.21	1085.77
703.55	1096.78
703.88	1106.61
704.22	1100.52
704.55	1095.60
704.89	1084.14
705.23	1082.03
705.56	1066.11
705.90	1068.22
706.23	1069.39
706.57	1081.09
706.91	1077.58
707.24	1084.60
707.58	1087.41
707.91	1089.52
708.25	1082.50
708.58	1073.37
708.92	1061.20
709.26	1053.94
709.59	1052.07
709.93	1048.79
710.26	1050.43
710.60	1057.45
710.93	1067.52
711.27	1065.18
711.60	1071.26
711.94	1074.54
712.27	1069.39
712.61	1066.58
712.94	1060.50
713.28	1060.73
713.61	1062.37
713.95	1071.03
714.28	1072.43
714.62	1084.84
714.95	1086.71
715.29	1087.18
715.62	1083.90
715.96	1086.24
716.29	1073.37
716.63	1066.35
716.96	1064.94
717.29	1070.09
717.63	1068.69
717.96	1071.73
718.30	1071.03
718.63	1071.03
718.97	1068.69
719.30	1065.88
719.63	1073.37
719.97	1077.58
720.30	1076.65
720.64	1079.69
720.97	1079.92
721.30	1076.65
721.64	1076.41
721.97	1074.07
722.31	1080.63
722.64	1077.35
722.97	1081.09
723.31	1070.80
723.64	1076.41
723.97	1069.16
724.31	1068.22
724.64	1059.09
724.98	1071.73
725.31	1074.07
725.64	1068.69
725.98	1073.14
726.31	1081.80
726.64	1078.99
726.97	1067.05
727.31	1071.26
727.64	1064.94
727.97	1056.28
728.31	1057.69
728.64	1071.26
728.97	1070.80
729.31	1081.33
729.64	1089.99
729.97	1092.09
730.30	1078.99
730.64	1072.43
730.97	1064.01
731.30	1052.54
731.63	1053.01
731.97	1062.14
732.30	1064.01
732.63	1067.75
732.96	1065.41
733.30	1056.28
733.63	1040.13
733.96	1043.41
734.29	1049.26
734.63	1058.39
734.96	1069.62
735.29	1085.54
735.62	1090.92
735.95	1086.71
736.29	1081.09
736.62	1084.84
736.95	1084.14
737.28	1086.71
737.61	1079.92
737.94	1082.73
738.28	1075.01
738.61	1075.24
738.94	1069.62
739.27	1079.69
739.60	1085.31
739.93	1087.65
740.27	1095.60
740.60	1095.60
740.93	1094.67
741.26	1089.52
741.59	1091.63
741.92	1083.90
742.25	1082.73
742.58	1082.50
742.91	1090.22
743.25	1086.24
743.58	1078.52
743.91	1084.37
744.24	1080.86
744.57	1074.54
744.90	1066.58
745.23	1077.35
745.56	1071.97
745.89	1070.09
746.22	1082.50
746.55	1081.56
746.88	1074.31
747.21	1076.65
747.54	1078.99
747.87	1071.03
748.20	1081.33
748.53	1086.24
748.87	1091.16
749.20	1097.95
749.53	1097.24
749.86	1092.33
750.19	1098.65
750.52	1089.52
750.85	1079.46
751.18	1083.20
751.51	1088.82
751.84	1080.39
752.16	1079.22
752.49	1085.54
752.82	1081.56
753.15	1078.52
753.48	1087.18
753.81	1076.65
754.14	1066.35
754.47	1063.31
754.80	1060.26
755.13	1055.58
755.46	1075.01
755.79	1092.80
756.12	1098.41
756.45	1096.07
756.78	1095.60
757.11	1091.39
757.43	1078.99
757.76	1079.69
758.09	1084.14
758.42	1077.58
758.75	1081.56
759.08	1087.18
759.41	1090.46
759.74	1092.33
760.07	1080.86
760.39	1076.18
760.72	1076.88
761.05	1068.92
761.38	1064.71
761.71	1082.97
762.04	1088.58
762.36	1089.05
762.69	1086.01
763.02	1090.22
763.35	1086.94
763.68	1086.71
764.01	1084.84
764.33	1082.73
764.66	1078.99
764.99	1079.22
765.32	1073.84
765.65	1075.24
765.97	1075.01
766.30	1076.18
