SpectraSuite Data File
++++++++++++++++++++++++++++++++++++
Date: Mon Aug 26 10:24:34 PDT 2019
User: corrico
Dark Spectrum Present: No
Reference Spectrum Present: No
Number of Sampled Component Spectra: 1
Spectrometers: USB2+H06089
Integration Time (usec): 10000 (USB2+H06089)
Spectra Averaged: 2 (USB2+H06089)
Boxcar Smoothing: 2 (USB2+H06089)
Correct for Electrical Dark: No (USB2+H06089)
Strobe/Lamp Enabled: No (USB2+H06089)
Correct for Detector Non-linearity: No (USB2+H06089)
Correct for Stray Light: No (USB2+H06089)
Number of Pixels in Processed Spectrum: 2048
>>>>>Begin Processed Spectral Data<<<<<
339.70	1049.73
340.07	1049.73
340.45	1004.79
340.82	978.34
341.19	946.04
341.57	913.51
341.94	904.15
342.31	892.91
342.69	890.57
343.06	896.43
343.43	901.57
343.81	901.34
344.18	905.79
344.55	902.04
344.93	901.57
345.30	910.94
345.67	916.32
346.04	927.09
346.42	949.32
346.79	961.49
347.16	963.60
347.54	976.00
347.91	990.51
348.28	993.56
348.65	994.26
349.03	1009.94
349.40	1023.05
349.77	1013.45
350.14	1015.79
350.52	1026.32
350.89	1030.77
351.26	1047.16
351.63	1060.50
352.01	1071.73
352.38	1083.20
352.75	1076.41
353.12	1059.09
353.50	1061.90
353.87	1061.67
354.24	1066.35
354.61	1073.14
354.98	1074.77
355.36	1087.88
355.73	1086.94
356.10	1089.05
356.47	1096.07
356.84	1096.54
357.22	1082.50
357.59	1079.92
357.96	1072.43
358.33	1060.03
358.70	1058.39
359.08	1060.73
359.45	1059.09
359.82	1059.79
360.19	1069.16
360.56	1074.54
360.94	1073.37
361.31	1078.28
361.68	1080.16
362.05	1081.33
362.42	1083.67
362.79	1095.14
363.16	1099.82
363.54	1089.52
363.91	1091.86
364.28	1085.31
364.65	1075.71
365.02	1070.80
365.39	1074.31
365.76	1059.09
366.14	1067.99
366.51	1068.69
366.88	1077.11
367.25	1072.43
367.62	1072.90
367.99	1072.67
368.36	1064.24
368.73	1045.05
369.10	1049.73
369.48	1047.86
369.85	1045.99
370.22	1053.48
370.59	1058.86
370.96	1059.09
371.33	1073.84
371.70	1067.99
372.07	1068.22
372.44	1070.56
372.81	1071.03
373.18	1066.11
373.55	1063.54
373.93	1057.45
374.30	1065.18
374.67	1076.41
375.04	1077.11
375.41	1082.73
375.78	1086.01
376.15	1081.33
376.52	1070.33
376.89	1069.86
377.26	1072.90
377.63	1078.28
378.00	1078.05
378.37	1079.92
378.74	1078.99
379.11	1071.73
379.48	1071.26
379.85	1075.48
380.22	1073.37
380.59	1069.62
380.96	1071.73
381.33	1076.41
381.70	1069.16
382.07	1078.75
382.44	1081.80
382.81	1086.24
383.18	1078.05
383.55	1077.82
383.92	1072.90
384.29	1069.86
384.66	1068.69
385.03	1079.92
385.40	1082.26
385.77	1072.43
386.14	1080.16
386.51	1072.90
386.88	1068.22
387.25	1075.71
387.62	1084.60
387.99	1083.67
388.36	1086.71
388.73	1084.37
389.10	1074.54
389.46	1077.58
389.83	1070.09
390.20	1075.48
390.57	1072.43
390.94	1067.28
391.31	1061.67
391.68	1069.86
392.05	1064.71
392.42	1067.05
392.79	1082.73
393.16	1083.20
393.53	1080.39
393.89	1082.03
394.26	1079.69
394.63	1065.65
395.00	1064.71
395.37	1058.62
395.74	1059.33
396.11	1056.99
396.48	1061.20
396.84	1057.45
397.21	1067.28
397.58	1071.73
397.95	1079.69
398.32	1077.35
398.69	1073.84
399.06	1067.99
399.42	1066.11
399.79	1063.07
400.16	1066.58
400.53	1079.69
400.90	1089.29
401.27	1092.80
401.64	1087.41
402.00	1086.01
402.37	1091.16
402.74	1086.71
403.11	1080.86
403.48	1086.48
403.84	1089.05
404.21	1077.11
404.58	1081.33
404.95	1081.80
405.32	1088.82
405.68	1095.60
406.05	1100.99
406.42	1101.92
406.79	1101.46
407.16	1095.84
407.52	1095.60
407.89	1097.24
408.26	1093.97
408.63	1103.80
408.99	1108.71
409.36	1115.50
409.73	1116.67
410.10	1127.90
410.47	1127.44
410.83	1137.03
411.20	1148.73
411.57	1148.97
411.94	1144.76
412.30	1142.88
412.67	1147.33
413.04	1155.05
413.40	1172.14
413.77	1186.89
414.14	1203.27
414.51	1202.10
414.87	1198.12
415.24	1205.14
415.61	1218.25
415.97	1232.53
416.34	1246.57
416.71	1262.48
417.08	1275.59
417.44	1292.91
417.81	1313.51
418.18	1327.32
418.54	1337.85
418.91	1351.66
419.28	1366.17
419.64	1382.09
420.01	1409.00
420.38	1429.37
420.74	1459.56
421.11	1481.79
421.48	1504.03
421.84	1520.88
422.21	1556.46
422.58	1599.05
422.94	1624.80
423.31	1651.48
423.68	1687.06
424.04	1723.80
424.41	1747.68
424.77	1780.91
425.14	1836.15
425.51	1905.43
425.87	1950.84
426.24	1993.43
426.61	2054.99
426.97	2102.04
427.34	2142.99
427.70	2211.81
428.07	2287.87
428.44	2354.81
428.80	2422.92
429.17	2488.93
429.53	2553.99
429.90	2628.89
430.27	2698.64
430.63	2773.53
431.00	2856.86
431.36	2944.16
431.73	3031.46
432.09	3122.51
432.46	3213.09
432.83	3316.77
433.19	3400.56
433.56	3487.63
433.92	3576.10
434.29	3657.09
434.65	3735.50
435.02	3811.33
435.38	3885.29
435.75	3951.76
436.11	4040.93
436.48	4125.90
436.84	4225.60
437.21	4285.29
437.57	4364.87
437.94	4433.21
438.30	4506.94
438.67	4532.45
439.03	4603.60
439.40	4628.18
439.76	4618.58
440.13	4582.53
440.49	4581.36
440.86	4534.79
441.22	4504.13
441.59	4494.30
441.95	4493.59
442.32	4437.89
442.68	4387.57
443.05	4359.01
443.41	4314.31
443.78	4227.94
444.14	4162.64
444.51	4084.00
444.87	4018.70
445.24	3926.01
445.60	3854.39
445.96	3787.22
446.33	3731.28
446.69	3636.96
447.06	3553.87
447.42	3470.31
447.79	3386.05
448.15	3341.58
448.51	3287.05
448.88	3238.83
449.24	3186.41
449.61	3154.34
449.97	3096.29
450.33	3034.74
450.70	2982.78
451.06	2929.41
451.43	2868.56
451.79	2808.41
452.15	2758.79
452.52	2703.79
452.88	2661.19
453.24	2622.34
453.61	2594.95
453.97	2554.69
454.34	2503.67
454.70	2467.63
455.06	2423.62
455.43	2360.66
455.79	2309.41
456.15	2278.28
456.52	2215.08
456.88	2176.70
457.24	2135.04
457.61	2115.14
457.97	2094.78
458.33	2075.59
458.70	2039.07
459.06	2008.41
459.42	1975.41
459.79	1935.62
460.15	1903.56
460.51	1880.62
460.88	1851.83
461.24	1823.51
461.60	1793.79
461.96	1776.47
462.33	1758.91
462.69	1753.30
463.05	1732.70
463.42	1712.10
463.78	1694.55
464.14	1661.31
464.50	1632.99
464.87	1620.82
465.23	1610.76
465.59	1585.01
465.95	1579.16
466.32	1564.88
466.68	1551.07
467.04	1544.05
467.40	1524.86
467.77	1504.96
468.13	1492.09
468.49	1469.62
468.85	1451.83
469.22	1456.98
469.58	1450.90
469.94	1447.62
470.30	1431.94
470.66	1418.13
471.03	1403.62
471.39	1401.04
471.75	1396.60
472.11	1394.49
472.47	1390.75
472.84	1384.89
473.20	1375.53
473.56	1353.53
473.92	1348.38
474.28	1342.30
474.65	1336.68
475.01	1323.34
475.37	1319.13
475.73	1312.34
476.09	1310.00
476.45	1302.74
476.81	1302.04
477.18	1298.53
477.54	1288.93
477.90	1276.06
478.26	1271.85
478.62	1269.51
478.98	1257.10
479.34	1262.48
479.71	1263.19
480.07	1248.91
480.43	1229.95
480.79	1233.93
481.15	1220.82
481.51	1210.06
481.87	1214.50
482.23	1225.04
482.59	1216.38
482.96	1219.65
483.32	1221.99
483.68	1215.67
484.04	1215.21
484.40	1220.12
484.76	1214.27
485.12	1212.40
485.48	1223.40
485.84	1219.42
486.20	1211.70
486.56	1215.21
486.92	1214.04
487.28	1205.14
487.64	1195.31
488.00	1199.29
488.37	1189.93
488.73	1184.78
489.09	1185.01
489.45	1180.33
489.81	1167.23
490.17	1159.97
490.53	1161.84
490.89	1158.10
491.25	1159.97
491.61	1161.84
491.97	1161.84
492.33	1155.76
492.69	1156.46
493.05	1163.95
493.41	1163.95
493.77	1165.59
494.13	1156.69
494.49	1150.14
494.85	1135.39
495.21	1136.80
495.57	1140.07
495.93	1142.65
496.29	1135.86
496.64	1136.80
497.00	1136.10
497.36	1134.22
497.72	1140.07
498.08	1150.84
498.44	1149.44
498.80	1146.39
499.16	1136.56
499.52	1130.95
499.88	1119.24
500.24	1111.29
500.60	1100.52
500.96	1101.69
501.32	1101.22
501.68	1111.75
502.03	1118.78
502.39	1118.78
502.75	1121.82
503.11	1118.78
503.47	1108.95
503.83	1100.52
504.19	1097.71
504.55	1091.86
504.91	1098.18
505.26	1104.50
505.62	1114.33
505.98	1123.69
506.34	1125.33
506.70	1125.56
507.06	1116.90
507.42	1108.24
507.78	1093.50
508.13	1096.54
508.49	1095.37
508.85	1103.56
509.21	1107.54
509.57	1120.18
509.93	1122.52
510.28	1115.03
510.64	1108.71
511.00	1107.78
511.36	1106.84
511.72	1094.90
512.07	1095.37
512.43	1094.67
512.79	1104.50
513.15	1107.31
513.51	1110.12
513.86	1104.50
514.22	1101.92
514.58	1095.60
514.94	1088.58
515.30	1091.63
515.65	1095.84
516.01	1098.65
516.37	1097.71
516.73	1113.16
517.08	1113.86
517.44	1106.61
517.80	1104.50
518.16	1101.22
518.51	1088.58
518.87	1091.86
519.23	1106.61
519.59	1108.95
519.94	1109.88
520.30	1099.82
520.66	1094.43
521.01	1093.26
521.37	1086.94
521.73	1093.26
522.09	1100.52
522.44	1097.01
522.80	1085.77
523.16	1086.01
523.51	1080.63
523.87	1076.41
524.23	1069.16
524.58	1071.73
524.94	1076.18
525.30	1072.67
525.65	1074.31
526.01	1077.11
526.37	1078.28
526.72	1078.28
527.08	1073.84
527.44	1082.97
527.79	1094.43
528.15	1092.09
528.51	1099.82
528.86	1109.65
529.22	1110.58
529.58	1095.60
529.93	1102.16
530.29	1084.60
530.65	1079.69
531.00	1064.71
531.36	1074.77
531.71	1074.77
532.07	1083.20
532.43	1072.20
532.78	1072.67
533.14	1071.97
533.49	1062.14
533.85	1058.39
534.21	1067.75
534.56	1074.54
534.92	1073.37
535.27	1076.65
535.63	1077.82
535.98	1075.01
536.34	1082.97
536.69	1085.77
537.05	1092.33
537.41	1100.05
537.76	1105.20
538.12	1099.35
538.47	1095.84
538.83	1092.80
539.18	1084.37
539.54	1084.60
539.89	1082.73
540.25	1076.88
540.60	1073.60
540.96	1078.28
541.31	1074.77
541.67	1072.20
542.02	1090.46
542.38	1086.71
542.73	1085.77
543.09	1095.14
543.44	1093.26
543.80	1081.80
544.15	1083.90
544.51	1081.80
544.86	1069.62
545.22	1085.54
545.57	1080.86
545.93	1089.52
546.28	1083.43
546.64	1083.67
546.99	1071.50
547.35	1074.31
547.70	1076.18
548.05	1082.97
548.41	1089.99
548.76	1089.52
549.12	1086.71
549.47	1080.63
549.83	1078.99
550.18	1073.14
550.53	1070.80
550.89	1072.43
551.24	1083.43
551.60	1093.97
551.95	1095.37
552.30	1098.18
552.66	1104.73
553.01	1095.60
553.37	1082.03
553.72	1087.65
554.07	1089.29
554.43	1087.18
554.78	1079.92
555.13	1091.16
555.49	1087.88
555.84	1080.63
556.19	1079.46
556.55	1086.94
556.90	1080.63
557.26	1091.86
557.61	1098.41
557.96	1096.54
558.32	1097.71
558.67	1102.86
559.02	1098.88
559.37	1097.48
559.73	1092.33
560.08	1093.50
560.43	1086.01
560.79	1079.46
561.14	1084.14
561.49	1093.26
561.85	1078.52
562.20	1079.92
562.55	1084.14
562.90	1086.94
563.26	1084.84
563.61	1091.86
563.96	1092.09
564.32	1087.41
564.67	1082.26
565.02	1080.63
565.37	1092.56
565.73	1092.80
566.08	1098.88
566.43	1098.88
566.78	1109.41
567.14	1101.46
567.49	1098.88
567.84	1078.52
568.19	1067.05
568.54	1063.31
568.90	1054.41
569.25	1053.24
569.60	1063.07
569.95	1072.90
570.31	1071.73
570.66	1081.33
571.01	1092.09
571.36	1098.18
571.71	1089.52
572.06	1084.14
572.42	1082.03
572.77	1076.18
573.12	1072.90
573.47	1073.60
573.82	1073.84
574.18	1067.75
574.53	1064.48
574.88	1067.28
575.23	1075.01
575.58	1069.86
575.93	1077.35
576.28	1078.05
576.64	1079.92
576.99	1083.20
577.34	1082.26
577.69	1086.48
578.04	1088.58
578.39	1094.67
578.74	1092.33
579.09	1094.20
579.44	1088.82
579.80	1087.18
580.15	1073.14
580.50	1077.11
580.85	1075.71
581.20	1082.73
581.55	1077.58
581.90	1080.39
582.25	1073.37
582.60	1074.07
582.95	1064.94
583.30	1070.09
583.65	1073.14
584.00	1075.48
584.35	1082.73
584.71	1083.20
585.06	1079.69
585.41	1083.20
585.76	1086.24
586.11	1087.18
586.46	1083.20
586.81	1084.37
587.16	1084.60
587.51	1080.86
587.86	1077.58
588.21	1083.90
588.56	1084.37
588.91	1079.22
589.26	1075.71
589.61	1081.09
589.96	1077.35
590.31	1078.75
590.66	1076.88
591.01	1082.97
591.36	1075.24
591.71	1071.97
592.06	1056.28
592.41	1053.48
592.76	1054.65
593.10	1060.03
593.45	1063.31
593.80	1080.86
594.15	1089.05
594.50	1083.90
594.85	1074.77
595.20	1072.20
595.55	1067.05
595.90	1063.54
596.25	1061.90
596.60	1061.90
596.95	1062.14
597.30	1068.45
597.64	1120.41
597.99	1123.69
598.34	1133.29
598.69	1140.54
599.04	1139.37
599.39	1083.43
599.74	1086.48
600.09	1084.37
600.44	1088.58
600.78	1088.12
601.13	1099.58
601.48	1093.50
601.83	1086.01
602.18	1080.16
602.53	1074.77
602.88	1077.58
603.22	1080.63
603.57	1079.22
603.92	1082.26
604.27	1087.88
604.62	1078.28
604.97	1078.05
605.31	1081.80
605.66	1077.35
606.01	1073.84
606.36	1079.69
606.71	1082.50
607.05	1086.71
607.40	1092.33
607.75	1089.52
608.10	1083.20
608.44	1078.75
608.79	1082.97
609.14	1080.63
609.49	1079.92
609.84	1086.24
610.18	1091.16
610.53	1086.48
610.88	1078.99
611.23	1088.58
611.57	1076.41
611.92	1079.69
612.27	1085.54
612.62	1089.05
612.96	1092.56
613.31	1098.41
613.66	1085.31
614.00	1082.03
614.35	1075.01
614.70	1065.18
615.05	1064.94
615.39	1067.99
615.74	1057.45
616.09	1062.60
616.43	1067.28
616.78	1067.75
617.13	1069.16
617.47	1082.03
617.82	1075.71
618.17	1074.77
618.51	1070.33
618.86	1078.05
619.21	1086.48
619.55	1098.41
619.90	1091.39
620.25	1100.52
620.59	1105.44
620.94	1093.73
621.29	1089.05
621.63	1084.37
621.98	1072.20
622.32	1058.39
622.67	1052.77
623.02	1047.86
623.36	1052.54
623.71	1053.94
624.05	1061.43
624.40	1056.05
624.75	1066.35
625.09	1077.58
625.44	1081.33
625.78	1078.99
626.13	1095.60
626.48	1093.97
626.82	1080.39
627.17	1090.46
627.51	1098.88
627.86	1091.86
628.20	1090.46
628.55	1099.12
628.89	1087.41
629.24	1071.97
629.58	1072.67
629.93	1076.88
630.28	1078.28
630.62	1078.99
630.97	1082.97
631.31	1082.97
631.66	1079.46
632.00	1082.50
632.35	1084.14
632.69	1092.09
633.04	1091.39
633.38	1089.99
633.73	1085.54
634.07	1090.22
634.42	1083.67
634.76	1074.07
635.11	1083.90
635.45	1083.67
635.79	1084.14
636.14	1083.67
636.48	1096.31
636.83	1086.24
637.17	1082.26
637.52	1082.26
637.86	1082.03
638.21	1088.35
638.55	1085.77
638.89	1084.60
639.24	1078.99
639.58	1078.99
639.93	1071.03
640.27	1071.50
640.61	1068.45
640.96	1071.50
641.30	1062.14
641.65	1067.05
641.99	1075.48
642.33	1074.07
642.68	1072.90
643.02	1084.14
643.37	1084.84
643.71	1077.82
644.05	1082.97
644.40	1085.07
644.74	1082.50
645.08	1073.84
645.43	1076.88
645.77	1069.16
646.11	1076.41
646.46	1080.39
646.80	1083.43
647.14	1078.05
647.49	1080.16
647.83	1067.75
648.17	1065.65
648.52	1063.31
648.86	1063.77
649.20	1061.67
649.55	1054.18
649.89	1049.73
650.23	1056.52
650.57	1061.20
650.92	1070.09
651.26	1079.69
651.60	1086.48
651.95	1086.24
652.29	1079.22
652.63	1082.73
652.97	1084.60
653.32	1079.22
653.66	1076.88
654.00	1081.80
654.34	1081.33
654.69	1079.46
655.03	1077.35
655.37	1080.39
655.71	1085.54
656.05	1085.54
656.40	1090.92
656.74	1094.43
657.08	1091.39
657.42	1093.50
657.76	1093.26
658.11	1086.94
658.45	1085.77
658.79	1080.86
659.13	1066.11
659.47	1068.69
659.82	1071.97
660.16	1072.20
660.50	1070.33
660.84	1070.56
661.18	1070.80
661.52	1067.52
661.87	1071.26
662.21	1076.41
662.55	1080.16
662.89	1072.43
663.23	1079.46
663.57	1074.54
663.91	1074.77
664.25	1082.26
664.60	1088.58
664.94	1089.05
665.28	1101.92
665.62	1096.78
665.96	1086.71
666.30	1085.07
666.64	1080.39
666.98	1067.05
667.32	1074.54
667.66	1077.58
668.01	1085.07
668.35	1084.60
668.69	1092.56
669.03	1095.14
669.37	1104.03
669.71	1099.58
670.05	1094.43
670.39	1084.84
670.73	1081.33
671.07	1083.43
671.41	1078.52
671.75	1081.33
672.09	1088.35
672.43	1088.58
672.77	1087.41
673.11	1084.14
673.45	1091.63
673.79	1098.18
674.13	1091.86
674.47	1082.26
674.81	1087.65
675.15	1083.43
675.49	1077.11
675.83	1073.84
676.17	1075.24
676.51	1070.33
676.85	1071.26
677.19	1073.37
677.53	1071.73
677.87	1066.11
678.21	1076.65
678.55	1080.86
678.89	1078.52
679.23	1079.46
679.57	1077.58
679.90	1067.99
680.24	1068.92
680.58	1074.07
680.92	1083.43
681.26	1074.31
681.60	1075.01
681.94	1064.94
682.28	1053.94
682.62	1064.94
682.96	1076.65
683.29	1075.94
683.63	1072.67
683.97	1076.41
684.31	1053.71
684.65	1064.94
684.99	1065.65
685.33	1067.05
685.67	1064.01
686.00	1072.20
686.34	1065.65
686.68	1077.35
687.02	1087.65
687.36	1087.18
687.70	1093.26
688.03	1095.60
688.37	1085.54
688.71	1085.77
689.05	1087.65
689.39	1084.14
689.72	1086.71
690.06	1092.33
690.40	1090.46
690.74	1102.39
691.08	1110.12
691.41	1111.29
691.75	1099.12
692.09	1095.14
692.43	1085.54
692.76	1082.03
693.10	1081.33
693.44	1084.14
693.78	1078.75
694.11	1079.46
694.45	1073.14
694.79	1063.54
695.13	1071.50
695.46	1062.37
695.80	1063.77
696.14	1068.22
696.48	1081.09
696.81	1074.77
697.15	1090.69
697.49	1089.05
697.82	1090.69
698.16	1079.22
698.50	1087.18
698.83	1088.12
699.17	1086.48
699.51	1087.41
699.84	1093.73
700.18	1095.60
700.52	1084.60
700.85	1082.26
701.19	1082.73
701.53	1070.33
701.86	1058.86
702.20	1069.86
702.54	1065.18
702.87	1057.45
703.21	1057.92
703.55	1056.99
703.88	1051.13
704.22	1053.71
704.55	1052.07
704.89	1061.90
705.23	1069.39
705.56	1074.77
705.90	1078.05
706.23	1077.58
706.57	1072.67
706.91	1074.77
707.24	1067.99
707.58	1070.09
707.91	1069.62
708.25	1069.62
708.58	1066.11
708.92	1074.07
709.26	1078.99
709.59	1096.07
709.93	1101.92
710.26	1104.50
710.60	1105.90
710.93	1100.75
711.27	1091.16
711.60	1094.67
711.94	1088.58
712.27	1082.26
712.61	1086.01
712.94	1084.14
713.28	1075.24
713.61	1082.73
713.95	1082.97
714.28	1075.48
714.62	1076.18
714.95	1084.84
715.29	1079.92
715.62	1082.26
715.96	1083.20
716.29	1078.52
716.63	1061.90
716.96	1061.90
717.29	1064.71
717.63	1064.24
717.96	1065.41
718.30	1078.75
718.63	1073.84
718.97	1070.33
719.30	1074.07
719.63	1080.86
719.97	1081.33
720.30	1089.05
720.64	1088.12
720.97	1089.05
721.30	1068.45
721.64	1064.24
721.97	1059.79
722.31	1059.56
722.64	1061.90
722.97	1077.58
723.31	1086.71
723.64	1083.67
723.97	1081.33
724.31	1075.94
724.64	1076.41
724.98	1071.50
725.31	1077.82
725.64	1093.03
725.98	1102.39
726.31	1105.20
726.64	1098.65
726.97	1092.33
727.31	1080.39
727.64	1067.28
727.97	1063.31
728.31	1075.01
728.64	1078.05
728.97	1077.82
729.31	1083.43
729.64	1080.63
729.97	1071.97
730.30	1071.03
730.64	1072.20
730.97	1080.86
731.30	1079.92
731.63	1077.11
731.97	1071.50
732.30	1067.05
732.63	1047.86
732.96	1051.84
733.30	1059.56
733.63	1066.58
733.96	1058.62
734.29	1069.16
734.63	1061.20
734.96	1064.24
735.29	1060.96
735.62	1075.71
735.95	1074.77
736.29	1095.14
736.62	1095.84
736.95	1096.54
737.28	1105.20
737.61	1116.44
737.94	1101.92
738.28	1097.01
738.61	1099.12
738.94	1089.75
739.27	1067.28
739.60	1068.22
739.93	1066.11
740.27	1060.50
740.60	1055.35
740.93	1058.86
741.26	1068.45
741.59	1069.62
741.92	1068.69
742.25	1064.48
742.58	1074.77
742.91	1069.16
743.25	1066.35
743.58	1076.18
743.91	1087.88
744.24	1079.69
744.57	1079.69
744.90	1079.46
745.23	1077.82
745.56	1078.75
745.89	1079.46
746.22	1079.22
746.55	1074.07
746.88	1078.28
747.21	1064.94
747.54	1066.35
747.87	1065.65
748.20	1075.48
748.53	1068.45
748.87	1074.77
749.20	1084.37
749.53	1090.22
749.86	1078.75
750.19	1087.41
750.52	1087.88
750.85	1082.97
751.18	1081.33
751.51	1085.77
751.84	1079.69
752.16	1090.92
752.49	1094.90
752.82	1089.75
753.15	1091.39
753.48	1090.46
753.81	1078.05
754.14	1073.84
754.47	1075.94
754.80	1086.48
755.13	1094.43
755.46	1093.97
755.79	1097.48
756.12	1094.43
756.45	1081.33
756.78	1078.99
757.11	1087.65
757.43	1079.22
757.76	1075.71
758.09	1088.12
758.42	1072.90
758.75	1064.01
759.08	1062.84
759.41	1062.84
759.74	1050.90
760.07	1058.86
760.39	1065.41
760.72	1067.99
761.05	1068.45
761.38	1072.43
761.71	1073.37
762.04	1075.48
762.36	1075.71
762.69	1081.80
763.02	1082.26
763.35	1084.14
763.68	1084.37
764.01	1078.52
764.33	1069.39
764.66	1069.16
764.99	1068.69
765.32	1053.01
765.65	1069.16
765.97	1073.60
766.30	1073.60
