SpectraSuite Data File
++++++++++++++++++++++++++++++++++++
Date: Mon Aug 26 10:24:33 PDT 2019
User: corrico
Dark Spectrum Present: No
Reference Spectrum Present: No
Number of Sampled Component Spectra: 1
Spectrometers: USB2+H06089
Integration Time (usec): 10000 (USB2+H06089)
Spectra Averaged: 2 (USB2+H06089)
Boxcar Smoothing: 2 (USB2+H06089)
Correct for Electrical Dark: No (USB2+H06089)
Strobe/Lamp Enabled: No (USB2+H06089)
Correct for Detector Non-linearity: No (USB2+H06089)
Correct for Stray Light: No (USB2+H06089)
Number of Pixels in Processed Spectrum: 2048
>>>>>Begin Processed Spectral Data<<<<<
339.70	1018.13
340.07	1018.13
340.45	995.66
340.82	970.85
341.19	942.77
341.57	931.07
341.94	915.85
342.31	904.38
342.69	899.94
343.06	902.51
343.43	885.66
343.81	891.51
344.18	890.81
344.55	901.11
344.93	903.68
345.30	913.51
345.67	906.72
346.04	918.89
346.42	926.38
346.79	943.24
347.16	957.28
347.54	967.81
347.91	978.81
348.28	998.94
348.65	1001.28
349.03	1001.98
349.40	1024.92
349.77	1033.11
350.14	1037.56
350.52	1047.39
350.89	1061.43
351.26	1065.65
351.63	1078.28
352.01	1076.88
352.38	1082.03
352.75	1086.24
353.12	1078.52
353.50	1068.45
353.87	1081.56
354.24	1081.33
354.61	1076.65
354.98	1078.05
355.36	1087.65
355.73	1078.05
356.10	1079.69
356.47	1078.99
356.84	1078.75
357.22	1071.73
357.59	1064.48
357.96	1060.96
358.33	1070.33
358.70	1076.41
359.08	1081.33
359.45	1084.37
359.82	1084.14
360.19	1084.84
360.56	1079.22
360.94	1069.16
361.31	1071.03
361.68	1068.45
362.05	1062.60
362.42	1069.62
362.79	1080.63
363.16	1067.52
363.54	1067.75
363.91	1062.84
364.28	1054.88
364.65	1047.39
365.02	1056.99
365.39	1058.39
365.76	1067.05
366.14	1072.43
366.51	1075.24
366.88	1077.11
367.25	1079.69
367.62	1079.69
367.99	1078.05
368.36	1080.39
368.73	1085.54
369.10	1096.07
369.48	1097.24
369.85	1104.03
370.22	1112.69
370.59	1100.29
370.96	1089.05
371.33	1078.28
371.70	1065.65
372.07	1061.67
372.44	1063.07
372.81	1063.31
373.18	1055.58
373.55	1066.11
373.93	1051.84
374.30	1055.58
374.67	1066.35
375.04	1090.69
375.41	1089.99
375.78	1099.58
376.15	1100.99
376.52	1092.56
376.89	1078.28
377.26	1077.58
377.63	1077.58
378.00	1079.22
378.37	1086.24
378.74	1085.54
379.11	1081.56
379.48	1087.41
379.85	1082.50
380.22	1075.24
380.59	1079.92
380.96	1085.54
381.33	1074.31
381.70	1079.22
382.07	1084.14
382.44	1093.73
382.81	1086.94
383.18	1087.18
383.55	1086.71
383.92	1081.09
384.29	1067.52
384.66	1065.88
385.03	1064.71
385.40	1066.11
385.77	1078.99
386.14	1087.41
386.51	1098.65
386.88	1116.90
387.25	1114.10
387.62	1096.07
387.99	1095.37
388.36	1084.14
388.73	1070.80
389.10	1078.05
389.46	1085.54
389.83	1082.50
390.20	1091.39
390.57	1089.05
390.94	1083.20
391.31	1086.01
391.68	1085.07
392.05	1073.60
392.42	1081.09
392.79	1082.50
393.16	1079.46
393.53	1086.01
393.89	1103.56
394.26	1100.05
394.63	1106.84
395.00	1110.35
395.37	1110.35
395.74	1104.73
396.11	1102.39
396.48	1097.71
396.84	1094.20
397.21	1092.80
397.58	1092.33
397.95	1097.71
398.32	1094.43
398.69	1092.56
399.06	1099.58
399.42	1097.95
399.79	1096.78
400.16	1099.12
400.53	1108.01
400.90	1098.65
401.27	1099.58
401.64	1100.05
402.00	1098.65
402.37	1091.86
402.74	1095.60
403.11	1100.75
403.48	1102.39
403.84	1111.05
404.21	1109.88
404.58	1115.97
404.95	1115.50
405.32	1125.56
405.68	1129.54
406.05	1140.78
406.42	1139.14
406.79	1149.91
407.16	1152.48
407.52	1166.29
407.89	1169.10
408.26	1181.03
408.63	1183.84
408.99	1187.35
409.36	1190.63
409.73	1202.57
410.10	1216.61
410.47	1227.14
410.83	1248.68
411.20	1260.38
411.57	1274.19
411.94	1282.85
412.30	1288.70
412.67	1305.32
413.04	1306.96
413.40	1324.74
413.77	1334.57
414.14	1363.83
414.51	1370.62
414.87	1411.81
415.24	1436.62
415.61	1464.47
415.97	1485.07
416.34	1526.73
416.71	1556.22
417.08	1590.63
417.44	1630.42
417.81	1689.16
418.18	1720.76
418.54	1743.70
418.91	1804.55
419.28	1855.81
419.64	1905.90
420.01	1962.07
420.38	2038.14
420.74	2092.67
421.11	2158.91
421.48	2216.49
421.84	2302.15
422.21	2376.58
422.58	2464.82
422.94	2554.93
423.31	2638.25
423.68	2729.30
424.04	2827.37
424.41	2901.09
424.77	2983.01
425.14	3088.34
425.51	3183.36
425.87	3303.90
426.24	3422.57
426.61	3555.51
426.97	3706.47
427.34	3842.22
427.70	4000.21
428.07	4148.60
428.44	4309.16
428.80	4468.78
429.17	4649.47
429.53	4788.50
429.90	4994.94
430.27	5182.65
430.63	5336.66
431.00	5523.90
431.36	5749.29
431.73	5932.09
432.09	6132.91
432.46	6362.51
432.83	6552.10
433.19	6729.51
433.56	6960.75
433.92	7187.08
434.29	7374.79
434.65	7586.85
435.02	7791.18
435.38	7932.08
435.75	8055.19
436.11	8214.81
436.48	8360.86
436.84	8500.83
437.21	8637.28
437.57	8762.73
437.94	8881.86
438.30	8942.48
438.67	8997.96
439.03	9037.98
439.40	9068.64
439.76	9022.77
440.13	8998.66
440.49	8916.97
440.86	8815.39
441.22	8698.13
441.59	8593.28
441.95	8492.17
442.32	8366.01
442.68	8241.03
443.05	8081.87
443.41	7912.42
443.78	7711.36
444.14	7512.89
444.51	7314.41
444.87	7151.51
445.24	6987.44
445.60	6835.30
445.96	6707.27
446.33	6573.39
446.69	6411.43
447.06	6262.34
447.42	6099.67
447.79	5931.85
448.15	5794.23
448.51	5666.67
448.88	5549.64
449.24	5402.66
449.61	5283.76
449.97	5160.88
450.33	5060.24
450.70	4909.98
451.06	4813.78
451.43	4693.48
451.79	4588.39
452.15	4477.91
452.52	4411.21
452.88	4317.59
453.24	4261.88
453.61	4180.66
453.97	4078.85
454.34	3992.49
454.70	3914.08
455.06	3813.20
455.43	3708.81
455.79	3598.34
456.15	3492.55
456.52	3413.91
456.88	3331.99
457.24	3259.43
457.61	3223.39
457.97	3159.96
458.33	3084.83
458.70	3015.08
459.06	2932.46
459.42	2849.13
459.79	2793.66
460.15	2738.89
460.51	2671.49
460.88	2631.23
461.24	2575.06
461.60	2514.20
461.96	2451.95
462.33	2416.84
462.69	2359.73
463.05	2319.47
463.42	2280.62
463.78	2238.25
464.14	2194.95
464.50	2173.89
464.87	2135.50
465.23	2100.40
465.59	2078.40
465.95	2045.39
466.32	2014.27
466.68	1987.11
467.04	1958.79
467.40	1923.22
467.77	1888.34
468.13	1857.92
468.49	1831.24
468.85	1820.23
469.22	1813.21
469.58	1811.57
469.94	1797.77
470.30	1776.47
470.66	1746.98
471.03	1727.55
471.39	1713.51
471.75	1682.14
472.11	1682.61
472.47	1668.57
472.84	1651.25
473.20	1630.42
473.56	1626.67
473.92	1600.69
474.28	1600.46
474.65	1586.42
475.01	1567.69
475.37	1549.43
475.73	1545.46
476.09	1515.03
476.45	1508.01
476.81	1505.20
477.18	1505.90
477.54	1495.37
477.90	1490.69
478.26	1479.69
478.62	1474.77
478.98	1467.28
479.34	1450.66
479.71	1446.45
480.07	1441.30
480.43	1426.32
480.79	1406.43
481.15	1405.73
481.51	1401.51
481.87	1379.75
482.23	1371.32
482.59	1360.55
482.96	1346.04
483.32	1333.87
483.68	1338.55
484.04	1337.85
484.40	1336.91
484.76	1338.08
485.12	1343.47
485.48	1339.02
485.84	1329.66
486.20	1331.76
486.56	1323.10
486.92	1311.64
487.28	1297.59
487.64	1287.76
488.00	1272.32
488.37	1277.46
488.73	1262.95
489.09	1265.53
489.45	1265.53
489.81	1266.70
490.17	1249.61
490.53	1248.44
490.89	1244.70
491.25	1239.08
491.61	1238.61
491.97	1226.67
492.33	1221.06
492.69	1214.04
493.05	1214.04
493.41	1201.87
493.77	1205.14
494.13	1203.27
494.49	1200.23
494.85	1185.72
495.21	1187.35
495.57	1190.40
495.93	1184.55
496.29	1177.52
496.64	1175.65
497.00	1161.14
497.36	1153.42
497.72	1162.78
498.08	1161.37
498.44	1167.93
498.80	1171.44
499.16	1169.33
499.52	1158.57
499.88	1157.63
500.24	1159.97
500.60	1168.40
500.96	1168.40
501.32	1171.91
501.68	1183.37
502.03	1176.12
502.39	1159.50
502.75	1168.40
503.11	1163.71
503.47	1160.67
503.83	1150.14
504.19	1154.59
504.55	1141.25
504.91	1140.07
505.26	1123.93
505.62	1125.56
505.98	1124.63
506.34	1127.90
506.70	1124.63
507.06	1122.99
507.42	1119.48
507.78	1117.14
508.13	1114.56
508.49	1101.92
508.85	1104.50
509.21	1110.82
509.57	1104.26
509.93	1096.31
510.28	1106.14
510.64	1104.50
511.00	1107.07
511.36	1121.35
511.72	1133.99
512.07	1133.29
512.43	1132.82
512.79	1121.58
513.15	1111.29
513.51	1095.84
513.86	1100.05
514.22	1107.31
514.58	1126.27
514.94	1140.78
515.30	1155.05
515.65	1151.08
516.01	1145.22
516.37	1132.12
516.73	1118.31
517.08	1114.80
517.44	1113.86
517.80	1113.16
518.16	1110.12
518.51	1105.90
518.87	1100.99
519.23	1098.18
519.59	1091.16
519.94	1088.82
520.30	1082.73
520.66	1086.48
521.01	1084.60
521.37	1097.01
521.73	1094.90
522.09	1102.63
522.44	1097.95
522.80	1103.09
523.16	1096.78
523.51	1103.33
523.87	1096.07
524.23	1103.56
524.58	1098.41
524.94	1095.84
525.30	1086.94
525.65	1094.43
526.01	1090.69
526.37	1091.86
526.72	1080.63
527.08	1090.69
527.44	1092.80
527.79	1091.39
528.15	1081.09
528.51	1089.75
528.86	1075.24
529.22	1070.09
529.58	1060.03
529.93	1074.07
530.29	1073.60
530.65	1076.41
531.00	1076.41
531.36	1086.01
531.71	1079.46
532.07	1082.50
532.43	1088.58
532.78	1089.52
533.14	1091.16
533.49	1093.50
533.85	1083.43
534.21	1089.75
534.56	1091.16
534.92	1085.07
535.27	1093.50
535.63	1104.73
535.98	1099.35
536.34	1098.88
536.69	1100.99
537.05	1095.14
537.41	1095.14
537.76	1084.84
538.12	1084.60
538.47	1090.46
538.83	1100.99
539.18	1094.20
539.54	1110.58
539.89	1107.78
540.25	1104.26
540.60	1092.33
540.96	1091.86
541.31	1086.71
541.67	1087.18
542.02	1080.63
542.38	1079.69
542.73	1089.75
543.09	1084.14
543.44	1080.16
543.80	1081.33
544.15	1074.54
544.51	1067.05
544.86	1069.86
545.22	1071.73
545.57	1070.09
545.93	1075.94
546.28	1080.63
546.64	1079.46
546.99	1089.52
547.35	1090.92
547.70	1099.58
548.05	1100.75
548.41	1108.71
548.76	1103.09
549.12	1102.16
549.47	1108.24
549.83	1119.48
550.18	1114.33
550.53	1109.18
550.89	1116.90
551.24	1097.95
551.60	1080.39
551.95	1075.71
552.30	1082.03
552.66	1075.48
553.01	1079.69
553.37	1088.82
553.72	1093.73
554.07	1085.07
554.43	1089.52
554.78	1087.88
555.13	1089.29
555.49	1090.22
555.84	1098.88
556.19	1099.35
556.55	1095.37
556.90	1089.99
557.26	1092.09
557.61	1086.94
557.96	1078.99
558.32	1085.54
558.67	1077.58
559.02	1072.90
559.37	1069.86
559.73	1066.35
560.08	1070.09
560.43	1071.50
560.79	1071.03
561.14	1073.14
561.49	1087.65
561.85	1077.82
562.20	1075.71
562.55	1075.01
562.90	1074.31
563.26	1075.94
563.61	1079.22
563.96	1083.43
564.32	1088.12
564.67	1087.65
565.02	1075.71
565.37	1078.52
565.73	1076.65
566.08	1061.67
566.43	1068.45
566.78	1072.20
567.14	1075.94
567.49	1081.09
567.84	1093.50
568.19	1097.95
568.54	1100.99
568.90	1083.90
569.25	1075.24
569.60	1082.73
569.95	1072.43
570.31	1066.58
570.66	1082.03
571.01	1088.12
571.36	1079.22
571.71	1088.82
572.06	1100.05
572.42	1096.07
572.77	1106.84
573.12	1117.37
573.47	1107.78
573.82	1096.07
574.18	1095.60
574.53	1084.84
574.88	1075.94
575.23	1078.75
575.58	1084.14
575.93	1089.52
576.28	1093.03
576.64	1093.73
576.99	1098.88
577.34	1094.90
577.69	1097.71
578.04	1094.20
578.39	1092.80
578.74	1090.22
579.09	1093.26
579.44	1075.71
579.80	1076.18
580.15	1077.58
580.50	1079.46
580.85	1087.65
581.20	1094.90
581.55	1090.69
581.90	1090.92
582.25	1085.77
582.60	1071.97
582.95	1065.88
583.30	1074.31
583.65	1077.58
584.00	1083.90
584.35	1089.29
584.71	1104.97
585.06	1105.44
585.41	1103.56
585.76	1106.84
586.11	1108.71
586.46	1105.67
586.81	1104.97
587.16	1103.56
587.51	1097.71
587.86	1090.46
588.21	1090.92
588.56	1092.56
588.91	1083.20
589.26	1080.39
589.61	1084.14
589.96	1074.77
590.31	1070.80
590.66	1069.86
591.01	1069.16
591.36	1067.75
591.71	1085.07
592.06	1089.75
592.41	1094.43
592.76	1100.52
593.10	1092.33
593.45	1077.11
593.80	1071.50
594.15	1076.18
594.50	1075.24
594.85	1086.24
595.20	1089.29
595.55	1078.05
595.90	1077.82
596.25	1070.33
596.60	1066.82
596.95	1078.28
597.30	1085.54
597.64	1133.52
597.99	1139.84
598.34	1140.54
598.69	1129.54
599.04	1134.22
599.39	1082.26
599.74	1086.71
600.09	1087.88
600.44	1088.82
600.78	1089.99
601.13	1101.46
601.48	1097.24
601.83	1099.35
602.18	1103.33
602.53	1103.09
602.88	1092.09
603.22	1086.94
603.57	1087.18
603.92	1073.84
604.27	1071.97
604.62	1076.65
604.97	1076.65
605.31	1076.18
605.66	1083.20
606.01	1080.86
606.36	1078.99
606.71	1071.50
607.05	1071.50
607.40	1067.05
607.75	1069.16
608.10	1062.37
608.44	1074.77
608.79	1069.62
609.14	1079.22
609.49	1083.20
609.84	1100.05
610.18	1094.20
610.53	1106.14
610.88	1114.10
611.23	1115.03
611.57	1118.78
611.92	1128.37
612.27	1117.37
612.62	1107.07
612.96	1108.48
613.31	1094.90
613.66	1094.90
614.00	1103.09
614.35	1112.46
614.70	1094.90
615.05	1094.90
615.39	1082.03
615.74	1075.71
616.09	1061.43
616.43	1080.86
616.78	1074.31
617.13	1084.60
617.47	1088.35
617.82	1098.65
618.17	1096.78
618.51	1098.88
618.86	1095.37
619.21	1090.46
619.55	1088.82
619.90	1082.97
620.25	1084.37
620.59	1093.03
620.94	1101.22
621.29	1098.65
621.63	1095.84
621.98	1098.65
622.32	1091.86
622.67	1091.16
623.02	1094.20
623.36	1097.48
623.71	1095.84
624.05	1089.52
624.40	1086.94
624.75	1083.90
625.09	1085.77
625.44	1087.18
625.78	1088.12
626.13	1090.22
626.48	1091.16
626.82	1097.48
627.17	1105.67
627.51	1102.16
627.86	1092.09
628.20	1083.43
628.55	1069.86
628.89	1067.28
629.24	1082.73
629.58	1096.07
629.93	1106.84
630.28	1113.16
630.62	1107.78
630.97	1099.58
631.31	1094.43
631.66	1085.07
632.00	1083.43
632.35	1085.54
632.69	1076.88
633.04	1075.71
633.38	1080.86
633.73	1074.07
634.07	1071.73
634.42	1075.01
634.76	1065.41
635.11	1064.48
635.45	1066.11
635.79	1069.39
636.14	1075.48
636.48	1086.94
636.83	1094.67
637.17	1106.37
637.52	1093.26
637.86	1099.58
638.21	1092.56
638.55	1081.33
638.89	1079.69
639.24	1087.41
639.58	1076.18
639.93	1082.73
640.27	1084.37
640.61	1087.65
640.96	1091.16
641.30	1096.54
641.65	1086.71
641.99	1086.48
642.33	1079.22
642.68	1078.28
643.02	1078.52
643.37	1085.31
643.71	1084.37
644.05	1090.69
644.40	1100.75
644.74	1095.37
645.08	1087.18
645.43	1085.54
645.77	1085.31
646.11	1078.05
646.46	1079.22
646.80	1085.77
647.14	1092.33
647.49	1083.67
647.83	1085.77
648.17	1089.75
648.52	1083.90
648.86	1081.56
649.20	1086.01
649.55	1076.65
649.89	1069.16
650.23	1078.05
650.57	1081.09
650.92	1074.54
651.26	1076.18
651.60	1076.65
651.95	1063.54
652.29	1064.24
652.63	1066.11
652.97	1069.16
653.32	1073.84
653.66	1085.77
654.00	1079.69
654.34	1084.60
654.69	1081.80
655.03	1075.71
655.37	1068.22
655.71	1069.62
656.05	1074.07
656.40	1074.77
656.74	1078.99
657.08	1086.48
657.42	1080.86
657.76	1075.24
658.11	1082.03
658.45	1080.86
658.79	1070.33
659.13	1081.33
659.47	1082.50
659.82	1085.77
660.16	1079.46
660.50	1087.41
660.84	1088.35
661.18	1083.67
661.52	1071.50
661.87	1069.39
662.21	1066.82
662.55	1052.77
662.89	1053.94
663.23	1063.31
663.57	1075.24
663.91	1078.05
664.25	1097.95
664.60	1093.73
664.94	1093.26
665.28	1087.65
665.62	1094.90
665.96	1086.24
666.30	1090.69
666.64	1089.05
666.98	1097.01
667.32	1089.05
667.66	1087.65
668.01	1086.94
668.35	1091.86
668.69	1092.33
669.03	1098.65
669.37	1093.50
669.71	1092.56
670.05	1075.24
670.39	1065.18
670.73	1064.01
671.07	1071.26
671.41	1072.67
671.75	1074.77
672.09	1079.22
672.43	1077.35
672.77	1066.11
673.11	1067.75
673.45	1074.77
673.79	1075.01
674.13	1073.60
674.47	1077.35
674.81	1089.52
675.15	1084.37
675.49	1094.20
675.83	1093.50
676.17	1093.03
676.51	1075.01
676.85	1082.03
677.19	1068.22
677.53	1069.62
677.87	1069.39
678.21	1073.84
678.55	1065.65
678.89	1075.24
679.23	1074.77
679.57	1080.16
679.90	1081.80
680.24	1084.84
680.58	1082.50
680.92	1083.20
681.26	1085.07
681.60	1080.16
681.94	1082.97
682.28	1087.41
682.62	1077.35
682.96	1075.01
683.29	1071.73
683.63	1067.99
683.97	1053.94
684.31	1074.07
684.65	1075.71
684.99	1078.28
685.33	1089.05
685.67	1102.16
686.00	1086.71
686.34	1091.16
686.68	1089.29
687.02	1080.63
687.36	1069.86
687.70	1071.50
688.03	1060.73
688.37	1064.71
688.71	1066.35
689.05	1070.09
689.39	1069.39
689.72	1071.50
690.06	1066.82
690.40	1053.48
690.74	1049.50
691.08	1066.11
691.41	1066.11
691.75	1068.22
692.09	1080.16
692.43	1090.92
692.76	1078.05
693.10	1074.07
693.44	1082.26
693.78	1080.39
694.11	1079.92
694.45	1076.18
694.79	1090.69
695.13	1090.22
695.46	1084.14
695.80	1077.82
696.14	1074.07
696.48	1059.56
696.81	1056.05
697.15	1062.14
697.49	1064.24
697.82	1066.58
698.16	1081.09
698.50	1084.37
698.83	1085.54
699.17	1077.58
699.51	1076.41
699.84	1067.75
700.18	1066.58
700.52	1065.18
700.85	1076.65
701.19	1081.80
701.53	1086.94
701.86	1082.50
702.20	1090.22
702.54	1089.52
702.87	1082.97
703.21	1088.35
703.55	1091.39
703.88	1088.35
704.22	1081.80
704.55	1082.50
704.89	1075.94
705.23	1070.33
705.56	1062.60
705.90	1066.35
706.23	1071.73
706.57	1072.20
706.91	1084.37
707.24	1085.54
707.58	1081.56
707.91	1075.01
708.25	1074.54
708.58	1065.65
708.92	1078.28
709.26	1085.31
709.59	1091.39
709.93	1089.52
710.26	1090.22
710.60	1079.69
710.93	1078.28
711.27	1084.14
711.60	1077.82
711.94	1068.69
712.27	1071.50
712.61	1073.84
712.94	1067.75
713.28	1069.62
713.61	1080.63
713.95	1077.82
714.28	1075.01
714.62	1079.69
714.95	1093.03
715.29	1091.39
715.62	1094.43
715.96	1083.43
716.29	1083.20
716.63	1073.84
716.96	1078.28
717.29	1078.52
717.63	1096.31
717.96	1086.24
718.30	1085.31
718.63	1080.39
718.97	1072.90
719.30	1067.28
719.63	1077.35
719.97	1084.60
720.30	1090.46
720.64	1099.35
720.97	1095.37
721.30	1096.78
721.64	1090.69
721.97	1083.67
722.31	1087.18
722.64	1093.26
722.97	1093.73
723.31	1098.65
723.64	1097.95
723.97	1098.88
724.31	1103.09
724.64	1100.75
724.98	1100.05
725.31	1099.82
725.64	1095.14
725.98	1086.01
726.31	1076.41
726.64	1065.41
726.97	1064.71
727.31	1053.24
727.64	1047.39
727.97	1056.99
728.31	1062.60
728.64	1077.35
728.97	1085.07
729.31	1088.12
729.64	1082.50
729.97	1090.22
730.30	1075.01
730.64	1075.94
730.97	1068.45
731.30	1075.01
731.63	1056.99
731.97	1061.90
732.30	1063.77
732.63	1078.05
732.96	1072.67
733.30	1079.92
733.63	1076.65
733.96	1078.99
734.29	1080.16
734.63	1084.84
734.96	1092.80
735.29	1090.22
735.62	1080.63
735.95	1067.52
736.29	1063.31
736.62	1054.65
736.95	1058.39
737.28	1061.43
737.61	1073.84
737.94	1075.01
738.28	1089.05
738.61	1088.58
738.94	1090.69
739.27	1089.75
739.60	1086.94
739.93	1073.37
740.27	1071.26
740.60	1079.69
740.93	1077.82
741.26	1087.18
741.59	1089.29
741.92	1088.58
742.25	1074.77
742.58	1072.20
742.91	1067.28
743.25	1067.99
743.58	1077.11
743.91	1071.26
744.24	1069.62
744.57	1068.22
744.90	1070.33
745.23	1061.90
745.56	1076.18
745.89	1076.41
746.22	1069.39
746.55	1071.73
746.88	1077.35
747.21	1073.37
747.54	1079.69
747.87	1093.73
748.20	1096.54
748.53	1096.07
748.87	1103.56
749.20	1105.44
749.53	1101.46
749.86	1102.63
750.19	1101.22
750.52	1092.33
750.85	1087.18
751.18	1078.52
751.51	1065.41
751.84	1064.94
752.16	1064.24
752.49	1065.18
752.82	1069.16
753.15	1074.54
753.48	1074.77
753.81	1077.58
754.14	1070.33
754.47	1076.65
754.80	1084.60
755.13	1090.22
755.46	1097.71
755.79	1114.10
756.12	1107.54
756.45	1091.39
756.78	1078.75
757.11	1068.22
757.43	1057.45
757.76	1066.82
758.09	1087.18
758.42	1098.41
758.75	1104.50
759.08	1100.29
759.41	1092.56
759.74	1083.20
760.07	1083.43
760.39	1084.60
760.72	1100.05
761.05	1102.86
761.38	1088.12
761.71	1087.18
762.04	1077.35
762.36	1066.58
762.69	1060.50
763.02	1074.77
763.35	1068.69
763.68	1080.16
764.01	1080.39
764.33	1080.86
764.66	1079.92
764.99	1077.82
765.32	1076.65
765.65	1088.35
765.97	1096.54
766.30	1103.09
