SpectraSuite Data File
++++++++++++++++++++++++++++++++++++
Date: Mon Aug 26 10:24:33 PDT 2019
User: corrico
Dark Spectrum Present: No
Reference Spectrum Present: No
Number of Sampled Component Spectra: 1
Spectrometers: USB2+H06089
Integration Time (usec): 10000 (USB2+H06089)
Spectra Averaged: 2 (USB2+H06089)
Boxcar Smoothing: 2 (USB2+H06089)
Correct for Electrical Dark: No (USB2+H06089)
Strobe/Lamp Enabled: No (USB2+H06089)
Correct for Detector Non-linearity: No (USB2+H06089)
Correct for Stray Light: No (USB2+H06089)
Number of Pixels in Processed Spectrum: 2048
>>>>>Begin Processed Spectral Data<<<<<
339.70	1004.09
340.07	1004.09
340.45	974.37
340.82	955.64
341.19	941.60
341.57	919.60
341.94	904.85
342.31	900.87
342.69	905.79
343.06	901.57
343.43	896.19
343.81	894.55
344.18	893.62
344.55	882.15
344.93	884.25
345.30	900.64
345.67	909.77
346.04	928.96
346.42	946.04
346.79	952.13
347.16	957.05
347.54	961.96
347.91	958.92
348.28	972.02
348.65	987.71
349.03	1000.58
349.40	1015.32
349.77	1028.90
350.14	1027.50
350.52	1026.56
350.89	1023.52
351.26	1026.09
351.63	1030.54
352.01	1034.28
352.38	1034.75
352.75	1042.47
353.12	1050.67
353.50	1049.73
353.87	1057.45
354.24	1071.03
354.61	1075.71
354.98	1072.67
355.36	1075.24
355.73	1071.03
356.10	1070.33
356.47	1069.16
356.84	1069.62
357.22	1071.50
357.59	1076.65
357.96	1071.26
358.33	1072.67
358.70	1080.86
359.08	1078.99
359.45	1077.11
359.82	1075.24
360.19	1074.31
360.56	1067.28
360.94	1080.16
361.31	1083.67
361.68	1084.84
362.05	1075.48
362.42	1083.20
362.79	1070.33
363.16	1061.90
363.54	1063.31
363.91	1069.39
364.28	1065.41
364.65	1069.86
365.02	1077.58
365.39	1086.24
365.76	1089.52
366.14	1088.12
366.51	1095.60
366.88	1093.50
367.25	1081.09
367.62	1082.26
367.99	1085.77
368.36	1079.46
368.73	1088.82
369.10	1097.24
369.48	1099.58
369.85	1104.03
370.22	1098.18
370.59	1088.82
370.96	1077.82
371.33	1067.28
371.70	1053.48
372.07	1053.48
372.44	1057.45
372.81	1071.03
373.18	1069.16
373.55	1076.88
373.93	1077.35
374.30	1065.88
374.67	1057.69
375.04	1053.48
375.41	1055.11
375.78	1050.20
376.15	1064.71
376.52	1056.99
376.89	1072.67
377.26	1068.92
377.63	1079.22
378.00	1077.58
378.37	1085.54
378.74	1081.56
379.11	1081.33
379.48	1072.20
379.85	1067.05
380.22	1076.88
380.59	1078.05
380.96	1077.35
381.33	1085.31
381.70	1083.67
382.07	1074.31
382.44	1071.03
382.81	1071.50
383.18	1081.56
383.55	1087.65
383.92	1088.12
384.29	1094.20
384.66	1097.71
385.03	1083.20
385.40	1087.88
385.77	1097.71
386.14	1091.63
386.51	1093.73
386.88	1084.14
387.25	1072.43
387.62	1057.69
387.99	1060.96
388.36	1057.45
388.73	1076.18
389.10	1081.56
389.46	1091.63
389.83	1089.29
390.20	1082.03
390.57	1078.99
390.94	1064.48
391.31	1060.26
391.68	1067.99
392.05	1081.80
392.42	1078.52
392.79	1088.82
393.16	1094.43
393.53	1087.18
393.89	1081.80
394.26	1086.01
394.63	1088.35
395.00	1082.26
395.37	1083.43
395.74	1081.33
396.11	1075.48
396.48	1079.46
396.84	1087.18
397.21	1098.65
397.58	1103.80
397.95	1106.84
398.32	1108.95
398.69	1093.97
399.06	1086.01
399.42	1086.24
399.79	1094.43
400.16	1086.94
400.53	1101.22
400.90	1104.97
401.27	1105.67
401.64	1117.37
402.00	1122.99
402.37	1126.50
402.74	1126.73
403.11	1131.41
403.48	1120.88
403.84	1122.52
404.21	1113.39
404.58	1119.01
404.95	1115.03
405.32	1111.52
405.68	1113.63
406.05	1127.20
406.42	1127.90
406.79	1143.59
407.16	1152.25
407.52	1164.88
407.89	1174.95
408.26	1179.16
408.63	1174.95
408.99	1187.12
409.36	1195.78
409.73	1197.42
410.10	1211.23
410.47	1220.12
410.83	1233.23
411.20	1242.59
411.57	1258.04
411.94	1262.48
412.30	1277.70
412.67	1286.83
413.04	1306.49
413.40	1306.96
413.77	1334.57
414.14	1363.13
414.51	1384.89
414.87	1410.87
415.24	1451.60
415.61	1469.39
415.97	1502.62
416.34	1539.60
416.71	1563.01
417.08	1596.95
417.44	1638.14
417.81	1673.48
418.18	1706.48
418.54	1739.25
418.91	1795.89
419.28	1848.56
419.64	1887.17
420.01	1948.50
420.38	2020.58
420.74	2062.25
421.11	2124.27
421.48	2193.78
421.84	2241.30
422.21	2308.47
422.58	2406.30
422.94	2491.73
423.31	2576.70
423.68	2681.55
424.04	2775.88
424.41	2856.16
424.77	2954.69
425.14	3073.59
425.51	3174.94
425.87	3274.64
426.24	3383.01
426.61	3498.63
426.97	3648.90
427.34	3805.48
427.70	3984.76
428.07	4134.09
428.44	4331.16
428.80	4465.74
429.17	4617.88
429.53	4793.18
429.90	5010.62
430.27	5164.16
430.63	5341.80
431.00	5539.81
431.36	5736.65
431.73	5901.43
432.09	6096.86
432.46	6321.32
432.83	6505.75
433.19	6661.40
433.56	6865.03
433.92	7074.74
434.29	7271.11
434.65	7498.84
435.02	7721.19
435.38	7909.14
435.75	8044.66
436.11	8208.49
436.48	8370.69
436.84	8529.61
437.21	8672.15
437.57	8772.33
437.94	8832.71
438.30	8849.80
438.67	8851.44
439.03	8861.97
439.40	8901.53
439.76	8865.48
440.13	8847.22
440.49	8824.52
440.86	8710.30
441.22	8602.40
441.59	8520.02
441.95	8384.27
442.32	8218.79
442.68	8099.89
443.05	7956.18
443.41	7794.92
443.78	7598.08
444.14	7403.58
444.51	7203.93
444.87	7023.71
445.24	6866.66
445.60	6725.53
445.96	6580.88
446.33	6445.37
446.69	6293.23
447.06	6131.74
447.42	5989.90
447.79	5833.32
448.15	5723.08
448.51	5574.22
448.88	5430.51
449.24	5294.76
449.61	5190.84
449.97	5043.15
450.33	4933.62
450.70	4819.87
451.06	4707.99
451.43	4584.17
451.79	4486.81
452.15	4407.70
452.52	4308.46
452.88	4232.86
453.24	4160.54
453.61	4070.66
453.97	3956.21
454.34	3863.52
454.70	3781.14
455.06	3683.54
455.43	3594.59
455.79	3513.61
456.15	3444.10
456.52	3357.03
456.88	3299.45
457.24	3231.81
457.61	3158.55
457.97	3090.91
458.33	3026.78
458.70	2958.44
459.06	2888.69
459.42	2838.84
459.79	2759.02
460.15	2686.70
460.51	2618.83
460.88	2558.21
461.24	2505.08
461.60	2471.84
461.96	2435.33
462.33	2400.92
462.69	2368.39
463.05	2303.79
463.42	2269.15
463.78	2227.96
464.14	2174.83
464.50	2120.06
464.87	2103.21
465.23	2058.97
465.59	2030.18
465.95	1997.18
466.32	1974.01
466.68	1955.28
467.04	1927.43
467.40	1898.88
467.77	1877.81
468.13	1850.43
468.49	1820.94
468.85	1812.04
469.22	1797.06
469.58	1776.93
469.94	1773.89
470.30	1758.91
470.66	1739.49
471.03	1721.23
471.39	1713.27
471.75	1683.78
472.11	1662.72
472.47	1637.91
472.84	1627.14
473.20	1603.74
473.56	1599.05
473.92	1574.95
474.28	1556.69
474.65	1537.50
475.01	1534.46
475.37	1520.65
475.73	1517.84
476.09	1515.73
476.45	1501.69
476.81	1476.18
477.18	1456.98
477.54	1451.37
477.90	1437.79
478.26	1427.96
478.62	1433.81
478.98	1435.22
479.34	1432.88
479.71	1428.66
480.07	1422.34
480.43	1403.39
480.79	1396.83
481.15	1378.11
481.51	1363.83
481.87	1348.85
482.23	1347.91
482.59	1334.81
482.96	1338.79
483.32	1341.36
483.68	1350.26
484.04	1340.89
484.40	1341.83
484.76	1326.38
485.12	1315.62
485.48	1308.83
485.84	1304.61
486.20	1298.06
486.56	1298.53
486.92	1299.23
487.28	1283.32
487.64	1278.63
488.00	1269.51
488.37	1255.46
488.73	1252.42
489.09	1253.82
489.45	1256.40
489.81	1255.23
490.17	1252.89
490.53	1242.59
490.89	1240.72
491.25	1225.50
491.61	1207.48
491.97	1204.21
492.33	1197.89
492.69	1195.78
493.05	1198.59
493.41	1209.12
493.77	1208.42
494.13	1211.70
494.49	1193.44
494.85	1194.84
495.21	1188.06
495.57	1175.65
495.93	1178.46
496.29	1188.52
496.64	1177.52
497.00	1173.31
497.36	1180.57
497.72	1163.48
498.08	1155.99
498.44	1156.93
498.80	1150.37
499.16	1150.37
499.52	1151.31
499.88	1160.20
500.24	1155.29
500.60	1155.29
500.96	1151.31
501.32	1154.12
501.68	1136.10
502.03	1147.80
502.39	1148.03
502.75	1141.71
503.11	1133.99
503.47	1135.63
503.83	1126.03
504.19	1127.44
504.55	1131.18
504.91	1139.14
505.26	1138.20
505.62	1133.76
505.98	1119.95
506.34	1114.56
506.70	1108.48
507.06	1111.05
507.42	1112.46
507.78	1123.69
508.13	1122.75
508.49	1111.99
508.85	1108.24
509.21	1104.03
509.57	1107.07
509.93	1110.12
510.28	1118.07
510.64	1120.65
511.00	1116.67
511.36	1103.80
511.72	1095.60
512.07	1102.86
512.43	1098.65
512.79	1103.56
513.15	1115.50
513.51	1113.86
513.86	1108.48
514.22	1110.82
514.58	1110.82
514.94	1104.73
515.30	1111.99
515.65	1103.33
516.01	1099.58
516.37	1100.75
516.73	1104.73
517.08	1097.48
517.44	1104.73
517.80	1110.12
518.16	1107.54
518.51	1101.92
518.87	1106.84
519.23	1105.67
519.59	1103.56
519.94	1108.71
520.30	1104.50
520.66	1111.99
521.01	1112.46
521.37	1113.63
521.73	1103.80
522.09	1108.01
522.44	1100.99
522.80	1091.86
523.16	1089.99
523.51	1096.78
523.87	1097.71
524.23	1102.39
524.58	1104.97
524.94	1102.86
525.30	1099.82
525.65	1095.84
526.01	1095.37
526.37	1090.69
526.72	1093.50
527.08	1089.29
527.44	1099.82
527.79	1095.37
528.15	1109.65
528.51	1099.35
528.86	1097.71
529.22	1096.07
529.58	1095.14
529.93	1087.88
530.29	1094.43
530.65	1094.67
531.00	1088.12
531.36	1078.99
531.71	1078.05
532.07	1075.24
532.43	1079.69
532.78	1079.69
533.14	1078.05
533.49	1068.45
533.85	1072.90
534.21	1073.60
534.56	1084.14
534.92	1094.67
535.27	1105.44
535.63	1107.31
535.98	1104.73
536.34	1094.20
536.69	1091.86
537.05	1092.33
537.41	1087.18
537.76	1081.33
538.12	1085.77
538.47	1091.86
538.83	1100.52
539.18	1091.63
539.54	1104.03
539.89	1096.54
540.25	1092.80
540.60	1089.05
540.96	1100.52
541.31	1096.07
541.67	1110.82
542.02	1119.71
542.38	1108.71
542.73	1112.22
543.09	1109.18
543.44	1099.82
543.80	1090.46
544.15	1101.22
544.51	1094.43
544.86	1097.24
545.22	1093.50
545.57	1083.90
545.93	1081.56
546.28	1078.05
546.64	1081.56
546.99	1079.22
547.35	1087.65
547.70	1086.01
548.05	1098.41
548.41	1087.18
548.76	1088.82
549.12	1085.07
549.47	1084.60
549.83	1079.46
550.18	1091.63
550.53	1091.39
550.89	1103.09
551.24	1092.80
551.60	1092.80
551.95	1075.01
552.30	1081.33
552.66	1064.01
553.01	1071.97
553.37	1071.26
553.72	1079.92
554.07	1068.69
554.43	1074.07
554.78	1075.48
555.13	1078.99
555.49	1082.26
555.84	1082.73
556.19	1090.92
556.55	1087.18
556.90	1078.75
557.26	1076.18
557.61	1083.67
557.96	1078.75
558.32	1084.14
558.67	1089.29
559.02	1086.71
559.37	1089.52
559.73	1090.92
560.08	1098.18
560.43	1102.16
560.79	1105.90
561.14	1100.75
561.49	1099.12
561.85	1085.31
562.20	1082.26
562.55	1080.16
562.90	1083.67
563.26	1084.14
563.61	1082.73
563.96	1080.16
564.32	1080.63
564.67	1071.03
565.02	1064.01
565.37	1071.97
565.73	1081.33
566.08	1090.22
566.43	1104.50
566.78	1112.92
567.14	1115.97
567.49	1110.82
567.84	1102.63
568.19	1104.03
568.54	1090.22
568.90	1085.31
569.25	1086.24
569.60	1090.46
569.95	1082.50
570.31	1101.69
570.66	1107.31
571.01	1101.46
571.36	1095.84
571.71	1093.50
572.06	1098.88
572.42	1092.56
572.77	1100.05
573.12	1108.48
573.47	1108.95
573.82	1104.03
574.18	1111.52
574.53	1100.05
574.88	1094.20
575.23	1093.26
575.58	1079.69
575.93	1072.67
576.28	1082.50
576.64	1087.65
576.99	1079.92
577.34	1085.54
577.69	1083.20
578.04	1075.71
578.39	1068.69
578.74	1070.33
579.09	1068.22
579.44	1074.07
579.80	1067.28
580.15	1072.20
580.50	1080.63
580.85	1081.09
581.20	1075.71
581.55	1083.67
581.90	1078.75
582.25	1080.39
582.60	1077.58
582.95	1076.41
583.30	1087.18
583.65	1094.67
584.00	1096.78
584.35	1104.03
584.71	1108.01
585.06	1095.14
585.41	1086.01
585.76	1088.35
586.11	1084.14
586.46	1085.07
586.81	1074.77
587.16	1079.22
587.51	1069.86
587.86	1072.20
588.21	1071.26
588.56	1091.39
588.91	1089.05
589.26	1089.05
589.61	1093.73
589.96	1097.01
590.31	1084.60
590.66	1089.29
591.01	1091.63
591.36	1081.33
591.71	1075.48
592.06	1084.60
592.41	1071.73
592.76	1073.37
593.10	1086.94
593.45	1087.88
593.80	1085.31
594.15	1085.07
594.50	1087.41
594.85	1067.75
595.20	1064.01
595.55	1061.90
595.90	1073.84
596.25	1074.07
596.60	1087.65
596.95	1095.84
597.30	1092.56
597.64	1134.46
597.99	1136.10
598.34	1132.82
598.69	1123.69
599.04	1121.82
599.39	1075.71
599.74	1073.84
600.09	1073.37
600.44	1076.88
600.78	1081.33
601.13	1084.84
601.48	1082.73
601.83	1085.77
602.18	1093.97
602.53	1103.56
602.88	1099.58
603.22	1090.46
603.57	1081.33
603.92	1082.03
604.27	1071.97
604.62	1064.48
604.97	1072.20
605.31	1082.26
605.66	1076.41
606.01	1078.28
606.36	1093.03
606.71	1093.73
607.05	1095.37
607.40	1097.71
607.75	1100.52
608.10	1091.16
608.44	1092.56
608.79	1092.33
609.14	1094.43
609.49	1096.78
609.84	1102.16
610.18	1105.90
610.53	1093.26
610.88	1088.35
611.23	1078.75
611.57	1086.71
611.92	1085.77
612.27	1095.60
612.62	1098.65
612.96	1103.33
613.31	1096.07
613.66	1099.12
614.00	1100.75
614.35	1094.43
614.70	1097.24
615.05	1090.69
615.39	1083.43
615.74	1086.24
616.09	1090.22
616.43	1083.67
616.78	1086.24
617.13	1081.09
617.47	1077.82
617.82	1079.69
618.17	1085.77
618.51	1093.26
618.86	1100.99
619.21	1101.92
619.55	1096.78
619.90	1089.29
620.25	1089.52
620.59	1085.31
620.94	1079.92
621.29	1075.94
621.63	1078.28
621.98	1065.88
622.32	1074.31
622.67	1073.84
623.02	1078.28
623.36	1082.03
623.71	1093.97
624.05	1086.48
624.40	1081.09
624.75	1076.41
625.09	1073.37
625.44	1064.94
625.78	1061.67
626.13	1064.01
626.48	1071.26
626.82	1070.09
627.17	1067.52
627.51	1071.97
627.86	1076.18
628.20	1077.82
628.55	1073.60
628.89	1081.33
629.24	1076.18
629.58	1071.26
629.93	1068.22
630.28	1077.82
630.62	1070.56
630.97	1076.41
631.31	1085.77
631.66	1085.31
632.00	1089.05
632.35	1091.86
632.69	1085.54
633.04	1078.99
633.38	1078.05
633.73	1067.75
634.07	1063.77
634.42	1062.84
634.76	1065.41
635.11	1076.41
635.45	1076.88
635.79	1085.07
636.14	1091.63
636.48	1094.90
636.83	1086.94
637.17	1092.33
637.52	1094.90
637.86	1100.75
638.21	1092.33
638.55	1085.54
638.89	1079.69
639.24	1073.37
639.58	1067.05
639.93	1070.80
640.27	1078.75
640.61	1083.43
640.96	1086.71
641.30	1084.14
641.65	1077.58
641.99	1067.75
642.33	1068.22
642.68	1059.09
643.02	1064.71
643.37	1075.01
643.71	1080.39
644.05	1078.99
644.40	1084.60
644.74	1074.07
645.08	1073.84
645.43	1076.65
645.77	1080.39
646.11	1080.86
646.46	1088.58
646.80	1089.52
647.14	1082.73
647.49	1069.86
647.83	1070.56
648.17	1071.03
648.52	1084.14
648.86	1080.86
649.20	1084.84
649.55	1085.54
649.89	1080.86
650.23	1071.03
650.57	1082.03
650.92	1090.46
651.26	1097.95
651.60	1101.69
651.95	1097.24
652.29	1091.16
652.63	1083.90
652.97	1076.18
653.32	1076.65
653.66	1078.99
654.00	1085.54
654.34	1093.50
654.69	1101.46
655.03	1106.14
655.37	1108.01
655.71	1109.65
656.05	1103.33
656.40	1093.50
656.74	1082.97
657.08	1071.03
657.42	1064.94
657.76	1064.24
658.11	1064.48
658.45	1071.97
658.79	1088.12
659.13	1084.84
659.47	1086.94
659.82	1087.88
660.16	1090.22
660.50	1084.84
660.84	1089.99
661.18	1090.92
661.52	1092.33
661.87	1082.26
662.21	1078.99
662.55	1073.37
662.89	1071.03
663.23	1070.09
663.57	1079.46
663.91	1084.60
664.25	1097.71
664.60	1105.90
664.94	1103.56
665.28	1092.56
665.62	1083.43
665.96	1074.77
666.30	1069.39
666.64	1074.77
666.98	1079.69
667.32	1082.97
667.66	1078.05
668.01	1067.52
668.35	1059.33
668.69	1059.33
669.03	1051.84
669.37	1068.22
669.71	1084.60
670.05	1091.39
670.39	1094.20
670.73	1095.60
671.07	1082.73
671.41	1084.84
671.75	1085.31
672.09	1073.60
672.43	1076.88
672.77	1080.16
673.11	1067.28
673.45	1064.94
673.79	1067.28
674.13	1068.45
674.47	1067.52
674.81	1070.80
675.15	1058.39
675.49	1067.28
675.83	1074.77
676.17	1076.41
676.51	1087.65
676.85	1099.82
677.19	1100.29
677.53	1094.20
677.87	1094.43
678.21	1082.03
678.55	1081.56
678.89	1087.65
679.23	1089.75
679.57	1092.56
679.90	1093.97
680.24	1096.07
680.58	1089.75
680.92	1087.88
681.26	1080.16
681.60	1077.11
681.94	1072.43
682.28	1072.20
682.62	1071.03
682.96	1075.01
683.29	1078.52
683.63	1082.97
683.97	1078.52
684.31	1081.56
684.65	1071.03
684.99	1075.94
685.33	1076.65
685.67	1083.20
686.00	1073.37
686.34	1079.69
686.68	1072.20
687.02	1071.73
687.36	1067.52
687.70	1066.58
688.03	1064.94
688.37	1074.07
688.71	1068.45
689.05	1068.69
689.39	1078.28
689.72	1076.88
690.06	1073.37
690.40	1075.94
690.74	1067.52
691.08	1067.99
691.41	1076.88
691.75	1078.99
692.09	1078.28
692.43	1092.09
692.76	1088.12
693.10	1081.56
693.44	1073.37
693.78	1081.33
694.11	1071.73
694.45	1071.03
694.79	1063.77
695.13	1068.69
695.46	1064.24
695.80	1068.69
696.14	1067.75
696.48	1083.43
696.81	1074.77
697.15	1067.28
697.49	1062.37
697.82	1062.60
698.16	1049.73
698.50	1060.26
698.83	1070.56
699.17	1075.71
699.51	1085.31
699.84	1092.56
700.18	1087.88
700.52	1089.52
700.85	1086.94
701.19	1085.77
701.53	1094.90
701.86	1088.58
702.20	1083.90
702.54	1080.86
702.87	1076.41
703.21	1067.99
703.55	1068.22
703.88	1066.58
704.22	1066.58
704.55	1060.26
704.89	1053.24
705.23	1066.35
705.56	1065.65
705.90	1076.41
706.23	1091.39
706.57	1103.33
706.91	1104.97
707.24	1105.67
707.58	1104.26
707.91	1101.46
708.25	1111.75
708.58	1110.35
708.92	1111.29
709.26	1108.24
709.59	1101.22
709.93	1085.07
710.26	1081.09
710.60	1079.69
710.93	1072.90
711.27	1075.94
711.60	1082.03
711.94	1084.14
712.27	1081.33
712.61	1088.35
712.94	1088.82
713.28	1079.69
713.61	1072.43
713.95	1067.99
714.28	1055.11
714.62	1044.58
714.95	1046.22
715.29	1058.39
715.62	1072.20
715.96	1080.63
716.29	1088.35
716.63	1094.90
716.96	1088.35
717.29	1082.73
717.63	1087.18
717.96	1083.20
718.30	1084.84
718.63	1082.26
718.97	1087.18
719.30	1086.48
719.63	1089.29
719.97	1073.84
720.30	1080.39
720.64	1069.62
720.97	1070.80
721.30	1072.20
721.64	1089.75
721.97	1082.97
722.31	1091.39
722.64	1086.71
722.97	1077.58
723.31	1070.09
723.64	1066.11
723.97	1059.79
724.31	1069.16
724.64	1079.69
724.98	1071.97
725.31	1078.28
725.64	1083.67
725.98	1083.43
726.31	1077.82
726.64	1083.67
726.97	1072.20
727.31	1065.65
727.64	1057.22
727.97	1064.94
728.31	1066.58
728.64	1071.97
728.97	1074.31
729.31	1077.82
729.64	1071.26
729.97	1067.28
730.30	1069.39
730.64	1072.67
730.97	1065.18
731.30	1076.18
731.63	1078.28
731.97	1080.39
732.30	1075.48
732.63	1071.50
732.96	1068.92
733.30	1074.54
733.63	1065.41
733.96	1058.39
734.29	1063.54
734.63	1053.48
734.96	1044.82
735.29	1060.73
735.62	1073.60
735.95	1080.16
736.29	1074.77
736.62	1078.75
736.95	1072.67
737.28	1069.16
737.61	1064.24
737.94	1074.31
738.28	1086.94
738.61	1082.03
738.94	1082.03
739.27	1082.03
739.60	1078.52
739.93	1065.41
740.27	1069.16
740.60	1074.07
740.93	1074.07
741.26	1073.14
741.59	1071.73
741.92	1065.88
742.25	1065.88
742.58	1067.05
742.91	1071.97
743.25	1076.18
743.58	1081.33
743.91	1071.50
744.24	1079.22
744.57	1072.67
744.90	1071.97
745.23	1074.31
745.56	1083.90
745.89	1077.58
746.22	1089.29
746.55	1085.77
746.88	1084.60
747.21	1089.05
747.54	1088.58
747.87	1090.22
748.20	1089.99
748.53	1085.07
748.87	1075.48
749.20	1075.01
749.53	1070.80
749.86	1075.94
750.19	1076.41
750.52	1071.97
750.85	1078.52
751.18	1076.65
751.51	1068.45
751.84	1075.71
752.16	1089.75
752.49	1085.07
752.82	1089.52
753.15	1089.05
753.48	1082.73
753.81	1085.07
754.14	1076.88
754.47	1073.14
754.80	1072.20
755.13	1082.50
755.46	1077.11
755.79	1078.75
756.12	1086.01
756.45	1093.03
756.78	1086.71
757.11	1086.94
757.43	1095.60
757.76	1089.75
758.09	1082.50
758.42	1082.50
758.75	1081.56
759.08	1082.50
759.41	1086.01
759.74	1088.82
760.07	1084.37
760.39	1079.46
760.72	1076.18
761.05	1074.31
761.38	1080.86
761.71	1086.94
762.04	1087.88
762.36	1087.88
762.69	1078.05
763.02	1075.48
763.35	1070.33
763.68	1073.14
764.01	1073.37
764.33	1073.84
764.66	1068.69
764.99	1069.62
765.32	1060.26
765.65	1065.18
765.97	1070.09
766.30	1078.52
