SpectraSuite Data File
++++++++++++++++++++++++++++++++++++
Date: Mon Aug 26 10:24:30 PDT 2019
User: corrico
Dark Spectrum Present: No
Reference Spectrum Present: No
Number of Sampled Component Spectra: 1
Spectrometers: USB2+H06089
Integration Time (usec): 10000 (USB2+H06089)
Spectra Averaged: 2 (USB2+H06089)
Boxcar Smoothing: 2 (USB2+H06089)
Correct for Electrical Dark: No (USB2+H06089)
Strobe/Lamp Enabled: No (USB2+H06089)
Correct for Detector Non-linearity: No (USB2+H06089)
Correct for Stray Light: No (USB2+H06089)
Number of Pixels in Processed Spectrum: 2048
>>>>>Begin Processed Spectral Data<<<<<
339.70	1019.30
340.07	1019.30
340.45	983.26
340.82	964.07
341.19	941.36
341.57	923.34
341.94	913.51
342.31	913.51
342.69	901.81
343.06	895.72
343.43	894.32
343.81	894.08
344.18	887.53
344.55	900.17
344.93	901.57
345.30	900.87
345.67	904.85
346.04	918.66
346.42	923.11
346.79	953.30
347.16	967.11
347.54	980.22
347.91	985.13
348.28	997.30
348.65	990.75
349.03	1002.22
349.40	1009.94
349.77	1016.73
350.14	1024.92
350.52	1038.96
350.89	1041.54
351.26	1057.45
351.63	1062.37
352.01	1064.48
352.38	1063.07
352.75	1060.50
353.12	1045.52
353.50	1052.77
353.87	1060.26
354.24	1064.01
354.61	1071.03
354.98	1079.92
355.36	1087.41
355.73	1086.48
356.10	1089.29
356.47	1086.94
356.84	1084.37
357.22	1082.73
357.59	1086.24
357.96	1091.63
358.33	1093.50
358.70	1100.99
359.08	1099.58
359.45	1089.75
359.82	1079.46
360.19	1086.94
360.56	1075.01
360.94	1070.33
361.31	1067.75
361.68	1069.16
362.05	1067.99
362.42	1073.84
362.79	1077.35
363.16	1081.56
363.54	1075.24
363.91	1073.14
364.28	1079.46
364.65	1082.03
365.02	1091.16
365.39	1096.54
365.76	1082.26
366.14	1079.22
366.51	1076.88
366.88	1063.07
367.25	1058.62
367.62	1068.69
367.99	1069.86
368.36	1059.09
368.73	1067.99
369.10	1066.58
369.48	1068.92
369.85	1067.99
370.22	1077.35
370.59	1070.56
370.96	1070.09
371.33	1061.67
371.70	1056.99
372.07	1054.18
372.44	1053.71
372.81	1059.33
373.18	1063.77
373.55	1066.35
373.93	1063.07
374.30	1069.16
374.67	1078.75
375.04	1078.05
375.41	1071.03
375.78	1075.71
376.15	1068.92
376.52	1059.79
376.89	1049.96
377.26	1065.88
377.63	1071.03
378.00	1076.65
378.37	1077.35
378.74	1091.16
379.11	1082.03
379.48	1074.31
379.85	1073.84
380.22	1070.33
380.59	1065.41
380.96	1070.80
381.33	1075.94
381.70	1073.84
382.07	1076.88
382.44	1075.94
382.81	1066.58
383.18	1064.24
383.55	1065.41
383.92	1060.26
384.29	1059.09
384.66	1060.03
385.03	1065.88
385.40	1062.14
385.77	1064.71
386.14	1067.99
386.51	1071.03
386.88	1053.24
387.25	1056.05
387.62	1059.79
387.99	1063.07
388.36	1061.20
388.73	1076.41
389.10	1085.54
389.46	1079.46
389.83	1073.84
390.20	1064.48
390.57	1058.39
390.94	1051.13
391.31	1056.52
391.68	1056.75
392.05	1074.07
392.42	1071.73
392.79	1071.73
393.16	1065.88
393.53	1072.90
393.89	1067.99
394.26	1077.82
394.63	1076.41
395.00	1080.63
395.37	1071.03
395.74	1071.50
396.11	1063.31
396.48	1060.73
396.84	1064.01
397.21	1072.67
397.58	1074.54
397.95	1071.03
398.32	1066.35
398.69	1056.52
399.06	1050.67
399.42	1048.79
399.79	1061.67
400.16	1062.60
400.53	1070.80
400.90	1071.26
401.27	1067.75
401.64	1066.35
402.00	1078.28
402.37	1081.09
402.74	1078.28
403.11	1091.16
403.48	1087.18
403.84	1075.01
404.21	1068.45
404.58	1069.16
404.95	1061.67
405.32	1052.77
405.68	1059.79
406.05	1058.62
406.42	1064.71
406.79	1061.43
407.16	1077.11
407.52	1077.11
407.89	1082.97
408.26	1082.50
408.63	1083.20
408.99	1073.37
409.36	1077.58
409.73	1076.41
410.10	1070.80
410.47	1074.54
410.83	1086.71
411.20	1076.88
411.57	1072.20
411.94	1076.88
412.30	1066.58
412.67	1055.58
413.04	1069.62
413.40	1082.73
413.77	1087.18
414.14	1093.97
414.51	1098.41
414.87	1090.69
415.24	1084.60
415.61	1094.20
415.97	1102.86
416.34	1111.52
416.71	1116.44
417.08	1121.12
417.44	1116.90
417.81	1111.99
418.18	1109.41
418.54	1108.01
418.91	1120.18
419.28	1127.44
419.64	1130.95
420.01	1147.10
420.38	1167.23
420.74	1175.42
421.11	1181.74
421.48	1204.67
421.84	1193.67
422.21	1182.20
422.58	1181.74
422.94	1180.80
423.31	1180.10
423.68	1199.76
424.04	1213.33
424.41	1215.21
424.77	1220.59
425.14	1236.27
425.51	1243.53
425.87	1255.46
426.24	1267.87
426.61	1288.00
426.97	1281.68
427.34	1294.78
427.70	1316.32
428.07	1332.47
428.44	1346.51
428.80	1376.24
429.17	1391.21
429.53	1404.56
429.90	1426.32
430.27	1450.43
430.63	1463.30
431.00	1473.13
431.36	1484.37
431.73	1493.03
432.09	1497.94
432.46	1515.50
432.83	1546.16
433.19	1570.73
433.56	1594.14
433.92	1602.33
434.29	1612.40
434.65	1620.59
435.02	1630.18
435.38	1635.33
435.75	1659.44
436.11	1680.97
436.48	1704.38
436.84	1728.49
437.21	1750.95
437.57	1760.79
437.94	1776.23
438.30	1773.89
438.67	1767.34
439.03	1767.10
439.40	1778.57
439.76	1769.68
440.13	1773.19
440.49	1778.10
440.86	1777.17
441.22	1762.89
441.59	1755.87
441.95	1748.38
442.32	1718.89
442.68	1704.38
443.05	1698.06
443.41	1694.08
443.78	1673.01
444.14	1676.06
444.51	1659.91
444.87	1646.80
445.24	1627.37
445.60	1616.14
445.96	1603.74
446.33	1588.29
446.69	1584.31
447.06	1573.31
447.42	1558.56
447.79	1547.56
448.15	1533.52
448.51	1505.43
448.88	1489.99
449.24	1486.94
449.61	1471.03
449.97	1462.60
450.33	1457.22
450.70	1443.88
451.06	1418.83
451.43	1407.13
451.79	1407.36
452.15	1397.53
452.52	1379.51
452.88	1382.09
453.24	1368.98
453.61	1349.55
453.97	1339.02
454.34	1345.34
454.70	1328.02
455.06	1331.06
455.43	1326.62
455.79	1308.36
456.15	1297.36
456.52	1288.23
456.88	1275.59
457.24	1278.63
457.61	1282.85
457.97	1273.72
458.33	1278.40
458.70	1271.61
459.06	1268.10
459.42	1254.29
459.79	1247.97
460.15	1237.68
460.51	1231.36
460.88	1211.46
461.24	1215.21
461.60	1214.74
461.96	1210.99
462.33	1199.52
462.69	1203.27
463.05	1185.95
463.42	1175.89
463.78	1169.57
464.14	1166.76
464.50	1158.80
464.87	1152.71
465.23	1155.05
465.59	1145.69
465.95	1152.48
466.32	1155.05
466.68	1169.33
467.04	1163.25
467.40	1176.12
467.77	1165.59
468.13	1153.88
468.49	1150.37
468.85	1148.50
469.22	1135.39
469.58	1137.50
469.94	1139.37
470.30	1130.71
470.66	1129.54
471.03	1129.78
471.39	1133.76
471.75	1132.12
472.11	1138.20
472.47	1130.95
472.84	1128.14
473.20	1116.67
473.56	1111.52
473.92	1101.46
474.28	1107.31
474.65	1100.99
475.01	1103.09
475.37	1104.97
475.73	1111.29
476.09	1110.35
476.45	1124.86
476.81	1122.05
477.18	1118.31
477.54	1109.88
477.90	1108.24
478.26	1100.99
478.62	1115.27
478.98	1124.63
479.34	1137.03
479.71	1137.27
480.07	1129.07
480.43	1120.41
480.79	1107.78
481.15	1095.60
481.51	1100.05
481.87	1102.39
482.23	1096.07
482.59	1098.18
482.96	1097.01
483.32	1084.37
483.68	1091.86
484.04	1089.05
484.40	1089.29
484.76	1091.16
485.12	1093.50
485.48	1087.41
485.84	1091.86
486.20	1092.56
486.56	1086.48
486.92	1097.48
487.28	1099.35
487.64	1104.73
488.00	1096.54
488.37	1104.50
488.73	1099.82
489.09	1096.54
489.45	1094.67
489.81	1102.86
490.17	1100.75
490.53	1105.44
490.89	1105.67
491.25	1099.58
491.61	1096.54
491.97	1096.54
492.33	1086.48
492.69	1096.54
493.05	1096.31
493.41	1101.22
493.77	1103.33
494.13	1108.24
494.49	1103.56
494.85	1091.86
495.21	1085.07
495.57	1084.37
495.93	1074.31
496.29	1069.16
496.64	1073.37
497.00	1078.75
497.36	1084.14
497.72	1089.29
498.08	1085.54
498.44	1101.46
498.80	1092.09
499.16	1089.99
499.52	1082.03
499.88	1084.14
500.24	1077.35
500.60	1079.22
500.96	1075.01
501.32	1093.26
501.68	1094.20
502.03	1092.80
502.39	1098.18
502.75	1101.46
503.11	1084.37
503.47	1082.97
503.83	1085.77
504.19	1080.86
504.55	1073.37
504.91	1076.18
505.26	1082.97
505.62	1073.60
505.98	1083.43
506.34	1085.31
506.70	1080.63
507.06	1076.18
507.42	1086.48
507.78	1078.05
508.13	1079.46
508.49	1093.97
508.85	1097.48
509.21	1086.24
509.57	1087.18
509.93	1089.05
510.28	1084.60
510.64	1082.97
511.00	1091.63
511.36	1085.77
511.72	1088.35
512.07	1082.50
512.43	1071.50
512.79	1062.84
513.15	1065.88
513.51	1064.94
513.86	1067.75
514.22	1070.09
514.58	1076.18
514.94	1085.54
515.30	1088.82
515.65	1090.22
516.01	1088.58
516.37	1078.52
516.73	1070.33
517.08	1067.52
517.44	1065.18
517.80	1066.82
518.16	1080.16
518.51	1081.09
518.87	1084.84
519.23	1088.58
519.59	1095.84
519.94	1087.41
520.30	1096.78
520.66	1091.63
521.01	1079.92
521.37	1067.99
521.73	1073.37
522.09	1059.09
522.44	1062.37
522.80	1071.97
523.16	1078.28
523.51	1075.01
523.87	1078.05
524.23	1069.39
524.58	1070.33
524.94	1073.14
525.30	1081.56
525.65	1080.86
526.01	1080.63
526.37	1077.11
526.72	1075.71
527.08	1074.77
527.44	1079.46
527.79	1085.07
528.15	1087.41
528.51	1081.09
528.86	1087.65
529.22	1083.67
529.58	1071.26
529.93	1074.54
530.29	1090.92
530.65	1085.54
531.00	1089.75
531.36	1090.46
531.71	1084.37
532.07	1068.45
532.43	1064.94
532.78	1065.18
533.14	1071.26
533.49	1076.41
533.85	1085.77
534.21	1089.75
534.56	1082.97
534.92	1083.67
535.27	1091.16
535.63	1080.63
535.98	1082.03
536.34	1083.90
536.69	1094.67
537.05	1085.54
537.41	1091.86
537.76	1076.18
538.12	1083.43
538.47	1069.16
538.83	1060.96
539.18	1064.71
539.54	1071.97
539.89	1070.33
540.25	1083.43
540.60	1086.01
540.96	1084.60
541.31	1086.48
541.67	1080.63
542.02	1078.05
542.38	1084.60
542.73	1078.52
543.09	1076.18
543.44	1077.82
543.80	1067.75
544.15	1064.71
544.51	1069.86
544.86	1077.35
545.22	1077.58
545.57	1085.07
545.93	1090.22
546.28	1085.31
546.64	1073.14
546.99	1082.50
547.35	1072.20
547.70	1063.31
548.05	1076.18
548.41	1079.69
548.76	1063.31
549.12	1069.16
549.47	1079.92
549.83	1074.07
550.18	1078.52
550.53	1084.60
550.89	1086.01
551.24	1082.97
551.60	1074.54
551.95	1070.56
552.30	1069.16
552.66	1072.90
553.01	1068.69
553.37	1076.65
553.72	1077.82
554.07	1075.24
554.43	1071.50
554.78	1083.20
555.13	1071.26
555.49	1073.84
555.84	1086.71
556.19	1091.86
556.55	1078.28
556.90	1083.43
557.26	1073.60
557.61	1063.07
557.96	1069.16
558.32	1067.75
558.67	1072.67
559.02	1084.60
559.37	1089.29
559.73	1077.11
560.08	1076.65
560.43	1072.67
560.79	1082.26
561.14	1085.77
561.49	1091.16
561.85	1097.01
562.20	1100.75
562.55	1087.88
562.90	1087.41
563.26	1083.67
563.61	1088.12
563.96	1085.54
564.32	1080.39
564.67	1074.07
565.02	1071.50
565.37	1068.92
565.73	1069.39
566.08	1081.09
566.43	1084.37
566.78	1088.35
567.14	1094.90
567.49	1097.01
567.84	1089.52
568.19	1094.67
568.54	1098.41
568.90	1089.52
569.25	1085.31
569.60	1082.03
569.95	1073.37
570.31	1070.56
570.66	1071.03
571.01	1071.97
571.36	1074.77
571.71	1079.69
572.06	1083.43
572.42	1084.60
572.77	1083.43
573.12	1087.65
573.47	1091.63
573.82	1089.99
574.18	1081.80
574.53	1090.22
574.88	1088.58
575.23	1080.86
575.58	1076.41
575.93	1071.97
576.28	1069.62
576.64	1061.90
576.99	1060.26
577.34	1065.88
577.69	1064.71
578.04	1065.88
578.39	1074.07
578.74	1077.82
579.09	1066.58
579.44	1081.09
579.80	1078.28
580.15	1080.39
580.50	1082.73
580.85	1085.31
581.20	1082.50
581.55	1082.50
581.90	1082.73
582.25	1077.11
582.60	1083.90
582.95	1085.77
583.30	1078.99
583.65	1080.63
584.00	1089.05
584.35	1087.41
584.71	1086.94
585.06	1085.77
585.41	1071.26
585.76	1071.73
586.11	1069.62
586.46	1074.77
586.81	1090.92
587.16	1104.26
587.51	1105.90
587.86	1105.20
588.21	1105.20
588.56	1097.48
588.91	1089.52
589.26	1074.77
589.61	1073.14
589.96	1063.31
590.31	1065.65
590.66	1071.73
591.01	1091.16
591.36	1090.92
591.71	1089.75
592.06	1089.75
592.41	1082.73
592.76	1074.31
593.10	1075.24
593.45	1085.31
593.80	1082.03
594.15	1092.56
594.50	1090.69
594.85	1091.39
595.20	1079.22
595.55	1082.50
595.90	1078.52
596.25	1085.54
596.60	1088.82
596.95	1088.35
597.30	1091.63
597.64	1134.93
597.99	1136.33
598.34	1135.39
598.69	1145.46
599.04	1138.67
599.39	1087.88
599.74	1080.39
600.09	1075.94
600.44	1081.80
600.78	1078.52
601.13	1081.33
601.48	1076.88
601.83	1084.37
602.18	1071.26
602.53	1077.35
602.88	1079.22
603.22	1089.05
603.57	1088.82
603.92	1100.52
604.27	1095.37
604.62	1098.65
604.97	1084.37
605.31	1077.35
605.66	1069.16
606.01	1074.07
606.36	1064.48
606.71	1071.50
607.05	1075.01
607.40	1073.14
607.75	1076.18
608.10	1086.94
608.44	1084.37
608.79	1079.22
609.14	1086.24
609.49	1083.43
609.84	1088.35
610.18	1086.24
610.53	1096.31
610.88	1097.48
611.23	1100.99
611.57	1095.14
611.92	1097.48
612.27	1097.71
612.62	1094.20
612.96	1088.12
613.31	1081.33
613.66	1082.97
614.00	1081.56
614.35	1084.60
614.70	1093.03
615.05	1100.05
615.39	1101.46
615.74	1103.80
616.09	1099.58
616.43	1096.54
616.78	1097.24
617.13	1092.80
617.47	1086.71
617.82	1087.88
618.17	1080.63
618.51	1081.80
618.86	1086.01
619.21	1082.03
619.55	1076.88
619.90	1075.94
620.25	1070.56
620.59	1060.03
620.94	1070.56
621.29	1078.28
621.63	1084.84
621.98	1094.20
622.32	1100.99
622.67	1093.50
623.02	1085.77
623.36	1086.94
623.71	1075.24
624.05	1075.24
624.40	1073.14
624.75	1069.62
625.09	1061.90
625.44	1065.65
625.78	1071.97
626.13	1074.07
626.48	1081.56
626.82	1087.18
627.17	1085.31
627.51	1089.99
627.86	1088.35
628.20	1084.14
628.55	1082.26
628.89	1079.22
629.24	1068.69
629.58	1065.41
629.93	1064.01
630.28	1067.75
630.62	1079.46
630.97	1085.31
631.31	1088.35
631.66	1097.95
632.00	1094.20
632.35	1078.99
632.69	1063.77
633.04	1064.48
633.38	1059.09
633.73	1063.77
634.07	1081.09
634.42	1095.14
634.76	1105.44
635.11	1099.82
635.45	1095.37
635.79	1085.07
636.14	1084.84
636.48	1078.99
636.83	1085.54
637.17	1076.41
637.52	1077.35
637.86	1082.03
638.21	1080.63
638.55	1088.58
638.89	1100.75
639.24	1099.58
639.58	1095.14
639.93	1091.16
640.27	1078.99
640.61	1072.43
640.96	1070.56
641.30	1070.33
641.65	1071.03
641.99	1079.46
642.33	1078.28
642.68	1083.43
643.02	1086.71
643.37	1088.82
643.71	1080.63
644.05	1080.39
644.40	1071.97
644.74	1064.01
645.08	1057.92
645.43	1055.11
645.77	1058.39
646.11	1062.14
646.46	1062.14
646.80	1065.41
647.14	1070.80
647.49	1066.35
647.83	1069.39
648.17	1076.41
648.52	1080.86
648.86	1087.18
649.20	1099.82
649.55	1099.82
649.89	1089.05
650.23	1090.46
650.57	1093.26
650.92	1089.05
651.26	1086.01
651.60	1086.24
651.95	1086.01
652.29	1075.24
652.63	1074.07
652.97	1084.84
653.32	1093.26
653.66	1082.03
654.00	1083.67
654.34	1085.07
654.69	1085.31
655.03	1090.92
655.37	1092.09
655.71	1100.75
656.05	1093.50
656.40	1080.39
656.74	1067.05
657.08	1075.01
657.42	1066.11
657.76	1070.33
658.11	1072.20
658.45	1071.26
658.79	1075.48
659.13	1081.56
659.47	1080.86
659.82	1072.90
660.16	1078.99
660.50	1071.73
660.84	1064.48
661.18	1074.77
661.52	1082.73
661.87	1083.20
662.21	1086.01
662.55	1091.16
662.89	1086.24
663.23	1087.18
663.57	1083.43
663.91	1082.73
664.25	1086.48
664.60	1081.09
664.94	1076.41
665.28	1076.18
665.62	1078.99
665.96	1075.94
666.30	1092.33
666.64	1092.56
666.98	1090.22
667.32	1082.03
667.66	1085.54
668.01	1066.11
668.35	1071.26
668.69	1070.09
669.03	1075.94
669.37	1075.94
669.71	1084.37
670.05	1082.50
670.39	1092.09
670.73	1088.58
671.07	1078.28
671.41	1068.45
671.75	1070.80
672.09	1064.71
672.43	1069.16
672.77	1075.48
673.11	1080.16
673.45	1088.58
673.79	1083.20
674.13	1083.43
674.47	1078.99
674.81	1080.86
675.15	1070.33
675.49	1072.67
675.83	1074.77
676.17	1067.52
676.51	1077.35
676.85	1087.41
677.19	1090.46
677.53	1087.88
677.87	1097.71
678.21	1085.07
678.55	1074.54
678.89	1078.28
679.23	1082.73
679.57	1086.71
679.90	1100.75
680.24	1094.43
680.58	1088.12
680.92	1082.97
681.26	1081.09
681.60	1070.80
681.94	1072.90
682.28	1070.56
682.62	1063.07
682.96	1049.03
683.29	1048.56
683.63	1053.48
683.97	1066.58
684.31	1074.77
684.65	1077.58
684.99	1076.41
685.33	1074.54
685.67	1070.33
686.00	1064.01
686.34	1067.05
686.68	1060.26
687.02	1055.35
687.36	1052.54
687.70	1046.22
688.03	1054.88
688.37	1059.56
688.71	1072.67
689.05	1067.52
689.39	1077.35
689.72	1061.90
690.06	1065.41
690.40	1066.82
690.74	1068.69
691.08	1067.28
691.41	1084.60
691.75	1083.43
692.09	1082.73
692.43	1084.60
692.76	1083.67
693.10	1078.99
693.44	1070.09
693.78	1065.41
694.11	1069.86
694.45	1076.65
694.79	1072.67
695.13	1077.58
695.46	1070.09
695.80	1068.69
696.14	1064.71
696.48	1064.48
696.81	1069.16
697.15	1067.99
697.49	1072.20
697.82	1072.43
698.16	1078.05
698.50	1073.60
698.83	1084.84
699.17	1072.20
699.51	1069.16
699.84	1058.39
700.18	1059.79
700.52	1058.16
700.85	1074.31
701.19	1079.22
701.53	1083.43
701.86	1095.37
702.20	1086.24
702.54	1075.01
702.87	1075.48
703.21	1071.73
703.55	1059.33
703.88	1063.31
704.22	1064.48
704.55	1054.88
704.89	1064.94
705.23	1058.39
705.56	1063.31
705.90	1070.80
706.23	1077.11
706.57	1069.62
706.91	1079.92
707.24	1074.07
707.58	1074.07
707.91	1084.84
708.25	1079.46
708.58	1072.67
708.92	1075.71
709.26	1076.88
709.59	1068.69
709.93	1084.14
710.26	1085.07
710.60	1079.92
710.93	1071.26
711.27	1071.26
711.60	1073.84
711.94	1075.24
712.27	1081.09
712.61	1076.65
712.94	1072.43
713.28	1063.31
713.61	1072.90
713.95	1069.86
714.28	1084.60
714.62	1087.88
714.95	1089.52
715.29	1075.01
715.62	1086.24
715.96	1082.73
716.29	1076.41
716.63	1071.73
716.96	1083.67
717.29	1072.20
717.63	1061.90
717.96	1075.94
718.30	1084.84
718.63	1085.31
718.97	1089.75
719.30	1093.97
719.63	1082.73
719.97	1078.99
720.30	1062.60
720.64	1061.43
720.97	1060.73
721.30	1059.33
721.64	1066.35
721.97	1085.07
722.31	1081.80
722.64	1089.75
722.97	1101.92
723.31	1088.58
723.64	1073.84
723.97	1079.46
724.31	1066.11
724.64	1060.03
724.98	1065.41
725.31	1074.77
725.64	1074.31
725.98	1081.09
726.31	1086.71
726.64	1087.65
726.97	1084.37
727.31	1075.71
727.64	1069.86
727.97	1062.60
728.31	1062.37
728.64	1068.45
728.97	1077.82
729.31	1076.18
729.64	1070.33
729.97	1070.56
730.30	1066.35
730.64	1059.56
730.97	1070.33
731.30	1073.60
731.63	1062.84
731.97	1062.37
732.30	1056.28
732.63	1049.03
732.96	1054.65
733.30	1075.48
733.63	1074.54
733.96	1089.29
734.29	1090.69
734.63	1088.12
734.96	1069.86
735.29	1067.75
735.62	1065.41
735.95	1067.28
736.29	1078.52
736.62	1077.35
736.95	1074.07
737.28	1075.01
737.61	1078.99
737.94	1058.16
738.28	1069.39
738.61	1069.16
738.94	1060.96
739.27	1061.43
739.60	1063.54
739.93	1057.69
740.27	1056.05
740.60	1057.22
740.93	1057.69
741.26	1069.62
741.59	1077.82
741.92	1089.99
742.25	1097.48
742.58	1101.22
742.91	1098.18
743.25	1090.92
743.58	1079.22
743.91	1075.48
744.24	1078.28
744.57	1075.71
744.90	1080.86
745.23	1099.12
745.56	1100.52
745.89	1079.92
746.22	1085.77
746.55	1086.94
746.88	1069.62
747.21	1062.37
747.54	1076.65
747.87	1068.22
748.20	1065.88
748.53	1070.33
748.87	1084.37
749.20	1084.14
749.53	1084.84
749.86	1083.43
750.19	1084.14
750.52	1074.31
750.85	1065.88
751.18	1066.11
751.51	1069.62
751.84	1070.56
752.16	1077.35
752.49	1082.26
752.82	1080.86
753.15	1067.99
753.48	1069.16
753.81	1065.41
754.14	1062.14
754.47	1067.99
754.80	1083.20
755.13	1078.52
755.46	1090.92
755.79	1098.18
756.12	1101.46
756.45	1094.20
756.78	1098.65
757.11	1087.65
757.43	1079.46
757.76	1080.86
758.09	1079.46
758.42	1086.48
758.75	1081.09
759.08	1079.22
759.41	1072.67
759.74	1075.01
760.07	1066.58
760.39	1066.35
760.72	1069.16
761.05	1061.43
761.38	1060.03
761.71	1068.69
762.04	1078.05
762.36	1082.73
762.69	1090.22
763.02	1095.84
763.35	1086.94
763.68	1079.22
764.01	1074.31
764.33	1075.71
764.66	1071.03
764.99	1073.84
765.32	1084.14
765.65	1087.88
765.97	1088.35
766.30	1085.54
