SpectraSuite Data File
++++++++++++++++++++++++++++++++++++
Date: Mon Aug 26 10:24:32 PDT 2019
User: corrico
Dark Spectrum Present: No
Reference Spectrum Present: No
Number of Sampled Component Spectra: 1
Spectrometers: USB2+H06089
Integration Time (usec): 10000 (USB2+H06089)
Spectra Averaged: 2 (USB2+H06089)
Boxcar Smoothing: 2 (USB2+H06089)
Correct for Electrical Dark: No (USB2+H06089)
Strobe/Lamp Enabled: No (USB2+H06089)
Correct for Detector Non-linearity: No (USB2+H06089)
Correct for Stray Light: No (USB2+H06089)
Number of Pixels in Processed Spectrum: 2048
>>>>>Begin Processed Spectral Data<<<<<
339.70	1019.30
340.07	1019.30
340.45	978.34
340.82	964.77
341.19	951.43
341.57	922.17
341.94	923.11
342.31	916.79
342.69	910.94
343.06	896.89
343.43	903.68
343.81	904.15
344.18	915.85
344.55	911.64
344.93	913.28
345.30	911.40
345.67	909.30
346.04	905.79
346.42	909.77
346.79	920.30
347.16	936.21
347.54	950.26
347.91	951.90
348.28	967.11
348.65	974.37
349.03	975.77
349.40	990.98
349.77	1009.00
350.14	1015.79
350.52	1031.94
350.89	1046.45
351.26	1045.28
351.63	1055.11
352.01	1061.90
352.38	1064.24
352.75	1069.86
353.12	1080.16
353.50	1077.82
353.87	1079.22
354.24	1077.35
354.61	1070.80
354.98	1068.69
355.36	1073.14
355.73	1066.35
356.10	1075.94
356.47	1074.07
356.84	1069.62
357.22	1080.86
357.59	1091.39
357.96	1084.14
358.33	1079.92
358.70	1088.82
359.08	1076.88
359.45	1074.77
359.82	1078.75
360.19	1088.12
360.56	1079.92
360.94	1074.07
361.31	1070.80
361.68	1062.84
362.05	1060.26
362.42	1061.20
362.79	1072.20
363.16	1077.58
363.54	1086.48
363.91	1080.86
364.28	1074.07
364.65	1071.03
365.02	1075.24
365.39	1078.28
365.76	1085.31
366.14	1093.03
366.51	1090.69
366.88	1085.07
367.25	1072.90
367.62	1073.14
367.99	1069.86
368.36	1068.69
368.73	1061.20
369.10	1071.03
369.48	1071.50
369.85	1081.09
370.22	1077.35
370.59	1078.52
370.96	1068.92
371.33	1068.45
371.70	1052.77
372.07	1057.22
372.44	1065.41
372.81	1066.11
373.18	1070.09
373.55	1074.77
373.93	1067.05
374.30	1061.90
374.67	1064.01
375.04	1057.45
375.41	1052.77
375.78	1053.71
376.15	1057.69
376.52	1051.84
376.89	1060.73
377.26	1069.86
377.63	1075.48
378.00	1071.97
378.37	1068.69
378.74	1060.96
379.11	1061.67
379.48	1059.79
379.85	1058.39
380.22	1074.07
380.59	1066.11
380.96	1063.54
381.33	1072.43
381.70	1073.14
382.07	1065.65
382.44	1078.52
382.81	1079.46
383.18	1074.31
383.55	1073.84
383.92	1076.18
384.29	1078.05
384.66	1078.75
385.03	1082.97
385.40	1080.86
385.77	1085.54
386.14	1079.69
386.51	1078.05
386.88	1064.94
387.25	1065.88
387.62	1058.16
387.99	1068.69
388.36	1074.07
388.73	1081.80
389.10	1087.18
389.46	1082.97
389.83	1072.43
390.20	1061.90
390.57	1060.50
390.94	1061.90
391.31	1060.50
391.68	1058.62
392.05	1066.58
392.42	1063.07
392.79	1050.43
393.16	1060.03
393.53	1064.01
393.89	1059.09
394.26	1065.18
394.63	1070.80
395.00	1074.31
395.37	1084.60
395.74	1085.54
396.11	1081.09
396.48	1085.54
396.84	1072.67
397.21	1054.88
397.58	1063.31
397.95	1065.88
398.32	1069.86
398.69	1066.58
399.06	1062.37
399.42	1047.62
399.79	1045.99
400.16	1037.79
400.53	1048.56
400.90	1062.84
401.27	1071.97
401.64	1064.24
402.00	1071.03
402.37	1067.52
402.74	1053.94
403.11	1046.69
403.48	1058.62
403.84	1060.03
404.21	1057.45
404.58	1069.86
404.95	1074.77
405.32	1068.22
405.68	1074.07
406.05	1086.94
406.42	1080.16
406.79	1081.09
407.16	1087.88
407.52	1078.75
407.89	1076.88
408.26	1079.69
408.63	1076.41
408.99	1079.69
409.36	1081.09
409.73	1076.41
410.10	1089.75
410.47	1101.22
410.83	1089.29
411.20	1083.67
411.57	1081.56
411.94	1077.82
412.30	1071.03
412.67	1082.97
413.04	1084.60
413.40	1084.84
413.77	1080.16
414.14	1076.18
414.51	1060.96
414.87	1052.30
415.24	1052.30
415.61	1057.22
415.97	1060.26
416.34	1074.07
416.71	1085.31
417.08	1084.14
417.44	1075.24
417.81	1082.03
418.18	1074.07
418.54	1071.73
418.91	1080.63
419.28	1087.41
419.64	1083.90
420.01	1088.12
420.38	1085.77
420.74	1086.48
421.11	1090.92
421.48	1092.09
421.84	1087.41
422.21	1089.52
422.58	1095.84
422.94	1097.24
423.31	1090.92
423.68	1102.16
424.04	1105.67
424.41	1096.78
424.77	1091.39
425.14	1099.35
425.51	1100.29
425.87	1108.71
426.24	1119.71
426.61	1115.50
426.97	1112.46
427.34	1113.86
427.70	1111.29
428.07	1104.26
428.44	1119.24
428.80	1139.14
429.17	1141.25
429.53	1143.35
429.90	1150.37
430.27	1151.08
430.63	1142.88
431.00	1146.63
431.36	1157.16
431.73	1153.42
432.09	1155.52
432.46	1155.05
432.83	1153.65
433.19	1154.82
433.56	1162.78
433.92	1159.27
434.29	1168.86
434.65	1176.59
435.02	1172.37
435.38	1164.88
435.75	1174.01
436.11	1179.86
436.48	1187.12
436.84	1193.67
437.21	1210.06
437.57	1208.89
437.94	1197.65
438.30	1193.21
438.67	1191.33
439.03	1190.40
439.40	1178.23
439.76	1181.97
440.13	1187.12
440.49	1190.63
440.86	1190.63
441.22	1202.57
441.59	1199.52
441.95	1188.52
442.32	1185.25
442.68	1173.78
443.05	1175.89
443.41	1177.29
443.78	1182.91
444.14	1176.59
444.51	1184.78
444.87	1190.63
445.24	1186.89
445.60	1178.23
445.96	1181.74
446.33	1186.42
446.69	1167.93
447.06	1166.29
447.42	1170.74
447.79	1167.23
448.15	1148.97
448.51	1148.97
448.88	1154.59
449.24	1151.31
449.61	1145.22
449.97	1149.91
450.33	1149.91
450.70	1145.46
451.06	1136.10
451.43	1144.52
451.79	1152.95
452.15	1161.37
452.52	1152.48
452.88	1161.14
453.24	1149.67
453.61	1137.73
453.97	1127.67
454.34	1131.18
454.70	1127.90
455.06	1134.69
455.43	1130.01
455.79	1134.93
456.15	1141.01
456.52	1143.82
456.88	1144.76
457.24	1144.52
457.61	1147.56
457.97	1144.76
458.33	1131.18
458.70	1117.37
459.06	1118.07
459.42	1101.92
459.79	1096.54
460.15	1097.71
460.51	1095.14
460.88	1092.09
461.24	1091.16
461.60	1085.54
461.96	1093.03
462.33	1096.31
462.69	1101.22
463.05	1103.56
463.42	1096.54
463.78	1093.26
464.14	1098.65
464.50	1086.94
464.87	1081.80
465.23	1089.29
465.59	1083.90
465.95	1083.67
466.32	1090.46
466.68	1105.44
467.04	1110.35
467.40	1106.84
467.77	1100.99
468.13	1107.07
468.49	1093.73
468.85	1080.16
469.22	1087.88
469.58	1088.12
469.94	1080.39
470.30	1084.14
470.66	1092.33
471.03	1086.24
471.39	1094.43
471.75	1100.99
472.11	1100.52
472.47	1099.35
472.84	1099.35
473.20	1086.48
473.56	1073.60
473.92	1069.39
474.28	1072.20
474.65	1071.97
475.01	1078.05
475.37	1073.60
475.73	1086.48
476.09	1087.18
476.45	1087.88
476.81	1098.41
477.18	1104.26
477.54	1091.39
477.90	1090.46
478.26	1087.18
478.62	1078.52
478.98	1087.88
479.34	1086.94
479.71	1093.73
480.07	1096.31
480.43	1095.14
480.79	1094.90
481.15	1099.82
481.51	1097.01
481.87	1088.12
482.23	1083.20
482.59	1077.82
482.96	1073.84
483.32	1067.52
483.68	1077.82
484.04	1079.69
484.40	1077.11
484.76	1069.86
485.12	1073.84
485.48	1073.37
485.84	1078.99
486.20	1088.82
486.56	1095.60
486.92	1091.39
487.28	1083.20
487.64	1084.84
488.00	1078.05
488.37	1086.48
488.73	1087.18
489.09	1093.26
489.45	1089.29
489.81	1093.26
490.17	1087.18
490.53	1088.12
490.89	1091.86
491.25	1096.78
491.61	1088.35
491.97	1091.63
492.33	1091.63
492.69	1091.16
493.05	1089.75
493.41	1099.35
493.77	1088.35
494.13	1087.88
494.49	1089.99
494.85	1078.05
495.21	1071.50
495.57	1072.67
495.93	1071.50
496.29	1067.05
496.64	1075.71
497.00	1067.52
497.36	1082.03
497.72	1077.58
498.08	1082.50
498.44	1075.01
498.80	1086.01
499.16	1080.63
499.52	1086.01
499.88	1071.97
500.24	1077.58
500.60	1072.43
500.96	1069.39
501.32	1066.35
501.68	1079.69
502.03	1082.26
502.39	1081.09
502.75	1085.31
503.11	1085.07
503.47	1088.82
503.83	1089.52
504.19	1083.90
504.55	1078.75
504.91	1077.58
505.26	1066.11
505.62	1054.65
505.98	1066.82
506.34	1064.24
506.70	1070.09
507.06	1078.28
507.42	1091.86
507.78	1090.92
508.13	1096.07
508.49	1095.14
508.85	1095.84
509.21	1084.60
509.57	1076.88
509.93	1080.86
510.28	1068.92
510.64	1064.71
511.00	1067.28
511.36	1077.82
511.72	1078.28
512.07	1089.29
512.43	1093.97
512.79	1111.29
513.15	1096.78
513.51	1083.20
513.86	1084.37
514.22	1081.09
514.58	1062.60
514.94	1075.24
515.30	1084.14
515.65	1081.33
516.01	1077.58
516.37	1082.03
516.73	1079.46
517.08	1077.35
517.44	1082.73
517.80	1083.90
518.16	1082.26
518.51	1090.92
518.87	1080.39
519.23	1080.63
519.59	1080.86
519.94	1077.58
520.30	1069.39
520.66	1078.75
521.01	1069.62
521.37	1076.18
521.73	1078.75
522.09	1078.28
522.44	1081.33
522.80	1088.82
523.16	1075.71
523.51	1077.35
523.87	1081.33
524.23	1077.82
524.58	1078.75
524.94	1088.12
525.30	1081.56
525.65	1072.90
526.01	1063.77
526.37	1056.99
526.72	1056.05
527.08	1063.07
527.44	1068.92
527.79	1076.18
528.15	1071.50
528.51	1067.75
528.86	1066.35
529.22	1064.71
529.58	1062.60
529.93	1075.48
530.29	1078.75
530.65	1079.46
531.00	1072.67
531.36	1080.63
531.71	1079.69
532.07	1082.26
532.43	1076.18
532.78	1085.77
533.14	1081.80
533.49	1077.11
533.85	1080.39
534.21	1079.22
534.56	1077.58
534.92	1079.92
535.27	1078.05
535.63	1077.35
535.98	1091.63
536.34	1088.12
536.69	1084.60
537.05	1081.09
537.41	1071.26
537.76	1056.28
538.12	1059.79
538.47	1064.24
538.83	1070.56
539.18	1084.14
539.54	1091.86
539.89	1089.75
540.25	1075.94
540.60	1068.22
540.96	1058.62
541.31	1054.41
541.67	1056.52
542.02	1067.99
542.38	1062.14
542.73	1062.60
543.09	1071.50
543.44	1080.86
543.80	1078.52
544.15	1082.97
544.51	1093.50
544.86	1086.01
545.22	1070.09
545.57	1079.22
545.93	1091.39
546.28	1079.92
546.64	1081.56
546.99	1097.48
547.35	1086.71
547.70	1088.12
548.05	1092.80
548.41	1104.26
548.76	1089.75
549.12	1096.07
549.47	1088.58
549.83	1088.58
550.18	1084.84
550.53	1093.03
550.89	1089.52
551.24	1089.52
551.60	1077.58
551.95	1076.88
552.30	1079.22
552.66	1076.88
553.01	1076.65
553.37	1089.99
553.72	1087.88
554.07	1084.60
554.43	1083.90
554.78	1088.12
555.13	1082.26
555.49	1075.94
555.84	1066.35
556.19	1077.58
556.55	1071.50
556.90	1071.73
557.26	1066.35
557.61	1080.63
557.96	1079.92
558.32	1088.12
558.67	1080.16
559.02	1081.80
559.37	1074.07
559.73	1069.39
560.08	1066.82
560.43	1074.07
560.79	1074.07
561.14	1074.77
561.49	1071.50
561.85	1071.73
562.20	1071.03
562.55	1071.97
562.90	1075.71
563.26	1087.41
563.61	1085.31
563.96	1090.69
564.32	1094.43
564.67	1090.92
565.02	1077.35
565.37	1080.39
565.73	1069.86
566.08	1072.67
566.43	1075.01
566.78	1080.86
567.14	1064.94
567.49	1071.97
567.84	1074.77
568.19	1070.80
568.54	1070.56
568.90	1087.18
569.25	1085.77
569.60	1075.94
569.95	1077.35
570.31	1077.82
570.66	1074.31
571.01	1070.33
571.36	1074.31
571.71	1073.84
572.06	1074.07
572.42	1071.73
572.77	1076.41
573.12	1077.11
573.47	1078.28
573.82	1071.97
574.18	1066.58
574.53	1070.80
574.88	1081.56
575.23	1084.14
575.58	1088.12
575.93	1100.75
576.28	1093.97
576.64	1091.63
576.99	1099.58
577.34	1096.78
577.69	1085.07
578.04	1084.37
578.39	1080.39
578.74	1064.48
579.09	1066.35
579.44	1083.67
579.80	1084.37
580.15	1078.28
580.50	1090.69
580.85	1091.16
581.20	1082.73
581.55	1085.54
581.90	1091.86
582.25	1075.71
582.60	1071.73
582.95	1068.45
583.30	1066.11
583.65	1072.43
584.00	1080.39
584.35	1087.65
584.71	1095.14
585.06	1104.26
585.41	1096.31
585.76	1101.92
586.11	1097.95
586.46	1090.92
586.81	1076.88
587.16	1061.43
587.51	1051.84
587.86	1057.92
588.21	1056.99
588.56	1063.77
588.91	1082.73
589.26	1084.60
589.61	1074.31
589.96	1080.39
590.31	1076.88
590.66	1072.43
591.01	1073.60
591.36	1075.01
591.71	1066.82
592.06	1068.22
592.41	1068.45
592.76	1068.69
593.10	1079.92
593.45	1087.88
593.80	1095.37
594.15	1092.80
594.50	1098.88
594.85	1102.16
595.20	1100.75
595.55	1091.39
595.90	1087.88
596.25	1092.56
596.60	1087.18
596.95	1082.73
597.30	1100.99
597.64	1153.88
597.99	1152.71
598.34	1146.39
598.69	1143.12
599.04	1125.10
599.39	1074.31
599.74	1059.09
600.09	1061.43
600.44	1068.45
600.78	1080.86
601.13	1077.11
601.48	1090.46
601.83	1087.88
602.18	1094.20
602.53	1086.94
602.88	1094.43
603.22	1084.14
603.57	1089.75
603.92	1081.56
604.27	1077.35
604.62	1085.07
604.97	1095.14
605.31	1099.12
605.66	1099.58
606.01	1100.29
606.36	1080.63
606.71	1070.80
607.05	1055.58
607.40	1057.22
607.75	1071.50
608.10	1080.16
608.44	1087.65
608.79	1093.26
609.14	1088.82
609.49	1074.07
609.84	1069.39
610.18	1066.58
610.53	1075.71
610.88	1087.41
611.23	1094.67
611.57	1101.22
611.92	1105.20
612.27	1109.18
612.62	1092.80
612.96	1089.99
613.31	1089.75
613.66	1080.16
614.00	1067.75
614.35	1084.84
614.70	1079.46
615.05	1074.77
615.39	1076.65
615.74	1086.94
616.09	1076.88
616.43	1086.48
616.78	1095.84
617.13	1096.78
617.47	1094.67
617.82	1092.33
618.17	1090.69
618.51	1096.07
618.86	1090.22
619.21	1089.75
619.55	1094.43
619.90	1089.99
620.25	1073.84
620.59	1079.92
620.94	1064.48
621.29	1057.92
621.63	1052.54
621.98	1060.03
622.32	1058.39
622.67	1062.84
623.02	1075.01
623.36	1087.18
623.71	1085.07
624.05	1088.82
624.40	1092.33
624.75	1089.29
625.09	1075.01
625.44	1076.41
625.78	1072.20
626.13	1066.82
626.48	1053.24
626.82	1068.22
627.17	1058.86
627.51	1062.37
627.86	1064.24
628.20	1071.26
628.55	1075.71
628.89	1087.65
629.24	1089.05
629.58	1084.37
629.93	1088.82
630.28	1076.18
630.62	1065.65
630.97	1066.82
631.31	1076.18
631.66	1078.52
632.00	1073.14
632.35	1087.18
632.69	1082.97
633.04	1091.39
633.38	1088.82
633.73	1092.56
634.07	1085.54
634.42	1084.60
634.76	1079.46
635.11	1073.84
635.45	1078.75
635.79	1077.82
636.14	1083.20
636.48	1076.18
636.83	1073.84
637.17	1077.58
637.52	1077.35
637.86	1077.58
638.21	1081.33
638.55	1086.01
638.89	1074.07
639.24	1075.94
639.58	1077.58
639.93	1070.09
640.27	1070.80
640.61	1077.11
640.96	1078.75
641.30	1067.05
641.65	1077.58
641.99	1072.67
642.33	1071.50
642.68	1075.48
643.02	1078.28
643.37	1075.71
643.71	1082.73
644.05	1086.48
644.40	1078.52
644.74	1080.63
645.08	1069.16
645.43	1067.52
645.77	1067.05
646.11	1078.52
646.46	1081.09
646.80	1089.05
647.14	1086.94
647.49	1086.24
647.83	1071.73
648.17	1077.82
648.52	1078.28
648.86	1080.86
649.20	1073.37
649.55	1077.35
649.89	1067.28
650.23	1073.84
650.57	1069.62
650.92	1078.52
651.26	1074.31
651.60	1070.80
651.95	1062.37
652.29	1066.58
652.63	1055.11
652.97	1055.35
653.32	1069.86
653.66	1075.01
654.00	1072.90
654.34	1082.03
654.69	1082.50
655.03	1076.18
655.37	1070.09
655.71	1066.82
656.05	1075.01
656.40	1069.16
656.74	1064.94
657.08	1071.26
657.42	1079.69
657.76	1082.97
658.11	1092.33
658.45	1091.63
658.79	1092.56
659.13	1089.52
659.47	1077.35
659.82	1078.28
660.16	1075.94
660.50	1072.20
660.84	1069.16
661.18	1068.22
661.52	1068.92
661.87	1070.33
662.21	1073.60
662.55	1073.37
662.89	1076.41
663.23	1076.88
663.57	1079.92
663.91	1082.73
664.25	1090.69
664.60	1095.84
664.94	1102.39
665.28	1105.44
665.62	1094.67
665.96	1090.46
666.30	1093.73
666.64	1088.58
666.98	1082.50
667.32	1087.41
667.66	1081.09
668.01	1071.97
668.35	1067.28
668.69	1084.60
669.03	1082.97
669.37	1090.92
669.71	1093.97
670.05	1098.65
670.39	1085.54
670.73	1096.07
671.07	1096.31
671.41	1091.63
671.75	1097.71
672.09	1109.18
672.43	1104.73
672.77	1095.84
673.11	1091.39
673.45	1080.86
673.79	1071.50
674.13	1071.03
674.47	1077.82
674.81	1080.63
675.15	1085.54
675.49	1080.86
675.83	1075.24
676.17	1077.35
676.51	1076.41
676.85	1080.63
677.19	1084.37
677.53	1093.73
677.87	1093.26
678.21	1100.75
678.55	1091.39
678.89	1094.67
679.23	1084.84
679.57	1082.03
679.90	1081.09
680.24	1080.16
680.58	1074.31
680.92	1085.77
681.26	1093.97
681.60	1086.94
681.94	1090.92
682.28	1089.29
682.62	1082.03
682.96	1072.20
683.29	1078.05
683.63	1082.03
683.97	1091.39
684.31	1091.16
684.65	1095.14
684.99	1093.03
685.33	1092.80
685.67	1093.73
686.00	1086.24
686.34	1076.88
686.68	1076.65
687.02	1077.58
687.36	1071.26
687.70	1084.14
688.03	1088.12
688.37	1092.80
688.71	1093.26
689.05	1099.58
689.39	1101.46
689.72	1100.05
690.06	1100.99
690.40	1091.16
690.74	1082.03
691.08	1069.39
691.41	1076.41
691.75	1065.88
692.09	1069.62
692.43	1070.80
692.76	1073.14
693.10	1075.71
693.44	1080.86
693.78	1087.65
694.11	1092.09
694.45	1092.09
694.79	1084.60
695.13	1084.84
695.46	1077.35
695.80	1073.14
696.14	1066.82
696.48	1064.01
696.81	1066.35
697.15	1072.20
697.49	1081.33
697.82	1095.14
698.16	1096.78
698.50	1098.18
698.83	1092.80
699.17	1084.14
699.51	1077.82
699.84	1080.16
700.18	1074.77
700.52	1071.26
700.85	1066.58
701.19	1062.37
701.53	1059.79
701.86	1068.92
702.20	1076.18
702.54	1073.14
702.87	1082.26
703.21	1080.16
703.55	1071.50
703.88	1064.48
704.22	1075.48
704.55	1080.16
704.89	1085.07
705.23	1087.65
705.56	1097.95
705.90	1095.14
706.23	1089.99
706.57	1075.24
706.91	1067.28
707.24	1067.52
707.58	1067.28
707.91	1065.41
708.25	1078.75
708.58	1078.99
708.92	1074.54
709.26	1071.50
709.59	1073.60
709.93	1089.75
710.26	1086.48
710.60	1082.50
710.93	1089.52
711.27	1086.71
711.60	1074.54
711.94	1082.50
712.27	1088.82
712.61	1086.24
712.94	1090.92
713.28	1084.14
713.61	1089.75
713.95	1085.77
714.28	1080.63
714.62	1071.03
714.95	1071.50
715.29	1063.54
715.62	1065.65
715.96	1071.26
716.29	1076.65
716.63	1081.33
716.96	1085.54
717.29	1084.37
717.63	1089.75
717.96	1086.24
718.30	1083.43
718.63	1081.56
718.97	1071.50
719.30	1064.24
719.63	1070.33
719.97	1072.90
720.30	1077.58
720.64	1087.88
720.97	1090.92
721.30	1081.33
721.64	1078.75
721.97	1074.54
722.31	1069.39
722.64	1064.71
722.97	1069.39
723.31	1066.35
723.64	1073.14
723.97	1071.03
724.31	1072.67
724.64	1067.28
724.98	1075.24
725.31	1057.92
725.64	1057.45
725.98	1050.43
726.31	1056.52
726.64	1056.05
726.97	1069.62
727.31	1075.24
727.64	1078.05
727.97	1080.16
728.31	1076.65
728.64	1070.09
728.97	1069.86
729.31	1070.56
729.64	1076.88
729.97	1079.69
730.30	1088.82
730.64	1092.33
730.97	1092.56
731.30	1079.22
731.63	1074.07
731.97	1060.26
732.30	1056.05
732.63	1060.96
732.96	1069.16
733.30	1070.56
733.63	1080.39
733.96	1089.52
734.29	1088.35
734.63	1092.33
734.96	1086.48
735.29	1084.60
735.62	1077.58
735.95	1077.11
736.29	1071.73
736.62	1079.22
736.95	1083.67
737.28	1089.99
737.61	1086.94
737.94	1081.09
738.28	1088.12
738.61	1080.86
738.94	1072.20
739.27	1083.20
739.60	1087.18
739.93	1077.82
740.27	1087.18
740.60	1078.52
740.93	1070.56
741.26	1072.90
741.59	1077.11
741.92	1073.60
742.25	1083.20
742.58	1079.92
742.91	1071.73
743.25	1072.90
743.58	1077.82
743.91	1086.24
744.24	1085.54
744.57	1090.69
744.90	1091.86
745.23	1083.90
745.56	1077.11
745.89	1078.28
746.22	1078.52
746.55	1075.24
746.88	1086.01
747.21	1086.24
747.54	1089.52
747.87	1090.69
748.20	1084.60
748.53	1068.92
748.87	1058.62
749.20	1061.20
749.53	1063.31
749.86	1066.58
750.19	1073.37
750.52	1085.31
750.85	1082.50
751.18	1084.14
751.51	1084.14
751.84	1085.07
752.16	1082.26
752.49	1085.77
752.82	1084.84
753.15	1092.80
753.48	1092.80
753.81	1095.37
754.14	1088.82
754.47	1082.73
754.80	1073.60
755.13	1072.90
755.46	1076.18
755.79	1076.65
756.12	1086.94
756.45	1093.50
756.78	1097.71
757.11	1093.97
757.43	1095.37
757.76	1083.90
758.09	1089.75
758.42	1088.35
758.75	1081.80
759.08	1075.01
759.41	1074.54
759.74	1067.99
760.07	1060.73
760.39	1056.05
760.72	1058.39
761.05	1063.07
761.38	1064.94
761.71	1064.24
762.04	1071.50
762.36	1074.07
762.69	1076.18
763.02	1074.77
763.35	1077.82
763.68	1076.65
764.01	1080.39
764.33	1078.52
764.66	1084.14
764.99	1085.77
765.32	1089.75
765.65	1082.97
765.97	1075.94
766.30	1063.31
