SpectraSuite Data File
++++++++++++++++++++++++++++++++++++
Date: Mon Aug 26 10:24:37 PDT 2019
User: corrico
Dark Spectrum Present: No
Reference Spectrum Present: No
Number of Sampled Component Spectra: 1
Spectrometers: USB2+H06089
Integration Time (usec): 10000 (USB2+H06089)
Spectra Averaged: 2 (USB2+H06089)
Boxcar Smoothing: 2 (USB2+H06089)
Correct for Electrical Dark: No (USB2+H06089)
Strobe/Lamp Enabled: No (USB2+H06089)
Correct for Detector Non-linearity: No (USB2+H06089)
Correct for Stray Light: No (USB2+H06089)
Number of Pixels in Processed Spectrum: 2048
>>>>>Begin Processed Spectral Data<<<<<
339.70	1015.79
340.07	1015.79
340.45	992.86
340.82	973.43
341.19	961.02
341.57	936.21
341.94	906.96
342.31	910.94
342.69	904.85
343.06	896.66
343.43	900.40
343.81	909.06
344.18	903.45
344.55	908.83
344.93	918.19
345.30	927.32
345.67	935.51
346.04	941.13
346.42	945.81
346.79	943.70
347.16	946.98
347.54	961.02
347.91	967.58
348.28	972.96
348.65	990.05
349.03	1003.86
349.40	1012.05
349.77	1027.50
350.14	1045.05
350.52	1051.13
350.89	1065.18
351.26	1072.67
351.63	1077.82
352.01	1076.18
352.38	1072.43
352.75	1076.65
353.12	1080.86
353.50	1089.75
353.87	1094.20
354.24	1105.90
354.61	1100.29
354.98	1100.75
355.36	1102.39
355.73	1115.27
356.10	1119.01
356.47	1126.73
356.84	1117.84
357.22	1108.24
357.59	1108.24
357.96	1099.82
358.33	1092.56
358.70	1099.82
359.08	1098.88
359.45	1086.48
359.82	1086.48
360.19	1080.39
360.56	1080.86
360.94	1085.07
361.31	1091.86
361.68	1096.54
362.05	1100.75
362.42	1101.22
362.79	1094.20
363.16	1096.54
363.54	1099.12
363.91	1098.65
364.28	1096.78
364.65	1105.90
365.02	1102.16
365.39	1096.54
365.76	1094.43
366.14	1093.03
366.51	1090.92
366.88	1092.80
367.25	1095.37
367.62	1097.95
367.99	1095.14
368.36	1094.90
368.73	1089.29
369.10	1085.77
369.48	1082.50
369.85	1084.14
370.22	1089.29
370.59	1100.99
370.96	1108.48
371.33	1110.12
371.70	1122.29
372.07	1116.67
372.44	1109.41
372.81	1104.73
373.18	1116.67
373.55	1113.86
373.93	1115.03
374.30	1112.92
374.67	1105.90
375.04	1089.52
375.41	1080.39
375.78	1080.86
376.15	1089.75
376.52	1100.75
376.89	1115.03
377.26	1113.86
377.63	1103.56
378.00	1093.26
378.37	1092.09
378.74	1083.67
379.11	1090.46
379.48	1101.22
379.85	1105.90
380.22	1104.03
380.59	1100.52
380.96	1101.22
381.33	1106.14
381.70	1107.31
382.07	1108.01
382.44	1111.99
382.81	1119.48
383.18	1113.39
383.55	1111.05
383.92	1112.22
384.29	1118.07
384.66	1113.63
385.03	1121.82
385.40	1115.03
385.77	1116.20
386.14	1113.63
386.51	1110.12
386.88	1106.14
387.25	1128.37
387.62	1132.59
387.99	1132.59
388.36	1135.86
388.73	1143.35
389.10	1137.27
389.46	1133.99
389.83	1137.50
390.20	1137.73
390.57	1131.18
390.94	1129.07
391.31	1138.44
391.68	1140.07
392.05	1144.99
392.42	1148.97
392.79	1139.84
393.16	1135.63
393.53	1136.10
393.89	1123.46
394.26	1117.61
394.63	1133.52
395.00	1131.41
395.37	1130.01
395.74	1136.56
396.11	1138.90
396.48	1122.75
396.84	1120.18
397.21	1120.88
397.58	1135.86
397.95	1144.76
398.32	1153.18
398.69	1161.84
399.06	1158.10
399.42	1163.48
399.79	1171.44
400.16	1178.93
400.53	1182.44
400.90	1197.42
401.27	1198.59
401.64	1207.72
402.00	1222.46
402.37	1237.44
402.74	1247.27
403.11	1245.63
403.48	1250.55
403.84	1265.06
404.21	1264.12
404.58	1276.29
404.95	1307.42
405.32	1329.19
405.68	1341.13
406.05	1361.26
406.42	1383.96
406.79	1398.47
407.16	1423.28
407.52	1453.71
407.89	1503.79
408.26	1535.39
408.63	1573.31
408.99	1603.74
409.36	1641.42
409.73	1665.29
410.10	1720.06
410.47	1759.61
410.83	1812.51
411.20	1871.02
411.57	1952.24
411.94	2024.33
412.30	2099.69
412.67	2184.19
413.04	2263.77
413.40	2349.43
413.77	2440.48
414.14	2570.14
414.51	2691.85
414.87	2835.32
415.24	2989.33
415.61	3148.96
415.97	3298.75
416.34	3467.50
416.71	3663.41
417.08	3859.78
417.44	4055.91
417.81	4297.46
418.18	4555.15
418.54	4806.99
418.91	5072.88
419.28	5386.27
419.64	5669.48
420.01	5977.73
420.38	6335.83
420.74	6697.44
421.11	7089.25
421.48	7488.31
421.84	7914.52
422.21	8341.67
422.58	8847.69
422.94	9344.82
423.31	9843.83
423.68	10407.66
424.04	11015.97
424.41	11585.18
424.77	12164.70
425.14	12847.43
425.51	13536.96
425.87	14293.42
426.24	15069.54
426.61	15982.58
426.97	16968.42
427.34	17885.91
427.70	18911.29
428.07	19947.45
428.44	21024.56
428.80	22059.78
429.17	23194.47
429.53	24255.67
429.90	25499.90
430.27	26587.32
430.63	27737.22
431.00	28996.66
431.36	30389.52
431.73	31674.94
432.09	33035.02
432.46	34382.24
432.83	35703.70
433.19	36893.86
433.56	38384.32
433.92	39957.16
434.29	41418.12
434.65	42891.02
435.02	44260.23
435.38	45439.86
435.75	46222.54
436.11	47453.89
436.48	48499.41
436.84	49563.65
437.21	50431.52
437.57	51569.96
437.94	52239.82
438.30	52836.89
438.67	53044.03
439.03	53219.80
439.40	53273.17
439.76	53173.23
440.13	53004.01
440.49	53055.97
440.86	52702.08
441.22	52256.67
441.59	51592.66
441.95	50887.23
442.32	49826.73
442.68	49122.93
443.05	48183.91
443.41	47311.82
443.78	46279.18
444.14	45438.46
444.51	44208.51
444.87	43345.32
445.24	42120.28
445.60	41011.80
445.96	39758.21
446.33	38755.76
446.69	37389.12
447.06	36511.19
447.42	35505.69
447.79	34496.45
448.15	33536.37
448.51	32672.94
448.88	31801.56
449.24	30764.00
449.61	30063.25
449.97	29252.48
450.33	28489.94
450.70	27539.45
451.06	26919.44
451.43	26098.14
451.79	25527.29
452.15	24982.18
452.52	24478.49
452.88	23912.08
453.24	23435.55
453.61	22804.31
453.97	22126.49
454.34	21502.50
454.70	20938.90
455.06	20330.13
455.43	19632.18
455.79	18890.00
456.15	18298.07
456.52	17611.60
456.88	17018.97
457.24	16475.03
457.61	16014.41
457.97	15474.45
458.33	14980.36
458.70	14420.04
459.06	13844.03
459.42	13361.88
459.79	12827.77
460.15	12363.18
460.51	11918.71
460.88	11545.16
461.24	11139.55
461.60	10807.66
461.96	10470.62
462.33	10153.24
462.69	9821.82
463.05	9510.77
463.42	9246.99
463.78	8936.17
464.14	8648.51
464.50	8401.12
464.87	8123.53
465.23	7824.41
465.59	7624.53
465.95	7442.20
466.32	7254.72
466.68	7095.57
467.04	6937.35
467.40	6762.04
467.77	6584.63
468.13	6370.70
468.49	6202.89
468.85	6056.84
469.22	5934.43
469.58	5778.31
469.94	5692.42
470.30	5590.84
470.66	5484.34
471.03	5351.63
471.39	5276.74
471.75	5162.75
472.11	5036.36
472.47	4923.08
472.84	4807.46
473.20	4678.03
473.56	4584.88
473.92	4466.21
474.28	4371.89
474.65	4296.29
475.01	4235.90
475.37	4122.85
475.73	4066.45
476.09	3976.10
476.45	3887.86
476.81	3790.26
477.18	3731.52
477.54	3651.00
477.90	3591.08
478.26	3513.61
478.62	3449.01
478.98	3380.67
479.34	3322.62
479.71	3263.41
480.07	3238.37
480.43	3189.45
480.79	3140.06
481.15	3095.36
481.51	3039.65
481.87	2979.74
482.23	2920.99
482.59	2896.88
482.96	2858.96
483.32	2818.00
483.68	2770.02
484.04	2740.30
484.40	2689.74
484.76	2644.10
485.12	2622.34
485.48	2585.36
485.84	2550.25
486.20	2503.67
486.56	2459.67
486.92	2420.58
487.28	2384.54
487.64	2342.64
488.00	2312.92
488.37	2291.85
488.73	2238.02
489.09	2218.36
489.45	2208.06
489.81	2170.14
490.17	2124.74
490.53	2100.40
490.89	2065.76
491.25	2019.88
491.61	1998.58
491.97	1978.92
492.33	1969.56
492.69	1951.54
493.05	1932.11
493.41	1912.92
493.77	1898.64
494.13	1864.24
494.49	1830.53
494.85	1798.70
495.21	1773.66
495.57	1753.53
495.93	1735.04
496.29	1719.36
496.64	1712.57
497.00	1687.76
497.36	1656.63
497.72	1654.29
498.08	1631.35
498.44	1612.16
498.80	1592.97
499.16	1589.93
499.52	1569.80
499.88	1558.56
500.24	1540.54
500.60	1530.24
500.96	1517.37
501.32	1510.58
501.68	1500.75
502.03	1502.86
502.39	1492.79
502.75	1486.94
503.11	1468.69
503.47	1459.79
503.83	1437.32
504.19	1432.41
504.55	1418.60
504.91	1400.58
505.26	1385.60
505.62	1367.34
505.98	1359.38
506.34	1355.17
506.70	1350.49
507.06	1340.89
507.42	1340.19
507.78	1332.94
508.13	1314.21
508.49	1311.40
508.85	1314.91
509.21	1310.23
509.57	1302.04
509.93	1289.40
510.28	1290.81
510.64	1274.66
511.00	1272.78
511.36	1269.51
511.72	1288.23
512.07	1282.38
512.43	1290.10
512.79	1283.78
513.15	1280.51
513.51	1252.89
513.86	1253.82
514.22	1250.78
514.58	1251.48
514.94	1247.27
515.30	1255.70
515.65	1241.65
516.01	1231.12
516.37	1226.91
516.73	1229.25
517.08	1221.99
517.44	1218.48
517.80	1225.27
518.16	1216.61
518.51	1204.21
518.87	1199.52
519.23	1202.33
519.59	1195.55
519.94	1201.16
520.30	1205.14
520.66	1208.18
521.01	1200.23
521.37	1196.72
521.73	1183.14
522.09	1185.01
522.44	1176.82
522.80	1180.10
523.16	1188.29
523.51	1197.89
523.87	1184.78
524.23	1178.23
524.58	1175.65
524.94	1165.59
525.30	1163.25
525.65	1165.82
526.01	1180.57
526.37	1180.33
526.72	1179.40
527.08	1171.44
527.44	1173.78
527.79	1159.50
528.15	1151.78
528.51	1150.37
528.86	1150.84
529.22	1157.16
529.58	1156.93
529.93	1166.29
530.29	1171.44
530.65	1173.54
531.00	1159.27
531.36	1159.03
531.71	1149.67
532.07	1144.52
532.43	1143.82
532.78	1143.82
533.14	1147.10
533.49	1153.18
533.85	1155.76
534.21	1157.39
534.56	1160.44
534.92	1150.14
535.27	1145.22
535.63	1142.65
535.98	1140.31
536.34	1139.14
536.69	1143.12
537.05	1144.29
537.41	1144.52
537.76	1142.18
538.12	1131.18
538.47	1130.71
538.83	1132.35
539.18	1126.27
539.54	1119.95
539.89	1122.99
540.25	1126.27
540.60	1116.67
540.96	1124.63
541.31	1126.50
541.67	1136.56
542.02	1145.69
542.38	1150.61
542.73	1142.42
543.09	1142.88
543.44	1149.91
543.80	1135.63
544.15	1140.07
544.51	1143.35
544.86	1149.44
545.22	1143.59
545.57	1144.05
545.93	1144.05
546.28	1136.33
546.64	1132.12
546.99	1123.22
547.35	1127.90
547.70	1126.97
548.05	1126.73
548.41	1128.61
548.76	1137.50
549.12	1136.56
549.47	1137.73
549.83	1132.35
550.18	1124.39
550.53	1119.24
550.89	1126.50
551.24	1120.18
551.60	1130.24
551.95	1131.88
552.30	1132.82
552.66	1120.88
553.01	1113.16
553.37	1111.05
553.72	1106.14
554.07	1096.31
554.43	1104.03
554.78	1104.50
555.13	1107.31
555.49	1112.46
555.84	1127.44
556.19	1116.20
556.55	1120.41
556.90	1122.05
557.26	1122.29
557.61	1116.44
557.96	1122.29
558.32	1119.48
558.67	1111.05
559.02	1112.46
559.37	1104.97
559.73	1100.99
560.08	1111.29
560.43	1113.63
560.79	1114.56
561.14	1119.71
561.49	1128.61
561.85	1110.58
562.20	1114.56
562.55	1106.84
562.90	1099.82
563.26	1093.73
563.61	1104.26
563.96	1100.29
564.32	1103.33
564.67	1106.14
565.02	1106.84
565.37	1110.82
565.73	1113.63
566.08	1113.86
566.43	1122.52
566.78	1119.24
567.14	1115.50
567.49	1116.44
567.84	1120.18
568.19	1110.58
568.54	1116.67
568.90	1112.69
569.25	1095.84
569.60	1093.97
569.95	1106.37
570.31	1112.22
570.66	1111.52
571.01	1120.88
571.36	1122.29
571.71	1113.39
572.06	1107.07
572.42	1115.73
572.77	1121.12
573.12	1117.37
573.47	1114.10
573.82	1111.75
574.18	1111.52
574.53	1102.39
574.88	1104.50
575.23	1111.05
575.58	1105.20
575.93	1105.20
576.28	1110.35
576.64	1111.52
576.99	1104.26
577.34	1105.67
577.69	1111.75
578.04	1114.56
578.39	1113.39
578.74	1118.07
579.09	1119.71
579.44	1107.78
579.80	1114.80
580.15	1122.52
580.50	1121.82
580.85	1129.78
581.20	1127.44
581.55	1108.95
581.90	1091.16
582.25	1101.92
582.60	1091.16
582.95	1095.14
583.30	1101.92
583.65	1110.35
584.00	1102.16
584.35	1105.67
584.71	1101.92
585.06	1098.18
585.41	1104.03
585.76	1101.22
586.11	1103.80
586.46	1106.61
586.81	1113.86
587.16	1109.41
587.51	1108.01
587.86	1112.69
588.21	1113.86
588.56	1109.41
588.91	1104.73
589.26	1112.69
589.61	1112.46
589.96	1100.05
590.31	1100.29
590.66	1107.07
591.01	1108.01
591.36	1108.48
591.71	1120.65
592.06	1117.37
592.41	1118.31
592.76	1107.31
593.10	1101.46
593.45	1101.22
593.80	1106.84
594.15	1104.03
594.50	1112.69
594.85	1108.95
595.20	1108.95
595.55	1108.71
595.90	1110.82
596.25	1096.54
596.60	1093.26
596.95	1088.58
597.30	1088.58
597.64	1134.22
597.99	1136.56
598.34	1142.18
598.69	1149.44
599.04	1148.27
599.39	1102.39
599.74	1103.56
600.09	1100.52
600.44	1098.41
600.78	1106.84
601.13	1103.09
601.48	1107.31
601.83	1114.09
602.18	1114.56
602.53	1107.07
602.88	1103.09
603.22	1097.01
603.57	1088.82
603.92	1085.07
604.27	1082.50
604.62	1088.58
604.97	1091.86
605.31	1087.41
605.66	1084.84
606.01	1086.48
606.36	1080.39
606.71	1078.99
607.05	1091.16
607.40	1093.50
607.75	1090.92
608.10	1101.46
608.44	1106.37
608.79	1100.75
609.14	1094.90
609.49	1106.14
609.84	1102.16
610.18	1099.82
610.53	1098.41
610.88	1093.73
611.23	1091.63
611.57	1082.26
611.92	1077.11
612.27	1084.84
612.62	1101.22
612.96	1097.95
613.31	1102.39
613.66	1104.50
614.00	1105.67
614.35	1103.80
614.70	1104.97
615.05	1115.73
615.39	1119.48
615.74	1114.33
616.09	1104.97
616.43	1106.61
616.78	1115.50
617.13	1120.41
617.47	1124.63
617.82	1144.29
618.17	1146.39
618.51	1133.29
618.86	1130.95
619.21	1130.71
619.55	1120.18
619.90	1118.31
620.25	1107.31
620.59	1101.22
620.94	1106.14
621.29	1107.78
621.63	1108.95
621.98	1102.86
622.32	1108.01
622.67	1096.78
623.02	1088.12
623.36	1076.65
623.71	1096.31
624.05	1100.05
624.40	1106.37
624.75	1106.61
625.09	1110.35
625.44	1100.75
625.78	1097.95
626.13	1090.46
626.48	1095.84
626.82	1102.63
627.17	1097.01
627.51	1104.73
627.86	1107.07
628.20	1098.41
628.55	1087.88
628.89	1091.16
629.24	1070.80
629.58	1067.75
629.93	1068.92
630.28	1075.48
630.62	1079.69
630.97	1091.63
631.31	1102.63
631.66	1107.07
632.00	1105.90
632.35	1094.67
632.69	1100.05
633.04	1091.39
633.38	1091.16
633.73	1087.65
634.07	1102.63
634.42	1096.78
634.76	1096.54
635.11	1095.60
635.45	1100.29
635.79	1096.78
636.14	1101.22
636.48	1102.16
636.83	1100.52
637.17	1098.88
637.52	1095.60
637.86	1089.99
638.21	1092.09
638.55	1102.86
638.89	1097.01
639.24	1111.75
639.58	1108.01
639.93	1121.35
640.27	1119.48
640.61	1123.46
640.96	1116.90
641.30	1114.10
641.65	1094.67
641.99	1090.92
642.33	1098.88
642.68	1101.22
643.02	1106.61
643.37	1098.65
643.71	1098.88
644.05	1088.58
644.40	1090.22
644.74	1088.35
645.08	1095.60
645.43	1102.39
645.77	1108.95
646.11	1103.56
646.46	1111.75
646.80	1121.82
647.14	1100.75
647.49	1101.46
647.83	1091.39
648.17	1085.07
648.52	1082.97
648.86	1095.60
649.20	1089.75
649.55	1092.09
649.89	1090.46
650.23	1086.71
650.57	1076.65
650.92	1071.97
651.26	1072.20
651.60	1072.43
651.95	1071.50
652.29	1077.58
652.63	1090.46
652.97	1095.84
653.32	1094.67
653.66	1090.46
654.00	1090.92
654.34	1085.54
654.69	1084.37
655.03	1083.43
655.37	1089.75
655.71	1089.29
656.05	1082.50
656.40	1077.11
656.74	1086.71
657.08	1090.69
657.42	1094.90
657.76	1096.31
658.11	1096.31
658.45	1093.50
658.79	1091.63
659.13	1098.41
659.47	1097.95
659.82	1103.80
660.16	1097.71
660.50	1098.18
660.84	1089.05
661.18	1097.71
661.52	1102.16
661.87	1105.90
662.21	1090.69
662.55	1094.20
662.89	1089.99
663.23	1081.80
663.57	1086.48
663.91	1097.01
664.25	1089.99
664.60	1079.92
664.94	1076.18
665.28	1062.84
665.62	1067.52
665.96	1071.03
666.30	1079.22
666.64	1076.41
666.98	1090.69
667.32	1089.99
667.66	1088.12
668.01	1086.01
668.35	1094.90
668.69	1087.18
669.03	1078.75
669.37	1078.28
669.71	1076.88
670.05	1084.37
670.39	1086.71
670.73	1090.22
671.07	1101.92
671.41	1106.37
671.75	1097.48
672.09	1099.12
672.43	1097.48
672.77	1082.97
673.11	1084.14
673.45	1090.69
673.79	1086.01
674.13	1092.33
674.47	1103.56
674.81	1099.58
675.15	1093.73
675.49	1098.18
675.83	1097.71
676.17	1094.90
676.51	1089.75
676.85	1085.54
677.19	1075.94
677.53	1066.35
677.87	1058.86
678.21	1055.58
678.55	1059.09
678.89	1065.41
679.23	1085.07
679.57	1083.90
679.90	1093.26
680.24	1088.35
680.58	1091.16
680.92	1077.82
681.26	1085.07
681.60	1084.60
681.94	1084.37
682.28	1081.56
682.62	1082.03
682.96	1075.94
683.29	1073.14
683.63	1076.65
683.97	1080.16
684.31	1076.88
684.65	1083.90
684.99	1086.48
685.33	1088.35
685.67	1086.48
686.00	1097.24
686.34	1096.78
686.68	1092.56
687.02	1096.31
687.36	1104.26
687.70	1097.24
688.03	1097.01
688.37	1098.18
688.71	1091.39
689.05	1077.82
689.39	1080.63
689.72	1076.41
690.06	1082.50
690.40	1087.88
690.74	1093.26
691.08	1080.63
691.41	1086.48
691.75	1086.94
692.09	1083.43
692.43	1088.82
692.76	1106.14
693.10	1103.09
693.44	1109.18
693.78	1117.37
694.11	1108.01
694.45	1105.90
694.79	1108.71
695.13	1099.82
695.46	1093.26
695.80	1093.50
696.14	1080.86
696.48	1083.43
696.81	1089.75
697.15	1093.97
697.49	1089.75
697.82	1091.86
698.16	1091.86
698.50	1082.03
698.83	1086.01
699.17	1092.56
699.51	1094.20
699.84	1087.18
700.18	1082.97
700.52	1082.03
700.85	1087.18
701.19	1093.26
701.53	1095.37
701.86	1096.31
702.20	1086.94
702.54	1085.31
702.87	1084.60
703.21	1083.43
703.55	1090.46
703.88	1093.50
704.22	1097.01
704.55	1093.50
704.89	1090.22
705.23	1091.86
705.56	1094.20
705.90	1090.46
706.23	1088.58
706.57	1090.92
706.91	1093.73
707.24	1082.26
707.58	1075.71
707.91	1082.03
708.25	1080.39
708.58	1070.80
708.92	1084.14
709.26	1090.22
709.59	1090.69
709.93	1085.54
710.26	1087.65
710.60	1082.03
710.93	1075.24
711.27	1078.28
711.60	1084.37
711.94	1083.43
712.27	1076.18
712.61	1070.09
712.94	1063.77
713.28	1066.82
713.61	1082.50
713.95	1091.16
714.28	1101.69
714.62	1090.69
714.95	1079.46
715.29	1072.43
715.62	1077.11
715.96	1086.94
716.29	1097.48
716.63	1110.82
716.96	1108.71
717.29	1105.20
717.63	1095.60
717.96	1099.12
718.30	1096.54
718.63	1100.99
718.97	1100.05
719.30	1097.24
719.63	1096.78
719.97	1090.46
720.30	1085.07
720.64	1077.58
720.97	1084.84
721.30	1079.22
721.64	1086.24
721.97	1077.58
722.31	1073.84
722.64	1064.71
722.97	1061.90
723.31	1052.77
723.64	1065.18
723.97	1070.33
724.31	1072.43
724.64	1072.43
724.98	1086.24
725.31	1087.88
725.64	1086.01
725.98	1088.58
726.31	1090.69
726.64	1082.97
726.97	1083.90
727.31	1090.22
727.64	1084.37
727.97	1084.37
728.31	1087.41
728.64	1081.56
728.97	1084.14
729.31	1082.03
729.64	1083.67
729.97	1089.29
730.30	1086.24
730.64	1083.43
730.97	1098.88
731.30	1101.92
731.63	1104.73
731.97	1101.69
732.30	1095.14
732.63	1082.97
732.96	1070.80
733.30	1069.62
733.63	1078.99
733.96	1083.90
734.29	1089.52
734.63	1103.09
734.96	1095.84
735.29	1087.41
735.62	1083.43
735.95	1074.31
736.29	1073.14
736.62	1069.16
736.95	1068.45
737.28	1075.94
737.61	1087.41
737.94	1081.80
738.28	1089.75
738.61	1090.46
738.94	1093.73
739.27	1083.43
739.60	1084.37
739.93	1081.56
740.27	1085.31
740.60	1083.43
740.93	1087.65
741.26	1087.65
741.59	1086.71
741.92	1089.29
742.25	1079.92
742.58	1083.20
742.91	1082.97
743.25	1078.52
743.58	1067.28
743.91	1072.20
744.24	1060.73
744.57	1055.82
744.90	1060.26
745.23	1072.90
745.56	1070.80
745.89	1080.63
746.22	1095.14
746.55	1086.48
746.88	1070.56
747.21	1074.77
747.54	1072.20
747.87	1068.69
748.20	1077.58
748.53	1083.20
748.87	1091.63
749.20	1093.03
749.53	1090.92
749.86	1092.80
750.19	1102.86
750.52	1092.33
750.85	1089.05
751.18	1084.84
751.51	1079.69
751.84	1079.92
752.16	1076.18
752.49	1087.41
752.82	1083.67
753.15	1088.35
753.48	1090.22
753.81	1087.65
754.14	1080.16
754.47	1080.16
754.80	1076.65
755.13	1075.94
755.46	1078.05
755.79	1080.86
756.12	1083.20
756.45	1084.60
756.78	1078.52
757.11	1081.80
757.43	1087.88
757.76	1083.20
758.09	1076.65
758.42	1078.99
758.75	1075.24
759.08	1072.20
759.41	1072.67
759.74	1067.52
760.07	1063.54
760.39	1065.88
760.72	1065.88
761.05	1077.58
761.38	1089.99
761.71	1089.52
762.04	1090.69
762.36	1093.73
762.69	1090.22
763.02	1081.09
763.35	1086.48
763.68	1087.41
764.01	1083.20
