SpectraSuite Data File
++++++++++++++++++++++++++++++++++++
Date: Mon Aug 26 10:24:38 PDT 2019
User: corrico
Dark Spectrum Present: No
Reference Spectrum Present: No
Number of Sampled Component Spectra: 1
Spectrometers: USB2+H06089
Integration Time (usec): 10000 (USB2+H06089)
Spectra Averaged: 2 (USB2+H06089)
Boxcar Smoothing: 2 (USB2+H06089)
Correct for Electrical Dark: No (USB2+H06089)
Strobe/Lamp Enabled: No (USB2+H06089)
Correct for Detector Non-linearity: No (USB2+H06089)
Correct for Stray Light: No (USB2+H06089)
Number of Pixels in Processed Spectrum: 2048
>>>>>Begin Processed Spectral Data<<<<<
339.70	1062.60
340.07	1062.60
340.45	1010.41
340.82	977.41
341.19	941.83
341.57	910.94
341.94	896.43
342.31	899.23
342.69	903.21
343.06	902.98
343.43	901.57
343.81	906.96
344.18	911.87
344.55	914.21
344.93	916.09
345.30	917.96
345.67	924.04
346.04	913.51
346.42	912.57
346.79	921.94
347.16	939.02
347.54	944.41
347.91	970.62
348.28	985.37
348.65	1009.71
349.03	1022.81
349.40	1036.16
349.77	1042.24
350.14	1039.67
350.52	1039.90
350.89	1043.41
351.26	1049.73
351.63	1054.88
352.01	1069.39
352.38	1071.26
352.75	1072.67
353.12	1081.56
353.50	1091.16
353.87	1097.24
354.24	1101.92
354.61	1103.80
354.98	1106.84
355.36	1096.54
355.73	1100.75
356.10	1095.84
356.47	1091.63
356.84	1085.77
357.22	1085.54
357.59	1090.92
357.96	1095.14
358.33	1092.80
358.70	1103.33
359.08	1110.35
359.45	1108.24
359.82	1097.24
360.19	1102.86
360.56	1093.03
360.94	1082.26
361.31	1069.86
361.68	1084.84
362.05	1079.69
362.42	1080.16
362.79	1084.37
363.16	1094.67
363.54	1097.48
363.91	1104.26
364.28	1109.65
364.65	1113.63
365.02	1120.41
365.39	1114.33
365.76	1114.80
366.14	1102.39
366.51	1098.41
366.88	1080.86
367.25	1077.35
367.62	1083.90
367.99	1088.35
368.36	1096.31
368.73	1105.44
369.10	1106.61
369.48	1099.12
369.85	1104.73
370.22	1100.05
370.59	1102.39
370.96	1103.09
371.33	1099.58
371.70	1094.43
372.07	1089.29
372.44	1082.50
372.81	1086.94
373.18	1096.31
373.55	1097.48
373.93	1105.90
374.30	1114.80
374.67	1114.09
375.04	1114.33
375.41	1114.33
375.78	1110.35
376.15	1103.33
376.52	1104.26
376.89	1101.46
377.26	1104.03
377.63	1094.43
378.00	1098.88
378.37	1097.95
378.74	1084.84
379.11	1086.48
379.48	1101.22
379.85	1090.69
380.22	1081.56
380.59	1093.73
380.96	1092.80
381.33	1103.09
381.70	1113.63
382.07	1113.39
382.44	1121.58
382.81	1122.75
383.18	1108.48
383.55	1108.48
383.92	1129.07
384.29	1116.90
384.66	1116.20
385.03	1127.67
385.40	1121.82
385.77	1104.26
386.14	1120.88
386.51	1115.73
386.88	1111.99
387.25	1117.37
387.62	1131.18
387.99	1130.71
388.36	1131.88
388.73	1133.05
389.10	1119.95
389.46	1112.69
389.83	1094.20
390.20	1108.01
390.57	1106.37
390.94	1122.99
391.31	1116.67
391.68	1123.22
392.05	1118.31
392.42	1126.50
392.79	1135.39
393.16	1140.54
393.53	1147.10
393.89	1149.44
394.26	1139.84
394.63	1130.48
395.00	1142.88
395.37	1148.97
395.74	1153.88
396.11	1149.20
396.48	1156.46
396.84	1157.39
397.21	1161.61
397.58	1153.18
397.95	1165.59
398.32	1160.91
398.69	1169.80
399.06	1167.69
399.42	1181.97
399.79	1186.18
400.16	1196.48
400.53	1200.46
400.90	1202.33
401.27	1198.12
401.64	1213.10
402.00	1222.93
402.37	1225.04
402.74	1230.19
403.11	1242.82
403.48	1243.06
403.84	1251.48
404.21	1264.83
404.58	1276.76
404.95	1291.74
405.32	1310.23
405.68	1320.30
406.05	1334.11
406.42	1362.43
406.79	1382.79
407.16	1409.47
407.52	1445.28
407.89	1481.33
408.26	1508.01
408.63	1549.20
408.99	1597.65
409.36	1643.06
409.73	1683.55
410.10	1736.68
410.47	1779.04
410.83	1821.87
411.20	1880.39
411.57	1946.62
411.94	2021.05
412.30	2096.89
412.67	2176.70
413.04	2255.81
413.40	2347.32
413.77	2444.69
414.14	2553.52
414.51	2676.17
414.87	2808.17
415.24	2956.80
415.61	3108.23
415.97	3277.45
416.34	3451.12
416.71	3621.04
417.08	3819.75
417.44	4019.17
417.81	4250.18
418.18	4477.68
418.54	4760.18
418.91	5018.11
419.28	5296.40
419.64	5587.09
420.01	5929.98
420.38	6258.12
420.74	6608.97
421.11	6998.20
421.48	7377.37
421.84	7792.35
422.21	8188.60
422.58	8665.37
422.94	9195.26
423.31	9699.65
423.68	10230.72
424.04	10881.38
424.41	11445.22
424.77	12007.65
425.14	12652.23
425.51	13311.33
425.87	14000.38
426.24	14791.02
426.61	15727.70
426.97	16728.98
427.34	17645.06
427.70	18671.86
428.07	19689.52
428.44	20647.74
428.80	21681.08
429.17	22783.24
429.53	23798.80
429.90	25030.86
430.27	26081.29
430.63	27146.00
431.00	28480.11
431.36	29939.66
431.73	31144.10
432.09	32474.00
432.46	33829.40
432.83	35088.61
433.19	36235.47
433.56	37728.73
433.92	39301.11
434.29	40711.75
434.65	42109.51
435.02	43394.47
435.38	44606.40
435.75	45421.14
436.11	46666.77
436.48	47711.82
436.84	48800.87
437.21	49679.27
437.57	50763.18
437.94	51450.36
438.30	52032.68
438.67	52255.50
439.03	52420.28
439.40	52550.41
439.76	52354.27
440.13	52143.39
440.49	52189.97
440.86	51793.95
441.22	51380.14
441.59	50800.86
441.95	50167.98
442.32	49136.04
442.68	48393.62
443.05	47414.10
443.41	46551.38
443.78	45543.55
444.14	44694.40
444.51	43529.52
444.87	42676.63
445.24	41488.80
445.60	40375.65
445.96	39222.23
446.33	38299.36
446.69	37001.76
447.06	36107.21
447.42	35176.38
447.79	34096.92
448.15	33075.28
448.51	32143.75
448.88	31296.01
449.24	30223.81
449.61	29520.24
449.97	28756.29
450.33	27961.68
450.70	27025.70
451.06	26422.78
451.43	25624.89
451.79	25041.63
452.15	24568.14
452.52	24055.32
452.88	23478.15
453.24	23017.76
453.61	22359.14
453.97	21664.00
454.34	21042.12
454.70	20494.90
455.06	19890.11
455.43	19236.86
455.79	18525.34
456.15	17948.87
456.52	17273.15
456.88	16687.55
457.24	16142.91
457.61	15712.95
457.97	15185.86
458.33	14665.80
458.70	14126.07
459.06	13563.40
459.42	13103.49
459.79	12611.98
460.15	12200.51
460.51	11765.17
460.88	11400.52
461.24	10965.64
461.60	10600.29
461.96	10218.78
462.33	9886.66
462.69	9577.94
463.05	9316.97
463.42	9081.51
463.78	8837.63
464.14	8577.83
464.50	8334.88
464.87	8041.85
465.23	7731.49
465.59	7508.91
465.95	7297.56
466.32	7111.72
466.68	6933.84
467.04	6775.15
467.40	6636.35
467.77	6489.14
468.13	6293.93
468.49	6140.40
468.85	6008.16
469.22	5858.83
469.58	5728.23
469.94	5613.54
470.30	5482.24
470.66	5385.57
471.03	5267.14
471.39	5170.01
471.75	5075.92
472.11	4976.45
472.47	4877.21
472.84	4758.31
473.20	4635.90
473.56	4528.47
473.92	4448.19
474.28	4337.01
474.65	4237.77
475.01	4137.60
475.37	4042.81
475.73	3967.21
476.09	3882.95
476.45	3807.58
476.81	3741.81
477.18	3661.07
477.54	3567.91
477.90	3507.06
478.26	3443.63
478.62	3364.75
478.98	3328.01
479.34	3295.47
479.71	3228.77
480.07	3180.55
480.43	3143.34
480.79	3082.72
481.15	3029.36
481.51	2980.67
481.87	2934.10
482.23	2888.92
482.59	2833.92
482.96	2774.47
483.32	2745.45
483.68	2707.30
484.04	2674.53
484.40	2647.61
484.76	2625.38
485.12	2588.87
485.48	2551.89
485.84	2523.33
486.20	2482.37
486.56	2446.33
486.92	2422.45
487.28	2388.52
487.64	2347.09
488.00	2321.81
488.37	2268.21
488.73	2232.64
489.09	2207.59
489.45	2171.31
489.81	2125.21
490.17	2110.93
490.53	2073.25
490.89	2043.99
491.25	2021.52
491.61	2007.01
491.97	1975.65
492.33	1954.35
492.69	1915.26
493.05	1904.26
493.41	1886.24
493.77	1863.07
494.13	1841.30
494.49	1831.00
494.85	1791.91
495.21	1760.79
495.57	1747.91
495.93	1728.95
496.29	1714.44
496.64	1701.80
497.00	1684.72
497.36	1654.76
497.72	1632.06
498.08	1613.33
498.44	1592.27
498.80	1583.14
499.16	1573.31
499.52	1556.69
499.88	1535.16
500.24	1534.22
500.60	1519.24
500.96	1513.16
501.32	1509.88
501.68	1507.30
502.03	1488.58
502.39	1470.56
502.75	1455.81
503.11	1438.73
503.47	1416.26
503.83	1410.41
504.19	1403.15
504.55	1401.98
504.91	1395.66
505.26	1386.30
505.62	1370.38
505.98	1362.89
506.34	1346.04
506.70	1334.11
507.06	1346.04
507.42	1342.77
507.78	1338.55
508.13	1343.00
508.49	1344.87
508.85	1330.13
509.21	1328.96
509.57	1325.45
509.93	1325.68
510.28	1310.00
510.64	1304.61
511.00	1294.08
511.36	1286.83
511.72	1272.78
512.07	1278.40
512.43	1275.83
512.79	1272.32
513.15	1274.42
513.51	1260.85
513.86	1256.87
514.22	1252.19
514.58	1244.46
514.94	1229.95
515.30	1237.68
515.65	1224.10
516.01	1211.93
516.37	1203.27
516.73	1209.12
517.08	1210.99
517.44	1214.50
517.80	1220.12
518.16	1228.08
518.51	1223.16
518.87	1205.84
519.23	1203.97
519.59	1196.72
519.94	1188.29
520.30	1183.14
520.66	1187.82
521.01	1183.14
521.37	1185.25
521.73	1188.06
522.09	1202.57
522.44	1202.33
522.80	1206.08
523.16	1202.33
523.51	1194.61
523.87	1171.91
524.23	1166.05
524.58	1159.50
524.94	1158.57
525.30	1154.59
525.65	1159.03
526.01	1158.10
526.37	1153.18
526.72	1142.18
527.08	1143.82
527.44	1141.01
527.79	1141.48
528.15	1145.46
528.51	1141.71
528.86	1144.52
529.22	1140.31
529.58	1140.07
529.93	1140.07
530.29	1156.69
530.65	1155.99
531.00	1154.35
531.36	1148.27
531.71	1137.73
532.07	1132.12
532.43	1134.93
532.78	1142.65
533.14	1151.78
533.49	1155.99
533.85	1162.08
534.21	1148.03
534.56	1155.52
534.92	1149.91
535.27	1148.97
535.63	1143.82
535.98	1149.67
536.34	1141.25
536.69	1139.14
537.05	1134.93
537.41	1128.84
537.76	1126.73
538.12	1129.31
538.47	1124.86
538.83	1128.84
539.18	1119.48
539.54	1123.46
539.89	1127.44
540.25	1137.97
540.60	1136.10
540.96	1144.76
541.31	1141.95
541.67	1132.35
542.02	1125.56
542.38	1131.65
542.73	1129.78
543.09	1127.90
543.44	1130.71
543.80	1131.41
544.15	1126.97
544.51	1125.33
544.86	1131.18
545.22	1137.50
545.57	1137.50
545.93	1146.39
546.28	1152.95
546.64	1159.27
546.99	1149.20
547.35	1143.59
547.70	1137.03
548.05	1129.78
548.41	1124.16
548.76	1129.31
549.12	1128.37
549.47	1124.63
549.83	1125.10
550.18	1123.93
550.53	1115.97
550.89	1120.18
551.24	1126.50
551.60	1125.10
551.95	1124.86
552.30	1126.27
552.66	1133.52
553.01	1129.07
553.37	1130.48
553.72	1130.01
554.07	1134.46
554.43	1122.75
554.78	1111.29
555.13	1107.54
555.49	1104.03
555.84	1096.31
556.19	1100.29
556.55	1105.90
556.90	1109.65
557.26	1109.41
557.61	1106.37
557.96	1102.39
558.32	1105.20
558.67	1105.44
559.02	1102.39
559.37	1119.01
559.73	1126.73
560.08	1137.50
560.43	1143.35
560.79	1156.46
561.14	1144.29
561.49	1138.90
561.85	1130.01
562.20	1134.22
562.55	1125.56
562.90	1127.67
563.26	1131.41
563.61	1133.29
563.96	1123.93
564.32	1117.61
564.67	1110.58
565.02	1104.73
565.37	1103.56
565.73	1109.88
566.08	1117.84
566.43	1120.41
566.78	1119.95
567.14	1124.16
567.49	1124.63
567.84	1126.97
568.19	1122.29
568.54	1127.67
568.90	1120.88
569.25	1117.14
569.60	1115.03
569.95	1117.84
570.31	1112.46
570.66	1114.80
571.01	1118.78
571.36	1114.33
571.71	1109.65
572.06	1113.39
572.42	1114.56
572.77	1102.63
573.12	1102.16
573.47	1111.75
573.82	1108.71
574.18	1101.92
574.53	1106.14
574.88	1109.41
575.23	1110.58
575.58	1119.71
575.93	1117.61
576.28	1117.84
576.64	1115.27
576.99	1105.67
577.34	1084.84
577.69	1091.39
578.04	1092.56
578.39	1095.37
578.74	1103.09
579.09	1115.50
579.44	1124.63
579.80	1118.31
580.15	1112.46
580.50	1115.03
580.85	1110.82
581.20	1090.22
581.55	1089.75
581.90	1100.52
582.25	1099.12
582.60	1094.67
582.95	1113.16
583.30	1110.35
583.65	1093.50
584.00	1090.46
584.35	1093.97
584.71	1077.35
585.06	1079.69
585.41	1086.71
585.76	1081.09
586.11	1077.82
586.46	1087.88
586.81	1089.99
587.16	1091.39
587.51	1107.07
587.86	1111.75
588.21	1111.05
588.56	1102.63
588.91	1111.29
589.26	1103.09
589.61	1108.95
589.96	1102.16
590.31	1116.90
590.66	1104.03
591.01	1104.97
591.36	1097.71
591.71	1108.24
592.06	1102.63
592.41	1101.69
592.76	1087.65
593.10	1087.41
593.45	1084.37
593.80	1088.35
594.15	1086.01
594.50	1092.80
594.85	1097.71
595.20	1096.07
595.55	1097.71
595.90	1100.29
596.25	1095.37
596.60	1093.97
596.95	1085.07
597.30	1079.92
597.64	1122.05
597.99	1144.29
598.34	1149.67
598.69	1169.57
599.04	1169.10
599.39	1134.22
599.74	1118.07
600.09	1115.50
600.44	1095.37
600.78	1096.54
601.13	1093.97
601.48	1093.03
601.83	1090.46
602.18	1105.20
602.53	1101.46
602.88	1106.61
603.22	1114.09
603.57	1113.63
603.92	1101.69
604.27	1099.58
604.62	1098.65
604.97	1092.09
605.31	1093.97
605.66	1098.65
606.01	1104.03
606.36	1092.56
606.71	1099.58
607.05	1101.22
607.40	1104.26
607.75	1111.52
608.10	1115.97
608.44	1106.14
608.79	1101.69
609.14	1099.12
609.49	1087.18
609.84	1084.37
610.18	1107.07
610.53	1115.27
610.88	1119.71
611.23	1130.24
611.57	1134.69
611.92	1113.86
612.27	1106.14
612.62	1108.24
612.96	1104.50
613.31	1111.05
613.66	1111.75
614.00	1113.39
614.35	1101.22
614.70	1107.31
615.05	1101.69
615.39	1116.44
615.74	1118.31
616.09	1131.41
616.43	1123.93
616.78	1122.29
617.13	1114.80
617.47	1115.73
617.82	1107.31
618.17	1103.33
618.51	1113.63
618.86	1113.39
619.21	1099.35
619.55	1100.05
619.90	1108.01
620.25	1094.43
620.59	1093.03
620.94	1104.50
621.29	1106.37
621.63	1111.99
621.98	1110.58
622.32	1107.78
622.67	1105.44
623.02	1108.48
623.36	1098.88
623.71	1108.48
624.05	1116.44
624.40	1118.54
624.75	1114.10
625.09	1108.95
625.44	1102.39
625.78	1093.03
626.13	1093.03
626.48	1081.09
626.82	1080.63
627.17	1083.20
627.51	1081.09
627.86	1073.37
628.20	1085.77
628.55	1090.22
628.89	1085.07
629.24	1089.75
629.58	1098.65
629.93	1092.80
630.28	1091.86
630.62	1094.20
630.97	1085.31
631.31	1080.39
631.66	1083.90
632.00	1082.03
632.35	1084.60
632.69	1084.14
633.04	1087.88
633.38	1086.01
633.73	1091.16
634.07	1084.60
634.42	1083.43
634.76	1083.90
635.11	1080.39
635.45	1076.41
635.79	1089.29
636.14	1100.75
636.48	1100.29
636.83	1093.50
637.17	1086.71
637.52	1074.31
637.86	1069.16
638.21	1071.50
638.55	1084.14
638.89	1094.20
639.24	1094.67
639.58	1101.69
639.93	1090.69
640.27	1086.48
640.61	1078.52
640.96	1085.54
641.30	1082.50
641.65	1095.37
641.99	1094.90
642.33	1101.92
642.68	1101.46
643.02	1099.35
643.37	1099.12
643.71	1100.05
644.05	1089.99
644.40	1084.84
644.74	1087.88
645.08	1092.09
645.43	1093.50
645.77	1099.12
646.11	1104.03
646.46	1098.88
646.80	1094.43
647.14	1096.78
647.49	1100.75
647.83	1093.03
648.17	1094.67
648.52	1089.52
648.86	1088.12
649.20	1089.05
649.55	1104.97
649.89	1100.52
650.23	1094.90
650.57	1095.14
650.92	1098.65
651.26	1092.33
651.60	1094.43
651.95	1091.63
652.29	1097.71
652.63	1084.37
652.97	1075.71
653.32	1079.46
653.66	1083.20
654.00	1077.82
654.34	1083.67
654.69	1086.01
655.03	1081.80
655.37	1084.60
655.71	1076.88
656.05	1090.22
656.40	1091.86
656.74	1101.92
657.08	1101.69
657.42	1105.67
657.76	1102.86
658.11	1105.90
658.45	1098.65
658.79	1091.86
659.13	1093.26
659.47	1082.26
659.82	1081.33
660.16	1072.43
660.50	1076.18
660.84	1086.94
661.18	1089.29
661.52	1096.31
661.87	1114.33
662.21	1111.75
662.55	1093.97
662.89	1092.80
663.23	1077.35
663.57	1072.20
663.91	1076.88
664.25	1081.09
664.60	1075.24
664.94	1083.90
665.28	1077.82
665.62	1065.18
665.96	1065.65
666.30	1080.63
666.64	1069.62
666.98	1081.80
667.32	1100.99
667.66	1096.78
668.01	1080.86
668.35	1085.77
668.69	1072.43
669.03	1065.88
669.37	1083.90
669.71	1093.73
670.05	1100.75
670.39	1104.03
670.73	1109.18
671.07	1090.92
671.41	1083.90
671.75	1086.48
672.09	1082.73
672.43	1082.03
672.77	1100.29
673.11	1116.20
673.45	1109.88
673.79	1115.27
674.13	1107.07
674.47	1094.67
674.81	1082.26
675.15	1086.24
675.49	1080.16
675.83	1086.24
676.17	1086.24
676.51	1087.18
676.85	1073.14
677.19	1071.50
677.53	1071.26
677.87	1072.90
678.21	1088.12
678.55	1099.82
678.89	1106.37
679.23	1101.22
679.57	1107.54
679.90	1092.80
680.24	1090.92
680.58	1091.16
680.92	1089.52
681.26	1086.94
681.60	1080.39
681.94	1072.20
682.28	1073.60
682.62	1074.31
682.96	1074.77
683.29	1075.94
683.63	1089.52
683.97	1083.67
684.31	1091.39
684.65	1086.01
684.99	1095.60
685.33	1083.90
685.67	1087.88
686.00	1084.14
686.34	1084.84
686.68	1071.26
687.02	1074.77
687.36	1067.05
687.70	1070.80
688.03	1076.18
688.37	1086.48
688.71	1097.01
689.05	1110.35
689.39	1107.54
689.72	1102.16
690.06	1101.46
690.40	1096.78
690.74	1091.16
691.08	1092.33
691.41	1083.90
691.75	1080.39
692.09	1074.31
692.43	1076.88
692.76	1077.35
693.10	1098.88
693.44	1101.69
693.78	1107.07
694.11	1100.52
694.45	1103.09
694.79	1089.75
695.13	1092.56
695.46	1090.69
695.80	1093.26
696.14	1092.80
696.48	1093.73
696.81	1093.97
697.15	1089.75
697.49	1092.80
697.82	1085.07
698.16	1083.67
698.50	1081.80
698.83	1082.73
699.17	1071.73
699.51	1078.28
699.84	1087.18
700.18	1087.18
700.52	1099.82
700.85	1110.82
701.19	1103.80
701.53	1094.90
701.86	1086.94
702.20	1079.69
702.54	1073.60
702.87	1076.41
703.21	1068.22
703.55	1078.52
703.88	1070.80
704.22	1067.05
704.55	1059.09
704.89	1067.99
705.23	1063.54
705.56	1074.54
705.90	1084.37
706.23	1096.31
706.57	1094.90
706.91	1106.61
707.24	1104.26
707.58	1101.46
707.91	1094.20
708.25	1091.86
708.58	1088.12
708.92	1083.20
709.26	1075.01
709.59	1088.82
709.93	1084.37
710.26	1079.92
710.60	1081.56
710.93	1082.97
711.27	1081.09
711.60	1081.09
711.94	1077.11
712.27	1079.46
712.61	1085.77
712.94	1075.01
713.28	1086.48
713.61	1089.52
713.95	1080.16
714.28	1081.80
714.62	1088.35
714.95	1086.01
715.29	1089.05
715.62	1107.54
715.96	1108.48
716.29	1100.52
716.63	1104.26
716.96	1097.48
717.29	1084.84
717.63	1087.88
717.96	1099.12
718.30	1104.03
718.63	1103.56
718.97	1099.35
719.30	1086.94
719.63	1075.24
719.97	1069.62
720.30	1073.60
720.64	1083.43
720.97	1091.39
721.30	1100.29
721.64	1095.84
721.97	1093.03
722.31	1085.31
722.64	1084.14
722.97	1074.77
723.31	1081.09
723.64	1081.80
723.97	1084.37
724.31	1088.35
724.64	1101.92
724.98	1089.05
725.31	1091.39
725.64	1090.22
725.98	1090.69
726.31	1087.18
726.64	1099.12
726.97	1104.03
727.31	1103.33
727.64	1096.31
727.97	1089.29
728.31	1082.97
728.64	1074.31
728.97	1065.41
729.31	1068.22
729.64	1067.05
729.97	1070.56
730.30	1066.58
730.64	1071.73
730.97	1067.75
731.30	1077.11
731.63	1072.67
731.97	1075.94
732.30	1087.18
732.63	1096.07
732.96	1086.01
733.30	1085.31
733.63	1079.22
733.96	1072.43
734.29	1063.77
734.63	1065.41
734.96	1068.92
735.29	1074.07
735.62	1082.50
735.95	1083.43
736.29	1083.90
736.62	1081.33
736.95	1083.90
737.28	1079.92
737.61	1077.11
737.94	1085.31
738.28	1099.82
738.61	1101.69
738.94	1092.80
739.27	1095.60
739.60	1093.97
739.93	1084.37
740.27	1083.20
740.60	1086.94
740.93	1084.14
741.26	1080.63
741.59	1086.48
741.92	1083.90
742.25	1085.07
742.58	1099.82
742.91	1104.50
743.25	1097.71
743.58	1100.05
743.91	1096.07
744.24	1086.48
744.57	1078.52
744.90	1068.22
745.23	1069.16
745.56	1075.94
745.89	1075.24
746.22	1072.67
746.55	1085.31
746.88	1081.33
747.21	1081.56
747.54	1087.41
747.87	1102.39
748.20	1093.97
748.53	1094.90
748.87	1098.88
749.20	1090.92
749.53	1077.58
749.86	1077.35
750.19	1075.94
750.52	1067.52
750.85	1065.65
751.18	1079.69
751.51	1090.22
751.84	1097.01
752.16	1098.65
752.49	1103.33
752.82	1091.16
753.15	1081.80
753.48	1085.77
753.81	1090.92
754.14	1089.05
754.47	1082.26
754.80	1074.77
755.13	1073.60
755.46	1071.26
755.79	1074.07
756.12	1091.63
756.45	1100.29
756.78	1093.03
757.11	1096.07
757.43	1099.12
757.76	1097.95
758.09	1105.20
758.42	1095.84
758.75	1080.39
759.08	1076.18
759.41	1062.37
759.74	1064.71
760.07	1082.50
760.39	1088.58
760.72	1092.09
761.05	1099.35
761.38	1096.31
761.71	1094.90
762.04	1100.05
762.36	1095.37
762.69	1096.07
763.02	1086.71
763.35	1083.67
763.68	1081.56
764.01	1080.39
