SpectraSuite Data File
++++++++++++++++++++++++++++++++++++
Date: Mon Aug 26 10:24:35 PDT 2019
User: corrico
Dark Spectrum Present: No
Reference Spectrum Present: No
Number of Sampled Component Spectra: 1
Spectrometers: USB2+H06089
Integration Time (usec): 10000 (USB2+H06089)
Spectra Averaged: 2 (USB2+H06089)
Boxcar Smoothing: 2 (USB2+H06089)
Correct for Electrical Dark: No (USB2+H06089)
Strobe/Lamp Enabled: No (USB2+H06089)
Correct for Detector Non-linearity: No (USB2+H06089)
Correct for Stray Light: No (USB2+H06089)
Number of Pixels in Processed Spectrum: 2048
>>>>>Begin Processed Spectral Data<<<<<
339.70	1038.03
340.07	1038.03
340.45	1000.81
340.82	978.81
341.19	957.75
341.57	933.87
341.94	932.47
342.31	928.26
342.69	923.58
343.06	918.66
343.43	908.60
343.81	914.45
344.18	912.11
344.55	906.72
344.93	917.26
345.30	927.32
345.67	926.38
346.04	929.43
346.42	943.94
346.79	946.04
347.16	953.53
347.54	957.51
347.91	969.92
348.28	987.47
348.65	995.43
349.03	1009.00
349.40	1026.79
349.77	1043.18
350.14	1047.39
350.52	1054.18
350.89	1056.52
351.26	1048.56
351.63	1042.94
352.01	1050.90
352.38	1058.86
352.75	1067.28
353.12	1089.75
353.50	1097.95
353.87	1097.01
354.24	1097.48
354.61	1101.69
354.98	1094.20
355.36	1096.78
355.73	1096.07
356.10	1101.46
356.47	1108.01
356.84	1111.52
357.22	1104.03
357.59	1108.24
357.96	1103.09
358.33	1087.18
358.70	1090.69
359.08	1104.97
359.45	1097.01
359.82	1097.48
360.19	1111.52
360.56	1102.63
360.94	1096.54
361.31	1093.50
361.68	1087.88
362.05	1088.35
362.42	1092.09
362.79	1092.80
363.16	1091.39
363.54	1090.46
363.91	1079.92
364.28	1078.52
364.65	1067.99
365.02	1082.73
365.39	1094.67
365.76	1094.90
366.14	1096.54
366.51	1100.52
366.88	1090.46
367.25	1091.39
367.62	1095.37
367.99	1085.77
368.36	1084.60
368.73	1078.28
369.10	1066.82
369.48	1069.16
369.85	1070.09
370.22	1081.33
370.59	1091.86
370.96	1097.95
371.33	1088.35
371.70	1098.18
372.07	1088.82
372.44	1093.73
372.81	1095.14
373.18	1099.12
373.55	1102.16
373.93	1113.63
374.30	1106.37
374.67	1094.90
375.04	1090.69
375.41	1082.73
375.78	1071.50
376.15	1074.77
376.52	1089.29
376.89	1099.82
377.26	1104.97
377.63	1111.52
378.00	1113.16
378.37	1103.56
378.74	1095.84
379.11	1091.39
379.48	1073.14
379.85	1071.73
380.22	1077.82
380.59	1079.22
380.96	1087.65
381.33	1102.16
381.70	1104.03
382.07	1103.80
382.44	1100.99
382.81	1107.54
383.18	1107.54
383.55	1113.16
383.92	1126.03
384.29	1133.29
384.66	1118.31
385.03	1127.20
385.40	1125.80
385.77	1113.39
386.14	1126.73
386.51	1132.82
386.88	1118.31
387.25	1115.50
387.62	1116.90
387.99	1096.78
388.36	1100.52
388.73	1105.90
389.10	1103.09
389.46	1100.75
389.83	1102.16
390.20	1082.73
390.57	1083.90
390.94	1077.11
391.31	1076.18
391.68	1086.71
392.05	1103.56
392.42	1104.03
392.79	1115.73
393.16	1132.35
393.53	1132.82
393.89	1133.52
394.26	1132.59
394.63	1130.95
395.00	1120.41
395.37	1131.18
395.74	1128.61
396.11	1134.46
396.48	1139.14
396.84	1145.69
397.21	1141.95
397.58	1141.48
397.95	1147.10
398.32	1150.84
398.69	1160.67
399.06	1159.97
399.42	1173.54
399.79	1167.93
400.16	1168.86
400.53	1167.23
400.90	1167.69
401.27	1183.61
401.64	1193.91
402.00	1192.74
402.37	1186.65
402.74	1196.48
403.11	1184.31
403.48	1187.12
403.84	1203.74
404.21	1224.80
404.58	1238.38
404.95	1252.89
405.32	1270.91
405.68	1279.34
406.05	1286.83
406.42	1296.66
406.79	1313.27
407.16	1340.89
407.52	1367.11
407.89	1395.43
408.26	1429.37
408.63	1451.83
408.99	1469.39
409.36	1493.73
409.73	1518.77
410.10	1557.39
410.47	1591.56
410.83	1633.46
411.20	1683.31
411.57	1730.36
411.94	1766.87
412.30	1830.53
412.67	1885.77
413.04	1942.41
413.40	2005.84
413.77	2090.10
414.14	2164.29
414.51	2248.08
414.87	2336.09
415.24	2448.20
415.61	2556.80
415.97	2665.64
416.34	2798.58
416.71	2927.31
417.08	3061.65
417.44	3187.34
417.81	3364.05
418.18	3507.76
418.54	3693.83
418.91	3885.06
419.28	4101.79
419.64	4277.33
420.01	4509.28
420.38	4736.07
420.74	4964.74
421.11	5239.52
421.48	5532.32
421.84	5821.61
422.21	6127.76
422.58	6504.82
422.94	6840.22
423.31	7195.27
423.68	7572.80
424.04	7969.06
424.41	8336.05
424.77	8750.33
425.14	9207.20
425.51	9651.43
425.87	10154.65
426.24	10662.08
426.61	11265.00
426.97	11902.09
427.34	12552.06
427.70	13252.58
428.07	13969.49
428.44	14712.84
428.80	15484.05
429.17	16272.11
429.53	17030.67
429.90	17921.48
430.27	18666.94
430.63	19394.62
431.00	20252.89
431.36	21160.08
431.73	21912.10
432.09	22816.71
432.46	23799.27
432.83	24786.98
433.19	25712.42
433.56	26828.86
433.92	27850.03
434.29	28707.84
434.65	29564.48
435.02	30320.00
435.38	31054.23
435.75	31661.13
436.11	32547.02
436.48	33250.12
436.84	34145.84
437.21	34939.52
437.57	35621.08
437.94	36140.21
438.30	36580.93
438.67	36769.11
439.03	36844.95
439.40	37059.57
439.76	37087.66
440.13	37089.77
440.49	37020.49
440.86	36648.34
441.22	36302.65
441.59	35733.66
441.95	35215.93
442.32	34540.22
442.68	34141.86
443.05	33467.79
443.41	32818.29
443.78	31973.36
444.14	31214.09
444.51	30272.96
444.87	29644.29
445.24	28916.15
445.60	28253.54
445.96	27528.21
446.33	26841.97
446.69	25877.67
447.06	25062.46
447.42	24285.63
447.79	23535.72
448.15	22908.93
448.51	22270.43
448.88	21722.98
449.24	21059.67
449.61	20632.06
449.97	20046.92
450.33	19549.32
450.70	18926.04
451.06	18476.66
451.43	17846.58
451.79	17420.84
452.15	16934.48
452.52	16555.31
452.88	16147.36
453.24	15801.19
453.61	15402.83
453.97	15029.05
454.34	14652.22
454.70	14254.33
455.06	13834.67
455.43	13362.82
455.79	12885.35
456.15	12493.55
456.52	12070.38
456.88	11740.36
457.24	11386.24
457.61	11139.31
457.97	10820.06
458.33	10482.32
458.70	10111.58
459.06	9727.73
459.42	9345.29
459.79	8947.63
460.15	8670.75
460.51	8376.31
460.88	8135.94
461.24	7863.26
461.60	7659.40
461.96	7424.88
462.33	7201.13
462.69	6987.20
463.05	6812.36
463.42	6633.31
463.78	6469.24
464.14	6297.21
464.50	6142.50
464.87	5971.17
465.23	5818.34
465.59	5656.14
465.95	5495.81
466.32	5326.12
466.68	5188.27
467.04	5034.96
467.40	4893.83
467.77	4792.01
468.13	4677.56
468.49	4574.34
468.85	4482.36
469.22	4403.02
469.58	4294.41
469.94	4236.37
470.30	4151.88
470.66	4069.96
471.03	3996.00
471.39	3934.21
471.75	3850.42
472.11	3768.73
472.47	3689.39
472.84	3605.36
473.20	3528.12
473.56	3451.82
473.92	3389.80
474.28	3333.86
474.65	3264.11
475.01	3214.02
475.37	3150.60
475.73	3098.40
476.09	3037.08
476.45	2993.08
476.81	2941.12
477.18	2895.48
477.54	2852.88
477.90	2826.20
478.26	2774.24
478.62	2716.66
478.98	2675.00
479.34	2639.42
479.71	2592.85
480.07	2556.33
480.43	2532.93
480.79	2485.65
481.15	2454.52
481.51	2420.11
481.87	2399.05
482.23	2356.22
482.59	2338.20
482.96	2304.02
483.32	2282.26
483.68	2249.96
484.04	2224.21
484.40	2187.00
484.76	2149.31
485.12	2119.36
485.48	2095.95
485.84	2076.99
486.20	2061.31
486.56	2037.90
486.92	2000.22
487.28	1977.99
487.64	1961.60
488.00	1948.03
488.37	1927.43
488.73	1904.96
489.09	1875.94
489.45	1850.90
489.81	1824.21
490.17	1802.21
490.53	1797.06
490.89	1783.49
491.25	1772.25
491.61	1755.64
491.97	1739.25
492.33	1717.02
492.69	1698.53
493.05	1672.55
493.41	1653.12
493.77	1629.95
494.13	1615.91
494.49	1602.10
494.85	1587.82
495.21	1572.14
495.57	1566.52
495.93	1546.63
496.29	1546.39
496.64	1529.07
497.00	1511.28
497.36	1497.47
497.72	1495.84
498.08	1464.24
498.44	1442.24
498.80	1438.26
499.16	1427.26
499.52	1406.19
499.88	1394.49
500.24	1392.15
500.60	1390.75
500.96	1390.75
501.32	1379.98
501.68	1382.55
502.03	1381.62
502.39	1361.02
502.75	1341.36
503.11	1330.36
503.47	1321.47
503.83	1312.34
504.19	1303.68
504.55	1298.30
504.91	1300.40
505.26	1294.32
505.62	1291.74
505.98	1294.78
506.34	1288.23
506.70	1274.42
507.06	1258.04
507.42	1252.19
507.78	1252.65
508.13	1260.14
508.49	1265.53
508.85	1269.74
509.21	1263.89
509.57	1244.46
509.93	1235.57
510.28	1224.80
510.64	1234.40
511.00	1224.10
511.36	1229.48
511.72	1225.04
512.07	1222.70
512.43	1201.87
512.79	1201.40
513.15	1202.33
513.51	1202.33
513.86	1203.50
514.22	1207.95
514.58	1203.04
514.94	1204.21
515.30	1202.57
515.65	1197.42
516.01	1191.80
516.37	1205.14
516.73	1195.55
517.08	1177.99
517.44	1177.06
517.80	1164.42
518.16	1158.57
518.51	1155.99
518.87	1158.33
519.23	1151.08
519.59	1162.31
519.94	1148.97
520.30	1154.82
520.66	1150.84
521.01	1154.35
521.37	1159.27
521.73	1166.99
522.09	1158.57
522.44	1170.97
522.80	1164.42
523.16	1158.80
523.51	1156.69
523.87	1156.46
524.23	1146.39
524.58	1155.76
524.94	1155.52
525.30	1148.73
525.65	1141.01
526.01	1138.67
526.37	1129.54
526.72	1123.22
527.08	1124.86
527.44	1128.61
527.79	1127.44
528.15	1136.80
528.51	1132.35
528.86	1132.12
529.22	1132.59
529.58	1140.78
529.93	1135.63
530.29	1130.95
530.65	1132.35
531.00	1125.80
531.36	1121.12
531.71	1115.50
532.07	1128.14
532.43	1117.37
532.78	1127.44
533.14	1129.78
533.49	1138.44
533.85	1137.27
534.21	1152.48
534.56	1142.42
534.92	1143.59
535.27	1132.35
535.63	1127.44
535.98	1122.29
536.34	1118.07
536.69	1109.18
537.05	1112.46
537.41	1121.12
537.76	1117.14
538.12	1121.35
538.47	1117.61
538.83	1114.80
539.18	1103.09
539.54	1110.58
539.89	1117.14
540.25	1126.73
540.60	1118.54
540.96	1120.41
541.31	1107.31
541.67	1104.26
542.02	1098.41
542.38	1111.75
542.73	1125.33
543.09	1137.27
543.44	1137.50
543.80	1141.25
544.15	1139.84
544.51	1129.07
544.86	1122.52
545.22	1121.58
545.57	1120.65
545.93	1123.22
546.28	1112.22
546.64	1116.20
546.99	1114.33
547.35	1110.12
547.70	1108.95
548.05	1113.86
548.41	1105.20
548.76	1097.71
549.12	1103.33
549.47	1100.29
549.83	1108.48
550.18	1114.56
550.53	1127.44
550.89	1122.99
551.24	1121.58
551.60	1118.78
551.95	1120.65
552.30	1116.67
552.66	1118.31
553.01	1108.95
553.37	1105.44
553.72	1104.26
554.07	1103.33
554.43	1102.63
554.78	1116.44
555.13	1121.35
555.49	1117.37
555.84	1106.84
556.19	1106.37
556.55	1098.41
556.90	1088.12
557.26	1085.77
557.61	1089.29
557.96	1085.54
558.32	1076.65
558.67	1089.52
559.02	1088.12
559.37	1093.50
559.73	1096.78
560.08	1109.88
560.43	1106.14
560.79	1112.92
561.14	1112.92
561.49	1115.50
561.85	1120.18
562.20	1116.20
562.55	1107.54
562.90	1097.01
563.26	1093.50
563.61	1081.56
563.96	1083.90
564.32	1089.05
564.67	1097.71
565.02	1103.09
565.37	1105.90
565.73	1098.88
566.08	1094.90
566.43	1091.39
566.78	1097.71
567.14	1098.41
567.49	1110.35
567.84	1113.16
568.19	1110.82
568.54	1094.43
568.90	1099.35
569.25	1088.58
569.60	1091.86
569.95	1099.12
570.31	1109.65
570.66	1104.73
571.01	1102.86
571.36	1093.73
571.71	1093.97
572.06	1092.33
572.42	1095.14
572.77	1102.39
573.12	1106.37
573.47	1108.24
573.82	1105.90
574.18	1105.90
574.53	1095.84
574.88	1103.09
575.23	1107.07
575.58	1107.31
575.93	1110.12
576.28	1113.39
576.64	1107.31
576.99	1103.80
577.34	1100.29
577.69	1100.75
578.04	1097.71
578.39	1093.97
578.74	1086.48
579.09	1087.18
579.44	1084.14
579.80	1086.48
580.15	1078.52
580.50	1070.80
580.85	1074.77
581.20	1071.73
581.55	1079.22
581.90	1088.58
582.25	1103.80
582.60	1100.75
582.95	1105.90
583.30	1096.31
583.65	1097.48
584.00	1089.29
584.35	1091.86
584.71	1091.39
585.06	1094.20
585.41	1099.82
585.76	1104.73
586.11	1106.14
586.46	1105.20
586.81	1101.22
587.16	1109.88
587.51	1104.26
587.86	1101.92
588.21	1098.41
588.56	1097.01
588.91	1091.86
589.26	1095.60
589.61	1097.71
589.96	1101.92
590.31	1111.29
590.66	1101.46
591.01	1100.99
591.36	1102.86
591.71	1090.46
592.06	1081.09
592.41	1083.20
592.76	1082.97
593.10	1075.71
593.45	1084.14
593.80	1086.24
594.15	1089.99
594.50	1088.35
594.85	1083.43
595.20	1082.03
595.55	1086.01
595.90	1080.86
596.25	1080.86
596.60	1091.63
596.95	1097.01
597.30	1102.16
597.64	1155.99
597.99	1158.10
598.34	1153.65
598.69	1151.08
599.04	1142.65
599.39	1088.58
599.74	1095.14
600.09	1098.88
600.44	1097.24
600.78	1100.99
601.13	1098.41
601.48	1094.20
601.83	1093.73
602.18	1091.63
602.53	1092.33
602.88	1096.07
603.22	1097.48
603.57	1094.43
603.92	1090.22
604.27	1092.80
604.62	1094.20
604.97	1093.26
605.31	1091.39
605.66	1097.95
606.01	1105.44
606.36	1097.01
606.71	1094.20
607.05	1093.03
607.40	1103.56
607.75	1090.69
608.10	1096.31
608.44	1101.92
608.79	1108.24
609.14	1097.01
609.49	1105.67
609.84	1105.67
610.18	1097.71
610.53	1092.33
610.88	1096.54
611.23	1091.16
611.57	1099.35
611.92	1110.82
612.27	1109.65
612.62	1101.46
612.96	1108.01
613.31	1103.09
613.66	1097.71
614.00	1098.65
614.35	1105.44
614.70	1096.07
615.05	1094.43
615.39	1086.94
615.74	1088.12
616.09	1088.82
616.43	1097.95
616.78	1097.01
617.13	1104.26
617.47	1097.24
617.82	1086.94
618.17	1084.14
618.51	1080.63
618.86	1070.56
619.21	1077.11
619.55	1084.14
619.90	1076.41
620.25	1075.71
620.59	1089.29
620.94	1084.37
621.29	1089.99
621.63	1099.58
621.98	1112.22
622.32	1111.75
622.67	1106.84
623.02	1094.90
623.36	1080.63
623.71	1076.18
624.05	1068.45
624.40	1075.71
624.75	1081.80
625.09	1085.31
625.44	1079.92
625.78	1087.41
626.13	1087.41
626.48	1087.65
626.82	1086.48
627.17	1093.73
627.51	1088.82
627.86	1093.26
628.20	1100.52
628.55	1104.26
628.89	1093.97
629.24	1102.86
629.58	1108.24
629.93	1101.46
630.28	1099.58
630.62	1108.48
630.97	1101.92
631.31	1105.44
631.66	1111.29
632.00	1116.44
632.35	1105.44
632.69	1096.78
633.04	1080.63
633.38	1076.41
633.73	1072.90
634.07	1076.88
634.42	1075.94
634.76	1078.99
635.11	1078.75
635.45	1083.20
635.79	1090.92
636.14	1094.90
636.48	1097.95
636.83	1094.90
637.17	1094.67
637.52	1102.86
637.86	1107.54
638.21	1107.31
638.55	1112.69
638.89	1113.16
639.24	1101.22
639.58	1101.69
639.93	1099.58
640.27	1092.33
640.61	1092.56
640.96	1086.71
641.30	1085.07
641.65	1087.65
641.99	1087.65
642.33	1092.33
642.68	1100.99
643.02	1107.07
643.37	1103.33
643.71	1100.05
644.05	1095.60
644.40	1099.35
644.74	1087.88
645.08	1088.82
645.43	1089.52
645.77	1084.37
646.11	1076.18
646.46	1077.35
646.80	1078.28
647.14	1080.39
647.49	1083.67
647.83	1083.20
648.17	1089.29
648.52	1087.41
648.86	1095.37
649.20	1095.37
649.55	1089.52
649.89	1090.46
650.23	1087.41
650.57	1077.82
650.92	1080.39
651.26	1088.58
651.60	1087.41
651.95	1095.60
652.29	1096.31
652.63	1092.80
652.97	1091.16
653.32	1084.84
653.66	1083.67
654.00	1093.03
654.34	1097.71
654.69	1101.22
655.03	1103.33
655.37	1100.05
655.71	1107.31
656.05	1099.82
656.40	1096.78
656.74	1094.43
657.08	1097.01
657.42	1079.46
657.76	1085.77
658.11	1083.20
658.45	1085.07
658.79	1078.99
659.13	1089.05
659.47	1090.69
659.82	1096.78
660.16	1097.48
660.50	1101.92
660.84	1096.07
661.18	1076.41
661.52	1070.33
661.87	1070.56
662.21	1063.07
662.55	1058.39
662.89	1074.07
663.23	1087.88
663.57	1091.86
663.91	1103.09
664.25	1106.84
664.60	1095.60
664.94	1096.31
665.28	1089.29
665.62	1093.03
665.96	1089.05
666.30	1094.20
666.64	1083.90
666.98	1082.03
667.32	1069.39
667.66	1074.77
668.01	1082.73
668.35	1075.01
668.69	1083.20
669.03	1093.50
669.37	1097.71
669.71	1088.12
670.05	1088.58
670.39	1082.26
670.73	1075.01
671.07	1067.28
671.41	1074.31
671.75	1080.63
672.09	1082.73
672.43	1092.56
672.77	1089.52
673.11	1095.84
673.45	1093.26
673.79	1092.09
674.13	1084.14
674.47	1091.86
674.81	1082.73
675.15	1089.05
675.49	1102.39
675.83	1112.92
676.17	1122.75
676.51	1125.80
676.85	1117.37
677.19	1104.26
677.53	1094.90
677.87	1083.20
678.21	1081.09
678.55	1082.50
678.89	1078.75
679.23	1082.03
679.57	1077.82
679.90	1083.90
680.24	1082.50
680.58	1080.86
680.92	1069.16
681.26	1075.71
681.60	1068.45
681.94	1071.03
682.28	1079.22
682.62	1078.99
682.96	1070.56
683.29	1072.67
683.63	1064.94
683.97	1056.28
684.31	1064.48
684.65	1067.75
684.99	1066.35
685.33	1074.31
685.67	1085.77
686.00	1094.67
686.34	1097.95
686.68	1100.05
687.02	1101.69
687.36	1098.88
687.70	1088.12
688.03	1088.12
688.37	1085.77
688.71	1083.67
689.05	1081.09
689.39	1081.33
689.72	1083.67
690.06	1079.46
690.40	1082.26
690.74	1078.52
691.08	1076.88
691.41	1072.90
691.75	1089.75
692.09	1080.63
692.43	1075.48
692.76	1079.69
693.10	1086.94
693.44	1082.26
693.78	1089.05
694.11	1105.20
694.45	1101.22
694.79	1094.43
695.13	1086.01
695.46	1084.60
695.80	1077.11
696.14	1085.07
696.48	1076.18
696.81	1077.11
697.15	1081.56
697.49	1086.48
697.82	1081.80
698.16	1093.97
698.50	1093.73
698.83	1093.73
699.17	1086.01
699.51	1086.48
699.84	1082.97
700.18	1080.16
700.52	1074.07
700.85	1087.41
701.19	1082.73
701.53	1082.73
701.86	1087.65
702.20	1089.52
702.54	1084.84
702.87	1090.92
703.21	1090.92
703.55	1090.22
703.88	1087.41
704.22	1086.94
704.55	1098.18
704.89	1104.50
705.23	1109.65
705.56	1116.20
705.90	1106.14
706.23	1094.90
706.57	1076.88
706.91	1067.99
707.24	1065.88
707.58	1069.39
707.91	1062.84
708.25	1080.16
708.58	1087.88
708.92	1086.94
709.26	1089.99
709.59	1096.78
709.93	1083.67
710.26	1072.43
710.60	1077.11
710.93	1075.71
711.27	1064.48
711.60	1074.77
711.94	1072.67
712.27	1068.92
712.61	1068.45
712.94	1077.35
713.28	1080.39
713.61	1086.01
713.95	1089.99
714.28	1091.63
714.62	1086.01
714.95	1083.20
715.29	1083.43
715.62	1074.31
715.96	1073.84
716.29	1076.18
716.63	1063.07
716.96	1058.62
717.29	1065.41
717.63	1071.73
717.96	1074.77
718.30	1078.52
718.63	1087.41
718.97	1092.09
719.30	1082.50
719.63	1074.07
719.97	1076.65
720.30	1075.48
720.64	1070.33
720.97	1071.73
721.30	1084.84
721.64	1097.95
721.97	1098.41
722.31	1092.09
722.64	1094.20
722.97	1094.90
723.31	1087.18
723.64	1078.99
723.97	1071.26
724.31	1067.52
724.64	1049.03
724.98	1047.62
725.31	1054.88
725.64	1070.80
725.98	1070.80
726.31	1079.46
726.64	1079.69
726.97	1081.09
727.31	1083.20
727.64	1088.82
727.97	1094.43
728.31	1102.39
728.64	1101.92
728.97	1101.69
729.31	1090.92
729.64	1090.69
729.97	1082.97
730.30	1080.63
730.64	1071.03
730.97	1080.63
731.30	1079.22
731.63	1068.69
731.97	1071.73
732.30	1069.62
732.63	1062.60
732.96	1061.43
733.30	1070.33
733.63	1069.62
733.96	1081.56
734.29	1091.86
734.63	1097.48
734.96	1101.46
735.29	1100.29
735.62	1098.65
735.95	1089.99
736.29	1092.56
736.62	1090.69
736.95	1089.99
737.28	1081.80
737.61	1086.94
737.94	1082.73
738.28	1079.69
738.61	1066.82
738.94	1070.09
739.27	1076.88
739.60	1068.45
739.93	1069.39
740.27	1079.22
740.60	1075.71
740.93	1060.03
741.26	1065.65
741.59	1060.96
741.92	1061.67
742.25	1065.65
742.58	1072.20
742.91	1078.05
743.25	1074.54
743.58	1073.60
743.91	1068.69
744.24	1070.56
744.57	1067.99
744.90	1080.16
745.23	1081.56
745.56	1079.92
745.89	1085.77
746.22	1086.24
746.55	1084.84
746.88	1084.84
747.21	1085.31
747.54	1080.63
747.87	1078.52
748.20	1070.09
748.53	1079.22
748.87	1086.24
749.20	1090.92
749.53	1081.56
749.86	1087.65
750.19	1079.22
750.52	1082.03
750.85	1078.28
751.18	1092.80
751.51	1090.46
751.84	1096.31
752.16	1085.77
752.49	1084.14
752.82	1071.03
753.15	1070.56
753.48	1070.56
753.81	1078.28
754.14	1068.92
754.47	1071.73
754.80	1073.37
755.13	1066.11
755.46	1056.28
755.79	1062.84
756.12	1071.26
756.45	1068.92
756.78	1059.56
757.11	1069.16
757.43	1081.80
757.76	1077.58
758.09	1074.54
758.42	1081.80
758.75	1084.37
759.08	1064.94
759.41	1058.16
759.74	1058.86
760.07	1054.41
760.39	1052.30
760.72	1056.28
761.05	1069.62
761.38	1082.26
761.71	1083.90
762.04	1075.48
762.36	1086.01
762.69	1083.20
763.02	1077.11
763.35	1089.05
763.68	1092.33
764.01	1084.37
764.33	1072.43
