SpectraSuite Data File
++++++++++++++++++++++++++++++++++++
Date: Mon Aug 26 10:24:38 PDT 2019
User: corrico
Dark Spectrum Present: No
Reference Spectrum Present: No
Number of Sampled Component Spectra: 1
Spectrometers: USB2+H06089
Integration Time (usec): 10000 (USB2+H06089)
Spectra Averaged: 2 (USB2+H06089)
Boxcar Smoothing: 2 (USB2+H06089)
Correct for Electrical Dark: No (USB2+H06089)
Strobe/Lamp Enabled: No (USB2+H06089)
Correct for Detector Non-linearity: No (USB2+H06089)
Correct for Stray Light: No (USB2+H06089)
Number of Pixels in Processed Spectrum: 2048
>>>>>Begin Processed Spectral Data<<<<<
339.70	998.24
340.07	998.24
340.45	989.81
340.82	974.37
341.19	959.62
341.57	947.68
341.94	932.24
342.31	923.81
342.69	920.30
343.06	920.06
343.43	921.47
343.81	927.09
344.18	921.47
344.55	925.68
344.93	927.09
345.30	923.81
345.67	929.43
346.04	937.62
346.42	947.68
346.79	963.83
347.16	964.77
347.54	966.64
347.91	970.85
348.28	977.41
348.65	985.60
349.03	1007.60
349.40	1014.86
349.77	1032.64
350.14	1027.03
350.52	1026.79
350.89	1028.90
351.26	1053.94
351.63	1061.20
352.01	1087.41
352.38	1092.80
352.75	1095.37
353.12	1084.14
353.50	1087.18
353.87	1078.99
354.24	1091.86
354.61	1087.18
354.98	1087.88
355.36	1085.07
355.73	1090.69
356.10	1084.14
356.47	1100.52
356.84	1108.24
357.22	1114.80
357.59	1113.63
357.96	1119.48
358.33	1116.20
358.70	1112.92
359.08	1106.14
359.45	1109.18
359.82	1100.05
360.19	1098.41
360.56	1104.50
360.94	1104.50
361.31	1097.01
361.68	1100.75
362.05	1099.35
362.42	1101.69
362.79	1093.73
363.16	1098.41
363.54	1090.69
363.91	1093.97
364.28	1084.84
364.65	1099.12
365.02	1104.97
365.39	1114.33
365.76	1104.73
366.14	1109.88
366.51	1111.05
366.88	1106.84
367.25	1089.99
367.62	1094.20
367.99	1079.46
368.36	1071.50
368.73	1071.97
369.10	1084.14
369.48	1083.90
369.85	1094.67
370.22	1093.73
370.59	1091.39
370.96	1086.48
371.33	1087.65
371.70	1085.07
372.07	1083.67
372.44	1080.16
372.81	1079.46
373.18	1092.09
373.55	1095.14
373.93	1097.71
374.30	1097.24
374.67	1096.31
375.04	1090.46
375.41	1086.48
375.78	1084.84
376.15	1089.52
376.52	1084.84
376.89	1080.16
377.26	1095.14
377.63	1098.18
378.00	1104.97
378.37	1123.69
378.74	1125.10
379.11	1121.12
379.48	1124.86
379.85	1123.22
380.22	1127.20
380.59	1130.95
380.96	1125.56
381.33	1121.12
381.70	1112.22
382.07	1107.54
382.44	1111.29
382.81	1116.67
383.18	1125.56
383.55	1138.20
383.92	1138.67
384.29	1135.39
384.66	1134.69
385.03	1121.12
385.40	1115.27
385.77	1112.22
386.14	1118.31
386.51	1122.75
386.88	1131.65
387.25	1131.65
387.62	1130.01
387.99	1122.99
388.36	1115.97
388.73	1118.07
389.10	1120.18
389.46	1118.78
389.83	1112.69
390.20	1116.44
390.57	1115.27
390.94	1126.27
391.31	1133.99
391.68	1146.16
392.05	1141.01
392.42	1137.97
392.79	1133.05
393.16	1124.86
393.53	1124.39
393.89	1126.27
394.26	1125.56
394.63	1126.50
395.00	1139.14
395.37	1133.99
395.74	1152.48
396.11	1158.57
396.48	1159.74
396.84	1162.78
397.21	1173.78
397.58	1156.93
397.95	1171.67
398.32	1168.63
398.69	1170.27
399.06	1159.97
399.42	1164.42
399.79	1159.03
400.16	1163.01
400.53	1163.95
400.90	1188.06
401.27	1197.65
401.64	1201.63
402.00	1228.55
402.37	1240.72
402.74	1239.78
403.11	1247.97
403.48	1268.57
403.84	1264.36
404.21	1272.55
404.58	1288.00
404.95	1311.40
405.32	1334.57
405.68	1355.64
406.05	1385.36
406.42	1409.00
406.79	1446.92
407.16	1463.30
407.52	1488.58
407.89	1503.79
408.26	1537.73
408.63	1552.01
408.99	1586.65
409.36	1626.44
409.73	1684.02
410.10	1728.49
410.47	1786.06
410.83	1849.96
411.20	1910.35
411.57	1967.69
411.94	2047.97
412.30	2126.38
412.67	2201.04
413.04	2291.15
413.40	2396.71
413.77	2488.46
414.14	2601.51
414.51	2726.72
414.87	2860.84
415.24	2993.78
415.61	3159.26
415.97	3320.28
416.34	3494.19
416.71	3683.77
417.08	3900.03
417.44	4093.36
417.81	4339.12
418.18	4592.60
418.54	4859.65
418.91	5137.48
419.28	5442.92
419.64	5724.25
420.01	6057.31
420.38	6400.43
420.74	6724.83
421.11	7151.04
421.48	7567.65
421.84	8010.95
422.21	8466.42
422.58	9010.36
422.94	9499.77
423.31	10018.90
423.68	10592.80
424.04	11194.55
424.41	11817.60
424.77	12433.16
425.14	13099.51
425.51	13782.71
425.87	14589.50
426.24	15356.02
426.61	16256.66
426.97	17301.94
427.34	18213.11
427.70	19221.42
428.07	20240.95
428.44	21316.43
428.80	22361.48
429.17	23490.32
429.53	24512.43
429.90	25789.43
430.27	26922.71
430.63	28076.83
431.00	29401.11
431.36	30921.05
431.73	32210.92
432.09	33619.69
432.46	34978.14
432.83	36321.84
433.19	37501.47
433.56	38938.56
433.92	40425.03
434.29	41948.02
434.65	43435.66
435.02	44840.22
435.38	46174.79
435.75	47036.58
436.11	48242.89
436.48	49238.32
436.84	50241.71
437.21	51137.90
437.57	52211.73
437.94	52898.68
438.30	53521.73
438.67	53771.00
439.03	53857.60
439.40	53965.26
439.76	53812.66
440.13	53668.95
440.49	53665.44
440.86	53268.02
441.22	52784.93
441.59	52156.03
441.95	51431.40
442.32	50471.31
442.68	49770.32
443.05	48906.90
443.41	48079.05
443.78	47113.81
444.14	46299.54
444.51	45096.74
444.87	44173.16
445.24	42893.83
445.60	41717.01
445.96	40333.05
446.33	39399.41
446.69	38042.83
447.06	37093.28
447.42	36108.15
447.79	35071.52
448.15	34036.77
448.51	33128.18
448.88	32281.84
449.24	31234.68
449.61	30566.23
449.97	29716.61
450.33	28940.49
450.70	27948.57
451.06	27315.69
451.43	26493.69
451.79	25968.01
452.15	25416.11
452.52	24916.64
452.88	24301.31
453.24	23801.14
453.61	23155.86
453.97	22460.48
454.34	21773.30
454.70	21198.93
455.06	20538.43
455.43	19801.63
455.79	19118.43
456.15	18558.11
456.52	17861.10
456.88	17337.05
457.24	16785.62
457.61	16276.09
457.97	15722.08
458.33	15222.38
458.70	14637.71
459.06	14063.81
459.42	13613.02
459.79	13108.64
460.15	12665.57
460.51	12204.96
460.88	11800.04
461.24	11337.79
461.60	10987.18
461.96	10586.71
462.33	10261.61
462.69	9911.70
463.05	9620.30
463.42	9347.16
463.78	9070.98
464.14	8757.82
464.50	8537.81
464.87	8270.05
465.23	7960.86
465.59	7741.79
465.95	7549.40
466.32	7312.54
466.68	7140.74
467.04	6976.20
467.40	6800.43
467.77	6639.63
468.13	6466.43
468.49	6281.06
468.85	6152.80
469.22	6021.03
469.58	5873.11
469.94	5782.76
470.30	5631.33
470.66	5504.00
471.03	5362.64
471.39	5270.18
471.75	5138.88
472.11	5055.56
472.47	4964.51
472.84	4860.59
473.20	4720.16
473.56	4616.94
473.92	4497.11
474.28	4395.06
474.65	4311.03
475.01	4247.84
475.37	4153.05
475.73	4093.60
476.09	4010.74
476.45	3926.95
476.81	3835.44
477.18	3769.90
477.54	3706.71
477.90	3639.06
478.26	3558.32
478.62	3504.25
478.98	3440.59
479.34	3375.75
479.71	3313.73
480.07	3267.86
480.43	3222.22
480.79	3177.98
481.15	3126.25
481.51	3049.25
481.87	3005.01
482.23	2935.73
482.59	2867.16
482.96	2811.92
483.32	2803.49
483.68	2770.73
484.04	2720.17
484.40	2707.53
484.76	2671.72
485.12	2620.70
485.48	2582.08
485.84	2569.21
486.20	2513.50
486.56	2480.27
486.92	2447.26
487.28	2407.01
487.64	2365.35
488.00	2339.13
488.37	2306.60
488.73	2275.47
489.09	2234.04
489.45	2200.34
489.81	2171.08
490.17	2141.36
490.53	2114.67
490.89	2091.97
491.25	2066.93
491.61	2048.20
491.97	2022.69
492.33	1990.16
492.69	1959.96
493.05	1938.20
493.41	1902.39
493.77	1874.30
494.13	1864.70
494.49	1841.53
494.85	1823.51
495.21	1796.60
495.57	1791.91
495.93	1757.04
496.29	1743.23
496.64	1731.06
497.00	1720.06
497.36	1680.97
497.72	1682.85
498.08	1669.27
498.44	1637.67
498.80	1613.10
499.16	1595.31
499.52	1558.09
499.88	1542.65
500.24	1524.39
500.60	1521.82
500.96	1518.31
501.32	1505.67
501.68	1483.43
502.03	1487.18
502.39	1480.15
502.75	1465.88
503.11	1466.11
503.47	1475.71
503.83	1460.49
504.19	1448.79
504.55	1443.41
504.91	1431.24
505.26	1417.66
505.62	1406.19
505.98	1400.34
506.34	1398.94
506.70	1385.36
507.06	1370.38
507.42	1362.66
507.78	1346.98
508.13	1330.36
508.49	1339.02
508.85	1336.68
509.21	1332.94
509.57	1326.15
509.93	1325.91
510.28	1313.27
510.64	1312.57
511.00	1296.89
511.36	1297.12
511.72	1285.19
512.07	1280.51
512.43	1272.08
512.79	1277.23
513.15	1258.97
513.51	1259.91
513.86	1254.76
514.22	1244.23
514.58	1243.29
514.94	1242.12
515.30	1235.80
515.65	1229.25
516.01	1224.10
516.37	1203.74
516.73	1210.29
517.08	1210.76
517.44	1213.57
517.80	1218.25
518.16	1237.21
518.51	1232.53
518.87	1217.55
519.23	1211.93
519.59	1202.80
519.94	1198.59
520.30	1189.46
520.66	1196.95
521.01	1190.16
521.37	1191.33
521.73	1184.08
522.09	1193.44
522.44	1197.65
522.80	1203.74
523.16	1198.35
523.51	1191.10
523.87	1176.59
524.23	1163.01
524.58	1164.18
524.94	1154.59
525.30	1152.25
525.65	1152.48
526.01	1155.76
526.37	1151.78
526.72	1162.31
527.08	1156.93
527.44	1159.74
527.79	1148.03
528.15	1131.65
528.51	1123.93
528.86	1130.48
529.22	1133.76
529.58	1140.54
529.93	1154.35
530.29	1167.69
530.65	1171.44
531.00	1160.20
531.36	1164.65
531.71	1153.65
532.07	1145.69
532.43	1143.12
532.78	1147.10
533.14	1145.46
533.49	1153.18
533.85	1160.67
534.21	1159.50
534.56	1167.46
534.92	1164.65
535.27	1157.39
535.63	1157.16
535.98	1152.71
536.34	1147.80
536.69	1149.67
537.05	1153.88
537.41	1140.31
537.76	1142.42
538.12	1130.24
538.47	1126.03
538.83	1126.03
539.18	1127.90
539.54	1122.05
539.89	1130.48
540.25	1125.56
540.60	1120.65
540.96	1130.71
541.31	1137.97
541.67	1133.05
542.02	1134.46
542.38	1127.67
542.73	1122.52
543.09	1121.35
543.44	1135.39
543.80	1140.54
544.15	1153.88
544.51	1162.54
544.86	1161.61
545.22	1147.56
545.57	1151.54
545.93	1150.84
546.28	1130.48
546.64	1133.29
546.99	1139.84
547.35	1129.07
547.70	1128.14
548.05	1139.14
548.41	1140.31
548.76	1140.54
549.12	1139.84
549.47	1128.84
549.83	1116.20
550.18	1104.50
550.53	1109.65
550.89	1116.20
551.24	1119.48
551.60	1123.46
551.95	1125.33
552.30	1114.09
552.66	1112.22
553.01	1112.69
553.37	1108.95
553.72	1111.75
554.07	1117.37
554.43	1109.65
554.78	1111.75
555.13	1108.24
555.49	1107.54
555.84	1103.80
556.19	1100.75
556.55	1101.46
556.90	1116.90
557.26	1115.73
557.61	1112.69
557.96	1120.18
558.32	1114.10
558.67	1100.05
559.02	1102.39
559.37	1098.18
559.73	1099.82
560.08	1103.56
560.43	1106.14
560.79	1106.61
561.14	1110.12
561.49	1110.82
561.85	1108.95
562.20	1111.99
562.55	1108.24
562.90	1101.92
563.26	1100.05
563.61	1110.82
563.96	1115.27
564.32	1108.71
564.67	1116.44
565.02	1111.52
565.37	1105.67
565.73	1096.78
566.08	1104.50
566.43	1092.80
566.78	1093.26
567.14	1090.46
567.49	1093.97
567.84	1085.07
568.19	1093.26
568.54	1101.92
568.90	1102.63
569.25	1104.73
569.60	1113.86
569.95	1119.48
570.31	1122.29
570.66	1126.97
571.01	1132.35
571.36	1130.24
571.71	1124.86
572.06	1113.39
572.42	1103.33
572.77	1095.14
573.12	1099.82
573.47	1105.90
573.82	1104.73
574.18	1100.05
574.53	1100.52
574.88	1093.97
575.23	1080.86
575.58	1083.20
575.93	1095.84
576.28	1093.03
576.64	1098.88
576.99	1112.69
577.34	1119.24
577.69	1107.54
578.04	1109.88
578.39	1103.56
578.74	1096.78
579.09	1090.46
579.44	1105.90
579.80	1102.16
580.15	1104.73
580.50	1105.67
580.85	1106.37
581.20	1100.75
581.55	1101.69
581.90	1101.69
582.25	1099.82
582.60	1097.95
582.95	1096.31
583.30	1098.65
583.65	1086.94
584.00	1084.60
584.35	1086.94
584.71	1079.22
585.06	1073.37
585.41	1090.46
585.76	1094.43
586.11	1095.14
586.46	1101.22
586.81	1122.29
587.16	1122.29
587.51	1122.05
587.86	1126.73
588.21	1133.76
588.56	1119.01
588.91	1115.73
589.26	1110.82
589.61	1095.84
589.96	1086.01
590.31	1085.07
590.66	1079.69
591.01	1083.90
591.36	1093.97
591.71	1086.24
592.06	1086.71
592.41	1080.39
592.76	1082.73
593.10	1084.84
593.45	1103.09
593.80	1100.05
594.15	1108.24
594.50	1107.31
594.85	1098.88
595.20	1089.52
595.55	1089.99
595.90	1098.18
596.25	1095.84
596.60	1097.48
596.95	1109.65
597.30	1112.46
597.64	1149.44
597.99	1156.22
598.34	1161.61
598.69	1162.54
599.04	1164.18
599.39	1121.12
599.74	1121.12
600.09	1115.03
600.44	1101.22
600.78	1100.52
601.13	1099.12
601.48	1090.22
601.83	1098.88
602.18	1098.65
602.53	1097.71
602.88	1097.01
603.22	1100.52
603.57	1089.05
603.92	1095.37
604.27	1098.65
604.62	1093.97
604.97	1090.69
605.31	1090.92
605.66	1083.90
606.01	1072.90
606.36	1082.97
606.71	1082.50
607.05	1089.05
607.40	1094.20
607.75	1093.73
608.10	1090.69
608.44	1093.03
608.79	1090.92
609.14	1089.29
609.49	1096.31
609.84	1101.46
610.18	1109.88
610.53	1108.95
610.88	1108.95
611.23	1102.16
611.57	1094.67
611.92	1086.71
612.27	1095.37
612.62	1099.82
612.96	1114.33
613.31	1120.18
613.66	1122.05
614.00	1117.84
614.35	1115.50
614.70	1109.88
615.05	1110.58
615.39	1110.35
615.74	1109.18
616.09	1106.14
616.43	1110.35
616.78	1107.07
617.13	1094.20
617.47	1099.12
617.82	1106.61
618.17	1098.65
618.51	1099.82
618.86	1116.20
619.21	1099.58
619.55	1088.12
619.90	1096.07
620.25	1097.24
620.59	1102.16
620.94	1113.63
621.29	1108.95
621.63	1103.09
621.98	1096.31
622.32	1088.58
622.67	1094.67
623.02	1108.48
623.36	1104.97
623.71	1114.80
624.05	1127.90
624.40	1112.22
624.75	1095.37
625.09	1099.35
625.44	1091.39
625.78	1075.48
626.13	1084.37
626.48	1097.24
626.82	1098.41
627.17	1094.67
627.51	1096.78
627.86	1103.80
628.20	1100.52
628.55	1096.31
628.89	1097.95
629.24	1094.90
629.58	1089.29
629.93	1090.69
630.28	1103.33
630.62	1110.12
630.97	1109.65
631.31	1107.31
631.66	1111.05
632.00	1095.14
632.35	1095.60
632.69	1099.82
633.04	1102.16
633.38	1103.80
633.73	1120.65
634.07	1112.69
634.42	1112.22
634.76	1109.18
635.11	1099.12
635.45	1081.56
635.79	1082.26
636.14	1074.07
636.48	1077.58
636.83	1083.43
637.17	1087.18
637.52	1087.18
637.86	1092.09
638.21	1090.22
638.55	1088.35
638.89	1089.99
639.24	1087.88
639.58	1090.69
639.93	1085.07
640.27	1086.48
640.61	1086.94
640.96	1084.60
641.30	1077.35
641.65	1082.50
641.99	1072.67
642.33	1069.39
642.68	1072.43
643.02	1072.20
643.37	1071.03
643.71	1084.60
644.05	1090.22
644.40	1099.12
644.74	1111.29
645.08	1117.37
645.43	1113.39
645.77	1113.86
646.11	1098.65
646.46	1097.95
646.80	1101.22
647.14	1096.78
647.49	1098.41
647.83	1119.48
648.17	1116.90
648.52	1109.65
648.86	1113.63
649.20	1112.69
649.55	1102.16
649.89	1099.12
650.23	1097.24
650.57	1099.82
650.92	1090.46
651.26	1095.14
651.60	1094.67
651.95	1084.14
652.29	1086.48
652.63	1091.16
652.97	1083.20
653.32	1091.39
653.66	1100.99
654.00	1086.24
654.34	1082.26
654.69	1084.60
655.03	1078.99
655.37	1076.41
655.71	1079.46
656.05	1093.26
656.40	1089.29
656.74	1082.50
657.08	1089.99
657.42	1103.33
657.76	1099.35
658.11	1105.44
658.45	1104.03
658.79	1094.20
659.13	1085.54
659.47	1078.05
659.82	1073.37
660.16	1081.33
660.50	1089.05
660.84	1097.24
661.18	1099.82
661.52	1092.80
661.87	1095.60
662.21	1088.35
662.55	1091.16
662.89	1100.99
663.23	1117.61
663.57	1104.03
663.91	1117.37
664.25	1115.97
664.60	1114.56
664.94	1121.12
665.28	1129.54
665.62	1115.50
665.96	1102.86
666.30	1093.73
666.64	1079.46
666.98	1089.99
667.32	1106.14
667.66	1109.41
668.01	1110.58
668.35	1107.31
668.69	1097.48
669.03	1086.94
669.37	1093.50
669.71	1094.20
670.05	1094.67
670.39	1092.56
670.73	1084.84
671.07	1079.46
671.41	1077.82
671.75	1085.31
672.09	1081.56
672.43	1084.37
672.77	1087.88
673.11	1083.67
673.45	1072.67
673.79	1076.41
674.13	1076.65
674.47	1077.35
674.81	1078.99
675.15	1075.94
675.49	1078.99
675.83	1088.35
676.17	1082.73
676.51	1085.77
676.85	1083.20
677.19	1075.71
677.53	1070.09
677.87	1066.35
678.21	1064.71
678.55	1078.05
678.89	1078.75
679.23	1081.56
679.57	1089.75
679.90	1089.05
680.24	1088.58
680.58	1098.65
680.92	1093.97
681.26	1097.24
681.60	1098.88
681.94	1098.41
682.28	1085.07
682.62	1089.29
682.96	1081.33
683.29	1080.16
683.63	1073.84
683.97	1083.20
684.31	1089.99
684.65	1092.33
684.99	1091.16
685.33	1096.31
685.67	1091.86
686.00	1091.39
686.34	1087.41
686.68	1086.71
687.02	1086.01
687.36	1089.75
687.70	1079.22
688.03	1082.97
688.37	1091.86
688.71	1093.50
689.05	1093.50
689.39	1094.90
689.72	1097.95
690.06	1086.94
690.40	1082.50
690.74	1077.82
691.08	1078.52
691.41	1066.82
691.75	1069.39
692.09	1078.99
692.43	1080.63
692.76	1086.48
693.10	1095.84
693.44	1100.29
693.78	1091.39
694.11	1096.07
694.45	1084.37
694.79	1072.67
695.13	1069.62
695.46	1070.33
695.80	1065.88
696.14	1074.77
696.48	1078.05
696.81	1075.24
697.15	1086.24
697.49	1090.22
697.82	1094.20
698.16	1095.37
698.50	1098.41
698.83	1092.09
699.17	1090.46
699.51	1089.29
699.84	1092.56
700.18	1091.63
700.52	1085.77
700.85	1088.35
701.19	1094.20
701.53	1096.78
701.86	1105.44
702.20	1096.54
702.54	1094.43
702.87	1088.12
703.21	1078.99
703.55	1072.90
703.88	1083.67
704.22	1089.99
704.55	1091.16
704.89	1104.97
705.23	1100.99
705.56	1098.88
705.90	1088.12
706.23	1090.46
706.57	1083.67
706.91	1090.69
707.24	1093.73
707.58	1096.78
707.91	1086.24
708.25	1083.20
708.58	1079.22
708.92	1083.67
709.26	1078.28
709.59	1073.14
709.93	1079.92
710.26	1074.77
710.60	1067.28
710.93	1065.18
711.27	1080.16
711.60	1081.56
711.94	1094.90
712.27	1091.86
712.61	1096.78
712.94	1093.97
713.28	1090.92
713.61	1081.09
713.95	1093.73
714.28	1095.60
714.62	1086.94
714.95	1085.54
715.29	1081.80
715.62	1070.56
715.96	1062.60
716.29	1067.28
716.63	1076.18
716.96	1082.97
717.29	1090.22
717.63	1108.48
717.96	1110.82
718.30	1099.82
718.63	1101.46
718.97	1100.75
719.30	1093.03
719.63	1096.07
719.97	1098.41
720.30	1102.16
720.64	1105.20
720.97	1102.39
721.30	1099.35
721.64	1095.84
721.97	1086.24
722.31	1088.58
722.64	1092.33
722.97	1084.37
723.31	1081.33
723.64	1079.92
723.97	1069.86
724.31	1067.75
724.64	1068.22
724.98	1075.01
725.31	1075.01
725.64	1078.75
725.98	1076.65
726.31	1077.11
726.64	1071.03
726.97	1069.86
727.31	1065.65
727.64	1067.75
727.97	1072.43
728.31	1079.69
728.64	1086.01
728.97	1091.63
729.31	1092.56
729.64	1089.52
729.97	1088.12
730.30	1085.07
730.64	1077.35
730.97	1080.39
731.30	1081.09
731.63	1079.46
731.97	1079.92
732.30	1089.29
732.63	1090.46
732.96	1091.86
733.30	1104.03
733.63	1097.71
733.96	1097.24
734.29	1080.86
734.63	1074.77
734.96	1056.99
735.29	1062.14
735.62	1054.18
735.95	1063.54
736.29	1068.69
736.62	1072.43
736.95	1068.92
737.28	1074.54
737.61	1082.97
737.94	1075.94
738.28	1073.37
738.61	1086.48
738.94	1086.24
739.27	1076.65
739.60	1084.84
739.93	1094.43
740.27	1091.39
740.60	1084.37
740.93	1093.03
741.26	1090.46
741.59	1093.03
741.92	1087.18
742.25	1084.60
742.58	1071.26
742.91	1083.43
743.25	1076.18
743.58	1072.90
743.91	1080.86
744.24	1082.97
744.57	1074.31
744.90	1076.65
745.23	1089.29
745.56	1091.63
745.89	1098.88
746.22	1100.99
746.55	1098.41
746.88	1084.84
747.21	1086.71
747.54	1082.73
747.87	1074.31
748.20	1067.28
748.53	1073.14
748.87	1064.24
749.20	1072.43
749.53	1084.37
749.86	1095.84
750.19	1097.24
750.52	1103.80
750.85	1095.37
751.18	1087.18
751.51	1082.73
751.84	1071.50
752.16	1065.88
752.49	1063.07
752.82	1068.69
753.15	1075.71
753.48	1092.56
753.81	1104.50
754.14	1111.29
754.47	1106.61
754.80	1093.73
755.13	1086.71
755.46	1073.84
755.79	1061.67
756.12	1065.41
756.45	1072.90
756.78	1076.18
757.11	1078.05
757.43	1080.16
757.76	1077.58
758.09	1075.24
758.42	1073.14
758.75	1073.84
759.08	1089.05
759.41	1081.09
759.74	1076.41
760.07	1075.01
760.39	1085.54
760.72	1077.35
761.05	1078.99
761.38	1084.37
761.71	1095.60
762.04	1083.67
762.36	1079.69
762.69	1080.63
763.02	1079.69
763.35	1075.48
763.68	1080.16
764.01	1086.48
