SpectraSuite Data File
++++++++++++++++++++++++++++++++++++
Date: Mon Aug 26 10:24:36 PDT 2019
User: corrico
Dark Spectrum Present: No
Reference Spectrum Present: No
Number of Sampled Component Spectra: 1
Spectrometers: USB2+H06089
Integration Time (usec): 10000 (USB2+H06089)
Spectra Averaged: 2 (USB2+H06089)
Boxcar Smoothing: 2 (USB2+H06089)
Correct for Electrical Dark: No (USB2+H06089)
Strobe/Lamp Enabled: No (USB2+H06089)
Correct for Detector Non-linearity: No (USB2+H06089)
Correct for Stray Light: No (USB2+H06089)
Number of Pixels in Processed Spectrum: 2048
>>>>>Begin Processed Spectral Data<<<<<
339.70	1015.79
340.07	1015.79
340.45	984.90
340.82	961.26
341.19	935.75
341.57	907.43
341.94	907.89
342.31	888.94
342.69	886.83
343.06	897.83
343.43	901.81
343.81	898.53
344.18	904.85
344.55	911.64
344.93	895.96
345.30	898.53
345.67	903.68
346.04	914.21
346.42	918.43
346.79	944.17
347.16	960.56
347.54	976.24
347.91	993.09
348.28	1008.30
348.65	1020.24
349.03	1028.43
349.40	1022.35
349.77	1025.15
350.14	1039.43
350.52	1044.82
350.89	1049.73
351.26	1066.82
351.63	1065.18
352.01	1067.52
352.38	1066.82
352.75	1067.28
353.12	1068.45
353.50	1072.90
353.87	1073.84
354.24	1081.56
354.61	1086.24
354.98	1092.56
355.36	1103.56
355.73	1096.54
356.10	1083.90
356.47	1082.97
356.84	1073.14
357.22	1063.07
357.59	1071.50
357.96	1081.33
358.33	1080.63
358.70	1085.31
359.08	1096.78
359.45	1087.41
359.82	1087.65
360.19	1090.92
360.56	1093.03
360.94	1085.54
361.31	1090.92
361.68	1088.12
362.05	1090.46
362.42	1088.35
362.79	1096.54
363.16	1096.07
363.54	1093.50
363.91	1096.31
364.28	1097.24
364.65	1096.07
365.02	1097.01
365.39	1096.54
365.76	1089.52
366.14	1099.58
366.51	1094.20
366.88	1100.75
367.25	1109.18
367.62	1116.67
367.99	1105.90
368.36	1107.07
368.73	1100.05
369.10	1098.65
369.48	1090.22
369.85	1092.33
370.22	1094.90
370.59	1095.60
370.96	1095.37
371.33	1102.16
371.70	1107.31
372.07	1106.84
372.44	1102.39
372.81	1089.29
373.18	1095.60
373.55	1094.67
373.93	1092.33
374.30	1099.35
374.67	1107.31
375.04	1095.14
375.41	1090.46
375.78	1097.71
376.15	1096.31
376.52	1103.09
376.89	1099.35
377.26	1104.50
377.63	1098.18
378.00	1097.24
378.37	1095.37
378.74	1096.31
379.11	1098.41
379.48	1093.73
379.85	1088.58
380.22	1092.56
380.59	1098.65
380.96	1089.99
381.33	1098.88
381.70	1106.61
382.07	1104.97
382.44	1106.14
382.81	1111.75
383.18	1110.12
383.55	1099.35
383.92	1097.01
384.29	1095.60
384.66	1098.88
385.03	1096.78
385.40	1102.63
385.77	1103.56
386.14	1105.44
386.51	1100.75
386.88	1098.88
387.25	1100.29
387.62	1097.24
387.99	1105.90
388.36	1102.86
388.73	1106.61
389.10	1106.37
389.46	1113.63
389.83	1106.84
390.20	1111.29
390.57	1103.09
390.94	1113.39
391.31	1114.80
391.68	1110.82
392.05	1108.24
392.42	1115.27
392.79	1115.03
393.16	1112.22
393.53	1129.54
393.89	1134.69
394.26	1133.52
394.63	1129.07
395.00	1123.46
395.37	1111.52
395.74	1118.54
396.11	1130.24
396.48	1123.46
396.84	1127.44
397.21	1126.03
397.58	1123.46
397.95	1128.14
398.32	1142.18
398.69	1151.31
399.06	1165.82
399.42	1166.76
399.79	1165.59
400.16	1172.61
400.53	1170.74
400.90	1163.25
401.27	1163.01
401.64	1164.42
402.00	1151.08
402.37	1166.05
402.74	1171.91
403.11	1176.82
403.48	1189.69
403.84	1210.29
404.21	1215.44
404.58	1231.82
404.95	1250.78
405.32	1259.91
405.68	1273.25
406.05	1289.64
406.42	1297.59
406.79	1313.04
407.16	1320.76
407.52	1350.26
407.89	1374.13
408.26	1407.36
408.63	1438.26
408.99	1481.33
409.36	1506.37
409.73	1533.75
410.10	1563.71
410.47	1594.37
410.83	1627.37
411.20	1662.48
411.57	1698.53
411.94	1743.70
412.30	1798.00
412.67	1838.02
413.04	1904.49
413.40	1974.01
413.77	2035.56
414.14	2112.10
414.51	2217.89
414.87	2291.85
415.24	2390.62
415.61	2510.22
415.97	2622.10
416.34	2720.40
416.71	2839.30
417.08	2967.10
417.44	3093.25
417.81	3245.62
418.18	3395.88
418.54	3582.89
418.91	3760.07
419.28	3957.61
419.64	4146.26
420.01	4365.33
420.38	4574.58
420.74	4803.95
421.11	5052.51
421.48	5323.55
421.84	5602.77
422.21	5892.53
422.58	6203.82
422.94	6512.07
423.31	6825.24
423.68	7186.15
424.04	7592.70
424.41	7970.93
424.77	8368.35
425.14	8771.63
425.51	9173.03
425.87	9626.86
426.24	10097.77
426.61	10645.93
426.97	11329.13
427.34	11983.54
427.70	12615.96
428.07	13278.33
428.44	13974.40
428.80	14621.33
429.17	15303.59
429.53	16016.29
429.90	16881.11
430.27	17556.83
430.63	18306.97
431.00	19193.80
431.36	20137.27
431.73	20883.43
432.09	21814.03
432.46	22730.58
432.83	23538.07
433.19	24322.14
433.56	25290.66
433.92	26225.47
434.29	27095.21
434.65	28041.26
435.02	28853.89
435.38	29645.23
435.75	30293.09
436.11	31109.93
436.48	31789.62
436.84	32511.45
437.21	33173.11
437.57	33828.93
437.94	34310.15
438.30	34790.89
438.67	35115.99
439.03	35322.19
439.40	35550.40
439.76	35526.99
440.13	35413.48
440.49	35461.46
440.86	35200.25
441.22	34816.17
441.59	34388.32
441.95	33867.32
442.32	33174.75
442.68	32638.54
443.05	32050.13
443.41	31430.35
443.78	30749.26
444.14	30055.99
444.51	29241.25
444.87	28658.92
445.24	27952.78
445.60	27309.84
445.96	26565.78
446.33	25950.69
446.69	25061.52
447.06	24389.55
447.42	23617.41
447.79	22868.67
448.15	22245.62
448.51	21587.93
448.88	21049.84
449.24	20522.75
449.61	20113.16
449.97	19586.07
450.33	19098.77
450.70	18448.10
451.06	17987.02
451.43	17393.69
451.79	16882.99
452.15	16528.40
452.52	16179.19
452.88	15733.32
453.24	15383.64
453.61	14999.56
453.97	14576.39
454.34	14131.45
454.70	13801.20
455.06	13452.46
455.43	13048.72
455.79	12579.21
456.15	12216.43
456.52	11769.38
456.88	11386.71
457.24	11008.48
457.61	10736.74
457.97	10415.38
458.33	10081.39
458.70	9726.80
459.06	9432.12
459.42	9140.03
459.79	8818.20
460.15	8566.59
460.51	8290.41
460.88	7997.14
461.24	7697.79
461.60	7467.48
461.96	7215.87
462.33	7011.54
462.69	6826.17
463.05	6637.99
463.42	6482.35
463.78	6309.15
464.14	6104.82
464.50	5943.09
464.87	5779.25
465.23	5561.11
465.59	5418.57
465.95	5288.91
466.32	5149.88
466.68	5028.64
467.04	4933.15
467.40	4772.12
467.77	4653.22
468.13	4531.28
468.49	4405.59
468.85	4324.14
469.22	4277.56
469.58	4193.77
469.94	4120.05
470.30	4055.91
470.66	3965.80
471.03	3886.93
471.39	3832.16
471.75	3758.20
472.11	3671.36
472.47	3606.30
472.84	3534.91
473.20	3451.59
473.56	3395.42
473.92	3344.86
474.28	3283.07
474.65	3225.02
475.01	3168.15
475.37	3105.66
475.73	3044.33
476.09	2999.16
476.45	2936.67
476.81	2889.16
477.18	2834.15
477.54	2779.15
477.90	2721.34
478.26	2673.83
478.62	2632.40
478.98	2610.17
479.34	2590.50
479.71	2561.95
480.07	2535.03
480.43	2510.93
480.79	2468.09
481.15	2440.48
481.51	2393.67
481.87	2372.37
482.23	2332.81
482.59	2287.17
482.96	2248.79
483.32	2246.45
483.68	2211.81
484.04	2174.59
484.40	2157.27
484.76	2129.19
485.12	2085.42
485.48	2067.40
485.84	2054.52
486.20	2031.58
486.56	2011.22
486.92	1997.65
487.28	1968.16
487.64	1951.77
488.00	1939.84
488.37	1923.22
488.73	1896.54
489.09	1870.09
489.45	1845.28
489.81	1820.47
490.17	1796.13
490.53	1777.17
490.89	1758.68
491.25	1742.53
491.61	1727.32
491.97	1705.55
492.33	1691.04
492.69	1682.38
493.05	1654.52
493.41	1632.76
493.77	1616.84
494.13	1600.22
494.49	1581.73
494.85	1574.01
495.21	1555.75
495.57	1546.16
495.93	1544.99
496.29	1540.31
496.64	1525.33
497.00	1518.07
497.36	1507.77
497.72	1477.35
498.08	1456.75
498.44	1444.11
498.80	1427.73
499.16	1415.32
499.52	1416.49
499.88	1402.68
500.24	1392.62
500.60	1378.34
500.96	1366.87
501.32	1352.13
501.68	1348.62
502.03	1344.17
502.39	1345.81
502.75	1341.13
503.11	1329.42
503.47	1324.04
503.83	1325.68
504.19	1315.62
504.55	1312.10
504.91	1319.59
505.26	1314.21
505.62	1307.66
505.98	1316.55
506.34	1310.00
506.70	1293.38
507.06	1282.85
507.42	1277.93
507.78	1267.63
508.13	1262.48
508.49	1258.97
508.85	1260.38
509.21	1237.91
509.57	1219.65
509.93	1208.65
510.28	1204.44
510.64	1207.95
511.00	1214.74
511.36	1221.99
511.72	1231.12
512.07	1229.02
512.43	1210.76
512.79	1211.46
513.15	1202.80
513.51	1191.57
513.86	1192.27
514.22	1194.84
514.58	1190.86
514.94	1196.72
515.30	1194.84
515.65	1199.76
516.01	1192.27
516.37	1194.84
516.73	1192.74
517.08	1193.21
517.44	1178.69
517.80	1179.63
518.16	1171.91
518.51	1156.22
518.87	1142.42
519.23	1145.69
519.59	1144.76
519.94	1143.82
520.30	1150.14
520.66	1161.84
521.01	1153.65
521.37	1150.14
521.73	1142.18
522.09	1136.33
522.44	1116.20
522.80	1125.80
523.16	1122.99
523.51	1134.46
523.87	1129.78
524.23	1138.20
524.58	1134.22
524.94	1129.07
525.30	1116.90
525.65	1125.56
526.01	1127.20
526.37	1125.33
526.72	1135.39
527.08	1140.78
527.44	1144.76
527.79	1145.93
528.15	1137.50
528.51	1130.01
528.86	1124.16
529.22	1120.65
529.58	1122.99
529.93	1125.80
530.29	1126.50
530.65	1118.07
531.00	1108.01
531.36	1102.86
531.71	1102.39
532.07	1104.73
532.43	1116.20
532.78	1115.97
533.14	1113.86
533.49	1119.71
533.85	1133.05
534.21	1141.48
534.56	1151.31
534.92	1156.22
535.27	1156.93
535.63	1142.42
535.98	1128.61
536.34	1127.67
536.69	1128.14
537.05	1123.93
537.41	1119.48
537.76	1130.71
538.12	1133.05
538.47	1132.59
538.83	1123.69
539.18	1128.84
539.54	1122.99
539.89	1122.52
540.25	1125.80
540.60	1135.63
540.96	1127.90
541.31	1129.78
541.67	1121.58
542.02	1119.24
542.38	1114.10
542.73	1120.41
543.09	1116.67
543.44	1120.41
543.80	1115.03
544.15	1121.12
544.51	1125.33
544.86	1123.22
545.22	1129.54
545.57	1130.95
545.93	1122.75
546.28	1118.07
546.64	1117.84
546.99	1099.58
547.35	1089.99
547.70	1087.41
548.05	1087.41
548.41	1090.92
548.76	1099.12
549.12	1105.20
549.47	1111.05
549.83	1114.10
550.18	1109.88
550.53	1107.78
550.89	1104.50
551.24	1101.69
551.60	1097.01
551.95	1096.78
552.30	1099.58
552.66	1111.52
553.01	1115.27
553.37	1119.95
553.72	1116.90
554.07	1113.86
554.43	1108.71
554.78	1113.86
555.13	1119.95
555.49	1127.44
555.84	1135.16
556.19	1127.67
556.55	1115.27
556.90	1109.18
557.26	1107.31
557.61	1097.48
557.96	1104.26
558.32	1108.24
558.67	1109.65
559.02	1119.24
559.37	1122.29
559.73	1120.65
560.08	1119.48
560.43	1117.37
560.79	1103.80
561.14	1108.95
561.49	1112.22
561.85	1119.95
562.20	1116.20
562.55	1112.22
562.90	1114.10
563.26	1105.44
563.61	1092.09
563.96	1093.73
564.32	1088.35
564.67	1077.58
565.02	1088.82
565.37	1095.14
565.73	1096.31
566.08	1105.44
566.43	1108.01
566.78	1095.14
567.14	1103.80
567.49	1107.78
567.84	1113.39
568.19	1119.01
568.54	1122.52
568.90	1110.12
569.25	1093.03
569.60	1089.75
569.95	1085.07
570.31	1079.92
570.66	1087.18
571.01	1085.77
571.36	1076.65
571.71	1077.35
572.06	1087.65
572.42	1084.14
572.77	1097.01
573.12	1097.71
573.47	1091.16
573.82	1086.48
574.18	1084.84
574.53	1079.92
574.88	1091.16
575.23	1101.69
575.58	1094.20
575.93	1099.35
576.28	1104.03
576.64	1096.54
576.99	1079.22
577.34	1095.14
577.69	1092.33
578.04	1090.22
578.39	1089.99
578.74	1093.73
579.09	1086.01
579.44	1083.67
579.80	1088.82
580.15	1095.37
580.50	1103.09
580.85	1107.07
581.20	1111.29
581.55	1093.97
581.90	1082.50
582.25	1076.41
582.60	1073.37
582.95	1067.75
583.30	1076.88
583.65	1088.12
584.00	1098.65
584.35	1105.20
584.71	1106.37
585.06	1112.22
585.41	1107.54
585.76	1099.12
586.11	1096.31
586.46	1104.97
586.81	1095.84
587.16	1098.88
587.51	1108.01
587.86	1103.09
588.21	1105.20
588.56	1119.24
588.91	1118.54
589.26	1112.69
589.61	1114.10
589.96	1099.58
590.31	1100.05
590.66	1105.20
591.01	1105.90
591.36	1100.99
591.71	1104.73
592.06	1106.84
592.41	1101.22
592.76	1105.67
593.10	1115.03
593.45	1122.05
593.80	1110.12
594.15	1115.97
594.50	1114.80
594.85	1118.54
595.20	1109.18
595.55	1125.33
595.90	1120.65
596.25	1118.07
596.60	1108.48
596.95	1114.10
597.30	1105.90
597.64	1146.16
597.99	1157.39
598.34	1155.29
598.69	1148.73
599.04	1141.01
599.39	1096.78
599.74	1081.56
600.09	1083.43
600.44	1089.29
600.78	1084.60
601.13	1089.75
601.48	1095.84
601.83	1097.95
602.18	1089.75
602.53	1086.94
602.88	1079.22
603.22	1073.84
603.57	1068.69
603.92	1078.05
604.27	1097.71
604.62	1100.99
604.97	1107.31
605.31	1106.84
605.66	1098.18
606.01	1085.31
606.36	1089.05
606.71	1086.94
607.05	1088.12
607.40	1089.52
607.75	1092.56
608.10	1078.05
608.44	1075.71
608.79	1073.84
609.14	1077.35
609.49	1072.43
609.84	1082.03
610.18	1087.65
610.53	1093.73
610.88	1100.75
611.23	1114.80
611.57	1112.22
611.92	1104.03
612.27	1108.24
612.62	1089.05
612.96	1086.71
613.31	1093.73
613.66	1096.31
614.00	1091.16
614.35	1104.50
614.70	1104.03
615.05	1097.24
615.39	1094.43
615.74	1091.86
616.09	1090.46
616.43	1075.71
616.78	1082.97
617.13	1083.67
617.47	1087.18
617.82	1087.65
618.17	1093.97
618.51	1083.67
618.86	1087.88
619.21	1090.92
619.55	1084.84
619.90	1084.84
620.25	1088.82
620.59	1089.75
620.94	1084.84
621.29	1097.95
621.63	1103.80
621.98	1095.60
622.32	1098.41
622.67	1104.50
623.02	1105.20
623.36	1102.63
623.71	1110.58
624.05	1108.01
624.40	1103.80
624.75	1094.90
625.09	1097.71
625.44	1096.78
625.78	1085.07
626.13	1087.41
626.48	1095.60
626.82	1098.18
627.17	1110.35
627.51	1122.29
627.86	1116.44
628.20	1110.58
628.55	1098.65
628.89	1081.56
629.24	1085.31
629.58	1083.20
629.93	1080.16
630.28	1083.43
630.62	1092.56
630.97	1074.07
631.31	1067.99
631.66	1058.62
632.00	1054.18
632.35	1044.11
632.69	1050.90
633.04	1055.58
633.38	1068.45
633.73	1075.94
634.07	1080.16
634.42	1090.92
634.76	1092.33
635.11	1086.48
635.45	1087.18
635.79	1096.31
636.14	1095.60
636.48	1097.24
636.83	1094.43
637.17	1089.29
637.52	1075.71
637.86	1065.65
638.21	1067.28
638.55	1074.31
638.89	1074.54
639.24	1081.09
639.58	1076.41
639.93	1081.80
640.27	1081.80
640.61	1087.65
640.96	1093.50
641.30	1099.35
641.65	1094.67
641.99	1094.20
642.33	1088.82
642.68	1088.35
643.02	1095.84
643.37	1093.97
643.71	1092.80
644.05	1095.14
644.40	1100.75
644.74	1094.67
645.08	1093.97
645.43	1091.63
645.77	1089.99
646.11	1080.63
646.46	1082.97
646.80	1074.54
647.14	1073.60
647.49	1074.07
647.83	1074.54
648.17	1071.03
648.52	1084.37
648.86	1086.71
649.20	1092.33
649.55	1090.22
649.89	1090.46
650.23	1092.09
650.57	1099.58
650.92	1090.69
651.26	1095.84
651.60	1093.26
651.95	1089.52
652.29	1082.03
652.63	1092.33
652.97	1088.35
653.32	1096.07
653.66	1097.71
654.00	1105.20
654.34	1097.01
654.69	1101.46
655.03	1096.31
655.37	1095.37
655.71	1096.31
656.05	1094.67
656.40	1086.71
656.74	1092.09
657.08	1088.35
657.42	1082.73
657.76	1086.94
658.11	1092.80
658.45	1090.92
658.79	1102.86
659.13	1096.78
659.47	1103.56
659.82	1111.75
660.16	1105.90
660.50	1099.35
660.84	1096.31
661.18	1086.94
661.52	1076.41
661.87	1078.28
662.21	1076.65
662.55	1089.05
662.89	1090.69
663.23	1103.56
663.57	1112.69
663.91	1119.01
664.25	1122.05
664.60	1123.93
664.94	1122.29
665.28	1120.65
665.62	1115.03
665.96	1102.86
666.30	1085.31
666.64	1068.69
666.98	1067.75
667.32	1067.28
667.66	1077.11
668.01	1083.43
668.35	1090.69
668.69	1090.92
669.03	1091.86
669.37	1095.84
669.71	1111.99
670.05	1108.48
670.39	1109.65
670.73	1110.12
671.07	1102.39
671.41	1086.48
671.75	1089.52
672.09	1086.01
672.43	1076.65
672.77	1085.77
673.11	1086.48
673.45	1079.46
673.79	1075.94
674.13	1087.88
674.47	1082.73
674.81	1088.58
675.15	1091.39
675.49	1099.58
675.83	1092.80
676.17	1086.01
676.51	1086.94
676.85	1088.82
677.19	1081.33
677.53	1087.18
677.87	1088.82
678.21	1086.71
678.55	1082.26
678.89	1085.54
679.23	1083.67
679.57	1084.84
679.90	1081.33
680.24	1090.69
680.58	1086.71
680.92	1078.99
681.26	1079.92
681.60	1085.07
681.94	1076.41
682.28	1078.75
682.62	1076.65
682.96	1065.18
683.29	1072.20
683.63	1068.69
683.97	1060.96
684.31	1057.22
684.65	1061.43
684.99	1062.60
685.33	1074.54
685.67	1082.50
686.00	1087.18
686.34	1096.78
686.68	1081.80
687.02	1076.65
687.36	1066.11
687.70	1069.86
688.03	1067.28
688.37	1074.07
688.71	1083.67
689.05	1098.18
689.39	1093.26
689.72	1086.01
690.06	1090.22
690.40	1088.82
690.74	1083.43
691.08	1089.05
691.41	1095.37
691.75	1097.01
692.09	1095.60
692.43	1096.78
692.76	1098.88
693.10	1106.84
693.44	1095.60
693.78	1093.73
694.11	1093.03
694.45	1085.31
694.79	1074.07
695.13	1078.05
695.46	1072.67
695.80	1075.48
696.14	1088.58
696.48	1091.86
696.81	1096.07
697.15	1102.16
697.49	1101.22
697.82	1099.35
698.16	1095.14
698.50	1096.31
698.83	1092.56
699.17	1085.07
699.51	1074.54
699.84	1086.48
700.18	1081.56
700.52	1088.58
700.85	1091.16
701.19	1094.20
701.53	1090.22
701.86	1088.58
702.20	1080.16
702.54	1077.35
702.87	1073.84
703.21	1071.26
703.55	1079.92
703.88	1090.22
704.22	1109.41
704.55	1115.03
704.89	1105.90
705.23	1099.12
705.56	1081.56
705.90	1075.94
706.23	1083.90
706.57	1090.69
706.91	1090.46
707.24	1103.09
707.58	1093.50
707.91	1086.94
708.25	1087.65
708.58	1097.01
708.92	1097.01
709.26	1096.31
709.59	1087.18
709.93	1091.86
710.26	1086.01
710.60	1083.43
710.93	1090.46
711.27	1101.69
711.60	1095.14
711.94	1097.48
712.27	1093.50
712.61	1093.97
712.94	1086.48
713.28	1089.75
713.61	1085.07
713.95	1089.75
714.28	1086.48
714.62	1085.77
714.95	1081.56
715.29	1087.18
715.62	1079.92
715.96	1084.37
716.29	1089.29
716.63	1092.80
716.96	1082.97
717.29	1087.88
717.63	1081.09
717.96	1073.14
718.30	1073.60
718.63	1078.52
718.97	1073.60
719.30	1074.77
719.63	1082.50
719.97	1082.73
720.30	1080.86
720.64	1085.31
720.97	1080.86
721.30	1085.07
721.64	1084.37
721.97	1080.16
722.31	1084.84
722.64	1097.48
722.97	1093.26
723.31	1092.56
723.64	1090.22
723.97	1076.88
724.31	1063.07
724.64	1054.18
724.98	1048.56
725.31	1047.39
725.64	1042.47
725.98	1037.56
726.31	1044.11
726.64	1044.11
726.97	1042.47
727.31	1053.48
727.64	1056.75
727.97	1059.56
728.31	1063.31
728.64	1060.73
728.97	1057.69
729.31	1071.73
729.64	1068.92
729.97	1062.37
730.30	1073.37
730.64	1078.75
730.97	1065.88
731.30	1065.88
731.63	1066.35
731.97	1073.37
732.30	1059.33
732.63	1056.28
732.96	1060.73
733.30	1065.88
733.63	1062.37
733.96	1076.41
734.29	1092.09
734.63	1090.46
734.96	1088.35
735.29	1093.26
735.62	1098.18
735.95	1088.12
736.29	1083.20
736.62	1081.56
736.95	1067.99
737.28	1064.94
737.61	1067.99
737.94	1082.97
738.28	1087.65
738.61	1097.24
738.94	1101.69
739.27	1107.54
739.60	1102.63
739.93	1105.90
740.27	1100.29
740.60	1096.07
740.93	1085.07
741.26	1080.16
741.59	1070.09
741.92	1074.77
742.25	1072.20
742.58	1068.69
742.91	1066.35
743.25	1078.99
743.58	1074.07
743.91	1072.20
744.24	1081.80
744.57	1078.75
744.90	1066.82
745.23	1067.75
745.56	1070.09
745.89	1062.37
746.22	1065.65
746.55	1068.45
746.88	1071.97
747.21	1070.56
747.54	1072.43
747.87	1068.92
748.20	1071.73
748.53	1068.45
748.87	1068.92
749.20	1076.41
749.53	1081.56
749.86	1089.05
750.19	1096.31
750.52	1098.41
750.85	1094.90
751.18	1095.60
751.51	1093.97
751.84	1089.75
752.16	1084.60
752.49	1083.20
752.82	1075.01
753.15	1071.03
753.48	1062.60
753.81	1072.90
754.14	1068.69
754.47	1068.45
754.80	1067.75
755.13	1086.24
755.46	1091.86
755.79	1105.44
756.12	1120.18
756.45	1121.12
756.78	1101.69
757.11	1096.07
757.43	1093.26
757.76	1090.46
758.09	1092.56
758.42	1099.35
758.75	1089.52
759.08	1076.88
759.41	1076.65
759.74	1072.20
760.07	1072.67
760.39	1077.82
760.72	1082.03
761.05	1082.97
761.38	1081.33
761.71	1082.50
762.04	1079.69
762.36	1088.58
762.69	1094.90
763.02	1094.20
763.35	1091.63
763.68	1096.78
764.01	1083.67
764.33	1075.24
