SpectraSuite Data File
++++++++++++++++++++++++++++++++++++
Date: Mon Aug 26 10:24:37 PDT 2019
User: corrico
Dark Spectrum Present: No
Reference Spectrum Present: No
Number of Sampled Component Spectra: 1
Spectrometers: USB2+H06089
Integration Time (usec): 10000 (USB2+H06089)
Spectra Averaged: 2 (USB2+H06089)
Boxcar Smoothing: 2 (USB2+H06089)
Correct for Electrical Dark: No (USB2+H06089)
Strobe/Lamp Enabled: No (USB2+H06089)
Correct for Detector Non-linearity: No (USB2+H06089)
Correct for Stray Light: No (USB2+H06089)
Number of Pixels in Processed Spectrum: 2048
>>>>>Begin Processed Spectral Data<<<<<
339.70	1028.67
340.07	1028.67
340.45	993.32
340.82	976.71
341.19	954.94
341.57	930.83
341.94	915.15
342.31	909.06
342.69	898.30
343.06	893.62
343.43	901.57
343.81	901.11
344.18	898.53
344.55	897.13
344.93	901.11
345.30	894.08
345.67	908.83
346.04	925.21
346.42	940.19
346.79	947.45
347.16	960.09
347.54	962.90
347.91	974.83
348.28	987.71
348.65	997.30
349.03	1011.11
349.40	1026.09
349.77	1040.60
350.14	1054.18
350.52	1069.16
350.89	1071.26
351.26	1081.33
351.63	1082.73
352.01	1073.60
352.38	1080.63
352.75	1091.39
353.12	1083.43
353.50	1085.77
353.87	1095.60
354.24	1090.92
354.61	1094.20
354.98	1099.58
355.36	1095.37
355.73	1099.12
356.10	1108.24
356.47	1097.24
356.84	1087.41
357.22	1088.12
357.59	1083.43
357.96	1071.50
358.33	1070.33
358.70	1092.33
359.08	1097.48
359.45	1102.16
359.82	1111.99
360.19	1126.97
360.56	1115.50
360.94	1116.67
361.31	1126.50
361.68	1121.58
362.05	1119.71
362.42	1124.86
362.79	1123.46
363.16	1112.92
363.54	1109.41
363.91	1106.84
364.28	1099.35
364.65	1094.90
365.02	1082.97
365.39	1081.56
365.76	1074.31
366.14	1077.11
366.51	1080.86
366.88	1093.50
367.25	1098.41
367.62	1096.31
367.99	1085.07
368.36	1081.33
368.73	1072.67
369.10	1068.92
369.48	1083.20
369.85	1090.92
370.22	1094.67
370.59	1100.05
370.96	1109.41
371.33	1094.90
371.70	1086.24
372.07	1090.69
372.44	1097.24
372.81	1091.86
373.18	1096.07
373.55	1108.48
373.93	1096.31
374.30	1091.86
374.67	1094.43
375.04	1097.48
375.41	1100.29
375.78	1111.29
376.15	1112.92
376.52	1114.80
376.89	1113.16
377.26	1114.80
377.63	1110.12
378.00	1108.48
378.37	1110.58
378.74	1114.33
379.11	1105.44
379.48	1100.52
379.85	1103.56
380.22	1099.35
380.59	1092.09
380.96	1091.86
381.33	1092.80
381.70	1093.26
382.07	1100.75
382.44	1106.84
382.81	1118.31
383.18	1129.31
383.55	1128.84
383.92	1113.39
384.29	1116.20
384.66	1118.31
385.03	1116.44
385.40	1112.69
385.77	1122.29
386.14	1116.44
386.51	1119.01
386.88	1119.01
387.25	1128.37
387.62	1121.12
387.99	1130.48
388.36	1122.29
388.73	1120.18
389.10	1123.22
389.46	1137.03
389.83	1132.59
390.20	1138.67
390.57	1139.61
390.94	1130.48
391.31	1130.95
391.68	1131.18
392.05	1130.48
392.42	1135.16
392.79	1132.82
393.16	1129.31
393.53	1140.54
393.89	1150.84
394.26	1146.39
394.63	1152.25
395.00	1147.10
395.37	1131.65
395.74	1129.78
396.11	1137.27
396.48	1143.12
396.84	1153.65
397.21	1163.95
397.58	1152.71
397.95	1159.27
398.32	1159.27
398.69	1162.08
399.06	1162.78
399.42	1175.89
399.79	1180.10
400.16	1188.99
400.53	1193.67
400.90	1209.59
401.27	1216.38
401.64	1232.99
402.00	1243.06
402.37	1236.97
402.74	1239.78
403.11	1254.06
403.48	1250.08
403.84	1256.87
404.21	1286.12
404.58	1302.27
404.95	1319.59
405.32	1337.38
405.68	1351.43
406.05	1385.60
406.42	1413.68
406.79	1437.32
407.16	1465.64
407.52	1495.60
407.89	1528.14
408.26	1558.56
408.63	1597.65
408.99	1625.74
409.36	1665.06
409.73	1696.19
410.10	1749.55
410.47	1787.47
410.83	1864.94
411.20	1930.01
411.57	1999.52
411.94	2068.80
412.30	2152.59
412.67	2230.53
413.04	2314.32
413.40	2415.20
413.77	2521.46
414.14	2639.89
414.51	2756.21
414.87	2912.33
415.24	3042.23
415.61	3195.07
415.97	3348.84
416.34	3518.76
416.71	3681.19
417.08	3898.63
417.44	4116.07
417.81	4368.84
418.18	4635.90
418.54	4928.70
418.91	5197.63
419.28	5495.81
419.64	5794.46
420.01	6100.61
420.38	6416.34
420.74	6779.36
421.11	7184.51
421.48	7579.12
421.84	8052.15
422.21	8539.44
422.58	9043.60
422.94	9530.90
423.31	10072.50
423.68	10578.29
424.04	11190.34
424.41	11798.64
424.77	12399.92
425.14	13049.66
425.51	13800.27
425.87	14583.18
426.24	15366.09
426.61	16346.07
426.97	17417.56
427.34	18375.55
427.70	19406.32
428.07	20445.28
428.44	21492.67
428.80	22547.55
429.17	23668.20
429.53	24687.50
429.90	25969.18
430.27	27062.44
430.63	28200.65
431.00	29545.52
431.36	31056.80
431.73	32295.65
432.09	33657.37
432.46	35005.29
432.83	36302.88
433.19	37460.04
433.56	38975.54
433.92	40543.70
434.29	42018.23
434.65	43457.19
435.02	44784.04
435.38	46045.59
435.75	46905.97
436.11	48120.24
436.48	49152.19
436.84	50256.45
437.21	51097.64
437.57	52067.32
437.94	52695.06
438.30	53283.70
438.67	53535.07
439.03	53706.17
439.40	53919.62
439.76	53861.81
440.13	53677.14
440.49	53663.57
440.86	53285.81
441.22	52825.66
441.59	52210.33
441.95	51575.11
442.32	50628.60
442.68	49914.03
443.05	49068.86
443.41	48170.80
443.78	47159.92
444.14	46264.43
444.51	45088.08
444.87	44156.08
445.24	42940.40
445.60	41773.18
445.96	40516.55
446.33	39601.86
446.69	38223.76
447.06	37279.35
447.42	36297.96
447.79	35271.17
448.15	34173.69
448.51	33244.27
448.88	32316.24
449.24	31260.66
449.61	30462.31
449.97	29638.20
450.33	28859.04
450.70	27935.70
451.06	27251.33
451.43	26472.63
451.79	25933.37
452.15	25353.85
452.52	24879.66
452.88	24326.59
453.24	23810.50
453.61	23150.47
453.97	22526.72
454.34	21829.01
454.70	21260.96
455.06	20633.23
455.43	19899.23
455.79	19125.92
456.15	18561.62
456.52	17887.31
456.88	17340.56
457.24	16793.34
457.61	16334.60
457.97	15802.13
458.33	15277.85
458.70	14735.08
459.06	14150.88
459.42	13671.07
459.79	13147.96
460.15	12641.70
460.51	12163.76
460.88	11778.04
461.24	11352.53
461.60	10969.15
461.96	10675.89
462.33	10344.00
462.69	10001.58
463.05	9679.75
463.42	9415.74
463.78	9119.43
464.14	8796.44
464.50	8588.83
464.87	8313.11
465.23	8029.91
465.59	7799.37
465.95	7609.78
466.32	7360.52
466.68	7192.00
467.04	6989.54
467.40	6799.02
467.77	6637.76
468.13	6446.07
468.49	6285.51
468.85	6187.21
469.22	6056.84
469.58	5901.66
469.94	5793.06
470.30	5675.57
470.66	5536.77
471.03	5425.13
471.39	5353.27
471.75	5260.35
472.11	5154.33
472.47	5048.77
472.84	4920.27
473.20	4770.25
473.56	4666.09
473.92	4542.98
474.28	4447.49
474.65	4349.65
475.01	4287.39
475.37	4179.73
475.73	4096.87
476.09	4011.44
476.45	3922.27
476.81	3826.78
477.18	3752.58
477.54	3664.34
477.90	3595.53
478.26	3537.49
478.62	3484.59
478.98	3432.16
479.34	3384.18
479.71	3337.37
480.07	3288.22
480.43	3235.09
480.79	3177.04
481.15	3140.06
481.51	3074.53
481.87	3021.40
482.23	2958.44
482.59	2925.67
482.96	2860.37
483.32	2818.47
483.68	2798.81
484.04	2779.62
484.40	2736.79
484.76	2707.06
485.12	2678.51
485.48	2627.49
485.84	2584.65
486.20	2545.33
486.56	2507.18
486.92	2459.67
487.28	2432.52
487.64	2392.03
488.00	2344.75
488.37	2306.60
488.73	2282.72
489.09	2240.36
489.45	2201.98
489.81	2170.85
490.17	2140.65
490.53	2112.10
490.89	2076.06
491.25	2062.25
491.61	2041.18
491.97	2021.52
492.33	1992.97
492.69	1966.99
493.05	1924.86
493.41	1907.54
493.77	1879.92
494.13	1854.64
494.49	1833.11
494.85	1820.94
495.21	1783.72
495.57	1768.98
495.93	1740.89
496.29	1718.89
496.64	1693.85
497.00	1678.87
497.36	1661.08
497.72	1644.93
498.08	1639.78
498.44	1629.72
498.80	1621.52
499.16	1599.05
499.52	1582.44
499.88	1568.39
500.24	1555.29
500.60	1548.03
500.96	1533.05
501.32	1526.03
501.68	1503.56
502.03	1484.37
502.39	1467.05
502.75	1472.90
503.11	1467.52
503.47	1464.24
503.83	1467.28
504.19	1454.64
504.55	1439.66
504.91	1420.94
505.26	1417.43
505.62	1405.26
505.98	1402.45
506.34	1387.47
506.70	1385.83
507.06	1372.49
507.42	1359.15
507.78	1350.26
508.13	1340.42
508.49	1331.76
508.85	1318.19
509.21	1319.83
509.57	1307.19
509.93	1308.36
510.28	1312.10
510.64	1317.02
511.00	1305.55
511.36	1303.91
511.72	1299.70
512.07	1283.55
512.43	1271.38
512.79	1261.55
513.15	1257.10
513.51	1242.36
513.86	1246.34
514.22	1241.65
514.58	1247.04
514.94	1249.85
515.30	1246.57
515.65	1239.08
516.01	1233.70
516.37	1229.95
516.73	1222.23
517.08	1220.59
517.44	1224.10
517.80	1226.44
518.16	1230.89
518.51	1220.12
518.87	1229.72
519.23	1221.29
519.59	1223.40
519.94	1217.78
520.30	1235.33
520.66	1227.38
521.01	1219.65
521.37	1217.08
521.73	1202.57
522.09	1181.50
522.44	1175.89
522.80	1181.74
523.16	1175.18
523.51	1177.29
523.87	1173.78
524.23	1172.14
524.58	1174.01
524.94	1166.29
525.30	1162.54
525.65	1170.03
526.01	1173.78
526.37	1169.10
526.72	1171.67
527.08	1176.82
527.44	1177.99
527.79	1170.03
528.15	1165.59
528.51	1167.69
528.86	1158.10
529.22	1152.25
529.58	1154.82
529.93	1151.54
530.29	1152.71
530.65	1156.93
531.00	1158.33
531.36	1156.22
531.71	1155.52
532.07	1150.84
532.43	1156.93
532.78	1152.25
533.14	1153.18
533.49	1151.78
533.85	1149.67
534.21	1145.46
534.56	1155.52
534.92	1152.01
535.27	1157.39
535.63	1151.31
535.98	1141.95
536.34	1120.18
536.69	1122.29
537.05	1126.97
537.41	1127.44
537.76	1138.20
538.12	1152.01
538.47	1146.16
538.83	1139.61
539.18	1139.84
539.54	1131.41
539.89	1130.24
540.25	1123.93
540.60	1115.97
540.96	1108.71
541.31	1109.41
541.67	1112.92
542.02	1131.41
542.38	1134.22
542.73	1141.01
543.09	1136.10
543.44	1123.46
543.80	1111.29
544.15	1114.09
544.51	1125.56
544.86	1128.61
545.22	1129.31
545.57	1143.82
545.93	1138.20
546.28	1129.78
546.64	1138.67
546.99	1142.42
547.35	1131.41
547.70	1145.22
548.05	1140.54
548.41	1141.25
548.76	1141.95
549.12	1138.44
549.47	1128.14
549.83	1139.61
550.18	1134.69
550.53	1135.16
550.89	1140.31
551.24	1144.29
551.60	1134.69
551.95	1127.67
552.30	1124.63
552.66	1124.16
553.01	1127.90
553.37	1130.01
553.72	1133.52
554.07	1142.65
554.43	1135.63
554.78	1130.24
555.13	1122.05
555.49	1124.86
555.84	1117.61
556.19	1114.56
556.55	1107.07
556.90	1107.54
557.26	1100.05
557.61	1099.58
557.96	1106.61
558.32	1107.54
558.67	1117.14
559.02	1121.82
559.37	1115.03
559.73	1104.26
560.08	1108.01
560.43	1115.50
560.79	1111.75
561.14	1113.86
561.49	1112.46
561.85	1114.33
562.20	1107.31
562.55	1107.07
562.90	1107.54
563.26	1121.12
563.61	1109.18
563.96	1109.18
564.32	1115.03
564.67	1112.46
565.02	1103.56
565.37	1115.27
565.73	1107.07
566.08	1109.41
566.43	1120.18
566.78	1128.37
567.14	1123.46
567.49	1125.56
567.84	1123.22
568.19	1117.61
568.54	1111.99
568.90	1105.44
569.25	1113.86
569.60	1105.67
569.95	1109.41
570.31	1109.65
570.66	1123.69
571.01	1118.54
571.36	1123.22
571.71	1122.75
572.06	1115.73
572.42	1123.69
572.77	1117.61
573.12	1129.31
573.47	1129.07
573.82	1137.97
574.18	1136.33
574.53	1140.07
574.88	1128.14
575.23	1130.24
575.58	1127.90
575.93	1102.16
576.28	1106.37
576.64	1107.78
576.99	1110.35
577.34	1106.84
577.69	1120.65
578.04	1125.33
578.39	1123.46
578.74	1115.73
579.09	1119.71
579.44	1128.37
579.80	1113.39
580.15	1110.82
580.50	1104.26
580.85	1108.24
581.20	1107.07
581.55	1113.63
581.90	1115.50
582.25	1124.16
582.60	1121.82
582.95	1108.48
583.30	1104.26
583.65	1107.07
584.00	1099.82
584.35	1101.92
584.71	1107.54
585.06	1116.90
585.41	1125.10
585.76	1127.90
586.11	1126.97
586.46	1128.14
586.81	1121.82
587.16	1111.99
587.51	1114.80
587.86	1110.82
588.21	1109.88
588.56	1110.12
588.91	1108.01
589.26	1106.61
589.61	1102.86
589.96	1104.26
590.31	1098.18
590.66	1095.60
591.01	1092.80
591.36	1101.69
591.71	1104.97
592.06	1103.56
592.41	1105.20
592.76	1096.31
593.10	1081.80
593.45	1079.22
593.80	1083.90
594.15	1088.12
594.50	1098.41
594.85	1108.01
595.20	1103.09
595.55	1102.86
595.90	1097.24
596.25	1095.60
596.60	1087.41
596.95	1084.84
597.30	1094.43
597.64	1137.03
597.99	1144.99
598.34	1151.31
598.69	1161.61
599.04	1156.69
599.39	1118.31
599.74	1115.03
600.09	1111.05
600.44	1109.41
600.78	1103.80
601.13	1100.52
601.48	1103.09
601.83	1115.50
602.18	1113.16
602.53	1114.33
602.88	1109.88
603.22	1101.46
603.57	1094.20
603.92	1090.92
604.27	1089.75
604.62	1095.14
604.97	1092.09
605.31	1095.84
605.66	1088.82
606.01	1089.05
606.36	1095.84
606.71	1098.88
607.05	1103.56
607.40	1103.56
607.75	1106.37
608.10	1110.12
608.44	1112.69
608.79	1099.35
609.14	1106.14
609.49	1108.48
609.84	1098.41
610.18	1104.03
610.53	1108.48
610.88	1102.39
611.23	1107.07
611.57	1102.86
611.92	1100.29
612.27	1097.71
612.62	1104.73
612.96	1102.39
613.31	1106.14
613.66	1102.39
614.00	1107.78
614.35	1106.37
614.70	1099.58
615.05	1099.12
615.39	1104.03
615.74	1102.16
616.09	1098.41
616.43	1098.18
616.78	1102.86
617.13	1094.20
617.47	1093.50
617.82	1103.33
618.17	1108.95
618.51	1108.01
618.86	1125.10
619.21	1124.86
619.55	1117.37
619.90	1118.78
620.25	1116.44
620.59	1104.50
620.94	1104.03
621.29	1099.82
621.63	1087.65
621.98	1084.60
622.32	1083.90
622.67	1085.54
623.02	1097.24
623.36	1100.52
623.71	1101.46
624.05	1095.84
624.40	1100.05
624.75	1087.88
625.09	1087.18
625.44	1085.77
625.78	1097.01
626.13	1101.46
626.48	1115.73
626.82	1124.39
627.17	1129.78
627.51	1126.27
627.86	1112.46
628.20	1101.22
628.55	1096.31
628.89	1099.82
629.24	1098.18
629.58	1107.31
629.93	1102.16
630.28	1095.37
630.62	1084.60
630.97	1085.77
631.31	1083.43
631.66	1093.26
632.00	1104.73
632.35	1108.95
632.69	1094.90
633.04	1081.33
633.38	1073.60
633.73	1063.54
634.07	1071.97
634.42	1084.60
634.76	1093.50
635.11	1097.24
635.45	1104.03
635.79	1090.46
636.14	1093.73
636.48	1099.12
636.83	1098.65
637.17	1097.24
637.52	1099.82
637.86	1093.26
638.21	1097.01
638.55	1099.58
638.89	1099.82
639.24	1103.09
639.58	1108.24
639.93	1101.92
640.27	1102.39
640.61	1107.07
640.96	1101.46
641.30	1089.52
641.65	1087.18
641.99	1086.71
642.33	1082.97
642.68	1085.07
643.02	1100.29
643.37	1098.65
643.71	1104.26
644.05	1096.78
644.40	1105.90
644.74	1097.71
645.08	1096.78
645.43	1099.58
645.77	1097.71
646.11	1088.12
646.46	1079.92
646.80	1077.58
647.14	1067.99
647.49	1080.86
647.83	1093.03
648.17	1093.73
648.52	1101.69
648.86	1107.31
649.20	1099.58
649.55	1091.39
649.89	1109.88
650.23	1108.01
650.57	1103.56
650.92	1096.07
651.26	1099.12
651.60	1092.09
651.95	1085.77
652.29	1083.90
652.63	1099.82
652.97	1101.46
653.32	1103.33
653.66	1109.65
654.00	1113.16
654.34	1109.41
654.69	1104.97
655.03	1106.84
655.37	1108.95
655.71	1108.71
656.05	1107.31
656.40	1101.22
656.74	1093.26
657.08	1092.80
657.42	1094.67
657.76	1095.60
658.11	1094.20
658.45	1097.01
658.79	1101.69
659.13	1095.60
659.47	1090.92
659.82	1096.54
660.16	1088.82
660.50	1088.12
660.84	1086.71
661.18	1088.58
661.52	1089.99
661.87	1096.54
662.21	1086.71
662.55	1094.90
662.89	1091.39
663.23	1091.86
663.57	1096.07
663.91	1093.03
664.25	1085.07
664.60	1092.09
664.94	1089.75
665.28	1079.46
665.62	1082.50
665.96	1085.54
666.30	1083.90
666.64	1078.75
666.98	1088.58
667.32	1088.12
667.66	1082.97
668.01	1088.35
668.35	1099.35
668.69	1106.61
669.03	1111.52
669.37	1117.14
669.71	1105.90
670.05	1111.29
670.39	1104.73
670.73	1102.39
671.07	1099.35
671.41	1106.14
671.75	1101.22
672.09	1094.20
672.43	1098.88
672.77	1099.35
673.11	1095.60
673.45	1082.26
673.79	1089.29
674.13	1082.73
674.47	1073.84
674.81	1070.09
675.15	1080.16
675.49	1070.56
675.83	1076.41
676.17	1089.29
676.51	1099.35
676.85	1092.56
677.19	1105.44
677.53	1095.60
677.87	1093.26
678.21	1094.90
678.55	1097.01
678.89	1089.99
679.23	1094.20
679.57	1088.12
679.90	1077.58
680.24	1080.39
680.58	1079.46
680.92	1082.73
681.26	1092.33
681.60	1097.24
681.94	1098.18
682.28	1088.82
682.62	1080.16
682.96	1075.94
683.29	1073.37
683.63	1068.92
683.97	1081.09
684.31	1090.92
684.65	1092.09
684.99	1090.69
685.33	1087.41
685.67	1075.24
686.00	1071.26
686.34	1067.52
686.68	1071.97
687.02	1075.71
687.36	1080.16
687.70	1084.84
688.03	1094.20
688.37	1097.01
688.71	1101.69
689.05	1106.84
689.39	1102.63
689.72	1101.22
690.06	1102.63
690.40	1106.61
690.74	1104.50
691.08	1105.90
691.41	1104.73
691.75	1097.95
692.09	1080.63
692.43	1084.84
692.76	1086.71
693.10	1087.41
693.44	1093.50
693.78	1100.99
694.11	1086.01
694.45	1091.63
694.79	1089.99
695.13	1077.58
695.46	1078.05
695.80	1088.35
696.14	1084.14
696.48	1080.86
696.81	1089.99
697.15	1098.41
697.49	1106.37
697.82	1091.39
698.16	1089.52
698.50	1089.05
698.83	1087.65
699.17	1082.03
699.51	1091.63
699.84	1091.86
700.18	1095.60
700.52	1084.14
700.85	1078.28
701.19	1075.71
701.53	1069.62
701.86	1061.90
702.20	1071.73
702.54	1086.71
702.87	1087.18
703.21	1095.14
703.55	1096.31
703.88	1088.12
704.22	1080.86
704.55	1084.37
704.89	1082.73
705.23	1092.09
705.56	1096.31
705.90	1089.75
706.23	1093.73
706.57	1096.07
706.91	1079.22
707.24	1078.28
707.58	1090.46
707.91	1082.97
708.25	1079.69
708.58	1085.77
708.92	1087.65
709.26	1074.77
709.59	1075.24
709.93	1084.60
710.26	1081.80
710.60	1084.84
710.93	1096.31
711.27	1105.44
711.60	1104.73
711.94	1105.90
712.27	1108.71
712.61	1108.24
712.94	1099.35
713.28	1093.50
713.61	1101.46
713.95	1093.03
714.28	1086.48
714.62	1082.97
714.95	1093.97
715.29	1097.95
715.62	1099.12
715.96	1094.90
716.29	1104.73
716.63	1095.14
716.96	1084.60
717.29	1085.77
717.63	1090.69
717.96	1084.37
718.30	1079.46
718.63	1069.39
718.97	1072.43
719.30	1065.65
719.63	1062.84
719.97	1070.33
720.30	1088.82
720.64	1089.29
720.97	1095.60
721.30	1092.56
721.64	1078.05
721.97	1070.56
722.31	1056.52
722.64	1056.52
722.97	1065.41
723.31	1078.05
723.64	1078.75
723.97	1093.03
724.31	1088.12
724.64	1089.75
724.98	1089.99
725.31	1086.94
725.64	1079.69
725.98	1081.56
726.31	1074.77
726.64	1075.48
726.97	1078.75
727.31	1078.75
727.64	1083.20
727.97	1092.80
728.31	1083.67
728.64	1089.75
728.97	1081.33
729.31	1083.20
729.64	1067.75
729.97	1063.77
730.30	1055.58
730.64	1076.41
730.97	1078.52
731.30	1082.73
731.63	1095.14
731.97	1104.03
732.30	1092.09
732.63	1087.65
732.96	1087.41
733.30	1079.92
733.63	1078.52
733.96	1078.75
734.29	1073.60
734.63	1085.54
734.96	1086.94
735.29	1084.37
735.62	1084.14
735.95	1090.92
736.29	1079.92
736.62	1086.01
736.95	1084.14
737.28	1081.80
737.61	1067.75
737.94	1064.24
738.28	1061.90
738.61	1066.58
738.94	1083.90
739.27	1093.26
739.60	1102.39
739.93	1094.90
740.27	1081.80
740.60	1070.33
740.93	1079.22
741.26	1090.46
741.59	1100.75
741.92	1101.46
742.25	1102.39
742.58	1103.33
742.91	1087.41
743.25	1089.75
743.58	1092.80
743.91	1085.77
744.24	1077.35
744.57	1086.94
744.90	1078.75
745.23	1086.24
745.56	1090.92
745.89	1091.86
746.22	1085.31
746.55	1086.94
746.88	1073.60
747.21	1073.14
747.54	1078.05
747.87	1078.28
748.20	1079.69
748.53	1084.37
748.87	1080.39
749.20	1070.33
749.53	1064.71
749.86	1063.54
750.19	1070.56
750.52	1075.24
750.85	1080.86
751.18	1089.05
751.51	1089.99
751.84	1082.50
752.16	1081.56
752.49	1078.99
752.82	1072.20
753.15	1077.35
753.48	1088.82
753.81	1083.90
754.14	1095.14
754.47	1101.92
754.80	1094.67
755.13	1089.29
755.46	1092.09
755.79	1086.94
756.12	1094.20
756.45	1088.58
756.78	1092.33
757.11	1089.99
757.43	1078.52
757.76	1072.20
758.09	1074.54
758.42	1075.01
758.75	1076.18
759.08	1092.56
759.41	1090.46
759.74	1089.75
760.07	1089.52
760.39	1090.92
760.72	1087.65
761.05	1072.90
761.38	1079.92
761.71	1072.67
762.04	1074.31
762.36	1063.54
762.69	1076.18
763.02	1068.69
763.35	1062.14
763.68	1060.26
764.01	1064.24
