SpectraSuite Data File
++++++++++++++++++++++++++++++++++++
Date: Mon Aug 26 10:24:36 PDT 2019
User: corrico
Dark Spectrum Present: No
Reference Spectrum Present: No
Number of Sampled Component Spectra: 1
Spectrometers: USB2+H06089
Integration Time (usec): 10000 (USB2+H06089)
Spectra Averaged: 2 (USB2+H06089)
Boxcar Smoothing: 2 (USB2+H06089)
Correct for Electrical Dark: No (USB2+H06089)
Strobe/Lamp Enabled: No (USB2+H06089)
Correct for Detector Non-linearity: No (USB2+H06089)
Correct for Stray Light: No (USB2+H06089)
Number of Pixels in Processed Spectrum: 2048
>>>>>Begin Processed Spectral Data<<<<<
339.70	1057.92
340.07	1057.92
340.45	1008.54
340.82	980.45
341.19	950.96
341.57	912.57
341.94	896.66
342.31	895.72
342.69	898.77
343.06	892.68
343.43	899.00
343.81	903.45
344.18	904.85
344.55	908.60
344.93	912.81
345.30	920.30
345.67	928.72
346.04	929.66
346.42	936.21
346.79	953.07
347.16	959.62
347.54	969.68
347.91	993.09
348.28	996.13
348.65	1007.37
349.03	1021.18
349.40	1022.81
349.77	1018.60
350.14	1035.92
350.52	1040.60
350.89	1039.67
351.26	1045.99
351.63	1059.56
352.01	1056.99
352.38	1058.62
352.75	1059.09
353.12	1070.56
353.50	1073.60
353.87	1081.33
354.24	1095.37
354.61	1108.71
354.98	1112.69
355.36	1118.54
355.73	1105.67
356.10	1099.58
356.47	1099.12
356.84	1098.65
357.22	1094.43
357.59	1100.52
357.96	1094.43
358.33	1082.97
358.70	1077.82
359.08	1086.48
359.45	1082.73
359.82	1078.52
360.19	1086.01
360.56	1075.01
360.94	1078.05
361.31	1077.35
361.68	1082.26
362.05	1087.88
362.42	1091.86
362.79	1079.22
363.16	1087.65
363.54	1085.07
363.91	1086.01
364.28	1091.39
364.65	1095.60
365.02	1091.16
365.39	1093.97
365.76	1085.77
366.14	1083.43
366.51	1084.14
366.88	1079.92
367.25	1082.26
367.62	1089.52
367.99	1098.65
368.36	1092.09
368.73	1106.14
369.10	1105.20
369.48	1102.63
369.85	1098.88
370.22	1097.71
370.59	1089.05
370.96	1090.22
371.33	1087.18
371.70	1077.11
372.07	1083.43
372.44	1077.82
372.81	1080.86
373.18	1079.92
373.55	1091.16
373.93	1081.80
374.30	1083.90
374.67	1084.84
375.04	1093.50
375.41	1090.22
375.78	1098.41
376.15	1099.12
376.52	1093.03
376.89	1084.84
377.26	1083.43
377.63	1075.71
378.00	1081.33
378.37	1079.22
378.74	1076.88
379.11	1078.05
379.48	1084.84
379.85	1095.14
380.22	1102.16
380.59	1113.16
380.96	1117.14
381.33	1122.99
381.70	1117.37
382.07	1120.41
382.44	1117.37
382.81	1117.84
383.18	1111.99
383.55	1113.63
383.92	1104.97
384.29	1097.95
384.66	1107.31
385.03	1104.73
385.40	1103.80
385.77	1104.73
386.14	1122.29
386.51	1108.71
386.88	1109.41
387.25	1102.63
387.62	1107.78
387.99	1092.80
388.36	1100.29
388.73	1111.99
389.10	1125.10
389.46	1128.84
389.83	1137.03
390.20	1127.44
390.57	1125.10
390.94	1122.05
391.31	1122.75
391.68	1111.75
392.05	1114.80
392.42	1107.78
392.79	1099.35
393.16	1093.26
393.53	1104.03
393.89	1114.33
394.26	1116.44
394.63	1134.46
395.00	1134.46
395.37	1130.24
395.74	1126.50
396.11	1130.48
396.48	1117.37
396.84	1125.56
397.21	1138.20
397.58	1144.52
397.95	1144.29
398.32	1144.99
398.69	1138.90
399.06	1135.63
399.42	1130.01
399.79	1138.90
400.16	1146.39
400.53	1152.01
400.90	1148.73
401.27	1155.05
401.64	1159.27
402.00	1177.06
402.37	1190.16
402.74	1213.33
403.11	1220.12
403.48	1221.53
403.84	1211.46
404.21	1225.74
404.58	1232.06
404.95	1249.85
405.32	1269.74
405.68	1292.44
406.05	1303.21
406.42	1316.55
406.79	1338.79
407.16	1368.51
407.52	1401.28
407.89	1426.79
408.26	1464.94
408.63	1491.62
408.99	1517.37
409.36	1554.12
409.73	1588.52
410.10	1622.23
410.47	1665.29
410.83	1703.68
411.20	1742.06
411.57	1788.87
411.94	1843.87
412.30	1909.88
412.67	1981.03
413.04	2040.01
413.40	2126.61
413.77	2216.25
414.14	2309.17
414.51	2394.60
414.87	2500.39
415.24	2600.57
415.61	2711.28
415.97	2832.05
416.34	2972.25
416.71	3118.30
417.08	3287.28
417.44	3436.14
417.81	3606.06
418.18	3793.07
418.54	3999.51
418.91	4199.86
419.28	4443.27
419.64	4680.60
420.01	4930.10
420.38	5195.05
420.74	5478.96
421.11	5806.87
421.48	6107.39
421.84	6450.98
422.21	6810.26
422.58	7174.44
422.94	7514.52
423.31	7930.44
423.68	8380.29
424.04	8837.86
424.41	9313.69
424.77	9828.85
425.14	10365.30
425.51	10894.73
425.87	11486.18
426.24	12079.97
426.61	12767.39
426.97	13519.64
427.34	14254.10
427.70	15046.60
428.07	15843.79
428.44	16607.51
428.80	17411.48
429.17	18287.31
429.53	19136.92
429.90	20139.37
430.27	21001.63
430.63	21862.01
431.00	22886.93
431.36	24048.77
431.73	25048.18
432.09	26165.32
432.46	27248.75
432.83	28283.27
433.19	29171.97
433.56	30294.26
433.92	31370.90
434.29	32454.10
434.65	33526.30
435.02	34495.52
435.38	35387.26
435.75	36174.38
436.11	37200.71
436.48	38027.62
436.84	38875.36
437.21	39721.00
437.57	40580.68
437.94	41182.90
438.30	41819.99
438.67	42260.48
439.03	42432.74
439.40	42656.03
439.76	42547.43
440.13	42304.01
440.49	42253.93
440.86	41951.53
441.22	41568.15
441.59	41146.38
441.95	40655.34
442.32	39889.28
442.68	39314.68
443.05	38540.90
443.41	37784.20
443.78	36929.91
444.14	36099.25
444.51	35041.56
444.87	34225.42
445.24	33266.50
445.60	32342.93
445.96	31411.63
446.33	30720.94
446.69	29666.52
447.06	28884.08
447.42	28041.02
447.79	27153.49
448.15	26253.09
448.51	25549.99
448.88	24872.64
449.24	24141.92
449.61	23582.77
449.97	23052.17
450.33	22506.12
450.70	21813.79
451.06	21298.88
451.43	20686.59
451.79	20165.12
452.15	19679.46
452.52	19231.48
452.88	18759.63
453.24	18362.67
453.61	17901.82
453.97	17437.23
454.34	16923.71
454.70	16507.10
455.06	16000.37
455.43	15458.77
455.79	14854.44
456.15	14404.59
456.52	13844.74
456.88	13397.23
457.24	12976.87
457.61	12658.79
457.97	12232.34
458.33	11843.11
458.70	11447.56
459.06	10981.33
459.42	10598.41
459.79	10209.88
460.15	9878.47
460.51	9535.81
460.88	9253.07
461.24	8910.42
461.60	8659.98
461.96	8393.16
462.33	8135.00
462.69	7889.01
463.05	7647.70
463.42	7446.65
463.78	7222.19
464.14	7016.93
464.50	6835.30
464.87	6666.31
465.23	6450.52
465.59	6289.02
465.95	6109.50
466.32	5952.45
466.68	5784.40
467.04	5607.92
467.40	5434.02
467.77	5314.89
468.13	5167.90
468.49	5053.68
468.85	4976.45
469.22	4901.32
469.58	4779.14
469.94	4655.79
470.30	4553.51
470.66	4452.17
471.03	4334.20
471.39	4273.35
471.75	4196.11
472.11	4109.51
472.47	4040.23
472.84	3968.14
473.20	3860.01
473.56	3798.92
473.92	3705.54
474.28	3624.55
474.65	3556.44
475.01	3504.25
475.37	3430.76
475.73	3384.88
476.09	3326.14
476.45	3275.81
476.81	3204.19
477.18	3145.45
477.54	3086.70
477.90	3028.42
478.26	2967.10
478.62	2923.80
478.98	2885.18
479.34	2855.45
479.71	2821.52
480.07	2792.49
480.43	2772.60
480.79	2720.40
481.15	2668.91
481.51	2623.04
481.87	2586.99
482.23	2541.82
482.59	2517.95
482.96	2481.90
483.32	2449.60
483.68	2408.65
484.04	2386.64
484.40	2359.73
484.76	2337.73
485.12	2296.30
485.48	2267.75
485.84	2223.98
486.20	2187.00
486.56	2141.82
486.92	2132.70
487.28	2104.84
487.64	2075.82
488.00	2051.71
488.37	2047.97
488.73	2023.86
489.09	2006.78
489.45	1977.75
489.81	1950.60
490.17	1918.77
490.53	1895.60
490.89	1857.45
491.25	1842.94
491.61	1819.30
491.97	1805.26
492.33	1774.13
492.69	1756.57
493.05	1742.06
493.41	1722.63
493.77	1701.57
494.13	1695.25
494.49	1684.95
494.85	1670.44
495.21	1666.93
495.57	1651.01
495.93	1637.91
496.29	1615.91
496.64	1595.08
497.00	1566.29
497.36	1557.39
497.72	1537.26
498.08	1535.86
498.44	1524.16
498.80	1513.86
499.16	1490.45
499.52	1470.79
499.88	1447.62
500.24	1439.43
500.60	1436.85
500.96	1429.83
501.32	1424.68
501.68	1421.41
502.03	1411.81
502.39	1409.24
502.75	1403.15
503.11	1395.43
503.47	1390.28
503.83	1383.72
504.19	1367.11
504.55	1353.53
504.91	1343.23
505.26	1331.06
505.62	1319.59
505.98	1307.66
506.34	1302.51
506.70	1301.57
507.06	1297.12
507.42	1297.36
507.78	1291.27
508.13	1284.72
508.49	1295.02
508.85	1288.70
509.21	1282.85
509.57	1291.27
509.93	1290.34
510.28	1269.04
510.64	1266.00
511.00	1261.78
511.36	1252.42
511.72	1257.57
512.07	1249.61
512.43	1248.44
512.79	1240.25
513.15	1233.93
513.51	1215.67
513.86	1225.97
514.22	1213.80
514.58	1214.74
514.94	1213.10
515.30	1215.44
515.65	1200.23
516.01	1211.70
516.37	1215.67
516.73	1220.82
517.08	1224.33
517.44	1224.57
517.80	1216.14
518.16	1194.84
518.51	1191.33
518.87	1178.23
519.23	1169.10
519.59	1162.08
519.94	1167.46
520.30	1154.59
520.66	1158.33
521.01	1161.61
521.37	1172.84
521.73	1170.97
522.09	1176.12
522.44	1181.27
522.80	1187.59
523.16	1181.50
523.51	1180.57
523.87	1176.35
524.23	1157.86
524.58	1156.22
524.94	1148.03
525.30	1145.46
525.65	1150.37
526.01	1173.78
526.37	1157.63
526.72	1155.05
527.08	1156.93
527.44	1145.46
527.79	1131.88
528.15	1141.71
528.51	1143.82
528.86	1140.78
529.22	1147.56
529.58	1143.82
529.93	1142.42
530.29	1141.25
530.65	1137.27
531.00	1133.05
531.36	1137.03
531.71	1141.95
532.07	1141.25
532.43	1142.18
532.78	1145.22
533.14	1134.46
533.49	1139.14
533.85	1138.90
534.21	1135.86
534.56	1132.35
534.92	1127.20
535.27	1115.73
535.63	1108.95
535.98	1099.82
536.34	1095.37
536.69	1111.29
537.05	1107.07
537.41	1110.12
537.76	1119.01
538.12	1126.50
538.47	1124.16
538.83	1120.88
539.18	1129.07
539.54	1126.97
539.89	1114.10
540.25	1103.33
540.60	1103.09
540.96	1096.78
541.31	1100.75
541.67	1111.52
542.02	1119.24
542.38	1133.05
542.73	1135.86
543.09	1129.54
543.44	1123.69
543.80	1121.12
544.15	1113.39
544.51	1106.37
544.86	1115.03
545.22	1127.90
545.57	1134.46
545.93	1132.12
546.28	1136.80
546.64	1136.80
546.99	1136.80
547.35	1125.10
547.70	1111.52
548.05	1120.88
548.41	1120.65
548.76	1114.09
549.12	1128.14
549.47	1138.20
549.83	1131.65
550.18	1129.54
550.53	1132.82
550.89	1126.03
551.24	1129.07
551.60	1130.24
551.95	1128.84
552.30	1125.56
552.66	1120.88
553.01	1109.88
553.37	1108.24
553.72	1104.50
554.07	1092.56
554.43	1095.84
554.78	1104.97
555.13	1110.12
555.49	1121.12
555.84	1118.78
556.19	1120.65
556.55	1114.80
556.90	1106.84
557.26	1102.16
557.61	1102.63
557.96	1096.31
558.32	1102.39
558.67	1097.71
559.02	1097.71
559.37	1107.54
559.73	1105.44
560.08	1108.71
560.43	1111.99
560.79	1109.18
561.14	1108.95
561.49	1113.16
561.85	1103.56
562.20	1107.78
562.55	1105.90
562.90	1111.75
563.26	1114.33
563.61	1122.52
563.96	1112.46
564.32	1111.75
564.67	1101.92
565.02	1100.05
565.37	1093.97
565.73	1111.75
566.08	1121.58
566.43	1134.93
566.78	1128.84
567.14	1143.35
567.49	1125.10
567.84	1114.10
568.19	1107.07
568.54	1112.69
568.90	1097.01
569.25	1095.14
569.60	1101.22
569.95	1094.20
570.31	1082.26
570.66	1091.86
571.01	1101.92
571.36	1092.80
571.71	1094.90
572.06	1105.67
572.42	1108.48
572.77	1105.90
573.12	1113.16
573.47	1113.63
573.82	1103.33
574.18	1094.90
574.53	1085.31
574.88	1077.58
575.23	1077.35
575.58	1090.69
575.93	1095.84
576.28	1105.90
576.64	1116.20
576.99	1129.31
577.34	1124.86
577.69	1122.05
578.04	1117.61
578.39	1110.82
578.74	1101.22
579.09	1104.03
579.44	1107.07
579.80	1108.48
580.15	1107.31
580.50	1115.73
580.85	1122.29
581.20	1116.67
581.55	1104.73
581.90	1123.46
582.25	1112.46
582.60	1104.26
582.95	1104.50
583.30	1115.03
583.65	1096.54
584.00	1100.52
584.35	1102.39
584.71	1104.50
585.06	1105.90
585.41	1103.80
585.76	1102.63
586.11	1100.99
586.46	1097.01
586.81	1094.90
587.16	1101.46
587.51	1103.33
587.86	1092.09
588.21	1095.37
588.56	1103.80
588.91	1101.22
589.26	1093.73
589.61	1109.41
589.96	1112.92
590.31	1111.99
590.66	1110.82
591.01	1116.90
591.36	1106.61
591.71	1109.65
592.06	1107.07
592.41	1111.75
592.76	1106.61
593.10	1104.50
593.45	1097.95
593.80	1098.65
594.15	1097.01
594.50	1096.07
594.85	1106.37
595.20	1115.73
595.55	1108.01
595.90	1106.61
596.25	1118.78
596.60	1114.56
596.95	1102.86
597.30	1103.33
597.64	1157.16
597.99	1148.03
598.34	1144.76
598.69	1146.86
599.04	1154.59
599.39	1104.50
599.74	1104.97
600.09	1106.14
600.44	1106.61
600.78	1101.22
601.13	1089.52
601.48	1078.05
601.83	1079.46
602.18	1082.97
602.53	1093.26
602.88	1108.48
603.22	1114.56
603.57	1108.95
603.92	1094.20
604.27	1095.37
604.62	1088.58
604.97	1086.71
605.31	1094.90
605.66	1104.73
606.01	1097.48
606.36	1103.56
606.71	1108.95
607.05	1105.67
607.40	1103.33
607.75	1091.86
608.10	1074.77
608.44	1077.35
608.79	1082.03
609.14	1078.28
609.49	1084.84
609.84	1089.29
610.18	1086.94
610.53	1087.88
610.88	1097.95
611.23	1105.90
611.57	1111.75
611.92	1114.33
612.27	1115.03
612.62	1103.09
612.96	1098.65
613.31	1100.29
613.66	1097.95
614.00	1084.60
614.35	1086.48
614.70	1088.58
615.05	1091.63
615.39	1083.43
615.74	1086.71
616.09	1092.09
616.43	1084.84
616.78	1070.80
617.13	1074.31
617.47	1079.92
617.82	1080.86
618.17	1089.29
618.51	1096.54
618.86	1102.86
619.21	1101.22
619.55	1104.97
619.90	1102.39
620.25	1104.97
620.59	1101.22
620.94	1102.63
621.29	1093.97
621.63	1099.12
621.98	1093.97
622.32	1092.33
622.67	1083.20
623.02	1084.60
623.36	1078.05
623.71	1081.09
624.05	1077.11
624.40	1091.63
624.75	1104.26
625.09	1104.73
625.44	1102.16
625.78	1111.75
626.13	1098.41
626.48	1091.16
626.82	1092.33
627.17	1093.26
627.51	1094.90
627.86	1102.86
628.20	1106.84
628.55	1104.26
628.89	1111.52
629.24	1117.14
629.58	1112.46
629.93	1107.31
630.28	1105.44
630.62	1106.14
630.97	1100.75
631.31	1104.97
631.66	1096.54
632.00	1096.31
632.35	1093.50
632.69	1087.18
633.04	1083.43
633.38	1090.22
633.73	1097.71
634.07	1094.43
634.42	1098.88
634.76	1097.95
635.11	1107.07
635.45	1100.05
635.79	1105.67
636.14	1112.22
636.48	1112.92
636.83	1097.24
637.17	1097.71
637.52	1092.09
637.86	1085.54
638.21	1094.20
638.55	1097.95
638.89	1098.88
639.24	1097.01
639.58	1102.63
639.93	1099.35
640.27	1101.92
640.61	1100.75
640.96	1095.60
641.30	1074.31
641.65	1071.03
641.99	1068.92
642.33	1072.67
642.68	1080.86
643.02	1094.90
643.37	1089.75
643.71	1097.48
644.05	1096.54
644.40	1089.05
644.74	1082.03
645.08	1084.37
645.43	1077.11
645.77	1080.16
646.11	1093.03
646.46	1087.18
646.80	1093.26
647.14	1100.75
647.49	1094.20
647.83	1091.39
648.17	1102.16
648.52	1099.82
648.86	1090.92
649.20	1102.86
649.55	1103.09
649.89	1105.44
650.23	1106.84
650.57	1113.39
650.92	1107.54
651.26	1101.46
651.60	1109.65
651.95	1110.35
652.29	1098.88
652.63	1097.48
652.97	1105.44
653.32	1105.44
653.66	1109.65
654.00	1120.41
654.34	1118.78
654.69	1107.31
655.03	1107.78
655.37	1094.90
655.71	1091.16
656.05	1082.03
656.40	1083.20
656.74	1071.97
657.08	1080.39
657.42	1082.03
657.76	1083.43
658.11	1085.31
658.45	1078.28
658.79	1083.20
659.13	1087.88
659.47	1088.12
659.82	1096.78
660.16	1099.12
660.50	1093.50
660.84	1080.39
661.18	1087.65
661.52	1080.63
661.87	1078.52
662.21	1072.20
662.55	1083.67
662.89	1089.29
663.23	1092.33
663.57	1102.63
663.91	1104.73
664.25	1111.52
664.60	1106.14
664.94	1108.24
665.28	1108.95
665.62	1111.99
665.96	1104.26
666.30	1099.12
666.64	1102.16
666.98	1105.20
667.32	1093.03
667.66	1086.01
668.01	1092.56
668.35	1082.03
668.69	1068.69
669.03	1079.69
669.37	1077.11
669.71	1071.26
670.05	1081.09
670.39	1085.77
670.73	1098.18
671.07	1101.92
671.41	1108.48
671.75	1099.82
672.09	1101.92
672.43	1085.31
672.77	1085.54
673.11	1083.67
673.45	1081.33
673.79	1079.69
674.13	1093.50
674.47	1098.18
674.81	1097.95
675.15	1095.37
675.49	1096.07
675.83	1082.73
676.17	1087.18
676.51	1080.16
676.85	1093.50
677.19	1088.82
677.53	1091.86
677.87	1085.54
678.21	1090.92
678.55	1080.63
678.89	1079.69
679.23	1081.56
679.57	1091.63
679.90	1096.78
680.24	1099.82
680.58	1100.99
680.92	1102.63
681.26	1090.46
681.60	1083.90
681.94	1086.94
682.28	1083.90
682.62	1081.09
682.96	1092.33
683.29	1099.35
683.63	1102.63
683.97	1114.33
684.31	1117.84
684.65	1112.92
684.99	1109.88
685.33	1101.92
685.67	1089.29
686.00	1089.99
686.34	1078.52
686.68	1081.33
687.02	1088.82
687.36	1100.29
687.70	1096.31
688.03	1111.75
688.37	1108.01
688.71	1094.43
689.05	1099.35
689.39	1094.43
689.72	1076.18
690.06	1076.41
690.40	1084.14
690.74	1073.84
691.08	1071.50
691.41	1080.86
691.75	1084.84
692.09	1089.05
692.43	1083.90
692.76	1095.14
693.10	1100.05
693.44	1088.58
693.78	1076.88
694.11	1085.54
694.45	1075.24
694.79	1061.20
695.13	1070.56
695.46	1078.75
695.80	1083.20
696.14	1086.94
696.48	1089.29
696.81	1083.20
697.15	1085.77
697.49	1081.33
697.82	1082.97
698.16	1091.39
698.50	1107.31
698.83	1103.09
699.17	1108.48
699.51	1113.39
699.84	1109.41
700.18	1088.12
700.52	1089.52
700.85	1080.39
701.19	1079.69
701.53	1085.07
701.86	1086.01
702.20	1090.69
702.54	1086.24
702.87	1078.99
703.21	1071.97
703.55	1073.84
703.88	1081.33
704.22	1082.03
704.55	1087.41
704.89	1095.14
705.23	1104.50
705.56	1092.56
705.90	1099.12
706.23	1094.20
706.57	1083.90
706.91	1074.77
707.24	1071.97
707.58	1070.33
707.91	1067.75
708.25	1071.26
708.58	1078.52
708.92	1082.03
709.26	1081.56
709.59	1078.75
709.93	1072.67
710.26	1070.80
710.60	1074.77
710.93	1084.60
711.27	1084.60
711.60	1093.50
711.94	1085.31
712.27	1081.80
712.61	1070.56
712.94	1077.11
713.28	1074.54
713.61	1080.63
713.95	1069.62
714.28	1068.45
714.62	1063.07
714.95	1066.35
715.29	1069.86
715.62	1075.94
715.96	1075.71
716.29	1082.97
716.63	1082.26
716.96	1078.28
717.29	1083.20
717.63	1090.22
717.96	1095.60
718.30	1089.52
718.63	1086.24
718.97	1075.94
719.30	1060.03
719.63	1053.94
719.97	1064.94
720.30	1074.77
720.64	1078.05
720.97	1080.86
721.30	1078.75
721.64	1077.35
721.97	1077.82
722.31	1082.26
722.64	1081.56
722.97	1079.69
723.31	1075.94
723.64	1060.03
723.97	1060.73
724.31	1069.62
724.64	1069.86
724.98	1076.88
725.31	1079.92
725.64	1078.28
725.98	1076.65
726.31	1079.22
726.64	1073.84
726.97	1081.80
727.31	1085.54
727.64	1085.31
727.97	1089.75
728.31	1086.94
728.64	1086.71
728.97	1086.71
729.31	1089.99
729.64	1090.69
729.97	1088.82
730.30	1091.39
730.64	1082.73
730.97	1089.75
731.30	1080.16
731.63	1075.48
731.97	1075.24
732.30	1085.77
732.63	1078.99
732.96	1077.82
733.30	1077.35
733.63	1068.92
733.96	1066.58
734.29	1070.09
734.63	1084.14
734.96	1088.12
735.29	1095.60
735.62	1087.65
735.95	1083.20
736.29	1078.52
736.62	1071.97
736.95	1075.48
737.28	1082.50
737.61	1082.73
737.94	1084.37
738.28	1096.07
738.61	1090.92
738.94	1083.90
739.27	1081.56
739.60	1081.80
739.93	1069.16
740.27	1070.09
740.60	1073.37
740.93	1078.05
741.26	1073.84
741.59	1089.05
741.92	1088.82
742.25	1076.88
742.58	1072.67
742.91	1070.56
743.25	1074.31
743.58	1077.11
743.91	1092.56
744.24	1099.35
744.57	1095.84
744.90	1092.56
745.23	1089.52
745.56	1085.54
745.89	1083.90
746.22	1087.18
746.55	1078.99
746.88	1073.84
747.21	1079.92
747.54	1078.28
747.87	1076.88
748.20	1081.80
748.53	1093.26
748.87	1083.67
749.20	1086.24
749.53	1089.05
749.86	1087.88
750.19	1077.58
750.52	1078.28
750.85	1079.92
751.18	1078.05
751.51	1072.67
751.84	1078.05
752.16	1083.67
752.49	1078.05
752.82	1076.41
753.15	1082.73
753.48	1074.54
753.81	1070.33
754.14	1065.65
754.47	1068.92
754.80	1063.77
755.13	1067.05
755.46	1083.90
755.79	1092.56
756.12	1095.37
756.45	1099.35
756.78	1101.22
757.11	1086.71
757.43	1078.05
757.76	1071.26
758.09	1069.16
758.42	1069.39
758.75	1074.54
759.08	1078.05
759.41	1079.92
759.74	1082.50
760.07	1081.80
760.39	1082.50
760.72	1079.22
761.05	1075.94
761.38	1073.60
761.71	1069.16
762.04	1063.07
762.36	1069.62
762.69	1071.26
763.02	1071.03
763.35	1081.33
763.68	1092.80
764.01	1096.07
764.33	1098.88
