SpectraSuite Data File
++++++++++++++++++++++++++++++++++++
Date: Mon Aug 26 10:24:38 PDT 2019
User: corrico
Dark Spectrum Present: No
Reference Spectrum Present: No
Number of Sampled Component Spectra: 1
Spectrometers: USB2+H06089
Integration Time (usec): 10000 (USB2+H06089)
Spectra Averaged: 2 (USB2+H06089)
Boxcar Smoothing: 2 (USB2+H06089)
Correct for Electrical Dark: No (USB2+H06089)
Strobe/Lamp Enabled: No (USB2+H06089)
Correct for Detector Non-linearity: No (USB2+H06089)
Correct for Stray Light: No (USB2+H06089)
Number of Pixels in Processed Spectrum: 2048
>>>>>Begin Processed Spectral Data<<<<<
339.70	1021.64
340.07	1021.64
340.45	983.73
340.82	959.85
341.19	934.34
341.57	911.87
341.94	906.96
342.31	896.66
342.69	894.79
343.06	897.36
343.43	904.38
343.81	903.45
344.18	917.72
344.55	919.36
344.93	914.68
345.30	908.83
345.67	913.98
346.04	906.96
346.42	913.04
346.79	932.00
347.16	941.13
347.54	955.17
347.91	976.47
348.28	989.58
348.65	1001.98
349.03	1012.52
349.40	1019.30
349.77	1024.45
350.14	1038.73
350.52	1036.16
350.89	1042.47
351.26	1050.43
351.63	1064.24
352.01	1070.09
352.38	1087.41
352.75	1093.50
353.12	1098.88
353.50	1093.73
353.87	1087.88
354.24	1082.73
354.61	1078.05
354.98	1070.33
355.36	1075.48
355.73	1076.65
356.10	1081.09
356.47	1086.48
356.84	1094.20
357.22	1102.16
357.59	1109.88
357.96	1112.22
358.33	1116.90
358.70	1119.48
359.08	1106.61
359.45	1102.63
359.82	1099.82
360.19	1095.37
360.56	1088.35
360.94	1103.09
361.31	1104.03
361.68	1111.05
362.05	1104.03
362.42	1108.01
362.79	1094.90
363.16	1099.35
363.54	1077.58
363.91	1090.69
364.28	1092.33
364.65	1087.88
365.02	1084.60
365.39	1096.31
365.76	1085.77
366.14	1078.28
366.51	1076.65
366.88	1074.54
367.25	1080.63
367.62	1091.39
367.99	1096.54
368.36	1096.54
368.73	1091.39
369.10	1091.63
369.48	1082.26
369.85	1089.29
370.22	1100.05
370.59	1105.44
370.96	1096.07
371.33	1102.86
371.70	1099.58
372.07	1082.26
372.44	1075.24
372.81	1083.67
373.18	1088.35
373.55	1088.82
373.93	1099.35
374.30	1108.24
374.67	1100.75
375.04	1088.82
375.41	1100.52
375.78	1107.31
376.15	1106.37
376.52	1108.95
376.89	1119.95
377.26	1100.05
377.63	1088.35
378.00	1093.97
378.37	1098.65
378.74	1098.65
379.11	1105.44
379.48	1113.86
379.85	1110.35
380.22	1108.24
380.59	1098.88
380.96	1094.20
381.33	1091.86
381.70	1095.37
382.07	1095.14
382.44	1105.20
382.81	1104.97
383.18	1102.39
383.55	1101.92
383.92	1104.73
384.29	1100.52
384.66	1106.37
385.03	1110.12
385.40	1103.09
385.77	1097.01
386.14	1102.16
386.51	1104.73
386.88	1105.90
387.25	1110.58
387.62	1107.07
387.99	1103.09
388.36	1104.03
388.73	1103.56
389.10	1095.84
389.46	1111.05
389.83	1113.39
390.20	1105.44
390.57	1101.92
390.94	1107.07
391.31	1101.92
391.68	1104.73
392.05	1116.20
392.42	1124.63
392.79	1129.78
393.16	1135.63
393.53	1142.18
393.89	1144.52
394.26	1145.22
394.63	1148.97
395.00	1146.39
395.37	1140.78
395.74	1131.18
396.11	1134.69
396.48	1136.10
396.84	1134.22
397.21	1135.63
397.58	1145.93
397.95	1145.22
398.32	1155.05
398.69	1167.93
399.06	1170.97
399.42	1161.84
399.79	1171.91
400.16	1161.84
400.53	1169.57
400.90	1181.74
401.27	1201.40
401.64	1209.82
402.00	1221.76
402.37	1225.04
402.74	1224.57
403.11	1238.61
403.48	1241.42
403.84	1249.61
404.21	1265.06
404.58	1280.27
404.95	1293.61
405.32	1318.89
405.68	1345.34
406.05	1357.28
406.42	1388.87
406.79	1400.81
407.16	1420.00
407.52	1443.17
407.89	1469.39
408.26	1491.86
408.63	1523.45
408.99	1562.07
409.36	1606.78
409.73	1646.80
410.10	1693.14
410.47	1746.51
410.83	1816.96
411.20	1871.02
411.57	1954.58
411.94	2030.41
412.30	2131.06
412.67	2203.38
413.04	2288.81
413.40	2379.62
413.77	2497.12
414.14	2587.23
414.51	2687.17
414.87	2825.73
415.24	2981.14
415.61	3106.12
415.97	3253.81
416.34	3454.86
416.71	3634.62
417.08	3821.63
417.44	4041.40
417.81	4284.35
418.18	4507.17
418.54	4774.46
418.91	5032.15
419.28	5329.40
419.64	5627.35
420.01	5950.11
420.38	6277.55
420.74	6615.06
421.11	7002.88
421.48	7392.35
421.84	7794.92
422.21	8222.54
422.58	8743.77
422.94	9246.75
423.31	9759.10
423.68	10312.63
424.04	10908.53
424.41	11452.94
424.77	12030.35
425.14	12655.74
425.51	13329.58
425.87	14077.85
426.24	14885.34
426.61	15773.81
426.97	16769.47
427.34	17721.60
427.70	18708.37
428.07	19732.59
428.44	20814.15
428.80	21899.92
429.17	22952.23
429.53	24045.96
429.90	25260.23
430.27	26356.77
430.63	27470.40
431.00	28851.55
431.36	30285.13
431.73	31521.63
432.09	32790.91
432.46	34091.31
432.83	35313.77
433.19	36491.06
433.56	37943.83
433.92	39486.94
434.29	41016.25
434.65	42486.57
435.02	43773.17
435.38	44990.95
435.75	45853.90
436.11	47019.49
436.48	48002.28
436.84	49018.07
437.21	49948.90
437.57	51002.85
437.94	51649.30
438.30	52280.31
438.67	52555.09
439.03	52636.78
439.40	52790.31
439.76	52680.31
440.13	52487.22
440.49	52536.37
440.86	52240.52
441.22	51746.90
441.59	51093.19
441.95	50368.09
442.32	49384.84
442.68	48596.78
443.05	47682.56
443.41	46851.21
443.78	45827.46
444.14	44965.20
444.51	43769.66
444.87	42825.72
445.24	41583.83
445.60	40512.33
445.96	39276.53
446.33	38368.64
446.69	37096.32
447.06	36210.43
447.42	35211.49
447.79	34106.29
448.15	33127.24
448.51	32230.82
448.88	31355.69
449.24	30387.88
449.61	29729.48
449.97	28903.04
450.33	28162.03
450.70	27202.17
451.06	26602.53
451.43	25854.49
451.79	25366.96
452.15	24811.32
452.52	24347.19
452.88	23785.69
453.24	23237.07
453.61	22537.25
453.97	21868.09
454.34	21205.96
454.70	20568.86
455.06	19956.58
455.43	19285.78
455.79	18596.26
456.15	18056.76
456.52	17425.52
456.88	16911.31
457.24	16350.05
457.61	15857.83
457.97	15315.06
458.33	14805.76
458.70	14230.93
459.06	13665.22
459.42	13206.00
459.79	12736.49
460.15	12308.64
460.51	11839.60
460.88	11502.33
461.24	11068.39
461.60	10685.72
461.96	10297.65
462.33	10008.36
462.69	9673.43
463.05	9410.36
463.42	9133.47
463.78	8871.33
464.14	8610.60
464.50	8366.24
464.87	8062.21
465.23	7792.11
465.59	7575.61
465.95	7327.52
466.32	7099.08
466.68	6953.03
467.04	6764.38
467.40	6608.03
467.77	6460.81
468.13	6292.76
468.49	6137.12
468.85	6030.86
469.22	5896.75
469.58	5769.19
469.94	5645.84
470.30	5529.52
470.66	5396.81
471.03	5272.52
471.39	5179.37
471.75	5088.56
472.11	4970.60
472.47	4918.64
472.84	4811.91
473.20	4678.26
473.56	4566.39
473.92	4467.61
474.28	4328.59
474.65	4248.54
475.01	4184.18
475.37	4095.94
475.73	4011.44
476.09	3929.76
476.45	3830.75
476.81	3746.26
477.18	3661.30
477.54	3591.32
477.90	3529.06
478.26	3463.06
478.62	3409.46
478.98	3361.95
479.34	3315.13
479.71	3272.07
480.07	3229.94
480.43	3172.83
480.79	3112.21
481.15	3057.44
481.51	2994.48
481.87	2942.05
482.23	2886.11
482.59	2860.60
482.96	2813.09
483.32	2779.85
483.68	2744.98
484.04	2711.28
484.40	2662.83
484.76	2634.27
485.12	2585.36
485.48	2552.35
485.84	2498.99
486.20	2467.16
486.56	2433.69
486.92	2401.86
487.28	2359.96
487.64	2334.45
488.00	2300.04
488.37	2257.91
488.73	2238.96
489.09	2209.47
489.45	2185.36
489.81	2147.68
490.17	2116.55
490.53	2079.10
490.89	2043.76
491.25	2014.27
491.61	1996.01
491.97	1983.84
492.33	1967.69
492.69	1956.92
493.05	1939.60
493.41	1913.15
493.77	1879.22
494.13	1849.02
494.49	1822.58
494.85	1797.53
495.21	1767.10
495.57	1755.17
495.93	1738.55
496.29	1717.49
496.64	1708.36
497.00	1711.63
497.36	1680.50
497.72	1654.76
498.08	1632.76
498.44	1612.63
498.80	1593.20
499.16	1577.99
499.52	1570.03
499.88	1569.33
500.24	1548.26
500.60	1535.16
500.96	1530.94
501.32	1515.96
501.68	1504.26
502.03	1497.01
502.39	1483.67
502.75	1480.15
503.11	1487.64
503.47	1479.45
503.83	1470.56
504.19	1465.64
504.55	1442.24
504.91	1419.77
505.26	1410.87
505.62	1390.04
505.98	1379.28
506.34	1389.58
506.70	1381.38
507.06	1361.72
507.42	1363.36
507.78	1355.64
508.13	1337.38
508.49	1330.36
508.85	1327.32
509.21	1310.93
509.57	1303.91
509.93	1290.57
510.28	1282.15
510.64	1285.66
511.00	1281.21
511.36	1272.32
511.72	1269.27
512.07	1266.00
512.43	1251.48
512.79	1260.38
513.15	1257.10
513.51	1265.06
513.86	1260.14
514.22	1263.89
514.58	1251.95
514.94	1249.14
515.30	1231.59
515.65	1231.36
516.01	1224.33
516.37	1223.87
516.73	1220.36
517.08	1228.31
517.44	1221.99
517.80	1212.40
518.16	1217.55
518.51	1210.76
518.87	1206.31
519.23	1200.69
519.59	1202.57
519.94	1186.89
520.30	1176.59
520.66	1167.46
521.01	1166.52
521.37	1165.59
521.73	1176.82
522.09	1193.67
522.44	1207.01
522.80	1216.61
523.16	1207.25
523.51	1199.99
523.87	1192.50
524.23	1170.50
524.58	1151.78
524.94	1159.27
525.30	1158.80
525.65	1162.08
526.01	1167.23
526.37	1175.89
526.72	1166.99
527.08	1168.40
527.44	1161.84
527.79	1164.88
528.15	1169.57
528.51	1173.54
528.86	1165.82
529.22	1161.14
529.58	1152.71
529.93	1152.01
530.29	1143.12
530.65	1149.20
531.00	1157.16
531.36	1158.57
531.71	1144.99
532.07	1151.08
532.43	1144.05
532.78	1133.05
533.14	1131.88
533.49	1128.84
533.85	1130.95
534.21	1132.82
534.56	1140.78
534.92	1152.01
535.27	1153.42
535.63	1149.67
535.98	1145.93
536.34	1143.35
536.69	1129.54
537.05	1126.50
537.41	1123.22
537.76	1112.46
538.12	1105.90
538.47	1104.03
538.83	1112.69
539.18	1115.73
539.54	1132.82
539.89	1137.97
540.25	1149.44
540.60	1149.67
540.96	1147.80
541.31	1139.37
541.67	1136.33
542.02	1124.39
542.38	1114.33
542.73	1113.39
543.09	1112.69
543.44	1108.01
543.80	1111.75
544.15	1118.54
544.51	1116.90
544.86	1121.12
545.22	1122.29
545.57	1128.37
545.93	1125.33
546.28	1130.48
546.64	1124.86
546.99	1127.67
547.35	1123.22
547.70	1124.39
548.05	1118.31
548.41	1119.71
548.76	1123.69
549.12	1117.37
549.47	1117.14
549.83	1113.39
550.18	1116.67
550.53	1110.12
550.89	1111.52
551.24	1115.27
551.60	1114.33
551.95	1107.31
552.30	1104.97
552.66	1110.58
553.01	1104.03
553.37	1109.65
553.72	1113.39
554.07	1110.58
554.43	1104.50
554.78	1104.26
555.13	1107.78
555.49	1115.27
555.84	1116.44
556.19	1123.93
556.55	1122.29
556.90	1118.54
557.26	1114.10
557.61	1123.46
557.96	1120.18
558.32	1128.61
558.67	1126.73
559.02	1125.10
559.37	1116.90
559.73	1112.22
560.08	1113.39
560.43	1110.12
560.79	1107.07
561.14	1111.05
561.49	1107.31
561.85	1108.01
562.20	1111.05
562.55	1114.80
562.90	1109.18
563.26	1110.82
563.61	1102.39
563.96	1102.86
564.32	1103.09
564.67	1108.01
565.02	1114.10
565.37	1113.39
565.73	1116.90
566.08	1112.69
566.43	1114.56
566.78	1111.29
567.14	1107.78
567.49	1096.31
567.84	1096.31
568.19	1099.58
568.54	1098.65
568.90	1105.44
569.25	1113.86
569.60	1121.82
569.95	1108.24
570.31	1108.71
570.66	1100.29
571.01	1102.63
571.36	1099.58
571.71	1106.14
572.06	1109.65
572.42	1114.10
572.77	1107.54
573.12	1096.54
573.47	1103.09
573.82	1099.35
574.18	1098.88
574.53	1106.14
574.88	1119.24
575.23	1119.24
575.58	1117.61
575.93	1122.52
576.28	1117.61
576.64	1111.29
576.99	1101.46
577.34	1109.65
577.69	1109.41
578.04	1110.35
578.39	1112.46
578.74	1114.33
579.09	1112.22
579.44	1104.26
579.80	1108.01
580.15	1104.97
580.50	1098.41
580.85	1103.33
581.20	1113.39
581.55	1107.31
581.90	1097.71
582.25	1104.97
582.60	1099.35
582.95	1089.75
583.30	1091.39
583.65	1105.90
584.00	1098.18
584.35	1098.41
584.71	1104.73
585.06	1112.92
585.41	1118.54
585.76	1129.31
586.11	1140.78
586.46	1139.37
586.81	1134.93
587.16	1123.93
587.51	1113.39
587.86	1097.48
588.21	1088.35
588.56	1079.69
588.91	1073.60
589.26	1084.84
589.61	1077.35
589.96	1084.37
590.31	1088.82
590.66	1094.67
591.01	1099.35
591.36	1107.78
591.71	1111.99
592.06	1103.56
592.41	1106.61
592.76	1099.12
593.10	1103.33
593.45	1100.29
593.80	1117.37
594.15	1119.71
594.50	1118.07
594.85	1107.78
595.20	1114.10
595.55	1108.71
595.90	1110.82
596.25	1109.88
596.60	1113.86
596.95	1106.61
597.30	1106.84
597.64	1141.25
597.99	1146.86
598.34	1145.93
598.69	1153.18
599.04	1151.54
599.39	1105.67
599.74	1102.86
600.09	1110.58
600.44	1108.71
600.78	1112.92
601.13	1116.90
601.48	1107.78
601.83	1105.20
602.18	1100.52
602.53	1086.94
602.88	1088.12
603.22	1088.35
603.57	1077.35
603.92	1086.71
604.27	1096.78
604.62	1099.35
604.97	1108.48
605.31	1115.50
605.66	1102.86
606.01	1100.29
606.36	1093.97
606.71	1093.97
607.05	1098.41
607.40	1101.69
607.75	1102.39
608.10	1119.95
608.44	1115.03
608.79	1118.31
609.14	1119.24
609.49	1112.92
609.84	1097.95
610.18	1097.24
610.53	1090.22
610.88	1085.07
611.23	1095.60
611.57	1085.77
611.92	1082.26
612.27	1082.50
612.62	1081.09
612.96	1085.31
613.31	1096.78
613.66	1107.78
614.00	1099.35
614.35	1105.20
614.70	1089.99
615.05	1090.22
615.39	1080.63
615.74	1091.86
616.09	1089.75
616.43	1094.43
616.78	1090.22
617.13	1099.12
617.47	1092.80
617.82	1090.22
618.17	1082.50
618.51	1086.01
618.86	1086.01
619.21	1089.75
619.55	1096.54
619.90	1107.31
620.25	1110.12
620.59	1108.01
620.94	1099.82
621.29	1091.39
621.63	1089.29
621.98	1086.24
622.32	1078.75
622.67	1088.35
623.02	1097.48
623.36	1093.97
623.71	1092.33
624.05	1097.48
624.40	1088.58
624.75	1085.77
625.09	1076.18
625.44	1070.33
625.78	1074.07
626.13	1076.65
626.48	1082.73
626.82	1093.97
627.17	1102.39
627.51	1099.58
627.86	1106.84
628.20	1110.35
628.55	1112.69
628.89	1112.69
629.24	1099.82
629.58	1102.16
629.93	1097.24
630.28	1096.78
630.62	1100.05
630.97	1121.58
631.31	1115.03
631.66	1115.27
632.00	1113.86
632.35	1105.44
632.69	1102.86
633.04	1102.86
633.38	1093.03
633.73	1090.69
634.07	1087.41
634.42	1082.73
634.76	1092.33
635.11	1084.60
635.45	1087.18
635.79	1090.69
636.14	1095.14
636.48	1080.86
636.83	1093.73
637.17	1091.63
637.52	1099.58
637.86	1083.43
638.21	1084.84
638.55	1087.41
638.89	1087.41
639.24	1086.24
639.58	1099.12
639.93	1103.33
640.27	1102.63
640.61	1106.37
640.96	1097.24
641.30	1104.73
641.65	1099.58
641.99	1100.99
642.33	1099.82
642.68	1110.82
643.02	1107.31
643.37	1111.99
643.71	1115.27
644.05	1120.65
644.40	1106.61
644.74	1099.58
645.08	1098.88
645.43	1093.73
645.77	1085.77
646.11	1099.12
646.46	1096.78
646.80	1089.99
647.14	1089.99
647.49	1093.50
647.83	1080.86
648.17	1085.54
648.52	1089.05
648.86	1082.03
649.20	1079.92
649.55	1093.73
649.89	1099.58
650.23	1108.71
650.57	1115.03
650.92	1111.99
651.26	1111.99
651.60	1099.82
651.95	1098.41
652.29	1098.41
652.63	1106.84
652.97	1095.60
653.32	1092.33
653.66	1088.82
654.00	1088.12
654.34	1080.86
654.69	1089.75
655.03	1094.67
655.37	1093.97
655.71	1103.80
656.05	1102.39
656.40	1097.71
656.74	1105.44
657.08	1103.09
657.42	1093.50
657.76	1101.22
658.11	1107.78
658.45	1098.41
658.79	1092.09
659.13	1092.80
659.47	1092.80
659.82	1091.86
660.16	1097.95
660.50	1101.22
660.84	1096.54
661.18	1085.54
661.52	1078.75
661.87	1074.07
662.21	1071.97
662.55	1069.86
662.89	1069.16
663.23	1075.01
663.57	1079.92
663.91	1084.14
664.25	1091.39
664.60	1103.09
664.94	1104.50
665.28	1104.97
665.62	1098.18
665.96	1104.03
666.30	1095.60
666.64	1083.90
666.98	1078.75
667.32	1095.60
667.66	1088.82
668.01	1091.39
668.35	1096.31
668.69	1097.01
669.03	1095.84
669.37	1092.80
669.71	1092.56
670.05	1098.18
670.39	1100.52
670.73	1098.18
671.07	1102.16
671.41	1094.43
671.75	1096.78
672.09	1096.78
672.43	1083.43
672.77	1076.41
673.11	1081.80
673.45	1071.73
673.79	1066.58
674.13	1081.80
674.47	1086.24
674.81	1091.39
675.15	1085.54
675.49	1087.18
675.83	1087.65
676.17	1082.50
676.51	1085.54
676.85	1088.82
677.19	1098.18
677.53	1086.71
677.87	1092.56
678.21	1084.37
678.55	1095.60
678.89	1086.01
679.23	1092.56
679.57	1086.71
679.90	1085.77
680.24	1080.86
680.58	1082.97
680.92	1086.94
681.26	1087.41
681.60	1088.12
681.94	1091.63
682.28	1096.78
682.62	1091.16
682.96	1097.01
683.29	1101.46
683.63	1097.24
683.97	1086.48
684.31	1085.77
684.65	1083.67
684.99	1083.20
685.33	1078.75
685.67	1085.31
686.00	1089.99
686.34	1090.22
686.68	1084.60
687.02	1094.20
687.36	1089.52
687.70	1080.16
688.03	1081.56
688.37	1097.24
688.71	1093.73
689.05	1093.03
689.39	1088.82
689.72	1080.86
690.06	1073.37
690.40	1076.65
690.74	1083.43
691.08	1100.52
691.41	1110.35
691.75	1113.63
692.09	1098.88
692.43	1090.22
692.76	1089.99
693.10	1086.94
693.44	1087.41
693.78	1093.03
694.11	1089.99
694.45	1086.48
694.79	1082.97
695.13	1074.31
695.46	1077.82
695.80	1088.35
696.14	1075.24
696.48	1081.33
696.81	1083.67
697.15	1079.92
697.49	1078.05
697.82	1095.14
698.16	1087.65
698.50	1086.94
698.83	1095.60
699.17	1101.46
699.51	1095.60
699.84	1092.56
700.18	1096.78
700.52	1089.99
700.85	1083.90
701.19	1077.35
701.53	1084.60
701.86	1073.60
702.20	1077.11
702.54	1082.03
702.87	1088.35
703.21	1086.94
703.55	1093.03
703.88	1076.65
704.22	1076.41
704.55	1081.80
704.89	1084.14
705.23	1081.56
705.56	1089.29
705.90	1075.94
706.23	1058.16
706.57	1053.01
706.91	1055.35
707.24	1066.35
707.58	1075.48
707.91	1087.65
708.25	1089.52
708.58	1082.97
708.92	1080.16
709.26	1087.41
709.59	1085.31
709.93	1082.97
710.26	1089.29
710.60	1089.99
710.93	1085.77
711.27	1084.60
711.60	1086.94
711.94	1090.46
712.27	1089.29
712.61	1079.46
712.94	1084.60
713.28	1084.14
713.61	1080.86
713.95	1083.20
714.28	1083.90
714.62	1083.43
714.95	1084.84
715.29	1079.46
715.62	1071.97
715.96	1076.41
716.29	1075.01
716.63	1085.07
716.96	1094.90
717.29	1102.39
717.63	1101.92
717.96	1104.97
718.30	1094.90
718.63	1102.86
718.97	1100.99
719.30	1104.73
719.63	1097.01
719.97	1090.22
720.30	1078.28
720.64	1068.45
720.97	1055.82
721.30	1053.01
721.64	1061.43
721.97	1057.22
722.31	1055.35
722.64	1064.24
722.97	1072.20
723.31	1083.90
723.64	1096.78
723.97	1112.69
724.31	1114.80
724.64	1108.95
724.98	1104.73
725.31	1095.37
725.64	1081.56
725.98	1079.46
726.31	1086.01
726.64	1081.56
726.97	1085.31
727.31	1088.82
727.64	1085.07
727.97	1088.35
728.31	1088.58
728.64	1085.77
728.97	1091.63
729.31	1089.05
729.64	1080.63
729.97	1073.60
730.30	1080.86
730.64	1079.46
730.97	1085.31
731.30	1085.07
731.63	1083.90
731.97	1078.05
732.30	1078.05
732.63	1082.73
732.96	1082.03
733.30	1078.05
733.63	1081.56
733.96	1079.22
734.29	1071.73
734.63	1079.46
734.96	1084.14
735.29	1082.73
735.62	1079.69
735.95	1081.80
736.29	1078.05
736.62	1085.07
736.95	1078.28
737.28	1077.11
737.61	1083.20
737.94	1083.43
738.28	1083.67
738.61	1088.12
738.94	1086.71
739.27	1080.63
739.60	1080.63
739.93	1078.99
740.27	1076.88
740.60	1086.24
740.93	1088.12
741.26	1093.26
741.59	1093.97
741.92	1083.67
742.25	1074.54
742.58	1077.82
742.91	1064.01
743.25	1063.07
743.58	1077.82
743.91	1086.01
744.24	1079.22
744.57	1084.60
744.90	1078.99
745.23	1080.39
745.56	1077.35
745.89	1081.80
746.22	1087.18
746.55	1087.88
746.88	1085.54
747.21	1083.90
747.54	1081.56
747.87	1084.84
748.20	1082.73
748.53	1077.11
748.87	1075.48
749.20	1077.11
749.53	1073.60
749.86	1079.69
750.19	1088.58
750.52	1097.01
750.85	1097.24
751.18	1099.12
751.51	1094.43
751.84	1083.20
752.16	1077.11
752.49	1077.35
752.82	1074.31
753.15	1076.41
753.48	1082.73
753.81	1089.29
754.14	1083.90
754.47	1076.88
754.80	1080.16
755.13	1082.97
755.46	1080.39
755.79	1085.31
756.12	1091.63
756.45	1089.99
756.78	1082.73
757.11	1081.33
757.43	1075.48
757.76	1067.52
758.09	1053.71
758.42	1055.58
758.75	1057.92
759.08	1062.84
759.41	1070.80
759.74	1083.43
760.07	1077.58
760.39	1070.09
760.72	1077.58
761.05	1069.39
761.38	1071.03
761.71	1073.84
762.04	1077.11
762.36	1064.24
762.69	1071.73
763.02	1070.33
763.35	1075.94
763.68	1081.56
764.01	1094.20
