SpectraSuite Data File
++++++++++++++++++++++++++++++++++++
Date: Mon Aug 26 10:24:37 PDT 2019
User: corrico
Dark Spectrum Present: No
Reference Spectrum Present: No
Number of Sampled Component Spectra: 1
Spectrometers: USB2+H06089
Integration Time (usec): 10000 (USB2+H06089)
Spectra Averaged: 2 (USB2+H06089)
Boxcar Smoothing: 2 (USB2+H06089)
Correct for Electrical Dark: No (USB2+H06089)
Strobe/Lamp Enabled: No (USB2+H06089)
Correct for Detector Non-linearity: No (USB2+H06089)
Correct for Stray Light: No (USB2+H06089)
Number of Pixels in Processed Spectrum: 2048
>>>>>Begin Processed Spectral Data<<<<<
339.70	1067.28
340.07	1067.28
340.45	1008.54
340.82	971.32
341.19	938.79
341.57	908.36
341.94	900.40
342.31	897.13
342.69	900.64
343.06	911.64
343.43	906.26
343.81	910.47
344.18	902.74
344.55	909.77
344.93	903.21
345.30	914.68
345.67	922.64
346.04	937.62
346.42	941.13
346.79	950.96
347.16	964.30
347.54	976.00
347.91	990.51
348.28	1009.00
348.65	1018.37
349.03	1030.77
349.40	1036.16
349.77	1037.09
350.14	1043.64
350.52	1041.07
350.89	1044.82
351.26	1058.62
351.63	1069.16
352.01	1069.62
352.38	1079.46
352.75	1081.33
353.12	1072.43
353.50	1068.22
353.87	1068.69
354.24	1078.75
354.61	1073.37
354.98	1076.18
355.36	1086.01
355.73	1096.31
356.10	1087.88
356.47	1092.33
356.84	1096.78
357.22	1092.33
357.59	1085.77
357.96	1093.97
358.33	1086.71
358.70	1089.99
359.08	1090.22
359.45	1095.60
359.82	1098.65
360.19	1104.73
360.56	1104.73
360.94	1100.75
361.31	1089.75
361.68	1089.05
362.05	1088.12
362.42	1083.20
362.79	1087.41
363.16	1093.26
363.54	1085.07
363.91	1084.84
364.28	1091.86
364.65	1089.52
365.02	1087.88
365.39	1085.77
365.76	1085.31
366.14	1085.77
366.51	1092.33
366.88	1090.22
367.25	1092.09
367.62	1088.35
367.99	1083.20
368.36	1076.88
368.73	1076.18
369.10	1076.41
369.48	1092.09
369.85	1090.69
370.22	1099.12
370.59	1102.16
370.96	1103.09
371.33	1095.84
371.70	1094.67
372.07	1088.35
372.44	1092.33
372.81	1089.05
373.18	1091.86
373.55	1091.86
373.93	1099.12
374.30	1096.78
374.67	1108.24
375.04	1107.31
375.41	1116.67
375.78	1114.10
376.15	1106.14
376.52	1102.39
376.89	1098.88
377.26	1090.46
377.63	1071.73
378.00	1083.43
378.37	1081.80
378.74	1077.11
379.11	1086.48
379.48	1101.92
379.85	1096.78
380.22	1091.86
380.59	1092.33
380.96	1092.56
381.33	1096.78
381.70	1095.84
382.07	1105.20
382.44	1113.63
382.81	1108.24
383.18	1106.84
383.55	1108.48
383.92	1109.65
384.29	1110.58
384.66	1112.46
385.03	1110.35
385.40	1102.86
385.77	1108.48
386.14	1112.22
386.51	1111.05
386.88	1127.20
387.25	1130.48
387.62	1125.33
387.99	1129.31
388.36	1130.95
388.73	1114.33
389.10	1119.71
389.46	1118.78
389.83	1114.80
390.20	1125.56
390.57	1135.16
390.94	1137.27
391.31	1130.24
391.68	1135.86
392.05	1126.27
392.42	1115.73
392.79	1117.84
393.16	1124.86
393.53	1112.22
393.89	1119.01
394.26	1120.88
394.63	1132.12
395.00	1131.18
395.37	1129.78
395.74	1128.14
396.11	1133.76
396.48	1122.05
396.84	1121.35
397.21	1120.65
397.58	1122.29
397.95	1122.99
398.32	1122.52
398.69	1134.22
399.06	1145.22
399.42	1146.39
399.79	1152.95
400.16	1165.82
400.53	1167.93
400.90	1171.20
401.27	1173.78
401.64	1179.63
402.00	1174.71
402.37	1178.23
402.74	1188.76
403.11	1196.72
403.48	1201.16
403.84	1220.12
404.21	1232.06
404.58	1242.12
404.95	1252.42
405.32	1266.93
405.68	1288.23
406.05	1304.15
406.42	1310.23
406.79	1326.15
407.16	1343.94
407.52	1358.21
407.89	1379.04
408.26	1412.51
408.63	1446.22
408.99	1468.69
409.36	1487.64
409.73	1511.28
410.10	1549.43
410.47	1570.27
410.83	1631.12
411.20	1681.67
411.57	1734.57
411.94	1766.64
412.30	1832.17
412.67	1876.41
413.04	1925.32
413.40	2001.39
413.77	2084.01
414.14	2146.74
414.51	2229.59
414.87	2314.32
415.24	2379.62
415.61	2449.37
415.97	2549.08
416.34	2656.51
416.71	2779.85
417.08	2917.24
417.44	3067.74
417.81	3223.15
418.18	3356.56
418.54	3522.97
418.91	3703.43
419.28	3889.27
419.64	4082.36
420.01	4320.16
420.38	4548.83
420.74	4766.27
421.11	5016.94
421.48	5280.01
421.84	5539.35
422.21	5805.00
422.58	6129.86
422.94	6458.47
423.31	6783.57
423.68	7134.42
424.04	7534.89
424.41	7924.12
424.77	8330.90
425.14	8733.01
425.51	9147.05
425.87	9587.30
426.24	10047.69
426.61	10577.58
426.97	11284.42
427.34	11892.50
427.70	12561.19
428.07	13217.47
428.44	13882.19
428.80	14455.15
429.17	15185.40
429.53	15798.85
429.90	16616.17
430.27	17295.15
430.63	18075.26
431.00	18912.46
431.36	19917.72
431.73	20702.51
432.09	21655.57
432.46	22561.13
432.83	23403.72
433.19	24089.26
433.56	25034.60
433.92	25885.62
434.29	26760.75
434.65	27649.45
435.02	28569.98
435.38	29320.83
435.75	29969.16
436.11	30668.04
436.48	31320.35
436.84	32021.81
437.21	32698.22
437.57	33389.15
437.94	33993.00
438.30	34528.75
438.67	34831.38
439.03	34985.39
439.40	35171.00
439.76	35124.19
440.13	34950.05
440.49	34952.86
440.86	34731.68
441.22	34399.09
441.59	33984.81
441.95	33573.81
442.32	32890.38
442.68	32381.55
443.05	31704.90
443.41	31112.51
443.78	30388.58
444.14	29733.23
444.51	28878.00
444.87	28305.74
445.24	27536.17
445.60	26918.50
445.96	26154.55
446.33	25580.65
446.69	24786.04
447.06	24164.39
447.42	23333.97
447.79	22639.30
448.15	22004.31
448.51	21384.30
448.88	20831.94
449.24	20281.44
449.61	19833.23
449.97	19252.78
450.33	18717.50
450.70	18092.34
451.06	17673.85
451.43	17105.10
451.79	16677.72
452.15	16309.56
452.52	15916.58
452.88	15543.97
453.24	15207.63
453.61	14839.93
453.97	14462.17
454.34	14051.41
454.70	13665.69
455.06	13306.88
455.43	12888.86
455.79	12401.56
456.15	12039.95
456.52	11621.93
456.88	11298.47
457.24	10948.32
457.61	10669.33
457.97	10340.49
458.33	9999.24
458.70	9577.94
459.06	9224.29
459.42	8925.87
459.79	8614.58
460.15	8354.31
460.51	8101.53
460.88	7870.29
461.24	7590.83
461.60	7394.45
461.96	7157.12
462.33	6973.39
462.69	6752.21
463.05	6581.82
463.42	6377.96
463.78	6202.19
464.14	6012.84
464.50	5857.89
464.87	5701.31
465.23	5533.03
465.59	5379.96
465.95	5246.08
466.32	5109.39
466.68	4966.38
467.04	4837.19
467.40	4718.52
467.77	4602.90
468.13	4511.38
468.49	4414.25
468.85	4335.14
469.22	4266.80
469.58	4185.58
469.94	4102.49
470.30	4025.25
470.66	3954.34
471.03	3864.93
471.39	3791.90
471.75	3722.15
472.11	3636.96
472.47	3571.89
472.84	3517.59
473.20	3429.12
473.56	3375.29
473.92	3320.75
474.28	3257.79
474.65	3185.00
475.01	3137.96
475.37	3064.70
475.73	3003.38
476.09	2939.95
476.45	2878.62
476.81	2829.47
477.18	2773.30
477.54	2738.89
477.90	2704.96
478.26	2649.72
478.62	2592.38
478.98	2560.78
479.34	2521.93
479.71	2487.99
480.07	2490.33
480.43	2496.18
480.79	2456.63
481.15	2421.05
481.51	2384.77
481.87	2351.77
482.23	2302.62
482.59	2293.02
482.96	2269.85
483.32	2236.15
483.68	2193.55
484.04	2183.72
484.40	2150.02
484.76	2128.48
485.12	2109.06
485.48	2098.29
485.84	2061.08
486.20	2040.71
486.56	1997.88
486.92	1973.07
487.28	1952.47
487.64	1928.37
488.00	1898.88
488.37	1886.24
488.73	1875.00
489.09	1847.38
489.45	1833.11
489.81	1816.26
490.17	1798.94
490.53	1770.15
490.89	1748.61
491.25	1725.91
491.61	1715.61
491.97	1705.31
492.33	1692.21
492.69	1665.06
493.05	1656.40
493.41	1622.93
493.77	1606.08
494.13	1590.16
494.49	1584.78
494.85	1552.95
495.21	1545.69
495.57	1528.37
495.93	1516.20
496.29	1511.28
496.64	1503.79
497.00	1492.79
497.36	1490.45
497.72	1475.71
498.08	1464.94
498.44	1467.28
498.80	1449.03
499.16	1433.58
499.52	1431.47
499.88	1408.77
500.24	1386.53
500.60	1376.00
500.96	1362.43
501.32	1355.17
501.68	1352.36
502.03	1361.96
502.39	1358.68
502.75	1356.11
503.11	1352.13
503.47	1341.36
503.83	1317.02
504.19	1311.17
504.55	1300.17
504.91	1282.38
505.26	1283.78
505.62	1291.74
505.98	1283.32
506.34	1286.59
506.70	1287.53
507.06	1275.59
507.42	1260.85
507.78	1260.38
508.13	1250.08
508.49	1243.29
508.85	1237.68
509.21	1231.82
509.57	1231.59
509.93	1225.97
510.28	1226.21
510.64	1219.65
511.00	1227.38
511.36	1219.89
511.72	1218.72
512.07	1220.82
512.43	1224.10
512.79	1209.82
513.15	1203.74
513.51	1188.29
513.86	1170.27
514.22	1179.16
514.58	1174.95
514.94	1172.37
515.30	1183.37
515.65	1184.31
516.01	1186.65
516.37	1191.10
516.73	1193.21
517.08	1188.06
517.44	1184.08
517.80	1172.84
518.16	1174.95
518.51	1166.29
518.87	1159.03
519.23	1164.65
519.59	1160.91
519.94	1154.59
520.30	1154.12
520.66	1154.82
521.01	1140.31
521.37	1138.67
521.73	1131.65
522.09	1129.78
522.44	1127.67
522.80	1141.48
523.16	1135.16
523.51	1136.33
523.87	1136.80
524.23	1137.03
524.58	1122.75
524.94	1130.95
525.30	1131.88
525.65	1137.50
526.01	1136.56
526.37	1148.50
526.72	1139.37
527.08	1144.99
527.44	1136.56
527.79	1131.18
528.15	1127.20
528.51	1133.05
528.86	1133.76
529.22	1138.44
529.58	1145.22
529.93	1134.93
530.29	1132.82
530.65	1130.01
531.00	1123.93
531.36	1122.99
531.71	1136.10
532.07	1128.61
532.43	1124.86
532.78	1133.29
533.14	1130.48
533.49	1117.61
533.85	1124.86
534.21	1118.07
534.56	1114.56
534.92	1113.86
535.27	1109.18
535.63	1105.44
535.98	1108.48
536.34	1108.95
536.69	1107.07
537.05	1118.31
537.41	1120.18
537.76	1122.52
538.12	1118.07
538.47	1123.22
538.83	1115.27
539.18	1112.92
539.54	1109.18
539.89	1111.99
540.25	1104.50
540.60	1110.58
540.96	1120.41
541.31	1115.50
541.67	1121.82
542.02	1125.33
542.38	1121.58
542.73	1116.90
543.09	1116.67
543.44	1110.35
543.80	1119.01
544.15	1114.56
544.51	1111.05
544.86	1113.86
545.22	1112.22
545.57	1107.31
545.93	1116.44
546.28	1109.18
546.64	1110.12
546.99	1113.16
547.35	1118.07
547.70	1120.65
548.05	1129.54
548.41	1138.90
548.76	1138.20
549.12	1129.07
549.47	1122.75
549.83	1118.07
550.18	1106.14
550.53	1100.99
550.89	1101.46
551.24	1107.78
551.60	1112.46
551.95	1119.48
552.30	1125.10
552.66	1121.82
553.01	1118.78
553.37	1126.73
553.72	1122.29
554.07	1122.99
554.43	1129.78
554.78	1130.24
555.13	1118.78
555.49	1119.24
555.84	1120.88
556.19	1122.99
556.55	1114.10
556.90	1107.31
557.26	1104.97
557.61	1103.09
557.96	1087.41
558.32	1091.63
558.67	1097.01
559.02	1091.86
559.37	1086.24
559.73	1096.54
560.08	1091.63
560.43	1094.67
560.79	1104.97
561.14	1108.71
561.49	1108.01
561.85	1110.12
562.20	1113.63
562.55	1098.41
562.90	1095.60
563.26	1095.14
563.61	1097.01
563.96	1082.73
564.32	1098.41
564.67	1097.48
565.02	1103.80
565.37	1110.35
565.73	1117.37
566.08	1106.14
566.43	1105.20
566.78	1098.41
567.14	1096.07
567.49	1101.46
567.84	1120.88
568.19	1124.39
568.54	1123.93
568.90	1120.88
569.25	1114.80
569.60	1096.07
569.95	1096.07
570.31	1097.01
570.66	1095.37
571.01	1099.35
571.36	1108.48
571.71	1107.07
572.06	1108.95
572.42	1112.92
572.77	1111.75
573.12	1109.18
573.47	1113.63
573.82	1112.92
574.18	1106.37
574.53	1107.78
574.88	1114.56
575.23	1107.78
575.58	1104.97
575.93	1112.22
576.28	1100.75
576.64	1092.33
576.99	1092.56
577.34	1085.77
577.69	1072.20
578.04	1077.11
578.39	1082.50
578.74	1085.77
579.09	1086.71
579.44	1088.58
579.80	1082.50
580.15	1067.99
580.50	1074.07
580.85	1076.88
581.20	1085.54
581.55	1085.77
581.90	1099.12
582.25	1090.46
582.60	1092.56
582.95	1084.84
583.30	1089.29
583.65	1088.12
584.00	1092.80
584.35	1090.46
584.71	1091.86
585.06	1093.73
585.41	1085.07
585.76	1078.52
586.11	1081.09
586.46	1082.97
586.81	1080.16
587.16	1081.09
587.51	1088.35
587.86	1094.43
588.21	1113.39
588.56	1116.90
588.91	1124.39
589.26	1125.56
589.61	1121.58
589.96	1104.73
590.31	1108.95
590.66	1104.50
591.01	1096.07
591.36	1099.58
591.71	1107.78
592.06	1100.99
592.41	1108.48
592.76	1111.29
593.10	1116.44
593.45	1113.63
593.80	1126.97
594.15	1121.35
594.50	1116.67
594.85	1106.84
595.20	1100.05
595.55	1091.39
595.90	1089.29
596.25	1087.88
596.60	1084.14
596.95	1087.88
597.30	1088.82
597.64	1143.59
597.99	1152.25
598.34	1154.12
598.69	1152.25
599.04	1152.71
599.39	1100.52
599.74	1088.58
600.09	1094.20
600.44	1098.18
600.78	1093.97
601.13	1092.56
601.48	1097.24
601.83	1098.18
602.18	1088.35
602.53	1093.03
602.88	1087.18
603.22	1087.65
603.57	1079.46
603.92	1078.75
604.27	1078.52
604.62	1086.24
604.97	1092.56
605.31	1097.01
605.66	1097.24
606.01	1096.31
606.36	1093.03
606.71	1099.35
607.05	1098.18
607.40	1100.99
607.75	1103.33
608.10	1095.84
608.44	1081.80
608.79	1071.73
609.14	1072.20
609.49	1073.60
609.84	1083.20
610.18	1090.46
610.53	1108.24
610.88	1113.86
611.23	1108.01
611.57	1111.29
611.92	1112.46
612.27	1107.78
612.62	1109.41
612.96	1109.41
613.31	1112.69
613.66	1108.71
614.00	1101.46
614.35	1101.46
614.70	1096.78
615.05	1092.09
615.39	1095.60
615.74	1092.56
616.09	1088.58
616.43	1095.84
616.78	1095.60
617.13	1089.52
617.47	1103.33
617.82	1104.03
618.17	1104.26
618.51	1107.54
618.86	1112.69
619.21	1111.99
619.55	1113.39
619.90	1108.01
620.25	1109.88
620.59	1105.20
620.94	1101.46
621.29	1099.12
621.63	1102.86
621.98	1094.20
622.32	1100.05
622.67	1095.84
623.02	1090.92
623.36	1095.37
623.71	1098.18
624.05	1093.03
624.40	1099.82
624.75	1109.41
625.09	1096.31
625.44	1088.35
625.78	1092.33
626.13	1084.37
626.48	1084.84
626.82	1093.50
627.17	1097.01
627.51	1090.22
627.86	1095.37
628.20	1097.71
628.55	1102.39
628.89	1105.44
629.24	1114.33
629.58	1104.50
629.93	1102.16
630.28	1099.12
630.62	1102.63
630.97	1092.56
631.31	1104.97
631.66	1105.67
632.00	1102.16
632.35	1102.39
632.69	1106.37
633.04	1092.56
633.38	1075.48
633.73	1068.45
634.07	1064.01
634.42	1061.43
634.76	1070.09
635.11	1083.67
635.45	1083.43
635.79	1082.97
636.14	1090.92
636.48	1088.35
636.83	1089.52
637.17	1097.95
637.52	1101.46
637.86	1091.86
638.21	1101.22
638.55	1091.86
638.89	1090.22
639.24	1093.50
639.58	1099.35
639.93	1094.67
640.27	1101.92
640.61	1095.60
640.96	1093.26
641.30	1094.67
641.65	1093.73
641.99	1091.39
642.33	1096.31
642.68	1091.63
643.02	1088.58
643.37	1079.46
643.71	1077.11
644.05	1076.88
644.40	1085.54
644.74	1087.88
645.08	1092.33
645.43	1089.05
645.77	1084.14
646.11	1071.03
646.46	1065.18
646.80	1064.01
647.14	1064.71
647.49	1078.05
647.83	1082.97
648.17	1084.14
648.52	1087.18
648.86	1091.16
649.20	1072.90
649.55	1072.20
649.89	1071.03
650.23	1063.77
650.57	1064.71
650.92	1070.56
651.26	1069.62
651.60	1069.16
651.95	1078.28
652.29	1082.73
652.63	1087.88
652.97	1089.99
653.32	1089.75
653.66	1096.78
654.00	1089.99
654.34	1087.41
654.69	1081.09
655.03	1090.46
655.37	1076.41
655.71	1079.92
656.05	1075.48
656.40	1092.33
656.74	1081.80
657.08	1093.26
657.42	1084.14
657.76	1091.86
658.11	1081.80
658.45	1082.03
658.79	1078.28
659.13	1078.28
659.47	1069.16
659.82	1065.18
660.16	1067.05
660.50	1060.26
660.84	1065.41
661.18	1081.56
661.52	1083.20
661.87	1088.82
662.21	1090.92
662.55	1091.86
662.89	1078.05
663.23	1073.37
663.57	1070.33
663.91	1071.73
664.25	1070.33
664.60	1070.33
664.94	1074.07
665.28	1073.84
665.62	1077.82
665.96	1080.86
666.30	1096.31
666.64	1102.16
666.98	1107.78
667.32	1103.33
667.66	1103.56
668.01	1095.37
668.35	1093.73
668.69	1084.14
669.03	1088.35
669.37	1092.09
669.71	1090.92
670.05	1084.60
670.39	1088.82
670.73	1094.90
671.07	1096.78
671.41	1100.29
671.75	1105.44
672.09	1106.61
672.43	1092.56
672.77	1085.77
673.11	1082.97
673.45	1074.77
673.79	1073.14
674.13	1069.39
674.47	1067.99
674.81	1063.54
675.15	1068.69
675.49	1067.28
675.83	1072.90
676.17	1073.84
676.51	1071.03
676.85	1064.24
677.19	1070.33
677.53	1074.54
677.87	1073.14
678.21	1086.01
678.55	1100.05
678.89	1096.07
679.23	1104.97
679.57	1110.12
679.90	1103.80
680.24	1094.67
680.58	1087.88
680.92	1085.54
681.26	1085.31
681.60	1088.12
681.94	1080.86
682.28	1091.16
682.62	1085.54
682.96	1078.28
683.29	1076.65
683.63	1092.33
683.97	1095.60
684.31	1090.69
684.65	1101.46
684.99	1102.63
685.33	1102.16
685.67	1093.50
686.00	1095.84
686.34	1089.99
686.68	1086.71
687.02	1086.94
687.36	1086.01
687.70	1096.31
688.03	1094.20
688.37	1096.78
688.71	1097.95
689.05	1103.80
689.39	1091.63
689.72	1087.18
690.06	1076.88
690.40	1079.22
690.74	1086.01
691.08	1090.92
691.41	1101.46
691.75	1110.12
692.09	1099.82
692.43	1081.56
692.76	1077.11
693.10	1071.97
693.44	1070.33
693.78	1073.84
694.11	1074.54
694.45	1072.90
694.79	1070.80
695.13	1072.90
695.46	1076.41
695.80	1089.75
696.14	1091.39
696.48	1091.39
696.81	1093.97
697.15	1082.73
697.49	1078.05
697.82	1082.97
698.16	1091.63
698.50	1095.60
698.83	1100.75
699.17	1095.60
699.51	1090.46
699.84	1084.84
700.18	1079.46
700.52	1082.73
700.85	1086.94
701.19	1091.63
701.53	1095.37
701.86	1099.12
702.20	1104.50
702.54	1097.48
702.87	1096.78
703.21	1085.77
703.55	1083.43
703.88	1071.03
704.22	1078.28
704.55	1070.33
704.89	1076.65
705.23	1079.22
705.56	1084.60
705.90	1081.33
706.23	1087.41
706.57	1086.71
706.91	1077.11
707.24	1077.35
707.58	1072.90
707.91	1060.50
708.25	1073.14
708.58	1071.03
708.92	1072.67
709.26	1077.82
709.59	1088.82
709.93	1074.54
710.26	1075.24
710.60	1077.82
710.93	1077.35
711.27	1077.58
711.60	1078.28
711.94	1087.88
712.27	1089.05
712.61	1096.54
712.94	1089.29
713.28	1087.41
713.61	1075.71
713.95	1062.37
714.28	1060.26
714.62	1069.39
714.95	1075.48
715.29	1080.63
715.62	1091.63
715.96	1089.99
716.29	1081.33
716.63	1077.11
716.96	1084.84
717.29	1082.26
717.63	1086.24
717.96	1093.97
718.30	1097.24
718.63	1092.80
718.97	1089.75
719.30	1085.54
719.63	1087.18
719.97	1087.65
720.30	1081.56
720.64	1085.31
720.97	1082.26
721.30	1083.43
721.64	1083.90
721.97	1093.73
722.31	1093.50
722.64	1090.69
722.97	1086.01
723.31	1081.80
723.64	1077.11
723.97	1078.99
724.31	1081.56
724.64	1087.18
724.98	1086.01
725.31	1088.12
725.64	1081.09
725.98	1082.50
726.31	1081.80
726.64	1078.75
726.97	1068.69
727.31	1064.01
727.64	1064.94
727.97	1061.90
728.31	1067.05
728.64	1082.26
728.97	1090.69
729.31	1086.01
729.64	1087.41
729.97	1086.24
730.30	1082.26
730.64	1077.35
730.97	1076.65
731.30	1071.73
731.63	1077.82
731.97	1075.48
732.30	1082.03
732.63	1082.03
732.96	1082.03
733.30	1071.73
733.63	1075.01
733.96	1074.07
734.29	1079.22
734.63	1076.41
734.96	1083.20
735.29	1080.63
735.62	1078.28
735.95	1082.97
736.29	1087.65
736.62	1080.39
736.95	1081.56
737.28	1080.39
737.61	1068.92
737.94	1069.16
738.28	1083.43
738.61	1079.46
738.94	1073.60
739.27	1077.58
739.60	1079.46
739.93	1069.39
740.27	1071.03
740.60	1080.86
740.93	1081.56
741.26	1081.09
741.59	1080.39
741.92	1081.80
742.25	1086.01
742.58	1097.24
742.91	1094.67
743.25	1103.33
743.58	1100.05
743.91	1092.33
744.24	1076.18
744.57	1076.18
744.90	1069.86
745.23	1066.58
745.56	1067.05
745.89	1065.88
746.22	1071.97
746.55	1077.58
746.88	1079.22
747.21	1089.05
747.54	1100.05
747.87	1108.95
748.20	1106.37
748.53	1111.29
748.87	1098.88
749.20	1090.69
749.53	1078.75
749.86	1079.22
750.19	1077.58
750.52	1071.97
750.85	1076.65
751.18	1070.56
751.51	1074.07
751.84	1074.31
752.16	1072.43
752.49	1068.69
752.82	1071.97
753.15	1064.48
753.48	1063.07
753.81	1075.48
754.14	1091.39
754.47	1092.09
754.80	1092.09
755.13	1090.22
755.46	1089.99
755.79	1071.73
756.12	1075.24
756.45	1076.65
756.78	1079.92
757.11	1080.39
757.43	1083.90
757.76	1075.24
758.09	1068.45
758.42	1071.97
758.75	1075.71
759.08	1073.37
759.41	1079.69
759.74	1088.12
760.07	1087.18
760.39	1086.24
760.72	1099.12
761.05	1098.88
761.38	1100.05
761.71	1093.03
762.04	1088.35
762.36	1079.92
762.69	1064.71
763.02	1053.48
763.35	1059.79
763.68	1058.86
764.01	1062.37
764.33	1084.84
