SpectraSuite Data File
++++++++++++++++++++++++++++++++++++
Date: Mon Aug 26 10:24:36 PDT 2019
User: corrico
Dark Spectrum Present: No
Reference Spectrum Present: No
Number of Sampled Component Spectra: 1
Spectrometers: USB2+H06089
Integration Time (usec): 10000 (USB2+H06089)
Spectra Averaged: 2 (USB2+H06089)
Boxcar Smoothing: 2 (USB2+H06089)
Correct for Electrical Dark: No (USB2+H06089)
Strobe/Lamp Enabled: No (USB2+H06089)
Correct for Detector Non-linearity: No (USB2+H06089)
Correct for Stray Light: No (USB2+H06089)
Number of Pixels in Processed Spectrum: 2048
>>>>>Begin Processed Spectral Data<<<<<
339.70	1060.26
340.07	1060.26
340.45	1009.71
340.82	983.49
341.19	950.49
341.57	913.75
341.94	906.49
342.31	903.21
342.69	891.28
343.06	896.19
343.43	898.30
343.81	903.21
344.18	903.21
344.55	920.06
344.93	919.83
345.30	931.53
345.67	928.96
346.04	940.90
346.42	935.51
346.79	935.75
347.16	944.17
347.54	948.85
347.91	960.09
348.28	979.28
348.65	1007.13
349.03	1011.11
349.40	1042.94
349.77	1035.22
350.14	1043.88
350.52	1048.56
350.89	1054.18
351.26	1044.11
351.63	1049.50
352.01	1045.28
352.38	1039.20
352.75	1047.62
353.12	1054.18
353.50	1069.86
353.87	1083.20
354.24	1085.54
354.61	1087.65
354.98	1090.46
355.36	1093.50
355.73	1093.26
356.10	1096.78
356.47	1098.41
356.84	1097.48
357.22	1095.37
357.59	1093.03
357.96	1096.07
358.33	1101.69
358.70	1096.07
359.08	1103.09
359.45	1094.43
359.82	1097.48
360.19	1098.65
360.56	1109.88
360.94	1100.99
361.31	1107.31
361.68	1100.75
362.05	1094.43
362.42	1081.56
362.79	1074.77
363.16	1078.05
363.54	1089.05
363.91	1084.84
364.28	1093.73
364.65	1098.65
365.02	1099.58
365.39	1088.58
365.76	1095.84
366.14	1096.07
366.51	1103.09
366.88	1098.41
367.25	1093.03
367.62	1097.01
367.99	1094.43
368.36	1086.24
368.73	1082.73
369.10	1092.56
369.48	1090.22
369.85	1085.54
370.22	1089.29
370.59	1096.07
370.96	1094.67
371.33	1096.07
371.70	1100.99
372.07	1096.54
372.44	1099.82
372.81	1093.26
373.18	1083.43
373.55	1095.37
373.93	1106.37
374.30	1104.50
374.67	1114.80
375.04	1119.95
375.41	1103.09
375.78	1093.03
376.15	1094.20
376.52	1087.88
376.89	1080.63
377.26	1086.94
377.63	1090.92
378.00	1084.84
378.37	1085.31
378.74	1086.48
379.11	1085.07
379.48	1087.41
379.85	1091.86
380.22	1099.35
380.59	1105.90
380.96	1108.95
381.33	1108.24
381.70	1114.09
382.07	1110.12
382.44	1109.41
382.81	1108.48
383.18	1107.78
383.55	1103.09
383.92	1109.88
384.29	1114.80
384.66	1114.80
385.03	1121.58
385.40	1117.61
385.77	1112.69
386.14	1110.58
386.51	1115.73
386.88	1109.41
387.25	1113.16
387.62	1125.80
387.99	1121.12
388.36	1123.93
388.73	1125.80
389.10	1126.50
389.46	1111.29
389.83	1115.50
390.20	1110.12
390.57	1116.90
390.94	1122.29
391.31	1127.44
391.68	1133.29
392.05	1133.29
392.42	1128.37
392.79	1120.41
393.16	1122.52
393.53	1116.44
393.89	1120.18
394.26	1120.41
394.63	1126.73
395.00	1118.31
395.37	1118.07
395.74	1123.46
396.11	1126.73
396.48	1142.42
396.84	1153.65
397.21	1149.44
397.58	1144.99
397.95	1145.22
398.32	1129.54
398.69	1132.82
399.06	1139.84
399.42	1152.48
399.79	1158.80
400.16	1170.03
400.53	1174.48
400.90	1186.65
401.27	1183.37
401.64	1193.67
402.00	1195.78
402.37	1198.59
402.74	1202.80
403.11	1216.38
403.48	1215.67
403.84	1230.89
404.21	1238.38
404.58	1250.08
404.95	1259.68
405.32	1277.23
405.68	1280.27
406.05	1312.34
406.42	1329.19
406.79	1349.79
407.16	1373.66
407.52	1409.47
407.89	1419.77
408.26	1444.81
408.63	1485.77
408.99	1528.14
409.36	1564.65
409.73	1615.20
410.10	1664.35
410.47	1702.51
410.83	1739.25
411.20	1784.42
411.57	1835.21
411.94	1893.49
412.30	1940.54
412.67	2008.65
413.04	2080.74
413.40	2178.80
413.77	2267.51
414.14	2354.58
414.51	2454.05
414.87	2556.33
415.24	2644.81
415.61	2759.73
415.97	2902.26
416.34	3056.97
416.71	3216.36
417.08	3383.71
417.44	3542.87
417.81	3745.56
418.18	3933.97
418.54	4134.32
418.91	4338.42
419.28	4597.05
419.64	4818.69
420.01	5061.88
420.38	5334.55
420.74	5624.78
421.11	5932.56
421.48	6270.06
421.84	6628.16
422.21	6981.35
422.58	7396.56
422.94	7787.66
423.31	8193.05
423.68	8656.00
424.04	9151.03
424.41	9628.50
424.77	10149.73
425.14	10682.20
425.51	11199.23
425.87	11805.43
426.24	12434.10
426.61	13115.43
426.97	13925.02
427.34	14699.73
427.70	15561.99
428.07	16339.28
428.44	17201.77
428.80	18028.68
429.17	18930.96
429.53	19778.23
429.90	20831.70
430.27	21729.30
430.63	22665.05
431.00	23740.99
431.36	24893.47
431.73	25851.45
432.09	26957.35
432.46	28018.32
432.83	29107.60
433.19	30024.63
433.56	31315.67
433.92	32510.28
434.29	33699.74
434.65	34834.43
435.02	35879.94
435.38	36829.73
435.75	37557.87
436.11	38610.65
436.48	39395.43
436.84	40367.22
437.21	41168.85
437.57	42063.17
437.94	42740.76
438.30	43375.04
438.67	43717.23
439.03	43903.53
439.40	44065.50
439.76	43781.12
440.13	43549.18
440.49	43491.83
440.86	43118.99
441.22	42753.86
441.59	42247.37
441.95	41744.16
442.32	40921.93
442.68	40362.54
443.05	39568.39
443.41	38854.06
443.78	37954.36
444.14	37088.60
444.51	35919.50
444.87	35091.89
445.24	34129.69
445.60	33149.71
445.96	32207.18
446.33	31523.97
446.69	30496.95
447.06	29729.48
447.42	28876.13
447.79	27952.32
448.15	27161.92
448.51	26387.43
448.88	25665.61
449.24	24929.51
449.61	24415.53
449.97	23708.46
450.33	23110.68
450.70	22403.84
451.06	21878.39
451.43	21196.13
451.79	20732.23
452.15	20269.51
452.52	19786.89
452.88	19286.48
453.24	18919.02
453.61	18418.38
453.97	17902.76
454.34	17383.39
454.70	16960.46
455.06	16436.88
455.43	15899.49
455.79	15312.72
456.15	14860.76
456.52	14318.93
456.88	13907.70
457.24	13430.23
457.61	13088.04
457.97	12659.96
458.33	12245.68
458.70	11759.55
459.06	11328.66
459.42	10950.66
459.79	10562.37
460.15	10224.63
460.51	9869.34
460.88	9559.22
461.24	9200.65
461.60	8909.48
461.96	8615.04
462.33	8367.88
462.69	8094.74
463.05	7811.07
463.42	7601.59
463.78	7398.20
464.14	7175.15
464.50	7041.50
464.87	6879.30
465.23	6675.68
465.59	6488.43
465.95	6329.28
466.32	6112.07
466.68	5954.79
467.04	5782.76
467.40	5636.48
467.77	5485.98
468.13	5344.61
468.49	5219.16
468.85	5116.88
469.22	5006.17
469.58	4894.76
469.94	4791.54
470.30	4674.75
470.66	4586.05
471.03	4485.17
471.39	4398.33
471.75	4324.61
472.11	4249.01
472.47	4144.85
472.84	4062.00
473.20	3964.87
473.56	3889.97
473.92	3798.46
474.28	3742.98
474.65	3669.26
475.01	3624.79
475.37	3531.17
475.73	3472.89
476.09	3392.14
476.45	3321.92
476.81	3235.79
477.18	3188.51
477.54	3128.83
477.90	3079.21
478.26	3012.50
478.62	2974.82
478.98	2935.27
479.34	2886.82
479.71	2851.24
480.07	2832.05
480.43	2807.47
480.79	2759.26
481.15	2730.47
481.51	2673.36
481.87	2629.36
482.23	2582.08
482.59	2541.12
482.96	2500.86
483.32	2482.37
483.68	2458.03
484.04	2418.71
484.40	2388.52
484.76	2360.43
485.12	2318.30
485.48	2283.43
485.84	2256.98
486.20	2225.62
486.56	2191.21
486.92	2171.55
487.28	2138.78
487.64	2104.14
488.00	2087.76
488.37	2054.29
488.73	2033.93
489.09	2003.73
489.45	1985.71
489.81	1958.79
490.17	1941.24
490.53	1910.11
490.89	1888.81
491.25	1873.13
491.61	1847.85
491.97	1831.24
492.33	1809.00
492.69	1790.74
493.05	1756.10
493.41	1737.61
493.77	1709.76
494.13	1695.25
494.49	1687.76
494.85	1672.31
495.21	1643.76
495.57	1636.03
495.93	1631.12
496.29	1617.08
496.64	1605.37
497.00	1602.56
497.36	1571.20
497.72	1543.35
498.08	1525.80
498.44	1516.20
498.80	1510.58
499.16	1498.65
499.52	1488.11
499.88	1470.79
500.24	1434.98
500.60	1419.53
500.96	1412.05
501.32	1390.28
501.68	1376.47
502.03	1390.98
502.39	1382.79
502.75	1387.94
503.11	1381.15
503.47	1379.28
503.83	1362.89
504.19	1349.79
504.55	1339.72
504.91	1335.28
505.26	1322.87
505.62	1317.96
505.98	1303.68
506.34	1289.87
506.70	1284.02
507.06	1275.36
507.42	1268.57
507.78	1273.02
508.13	1273.02
508.49	1283.08
508.85	1296.66
509.21	1293.15
509.57	1281.91
509.93	1278.40
510.28	1267.40
510.64	1253.82
511.00	1255.70
511.36	1246.80
511.72	1237.21
512.07	1227.85
512.43	1222.93
512.79	1217.55
513.15	1225.04
513.51	1220.59
513.86	1216.14
514.22	1214.50
514.58	1212.40
514.94	1208.18
515.30	1214.74
515.65	1216.14
516.01	1201.87
516.37	1196.01
516.73	1192.50
517.08	1189.23
517.44	1191.80
517.80	1200.46
518.16	1194.61
518.51	1193.91
518.87	1191.80
519.23	1178.93
519.59	1183.61
519.94	1184.55
520.30	1189.23
520.66	1183.14
521.01	1189.23
521.37	1175.42
521.73	1165.12
522.09	1159.03
522.44	1160.67
522.80	1161.14
523.16	1170.27
523.51	1184.31
523.87	1179.16
524.23	1165.82
524.58	1154.35
524.94	1151.08
525.30	1151.08
525.65	1157.63
526.01	1165.82
526.37	1172.61
526.72	1162.31
527.08	1155.99
527.44	1145.46
527.79	1148.03
528.15	1146.86
528.51	1144.99
528.86	1142.65
529.22	1145.69
529.58	1143.12
529.93	1144.99
530.29	1148.27
530.65	1143.82
531.00	1142.65
531.36	1135.63
531.71	1130.24
532.07	1127.90
532.43	1123.93
532.78	1120.41
533.14	1122.99
533.49	1121.58
533.85	1121.82
534.21	1114.56
534.56	1118.07
534.92	1112.92
535.27	1113.86
535.63	1126.27
535.98	1141.95
536.34	1137.97
536.69	1143.59
537.05	1132.35
537.41	1123.69
537.76	1115.73
538.12	1119.95
538.47	1116.44
538.83	1129.31
539.18	1134.69
539.54	1146.63
539.89	1152.25
540.25	1157.39
540.60	1150.37
540.96	1135.16
541.31	1118.54
541.67	1113.39
542.02	1108.95
542.38	1107.54
542.73	1112.92
543.09	1116.20
543.44	1108.01
543.80	1107.31
544.15	1108.95
544.51	1115.27
544.86	1121.58
545.22	1114.80
545.57	1111.99
545.93	1108.01
546.28	1107.31
546.64	1107.78
546.99	1120.18
547.35	1122.75
547.70	1129.78
548.05	1126.03
548.41	1119.71
548.76	1115.97
549.12	1115.73
549.47	1108.01
549.83	1109.18
550.18	1113.63
550.53	1116.67
550.89	1120.65
551.24	1133.52
551.60	1131.18
551.95	1141.01
552.30	1135.39
552.66	1133.99
553.01	1124.86
553.37	1117.84
553.72	1104.03
554.07	1104.26
554.43	1104.26
554.78	1106.84
555.13	1103.33
555.49	1102.86
555.84	1101.22
556.19	1101.92
556.55	1106.61
556.90	1112.69
557.26	1119.95
557.61	1132.35
557.96	1132.59
558.32	1132.82
558.67	1140.07
559.02	1138.20
559.37	1128.14
559.73	1128.61
560.08	1130.71
560.43	1124.63
560.79	1124.16
561.14	1129.54
561.49	1123.69
561.85	1118.07
562.20	1125.56
562.55	1127.20
562.90	1123.46
563.26	1124.63
563.61	1115.97
563.96	1109.41
564.32	1109.88
564.67	1107.54
565.02	1101.92
565.37	1098.41
565.73	1104.50
566.08	1096.07
566.43	1102.39
566.78	1109.65
567.14	1119.48
567.49	1119.71
567.84	1123.22
568.19	1116.90
568.54	1111.52
568.90	1109.88
569.25	1101.92
569.60	1087.65
569.95	1083.67
570.31	1083.67
570.66	1078.05
571.01	1086.48
571.36	1100.99
571.71	1108.01
572.06	1108.48
572.42	1123.22
572.77	1116.44
573.12	1115.97
573.47	1108.95
573.82	1109.18
574.18	1097.24
574.53	1096.78
574.88	1094.90
575.23	1090.92
575.58	1094.90
575.93	1092.56
576.28	1092.80
576.64	1090.46
576.99	1101.92
577.34	1091.63
577.69	1100.52
578.04	1099.12
578.39	1097.48
578.74	1104.26
579.09	1102.63
579.44	1089.75
579.80	1087.18
580.15	1096.07
580.50	1090.22
580.85	1099.12
581.20	1101.92
581.55	1102.86
581.90	1099.58
582.25	1107.31
582.60	1103.09
582.95	1118.78
583.30	1122.52
583.65	1119.71
584.00	1104.97
584.35	1111.05
584.71	1102.16
585.06	1095.37
585.41	1093.73
585.76	1105.20
586.11	1109.18
586.46	1108.01
586.81	1101.46
587.16	1101.46
587.51	1093.97
587.86	1092.09
588.21	1091.39
588.56	1108.95
588.91	1112.69
589.26	1110.82
589.61	1114.33
589.96	1118.31
590.31	1109.18
590.66	1105.44
591.01	1099.35
591.36	1093.26
591.71	1093.73
592.06	1104.73
592.41	1104.50
592.76	1115.27
593.10	1113.16
593.45	1115.27
593.80	1102.86
594.15	1100.29
594.50	1101.22
594.85	1106.61
595.20	1101.69
595.55	1106.61
595.90	1118.54
596.25	1118.54
596.60	1106.14
596.95	1102.63
597.30	1111.99
597.64	1153.42
597.99	1149.44
598.34	1162.31
598.69	1162.78
599.04	1151.78
599.39	1108.48
599.74	1115.97
600.09	1099.35
600.44	1100.52
600.78	1090.46
601.13	1080.16
601.48	1079.22
601.83	1083.43
602.18	1074.31
602.53	1072.43
602.88	1080.16
603.22	1074.31
603.57	1077.11
603.92	1087.65
604.27	1104.03
604.62	1101.92
604.97	1090.92
605.31	1086.24
605.66	1082.97
606.01	1076.65
606.36	1074.54
606.71	1096.07
607.05	1109.88
607.40	1113.86
607.75	1113.39
608.10	1107.31
608.44	1099.12
608.79	1094.67
609.14	1091.16
609.49	1091.16
609.84	1094.43
610.18	1101.69
610.53	1098.41
610.88	1094.20
611.23	1101.46
611.57	1106.14
611.92	1096.07
612.27	1103.33
612.62	1103.09
612.96	1098.88
613.31	1097.48
613.66	1095.60
614.00	1097.71
614.35	1109.18
614.70	1102.39
615.05	1104.97
615.39	1089.75
615.74	1084.37
616.09	1077.58
616.43	1093.03
616.78	1094.67
617.13	1103.33
617.47	1107.07
617.82	1113.86
618.17	1107.54
618.51	1108.95
618.86	1119.24
619.21	1114.33
619.55	1109.18
619.90	1115.50
620.25	1113.86
620.59	1104.26
620.94	1098.65
621.29	1096.31
621.63	1089.52
621.98	1087.65
622.32	1089.99
622.67	1093.26
623.02	1089.29
623.36	1091.16
623.71	1088.12
624.05	1093.97
624.40	1092.80
624.75	1103.33
625.09	1102.16
625.44	1109.18
625.78	1097.95
626.13	1091.86
626.48	1097.24
626.82	1097.95
627.17	1094.43
627.51	1098.18
627.86	1104.26
628.20	1100.75
628.55	1101.69
628.89	1099.82
629.24	1110.58
629.58	1117.37
629.93	1114.56
630.28	1115.97
630.62	1117.14
630.97	1115.73
631.31	1108.48
631.66	1104.26
632.00	1092.33
632.35	1080.63
632.69	1067.99
633.04	1062.37
633.38	1057.45
633.73	1058.16
634.07	1071.97
634.42	1079.22
634.76	1082.50
635.11	1085.31
635.45	1089.99
635.79	1086.24
636.14	1088.12
636.48	1091.16
636.83	1086.71
637.17	1080.63
637.52	1091.63
637.86	1086.01
638.21	1088.12
638.55	1096.78
638.89	1095.60
639.24	1091.39
639.58	1106.84
639.93	1105.20
640.27	1106.84
640.61	1104.26
640.96	1100.05
641.30	1090.69
641.65	1093.03
641.99	1090.22
642.33	1097.01
642.68	1096.54
643.02	1094.43
643.37	1084.84
643.71	1080.86
644.05	1088.58
644.40	1081.33
644.74	1072.20
645.08	1080.39
645.43	1084.14
645.77	1076.41
646.11	1083.67
646.46	1091.86
646.80	1097.71
647.14	1113.39
647.49	1118.54
647.83	1114.80
648.17	1110.58
648.52	1098.41
648.86	1086.24
649.20	1084.60
649.55	1086.94
649.89	1087.18
650.23	1093.50
650.57	1084.84
650.92	1080.63
651.26	1083.20
651.60	1081.09
651.95	1090.22
652.29	1093.26
652.63	1086.24
652.97	1080.16
653.32	1083.20
653.66	1072.90
654.00	1066.58
654.34	1068.69
654.69	1071.50
655.03	1077.35
655.37	1060.73
655.71	1062.60
656.05	1061.90
656.40	1053.48
656.74	1049.73
657.08	1059.79
657.42	1060.96
657.76	1076.65
658.11	1072.20
658.45	1071.26
658.79	1064.48
659.13	1056.05
659.47	1051.84
659.82	1068.22
660.16	1073.14
660.50	1089.05
660.84	1094.90
661.18	1084.14
661.52	1076.65
661.87	1071.97
662.21	1072.67
662.55	1079.46
662.89	1089.29
663.23	1094.67
663.57	1099.35
663.91	1096.31
664.25	1097.95
664.60	1089.52
664.94	1091.39
665.28	1090.46
665.62	1090.92
665.96	1092.09
666.30	1094.20
666.64	1087.65
666.98	1084.84
667.32	1086.01
667.66	1078.99
668.01	1080.86
668.35	1087.18
668.69	1090.92
669.03	1096.07
669.37	1104.03
669.71	1103.56
670.05	1100.99
670.39	1107.78
670.73	1095.37
671.07	1099.35
671.41	1096.78
671.75	1103.56
672.09	1094.20
672.43	1099.82
672.77	1092.80
673.11	1097.48
673.45	1089.75
673.79	1092.80
674.13	1089.75
674.47	1088.58
674.81	1090.69
675.15	1092.33
675.49	1085.31
675.83	1093.50
676.17	1088.35
676.51	1093.26
676.85	1086.71
677.19	1099.82
677.53	1089.29
677.87	1093.97
678.21	1091.16
678.55	1098.41
678.89	1092.33
679.23	1105.67
679.57	1107.54
679.90	1104.73
680.24	1095.60
680.58	1089.99
680.92	1078.28
681.26	1076.88
681.60	1072.20
681.94	1082.03
682.28	1090.22
682.62	1100.29
682.96	1105.67
683.29	1109.65
683.63	1111.05
683.97	1113.86
684.31	1101.22
684.65	1094.43
684.99	1098.88
685.33	1095.14
685.67	1084.84
686.00	1088.12
686.34	1094.67
686.68	1095.84
687.02	1095.60
687.36	1094.67
687.70	1100.75
688.03	1095.60
688.37	1094.43
688.71	1096.31
689.05	1094.20
689.39	1086.48
689.72	1089.52
690.06	1087.65
690.40	1090.46
690.74	1095.37
691.08	1098.88
691.41	1097.71
691.75	1094.90
692.09	1090.46
692.43	1091.63
692.76	1086.94
693.10	1085.54
693.44	1086.94
693.78	1089.52
694.11	1084.60
694.45	1088.35
694.79	1090.46
695.13	1088.12
695.46	1085.07
695.80	1083.43
696.14	1084.84
696.48	1079.22
696.81	1079.92
697.15	1075.01
697.49	1091.63
697.82	1088.58
698.16	1092.09
698.50	1085.77
698.83	1087.41
699.17	1065.65
699.51	1067.28
699.84	1061.20
700.18	1077.11
700.52	1082.26
700.85	1092.80
701.19	1092.33
701.53	1097.01
701.86	1087.18
702.20	1091.63
702.54	1083.43
702.87	1079.69
703.21	1073.60
703.55	1069.39
703.88	1065.65
704.22	1077.35
704.55	1086.01
704.89	1099.12
705.23	1105.67
705.56	1098.65
705.90	1089.05
706.23	1085.31
706.57	1084.14
706.91	1086.71
707.24	1087.88
707.58	1100.29
707.91	1104.97
708.25	1095.84
708.58	1086.01
708.92	1089.52
709.26	1081.56
709.59	1076.18
709.93	1077.11
710.26	1088.82
710.60	1086.24
710.93	1086.24
711.27	1089.52
711.60	1092.80
711.94	1091.39
712.27	1093.97
712.61	1097.01
712.94	1094.67
713.28	1103.33
713.61	1100.52
713.95	1098.88
714.28	1101.22
714.62	1092.33
714.95	1079.69
715.29	1076.65
715.62	1083.20
715.96	1076.41
716.29	1081.80
716.63	1089.29
716.96	1094.67
717.29	1095.14
717.63	1100.52
717.96	1089.99
718.30	1086.01
718.63	1079.46
718.97	1075.94
719.30	1071.97
719.63	1090.69
719.97	1089.99
720.30	1094.90
720.64	1088.82
720.97	1086.01
721.30	1088.35
721.64	1083.43
721.97	1075.48
722.31	1075.94
722.64	1064.94
722.97	1072.20
723.31	1080.86
723.64	1084.37
723.97	1095.14
724.31	1111.52
724.64	1088.35
724.98	1086.48
725.31	1093.97
725.64	1084.37
725.98	1087.41
726.31	1097.95
726.64	1095.37
726.97	1093.97
727.31	1089.99
727.64	1075.01
727.97	1060.96
728.31	1062.60
728.64	1059.33
728.97	1068.45
729.31	1079.22
729.64	1086.48
729.97	1081.80
730.30	1095.37
730.64	1086.71
730.97	1087.88
731.30	1093.50
731.63	1099.35
731.97	1084.84
732.30	1091.16
732.63	1086.71
732.96	1088.35
733.30	1094.90
733.63	1099.82
733.96	1111.52
734.29	1111.99
734.63	1107.78
734.96	1097.95
735.29	1094.90
735.62	1080.39
735.95	1085.31
736.29	1082.97
736.62	1087.88
736.95	1082.73
737.28	1082.97
737.61	1079.22
737.94	1080.39
738.28	1076.41
738.61	1075.71
738.94	1083.90
739.27	1087.65
739.60	1087.88
739.93	1082.50
740.27	1081.80
740.60	1075.48
740.93	1068.45
741.26	1075.01
741.59	1076.65
741.92	1084.60
742.25	1081.56
742.58	1080.86
742.91	1075.24
743.25	1073.84
743.58	1063.31
743.91	1068.92
744.24	1080.16
744.57	1071.50
744.90	1071.73
745.23	1077.82
745.56	1073.60
745.89	1073.60
746.22	1086.48
746.55	1085.07
746.88	1088.12
747.21	1092.33
747.54	1095.60
747.87	1087.88
748.20	1096.54
748.53	1092.80
748.87	1093.26
749.20	1092.56
749.53	1097.01
749.86	1097.95
750.19	1094.43
750.52	1093.50
750.85	1088.58
751.18	1094.90
751.51	1099.58
751.84	1096.78
752.16	1104.50
752.49	1108.48
752.82	1104.26
753.15	1093.03
753.48	1104.03
753.81	1090.92
754.14	1080.86
754.47	1077.35
754.80	1086.01
755.13	1075.48
755.46	1074.31
755.79	1083.20
756.12	1091.63
756.45	1086.48
756.78	1097.48
757.11	1100.52
757.43	1088.35
757.76	1079.69
758.09	1076.41
758.42	1071.03
758.75	1070.80
759.08	1065.88
759.41	1064.94
759.74	1063.07
760.07	1064.01
760.39	1066.35
760.72	1075.48
761.05	1083.43
761.38	1081.33
761.71	1081.33
762.04	1082.73
762.36	1084.37
762.69	1082.26
763.02	1084.37
763.35	1089.75
763.68	1077.58
764.01	1080.86
764.33	1080.63
