SpectraSuite Data File
++++++++++++++++++++++++++++++++++++
Date: Mon Aug 26 10:24:35 PDT 2019
User: corrico
Dark Spectrum Present: No
Reference Spectrum Present: No
Number of Sampled Component Spectra: 1
Spectrometers: USB2+H06089
Integration Time (usec): 10000 (USB2+H06089)
Spectra Averaged: 2 (USB2+H06089)
Boxcar Smoothing: 2 (USB2+H06089)
Correct for Electrical Dark: No (USB2+H06089)
Strobe/Lamp Enabled: No (USB2+H06089)
Correct for Detector Non-linearity: No (USB2+H06089)
Correct for Stray Light: No (USB2+H06089)
Number of Pixels in Processed Spectrum: 2048
>>>>>Begin Processed Spectral Data<<<<<
339.70	1001.75
340.07	1001.75
340.45	976.24
340.82	957.05
341.19	943.70
341.57	922.41
341.94	902.04
342.31	892.45
342.69	900.64
343.06	891.98
343.43	892.68
343.81	894.55
344.18	901.81
344.55	893.15
344.93	894.55
345.30	902.98
345.67	924.51
346.04	938.32
346.42	946.51
346.79	957.28
347.16	956.81
347.54	961.26
347.91	947.45
348.28	956.81
348.65	967.11
349.03	988.41
349.40	994.26
349.77	1023.52
350.14	1027.96
350.52	1033.58
350.89	1031.71
351.26	1028.43
351.63	1035.92
352.01	1051.60
352.38	1056.75
352.75	1064.24
353.12	1079.69
353.50	1071.73
353.87	1062.84
354.24	1059.09
354.61	1060.96
354.98	1057.92
355.36	1065.18
355.73	1071.97
356.10	1076.88
356.47	1080.86
356.84	1084.14
357.22	1094.20
357.59	1091.86
357.96	1091.16
358.33	1089.52
358.70	1086.94
359.08	1078.05
359.45	1085.54
359.82	1082.97
360.19	1082.03
360.56	1075.48
360.94	1068.92
361.31	1061.43
361.68	1070.80
362.05	1071.97
362.42	1086.01
362.79	1093.26
363.16	1091.16
363.54	1091.16
363.91	1097.71
364.28	1083.20
364.65	1084.14
365.02	1084.84
365.39	1076.18
365.76	1066.58
366.14	1068.22
366.51	1066.11
366.88	1073.60
367.25	1078.99
367.62	1083.20
367.99	1091.86
368.36	1084.60
368.73	1090.92
369.10	1087.41
369.48	1081.09
369.85	1067.05
370.22	1077.35
370.59	1065.88
370.96	1075.94
371.33	1070.80
371.70	1085.77
372.07	1089.52
372.44	1095.37
372.81	1099.35
373.18	1112.92
373.55	1109.88
373.93	1099.82
374.30	1088.58
374.67	1080.63
375.04	1067.05
375.41	1058.16
375.78	1059.33
376.15	1064.24
376.52	1062.60
376.89	1078.28
377.26	1091.63
377.63	1095.37
378.00	1100.29
378.37	1095.37
378.74	1092.56
379.11	1076.88
379.48	1077.58
379.85	1069.39
380.22	1076.41
380.59	1077.35
380.96	1083.90
381.33	1092.56
381.70	1098.18
382.07	1098.88
382.44	1106.61
382.81	1113.63
383.18	1111.52
383.55	1104.97
383.92	1104.03
384.29	1093.97
384.66	1091.86
385.03	1093.03
385.40	1098.41
385.77	1100.75
386.14	1093.26
386.51	1093.50
386.88	1084.60
387.25	1086.94
387.62	1088.82
387.99	1092.80
388.36	1101.46
388.73	1094.20
389.10	1082.97
389.46	1080.16
389.83	1076.41
390.20	1071.50
390.57	1078.75
390.94	1081.56
391.31	1076.65
391.68	1080.86
392.05	1073.84
392.42	1068.45
392.79	1084.84
393.16	1082.97
393.53	1088.82
393.89	1089.29
394.26	1089.99
394.63	1087.65
395.00	1087.41
395.37	1080.63
395.74	1081.56
396.11	1084.60
396.48	1077.58
396.84	1078.99
397.21	1075.94
397.58	1071.26
397.95	1072.90
398.32	1075.71
398.69	1092.56
399.06	1098.18
399.42	1110.12
399.79	1107.07
400.16	1122.75
400.53	1115.73
400.90	1124.63
401.27	1123.93
401.64	1128.37
402.00	1113.63
402.37	1107.07
402.74	1095.14
403.11	1108.48
403.48	1115.97
403.84	1124.16
404.21	1127.90
404.58	1130.95
404.95	1116.67
405.32	1115.50
405.68	1118.54
406.05	1131.18
406.42	1142.18
406.79	1148.97
407.16	1161.84
407.52	1164.88
407.89	1168.86
408.26	1180.33
408.63	1185.01
408.99	1190.63
409.36	1199.99
409.73	1211.46
410.10	1217.08
410.47	1244.23
410.83	1268.34
411.20	1290.57
411.57	1303.68
411.94	1321.70
412.30	1335.51
412.67	1343.47
413.04	1352.60
413.40	1383.72
413.77	1411.58
414.14	1431.47
414.51	1468.69
414.87	1512.45
415.24	1527.20
415.61	1549.20
415.97	1587.82
416.34	1616.37
416.71	1647.97
417.08	1708.36
417.44	1761.96
417.81	1804.55
418.18	1855.58
418.54	1915.96
418.91	1955.05
419.28	2017.54
419.64	2086.82
420.01	2175.29
420.38	2246.45
420.74	2330.00
421.11	2427.14
421.48	2520.29
421.84	2594.72
422.21	2678.74
422.58	2794.60
422.94	2878.39
423.31	2975.05
423.68	3091.61
424.04	3221.98
424.41	3347.90
424.77	3470.78
425.14	3603.96
425.51	3731.28
425.87	3890.67
426.24	4022.68
426.61	4202.20
426.97	4400.91
427.34	4614.13
427.70	4824.08
428.07	5052.28
428.44	5294.53
428.80	5497.22
429.17	5688.91
429.53	5893.47
429.90	6158.18
430.27	6364.62
430.63	6618.57
431.00	6908.56
431.36	7196.91
431.73	7440.80
432.09	7726.11
432.46	8005.10
432.83	8274.96
433.19	8539.68
433.56	8840.44
433.92	9158.05
434.29	9456.23
434.65	9747.86
435.02	10024.05
435.38	10271.68
435.75	10467.11
436.11	10713.33
436.48	10946.69
436.84	11180.27
437.21	11417.60
437.57	11616.55
437.94	11807.30
438.30	11980.97
438.67	12055.16
439.03	12131.46
439.40	12210.34
439.76	12177.11
440.13	12120.93
440.49	12148.55
440.86	12082.55
441.22	11995.01
441.59	11852.47
441.95	11747.15
442.32	11515.90
442.68	11317.66
443.05	11110.52
443.41	10900.34
443.78	10617.84
444.14	10390.81
444.51	10110.88
444.87	9912.17
445.24	9724.69
445.60	9522.00
445.96	9282.80
446.33	9100.24
446.69	8818.44
447.06	8547.87
447.42	8293.45
447.79	8102.70
448.15	7896.03
448.51	7705.51
448.88	7591.76
449.24	7437.52
449.61	7313.24
449.97	7158.53
450.33	6992.35
450.70	6776.08
451.06	6612.25
451.43	6400.90
451.79	6225.36
452.15	6102.01
452.52	5983.11
452.88	5861.64
453.24	5729.40
453.61	5610.03
453.97	5478.96
454.34	5357.02
454.70	5242.57
455.06	5130.92
455.43	5001.96
455.79	4850.53
456.15	4732.80
456.52	4580.19
456.88	4479.55
457.24	4365.57
457.61	4287.39
457.97	4178.09
458.33	4088.45
458.70	3963.00
459.06	3840.82
459.42	3736.43
459.79	3637.43
460.15	3562.76
460.51	3479.91
460.88	3397.52
461.24	3318.88
461.60	3232.51
461.96	3134.68
462.33	3057.68
462.69	3006.65
463.05	2944.63
463.42	2880.26
463.78	2826.90
464.14	2764.17
464.50	2702.38
464.87	2643.87
465.23	2597.06
465.59	2551.65
465.95	2513.03
466.32	2476.52
466.68	2436.73
467.04	2404.20
467.40	2363.47
467.77	2334.45
468.13	2285.07
468.49	2247.15
468.85	2203.38
469.22	2182.78
469.58	2151.65
469.94	2144.63
470.30	2109.99
470.66	2093.38
471.03	2065.29
471.39	2054.99
471.75	2029.01
472.11	2002.33
472.47	1974.48
472.84	1940.30
473.20	1897.00
473.56	1863.07
473.92	1860.96
474.28	1850.43
474.65	1842.70
475.01	1825.38
475.37	1800.57
475.73	1762.19
476.09	1736.44
476.45	1717.25
476.81	1703.21
477.18	1693.61
477.54	1686.59
477.90	1657.57
478.26	1647.50
478.62	1643.06
478.98	1630.42
479.34	1606.54
479.71	1610.29
480.07	1594.61
480.43	1572.37
480.79	1557.86
481.15	1546.16
481.51	1530.01
481.87	1520.88
482.23	1505.90
482.59	1499.35
482.96	1498.18
483.32	1487.64
483.68	1469.86
484.04	1467.52
484.40	1450.43
484.76	1436.15
485.12	1423.51
485.48	1415.32
485.84	1405.02
486.20	1405.73
486.56	1401.75
486.92	1397.53
487.28	1392.62
487.64	1391.45
488.00	1393.09
488.37	1389.81
488.73	1374.60
489.09	1363.60
489.45	1352.13
489.81	1331.06
490.17	1321.70
490.53	1320.06
490.89	1324.04
491.25	1321.70
491.61	1327.55
491.97	1322.64
492.33	1316.08
492.69	1306.02
493.05	1290.10
493.41	1277.46
493.77	1263.19
494.13	1272.78
494.49	1267.63
494.85	1269.97
495.21	1268.34
495.57	1266.00
495.93	1257.57
496.29	1244.23
496.64	1234.40
497.00	1229.72
497.36	1240.95
497.72	1232.99
498.08	1229.48
498.44	1221.99
498.80	1211.70
499.16	1207.72
499.52	1192.27
499.88	1196.01
500.24	1192.50
500.60	1194.61
500.96	1181.03
501.32	1196.95
501.68	1197.18
502.03	1201.87
502.39	1191.10
502.75	1196.48
503.11	1179.16
503.47	1172.14
503.83	1167.46
504.19	1170.74
504.55	1155.52
504.91	1159.50
505.26	1158.57
505.62	1156.69
505.98	1147.56
506.34	1145.93
506.70	1151.31
507.06	1144.99
507.42	1138.67
507.78	1138.67
508.13	1147.33
508.49	1135.63
508.85	1135.63
509.21	1142.42
509.57	1144.05
509.93	1125.10
510.28	1129.78
510.64	1136.80
511.00	1130.24
511.36	1138.44
511.72	1143.12
512.07	1144.99
512.43	1134.22
512.79	1135.16
513.15	1122.99
513.51	1128.84
513.86	1123.69
514.22	1115.03
514.58	1113.63
514.94	1113.63
515.30	1108.95
515.65	1107.78
516.01	1111.99
516.37	1114.10
516.73	1118.54
517.08	1119.01
517.44	1121.58
517.80	1126.73
518.16	1122.99
518.51	1124.63
518.87	1120.65
519.23	1118.31
519.59	1115.27
519.94	1118.54
520.30	1123.93
520.66	1126.03
521.01	1112.69
521.37	1112.46
521.73	1117.84
522.09	1103.33
522.44	1104.50
522.80	1112.69
523.16	1114.33
523.51	1107.31
523.87	1111.75
524.23	1118.78
524.58	1116.90
524.94	1115.73
525.30	1114.33
525.65	1114.80
526.01	1116.67
526.37	1115.27
526.72	1107.07
527.08	1118.07
527.44	1118.54
527.79	1105.90
528.15	1106.84
528.51	1114.56
528.86	1106.37
529.22	1106.37
529.58	1109.41
529.93	1119.48
530.29	1127.44
530.65	1122.29
531.00	1120.18
531.36	1113.39
531.71	1103.80
532.07	1083.67
532.43	1080.16
532.78	1077.58
533.14	1077.82
533.49	1080.39
533.85	1083.43
534.21	1088.35
534.56	1087.41
534.92	1098.18
535.27	1100.52
535.63	1118.78
535.98	1117.84
536.34	1117.37
536.69	1107.78
537.05	1104.03
537.41	1098.18
537.76	1099.58
538.12	1090.69
538.47	1093.26
538.83	1095.14
539.18	1086.01
539.54	1084.84
539.89	1101.46
540.25	1094.67
540.60	1087.65
540.96	1093.73
541.31	1092.33
541.67	1082.50
542.02	1091.39
542.38	1095.84
542.73	1093.97
543.09	1100.52
543.44	1098.65
543.80	1100.99
544.15	1100.99
544.51	1104.97
544.86	1094.67
545.22	1097.48
545.57	1093.73
545.93	1098.18
546.28	1090.69
546.64	1093.97
546.99	1094.90
547.35	1090.22
547.70	1088.58
548.05	1091.16
548.41	1092.33
548.76	1086.01
549.12	1104.26
549.47	1102.63
549.83	1103.33
550.18	1097.24
550.53	1108.95
550.89	1089.99
551.24	1092.09
551.60	1096.07
551.95	1094.43
552.30	1086.94
552.66	1084.84
553.01	1078.99
553.37	1077.82
553.72	1075.94
554.07	1077.35
554.43	1093.50
554.78	1091.16
555.13	1093.97
555.49	1104.73
555.84	1101.69
556.19	1092.80
556.55	1094.90
556.90	1084.37
557.26	1081.09
557.61	1086.94
557.96	1089.99
558.32	1083.67
558.67	1075.24
559.02	1079.46
559.37	1080.39
559.73	1078.28
560.08	1081.33
560.43	1085.54
560.79	1085.31
561.14	1074.54
561.49	1070.80
561.85	1075.94
562.20	1087.18
562.55	1090.69
562.90	1104.73
563.26	1112.69
563.61	1112.46
563.96	1104.50
564.32	1096.54
564.67	1086.24
565.02	1084.84
565.37	1085.31
565.73	1093.03
566.08	1100.75
566.43	1102.86
566.78	1100.52
567.14	1097.95
567.49	1089.99
567.84	1079.92
568.19	1078.05
568.54	1074.77
568.90	1070.33
569.25	1065.88
569.60	1067.28
569.95	1066.82
570.31	1070.33
570.66	1078.99
571.01	1083.43
571.36	1081.56
571.71	1080.16
572.06	1076.18
572.42	1082.73
572.77	1093.73
573.12	1092.56
573.47	1094.20
573.82	1093.26
574.18	1089.29
574.53	1083.20
574.88	1087.41
575.23	1095.60
575.58	1097.01
575.93	1088.35
576.28	1085.77
576.64	1097.01
576.99	1092.33
577.34	1089.05
577.69	1097.71
578.04	1110.82
578.39	1102.16
578.74	1102.86
579.09	1114.80
579.44	1112.22
579.80	1097.48
580.15	1094.20
580.50	1093.73
580.85	1082.97
581.20	1070.56
581.55	1071.26
581.90	1075.01
582.25	1071.73
582.60	1065.65
582.95	1081.56
583.30	1083.90
583.65	1071.97
584.00	1064.94
584.35	1067.05
584.71	1057.45
585.06	1055.11
585.41	1063.07
585.76	1075.48
586.11	1078.99
586.46	1080.39
586.81	1089.75
587.16	1090.92
587.51	1094.43
587.86	1087.88
588.21	1083.67
588.56	1082.97
588.91	1078.99
589.26	1069.86
589.61	1091.16
589.96	1097.48
590.31	1093.73
590.66	1097.48
591.01	1112.92
591.36	1098.88
591.71	1097.95
592.06	1099.58
592.41	1092.80
592.76	1067.05
593.10	1066.11
593.45	1064.71
593.80	1052.54
594.15	1060.26
594.50	1078.28
594.85	1073.60
595.20	1069.16
595.55	1081.80
595.90	1082.97
596.25	1075.24
596.60	1085.31
596.95	1086.24
597.30	1082.50
597.64	1132.35
597.99	1135.63
598.34	1136.56
598.69	1135.86
599.04	1134.93
599.39	1075.24
599.74	1076.41
600.09	1080.63
600.44	1089.99
600.78	1094.67
601.13	1104.73
601.48	1099.12
601.83	1102.63
602.18	1095.84
602.53	1102.16
602.88	1100.75
603.22	1101.46
603.57	1084.60
603.92	1087.88
604.27	1072.20
604.62	1073.84
604.97	1075.24
605.31	1082.03
605.66	1091.63
606.01	1096.07
606.36	1102.63
606.71	1109.88
607.05	1107.31
607.40	1100.75
607.75	1104.73
608.10	1090.92
608.44	1069.39
608.79	1072.90
609.14	1072.90
609.49	1067.99
609.84	1077.82
610.18	1086.48
610.53	1085.07
610.88	1082.03
611.23	1085.77
611.57	1087.88
611.92	1086.24
612.27	1081.56
612.62	1078.52
612.96	1078.99
613.31	1072.20
613.66	1082.03
614.00	1086.48
614.35	1092.09
614.70	1086.71
615.05	1085.31
615.39	1085.54
615.74	1097.01
616.09	1096.31
616.43	1092.09
616.78	1102.39
617.13	1097.24
617.47	1074.54
617.82	1072.90
618.17	1079.92
618.51	1063.77
618.86	1064.94
619.21	1078.99
619.55	1086.01
619.90	1081.33
620.25	1087.41
620.59	1086.71
620.94	1086.01
621.29	1083.43
621.63	1081.33
621.98	1080.63
622.32	1086.94
622.67	1084.60
623.02	1083.43
623.36	1088.35
623.71	1095.60
624.05	1096.07
624.40	1086.94
624.75	1077.58
625.09	1085.07
625.44	1070.56
625.78	1065.18
626.13	1071.50
626.48	1077.82
626.82	1074.77
627.17	1083.20
627.51	1076.18
627.86	1084.14
628.20	1082.26
628.55	1074.77
628.89	1081.80
629.24	1082.50
629.58	1076.41
629.93	1078.99
630.28	1086.48
630.62	1079.46
630.97	1087.65
631.31	1094.43
631.66	1091.86
632.00	1092.80
632.35	1097.01
632.69	1088.58
633.04	1077.35
633.38	1077.82
633.73	1066.11
634.07	1055.35
634.42	1064.24
634.76	1073.60
635.11	1078.52
635.45	1080.39
635.79	1079.22
636.14	1070.09
636.48	1069.16
636.83	1065.41
637.17	1074.77
637.52	1086.48
637.86	1093.03
638.21	1087.18
638.55	1089.05
638.89	1084.37
639.24	1065.88
639.58	1066.82
639.93	1074.31
640.27	1065.65
640.61	1061.67
640.96	1078.05
641.30	1079.92
641.65	1081.56
641.99	1086.24
642.33	1093.97
642.68	1090.46
643.02	1089.05
643.37	1086.71
643.71	1097.71
644.05	1091.86
644.40	1087.88
644.74	1088.58
645.08	1085.31
645.43	1081.09
645.77	1082.97
646.11	1081.09
646.46	1075.48
646.80	1074.07
647.14	1058.62
647.49	1063.54
647.83	1066.35
648.17	1069.62
648.52	1075.71
648.86	1096.31
649.20	1100.52
649.55	1112.92
649.89	1113.39
650.23	1108.71
650.57	1100.52
650.92	1093.97
651.26	1088.82
651.60	1086.71
651.95	1088.58
652.29	1086.01
652.63	1079.92
652.97	1068.69
653.32	1076.65
653.66	1083.20
654.00	1084.37
654.34	1096.78
654.69	1100.52
655.03	1090.69
655.37	1081.56
655.71	1076.65
656.05	1071.97
656.40	1075.94
656.74	1074.31
657.08	1075.01
657.42	1078.28
657.76	1075.71
658.11	1074.31
658.45	1078.99
658.79	1083.90
659.13	1093.26
659.47	1085.31
659.82	1088.58
660.16	1089.75
660.50	1080.16
660.84	1069.62
661.18	1074.31
661.52	1072.90
661.87	1074.07
662.21	1076.18
662.55	1083.43
662.89	1097.24
663.23	1095.14
663.57	1097.71
663.91	1098.18
664.25	1091.16
664.60	1084.60
664.94	1083.43
665.28	1077.58
665.62	1083.67
665.96	1080.86
666.30	1072.67
666.64	1076.41
666.98	1071.26
667.32	1069.39
667.66	1066.58
668.01	1078.75
668.35	1082.97
668.69	1084.60
669.03	1075.71
669.37	1071.73
669.71	1056.99
670.05	1055.82
670.39	1071.03
670.73	1076.88
671.07	1092.09
671.41	1104.50
671.75	1096.78
672.09	1091.86
672.43	1084.14
672.77	1077.58
673.11	1071.73
673.45	1072.90
673.79	1067.52
674.13	1068.22
674.47	1064.48
674.81	1060.73
675.15	1067.05
675.49	1072.43
675.83	1082.26
676.17	1090.22
676.51	1099.12
676.85	1102.63
677.19	1103.80
677.53	1105.44
677.87	1110.12
678.21	1107.54
678.55	1100.05
678.89	1104.03
679.23	1094.43
679.57	1086.71
679.90	1078.75
680.24	1077.11
680.58	1065.65
680.92	1062.14
681.26	1062.84
681.60	1070.33
681.94	1072.90
682.28	1080.86
682.62	1086.94
682.96	1088.82
683.29	1089.29
683.63	1091.16
683.97	1083.43
684.31	1087.65
684.65	1076.65
684.99	1078.52
685.33	1087.88
685.67	1100.05
686.00	1099.58
686.34	1106.84
686.68	1099.58
687.02	1092.09
687.36	1089.29
687.70	1090.92
688.03	1088.82
688.37	1092.80
688.71	1090.22
689.05	1078.28
689.39	1068.69
689.72	1076.65
690.06	1065.18
690.40	1062.14
690.74	1059.33
691.08	1067.28
691.41	1061.43
691.75	1071.97
692.09	1066.11
692.43	1068.92
692.76	1073.14
693.10	1080.63
693.44	1075.94
693.78	1085.31
694.11	1089.99
694.45	1092.33
694.79	1088.82
695.13	1097.95
695.46	1103.33
695.80	1108.48
696.14	1100.29
696.48	1097.01
696.81	1097.24
697.15	1082.03
697.49	1074.54
697.82	1071.03
698.16	1069.86
698.50	1058.39
698.83	1063.31
699.17	1070.33
699.51	1079.92
699.84	1082.03
700.18	1090.22
700.52	1097.71
700.85	1089.99
701.19	1079.92
701.53	1075.48
701.86	1080.86
702.20	1073.60
702.54	1079.69
702.87	1078.05
703.21	1085.31
703.55	1079.92
703.88	1083.43
704.22	1083.20
704.55	1085.07
704.89	1073.60
705.23	1068.69
705.56	1067.99
705.90	1062.60
706.23	1057.92
706.57	1075.24
706.91	1085.54
707.24	1086.71
707.58	1088.82
707.91	1103.33
708.25	1100.29
708.58	1098.41
708.92	1100.75
709.26	1110.12
709.59	1102.86
709.93	1098.41
710.26	1103.09
710.60	1102.86
710.93	1100.29
711.27	1104.50
711.60	1096.31
711.94	1091.16
712.27	1086.94
712.61	1084.14
712.94	1075.71
713.28	1089.75
713.61	1083.20
713.95	1076.65
714.28	1076.88
714.62	1084.84
714.95	1086.01
715.29	1080.16
715.62	1084.14
715.96	1079.22
716.29	1066.58
716.63	1055.35
716.96	1061.67
717.29	1061.43
717.63	1053.94
717.96	1064.94
718.30	1068.69
718.63	1068.69
718.97	1069.16
719.30	1070.33
719.63	1064.48
719.97	1069.16
720.30	1070.33
720.64	1072.43
720.97	1074.07
721.30	1081.33
721.64	1089.52
721.97	1092.80
722.31	1091.16
722.64	1098.88
722.97	1103.80
723.31	1086.24
723.64	1084.60
723.97	1092.80
724.31	1092.33
724.64	1083.90
724.98	1097.95
725.31	1100.99
725.64	1099.35
725.98	1098.88
726.31	1101.46
726.64	1092.33
726.97	1090.92
727.31	1089.99
727.64	1085.07
727.97	1089.29
728.31	1084.37
728.64	1076.65
728.97	1078.99
729.31	1078.99
729.64	1072.90
729.97	1078.28
730.30	1084.37
730.64	1084.37
730.97	1089.29
731.30	1085.31
731.63	1075.71
731.97	1068.22
732.30	1060.03
732.63	1052.07
732.96	1049.26
733.30	1056.28
733.63	1059.79
733.96	1061.67
734.29	1067.75
734.63	1073.37
734.96	1079.22
735.29	1081.33
735.62	1084.14
735.95	1083.67
736.29	1083.43
736.62	1077.35
736.95	1078.05
737.28	1073.37
737.61	1071.03
737.94	1069.39
738.28	1064.94
738.61	1060.73
738.94	1068.45
739.27	1077.58
739.60	1088.12
739.93	1101.46
740.27	1105.90
740.60	1106.37
740.93	1101.22
741.26	1095.84
741.59	1093.03
741.92	1091.39
742.25	1099.35
742.58	1100.52
742.91	1091.63
743.25	1084.14
743.58	1085.07
743.91	1060.50
744.24	1048.79
744.57	1047.16
744.90	1056.75
745.23	1064.94
745.56	1070.80
745.89	1079.22
746.22	1090.46
746.55	1085.77
746.88	1072.67
747.21	1084.60
747.54	1086.24
747.87	1088.12
748.20	1093.03
748.53	1101.92
748.87	1093.50
749.20	1090.46
749.53	1081.80
749.86	1074.54
750.19	1073.37
750.52	1073.37
750.85	1074.77
751.18	1082.50
751.51	1081.80
751.84	1084.37
752.16	1085.77
752.49	1087.41
752.82	1088.82
753.15	1079.22
753.48	1068.45
753.81	1062.14
754.14	1056.75
754.47	1051.37
754.80	1066.82
755.13	1074.31
755.46	1071.50
755.79	1074.31
756.12	1084.37
756.45	1070.80
756.78	1061.90
757.11	1068.45
757.43	1067.52
757.76	1061.90
758.09	1079.22
758.42	1090.22
758.75	1092.33
759.08	1096.07
759.41	1094.20
759.74	1091.39
760.07	1079.69
760.39	1086.71
760.72	1092.56
761.05	1086.94
761.38	1082.73
761.71	1084.60
762.04	1077.58
762.36	1075.01
762.69	1076.65
763.02	1074.31
763.35	1079.46
763.68	1074.77
764.01	1072.20
764.33	1070.80
764.66	1071.03
764.99	1065.65
765.32	1077.58
765.65	1074.31
