SpectraSuite Data File
++++++++++++++++++++++++++++++++++++
Date: Mon Aug 26 10:24:36 PDT 2019
User: corrico
Dark Spectrum Present: No
Reference Spectrum Present: No
Number of Sampled Component Spectra: 1
Spectrometers: USB2+H06089
Integration Time (usec): 10000 (USB2+H06089)
Spectra Averaged: 2 (USB2+H06089)
Boxcar Smoothing: 2 (USB2+H06089)
Correct for Electrical Dark: No (USB2+H06089)
Strobe/Lamp Enabled: No (USB2+H06089)
Correct for Detector Non-linearity: No (USB2+H06089)
Correct for Stray Light: No (USB2+H06089)
Number of Pixels in Processed Spectrum: 2048
>>>>>Begin Processed Spectral Data<<<<<
339.70	1068.45
340.07	1068.45
340.45	1014.86
340.82	986.30
341.19	960.09
341.57	923.58
341.94	913.75
342.31	909.30
342.69	896.43
343.06	882.15
343.43	880.28
343.81	883.08
344.18	884.49
344.55	895.25
344.93	905.09
345.30	911.17
345.67	918.19
346.04	931.77
346.42	940.19
346.79	949.32
347.16	964.30
347.54	971.32
347.91	977.88
348.28	983.49
348.65	994.26
349.03	1005.03
349.40	1014.39
349.77	1019.77
350.14	1036.39
350.52	1046.22
350.89	1047.62
351.26	1058.39
351.63	1073.60
352.01	1079.92
352.38	1086.24
352.75	1093.03
353.12	1103.33
353.50	1111.75
353.87	1120.88
354.24	1124.86
354.61	1124.86
354.98	1116.67
355.36	1099.82
355.73	1097.24
356.10	1090.46
356.47	1099.82
356.84	1104.50
357.22	1111.52
357.59	1105.20
357.96	1108.01
358.33	1102.86
358.70	1101.22
359.08	1106.61
359.45	1109.18
359.82	1105.20
360.19	1104.97
360.56	1097.01
360.94	1095.84
361.31	1090.69
361.68	1089.52
362.05	1079.22
362.42	1087.88
362.79	1087.41
363.16	1080.39
363.54	1084.60
363.91	1080.63
364.28	1067.99
364.65	1064.24
365.02	1066.82
365.39	1065.41
365.76	1085.07
366.14	1093.50
366.51	1094.67
366.88	1096.78
367.25	1104.03
367.62	1094.90
367.99	1091.39
368.36	1089.29
368.73	1089.99
369.10	1081.33
369.48	1089.52
369.85	1098.88
370.22	1102.39
370.59	1101.69
370.96	1104.50
371.33	1095.60
371.70	1099.82
372.07	1098.18
372.44	1104.03
372.81	1108.24
373.18	1110.58
373.55	1097.71
373.93	1089.05
374.30	1090.69
374.67	1085.31
375.04	1085.54
375.41	1083.67
375.78	1099.35
376.15	1100.05
376.52	1103.33
376.89	1108.24
377.26	1116.90
377.63	1106.84
378.00	1100.52
378.37	1101.69
378.74	1097.24
379.11	1092.09
379.48	1096.54
379.85	1093.73
380.22	1086.24
380.59	1083.90
380.96	1081.80
381.33	1091.39
381.70	1096.54
382.07	1102.86
382.44	1105.67
382.81	1108.01
383.18	1100.29
383.55	1102.86
383.92	1106.14
384.29	1102.86
384.66	1108.01
385.03	1110.82
385.40	1105.44
385.77	1104.97
386.14	1110.82
386.51	1104.03
386.88	1098.18
387.25	1100.05
387.62	1110.58
387.99	1113.16
388.36	1126.03
388.73	1130.95
389.10	1128.61
389.46	1127.90
389.83	1132.59
390.20	1123.46
390.57	1123.93
390.94	1137.27
391.31	1132.59
391.68	1134.93
392.05	1143.35
392.42	1134.46
392.79	1128.61
393.16	1121.35
393.53	1111.75
393.89	1118.31
394.26	1125.56
394.63	1134.69
395.00	1142.65
395.37	1146.16
395.74	1144.99
396.11	1148.27
396.48	1148.97
396.84	1144.05
397.21	1149.67
397.58	1155.05
397.95	1156.69
398.32	1145.93
398.69	1146.16
399.06	1146.39
399.42	1138.20
399.79	1143.82
400.16	1162.78
400.53	1166.99
400.90	1167.23
401.27	1172.61
401.64	1178.23
402.00	1174.71
402.37	1183.84
402.74	1206.55
403.11	1219.19
403.48	1222.93
403.84	1233.93
404.21	1248.44
404.58	1254.53
404.95	1255.93
405.32	1281.21
405.68	1293.85
406.05	1310.93
406.42	1321.47
406.79	1349.08
407.16	1359.38
407.52	1391.92
407.89	1414.39
408.26	1441.54
408.63	1470.09
408.99	1492.09
409.36	1511.28
409.73	1547.09
410.10	1584.54
410.47	1626.67
410.83	1686.12
411.20	1739.02
411.57	1785.83
411.94	1839.66
412.30	1909.88
412.67	1963.71
413.04	2028.07
413.40	2109.76
413.77	2205.25
414.14	2280.85
414.51	2373.07
414.87	2489.63
415.24	2602.91
415.61	2693.02
415.97	2796.00
416.34	2918.88
416.71	3036.38
417.08	3161.83
417.44	3333.63
417.81	3514.55
418.18	3723.09
418.54	3945.44
418.91	4149.54
419.28	4358.08
419.64	4561.70
420.01	4787.57
420.38	5019.04
420.74	5288.21
421.11	5596.92
421.48	5909.38
421.84	6242.91
422.21	6563.33
422.58	6944.14
422.94	7306.92
423.31	7689.83
423.68	8100.13
424.04	8563.32
424.41	9010.13
424.77	9505.62
425.14	10039.73
425.51	10567.99
425.87	11150.55
426.24	11769.85
426.61	12422.39
426.97	13191.26
427.34	13926.89
427.70	14684.76
428.07	15423.90
428.44	16201.89
428.80	16987.14
429.17	17830.90
429.53	18711.65
429.90	19727.44
430.27	20624.57
430.63	21514.44
431.00	22536.32
431.36	23596.81
431.73	24537.01
432.09	25562.63
432.46	26597.85
432.83	27618.09
433.19	28479.17
433.56	29600.99
433.92	30758.62
434.29	31826.37
434.65	32872.59
435.02	33942.45
435.38	34817.58
435.75	35512.95
436.11	36433.95
436.48	37254.07
436.84	38034.17
437.21	38835.34
437.57	39625.74
437.94	40227.72
438.30	40750.60
438.67	41177.98
439.03	41340.18
439.40	41554.11
439.76	41459.08
440.13	41289.16
440.49	41174.47
440.86	40915.84
441.22	40604.32
441.59	40187.23
441.95	39749.55
442.32	39045.99
442.68	38419.43
443.05	37611.94
443.41	36931.78
443.78	36089.66
444.14	35273.04
444.51	34263.80
444.87	33518.11
445.24	32548.66
445.60	31544.10
445.96	30611.16
446.33	29860.09
446.69	28834.70
447.06	28047.11
447.42	27312.41
447.79	26474.97
448.15	25741.91
448.51	25023.37
448.88	24337.83
449.24	23563.34
449.61	23076.75
449.97	22491.61
450.33	21922.39
450.70	21243.87
451.06	20796.13
451.43	20149.44
451.79	19677.82
452.15	19230.78
452.52	18833.12
452.88	18389.59
453.24	17980.70
453.61	17523.59
453.97	17062.97
454.34	16553.91
454.70	16113.65
455.06	15664.97
455.43	15111.90
455.79	14534.26
456.15	14075.51
456.52	13558.26
456.88	13106.30
457.24	12703.26
457.61	12372.31
457.97	12029.42
458.33	11636.91
458.70	11228.49
459.06	10801.57
459.42	10452.83
459.79	10075.30
460.15	9763.08
460.51	9445.00
460.88	9154.07
461.24	8816.56
461.60	8545.30
461.96	8254.37
462.33	8010.72
462.69	7758.41
463.05	7499.54
463.42	7284.22
463.78	7075.91
464.14	6893.81
464.50	6737.93
464.87	6568.71
465.23	6360.17
465.59	6185.33
465.95	6004.64
466.32	5819.51
466.68	5664.10
467.04	5508.22
467.40	5369.19
467.77	5233.91
468.13	5100.96
468.49	4992.83
468.85	4890.32
469.22	4797.86
469.58	4692.54
469.94	4595.41
470.30	4517.00
470.66	4436.25
471.03	4333.50
471.39	4268.43
471.75	4176.22
472.11	4079.55
472.47	4008.87
472.84	3931.63
473.20	3840.59
473.56	3774.82
473.92	3685.41
474.28	3609.81
474.65	3548.95
475.01	3477.80
475.37	3418.82
475.73	3373.41
476.09	3300.62
476.45	3241.41
476.81	3174.23
477.18	3122.98
477.54	3056.04
477.90	2991.91
478.26	2923.56
478.62	2865.99
478.98	2809.81
479.34	2780.79
479.71	2755.75
480.07	2727.89
480.43	2708.70
480.79	2675.70
481.15	2639.89
481.51	2613.91
481.87	2586.53
482.23	2542.76
482.59	2492.44
482.96	2436.26
483.32	2392.96
483.68	2349.66
484.04	2325.09
484.40	2298.87
484.76	2268.68
485.12	2243.40
485.48	2207.59
485.84	2175.76
486.20	2151.19
486.56	2123.10
486.92	2092.67
487.28	2072.08
487.64	2047.27
488.00	2021.52
488.37	2004.67
488.73	1977.99
489.09	1967.92
489.45	1938.90
489.81	1916.66
490.17	1894.66
490.53	1867.98
490.89	1828.43
491.25	1810.64
491.61	1792.15
491.97	1779.04
492.33	1757.74
492.69	1739.95
493.05	1730.36
493.41	1712.80
493.77	1690.10
494.13	1671.84
494.49	1662.95
494.85	1646.33
495.21	1623.16
495.57	1614.27
495.93	1614.03
496.29	1589.46
496.64	1564.41
497.00	1553.88
497.36	1527.43
497.72	1510.11
498.08	1511.05
498.44	1508.24
498.80	1495.60
499.16	1489.52
499.52	1479.22
499.88	1460.03
500.24	1445.51
500.60	1440.60
500.96	1432.17
501.32	1418.60
501.68	1414.85
502.03	1410.87
502.39	1393.09
502.75	1379.98
503.11	1361.02
503.47	1346.51
503.83	1336.68
504.19	1338.08
504.55	1328.49
504.91	1329.66
505.26	1327.55
505.62	1321.23
505.98	1326.85
506.34	1324.98
506.70	1324.51
507.06	1316.32
507.42	1306.72
507.78	1280.04
508.13	1281.44
508.49	1275.36
508.85	1280.51
509.21	1271.85
509.57	1274.42
509.93	1268.57
510.28	1267.17
510.64	1263.19
511.00	1252.19
511.36	1234.63
511.72	1215.44
512.07	1201.87
512.43	1186.89
512.79	1188.52
513.15	1207.95
513.51	1216.38
513.86	1216.38
514.22	1225.50
514.58	1216.61
514.94	1205.38
515.30	1202.80
515.65	1201.87
516.01	1191.10
516.37	1197.65
516.73	1199.29
517.08	1193.91
517.44	1191.10
517.80	1193.21
518.16	1192.50
518.51	1188.52
518.87	1193.44
519.23	1193.67
519.59	1182.44
519.94	1170.27
520.30	1159.50
520.66	1160.67
521.01	1157.39
521.37	1159.27
521.73	1163.95
522.09	1164.18
522.44	1158.80
522.80	1159.74
523.16	1164.65
523.51	1179.63
523.87	1178.46
524.23	1179.16
524.58	1175.18
524.94	1175.42
525.30	1155.99
525.65	1148.97
526.01	1148.50
526.37	1147.56
526.72	1133.29
527.08	1131.41
527.44	1140.07
527.79	1133.99
528.15	1129.54
528.51	1140.78
528.86	1140.07
529.22	1133.52
529.58	1132.35
529.93	1141.71
530.29	1130.01
530.65	1135.39
531.00	1135.63
531.36	1141.01
531.71	1130.95
532.07	1146.16
532.43	1143.59
532.78	1150.84
533.14	1150.61
533.49	1152.48
533.85	1144.99
534.21	1148.27
534.56	1141.48
534.92	1136.56
535.27	1136.56
535.63	1122.29
535.98	1121.35
536.34	1114.56
536.69	1111.29
537.05	1106.61
537.41	1111.05
537.76	1111.52
538.12	1121.82
538.47	1136.80
538.83	1136.10
539.18	1137.73
539.54	1133.05
539.89	1134.69
540.25	1110.58
540.60	1108.48
540.96	1109.41
541.31	1111.05
541.67	1102.16
542.02	1117.84
542.38	1129.31
542.73	1128.37
543.09	1126.50
543.44	1125.80
543.80	1120.18
544.15	1122.52
544.51	1132.12
544.86	1128.14
545.22	1136.33
545.57	1141.25
545.93	1133.29
546.28	1128.61
546.64	1136.10
546.99	1129.54
547.35	1121.82
547.70	1122.29
548.05	1122.75
548.41	1113.39
548.76	1111.52
549.12	1124.86
549.47	1115.73
549.83	1111.29
550.18	1114.33
550.53	1116.90
550.89	1102.39
551.24	1108.01
551.60	1106.37
551.95	1113.16
552.30	1105.90
552.66	1109.41
553.01	1120.65
553.37	1132.59
553.72	1120.18
554.07	1134.22
554.43	1127.44
554.78	1110.82
555.13	1098.65
555.49	1108.71
555.84	1100.52
556.19	1102.16
556.55	1103.56
556.90	1103.33
557.26	1099.82
557.61	1108.01
557.96	1112.69
558.32	1116.44
558.67	1114.09
559.02	1126.03
559.37	1124.39
559.73	1128.61
560.08	1142.42
560.43	1152.01
560.79	1148.97
561.14	1151.31
561.49	1150.61
561.85	1144.99
562.20	1141.95
562.55	1135.63
562.90	1120.41
563.26	1112.22
563.61	1098.65
563.96	1094.43
564.32	1086.48
564.67	1091.63
565.02	1100.29
565.37	1106.37
565.73	1114.80
566.08	1123.69
566.43	1116.44
566.78	1106.14
567.14	1095.60
567.49	1090.22
567.84	1088.58
568.19	1092.33
568.54	1104.03
568.90	1118.78
569.25	1109.41
569.60	1102.63
569.95	1109.41
570.31	1109.18
570.66	1101.22
571.01	1108.71
571.36	1111.05
571.71	1109.88
572.06	1099.35
572.42	1100.99
572.77	1109.41
573.12	1116.67
573.47	1121.58
573.82	1125.80
574.18	1129.31
574.53	1117.61
574.88	1111.75
575.23	1095.14
575.58	1101.22
575.93	1096.54
576.28	1094.67
576.64	1100.29
576.99	1110.12
577.34	1109.18
577.69	1111.05
578.04	1122.52
578.39	1117.84
578.74	1120.65
579.09	1105.67
579.44	1101.22
579.80	1093.26
580.15	1093.73
580.50	1093.97
580.85	1101.92
581.20	1100.05
581.55	1105.20
581.90	1099.82
582.25	1100.29
582.60	1101.69
582.95	1107.31
583.30	1103.33
583.65	1107.07
584.00	1107.78
584.35	1110.58
584.71	1107.54
585.06	1108.01
585.41	1104.97
585.76	1101.22
586.11	1093.03
586.46	1093.97
586.81	1080.39
587.16	1078.99
587.51	1073.60
587.86	1076.18
588.21	1081.80
588.56	1091.16
588.91	1097.71
589.26	1093.03
589.61	1093.03
589.96	1087.65
590.31	1093.26
590.66	1091.63
591.01	1104.73
591.36	1107.07
591.71	1104.26
592.06	1096.54
592.41	1096.31
592.76	1090.69
593.10	1089.52
593.45	1087.65
593.80	1093.26
594.15	1094.67
594.50	1105.44
594.85	1114.33
595.20	1121.82
595.55	1118.07
595.90	1119.24
596.25	1113.86
596.60	1104.03
596.95	1098.88
597.30	1102.63
597.64	1143.82
597.99	1136.33
598.34	1145.46
598.69	1144.52
599.04	1149.44
599.39	1100.75
599.74	1108.01
600.09	1107.31
600.44	1113.86
600.78	1104.73
601.13	1105.44
601.48	1107.54
601.83	1100.75
602.18	1087.88
602.53	1082.97
602.88	1082.50
603.22	1078.28
603.57	1078.99
603.92	1089.52
604.27	1098.88
604.62	1096.31
604.97	1089.05
605.31	1082.97
605.66	1079.46
606.01	1085.07
606.36	1095.60
606.71	1108.71
607.05	1128.14
607.40	1129.07
607.75	1117.84
608.10	1117.61
608.44	1103.80
608.79	1078.52
609.14	1075.01
609.49	1079.22
609.84	1081.56
610.18	1091.86
610.53	1106.14
610.88	1110.35
611.23	1118.31
611.57	1106.84
611.92	1099.82
612.27	1095.37
612.62	1097.48
612.96	1086.24
613.31	1087.18
613.66	1091.86
614.00	1097.01
614.35	1100.52
614.70	1104.50
615.05	1104.97
615.39	1093.03
615.74	1086.94
616.09	1089.05
616.43	1091.63
616.78	1090.22
617.13	1100.75
617.47	1099.12
617.82	1087.88
618.17	1087.41
618.51	1092.80
618.86	1085.07
619.21	1093.73
619.55	1099.35
619.90	1097.01
620.25	1090.92
620.59	1100.99
620.94	1104.03
621.29	1092.80
621.63	1097.71
621.98	1098.88
622.32	1104.03
622.67	1088.12
623.02	1098.41
623.36	1089.52
623.71	1088.12
624.05	1083.43
624.40	1084.37
624.75	1083.90
625.09	1082.73
625.44	1089.75
625.78	1081.56
626.13	1092.09
626.48	1095.84
626.82	1094.67
627.17	1092.09
627.51	1097.01
627.86	1094.90
628.20	1086.48
628.55	1094.67
628.89	1091.39
629.24	1093.26
629.58	1082.97
629.93	1089.99
630.28	1081.33
630.62	1085.31
630.97	1082.97
631.31	1096.54
631.66	1089.99
632.00	1087.18
632.35	1078.05
632.69	1082.03
633.04	1079.22
633.38	1089.75
633.73	1096.54
634.07	1102.86
634.42	1103.33
634.76	1099.35
635.11	1093.97
635.45	1098.65
635.79	1097.71
636.14	1094.90
636.48	1100.05
636.83	1106.84
637.17	1106.37
637.52	1113.86
637.86	1111.52
638.21	1105.44
638.55	1105.44
638.89	1096.78
639.24	1086.48
639.58	1089.52
639.93	1089.99
640.27	1080.63
640.61	1088.35
640.96	1093.03
641.30	1087.65
641.65	1081.33
641.99	1082.73
642.33	1079.69
642.68	1071.03
643.02	1077.82
643.37	1086.01
643.71	1086.94
644.05	1094.67
644.40	1100.29
644.74	1106.61
645.08	1101.46
645.43	1110.58
645.77	1104.50
646.11	1107.54
646.46	1089.99
646.80	1095.14
647.14	1076.41
647.49	1075.48
647.83	1070.09
648.17	1078.52
648.52	1063.07
648.86	1069.39
649.20	1070.33
649.55	1080.86
649.89	1078.99
650.23	1095.84
650.57	1088.82
650.92	1089.99
651.26	1083.90
651.60	1086.94
651.95	1087.41
652.29	1104.03
652.63	1104.73
652.97	1094.67
653.32	1088.82
653.66	1080.86
654.00	1075.01
654.34	1067.99
654.69	1075.01
655.03	1076.88
655.37	1084.14
655.71	1072.67
656.05	1075.01
656.40	1087.65
656.74	1087.65
657.08	1082.50
657.42	1090.46
657.76	1093.97
658.11	1083.20
658.45	1083.67
658.79	1083.90
659.13	1090.46
659.47	1092.80
659.82	1092.56
660.16	1084.60
660.50	1089.99
660.84	1082.26
661.18	1071.50
661.52	1080.39
661.87	1089.75
662.21	1084.84
662.55	1084.84
662.89	1090.46
663.23	1089.52
663.57	1086.01
663.91	1087.18
664.25	1088.58
664.60	1098.18
664.94	1096.54
665.28	1101.22
665.62	1107.31
665.96	1103.56
666.30	1100.99
666.64	1093.03
666.98	1093.97
667.32	1083.20
667.66	1093.97
668.01	1091.39
668.35	1091.16
668.69	1097.95
669.03	1112.69
669.37	1109.88
669.71	1113.39
670.05	1117.84
670.39	1113.63
670.73	1108.01
671.07	1094.67
671.41	1086.01
671.75	1092.09
672.09	1089.52
672.43	1082.26
672.77	1095.84
673.11	1091.86
673.45	1088.35
673.79	1077.11
674.13	1077.58
674.47	1075.24
674.81	1083.67
675.15	1080.39
675.49	1099.58
675.83	1099.82
676.17	1093.97
676.51	1091.86
676.85	1089.29
677.19	1078.52
677.53	1077.58
677.87	1084.37
678.21	1087.18
678.55	1090.69
678.89	1088.58
679.23	1095.60
679.57	1089.29
679.90	1091.16
680.24	1090.69
680.58	1094.67
680.92	1089.75
681.26	1100.05
681.60	1103.80
681.94	1103.33
682.28	1105.67
682.62	1103.33
682.96	1097.24
683.29	1089.52
683.63	1085.77
683.97	1079.46
684.31	1079.46
684.65	1083.43
684.99	1084.14
685.33	1088.35
685.67	1082.97
686.00	1095.84
686.34	1090.69
686.68	1085.31
687.02	1079.92
687.36	1090.92
687.70	1071.97
688.03	1075.01
688.37	1073.60
688.71	1077.11
689.05	1075.24
689.39	1086.24
689.72	1080.16
690.06	1082.50
690.40	1080.86
690.74	1084.60
691.08	1088.58
691.41	1100.99
691.75	1088.12
692.09	1086.71
692.43	1085.07
692.76	1078.75
693.10	1070.33
693.44	1081.09
693.78	1089.75
694.11	1080.63
694.45	1074.31
694.79	1067.52
695.13	1064.94
695.46	1060.26
695.80	1064.71
696.14	1074.07
696.48	1073.37
696.81	1080.16
697.15	1079.92
697.49	1071.73
697.82	1067.99
698.16	1073.37
698.50	1076.18
698.83	1077.82
699.17	1086.24
699.51	1081.80
699.84	1084.84
700.18	1078.28
700.52	1071.26
700.85	1068.92
701.19	1086.48
701.53	1082.73
701.86	1089.29
702.20	1094.20
702.54	1099.12
702.87	1092.80
703.21	1093.50
703.55	1096.07
703.88	1098.41
704.22	1085.07
704.55	1078.75
704.89	1084.84
705.23	1073.14
705.56	1069.39
705.90	1077.82
706.23	1084.14
706.57	1070.80
706.91	1075.71
707.24	1084.37
707.58	1082.73
707.91	1075.01
708.25	1081.09
708.58	1079.69
708.92	1075.94
709.26	1079.22
709.59	1090.46
709.93	1086.24
710.26	1086.01
710.60	1082.03
710.93	1080.86
711.27	1071.50
711.60	1076.41
711.94	1077.35
712.27	1077.11
712.61	1081.80
712.94	1077.58
713.28	1080.86
713.61	1084.60
713.95	1082.50
714.28	1080.39
714.62	1083.20
714.95	1079.92
715.29	1071.50
715.62	1075.24
715.96	1079.22
716.29	1085.31
716.63	1092.33
716.96	1100.05
717.29	1092.09
717.63	1080.63
717.96	1076.41
718.30	1075.01
718.63	1075.94
718.97	1077.11
719.30	1088.12
719.63	1082.50
719.97	1084.60
720.30	1087.18
720.64	1096.54
720.97	1098.41
721.30	1106.37
721.64	1111.99
721.97	1110.12
722.31	1109.88
722.64	1107.07
722.97	1099.82
723.31	1086.48
723.64	1078.99
723.97	1071.26
724.31	1066.11
724.64	1067.75
724.98	1066.35
725.31	1065.65
725.64	1069.39
725.98	1073.84
726.31	1079.46
726.64	1087.18
726.97	1086.01
727.31	1086.01
727.64	1082.26
727.97	1084.60
728.31	1085.77
728.64	1086.48
728.97	1090.46
729.31	1089.75
729.64	1075.48
729.97	1070.80
730.30	1073.60
730.64	1074.77
730.97	1073.37
731.30	1078.75
731.63	1080.16
731.97	1077.35
732.30	1073.14
732.63	1076.88
732.96	1091.39
733.30	1096.78
733.63	1101.69
733.96	1107.31
734.29	1101.46
734.63	1101.92
734.96	1104.97
735.29	1102.39
735.62	1094.90
735.95	1107.31
736.29	1093.50
736.62	1079.69
736.95	1086.71
737.28	1084.84
737.61	1076.18
737.94	1079.69
738.28	1078.05
738.61	1078.52
738.94	1081.80
739.27	1076.88
739.60	1075.24
739.93	1085.07
740.27	1082.03
740.60	1082.73
740.93	1092.56
741.26	1096.07
741.59	1094.43
741.92	1092.56
742.25	1086.48
742.58	1083.67
742.91	1082.50
743.25	1083.20
743.58	1080.63
743.91	1088.12
744.24	1083.43
744.57	1079.46
744.90	1082.97
745.23	1092.09
745.56	1083.90
745.89	1076.65
746.22	1084.84
746.55	1084.14
746.88	1080.86
747.21	1092.80
747.54	1107.78
747.87	1100.52
748.20	1098.88
748.53	1090.22
748.87	1082.73
749.20	1079.46
749.53	1083.67
749.86	1084.60
750.19	1093.26
750.52	1093.50
750.85	1088.12
751.18	1078.52
751.51	1073.14
751.84	1067.05
752.16	1066.82
752.49	1063.54
752.82	1067.28
753.15	1060.73
753.48	1069.39
753.81	1065.65
754.14	1070.33
754.47	1077.82
754.80	1077.35
755.13	1067.28
755.46	1070.09
755.79	1069.86
756.12	1071.03
756.45	1076.88
756.78	1082.26
757.11	1078.28
757.43	1082.97
757.76	1086.24
758.09	1078.52
758.42	1080.86
758.75	1087.88
759.08	1088.82
759.41	1072.43
759.74	1082.50
760.07	1083.20
760.39	1081.80
760.72	1078.99
761.05	1080.39
761.38	1076.18
761.71	1078.28
762.04	1077.11
762.36	1079.69
762.69	1087.41
763.02	1083.20
763.35	1083.90
763.68	1091.86
764.01	1090.22
764.33	1093.03
