SpectraSuite Data File
++++++++++++++++++++++++++++++++++++
Date: Mon Aug 26 10:24:37 PDT 2019
User: corrico
Dark Spectrum Present: No
Reference Spectrum Present: No
Number of Sampled Component Spectra: 1
Spectrometers: USB2+H06089
Integration Time (usec): 10000 (USB2+H06089)
Spectra Averaged: 2 (USB2+H06089)
Boxcar Smoothing: 2 (USB2+H06089)
Correct for Electrical Dark: No (USB2+H06089)
Strobe/Lamp Enabled: No (USB2+H06089)
Correct for Detector Non-linearity: No (USB2+H06089)
Correct for Stray Light: No (USB2+H06089)
Number of Pixels in Processed Spectrum: 2048
>>>>>Begin Processed Spectral Data<<<<<
339.70	977.17
340.07	977.17
340.45	965.24
340.82	950.26
341.19	935.04
341.57	920.77
341.94	914.92
342.31	913.04
342.69	909.53
343.06	905.32
343.43	904.85
343.81	900.17
344.18	906.26
344.55	921.94
344.93	929.43
345.30	934.34
345.67	946.75
346.04	942.07
346.42	937.15
346.79	943.00
347.16	957.98
347.54	965.47
347.91	983.26
348.28	993.56
348.65	1014.15
349.03	1028.67
349.40	1039.20
349.77	1043.41
350.14	1059.33
350.52	1069.16
350.89	1063.77
351.26	1062.37
351.63	1072.20
352.01	1076.18
352.38	1068.45
352.75	1075.24
353.12	1072.90
353.50	1072.90
353.87	1076.65
354.24	1079.22
354.61	1084.14
354.98	1097.48
355.36	1106.37
355.73	1104.26
356.10	1099.82
356.47	1096.07
356.84	1097.01
357.22	1094.90
357.59	1094.43
357.96	1098.41
358.33	1093.97
358.70	1093.73
359.08	1082.73
359.45	1073.84
359.82	1074.54
360.19	1085.31
360.56	1082.03
360.94	1082.73
361.31	1091.16
361.68	1087.65
362.05	1078.52
362.42	1082.73
362.79	1082.73
363.16	1077.82
363.54	1091.16
363.91	1090.69
364.28	1089.52
364.65	1086.71
365.02	1085.31
365.39	1084.60
365.76	1087.18
366.14	1080.16
366.51	1093.03
366.88	1105.20
367.25	1105.44
367.62	1105.67
367.99	1102.86
368.36	1099.12
368.73	1095.14
369.10	1090.22
369.48	1088.58
369.85	1099.12
370.22	1084.84
370.59	1077.35
370.96	1076.18
371.33	1083.20
371.70	1084.84
372.07	1096.31
372.44	1103.33
372.81	1104.03
373.18	1096.31
373.55	1081.09
373.93	1071.26
374.30	1063.54
374.67	1069.62
375.04	1063.77
375.41	1076.18
375.78	1086.48
376.15	1089.05
376.52	1079.46
376.89	1089.29
377.26	1084.60
377.63	1082.26
378.00	1090.22
378.37	1088.58
378.74	1097.95
379.11	1113.39
379.48	1114.10
379.85	1118.31
380.22	1126.97
380.59	1116.67
380.96	1111.05
381.33	1112.92
381.70	1104.73
382.07	1095.37
382.44	1097.01
382.81	1081.56
383.18	1081.80
383.55	1085.54
383.92	1095.14
384.29	1088.35
384.66	1101.22
385.03	1107.31
385.40	1101.22
385.77	1099.58
386.14	1112.92
386.51	1115.03
386.88	1102.86
387.25	1118.07
387.62	1121.12
387.99	1115.73
388.36	1116.44
388.73	1117.84
389.10	1104.73
389.46	1099.35
389.83	1103.80
390.20	1108.24
390.57	1114.33
390.94	1121.82
391.31	1123.93
391.68	1118.78
392.05	1113.16
392.42	1116.90
392.79	1109.88
393.16	1109.65
393.53	1107.54
393.89	1105.67
394.26	1104.26
394.63	1111.05
395.00	1117.84
395.37	1127.90
395.74	1124.86
396.11	1127.20
396.48	1126.03
396.84	1123.69
397.21	1123.93
397.58	1123.69
397.95	1132.35
398.32	1135.63
398.69	1150.37
399.06	1152.48
399.42	1155.99
399.79	1157.39
400.16	1169.33
400.53	1165.82
400.90	1178.23
401.27	1190.63
401.64	1188.99
402.00	1182.20
402.37	1183.84
402.74	1185.95
403.11	1196.01
403.48	1201.63
403.84	1214.50
404.21	1222.46
404.58	1223.16
404.95	1232.76
405.32	1245.40
405.68	1264.83
406.05	1292.68
406.42	1314.21
406.79	1328.49
407.16	1349.08
407.52	1353.06
407.89	1360.09
408.26	1382.79
408.63	1407.83
408.99	1426.09
409.36	1469.62
409.73	1513.62
410.10	1540.31
410.47	1582.20
410.83	1628.31
411.20	1657.33
411.57	1693.61
411.94	1750.95
412.30	1803.38
412.67	1859.32
413.04	1920.64
413.40	1982.20
413.77	2048.90
414.14	2120.99
414.51	2203.15
414.87	2302.62
415.24	2387.58
415.61	2492.20
415.97	2587.23
416.34	2694.19
416.71	2801.39
417.08	2941.12
417.44	3070.31
417.81	3235.79
418.18	3381.37
418.54	3559.02
418.91	3734.56
419.28	3907.52
419.64	4093.13
420.01	4332.10
420.38	4535.96
420.74	4754.10
421.11	5024.43
421.48	5280.01
421.84	5546.37
422.21	5825.59
422.58	6150.23
422.94	6467.13
423.31	6778.19
423.68	7118.51
424.04	7513.82
424.41	7889.01
424.77	8283.62
425.14	8742.84
425.51	9153.13
425.87	9608.13
426.24	10057.52
426.61	10584.14
426.97	11204.61
427.34	11773.60
427.70	12437.37
428.07	13078.68
428.44	13736.60
428.80	14378.61
429.17	15158.71
429.53	15834.43
429.90	16700.66
430.27	17436.05
430.63	18134.94
431.00	18952.02
431.36	19855.00
431.73	20632.06
432.09	21515.37
432.46	22510.80
432.83	23367.91
433.19	24133.50
433.56	25091.25
433.92	25976.67
434.29	26756.07
434.65	27701.41
435.02	28555.00
435.38	29343.76
435.75	29986.48
436.11	30813.85
436.48	31366.69
436.84	32094.83
437.21	32716.48
437.57	33426.83
437.94	33957.43
438.30	34543.73
438.67	34863.45
439.03	34974.86
439.40	35158.83
439.76	35064.27
440.13	34866.73
440.49	34849.64
440.86	34649.29
441.22	34297.27
441.59	33887.45
441.95	33446.26
442.32	32766.56
442.68	32247.20
443.05	31563.76
443.41	30877.52
443.78	30093.44
444.14	29335.10
444.51	28484.09
444.87	27925.17
445.24	27276.14
445.60	26721.19
445.96	25999.37
446.33	25462.69
446.69	24622.67
447.06	23979.96
447.42	23170.60
447.79	22507.29
448.15	21839.54
448.51	21238.26
448.88	20686.36
449.24	20148.03
449.61	19765.82
449.97	19258.16
450.33	18751.67
450.70	18163.49
451.06	17763.73
451.43	17164.79
451.79	16707.45
452.15	16303.24
452.52	15887.09
452.88	15484.98
453.24	15153.33
453.61	14805.53
453.97	14446.25
454.34	14075.98
454.70	13724.43
455.06	13374.29
455.43	12940.35
455.79	12454.46
456.15	12105.02
456.52	11673.42
456.88	11323.98
457.24	10939.43
457.61	10683.61
457.97	10328.55
458.33	9991.51
458.70	9602.52
459.06	9287.25
459.42	8978.53
459.79	8714.52
460.15	8437.40
460.51	8168.24
460.88	7907.50
461.24	7621.95
461.60	7365.43
461.96	7151.27
462.33	6933.84
462.69	6735.83
463.05	6554.20
463.42	6362.51
463.78	6167.08
464.14	6008.62
464.50	5857.89
464.87	5701.54
465.23	5529.05
465.59	5382.53
465.95	5236.01
466.32	5115.01
466.68	4995.64
467.04	4906.00
467.40	4818.93
467.77	4708.22
468.13	4563.81
468.49	4469.25
468.85	4369.78
469.22	4276.63
469.58	4188.62
469.94	4149.07
470.30	4061.77
470.66	3997.17
471.03	3906.82
471.39	3841.99
471.75	3736.20
472.11	3674.41
472.47	3611.68
472.84	3555.51
473.20	3462.35
473.56	3394.71
473.92	3315.13
474.28	3219.64
474.65	3161.83
475.01	3138.66
475.37	3088.10
475.73	3042.46
476.09	2999.16
476.45	2952.59
476.81	2893.84
477.18	2843.75
477.54	2803.49
477.90	2771.90
478.26	2706.13
478.62	2664.93
478.98	2632.63
479.34	2604.31
479.71	2547.21
480.07	2523.80
480.43	2491.03
480.79	2452.65
481.15	2398.35
481.51	2378.69
481.87	2358.09
482.23	2328.13
482.59	2289.04
482.96	2275.47
483.32	2246.91
483.68	2205.49
484.04	2183.25
484.40	2173.66
484.76	2138.31
485.12	2097.82
485.48	2086.12
485.84	2040.01
486.20	2016.14
486.56	1992.26
486.92	1993.67
487.28	1952.24
487.64	1934.22
488.00	1918.77
488.37	1896.30
488.73	1864.47
489.09	1853.94
489.45	1834.75
489.81	1807.60
490.17	1798.94
490.53	1783.02
490.89	1761.96
491.25	1750.95
491.61	1739.95
491.97	1721.23
492.33	1717.49
492.69	1700.87
493.05	1683.31
493.41	1662.48
493.77	1636.27
494.13	1608.65
494.49	1600.46
494.85	1588.76
495.21	1563.71
495.57	1556.92
495.93	1537.97
496.29	1524.16
496.64	1518.54
497.00	1517.14
497.36	1504.96
497.72	1489.75
498.08	1459.79
498.44	1438.49
498.80	1424.68
499.16	1415.32
499.52	1410.41
499.88	1409.47
500.24	1408.53
500.60	1395.66
500.96	1379.04
501.32	1375.30
501.68	1369.68
502.03	1359.85
502.39	1353.77
502.75	1349.08
503.11	1350.49
503.47	1349.79
503.83	1336.45
504.19	1330.83
504.55	1334.57
504.91	1317.72
505.26	1310.70
505.62	1306.25
505.98	1308.13
506.34	1291.27
506.70	1285.19
507.06	1271.61
507.42	1268.80
507.78	1256.17
508.13	1255.00
508.49	1249.14
508.85	1251.02
509.21	1254.53
509.57	1248.44
509.93	1244.23
510.28	1247.51
510.64	1245.40
511.00	1242.12
511.36	1244.23
511.72	1243.53
512.07	1240.48
512.43	1230.42
512.79	1212.16
513.15	1216.38
513.51	1213.10
513.86	1198.59
514.22	1199.52
514.58	1188.06
514.94	1173.54
515.30	1168.86
515.65	1174.71
516.01	1166.99
516.37	1180.80
516.73	1181.27
517.08	1181.03
517.44	1176.59
517.80	1179.16
518.16	1177.52
518.51	1167.69
518.87	1159.27
519.23	1154.59
519.59	1151.54
519.94	1155.29
520.30	1150.61
520.66	1145.22
521.01	1142.65
521.37	1146.63
521.73	1143.59
522.09	1142.88
522.44	1147.56
522.80	1142.88
523.16	1136.80
523.51	1132.35
523.87	1148.97
524.23	1151.54
524.58	1163.48
524.94	1165.82
525.30	1168.86
525.65	1159.50
526.01	1147.10
526.37	1133.99
526.72	1125.56
527.08	1123.22
527.44	1126.97
527.79	1137.50
528.15	1144.76
528.51	1152.71
528.86	1156.46
529.22	1155.99
529.58	1153.65
529.93	1153.88
530.29	1139.14
530.65	1122.05
531.00	1121.12
531.36	1112.69
531.71	1112.92
532.07	1117.14
532.43	1122.75
532.78	1124.16
533.14	1126.97
533.49	1123.22
533.85	1133.76
534.21	1127.20
534.56	1113.16
534.92	1113.86
535.27	1111.29
535.63	1109.65
535.98	1119.01
536.34	1120.88
536.69	1127.90
537.05	1132.82
537.41	1139.84
537.76	1140.07
538.12	1135.16
538.47	1124.39
538.83	1110.58
539.18	1090.92
539.54	1081.33
539.89	1089.29
540.25	1088.35
540.60	1092.80
540.96	1099.35
541.31	1099.82
541.67	1099.58
542.02	1104.97
542.38	1109.88
542.73	1112.69
543.09	1121.82
543.44	1122.75
543.80	1128.61
544.15	1121.35
544.51	1115.50
544.86	1109.65
545.22	1106.61
545.57	1097.48
545.93	1098.18
546.28	1091.16
546.64	1087.88
546.99	1093.26
547.35	1098.18
547.70	1102.39
548.05	1106.14
548.41	1112.46
548.76	1109.18
549.12	1102.39
549.47	1105.90
549.83	1111.75
550.18	1105.20
550.53	1107.07
550.89	1107.78
551.24	1100.52
551.60	1087.18
551.95	1092.09
552.30	1094.43
552.66	1096.07
553.01	1101.69
553.37	1120.18
553.72	1122.05
554.07	1113.39
554.43	1126.73
554.78	1128.14
555.13	1117.84
555.49	1121.58
555.84	1113.39
556.19	1099.58
556.55	1097.24
556.90	1095.60
557.26	1087.88
557.61	1093.73
557.96	1087.18
558.32	1085.07
558.67	1084.37
559.02	1093.73
559.37	1103.80
559.73	1107.07
560.08	1114.10
560.43	1116.20
560.79	1100.99
561.14	1090.69
561.49	1095.60
561.85	1095.60
562.20	1093.97
562.55	1102.63
562.90	1106.37
563.26	1105.67
563.61	1107.54
563.96	1109.41
564.32	1106.14
564.67	1099.82
565.02	1096.54
565.37	1090.69
565.73	1097.95
566.08	1098.41
566.43	1097.48
566.78	1087.88
567.14	1093.03
567.49	1090.69
567.84	1100.52
568.19	1109.41
568.54	1116.44
568.90	1096.54
569.25	1094.20
569.60	1077.58
569.95	1084.14
570.31	1087.41
570.66	1100.52
571.01	1101.46
571.36	1106.84
571.71	1101.69
572.06	1100.05
572.42	1103.09
572.77	1109.18
573.12	1108.95
573.47	1113.16
573.82	1113.86
574.18	1101.92
574.53	1093.73
574.88	1092.09
575.23	1088.35
575.58	1084.14
575.93	1097.48
576.28	1091.63
576.64	1093.50
576.99	1089.52
577.34	1082.50
577.69	1078.99
578.04	1091.86
578.39	1089.52
578.74	1089.75
579.09	1101.69
579.44	1102.39
579.80	1093.97
580.15	1100.99
580.50	1100.99
580.85	1108.71
581.20	1102.16
581.55	1099.12
581.90	1098.65
582.25	1102.86
582.60	1091.63
582.95	1097.01
583.30	1092.09
583.65	1092.80
584.00	1086.94
584.35	1099.35
584.71	1098.65
585.06	1111.05
585.41	1106.14
585.76	1102.16
586.11	1093.50
586.46	1090.92
586.81	1088.12
587.16	1094.67
587.51	1103.09
587.86	1108.01
588.21	1099.82
588.56	1100.05
588.91	1088.58
589.26	1089.05
589.61	1084.60
589.96	1092.33
590.31	1093.97
590.66	1097.01
591.01	1097.01
591.36	1100.05
591.71	1109.88
592.06	1109.41
592.41	1110.12
592.76	1107.54
593.10	1109.88
593.45	1094.90
593.80	1086.24
594.15	1082.50
594.50	1073.84
594.85	1072.67
595.20	1080.63
595.55	1101.69
595.90	1117.84
596.25	1126.03
596.60	1122.29
596.95	1121.58
597.30	1116.67
597.64	1139.37
597.99	1135.39
598.34	1130.24
598.69	1125.56
599.04	1116.20
599.39	1086.48
599.74	1091.63
600.09	1094.43
600.44	1092.09
600.78	1095.14
601.13	1092.80
601.48	1086.94
601.83	1092.80
602.18	1095.14
602.53	1105.44
602.88	1104.73
603.22	1108.48
603.57	1104.03
603.92	1104.26
604.27	1091.39
604.62	1089.75
604.97	1088.82
605.31	1088.12
605.66	1093.03
606.01	1095.60
606.36	1099.58
606.71	1100.05
607.05	1101.92
607.40	1092.09
607.75	1090.69
608.10	1087.65
608.44	1082.03
608.79	1082.73
609.14	1099.58
609.49	1093.50
609.84	1098.41
610.18	1105.20
610.53	1107.07
610.88	1096.78
611.23	1104.73
611.57	1101.69
611.92	1099.58
612.27	1089.29
612.62	1090.46
612.96	1087.41
613.31	1082.97
613.66	1088.58
614.00	1090.69
614.35	1099.35
614.70	1098.65
615.05	1095.84
615.39	1099.58
615.74	1110.82
616.09	1100.75
616.43	1095.14
616.78	1102.86
617.13	1095.60
617.47	1092.09
617.82	1092.33
618.17	1099.35
618.51	1101.69
618.86	1090.22
619.21	1081.33
619.55	1077.82
619.90	1076.65
620.25	1068.45
620.59	1078.05
620.94	1075.24
621.29	1073.84
621.63	1073.37
621.98	1077.58
622.32	1082.26
622.67	1094.67
623.02	1103.33
623.36	1108.95
623.71	1107.78
624.05	1102.86
624.40	1104.73
624.75	1105.90
625.09	1100.75
625.44	1109.65
625.78	1107.07
626.13	1092.80
626.48	1091.86
626.82	1092.56
627.17	1087.41
627.51	1092.33
627.86	1092.56
628.20	1083.20
628.55	1078.99
628.89	1075.48
629.24	1077.35
629.58	1084.14
629.93	1097.95
630.28	1106.84
630.62	1111.52
630.97	1113.63
631.31	1106.14
631.66	1099.12
632.00	1098.41
632.35	1097.95
632.69	1094.90
633.04	1112.92
633.38	1109.88
633.73	1107.31
634.07	1115.50
634.42	1110.12
634.76	1098.41
635.11	1089.05
635.45	1092.80
635.79	1075.01
636.14	1083.90
636.48	1083.67
636.83	1088.82
637.17	1081.09
637.52	1081.09
637.86	1069.62
638.21	1076.41
638.55	1080.39
638.89	1081.80
639.24	1088.58
639.58	1094.90
639.93	1092.33
640.27	1090.46
640.61	1086.24
640.96	1087.65
641.30	1090.92
641.65	1084.14
641.99	1084.37
642.33	1089.75
642.68	1085.77
643.02	1072.90
643.37	1069.86
643.71	1072.43
644.05	1075.71
644.40	1072.20
644.74	1087.18
645.08	1091.16
645.43	1092.56
645.77	1088.58
646.11	1079.92
646.46	1080.39
646.80	1083.20
647.14	1075.71
647.49	1073.60
647.83	1091.86
648.17	1078.99
648.52	1079.22
648.86	1081.56
649.20	1082.03
649.55	1078.99
649.89	1084.84
650.23	1086.94
650.57	1087.88
650.92	1088.82
651.26	1088.82
651.60	1085.31
651.95	1084.84
652.29	1090.46
652.63	1094.90
652.97	1085.31
653.32	1081.09
653.66	1082.26
654.00	1089.99
654.34	1086.48
654.69	1098.65
655.03	1105.44
655.37	1104.73
655.71	1092.09
656.05	1075.71
656.40	1076.65
656.74	1084.60
657.08	1084.37
657.42	1087.18
657.76	1096.07
658.11	1081.09
658.45	1078.28
658.79	1086.24
659.13	1081.33
659.47	1094.90
659.82	1106.37
660.16	1103.56
660.50	1089.05
660.84	1095.84
661.18	1093.26
661.52	1086.48
661.87	1085.54
662.21	1090.22
662.55	1086.71
662.89	1085.31
663.23	1086.94
663.57	1087.41
663.91	1084.84
664.25	1084.60
664.60	1077.58
664.94	1080.16
665.28	1063.31
665.62	1062.84
665.96	1057.69
666.30	1066.58
666.64	1071.03
666.98	1085.07
667.32	1093.03
667.66	1090.22
668.01	1089.05
668.35	1075.01
668.69	1073.84
669.03	1075.48
669.37	1082.73
669.71	1081.56
670.05	1092.33
670.39	1095.14
670.73	1086.94
671.07	1092.33
671.41	1089.75
671.75	1098.18
672.09	1097.95
672.43	1093.03
672.77	1090.22
673.11	1093.03
673.45	1082.03
673.79	1081.09
674.13	1086.71
674.47	1083.67
674.81	1092.33
675.15	1095.14
675.49	1098.88
675.83	1093.03
676.17	1105.90
676.51	1086.71
676.85	1080.39
677.19	1078.75
677.53	1077.82
677.87	1068.22
678.21	1077.11
678.55	1084.14
678.89	1079.22
679.23	1088.35
679.57	1086.48
679.90	1079.22
680.24	1075.48
680.58	1077.82
680.92	1081.56
681.26	1078.28
681.60	1082.73
681.94	1087.41
682.28	1088.35
682.62	1087.65
682.96	1094.67
683.29	1097.01
683.63	1084.14
683.97	1076.88
684.31	1067.99
684.65	1065.65
684.99	1059.09
685.33	1069.39
685.67	1066.58
686.00	1072.43
686.34	1067.28
686.68	1074.54
687.02	1069.39
687.36	1076.88
687.70	1076.41
688.03	1091.86
688.37	1094.67
688.71	1098.88
689.05	1108.01
689.39	1108.71
689.72	1105.90
690.06	1094.67
690.40	1085.54
690.74	1086.24
691.08	1083.43
691.41	1077.11
691.75	1086.24
692.09	1096.78
692.43	1085.77
692.76	1093.03
693.10	1096.78
693.44	1095.14
693.78	1097.24
694.11	1100.52
694.45	1090.46
694.79	1082.50
695.13	1075.24
695.46	1068.92
695.80	1057.92
696.14	1053.71
696.48	1054.18
696.81	1063.31
697.15	1061.67
697.49	1068.22
697.82	1079.22
698.16	1076.65
698.50	1081.56
698.83	1076.41
699.17	1084.84
699.51	1078.28
699.84	1082.26
700.18	1065.88
700.52	1074.77
700.85	1068.92
701.19	1076.65
701.53	1068.45
701.86	1075.01
702.20	1078.99
702.54	1078.75
702.87	1075.01
703.21	1089.05
703.55	1092.56
703.88	1089.05
704.22	1082.50
704.55	1081.33
704.89	1062.14
705.23	1054.65
705.56	1058.86
705.90	1066.82
706.23	1062.60
706.57	1076.88
706.91	1070.09
707.24	1058.62
707.58	1060.73
707.91	1057.45
708.25	1064.48
708.58	1078.52
708.92	1088.58
709.26	1086.94
709.59	1093.50
709.93	1089.75
710.26	1079.92
710.60	1076.65
710.93	1068.92
711.27	1068.69
711.60	1063.07
711.94	1075.48
712.27	1074.07
712.61	1080.86
712.94	1082.73
713.28	1085.54
713.61	1083.20
713.95	1090.46
714.28	1096.54
714.62	1092.09
714.95	1096.31
715.29	1089.99
715.62	1087.41
715.96	1083.67
716.29	1089.75
716.63	1095.37
716.96	1102.16
717.29	1103.80
717.63	1097.71
717.96	1097.48
718.30	1093.50
718.63	1090.46
718.97	1089.05
719.30	1094.67
719.63	1098.41
719.97	1093.97
720.30	1093.03
720.64	1086.24
720.97	1075.48
721.30	1067.99
721.64	1057.92
721.97	1062.37
722.31	1064.24
722.64	1081.33
722.97	1088.58
723.31	1092.33
723.64	1083.67
723.97	1085.07
724.31	1079.69
724.64	1067.99
724.98	1067.75
725.31	1069.39
725.64	1064.94
725.98	1070.80
726.31	1082.03
726.64	1089.52
726.97	1092.09
727.31	1089.05
727.64	1077.11
727.97	1061.90
728.31	1058.86
728.64	1067.05
728.97	1077.82
729.31	1078.99
729.64	1086.94
729.97	1094.67
730.30	1085.54
730.64	1082.73
730.97	1091.86
731.30	1100.75
731.63	1084.14
731.97	1084.37
732.30	1090.22
732.63	1089.75
732.96	1082.50
733.30	1094.20
733.63	1097.24
733.96	1087.18
734.29	1087.65
734.63	1083.67
734.96	1076.18
735.29	1079.69
735.62	1089.05
735.95	1081.09
736.29	1081.09
736.62	1094.43
736.95	1081.80
737.28	1078.28
737.61	1075.48
737.94	1079.92
738.28	1069.39
738.61	1073.60
738.94	1080.63
739.27	1085.31
739.60	1082.26
739.93	1088.35
740.27	1093.50
740.60	1088.35
740.93	1083.43
741.26	1089.29
741.59	1085.31
741.92	1091.16
742.25	1094.90
742.58	1104.50
742.91	1090.22
743.25	1091.86
743.58	1093.26
743.91	1082.97
744.24	1074.77
744.57	1077.35
744.90	1073.14
745.23	1062.60
745.56	1066.11
745.89	1061.90
746.22	1071.50
746.55	1084.37
746.88	1086.01
747.21	1088.82
747.54	1090.92
747.87	1093.50
748.20	1075.48
748.53	1072.43
748.87	1064.48
749.20	1063.07
749.53	1057.45
749.86	1058.39
750.19	1061.20
750.52	1056.99
750.85	1069.39
751.18	1078.28
751.51	1085.54
751.84	1081.33
752.16	1084.84
752.49	1072.67
752.82	1058.86
753.15	1055.11
753.48	1063.07
753.81	1067.99
754.14	1076.88
754.47	1084.60
754.80	1086.24
755.13	1087.18
755.46	1087.41
755.79	1093.50
756.12	1098.41
756.45	1096.54
756.78	1091.39
757.11	1097.01
757.43	1091.86
757.76	1082.73
758.09	1088.35
758.42	1089.05
758.75	1074.31
759.08	1067.75
759.41	1074.31
759.74	1068.22
760.07	1070.09
760.39	1088.12
760.72	1094.20
761.05	1087.41
761.38	1083.90
761.71	1082.97
762.04	1064.01
762.36	1061.90
762.69	1069.39
763.02	1078.05
763.35	1068.92
763.68	1080.16
764.01	1075.24
764.33	1081.80
