SpectraSuite Data File
++++++++++++++++++++++++++++++++++++
Date: Mon Aug 26 10:24:35 PDT 2019
User: corrico
Dark Spectrum Present: No
Reference Spectrum Present: No
Number of Sampled Component Spectra: 1
Spectrometers: USB2+H06089
Integration Time (usec): 10000 (USB2+H06089)
Spectra Averaged: 2 (USB2+H06089)
Boxcar Smoothing: 2 (USB2+H06089)
Correct for Electrical Dark: No (USB2+H06089)
Strobe/Lamp Enabled: No (USB2+H06089)
Correct for Detector Non-linearity: No (USB2+H06089)
Correct for Stray Light: No (USB2+H06089)
Number of Pixels in Processed Spectrum: 2048
>>>>>Begin Processed Spectral Data<<<<<
339.70	1080.16
340.07	1080.16
340.45	1026.79
340.82	992.39
341.19	963.83
341.57	927.09
341.94	919.60
342.31	908.83
342.69	902.28
343.06	891.98
343.43	895.96
343.81	890.34
344.18	899.23
344.55	911.64
344.93	918.89
345.30	926.62
345.67	940.90
346.04	950.49
346.42	959.15
346.79	971.56
347.16	970.85
347.54	979.98
347.91	988.88
348.28	987.00
348.65	988.17
349.03	1006.90
349.40	1008.07
349.77	1010.88
350.14	1028.43
350.52	1040.60
350.89	1047.62
351.26	1059.09
351.63	1068.92
352.01	1077.35
352.38	1078.28
352.75	1068.69
353.12	1066.82
353.50	1068.92
353.87	1064.48
354.24	1081.80
354.61	1097.71
354.98	1100.05
355.36	1115.97
355.73	1115.03
356.10	1105.67
356.47	1106.37
356.84	1107.78
357.22	1086.71
357.59	1092.56
357.96	1102.63
358.33	1101.69
358.70	1099.58
359.08	1109.41
359.45	1109.18
359.82	1096.54
360.19	1095.60
360.56	1089.05
360.94	1081.56
361.31	1078.75
361.68	1075.24
362.05	1079.69
362.42	1088.12
362.79	1080.16
363.16	1073.14
363.54	1076.18
363.91	1068.45
364.28	1068.45
364.65	1080.16
365.02	1087.41
365.39	1094.43
365.76	1098.65
366.14	1090.69
366.51	1092.56
366.88	1089.05
367.25	1085.31
367.62	1084.14
367.99	1094.90
368.36	1101.22
368.73	1103.33
369.10	1102.16
369.48	1101.46
369.85	1104.50
370.22	1100.52
370.59	1094.90
370.96	1091.39
371.33	1088.58
371.70	1084.84
372.07	1093.50
372.44	1101.22
372.81	1106.37
373.18	1105.20
373.55	1108.71
373.93	1100.29
374.30	1101.22
374.67	1102.86
375.04	1111.52
375.41	1108.95
375.78	1108.95
376.15	1108.01
376.52	1104.03
376.89	1117.14
377.26	1117.61
377.63	1122.52
378.00	1132.82
378.37	1137.97
378.74	1123.69
379.11	1125.80
379.48	1119.48
379.85	1115.27
380.22	1117.14
380.59	1113.16
380.96	1115.73
381.33	1124.39
381.70	1122.99
382.07	1117.84
382.44	1123.22
382.81	1120.65
383.18	1112.92
383.55	1106.14
383.92	1106.14
384.29	1099.58
384.66	1093.03
385.03	1097.01
385.40	1104.03
385.77	1104.50
386.14	1097.24
386.51	1096.31
386.88	1099.58
387.25	1099.58
387.62	1106.14
387.99	1120.41
388.36	1136.56
388.73	1132.12
389.10	1131.41
389.46	1131.18
389.83	1130.01
390.20	1127.90
390.57	1127.44
390.94	1128.84
391.31	1120.65
391.68	1122.99
392.05	1120.88
392.42	1118.78
392.79	1113.86
393.16	1127.20
393.53	1132.59
393.89	1129.07
394.26	1132.82
394.63	1142.42
395.00	1149.44
395.37	1143.59
395.74	1145.69
396.11	1153.65
396.48	1155.29
396.84	1149.44
397.21	1153.88
397.58	1155.29
397.95	1152.48
398.32	1142.18
398.69	1141.71
399.06	1147.33
399.42	1155.29
399.79	1149.91
400.16	1163.48
400.53	1165.12
400.90	1165.59
401.27	1167.23
401.64	1163.95
402.00	1165.35
402.37	1172.37
402.74	1182.91
403.11	1200.23
403.48	1223.16
403.84	1243.99
404.21	1252.19
404.58	1239.55
404.95	1245.17
405.32	1265.29
405.68	1262.95
406.05	1274.66
406.42	1310.47
406.79	1333.17
407.16	1351.43
407.52	1387.70
407.89	1414.39
408.26	1447.15
408.63	1482.96
408.99	1511.52
409.36	1552.48
409.73	1592.50
410.10	1639.78
410.47	1682.61
410.83	1739.25
411.20	1776.23
411.57	1838.26
411.94	1881.79
412.30	1941.24
412.67	2007.95
413.04	2085.42
413.40	2157.74
413.77	2251.60
414.14	2347.79
414.51	2455.69
414.87	2572.48
415.24	2692.32
415.61	2815.90
415.97	2933.86
416.34	3064.46
416.71	3199.04
417.08	3345.09
417.44	3507.29
417.81	3701.32
418.18	3873.12
418.54	4072.53
418.91	4304.48
419.28	4532.45
419.64	4760.42
420.01	5030.98
420.38	5314.65
420.74	5601.37
421.11	5929.51
421.48	6233.31
421.84	6571.99
422.21	6912.54
422.58	7325.17
422.94	7761.68
423.31	8209.19
423.68	8667.00
424.04	9205.80
424.41	9642.54
424.77	10111.82
425.14	10611.29
425.51	11134.86
425.87	11704.32
426.24	12318.47
426.61	12997.46
426.97	13796.99
427.34	14592.77
427.70	15434.66
428.07	16314.70
428.44	17242.73
428.80	18146.88
429.17	19027.62
429.53	19871.15
429.90	20883.43
430.27	21772.83
430.63	22675.11
431.00	23742.16
431.36	24832.15
431.73	25804.64
432.09	26839.63
432.46	27937.10
432.83	29001.58
433.19	30063.48
433.56	31216.43
433.92	32453.40
434.29	33521.39
434.65	34659.82
435.02	35696.91
435.38	36749.69
435.75	37444.59
436.11	38439.79
436.48	39210.76
436.84	40182.32
437.21	40978.10
437.57	41747.20
437.94	42265.63
438.30	42759.48
438.67	42943.45
439.03	43045.49
439.40	43242.57
439.76	43269.72
440.13	43170.25
440.49	42989.56
440.86	42549.07
441.22	42189.79
441.59	41669.96
441.95	41145.68
442.32	40482.61
442.68	40019.65
443.05	39247.51
443.41	38489.64
443.78	37570.05
444.14	36668.24
444.51	35677.49
444.87	34947.47
445.24	34029.05
445.60	33183.88
445.96	32262.41
446.33	31327.60
446.69	30132.99
447.06	29304.44
447.42	28466.30
447.79	27626.51
448.15	26933.01
448.51	26257.77
448.88	25488.20
449.24	24666.67
449.61	24088.33
449.97	23454.04
450.33	22878.97
450.70	22217.30
451.06	21676.87
451.43	21010.76
451.79	20416.02
452.15	19850.32
452.52	19332.59
452.88	18829.38
453.24	18409.02
453.61	17926.87
453.97	17413.35
454.34	16948.29
454.70	16530.50
455.06	16060.52
455.43	15530.86
455.79	15009.86
456.15	14577.32
456.52	14051.87
456.88	13619.34
457.24	13242.99
457.61	12916.71
457.97	12475.29
458.33	12105.95
458.70	11665.70
459.06	11160.14
459.42	10748.21
459.79	10363.89
460.15	10007.90
460.51	9679.99
460.88	9424.64
461.24	9111.24
461.60	8844.18
461.96	8558.64
462.33	8303.99
462.69	8017.97
463.05	7762.39
463.42	7540.50
463.78	7328.92
464.14	7128.57
464.50	6979.24
464.87	6824.77
465.23	6615.99
465.59	6446.77
465.95	6263.27
466.32	6064.80
466.68	5887.38
467.04	5724.72
467.40	5573.99
467.77	5427.47
468.13	5313.02
468.49	5178.20
468.85	5081.54
469.22	4990.96
469.58	4896.63
469.94	4797.63
470.30	4727.18
470.66	4623.96
471.03	4503.89
471.39	4403.02
471.75	4291.37
472.11	4165.22
472.47	4094.07
472.84	4026.19
473.20	3945.91
473.56	3892.31
473.92	3825.84
474.28	3762.18
474.65	3680.73
475.01	3609.34
475.37	3520.40
475.73	3453.93
476.09	3378.10
476.45	3326.37
476.81	3263.88
477.18	3186.64
477.54	3138.66
477.90	3082.49
478.26	3016.48
478.62	2966.16
478.98	2950.25
479.34	2912.33
479.71	2863.41
480.07	2805.60
480.43	2774.47
480.79	2713.85
481.15	2674.30
481.51	2622.57
481.87	2600.34
482.23	2557.27
482.59	2524.27
482.96	2480.97
483.32	2470.20
483.68	2438.37
484.04	2416.60
484.40	2383.37
484.76	2361.37
485.12	2326.73
485.48	2282.26
485.84	2245.28
486.20	2216.25
486.56	2170.14
486.92	2157.97
487.28	2137.85
487.64	2109.99
488.00	2084.72
488.37	2075.82
488.73	2025.27
489.09	1985.24
489.45	1965.35
489.81	1953.65
490.17	1907.07
490.53	1901.92
490.89	1883.90
491.25	1860.02
491.61	1843.17
491.97	1816.49
492.33	1784.66
492.69	1777.87
493.05	1755.64
493.41	1725.44
493.77	1724.04
494.13	1701.10
494.49	1678.87
494.85	1658.74
495.21	1647.03
495.57	1623.40
495.93	1609.59
496.29	1594.14
496.64	1584.78
497.00	1564.88
497.36	1556.92
497.72	1542.41
498.08	1530.24
498.44	1520.41
498.80	1503.09
499.16	1495.37
499.52	1495.60
499.88	1476.88
500.24	1452.77
500.60	1441.54
500.96	1431.00
501.32	1412.28
501.68	1410.87
502.03	1406.43
502.39	1394.02
502.75	1379.28
503.11	1363.83
503.47	1349.08
503.83	1346.98
504.19	1344.17
504.55	1338.08
504.91	1338.79
505.26	1344.17
505.62	1326.38
505.98	1307.42
506.34	1304.38
506.70	1308.59
507.06	1291.74
507.42	1286.12
507.78	1292.21
508.13	1285.19
508.49	1271.85
508.85	1269.97
509.21	1271.61
509.57	1274.19
509.93	1276.76
510.28	1271.14
510.64	1267.17
511.00	1253.36
511.36	1241.89
511.72	1233.70
512.07	1236.04
512.43	1231.12
512.79	1230.19
513.15	1224.57
513.51	1219.19
513.86	1205.38
514.22	1202.10
514.58	1209.12
514.94	1208.18
515.30	1199.06
515.65	1206.78
516.01	1203.27
516.37	1191.33
516.73	1189.93
517.08	1198.82
517.44	1200.46
517.80	1204.44
518.16	1209.35
518.51	1204.44
518.87	1198.59
519.23	1180.80
519.59	1168.86
519.94	1153.42
520.30	1148.50
520.66	1148.73
521.01	1152.95
521.37	1161.84
521.73	1170.97
522.09	1178.69
522.44	1174.95
522.80	1170.03
523.16	1171.67
523.51	1176.59
523.87	1164.18
524.23	1158.57
524.58	1159.27
524.94	1157.86
525.30	1155.29
525.65	1173.08
526.01	1169.10
526.37	1166.52
526.72	1158.33
527.08	1150.37
527.44	1138.20
527.79	1150.14
528.15	1151.78
528.51	1148.73
528.86	1151.54
529.22	1154.12
529.58	1147.56
529.93	1147.56
530.29	1141.71
530.65	1142.88
531.00	1130.95
531.36	1122.05
531.71	1117.84
532.07	1121.12
532.43	1110.82
532.78	1111.99
533.14	1111.99
533.49	1105.67
533.85	1106.84
534.21	1118.54
534.56	1128.14
534.92	1130.48
535.27	1137.27
535.63	1140.54
535.98	1135.16
536.34	1130.24
536.69	1136.56
537.05	1134.46
537.41	1130.71
537.76	1131.65
538.12	1130.48
538.47	1124.86
538.83	1118.31
539.18	1115.97
539.54	1108.01
539.89	1108.24
540.25	1110.12
540.60	1111.29
540.96	1113.16
541.31	1122.52
541.67	1125.80
542.02	1136.10
542.38	1146.39
542.73	1139.14
543.09	1135.63
543.44	1130.48
543.80	1123.93
544.15	1118.07
544.51	1116.20
544.86	1112.22
545.22	1111.05
545.57	1104.97
545.93	1100.05
546.28	1098.18
546.64	1097.95
546.99	1095.37
547.35	1098.65
547.70	1095.14
548.05	1104.26
548.41	1103.09
548.76	1105.20
549.12	1088.82
549.47	1089.29
549.83	1092.33
550.18	1097.71
550.53	1104.26
550.89	1123.22
551.24	1126.50
551.60	1118.54
551.95	1124.16
552.30	1118.07
552.66	1116.20
553.01	1117.84
553.37	1129.54
553.72	1118.31
554.07	1121.58
554.43	1122.75
554.78	1122.05
555.13	1121.82
555.49	1131.41
555.84	1129.54
556.19	1130.95
556.55	1127.20
556.90	1124.39
557.26	1113.39
557.61	1106.14
557.96	1098.65
558.32	1107.07
558.67	1100.99
559.02	1099.82
559.37	1117.37
559.73	1123.22
560.08	1117.61
560.43	1121.82
560.79	1125.56
561.14	1112.69
561.49	1111.75
561.85	1117.61
562.20	1113.86
562.55	1117.14
562.90	1119.24
563.26	1113.86
563.61	1119.24
563.96	1111.05
564.32	1107.07
564.67	1108.24
565.02	1097.24
565.37	1084.84
565.73	1086.94
566.08	1081.80
566.43	1077.58
566.78	1079.69
567.14	1084.37
567.49	1085.07
567.84	1098.88
568.19	1097.95
568.54	1105.67
568.90	1100.52
569.25	1107.54
569.60	1099.82
569.95	1102.63
570.31	1101.46
570.66	1098.88
571.01	1097.48
571.36	1094.90
571.71	1098.18
572.06	1104.26
572.42	1114.33
572.77	1116.44
573.12	1119.24
573.47	1111.05
573.82	1102.16
574.18	1098.18
574.53	1094.67
574.88	1092.56
575.23	1091.63
575.58	1098.88
575.93	1094.90
576.28	1094.67
576.64	1092.09
576.99	1102.86
577.34	1104.26
577.69	1109.41
578.04	1097.01
578.39	1108.01
578.74	1100.52
579.09	1106.61
579.44	1111.52
579.80	1121.58
580.15	1109.88
580.50	1114.33
580.85	1106.37
581.20	1099.35
581.55	1095.14
581.90	1098.41
582.25	1096.07
582.60	1091.86
582.95	1098.18
583.30	1096.78
583.65	1094.20
584.00	1095.37
584.35	1100.05
584.71	1100.29
585.06	1110.58
585.41	1119.71
585.76	1120.88
586.11	1119.48
586.46	1113.39
586.81	1113.39
587.16	1111.05
587.51	1108.48
587.86	1102.86
588.21	1102.63
588.56	1095.60
588.91	1090.22
589.26	1091.16
589.61	1093.26
589.96	1085.54
590.31	1082.03
590.66	1078.05
591.01	1074.31
591.36	1077.11
591.71	1095.37
592.06	1102.39
592.41	1100.75
592.76	1099.82
593.10	1098.18
593.45	1090.69
593.80	1090.46
594.15	1092.33
594.50	1091.86
594.85	1092.33
595.20	1093.97
595.55	1096.54
595.90	1100.29
596.25	1106.37
596.60	1108.71
596.95	1103.09
597.30	1087.65
597.64	1132.82
597.99	1127.44
598.34	1121.58
598.69	1123.22
599.04	1136.80
599.39	1084.14
599.74	1085.77
600.09	1093.26
600.44	1089.99
600.78	1093.50
601.13	1100.05
601.48	1098.65
601.83	1089.99
602.18	1088.35
602.53	1077.82
602.88	1073.60
603.22	1069.16
603.57	1071.26
603.92	1081.09
604.27	1088.12
604.62	1089.99
604.97	1090.46
605.31	1087.18
605.66	1083.67
606.01	1086.48
606.36	1091.86
606.71	1095.14
607.05	1101.22
607.40	1099.82
607.75	1092.33
608.10	1094.43
608.44	1097.71
608.79	1090.46
609.14	1092.56
609.49	1089.52
609.84	1089.99
610.18	1091.63
610.53	1099.82
610.88	1098.18
611.23	1107.78
611.57	1105.20
611.92	1104.26
612.27	1109.18
612.62	1113.86
612.96	1109.41
613.31	1108.71
613.66	1101.69
614.00	1100.99
614.35	1093.26
614.70	1094.43
615.05	1089.99
615.39	1100.29
615.74	1090.22
616.09	1097.95
616.43	1099.82
616.78	1108.95
617.13	1098.65
617.47	1101.92
617.82	1090.22
618.17	1084.37
618.51	1077.11
618.86	1080.86
619.21	1087.88
619.55	1088.82
619.90	1094.43
620.25	1097.95
620.59	1106.37
620.94	1100.99
621.29	1110.12
621.63	1118.78
621.98	1122.99
622.32	1118.07
622.67	1121.82
623.02	1116.20
623.36	1104.03
623.71	1098.88
624.05	1097.95
624.40	1092.09
624.75	1083.90
625.09	1101.22
625.44	1094.67
625.78	1084.14
626.13	1082.50
626.48	1089.75
626.82	1072.20
627.17	1077.35
627.51	1084.14
627.86	1086.01
628.20	1082.26
628.55	1079.22
628.89	1075.94
629.24	1079.46
629.58	1077.35
629.93	1083.20
630.28	1079.46
630.62	1087.88
630.97	1092.56
631.31	1096.31
631.66	1099.58
632.00	1103.56
632.35	1100.05
632.69	1090.22
633.04	1088.35
633.38	1086.24
633.73	1093.03
634.07	1101.92
634.42	1110.35
634.76	1111.05
635.11	1106.84
635.45	1097.95
635.79	1079.92
636.14	1064.24
636.48	1062.14
636.83	1060.26
637.17	1069.86
637.52	1077.11
637.86	1089.75
638.21	1097.48
638.55	1095.84
638.89	1082.97
639.24	1073.14
639.58	1071.97
639.93	1058.86
640.27	1069.86
640.61	1083.90
640.96	1103.33
641.30	1097.01
641.65	1100.52
641.99	1101.22
642.33	1091.63
642.68	1078.99
643.02	1078.05
643.37	1079.46
643.71	1073.60
644.05	1081.09
644.40	1081.09
644.74	1086.94
645.08	1079.22
645.43	1079.46
645.77	1070.33
646.11	1074.07
646.46	1072.90
646.80	1080.63
647.14	1084.60
647.49	1102.63
647.83	1099.12
648.17	1105.90
648.52	1100.05
648.86	1103.09
649.20	1097.01
649.55	1100.05
649.89	1101.92
650.23	1104.26
650.57	1096.78
650.92	1101.46
651.26	1098.41
651.60	1093.03
651.95	1104.50
652.29	1108.48
652.63	1102.86
652.97	1108.01
653.32	1104.73
653.66	1101.69
654.00	1106.61
654.34	1104.03
654.69	1097.01
655.03	1098.18
655.37	1097.24
655.71	1083.90
656.05	1088.35
656.40	1099.58
656.74	1100.99
657.08	1089.75
657.42	1093.03
657.76	1081.80
658.11	1075.24
658.45	1077.82
658.79	1076.65
659.13	1078.28
659.47	1081.80
659.82	1080.86
660.16	1077.35
660.50	1084.37
660.84	1067.99
661.18	1065.65
661.52	1066.35
661.87	1067.75
662.21	1070.80
662.55	1084.84
662.89	1088.58
663.23	1088.58
663.57	1092.09
663.91	1088.82
664.25	1088.82
664.60	1089.05
664.94	1094.43
665.28	1086.71
665.62	1085.31
665.96	1097.24
666.30	1099.58
666.64	1102.39
666.98	1106.14
667.32	1102.86
667.66	1103.33
668.01	1104.26
668.35	1098.88
668.69	1097.71
669.03	1104.73
669.37	1097.24
669.71	1093.97
670.05	1089.05
670.39	1087.88
670.73	1088.12
671.07	1083.43
671.41	1088.58
671.75	1094.20
672.09	1094.20
672.43	1097.01
672.77	1099.82
673.11	1086.24
673.45	1083.67
673.79	1082.97
674.13	1076.65
674.47	1068.45
674.81	1074.77
675.15	1063.77
675.49	1060.50
675.83	1067.05
676.17	1071.97
676.51	1066.35
676.85	1073.84
677.19	1076.41
677.53	1071.03
677.87	1065.65
678.21	1066.11
678.55	1075.24
678.89	1075.01
679.23	1075.48
679.57	1072.90
679.90	1083.20
680.24	1086.71
680.58	1086.01
680.92	1080.16
681.26	1083.20
681.60	1080.39
681.94	1073.60
682.28	1071.26
682.62	1073.14
682.96	1082.26
683.29	1083.67
683.63	1087.65
683.97	1090.46
684.31	1093.03
684.65	1093.03
684.99	1091.86
685.33	1083.43
685.67	1091.86
686.00	1092.80
686.34	1088.82
686.68	1085.07
687.02	1083.90
687.36	1071.97
687.70	1085.77
688.03	1089.05
688.37	1090.92
688.71	1084.60
689.05	1091.86
689.39	1075.24
689.72	1071.73
690.06	1072.90
690.40	1081.56
690.74	1080.16
691.08	1082.97
691.41	1085.77
691.75	1088.12
692.09	1089.05
692.43	1083.67
692.76	1084.14
693.10	1086.94
693.44	1082.50
693.78	1089.29
694.11	1086.94
694.45	1079.22
694.79	1076.65
695.13	1077.82
695.46	1067.52
695.80	1081.56
696.14	1095.60
696.48	1092.80
696.81	1091.63
697.15	1099.12
697.49	1093.50
697.82	1083.90
698.16	1083.43
698.50	1080.86
698.83	1078.99
699.17	1088.12
699.51	1097.24
699.84	1095.60
700.18	1102.86
700.52	1107.54
700.85	1092.80
701.19	1090.69
701.53	1096.31
701.86	1093.50
702.20	1089.75
702.54	1112.46
702.87	1112.69
703.21	1104.97
703.55	1101.22
703.88	1098.18
704.22	1081.09
704.55	1083.90
704.89	1086.48
705.23	1090.46
705.56	1094.67
705.90	1095.84
706.23	1085.54
706.57	1083.90
706.91	1079.22
707.24	1076.18
707.58	1078.05
707.91	1082.73
708.25	1080.39
708.58	1077.58
708.92	1075.94
709.26	1068.22
709.59	1066.58
709.93	1074.77
710.26	1082.97
710.60	1079.22
710.93	1081.09
711.27	1082.97
711.60	1082.97
711.94	1078.52
712.27	1092.09
712.61	1099.35
712.94	1097.01
713.28	1101.92
713.61	1104.97
713.95	1086.01
714.28	1081.56
714.62	1077.11
714.95	1067.75
715.29	1072.90
715.62	1082.97
715.96	1076.41
716.29	1093.73
716.63	1092.09
716.96	1089.29
717.29	1086.01
717.63	1087.41
717.96	1070.09
718.30	1075.71
718.63	1080.86
718.97	1083.43
719.30	1092.33
719.63	1089.52
719.97	1089.99
720.30	1077.82
720.64	1075.94
720.97	1067.28
721.30	1095.84
721.64	1101.69
721.97	1110.82
722.31	1114.56
722.64	1119.24
722.97	1095.60
723.31	1083.43
723.64	1080.16
723.97	1077.35
724.31	1073.37
724.64	1074.54
724.98	1079.22
725.31	1074.77
725.64	1078.28
725.98	1086.71
726.31	1092.80
726.64	1083.67
726.97	1073.84
727.31	1067.75
727.64	1057.69
727.97	1043.64
728.31	1065.88
728.64	1080.63
728.97	1084.14
729.31	1094.67
729.64	1102.39
729.97	1086.24
730.30	1074.31
730.64	1081.33
730.97	1080.63
731.30	1083.90
731.63	1087.88
731.97	1105.44
732.30	1094.90
732.63	1086.94
732.96	1093.97
733.30	1093.50
733.63	1090.92
733.96	1083.90
734.29	1079.92
734.63	1070.33
734.96	1072.43
735.29	1073.37
735.62	1087.88
735.95	1101.92
736.29	1097.24
736.62	1093.97
736.95	1093.26
737.28	1093.73
737.61	1084.60
737.94	1096.54
738.28	1092.56
738.61	1090.69
738.94	1084.84
739.27	1082.50
739.60	1070.80
739.93	1070.56
740.27	1069.86
740.60	1078.05
740.93	1093.73
741.26	1099.35
741.59	1119.01
741.92	1106.37
742.25	1105.20
742.58	1093.50
742.91	1097.71
743.25	1074.31
743.58	1086.94
743.91	1088.35
744.24	1088.35
744.57	1085.31
744.90	1090.22
745.23	1086.71
745.56	1075.24
745.89	1086.48
746.22	1086.24
746.55	1088.35
746.88	1092.09
747.21	1099.82
747.54	1087.88
747.87	1090.22
748.20	1081.33
748.53	1069.86
748.87	1065.88
749.20	1068.92
749.53	1072.67
749.86	1077.82
750.19	1088.35
750.52	1084.84
750.85	1082.97
751.18	1071.73
751.51	1077.58
751.84	1081.56
752.16	1080.86
752.49	1075.48
752.82	1078.28
753.15	1071.50
753.48	1065.65
753.81	1067.75
754.14	1060.50
754.47	1056.75
754.80	1074.54
755.13	1072.43
755.46	1072.67
755.79	1074.07
756.12	1081.09
756.45	1069.86
756.78	1071.97
757.11	1067.99
757.43	1083.20
757.76	1078.05
758.09	1073.14
758.42	1067.99
758.75	1076.41
759.08	1075.94
759.41	1075.94
759.74	1080.86
760.07	1086.94
760.39	1088.58
760.72	1081.09
761.05	1079.46
761.38	1076.41
761.71	1074.54
762.04	1065.88
762.36	1069.16
762.69	1072.90
763.02	1075.94
763.35	1071.50
763.68	1070.80
764.01	1080.16
764.33	1077.11
