SpectraSuite Data File
++++++++++++++++++++++++++++++++++++
Date: Mon Aug 26 10:24:36 PDT 2019
User: corrico
Dark Spectrum Present: No
Reference Spectrum Present: No
Number of Sampled Component Spectra: 1
Spectrometers: USB2+H06089
Integration Time (usec): 10000 (USB2+H06089)
Spectra Averaged: 2 (USB2+H06089)
Boxcar Smoothing: 2 (USB2+H06089)
Correct for Electrical Dark: No (USB2+H06089)
Strobe/Lamp Enabled: No (USB2+H06089)
Correct for Detector Non-linearity: No (USB2+H06089)
Correct for Stray Light: No (USB2+H06089)
Number of Pixels in Processed Spectrum: 2048
>>>>>Begin Processed Spectral Data<<<<<
339.70	1015.79
340.07	1015.79
340.45	989.81
340.82	969.92
341.19	954.24
341.57	930.83
341.94	919.13
342.31	909.06
342.69	906.26
343.06	898.53
343.43	898.30
343.81	895.96
344.18	902.74
344.55	903.91
344.93	914.68
345.30	918.66
345.67	926.38
346.04	929.89
346.42	941.13
346.79	944.41
347.16	966.64
347.54	977.64
347.91	992.62
348.28	996.83
348.65	1002.22
349.03	994.73
349.40	988.64
349.77	992.86
350.14	1007.13
350.52	1022.35
350.89	1036.62
351.26	1055.35
351.63	1058.16
352.01	1060.26
352.38	1059.79
352.75	1059.33
353.12	1059.79
353.50	1071.03
353.87	1081.80
354.24	1086.01
354.61	1089.99
354.98	1101.92
355.36	1103.09
355.73	1094.43
356.10	1093.03
356.47	1091.63
356.84	1087.18
357.22	1086.71
357.59	1091.86
357.96	1095.14
358.33	1107.31
358.70	1105.67
359.08	1100.99
359.45	1102.86
359.82	1100.05
360.19	1101.69
360.56	1107.54
360.94	1114.56
361.31	1099.82
361.68	1092.56
362.05	1081.80
362.42	1077.58
362.79	1065.18
363.16	1072.67
363.54	1078.28
363.91	1087.18
364.28	1090.69
364.65	1096.07
365.02	1098.41
365.39	1106.61
365.76	1091.63
366.14	1081.56
366.51	1076.41
366.88	1072.20
367.25	1063.07
367.62	1071.03
367.99	1073.37
368.36	1085.07
368.73	1088.12
369.10	1087.41
369.48	1091.86
369.85	1101.22
370.22	1095.84
370.59	1090.69
370.96	1094.43
371.33	1081.09
371.70	1078.99
372.07	1084.14
372.44	1100.99
372.81	1103.33
373.18	1114.33
373.55	1111.29
373.93	1105.90
374.30	1101.22
374.67	1101.22
375.04	1103.09
375.41	1104.73
375.78	1113.39
376.15	1108.48
376.52	1115.27
376.89	1116.67
377.26	1116.67
377.63	1111.05
378.00	1114.10
378.37	1104.03
378.74	1094.20
379.11	1089.75
379.48	1088.58
379.85	1093.03
380.22	1102.86
380.59	1114.56
380.96	1120.88
381.33	1117.61
381.70	1114.56
382.07	1112.22
382.44	1103.80
382.81	1099.12
383.18	1104.73
383.55	1100.05
383.92	1104.73
384.29	1113.63
384.66	1113.86
385.03	1117.61
385.40	1115.50
385.77	1116.44
386.14	1115.27
386.51	1112.46
386.88	1114.10
387.25	1123.46
387.62	1115.27
387.99	1113.86
388.36	1125.33
388.73	1112.92
389.10	1110.35
389.46	1111.52
389.83	1108.48
390.20	1102.86
390.57	1106.84
390.94	1102.16
391.31	1095.37
391.68	1098.41
392.05	1097.01
392.42	1098.65
392.79	1107.31
393.16	1108.24
393.53	1108.71
393.89	1122.05
394.26	1117.61
394.63	1105.67
395.00	1116.44
395.37	1114.80
395.74	1111.05
396.11	1122.29
396.48	1137.73
396.84	1129.07
397.21	1132.12
397.58	1132.12
397.95	1143.12
398.32	1140.31
398.69	1150.84
399.06	1168.63
399.42	1172.84
399.79	1163.95
400.16	1175.42
400.53	1184.31
400.90	1170.27
401.27	1168.86
401.64	1173.31
402.00	1172.84
402.37	1175.18
402.74	1191.80
403.11	1203.97
403.48	1221.53
403.84	1231.36
404.21	1247.04
404.58	1249.61
404.95	1261.78
405.32	1273.02
405.68	1308.83
406.05	1328.02
406.42	1350.26
406.79	1369.45
407.16	1387.70
407.52	1385.83
407.89	1413.92
408.26	1442.47
408.63	1473.37
408.99	1517.14
409.36	1558.80
409.73	1580.10
410.10	1625.97
410.47	1656.63
410.83	1685.89
411.20	1736.68
411.57	1798.47
411.94	1859.56
412.30	1927.90
412.67	2006.31
413.04	2066.46
413.40	2143.23
413.77	2212.98
414.14	2302.85
414.51	2391.33
414.87	2509.52
415.24	2626.08
415.61	2749.90
415.97	2880.03
416.34	3020.70
416.71	3171.43
417.08	3329.18
417.44	3498.40
417.81	3678.15
418.18	3853.22
418.54	4039.76
418.91	4233.33
419.28	4458.25
419.64	4708.92
420.01	4977.15
420.38	5253.33
420.74	5539.81
421.11	5842.21
421.48	6166.61
421.84	6504.82
422.21	6837.64
422.58	7221.72
422.94	7629.21
423.31	8013.99
423.68	8460.57
424.04	8947.87
424.41	9434.70
424.77	9896.72
425.14	10417.49
425.51	10928.66
425.87	11516.14
426.24	12121.87
426.61	12803.43
426.97	13573.94
427.34	14323.14
427.70	15150.76
428.07	15930.15
428.44	16745.13
428.80	17598.49
429.17	18501.70
429.53	19319.95
429.90	20370.62
430.27	21253.47
430.63	22158.55
431.00	23206.18
431.36	24355.61
431.73	25237.53
432.09	26284.68
432.46	27321.78
432.83	28291.23
433.19	29165.18
433.56	30406.13
433.92	31713.56
434.29	32831.16
434.65	34035.60
435.02	35183.64
435.38	36127.10
435.75	36811.48
436.11	37898.19
436.48	38685.54
436.84	39491.63
437.21	40283.43
437.57	41148.96
437.94	41689.39
438.30	42388.27
438.67	42813.31
439.03	43038.47
439.40	43265.74
439.76	43210.97
440.13	42894.06
440.49	42819.63
440.86	42418.70
441.22	42062.47
441.59	41647.02
441.95	41192.02
442.32	40432.52
442.68	39949.67
443.05	39109.65
443.41	38292.57
443.78	37435.93
444.14	36651.62
444.51	35616.87
444.87	34820.62
445.24	33802.25
445.60	32853.63
445.96	31825.90
446.33	31088.87
446.69	30097.88
447.06	29363.19
447.42	28534.64
447.79	27655.30
448.15	26809.20
448.51	25999.61
448.88	25261.64
449.24	24439.17
449.61	23852.17
449.97	23159.60
450.33	22540.53
450.70	21856.86
451.06	21408.65
451.43	20800.11
451.79	20391.68
452.15	19964.77
452.52	19509.54
452.88	19017.32
453.24	18615.45
453.61	18061.91
453.97	17557.06
454.34	17031.84
454.70	16569.59
455.06	16102.42
455.43	15557.54
455.79	14969.60
456.15	14540.58
456.52	14024.02
456.88	13607.41
457.24	13151.24
457.61	12809.99
457.97	12409.05
458.33	12004.37
458.70	11524.80
459.06	11124.57
459.42	10758.74
459.79	10358.27
460.15	10037.62
460.51	9721.18
460.88	9427.68
461.24	9090.41
461.60	8783.33
461.96	8488.65
462.33	8215.28
462.69	7949.40
463.05	7695.21
463.42	7498.37
463.78	7270.41
464.14	7032.84
464.50	6863.15
464.87	6673.80
465.23	6482.58
465.59	6327.87
465.95	6195.63
466.32	6026.41
466.68	5878.49
467.04	5732.21
467.40	5589.90
467.77	5446.66
468.13	5299.21
468.49	5186.16
468.85	5063.51
469.22	4951.64
469.58	4845.14
469.94	4736.78
470.30	4628.64
470.66	4525.66
471.03	4402.55
471.39	4313.37
471.75	4236.37
472.11	4132.68
472.47	4059.19
472.84	3991.78
473.20	3907.06
473.56	3838.24
473.92	3776.45
474.28	3706.94
474.65	3643.28
475.01	3582.89
475.37	3511.27
475.73	3445.27
476.09	3370.37
476.45	3320.52
476.81	3251.47
477.18	3188.04
477.54	3137.49
477.90	3100.27
478.26	3018.35
478.62	2965.22
478.98	2913.26
479.34	2877.69
479.71	2832.28
480.07	2809.35
480.43	2776.81
480.79	2730.70
481.15	2682.49
481.51	2645.98
481.87	2600.57
482.23	2553.29
482.59	2517.71
482.96	2472.07
483.32	2446.80
483.68	2409.58
484.04	2384.30
484.40	2365.11
484.76	2336.79
485.12	2284.13
485.48	2254.40
485.84	2216.72
486.20	2165.70
486.56	2124.50
486.92	2105.78
487.28	2084.01
487.64	2062.01
488.00	2047.73
488.37	2044.46
488.73	2014.73
489.09	1986.41
489.45	1967.45
489.81	1944.05
490.17	1922.28
490.53	1901.69
490.89	1883.90
491.25	1867.28
491.61	1852.53
491.97	1824.45
492.33	1799.64
492.69	1785.59
493.05	1756.57
493.41	1746.98
493.77	1732.93
494.13	1718.19
494.49	1694.08
494.85	1684.02
495.21	1659.91
495.57	1641.42
495.93	1619.18
496.29	1602.80
496.64	1584.78
497.00	1563.48
497.36	1565.12
497.72	1554.35
498.08	1543.12
498.44	1528.37
498.80	1524.62
499.16	1499.35
499.52	1494.20
499.88	1489.99
500.24	1482.03
500.60	1463.30
500.96	1448.56
501.32	1442.00
501.68	1427.49
502.03	1413.68
502.39	1402.21
502.75	1392.38
503.11	1374.83
503.47	1370.85
503.83	1366.40
504.19	1374.13
504.55	1358.45
504.91	1353.53
505.26	1340.19
505.62	1323.81
505.98	1306.72
506.34	1314.21
506.70	1310.00
507.06	1302.51
507.42	1296.66
507.78	1303.68
508.13	1293.61
508.49	1287.76
508.85	1284.02
509.21	1291.51
509.57	1279.80
509.93	1275.12
510.28	1268.80
510.64	1267.40
511.00	1258.27
511.36	1244.93
511.72	1233.70
512.07	1229.02
512.43	1225.04
512.79	1221.29
513.15	1228.55
513.51	1232.29
513.86	1234.87
514.22	1232.29
514.58	1227.38
514.94	1219.65
515.30	1214.50
515.65	1212.40
516.01	1209.12
516.37	1208.65
516.73	1210.29
517.08	1202.80
517.44	1188.99
517.80	1183.14
518.16	1180.33
518.51	1165.12
518.87	1171.44
519.23	1163.95
519.59	1163.48
519.94	1172.61
520.30	1173.08
520.66	1163.95
521.01	1170.27
521.37	1170.27
521.73	1157.63
522.09	1156.46
522.44	1161.84
522.80	1155.05
523.16	1159.74
523.51	1166.29
523.87	1163.71
524.23	1167.69
524.58	1176.35
524.94	1170.03
525.30	1169.10
525.65	1179.63
526.01	1171.67
526.37	1169.33
526.72	1163.48
527.08	1153.18
527.44	1141.01
527.79	1134.69
528.15	1121.82
528.51	1133.29
528.86	1144.52
529.22	1150.84
529.58	1151.54
529.93	1161.14
530.29	1155.99
530.65	1140.78
531.00	1144.52
531.36	1151.78
531.71	1147.33
532.07	1140.07
532.43	1143.59
532.78	1136.56
533.14	1137.73
533.49	1141.25
533.85	1140.31
534.21	1139.37
534.56	1146.39
534.92	1142.18
535.27	1131.18
535.63	1133.05
535.98	1138.20
536.34	1129.07
536.69	1130.24
537.05	1137.73
537.41	1135.16
537.76	1126.27
538.12	1134.46
538.47	1136.33
538.83	1136.10
539.18	1140.54
539.54	1147.56
539.89	1138.67
540.25	1132.82
540.60	1138.20
540.96	1130.48
541.31	1121.35
541.67	1130.01
542.02	1128.37
542.38	1124.39
542.73	1122.75
543.09	1119.48
543.44	1114.33
543.80	1112.92
544.15	1118.54
544.51	1121.35
544.86	1117.84
545.22	1113.63
545.57	1120.18
545.93	1114.56
546.28	1115.27
546.64	1131.88
546.99	1127.67
547.35	1125.56
547.70	1126.97
548.05	1118.54
548.41	1112.22
548.76	1113.63
549.12	1113.16
549.47	1114.56
549.83	1122.99
550.18	1115.27
550.53	1123.46
550.89	1126.50
551.24	1119.48
551.60	1118.31
551.95	1115.97
552.30	1108.71
552.66	1100.99
553.01	1109.41
553.37	1121.58
553.72	1132.82
554.07	1131.65
554.43	1133.99
554.78	1130.71
555.13	1124.16
555.49	1122.75
555.84	1121.82
556.19	1115.03
556.55	1102.16
556.90	1093.26
557.26	1089.52
557.61	1087.88
557.96	1088.35
558.32	1091.86
558.67	1092.33
559.02	1089.29
559.37	1088.12
559.73	1092.09
560.08	1095.37
560.43	1102.16
560.79	1108.48
561.14	1117.61
561.49	1111.99
561.85	1110.82
562.20	1109.41
562.55	1103.09
562.90	1102.63
563.26	1107.31
563.61	1113.39
563.96	1102.63
564.32	1104.73
564.67	1097.48
565.02	1103.80
565.37	1103.09
565.73	1108.95
566.08	1113.16
566.43	1115.73
566.78	1113.39
567.14	1110.82
567.49	1115.03
567.84	1109.88
568.19	1108.24
568.54	1095.14
568.90	1099.82
569.25	1092.56
569.60	1099.35
569.95	1094.67
570.31	1093.73
570.66	1084.60
571.01	1093.03
571.36	1086.01
571.71	1094.67
572.06	1098.88
572.42	1106.61
572.77	1093.50
573.12	1092.56
573.47	1082.26
573.82	1089.29
574.18	1095.37
574.53	1103.56
574.88	1111.29
575.23	1109.18
575.58	1104.50
575.93	1096.78
576.28	1089.99
576.64	1077.35
576.99	1090.92
577.34	1093.97
577.69	1093.03
578.04	1105.90
578.39	1115.73
578.74	1108.95
579.09	1109.88
579.44	1112.22
579.80	1100.75
580.15	1100.52
580.50	1098.88
580.85	1105.20
581.20	1101.92
581.55	1104.50
581.90	1101.46
582.25	1095.60
582.60	1090.46
582.95	1088.82
583.30	1094.67
583.65	1086.94
584.00	1097.48
584.35	1098.41
584.71	1100.29
585.06	1101.69
585.41	1117.84
585.76	1117.14
586.11	1119.24
586.46	1115.73
586.81	1110.82
587.16	1104.73
587.51	1100.75
587.86	1098.18
588.21	1103.80
588.56	1101.92
588.91	1086.48
589.26	1088.12
589.61	1086.01
589.96	1084.14
590.31	1085.31
590.66	1110.12
591.01	1102.86
591.36	1108.24
591.71	1109.18
592.06	1110.12
592.41	1097.01
592.76	1104.73
593.10	1093.73
593.45	1095.60
593.80	1102.63
594.15	1105.67
594.50	1106.84
594.85	1112.22
595.20	1119.01
595.55	1099.82
595.90	1100.75
596.25	1105.90
596.60	1097.48
596.95	1090.46
597.30	1105.20
597.64	1156.93
597.99	1149.44
598.34	1152.25
598.69	1149.91
599.04	1141.71
599.39	1088.12
599.74	1090.46
600.09	1096.31
600.44	1091.16
600.78	1099.35
601.13	1100.52
601.48	1103.80
601.83	1099.12
602.18	1099.82
602.53	1093.73
602.88	1097.01
603.22	1095.84
603.57	1097.95
603.92	1098.41
604.27	1103.80
604.62	1102.39
604.97	1100.52
605.31	1099.58
605.66	1097.24
606.01	1092.80
606.36	1087.41
606.71	1079.22
607.05	1088.35
607.40	1088.12
607.75	1088.35
608.10	1087.41
608.44	1095.60
608.79	1086.71
609.14	1093.26
609.49	1093.50
609.84	1102.63
610.18	1101.92
610.53	1100.05
610.88	1101.46
611.23	1108.01
611.57	1108.01
611.92	1110.12
612.27	1108.01
612.62	1102.16
612.96	1093.26
613.31	1081.09
613.66	1087.65
614.00	1097.01
614.35	1097.71
614.70	1096.54
615.05	1102.39
615.39	1091.63
615.74	1095.14
616.09	1099.82
616.43	1105.90
616.78	1104.03
617.13	1106.84
617.47	1105.44
617.82	1097.48
618.17	1089.29
618.51	1080.86
618.86	1071.26
619.21	1059.79
619.55	1051.60
619.90	1052.07
620.25	1068.45
620.59	1070.09
620.94	1072.90
621.29	1093.26
621.63	1104.26
621.98	1101.22
622.32	1106.84
622.67	1107.54
623.02	1098.41
623.36	1094.43
623.71	1089.29
624.05	1085.54
624.40	1088.35
624.75	1100.05
625.09	1097.24
625.44	1096.78
625.78	1101.22
626.13	1096.31
626.48	1085.77
626.82	1077.35
627.17	1076.18
627.51	1075.94
627.86	1077.11
628.20	1079.46
628.55	1087.88
628.89	1081.09
629.24	1085.07
629.58	1090.69
629.93	1094.90
630.28	1104.26
630.62	1117.61
630.97	1108.24
631.31	1108.01
631.66	1096.31
632.00	1084.37
632.35	1080.16
632.69	1088.12
633.04	1089.05
633.38	1098.18
633.73	1090.92
634.07	1098.65
634.42	1098.41
634.76	1106.37
635.11	1102.39
635.45	1116.44
635.79	1103.80
636.14	1100.29
636.48	1084.37
636.83	1081.09
637.17	1078.99
637.52	1077.82
637.86	1079.92
638.21	1077.82
638.55	1080.16
638.89	1075.94
639.24	1087.18
639.58	1083.67
639.93	1084.84
640.27	1086.48
640.61	1097.01
640.96	1094.90
641.30	1102.16
641.65	1112.22
641.99	1108.24
642.33	1098.18
642.68	1090.22
643.02	1079.92
643.37	1074.31
643.71	1085.77
644.05	1087.65
644.40	1090.46
644.74	1093.73
645.08	1094.43
645.43	1093.26
645.77	1094.43
646.11	1099.58
646.46	1103.56
646.80	1108.24
647.14	1098.65
647.49	1094.67
647.83	1091.63
648.17	1089.99
648.52	1077.35
648.86	1086.01
649.20	1086.71
649.55	1089.99
649.89	1090.69
650.23	1091.86
650.57	1079.46
650.92	1077.35
651.26	1069.62
651.60	1072.43
651.95	1070.33
652.29	1068.92
652.63	1069.39
652.97	1071.26
653.32	1074.54
653.66	1078.28
654.00	1089.52
654.34	1091.86
654.69	1083.67
655.03	1084.84
655.37	1089.52
655.71	1086.71
656.05	1092.33
656.40	1103.80
656.74	1101.69
657.08	1095.84
657.42	1101.92
657.76	1093.73
658.11	1091.16
658.45	1082.73
658.79	1095.37
659.13	1094.67
659.47	1097.24
659.82	1092.56
660.16	1094.67
660.50	1086.24
660.84	1080.63
661.18	1075.48
661.52	1075.01
661.87	1080.39
662.21	1071.73
662.55	1070.33
662.89	1075.71
663.23	1085.54
663.57	1076.65
663.91	1085.07
664.25	1083.43
664.60	1086.48
664.94	1084.14
665.28	1090.69
665.62	1096.07
665.96	1095.60
666.30	1078.28
666.64	1071.03
666.98	1070.33
667.32	1074.07
667.66	1073.84
668.01	1100.29
668.35	1108.24
668.69	1110.12
669.03	1103.56
669.37	1100.52
669.71	1085.54
670.05	1088.82
670.39	1089.29
670.73	1091.86
671.07	1095.84
671.41	1101.46
671.75	1097.71
672.09	1092.80
672.43	1100.05
672.77	1102.39
673.11	1096.07
673.45	1090.46
673.79	1087.18
674.13	1071.50
674.47	1070.33
674.81	1067.05
675.15	1068.45
675.49	1071.73
675.83	1081.56
676.17	1084.14
676.51	1070.09
676.85	1071.03
677.19	1073.37
677.53	1060.50
677.87	1059.33
678.21	1082.50
678.55	1084.37
678.89	1077.11
679.23	1082.50
679.57	1085.77
679.90	1077.11
680.24	1079.22
680.58	1081.09
680.92	1070.80
681.26	1071.03
681.60	1072.20
681.94	1067.99
682.28	1072.20
682.62	1089.75
682.96	1083.67
683.29	1090.69
683.63	1089.52
683.97	1089.52
684.31	1073.37
684.65	1065.65
684.99	1062.60
685.33	1063.07
685.67	1061.43
686.00	1068.45
686.34	1081.09
686.68	1075.24
687.02	1079.92
687.36	1079.22
687.70	1078.75
688.03	1072.67
688.37	1085.31
688.71	1071.26
689.05	1073.37
689.39	1076.65
689.72	1081.09
690.06	1081.80
690.40	1093.26
690.74	1085.54
691.08	1088.12
691.41	1086.71
691.75	1085.07
692.09	1085.31
692.43	1091.86
692.76	1093.03
693.10	1097.48
693.44	1082.73
693.78	1082.97
694.11	1084.37
694.45	1086.01
694.79	1078.52
695.13	1085.77
695.46	1092.33
695.80	1091.16
696.14	1090.46
696.48	1092.33
696.81	1092.80
697.15	1079.46
697.49	1073.60
697.82	1071.50
698.16	1066.58
698.50	1073.60
698.83	1082.50
699.17	1087.41
699.51	1082.26
699.84	1083.67
700.18	1075.01
700.52	1067.28
700.85	1071.97
701.19	1072.90
701.53	1080.39
701.86	1085.31
702.20	1095.60
702.54	1091.86
702.87	1097.71
703.21	1086.24
703.55	1077.35
703.88	1069.39
704.22	1073.60
704.55	1067.99
704.89	1078.75
705.23	1085.07
705.56	1089.52
705.90	1065.65
706.23	1067.99
706.57	1064.01
706.91	1068.45
707.24	1050.90
707.58	1070.09
707.91	1066.58
708.25	1070.80
708.58	1063.31
708.92	1072.43
709.26	1069.86
709.59	1070.80
709.93	1060.03
710.26	1060.26
710.60	1071.26
710.93	1070.33
711.27	1063.77
711.60	1066.58
711.94	1076.18
712.27	1076.41
712.61	1083.20
712.94	1085.31
713.28	1085.54
713.61	1074.77
713.95	1072.43
714.28	1072.67
714.62	1084.14
714.95	1092.56
715.29	1106.61
715.62	1104.50
715.96	1100.05
716.29	1086.71
716.63	1082.73
716.96	1072.20
717.29	1075.71
717.63	1077.82
717.96	1086.71
718.30	1088.12
718.63	1097.48
718.97	1088.58
719.30	1085.54
719.63	1091.39
719.97	1093.73
720.30	1087.88
720.64	1090.22
720.97	1095.60
721.30	1088.12
721.64	1082.73
721.97	1079.46
722.31	1093.26
722.64	1083.43
722.97	1078.75
723.31	1075.48
723.64	1084.37
723.97	1071.50
724.31	1084.37
724.64	1083.90
724.98	1083.67
725.31	1071.26
725.64	1077.11
725.98	1065.88
726.31	1070.33
726.64	1088.82
726.97	1100.75
727.31	1087.41
727.64	1088.58
727.97	1086.94
728.31	1071.26
728.64	1063.07
728.97	1067.52
729.31	1067.05
729.64	1072.43
729.97	1063.31
730.30	1063.54
730.64	1061.20
730.97	1059.56
731.30	1060.50
731.63	1071.03
731.97	1057.92
732.30	1065.41
732.63	1069.39
732.96	1062.37
733.30	1065.88
733.63	1078.05
733.96	1070.09
734.29	1066.11
734.63	1070.56
734.96	1078.05
735.29	1079.46
735.62	1085.54
735.95	1088.58
736.29	1093.03
736.62	1081.09
736.95	1072.43
737.28	1063.31
737.61	1060.96
737.94	1060.73
738.28	1059.56
738.61	1062.84
738.94	1073.60
739.27	1073.60
739.60	1066.82
739.93	1071.50
740.27	1077.82
740.60	1078.28
740.93	1086.48
741.26	1093.03
741.59	1081.09
741.92	1076.41
742.25	1076.41
742.58	1074.54
742.91	1066.35
743.25	1073.84
743.58	1085.54
743.91	1086.94
744.24	1090.22
744.57	1090.92
744.90	1086.94
745.23	1072.90
745.56	1060.03
745.89	1047.62
746.22	1049.96
746.55	1060.03
746.88	1070.80
747.21	1080.39
747.54	1085.54
747.87	1085.07
748.20	1081.09
748.53	1070.80
748.87	1062.60
749.20	1059.33
749.53	1062.84
749.86	1065.65
750.19	1067.28
750.52	1075.01
750.85	1084.37
751.18	1084.37
751.51	1079.92
751.84	1087.41
752.16	1092.80
752.49	1083.43
752.82	1083.43
753.15	1075.71
753.48	1068.69
753.81	1058.86
754.14	1060.26
754.47	1058.86
754.80	1060.50
755.13	1063.54
755.46	1067.52
755.79	1069.62
756.12	1074.31
756.45	1077.82
756.78	1079.92
757.11	1088.58
757.43	1087.18
757.76	1082.03
758.09	1084.37
758.42	1088.82
758.75	1087.41
759.08	1086.94
759.41	1083.90
759.74	1082.97
760.07	1087.41
760.39	1084.14
760.72	1090.46
761.05	1092.80
761.38	1102.39
761.71	1100.52
762.04	1097.95
762.36	1089.75
762.69	1088.82
763.02	1084.84
763.35	1069.86
763.68	1071.50
764.01	1071.50
764.33	1067.75
