SpectraSuite Data File
++++++++++++++++++++++++++++++++++++
Date: Mon Aug 26 10:24:37 PDT 2019
User: corrico
Dark Spectrum Present: No
Reference Spectrum Present: No
Number of Sampled Component Spectra: 1
Spectrometers: USB2+H06089
Integration Time (usec): 10000 (USB2+H06089)
Spectra Averaged: 2 (USB2+H06089)
Boxcar Smoothing: 2 (USB2+H06089)
Correct for Electrical Dark: No (USB2+H06089)
Strobe/Lamp Enabled: No (USB2+H06089)
Correct for Detector Non-linearity: No (USB2+H06089)
Correct for Stray Light: No (USB2+H06089)
Number of Pixels in Processed Spectrum: 2048
>>>>>Begin Processed Spectral Data<<<<<
339.70	998.24
340.07	998.24
340.45	978.58
340.82	968.75
341.19	956.34
341.57	943.24
341.94	926.85
342.31	924.04
342.69	899.94
343.06	894.79
343.43	886.83
343.81	897.36
344.18	897.36
344.55	915.15
344.93	919.83
345.30	929.66
345.67	938.32
346.04	946.28
346.42	950.02
346.79	945.81
347.16	947.21
347.54	952.83
347.91	955.87
348.28	964.07
348.65	980.92
349.03	989.34
349.40	995.66
349.77	1006.43
350.14	1015.56
350.52	1031.94
350.89	1043.18
351.26	1046.69
351.63	1055.58
352.01	1062.84
352.38	1067.75
352.75	1081.33
353.12	1088.82
353.50	1097.71
353.87	1102.16
354.24	1093.26
354.61	1094.67
354.98	1105.90
355.36	1107.54
355.73	1109.88
356.10	1114.10
356.47	1109.41
356.84	1098.41
357.22	1094.20
357.59	1093.26
357.96	1092.33
358.33	1093.73
358.70	1096.78
359.08	1097.24
359.45	1109.41
359.82	1102.86
360.19	1107.07
360.56	1112.46
360.94	1106.37
361.31	1096.07
361.68	1111.75
362.05	1107.78
362.42	1098.18
362.79	1104.26
363.16	1109.18
363.54	1105.44
363.91	1099.58
364.28	1110.82
364.65	1109.41
365.02	1112.22
365.39	1110.82
365.76	1107.78
366.14	1098.65
366.51	1094.90
366.88	1083.90
367.25	1078.52
367.62	1078.28
367.99	1082.97
368.36	1080.63
368.73	1079.92
369.10	1087.41
369.48	1085.31
369.85	1080.16
370.22	1074.77
370.59	1079.22
370.96	1082.73
371.33	1091.86
371.70	1101.22
372.07	1105.44
372.44	1113.39
372.81	1105.20
373.18	1097.01
373.55	1091.86
373.93	1096.31
374.30	1090.69
374.67	1091.16
375.04	1100.29
375.41	1093.03
375.78	1095.37
376.15	1090.46
376.52	1086.24
376.89	1082.97
377.26	1089.29
377.63	1091.63
378.00	1090.22
378.37	1099.12
378.74	1107.54
379.11	1107.78
379.48	1107.07
379.85	1117.37
380.22	1114.33
380.59	1109.41
380.96	1113.63
381.33	1111.75
381.70	1106.37
382.07	1112.92
382.44	1118.31
382.81	1105.90
383.18	1103.09
383.55	1106.84
383.92	1100.52
384.29	1089.05
384.66	1100.52
385.03	1107.07
385.40	1104.50
385.77	1099.82
386.14	1112.69
386.51	1118.54
386.88	1113.86
387.25	1117.61
387.62	1137.97
387.99	1136.56
388.36	1126.97
388.73	1131.88
389.10	1120.41
389.46	1105.90
389.83	1113.16
390.20	1114.80
390.57	1104.73
390.94	1116.20
391.31	1121.58
391.68	1113.63
392.05	1123.93
392.42	1135.63
392.79	1134.69
393.16	1128.84
393.53	1136.56
393.89	1127.90
394.26	1127.67
394.63	1131.41
395.00	1135.86
395.37	1139.14
395.74	1135.39
396.11	1136.10
396.48	1136.33
396.84	1145.93
397.21	1138.90
397.58	1158.33
397.95	1162.54
398.32	1167.23
398.69	1167.93
399.06	1188.06
399.42	1186.42
399.79	1202.10
400.16	1208.18
400.53	1217.78
400.90	1202.33
401.27	1202.57
401.64	1198.12
402.00	1198.35
402.37	1199.99
402.74	1225.97
403.11	1239.08
403.48	1268.34
403.84	1286.83
404.21	1296.89
404.58	1298.76
404.95	1313.51
405.32	1313.27
405.68	1338.79
406.05	1365.70
406.42	1390.98
406.79	1419.77
407.16	1451.37
407.52	1478.75
407.89	1509.18
408.26	1536.33
408.63	1572.14
408.99	1609.82
409.36	1648.44
409.73	1688.23
410.10	1744.40
410.47	1801.74
410.83	1851.60
411.20	1897.94
411.57	1963.71
411.94	2034.16
412.30	2104.14
412.67	2186.76
413.04	2281.79
413.40	2396.01
413.77	2501.33
414.14	2619.29
414.51	2741.94
414.87	2864.11
415.24	2997.99
415.61	3150.60
415.97	3300.86
416.34	3468.21
416.71	3666.92
417.08	3875.22
417.44	4074.40
417.81	4315.71
418.18	4566.39
418.54	4827.35
418.91	5085.98
419.28	5392.13
419.64	5687.27
420.01	6014.71
420.38	6340.51
420.74	6717.81
421.11	7130.68
421.48	7528.33
421.84	7962.03
422.21	8439.97
422.58	8927.51
422.94	9444.30
423.31	9984.02
423.68	10562.14
424.04	11175.59
424.41	11771.02
424.77	12369.73
425.14	13019.23
425.51	13666.62
425.87	14393.12
426.24	15166.20
426.61	16055.14
426.97	17054.31
427.34	18021.66
427.70	19093.86
428.07	20132.35
428.44	21177.17
428.80	22239.30
429.17	23369.08
429.53	24418.81
429.90	25689.95
430.27	26831.90
430.63	27982.27
431.00	29276.83
431.36	30683.25
431.73	31986.23
432.09	33398.98
432.46	34763.27
432.83	36133.42
433.19	37389.12
433.56	38806.55
433.92	40346.15
434.29	41842.46
434.65	43341.10
435.02	44672.87
435.38	45963.44
435.75	46728.56
436.11	47941.43
436.48	48906.43
436.84	49982.14
437.21	50852.35
437.57	51897.40
437.94	52554.15
438.30	53107.69
438.67	53339.87
439.03	53514.48
439.40	53686.74
439.76	53523.84
440.13	53379.43
440.49	53404.47
440.86	53028.35
441.22	52603.77
441.59	52086.28
441.95	51421.34
442.32	50382.61
442.68	49671.55
443.05	48709.82
443.41	47766.12
443.78	46765.31
444.14	45943.78
444.51	44706.10
444.87	43850.40
445.24	42609.92
445.60	41435.21
445.96	40162.42
446.33	39185.72
446.69	37813.23
447.06	36849.86
447.42	35853.50
447.79	34780.59
448.15	33768.55
448.51	32907.00
448.88	32052.93
449.24	31011.40
449.61	30266.40
449.97	29471.79
450.33	28636.22
450.70	27729.03
451.06	27112.06
451.43	26357.94
451.79	25758.30
452.15	25189.08
452.52	24650.29
452.88	24070.30
453.24	23537.13
453.61	22842.69
453.97	22204.66
454.34	21566.16
454.70	20985.95
455.06	20368.98
455.43	19750.14
455.79	18992.75
456.15	18382.80
456.52	17706.39
456.88	17190.77
457.24	16601.19
457.61	16160.93
457.97	15639.69
458.33	15105.82
458.70	14485.58
459.06	13901.14
459.42	13434.44
459.79	12941.52
460.15	12472.95
460.51	12039.48
460.88	11673.66
461.24	11204.61
461.60	10835.04
461.96	10490.05
462.33	10154.41
462.69	9832.59
463.05	9539.56
463.42	9262.20
463.78	9000.06
464.14	8718.26
464.50	8480.93
464.87	8204.98
465.23	7904.93
465.59	7675.32
465.95	7448.75
466.32	7213.77
466.68	7034.71
467.04	6887.03
467.40	6701.66
467.77	6512.77
468.13	6346.36
468.49	6229.34
468.85	6082.12
469.22	5943.56
469.58	5847.83
469.94	5731.50
470.30	5563.45
470.66	5445.26
471.03	5311.61
471.39	5214.01
471.75	5118.99
472.11	5022.09
472.47	4935.49
472.84	4847.72
473.20	4722.73
473.56	4611.32
473.92	4509.74
474.28	4407.70
474.65	4323.44
475.01	4245.73
475.37	4158.20
475.73	4096.17
476.09	3999.51
476.45	3907.29
476.81	3827.95
477.18	3744.15
477.54	3652.41
477.90	3580.08
478.26	3508.23
478.62	3443.63
478.98	3390.97
479.34	3340.41
479.71	3308.11
480.07	3265.28
480.43	3220.81
480.79	3162.30
481.15	3108.00
481.51	3038.48
481.87	2976.46
482.23	2915.61
482.59	2867.16
482.96	2813.79
483.32	2765.11
483.68	2744.98
484.04	2725.55
484.40	2701.68
484.76	2669.38
485.12	2641.53
485.48	2583.25
485.84	2540.65
486.20	2500.39
486.56	2464.12
486.92	2434.16
487.28	2412.62
487.64	2377.52
488.00	2336.56
488.37	2310.58
488.73	2274.53
489.09	2241.06
489.45	2206.42
489.81	2173.89
490.17	2134.80
490.53	2110.93
490.89	2081.44
491.25	2049.84
491.61	2023.16
491.97	2007.71
492.33	1986.65
492.69	1959.96
493.05	1937.50
493.41	1910.35
493.77	1887.41
494.13	1865.17
494.49	1854.41
494.85	1835.45
495.21	1824.21
495.57	1791.68
495.93	1765.93
496.29	1747.68
496.64	1717.25
497.00	1700.63
497.36	1686.36
497.72	1664.12
498.08	1646.33
498.44	1643.06
498.80	1618.95
499.16	1609.35
499.52	1587.82
499.88	1563.71
500.24	1546.39
500.60	1519.48
500.96	1508.01
501.32	1505.43
501.68	1500.28
502.03	1482.26
502.39	1478.28
502.75	1467.52
503.11	1462.37
503.47	1447.86
503.83	1438.73
504.19	1438.03
504.55	1426.32
504.91	1406.66
505.26	1402.92
505.62	1402.21
505.98	1391.45
506.34	1379.75
506.70	1371.55
507.06	1360.09
507.42	1346.74
507.78	1339.49
508.13	1314.91
508.49	1313.04
508.85	1299.47
509.21	1291.98
509.57	1299.00
509.93	1310.47
510.28	1296.19
510.64	1295.25
511.00	1295.02
511.36	1288.00
511.72	1283.55
512.07	1288.70
512.43	1273.02
512.79	1267.17
513.15	1254.76
513.51	1252.42
513.86	1248.21
514.22	1253.82
514.58	1249.85
514.94	1257.10
515.30	1252.19
515.65	1248.44
516.01	1246.80
516.37	1243.06
516.73	1232.53
517.08	1222.46
517.44	1213.33
517.80	1218.72
518.16	1211.93
518.51	1204.91
518.87	1199.52
519.23	1199.76
519.59	1189.23
519.94	1190.40
520.30	1183.84
520.66	1192.27
521.01	1188.06
521.37	1193.21
521.73	1193.44
522.09	1195.78
522.44	1189.46
522.80	1191.80
523.16	1185.01
523.51	1186.89
523.87	1174.95
524.23	1182.91
524.58	1174.95
524.94	1172.84
525.30	1170.03
525.65	1182.20
526.01	1167.69
526.37	1173.54
526.72	1174.95
527.08	1168.40
527.44	1165.12
527.79	1162.54
528.15	1160.67
528.51	1162.31
528.86	1159.03
529.22	1160.91
529.58	1164.88
529.93	1167.93
530.29	1163.25
530.65	1168.16
531.00	1164.18
531.36	1167.46
531.71	1160.44
532.07	1152.71
532.43	1146.86
532.78	1139.14
533.14	1137.27
533.49	1137.03
533.85	1150.37
534.21	1151.54
534.56	1155.29
534.92	1152.95
535.27	1152.48
535.63	1138.44
535.98	1137.03
536.34	1137.97
536.69	1134.22
537.05	1127.20
537.41	1126.73
537.76	1132.35
538.12	1129.07
538.47	1123.93
538.83	1123.22
539.18	1128.37
539.54	1121.82
539.89	1124.86
540.25	1141.71
540.60	1147.10
540.96	1148.73
541.31	1149.20
541.67	1155.99
542.02	1144.76
542.38	1150.61
542.73	1152.48
543.09	1157.63
543.44	1152.01
543.80	1150.61
544.15	1139.14
544.51	1126.73
544.86	1112.46
545.22	1109.88
545.57	1114.56
545.93	1129.54
546.28	1133.99
546.64	1143.35
546.99	1142.88
547.35	1147.56
547.70	1132.35
548.05	1133.52
548.41	1133.29
548.76	1132.82
549.12	1130.95
549.47	1136.10
549.83	1129.07
550.18	1127.44
550.53	1127.67
550.89	1125.10
551.24	1128.61
551.60	1138.44
551.95	1146.86
552.30	1148.03
552.66	1141.48
553.01	1141.25
553.37	1140.07
553.72	1141.48
554.07	1136.10
554.43	1133.52
554.78	1121.82
555.13	1114.33
555.49	1094.90
555.84	1094.90
556.19	1096.31
556.55	1102.63
556.90	1103.33
557.26	1108.01
557.61	1114.80
557.96	1115.27
558.32	1111.52
558.67	1111.29
559.02	1117.61
559.37	1114.56
559.73	1115.73
560.08	1117.37
560.43	1114.33
560.79	1109.41
561.14	1101.22
561.49	1093.73
561.85	1098.18
562.20	1103.33
562.55	1109.88
562.90	1117.14
563.26	1119.71
563.61	1120.18
563.96	1118.07
564.32	1110.82
564.67	1115.27
565.02	1126.50
565.37	1132.82
565.73	1130.48
566.08	1135.63
566.43	1125.80
566.78	1118.07
567.14	1106.37
567.49	1111.75
567.84	1115.03
568.19	1123.69
568.54	1121.12
568.90	1122.75
569.25	1123.93
569.60	1129.78
569.95	1124.63
570.31	1133.05
570.66	1141.01
571.01	1138.20
571.36	1127.90
571.71	1125.80
572.06	1126.03
572.42	1119.71
572.77	1119.95
573.12	1119.71
573.47	1121.12
573.82	1110.82
574.18	1112.46
574.53	1102.63
574.88	1097.48
575.23	1090.46
575.58	1096.31
575.93	1091.16
576.28	1107.31
576.64	1108.71
576.99	1113.16
577.34	1107.78
577.69	1103.33
578.04	1094.67
578.39	1099.12
578.74	1090.69
579.09	1092.56
579.44	1098.88
579.80	1103.80
580.15	1102.86
580.50	1125.10
580.85	1127.67
581.20	1126.73
581.55	1124.63
581.90	1123.22
582.25	1105.90
582.60	1104.50
582.95	1099.35
583.30	1099.82
583.65	1094.43
584.00	1107.07
584.35	1110.35
584.71	1110.58
585.06	1103.09
585.41	1108.01
585.76	1097.01
586.11	1098.88
586.46	1102.16
586.81	1111.52
587.16	1111.52
587.51	1115.73
587.86	1109.18
588.21	1100.29
588.56	1098.88
588.91	1109.65
589.26	1109.65
589.61	1112.69
589.96	1129.07
590.31	1123.69
590.66	1115.03
591.01	1109.65
591.36	1099.58
591.71	1102.39
592.06	1101.46
592.41	1099.12
592.76	1098.65
593.10	1100.52
593.45	1089.05
593.80	1094.67
594.15	1085.54
594.50	1090.22
594.85	1097.48
595.20	1092.09
595.55	1089.99
595.90	1102.63
596.25	1112.69
596.60	1114.56
596.95	1127.90
597.30	1123.46
597.64	1158.10
597.99	1142.42
598.34	1139.14
598.69	1134.22
599.04	1137.50
599.39	1102.63
599.74	1102.86
600.09	1100.52
600.44	1101.92
600.78	1115.03
601.13	1113.39
601.48	1120.18
601.83	1121.58
602.18	1116.20
602.53	1100.52
602.88	1096.54
603.22	1091.63
603.57	1095.14
603.92	1095.14
604.27	1097.01
604.62	1093.26
604.97	1091.86
605.31	1100.52
605.66	1103.56
606.01	1106.84
606.36	1114.56
606.71	1113.16
607.05	1102.86
607.40	1095.84
607.75	1097.71
608.10	1100.99
608.44	1110.58
608.79	1107.31
609.14	1117.84
609.49	1112.92
609.84	1097.71
610.18	1097.24
610.53	1109.18
610.88	1109.18
611.23	1115.97
611.57	1126.50
611.92	1118.07
612.27	1108.71
612.62	1108.24
612.96	1100.29
613.31	1091.39
613.66	1095.37
614.00	1094.20
614.35	1082.50
614.70	1081.56
615.05	1086.01
615.39	1083.90
615.74	1082.97
616.09	1085.77
616.43	1088.35
616.78	1092.80
617.13	1100.52
617.47	1110.82
617.82	1111.52
618.17	1106.14
618.51	1112.22
618.86	1100.29
619.21	1085.31
619.55	1096.54
619.90	1105.67
620.25	1099.58
620.59	1103.33
620.94	1107.31
621.29	1101.46
621.63	1097.71
621.98	1094.43
622.32	1100.52
622.67	1103.80
623.02	1106.14
623.36	1111.75
623.71	1116.67
624.05	1114.10
624.40	1112.69
624.75	1113.63
625.09	1118.54
625.44	1105.67
625.78	1109.41
626.13	1099.35
626.48	1088.82
626.82	1075.24
627.17	1085.07
627.51	1082.73
627.86	1094.67
628.20	1098.65
628.55	1095.84
628.89	1088.12
629.24	1083.20
629.58	1083.90
629.93	1092.09
630.28	1092.09
630.62	1104.26
630.97	1101.22
631.31	1092.09
631.66	1088.58
632.00	1090.46
632.35	1077.58
632.69	1081.09
633.04	1084.14
633.38	1074.07
633.73	1079.46
634.07	1081.56
634.42	1088.58
634.76	1093.73
635.11	1108.71
635.45	1102.86
635.79	1106.61
636.14	1101.22
636.48	1096.54
636.83	1086.48
637.17	1087.18
637.52	1086.48
637.86	1089.99
638.21	1092.09
638.55	1092.80
638.89	1099.12
639.24	1098.88
639.58	1089.99
639.93	1088.58
640.27	1087.41
640.61	1087.65
640.96	1086.01
641.30	1098.41
641.65	1096.31
641.99	1104.50
642.33	1104.73
642.68	1109.18
643.02	1094.67
643.37	1103.33
643.71	1101.22
644.05	1097.71
644.40	1090.22
644.74	1103.56
645.08	1100.75
645.43	1093.97
645.77	1099.12
646.11	1111.29
646.46	1109.41
646.80	1115.03
647.14	1116.20
647.49	1113.63
647.83	1108.95
648.17	1096.54
648.52	1086.94
648.86	1090.46
649.20	1096.31
649.55	1095.60
649.89	1096.07
650.23	1097.48
650.57	1094.20
650.92	1080.39
651.26	1080.63
651.60	1081.80
651.95	1084.14
652.29	1089.75
652.63	1098.18
652.97	1102.16
653.32	1114.09
653.66	1110.35
654.00	1103.56
654.34	1107.07
654.69	1089.75
655.03	1085.77
655.37	1087.18
655.71	1091.86
656.05	1088.12
656.40	1094.67
656.74	1093.50
657.08	1097.24
657.42	1099.12
657.76	1096.31
658.11	1105.44
658.45	1109.65
658.79	1101.46
659.13	1110.12
659.47	1112.92
659.82	1103.09
660.16	1096.07
660.50	1109.88
660.84	1103.33
661.18	1105.20
661.52	1106.61
661.87	1107.07
662.21	1097.95
662.55	1094.20
662.89	1097.71
663.23	1107.07
663.57	1110.12
663.91	1108.71
664.25	1105.67
664.60	1102.63
664.94	1097.24
665.28	1088.12
665.62	1089.05
665.96	1093.97
666.30	1079.22
666.64	1080.16
666.98	1084.60
667.32	1089.29
667.66	1080.16
668.01	1084.37
668.35	1090.92
668.69	1100.75
669.03	1097.95
669.37	1101.69
669.71	1106.37
670.05	1097.95
670.39	1093.26
670.73	1089.05
671.07	1087.88
671.41	1088.82
671.75	1093.50
672.09	1100.29
672.43	1105.67
672.77	1101.69
673.11	1091.63
673.45	1089.05
673.79	1087.65
674.13	1089.75
674.47	1082.03
674.81	1089.52
675.15	1093.73
675.49	1088.82
675.83	1084.60
676.17	1092.56
676.51	1094.67
676.85	1090.92
677.19	1089.75
677.53	1088.12
677.87	1086.94
678.21	1089.52
678.55	1082.03
678.89	1084.37
679.23	1078.52
679.57	1079.46
679.90	1079.46
680.24	1089.99
680.58	1080.16
680.92	1084.14
681.26	1093.73
681.60	1096.07
681.94	1091.86
682.28	1106.61
682.62	1104.26
682.96	1099.82
683.29	1101.69
683.63	1099.82
683.97	1088.82
684.31	1089.29
684.65	1082.73
684.99	1071.03
685.33	1076.18
685.67	1077.35
686.00	1086.71
686.34	1092.33
686.68	1093.26
687.02	1080.63
687.36	1079.69
687.70	1075.94
688.03	1079.22
688.37	1081.56
688.71	1087.65
689.05	1089.29
689.39	1086.01
689.72	1080.16
690.06	1080.63
690.40	1086.71
690.74	1086.48
691.08	1097.95
691.41	1098.41
691.75	1104.97
692.09	1110.12
692.43	1119.01
692.76	1100.99
693.10	1100.05
693.44	1087.88
693.78	1077.82
694.11	1061.90
694.45	1076.65
694.79	1078.99
695.13	1083.67
695.46	1079.22
695.80	1081.33
696.14	1076.65
696.48	1080.63
696.81	1082.97
697.15	1082.26
697.49	1083.43
697.82	1083.20
698.16	1080.86
698.50	1070.56
698.83	1079.46
699.17	1081.09
699.51	1079.22
699.84	1082.97
700.18	1093.03
700.52	1091.63
700.85	1097.71
701.19	1097.24
701.53	1093.97
701.86	1092.33
702.20	1093.26
702.54	1094.90
702.87	1093.97
703.21	1097.01
703.55	1101.92
703.88	1100.29
704.22	1091.86
704.55	1102.86
704.89	1103.80
705.23	1098.65
705.56	1101.46
705.90	1100.29
706.23	1088.35
706.57	1080.86
706.91	1075.48
707.24	1076.41
707.58	1075.71
707.91	1082.97
708.25	1084.60
708.58	1083.43
708.92	1087.88
709.26	1092.56
709.59	1085.31
709.93	1089.99
710.26	1089.52
710.60	1086.71
710.93	1094.90
711.27	1094.90
711.60	1093.03
711.94	1104.03
712.27	1103.80
712.61	1091.16
712.94	1090.69
713.28	1094.90
713.61	1087.88
713.95	1089.99
714.28	1093.97
714.62	1095.60
714.95	1094.67
715.29	1096.07
715.62	1077.35
715.96	1076.65
716.29	1081.80
716.63	1084.37
716.96	1088.82
717.29	1101.92
717.63	1103.09
717.96	1098.65
718.30	1090.69
718.63	1094.67
718.97	1083.67
719.30	1083.90
719.63	1091.16
719.97	1098.18
720.30	1095.14
720.64	1101.69
720.97	1101.92
721.30	1083.20
721.64	1067.99
721.97	1066.82
722.31	1073.60
722.64	1071.26
722.97	1081.09
723.31	1098.41
723.64	1090.46
723.97	1091.39
724.31	1092.33
724.64	1101.22
724.98	1094.20
725.31	1099.35
725.64	1092.33
725.98	1089.99
726.31	1075.94
726.64	1073.60
726.97	1069.39
727.31	1077.35
727.64	1073.14
727.97	1075.71
728.31	1070.80
728.64	1071.26
728.97	1067.52
729.31	1070.09
729.64	1080.39
729.97	1081.80
730.30	1078.75
730.64	1068.69
730.97	1070.56
731.30	1062.84
731.63	1073.14
731.97	1088.58
732.30	1092.56
732.63	1100.99
732.96	1109.18
733.30	1103.80
733.63	1096.78
733.96	1091.63
734.29	1093.73
734.63	1093.26
734.96	1086.48
735.29	1082.97
735.62	1088.35
735.95	1074.07
736.29	1060.26
736.62	1068.69
736.95	1067.52
737.28	1067.52
737.61	1068.22
737.94	1064.48
738.28	1063.07
738.61	1070.09
738.94	1075.01
739.27	1072.67
739.60	1077.11
739.93	1072.43
740.27	1067.28
740.60	1067.52
740.93	1076.41
741.26	1077.11
741.59	1082.03
741.92	1086.48
742.25	1085.07
742.58	1083.67
742.91	1089.05
743.25	1091.39
743.58	1092.56
743.91	1093.26
744.24	1094.20
744.57	1105.44
744.90	1095.60
745.23	1088.12
745.56	1090.69
745.89	1088.82
746.22	1081.09
746.55	1086.94
746.88	1090.69
747.21	1078.75
747.54	1080.16
747.87	1075.24
748.20	1070.56
748.53	1067.52
748.87	1068.45
749.20	1069.16
749.53	1075.94
749.86	1068.69
750.19	1076.18
750.52	1080.39
750.85	1086.01
751.18	1083.43
751.51	1091.16
751.84	1087.18
752.16	1092.56
752.49	1086.01
752.82	1089.52
753.15	1096.54
753.48	1096.07
753.81	1103.56
754.14	1102.16
754.47	1086.01
754.80	1077.35
755.13	1077.11
755.46	1062.37
755.79	1067.99
756.12	1085.77
756.45	1101.22
756.78	1098.88
757.11	1111.99
757.43	1110.35
757.76	1101.69
758.09	1088.82
758.42	1096.31
758.75	1085.07
759.08	1075.94
759.41	1078.05
759.74	1086.01
760.07	1074.54
760.39	1074.54
760.72	1076.88
761.05	1071.26
761.38	1074.31
761.71	1082.97
762.04	1093.73
762.36	1090.69
762.69	1106.61
763.02	1097.24
763.35	1090.69
763.68	1085.77
764.01	1095.60
