SpectraSuite Data File
++++++++++++++++++++++++++++++++++++
Date: Mon Aug 26 10:24:39 PDT 2019
User: corrico
Dark Spectrum Present: No
Reference Spectrum Present: No
Number of Sampled Component Spectra: 1
Spectrometers: USB2+H06089
Integration Time (usec): 10000 (USB2+H06089)
Spectra Averaged: 2 (USB2+H06089)
Boxcar Smoothing: 2 (USB2+H06089)
Correct for Electrical Dark: No (USB2+H06089)
Strobe/Lamp Enabled: No (USB2+H06089)
Correct for Detector Non-linearity: No (USB2+H06089)
Correct for Stray Light: No (USB2+H06089)
Number of Pixels in Processed Spectrum: 2048
>>>>>Begin Processed Spectral Data<<<<<
339.70	1021.64
340.07	1021.64
340.45	985.37
340.82	959.39
341.19	929.89
341.57	907.43
341.94	898.53
342.31	883.55
342.69	881.91
343.06	886.36
343.43	886.83
343.81	883.08
344.18	890.57
344.55	890.34
344.93	905.55
345.30	902.74
345.67	915.85
346.04	928.02
346.42	933.41
346.79	937.62
347.16	955.87
347.54	979.75
347.91	985.83
348.28	1011.81
348.65	1024.22
349.03	1024.92
349.40	1017.66
349.77	1027.96
350.14	1020.94
350.52	1020.47
350.89	1030.77
351.26	1034.28
351.63	1038.26
352.01	1062.37
352.38	1071.73
352.75	1082.50
353.12	1093.97
353.50	1102.16
353.87	1095.14
354.24	1097.71
354.61	1098.18
354.98	1098.88
355.36	1102.39
355.73	1110.35
356.10	1106.61
356.47	1104.97
356.84	1111.29
357.22	1104.03
357.59	1114.33
357.96	1116.20
358.33	1119.71
358.70	1106.37
359.08	1109.18
359.45	1089.52
359.82	1081.56
360.19	1084.14
360.56	1090.46
360.94	1088.35
361.31	1092.80
361.68	1090.46
362.05	1094.43
362.42	1093.97
362.79	1098.18
363.16	1103.33
363.54	1105.44
363.91	1093.03
364.28	1101.69
364.65	1107.78
365.02	1107.07
365.39	1111.29
365.76	1118.31
366.14	1107.07
366.51	1104.03
366.88	1093.97
367.25	1102.16
367.62	1096.31
367.99	1102.39
368.36	1088.35
368.73	1089.05
369.10	1085.54
369.48	1080.63
369.85	1077.58
370.22	1096.07
370.59	1094.20
370.96	1089.52
371.33	1094.43
371.70	1092.80
372.07	1085.31
372.44	1093.26
372.81	1097.71
373.18	1101.92
373.55	1103.56
373.93	1103.33
374.30	1100.75
374.67	1102.39
375.04	1103.56
375.41	1100.05
375.78	1102.39
376.15	1102.86
376.52	1098.65
376.89	1094.43
377.26	1108.24
377.63	1099.12
378.00	1097.24
378.37	1107.54
378.74	1110.58
379.11	1106.14
379.48	1103.80
379.85	1112.46
380.22	1116.44
380.59	1116.90
380.96	1113.63
381.33	1126.27
381.70	1121.58
382.07	1112.22
382.44	1104.50
382.81	1108.95
383.18	1116.44
383.55	1114.10
383.92	1118.07
384.29	1131.88
384.66	1129.07
385.03	1112.92
385.40	1111.29
385.77	1100.52
386.14	1092.09
386.51	1097.48
386.88	1110.12
387.25	1109.41
387.62	1115.03
387.99	1127.44
388.36	1122.99
388.73	1116.67
389.10	1118.31
389.46	1116.67
389.83	1099.35
390.20	1101.92
390.57	1105.67
390.94	1112.69
391.31	1113.39
391.68	1121.12
392.05	1125.33
392.42	1121.35
392.79	1113.63
393.16	1111.99
393.53	1113.86
393.89	1105.90
394.26	1105.67
394.63	1114.33
395.00	1127.44
395.37	1133.99
395.74	1130.95
396.11	1135.63
396.48	1138.44
396.84	1141.71
397.21	1142.42
397.58	1157.16
397.95	1163.95
398.32	1171.20
398.69	1175.42
399.06	1184.55
399.42	1186.18
399.79	1186.18
400.16	1182.67
400.53	1172.37
400.90	1173.78
401.27	1187.82
401.64	1201.40
402.00	1229.95
402.37	1250.55
402.74	1252.42
403.11	1252.89
403.48	1265.53
403.84	1258.74
404.21	1269.74
404.58	1287.06
404.95	1300.17
405.32	1315.62
405.68	1331.76
406.05	1350.49
406.42	1376.70
406.79	1409.00
407.16	1442.00
407.52	1477.35
407.89	1512.22
408.26	1544.99
408.63	1572.37
408.99	1607.25
409.36	1643.29
409.73	1682.61
410.10	1741.59
410.47	1799.64
410.83	1847.62
411.20	1922.52
411.57	1995.31
411.94	2055.69
412.30	2135.50
412.67	2226.55
413.04	2300.98
413.40	2402.56
413.77	2517.25
414.14	2638.02
414.51	2770.96
414.87	2912.33
415.24	3052.76
415.61	3192.96
415.97	3341.35
416.34	3497.93
416.71	3685.88
417.08	3887.86
417.44	4094.30
417.81	4335.37
418.18	4579.26
418.54	4852.40
418.91	5131.62
419.28	5434.96
419.64	5725.89
420.01	6056.60
420.38	6372.34
420.74	6719.21
421.11	7112.19
421.48	7509.37
421.84	7958.06
422.21	8415.16
422.58	8933.12
422.94	9430.49
423.31	9978.64
423.68	10515.56
424.04	11150.08
424.41	11773.83
424.77	12419.12
425.14	13058.08
425.51	13763.29
425.87	14493.30
426.24	15226.82
426.61	16145.48
426.97	17198.49
427.34	18190.88
427.70	19259.57
428.07	20307.42
428.44	21321.81
428.80	22337.37
429.17	23439.06
429.53	24474.98
429.90	25753.62
430.27	26945.18
430.63	28125.05
431.00	29418.43
431.36	30894.14
431.73	32144.22
432.09	33504.77
432.46	34840.04
432.83	36217.68
433.19	37408.08
433.56	38863.19
433.92	40405.37
434.29	41911.50
434.65	43291.02
435.02	44665.38
435.38	45973.74
435.75	46798.78
436.11	47979.11
436.48	49125.04
436.84	50138.49
437.21	51054.34
437.57	52120.22
437.94	52816.53
438.30	53326.53
438.67	53617.46
439.03	53688.38
439.40	53783.40
439.76	53642.97
440.13	53424.13
440.49	53422.73
440.86	53047.07
441.22	52608.46
441.59	52020.98
441.95	51390.67
442.32	50412.80
442.68	49751.60
443.05	48768.81
443.41	47899.30
443.78	46926.34
444.14	46103.64
444.51	44865.26
444.87	44014.94
445.24	42786.63
445.60	41567.21
445.96	40203.62
446.33	39251.49
446.69	37945.47
447.06	37005.98
447.42	36016.63
447.79	34930.15
448.15	33909.45
448.51	32960.36
448.88	32071.42
449.24	31062.65
449.61	30392.32
449.97	29607.54
450.33	28823.00
450.70	27892.63
451.06	27264.43
451.43	26477.54
451.79	25840.68
452.15	25279.42
452.52	24701.55
452.88	24085.98
453.24	23602.90
453.61	22980.55
453.97	22341.82
454.34	21727.19
454.70	21145.34
455.06	20475.94
455.43	19793.21
455.79	19044.71
456.15	18446.00
456.52	17781.75
456.88	17232.19
457.24	16657.12
457.61	16171.70
457.97	15643.67
458.33	15102.77
458.70	14565.15
459.06	13976.98
459.42	13553.57
459.79	13039.12
460.15	12634.91
460.51	12150.42
460.88	11769.38
461.24	11291.68
461.60	10916.49
461.96	10545.75
462.33	10228.61
462.69	9916.15
463.05	9629.43
463.42	9371.04
463.78	9100.71
464.14	8813.99
464.50	8579.94
464.87	8308.67
465.23	8054.72
465.59	7803.35
465.95	7588.72
466.32	7348.81
466.68	7165.32
467.04	6956.31
467.40	6785.92
467.77	6599.37
468.13	6427.58
468.49	6252.27
468.85	6126.35
469.22	5980.30
469.58	5862.57
469.94	5734.08
470.30	5595.28
470.66	5448.06
471.03	5338.29
471.39	5237.42
471.75	5126.71
472.11	5042.92
472.47	4971.77
472.84	4847.02
473.20	4711.03
473.56	4587.68
473.92	4501.08
474.28	4410.04
474.65	4310.56
475.01	4235.43
475.37	4164.98
475.73	4072.06
476.09	3981.95
476.45	3898.86
476.81	3811.56
477.18	3745.79
477.54	3669.26
477.90	3599.98
478.26	3536.08
478.62	3477.57
478.98	3430.29
479.34	3378.56
479.71	3312.33
480.07	3281.67
480.43	3238.60
480.79	3167.92
481.15	3115.25
481.51	3085.53
481.87	3024.44
482.23	2950.71
482.59	2900.39
482.96	2860.37
483.32	2796.24
483.68	2752.47
484.04	2733.28
484.40	2696.06
484.76	2645.04
485.12	2614.61
485.48	2572.01
485.84	2539.25
486.20	2513.03
486.56	2458.26
486.92	2418.01
487.28	2392.50
487.64	2354.34
488.00	2308.47
488.37	2294.66
488.73	2244.57
489.09	2206.19
489.45	2167.10
489.81	2137.61
490.17	2113.50
490.53	2107.42
490.89	2069.27
491.25	2046.80
491.61	2024.10
491.97	2005.84
492.33	1981.03
492.69	1976.11
493.05	1947.33
493.41	1913.86
493.77	1877.81
494.13	1848.09
494.49	1827.49
494.85	1821.40
495.21	1806.89
495.57	1777.87
495.93	1762.19
496.29	1728.02
496.64	1705.31
497.00	1700.63
497.36	1688.93
497.72	1665.29
498.08	1648.44
498.44	1624.57
498.80	1587.82
499.16	1575.65
499.52	1566.29
499.88	1555.99
500.24	1542.88
500.60	1542.41
500.96	1521.82
501.32	1488.11
501.68	1481.33
502.03	1476.64
502.39	1469.15
502.75	1462.60
503.11	1475.47
503.47	1454.41
503.83	1442.94
504.19	1427.49
504.55	1410.17
504.91	1400.11
505.26	1399.64
505.62	1378.81
505.98	1365.70
506.34	1366.87
506.70	1350.26
507.06	1337.15
507.42	1343.23
507.78	1332.23
508.13	1320.30
508.49	1310.00
508.85	1309.30
509.21	1300.64
509.57	1302.74
509.93	1299.23
510.28	1295.49
510.64	1289.40
511.00	1276.06
511.36	1269.51
511.72	1268.10
512.07	1265.53
512.43	1266.93
512.79	1259.21
513.15	1261.78
513.51	1258.97
513.86	1264.83
514.22	1253.82
514.58	1268.10
514.94	1260.38
515.30	1257.34
515.65	1247.27
516.01	1249.85
516.37	1233.46
516.73	1227.38
517.08	1220.12
517.44	1213.80
517.80	1215.91
518.16	1222.70
518.51	1218.25
518.87	1212.16
519.23	1224.10
519.59	1209.12
519.94	1196.25
520.30	1206.55
520.66	1208.65
521.01	1201.87
521.37	1200.69
521.73	1201.16
522.09	1197.18
522.44	1196.72
522.80	1196.72
523.16	1193.91
523.51	1182.44
523.87	1170.50
524.23	1171.91
524.58	1156.93
524.94	1162.08
525.30	1166.05
525.65	1161.14
526.01	1147.10
526.37	1145.46
526.72	1138.90
527.08	1143.12
527.44	1153.18
527.79	1165.59
528.15	1174.71
528.51	1179.40
528.86	1170.27
529.22	1157.39
529.58	1151.31
529.93	1148.27
530.29	1142.88
530.65	1147.33
531.00	1156.22
531.36	1155.05
531.71	1146.86
532.07	1137.73
532.43	1143.12
532.78	1136.33
533.14	1142.88
533.49	1162.31
533.85	1164.65
534.21	1156.69
534.56	1173.54
534.92	1162.31
535.27	1130.71
535.63	1135.63
535.98	1137.27
536.34	1123.46
536.69	1118.78
537.05	1127.44
537.41	1124.86
537.76	1134.46
538.12	1134.69
538.47	1146.86
538.83	1156.93
539.18	1151.08
539.54	1142.42
539.89	1137.97
540.25	1130.48
540.60	1126.27
540.96	1126.03
541.31	1113.86
541.67	1121.12
542.02	1125.56
542.38	1109.18
542.73	1119.01
543.09	1127.90
543.44	1123.22
543.80	1114.10
544.15	1130.48
544.51	1126.27
544.86	1128.84
545.22	1133.05
545.57	1144.76
545.93	1147.10
546.28	1143.35
546.64	1138.44
546.99	1136.10
547.35	1130.24
547.70	1122.05
548.05	1112.46
548.41	1114.56
548.76	1113.86
549.12	1114.10
549.47	1114.10
549.83	1125.80
550.18	1116.20
550.53	1096.31
550.89	1094.20
551.24	1097.71
551.60	1091.16
551.95	1092.56
552.30	1109.88
552.66	1114.80
553.01	1111.52
553.37	1123.46
553.72	1131.18
554.07	1141.01
554.43	1137.50
554.78	1135.63
555.13	1129.07
555.49	1127.20
555.84	1123.46
556.19	1130.01
556.55	1126.73
556.90	1127.20
557.26	1118.07
557.61	1103.09
557.96	1097.95
558.32	1100.05
558.67	1098.18
559.02	1104.26
559.37	1108.95
559.73	1098.18
560.08	1100.05
560.43	1106.14
560.79	1103.33
561.14	1106.84
561.49	1113.39
561.85	1117.14
562.20	1116.20
562.55	1130.24
562.90	1138.20
563.26	1137.97
563.61	1132.82
563.96	1130.48
564.32	1127.67
564.67	1117.84
565.02	1128.14
565.37	1127.67
565.73	1123.46
566.08	1120.18
566.43	1118.78
566.78	1104.03
567.14	1110.35
567.49	1118.54
567.84	1118.07
568.19	1124.39
568.54	1129.07
568.90	1126.73
569.25	1114.56
569.60	1119.24
569.95	1112.69
570.31	1117.61
570.66	1107.07
571.01	1111.05
571.36	1095.60
571.71	1099.58
572.06	1080.86
572.42	1083.43
572.77	1091.16
573.12	1109.41
573.47	1115.97
573.82	1126.27
574.18	1139.14
574.53	1135.63
574.88	1126.97
575.23	1123.69
575.58	1118.78
575.93	1104.97
576.28	1096.78
576.64	1105.67
576.99	1089.05
577.34	1091.16
577.69	1099.12
578.04	1107.78
578.39	1097.71
578.74	1107.31
579.09	1111.05
579.44	1108.71
579.80	1103.56
580.15	1103.80
580.50	1093.97
580.85	1093.03
581.20	1097.01
581.55	1098.18
581.90	1099.12
582.25	1112.69
582.60	1116.67
582.95	1109.41
583.30	1112.46
583.65	1110.12
584.00	1111.99
584.35	1112.69
584.71	1123.93
585.06	1120.18
585.41	1119.48
585.76	1112.22
586.11	1104.73
586.46	1099.58
586.81	1095.14
587.16	1094.90
587.51	1099.12
587.86	1107.07
588.21	1101.22
588.56	1102.86
588.91	1109.18
589.26	1106.14
589.61	1100.29
589.96	1101.22
590.31	1097.71
590.66	1096.78
591.01	1093.26
591.36	1091.86
591.71	1089.52
592.06	1098.18
592.41	1090.69
592.76	1090.69
593.10	1102.63
593.45	1110.12
593.80	1116.44
594.15	1118.31
594.50	1117.61
594.85	1114.80
595.20	1107.54
595.55	1093.97
595.90	1094.90
596.25	1096.07
596.60	1088.12
596.95	1095.14
597.30	1090.22
597.64	1144.99
597.99	1148.50
598.34	1139.14
598.69	1140.31
599.04	1148.27
599.39	1095.14
599.74	1089.75
600.09	1104.50
600.44	1099.58
600.78	1100.99
601.13	1098.18
601.48	1102.86
601.83	1098.18
602.18	1092.33
602.53	1088.82
602.88	1091.16
603.22	1091.39
603.57	1082.26
603.92	1086.94
604.27	1098.88
604.62	1103.33
604.97	1109.18
605.31	1113.63
605.66	1115.27
606.01	1103.80
606.36	1092.09
606.71	1088.12
607.05	1091.86
607.40	1100.75
607.75	1106.84
608.10	1112.92
608.44	1110.35
608.79	1108.24
609.14	1096.54
609.49	1090.92
609.84	1082.03
610.18	1087.65
610.53	1093.73
610.88	1103.56
611.23	1109.18
611.57	1116.44
611.92	1110.12
612.27	1108.71
612.62	1100.52
612.96	1093.03
613.31	1093.50
613.66	1092.09
614.00	1088.12
614.35	1088.12
614.70	1090.92
615.05	1098.41
615.39	1102.16
615.74	1107.31
616.09	1112.22
616.43	1116.44
616.78	1110.12
617.13	1120.41
617.47	1119.24
617.82	1116.44
618.17	1106.14
618.51	1101.46
618.86	1080.86
619.21	1070.56
619.55	1072.90
619.90	1082.03
620.25	1087.18
620.59	1099.82
620.94	1100.29
621.29	1092.80
621.63	1090.92
621.98	1087.88
622.32	1084.84
622.67	1097.71
623.02	1101.46
623.36	1100.05
623.71	1096.54
624.05	1100.29
624.40	1090.69
624.75	1096.31
625.09	1104.26
625.44	1108.01
625.78	1105.44
626.13	1104.03
626.48	1101.69
626.82	1093.73
627.17	1092.80
627.51	1086.24
627.86	1094.43
628.20	1090.46
628.55	1091.86
628.89	1089.29
629.24	1087.65
629.58	1086.94
629.93	1094.43
630.28	1091.63
630.62	1090.22
630.97	1093.03
631.31	1092.09
631.66	1091.86
632.00	1087.88
632.35	1094.90
632.69	1109.18
633.04	1101.22
633.38	1104.73
633.73	1108.01
634.07	1100.05
634.42	1095.60
634.76	1103.33
635.11	1090.69
635.45	1101.22
635.79	1102.63
636.14	1087.41
636.48	1096.07
636.83	1095.37
637.17	1084.60
637.52	1096.31
637.86	1115.03
638.21	1108.95
638.55	1106.84
638.89	1106.14
639.24	1100.05
639.58	1094.90
639.93	1093.50
640.27	1089.05
640.61	1088.82
640.96	1086.71
641.30	1083.20
641.65	1082.26
641.99	1093.50
642.33	1096.54
642.68	1102.63
643.02	1097.95
643.37	1100.29
643.71	1107.78
644.05	1107.31
644.40	1104.26
644.74	1101.69
645.08	1104.03
645.43	1094.90
645.77	1099.58
646.11	1101.22
646.46	1107.54
646.80	1106.61
647.14	1106.84
647.49	1114.10
647.83	1109.65
648.17	1115.27
648.52	1122.52
648.86	1126.73
649.20	1120.88
649.55	1125.80
649.89	1111.75
650.23	1101.92
650.57	1092.09
650.92	1082.97
651.26	1090.46
651.60	1095.84
651.95	1090.92
652.29	1094.43
652.63	1105.20
652.97	1101.22
653.32	1101.92
653.66	1098.88
654.00	1096.31
654.34	1083.67
654.69	1076.18
655.03	1074.31
655.37	1075.94
655.71	1081.09
656.05	1085.54
656.40	1084.14
656.74	1087.65
657.08	1089.52
657.42	1097.01
657.76	1112.69
658.11	1109.41
658.45	1109.65
658.79	1109.41
659.13	1105.44
659.47	1105.20
659.82	1108.95
660.16	1106.61
660.50	1104.03
660.84	1099.35
661.18	1087.65
661.52	1090.22
661.87	1089.52
662.21	1092.33
662.55	1095.60
662.89	1098.65
663.23	1092.33
663.57	1090.69
663.91	1083.67
664.25	1072.67
664.60	1067.75
664.94	1080.39
665.28	1087.88
665.62	1099.12
665.96	1104.26
666.30	1088.82
666.64	1086.24
666.98	1079.69
667.32	1061.67
667.66	1060.50
668.01	1082.03
668.35	1076.65
668.69	1084.84
669.03	1095.14
669.37	1098.65
669.71	1100.05
670.05	1098.65
670.39	1094.43
670.73	1091.16
671.07	1091.63
671.41	1075.94
671.75	1071.03
672.09	1067.28
672.43	1075.48
672.77	1079.22
673.11	1086.24
673.45	1099.82
673.79	1089.05
674.13	1092.80
674.47	1083.90
674.81	1086.48
675.15	1082.03
675.49	1101.46
675.83	1095.84
676.17	1106.61
676.51	1102.16
676.85	1101.46
677.19	1085.31
677.53	1087.88
677.87	1081.80
678.21	1081.56
678.55	1075.01
678.89	1085.07
679.23	1090.92
679.57	1092.09
679.90	1094.90
680.24	1100.05
680.58	1103.56
680.92	1089.05
681.26	1088.58
681.60	1088.58
681.94	1083.20
682.28	1075.71
682.62	1083.20
682.96	1083.67
683.29	1084.84
683.63	1088.82
683.97	1096.78
684.31	1090.69
684.65	1089.99
684.99	1083.67
685.33	1085.54
685.67	1079.92
686.00	1091.39
686.34	1094.67
686.68	1103.56
687.02	1103.09
687.36	1100.05
687.70	1086.48
688.03	1079.69
688.37	1074.07
688.71	1077.58
689.05	1080.16
689.39	1080.63
689.72	1081.09
690.06	1088.58
690.40	1087.41
690.74	1091.39
691.08	1098.88
691.41	1097.24
691.75	1087.88
692.09	1092.33
692.43	1095.84
692.76	1098.65
693.10	1112.92
693.44	1113.63
693.78	1107.31
694.11	1106.37
694.45	1095.84
694.79	1083.20
695.13	1082.73
695.46	1080.16
695.80	1073.60
696.14	1079.69
696.48	1079.46
696.81	1083.90
697.15	1083.67
697.49	1083.67
697.82	1081.80
698.16	1085.31
698.50	1084.37
698.83	1081.80
699.17	1084.60
699.51	1086.24
699.84	1088.12
700.18	1097.95
700.52	1107.78
700.85	1097.01
701.19	1100.52
701.53	1095.84
701.86	1084.84
702.20	1086.48
702.54	1091.86
702.87	1088.35
703.21	1091.39
703.55	1090.69
703.88	1085.54
704.22	1084.14
704.55	1086.24
704.89	1085.54
705.23	1089.99
705.56	1089.99
705.90	1092.80
706.23	1094.90
706.57	1102.63
706.91	1100.05
707.24	1100.99
707.58	1097.95
707.91	1094.43
708.25	1082.03
708.58	1094.90
708.92	1097.95
709.26	1101.22
709.59	1095.14
709.93	1101.22
710.26	1089.75
710.60	1084.14
710.93	1083.43
711.27	1094.20
711.60	1093.26
711.94	1088.35
712.27	1096.07
712.61	1097.95
712.94	1090.22
713.28	1088.58
713.61	1089.29
713.95	1086.71
714.28	1082.50
714.62	1086.94
714.95	1081.56
715.29	1087.88
715.62	1077.35
715.96	1078.99
716.29	1079.92
716.63	1086.94
716.96	1082.03
717.29	1081.33
717.63	1081.33
717.96	1085.31
718.30	1082.03
718.63	1086.24
718.97	1082.03
719.30	1082.73
719.63	1085.07
719.97	1082.97
720.30	1084.37
720.64	1089.29
720.97	1092.33
721.30	1089.05
721.64	1092.33
721.97	1083.20
722.31	1085.07
722.64	1086.24
722.97	1075.94
723.31	1076.65
723.64	1076.41
723.97	1077.82
724.31	1070.56
724.64	1088.12
724.98	1094.20
725.31	1098.88
725.64	1099.58
725.98	1108.24
726.31	1098.41
726.64	1089.52
726.97	1097.95
727.31	1101.92
727.64	1087.65
727.97	1082.97
728.31	1079.22
728.64	1068.22
728.97	1062.60
729.31	1075.71
729.64	1080.86
729.97	1089.75
730.30	1094.43
730.64	1088.58
730.97	1088.35
731.30	1085.31
731.63	1078.52
731.97	1078.99
732.30	1089.52
732.63	1091.16
732.96	1086.94
733.30	1078.28
733.63	1066.82
733.96	1066.35
734.29	1060.50
734.63	1067.75
734.96	1085.31
735.29	1090.69
735.62	1084.60
735.95	1079.69
736.29	1072.20
736.62	1071.03
736.95	1075.94
737.28	1076.88
737.61	1068.69
737.94	1066.35
738.28	1057.45
738.61	1053.01
738.94	1056.99
739.27	1065.41
739.60	1067.05
739.93	1074.07
740.27	1075.94
740.60	1077.82
740.93	1086.48
741.26	1089.75
741.59	1104.26
741.92	1098.88
742.25	1097.01
742.58	1092.33
742.91	1090.69
743.25	1078.75
743.58	1086.71
743.91	1086.94
744.24	1086.24
744.57	1089.05
744.90	1087.65
745.23	1082.03
745.56	1087.18
745.89	1086.94
746.22	1093.97
746.55	1092.33
746.88	1095.37
747.21	1082.73
747.54	1076.18
747.87	1067.28
748.20	1066.58
748.53	1064.71
748.87	1073.84
749.20	1082.73
749.53	1088.35
749.86	1081.80
750.19	1086.01
750.52	1078.52
750.85	1080.86
751.18	1076.41
751.51	1084.84
751.84	1086.71
752.16	1091.86
752.49	1087.88
752.82	1089.75
753.15	1086.71
753.48	1088.35
753.81	1084.37
754.14	1085.77
754.47	1083.43
754.80	1095.14
755.13	1085.31
755.46	1093.50
755.79	1091.39
756.12	1100.99
756.45	1098.18
756.78	1091.39
757.11	1083.20
757.43	1084.60
757.76	1085.31
758.09	1069.86
758.42	1087.18
758.75	1089.05
759.08	1090.69
759.41	1079.22
759.74	1084.14
760.07	1086.48
760.39	1090.92
760.72	1078.28
761.05	1086.71
761.38	1091.86
761.71	1087.18
762.04	1084.84
762.36	1104.50
762.69	1107.31
763.02	1100.99
763.35	1095.37
763.68	1086.71
764.01	1075.48
