SpectraSuite Data File
++++++++++++++++++++++++++++++++++++
Date: Mon Aug 26 10:24:36 PDT 2019
User: corrico
Dark Spectrum Present: No
Reference Spectrum Present: No
Number of Sampled Component Spectra: 1
Spectrometers: USB2+H06089
Integration Time (usec): 10000 (USB2+H06089)
Spectra Averaged: 2 (USB2+H06089)
Boxcar Smoothing: 2 (USB2+H06089)
Correct for Electrical Dark: No (USB2+H06089)
Strobe/Lamp Enabled: No (USB2+H06089)
Correct for Detector Non-linearity: No (USB2+H06089)
Correct for Stray Light: No (USB2+H06089)
Number of Pixels in Processed Spectrum: 2048
>>>>>Begin Processed Spectral Data<<<<<
339.70	1034.52
340.07	1034.52
340.45	993.56
340.82	972.26
341.19	946.51
341.57	916.79
341.94	916.32
342.31	906.72
342.69	901.11
343.06	902.04
343.43	908.13
343.81	904.85
344.18	902.51
344.55	902.51
344.93	904.85
345.30	907.43
345.67	913.51
346.04	931.53
346.42	947.92
346.79	959.62
347.16	965.47
347.54	975.54
347.91	985.37
348.28	988.88
348.65	996.37
349.03	1003.39
349.40	1014.62
349.77	1027.73
350.14	1040.84
350.52	1052.30
350.89	1063.77
351.26	1072.20
351.63	1074.54
352.01	1084.60
352.38	1088.82
352.75	1101.92
353.12	1099.12
353.50	1098.88
353.87	1093.26
354.24	1089.99
354.61	1077.82
354.98	1085.07
355.36	1079.92
355.73	1077.82
356.10	1081.33
356.47	1082.97
356.84	1082.97
357.22	1085.54
357.59	1080.39
357.96	1081.33
358.33	1090.46
358.70	1095.60
359.08	1107.07
359.45	1113.86
359.82	1112.46
360.19	1100.29
360.56	1092.09
360.94	1090.22
361.31	1095.37
361.68	1092.33
362.05	1110.82
362.42	1108.48
362.79	1100.05
363.16	1105.44
363.54	1115.03
363.91	1104.73
364.28	1098.18
364.65	1097.24
365.02	1085.07
365.39	1078.75
365.76	1073.84
366.14	1082.97
366.51	1094.43
366.88	1098.65
367.25	1109.65
367.62	1117.61
367.99	1109.41
368.36	1105.20
368.73	1103.33
369.10	1102.16
369.48	1099.12
369.85	1110.35
370.22	1090.92
370.59	1095.37
370.96	1084.37
371.33	1093.97
371.70	1087.65
372.07	1100.99
372.44	1097.24
372.81	1097.01
373.18	1078.52
373.55	1080.39
373.93	1086.71
374.30	1082.73
374.67	1086.71
375.04	1095.37
375.41	1091.16
375.78	1080.16
376.15	1093.03
376.52	1084.60
376.89	1085.07
377.26	1107.31
377.63	1112.22
378.00	1097.24
378.37	1106.61
378.74	1113.39
379.11	1101.22
379.48	1104.03
379.85	1109.41
380.22	1104.03
380.59	1097.01
380.96	1092.56
381.33	1106.37
381.70	1116.44
382.07	1120.88
382.44	1122.29
382.81	1119.24
383.18	1107.31
383.55	1100.05
383.92	1100.99
384.29	1097.24
384.66	1105.90
385.03	1106.84
385.40	1107.54
385.77	1102.86
386.14	1109.18
386.51	1099.82
386.88	1103.09
387.25	1112.22
387.62	1116.20
387.99	1120.41
388.36	1134.46
388.73	1135.86
389.10	1130.95
389.46	1126.03
389.83	1121.35
390.20	1114.56
390.57	1105.20
390.94	1103.80
391.31	1110.12
391.68	1113.86
392.05	1106.84
392.42	1114.10
392.79	1122.29
393.16	1127.90
393.53	1127.90
393.89	1138.67
394.26	1137.27
394.63	1135.39
395.00	1136.56
395.37	1140.07
395.74	1148.27
396.11	1151.78
396.48	1139.37
396.84	1135.16
397.21	1126.27
397.58	1127.90
397.95	1130.01
398.32	1147.56
398.69	1147.56
399.06	1157.39
399.42	1149.67
399.79	1153.42
400.16	1154.12
400.53	1167.46
400.90	1175.89
401.27	1187.12
401.64	1196.01
402.00	1195.08
402.37	1187.59
402.74	1191.33
403.11	1197.89
403.48	1195.08
403.84	1208.18
404.21	1227.14
404.58	1246.80
404.95	1262.48
405.32	1280.51
405.68	1301.57
406.05	1314.21
406.42	1321.70
406.79	1332.00
407.16	1356.34
407.52	1365.00
407.89	1398.47
408.26	1426.56
408.63	1457.22
408.99	1480.86
409.36	1522.05
409.73	1561.37
410.10	1610.99
410.47	1648.44
410.83	1702.04
411.20	1749.32
411.57	1796.36
411.94	1844.34
412.30	1919.24
412.67	1981.03
413.04	2062.25
413.40	2145.10
413.77	2220.47
414.14	2300.51
414.51	2410.28
414.87	2495.25
415.24	2588.40
415.61	2716.19
415.97	2832.05
416.34	2951.65
416.71	3100.74
417.08	3259.90
417.44	3408.76
417.81	3572.36
418.18	3763.82
418.54	3973.53
418.91	4179.96
419.28	4421.97
419.64	4691.14
420.01	4935.49
420.38	5207.22
420.74	5491.83
421.11	5775.74
421.48	6093.12
421.84	6437.88
422.21	6751.04
422.58	7142.85
422.94	7493.23
423.31	7888.78
423.68	8319.43
424.04	8795.03
424.41	9268.05
424.77	9797.01
425.14	10298.12
425.51	10824.51
425.87	11394.90
426.24	11964.58
426.61	12640.77
426.97	13455.74
427.34	14187.86
427.70	14986.92
428.07	15780.83
428.44	16571.70
428.80	17340.56
429.17	18240.73
429.53	19092.22
429.90	20141.01
430.27	21015.20
430.63	21860.14
431.00	22855.57
431.36	23964.75
431.73	24835.19
432.09	25902.24
432.46	26960.40
432.83	27967.53
433.19	28849.21
433.56	30005.43
433.92	31206.60
434.29	32365.86
434.65	33483.00
435.02	34521.03
435.38	35454.44
435.75	36084.74
436.11	37013.70
436.48	37787.48
436.84	38580.92
437.21	39350.49
437.57	40205.72
437.94	40796.94
438.30	41383.48
438.67	41763.58
439.03	41939.12
439.40	42142.98
439.76	42054.98
440.13	41812.03
440.49	41861.89
440.86	41599.04
441.22	41252.88
441.59	40829.01
441.95	40431.58
442.32	39643.53
442.68	39057.46
443.05	38265.65
443.41	37454.19
443.78	36552.85
444.14	35719.38
444.51	34671.99
444.87	33904.06
445.24	33017.70
445.60	32107.23
445.96	31138.72
446.33	30366.58
446.69	29379.57
447.06	28605.56
447.42	27742.84
447.79	26913.35
448.15	26176.32
448.51	25396.22
448.88	24680.95
449.24	23988.62
449.61	23427.36
449.97	22843.16
450.33	22289.39
450.70	21598.46
451.06	21105.55
451.43	20519.94
451.79	19995.90
452.15	19518.43
452.52	19083.32
452.88	18610.30
453.24	18182.69
453.61	17737.98
453.97	17302.18
454.34	16790.07
454.70	16358.47
455.06	15881.94
455.43	15309.91
455.79	14752.16
456.15	14344.44
456.52	13825.54
456.88	13400.74
457.24	12983.42
457.61	12585.06
457.97	12164.93
458.33	11776.17
458.70	11340.36
459.06	10926.56
459.42	10581.80
459.79	10206.84
460.15	9890.17
460.51	9561.56
460.88	9258.22
461.24	8935.46
461.60	8677.54
461.96	8395.50
462.33	8141.55
462.69	7871.22
463.05	7584.97
463.42	7350.45
463.78	7100.48
464.14	6925.18
464.50	6781.00
464.87	6625.59
465.23	6432.96
465.59	6265.85
465.95	6054.26
466.32	5849.23
466.68	5702.95
467.04	5544.73
467.40	5408.28
467.77	5315.59
468.13	5201.14
468.49	5070.77
468.85	4976.68
469.22	4900.85
469.58	4787.10
469.94	4686.45
470.30	4612.96
470.66	4514.43
471.03	4400.21
471.39	4315.48
471.75	4228.88
472.11	4125.66
472.47	4050.06
472.84	3955.97
473.20	3851.12
473.56	3772.24
473.92	3682.36
474.28	3616.13
474.65	3554.81
475.01	3502.85
475.37	3427.25
475.73	3370.61
476.09	3308.82
476.45	3250.54
476.81	3187.34
477.18	3153.17
477.54	3095.83
477.90	3051.36
478.26	2987.23
478.62	2948.37
478.98	2893.84
479.34	2860.84
479.71	2801.39
480.07	2779.39
480.43	2737.96
480.79	2688.11
481.15	2659.08
481.51	2630.53
481.87	2593.08
482.23	2547.91
482.59	2527.54
482.96	2477.22
483.32	2437.20
483.68	2401.39
484.04	2369.79
484.40	2337.26
484.76	2314.09
485.12	2284.13
485.48	2234.04
485.84	2215.32
486.20	2183.49
486.56	2140.19
486.92	2111.87
487.28	2098.29
487.64	2075.59
488.00	2058.74
488.37	2042.82
488.73	2020.82
489.09	1996.71
489.45	1957.16
489.81	1909.88
490.17	1896.30
490.53	1866.58
490.89	1841.77
491.25	1822.81
491.61	1831.00
491.97	1807.83
492.33	1793.55
492.69	1777.40
493.05	1759.15
493.41	1727.32
493.77	1693.61
494.13	1675.36
494.49	1671.14
494.85	1660.14
495.21	1633.46
495.57	1637.67
495.93	1622.69
496.29	1593.90
496.64	1586.42
497.00	1571.20
497.36	1554.35
497.72	1543.35
498.08	1543.12
498.44	1524.16
498.80	1521.58
499.16	1512.69
499.52	1498.65
499.88	1476.88
500.24	1464.94
500.60	1453.71
500.96	1437.56
501.32	1425.39
501.68	1416.96
502.03	1400.58
502.39	1386.07
502.75	1371.55
503.11	1367.34
503.47	1354.70
503.83	1347.68
504.19	1347.68
504.55	1343.70
504.91	1339.49
505.26	1346.98
505.62	1348.85
505.98	1331.30
506.34	1328.49
506.70	1327.08
507.06	1306.02
507.42	1297.12
507.78	1300.64
508.13	1295.72
508.49	1279.34
508.85	1284.95
509.21	1274.66
509.57	1267.40
509.93	1258.74
510.28	1251.48
510.64	1240.95
511.00	1233.70
511.36	1220.12
511.72	1218.25
512.07	1220.36
512.43	1210.76
512.79	1209.82
513.15	1207.72
513.51	1198.82
513.86	1197.18
514.22	1191.33
514.58	1192.50
514.94	1200.93
515.30	1193.67
515.65	1193.21
516.01	1192.74
516.37	1189.69
516.73	1189.93
517.08	1190.16
517.44	1174.48
517.80	1176.35
518.16	1163.01
518.51	1160.20
518.87	1167.69
519.23	1171.44
519.59	1181.27
519.94	1187.82
520.30	1178.93
520.66	1177.29
521.01	1174.25
521.37	1159.50
521.73	1166.99
522.09	1167.46
522.44	1161.84
522.80	1170.27
523.16	1167.46
523.51	1172.84
523.87	1170.03
524.23	1159.97
524.58	1156.46
524.94	1163.95
525.30	1150.84
525.65	1155.05
526.01	1163.71
526.37	1157.63
526.72	1157.86
527.08	1155.99
527.44	1153.65
527.79	1151.54
528.15	1144.76
528.51	1142.88
528.86	1142.88
529.22	1142.88
529.58	1142.18
529.93	1150.37
530.29	1141.25
530.65	1137.50
531.00	1138.20
531.36	1138.90
531.71	1136.80
532.07	1133.99
532.43	1129.78
532.78	1120.88
533.14	1108.71
533.49	1107.78
533.85	1112.22
534.21	1111.52
534.56	1124.39
534.92	1133.29
535.27	1127.90
535.63	1129.31
535.98	1139.61
536.34	1123.46
536.69	1113.86
537.05	1127.67
537.41	1116.67
537.76	1110.35
538.12	1117.84
538.47	1121.82
538.83	1112.69
539.18	1125.33
539.54	1126.50
539.89	1126.27
540.25	1134.46
540.60	1133.05
540.96	1126.50
541.31	1133.05
541.67	1130.01
542.02	1124.86
542.38	1120.88
542.73	1130.95
543.09	1121.58
543.44	1121.82
543.80	1129.07
544.15	1133.99
544.51	1124.39
544.86	1123.69
545.22	1129.78
545.57	1118.54
545.93	1115.27
546.28	1121.58
546.64	1112.69
546.99	1104.50
547.35	1114.56
547.70	1113.63
548.05	1121.12
548.41	1133.05
548.76	1130.95
549.12	1126.73
549.47	1127.67
549.83	1115.27
550.18	1108.01
550.53	1111.29
550.89	1103.80
551.24	1107.31
551.60	1113.39
551.95	1120.41
552.30	1120.41
552.66	1118.78
553.01	1119.24
553.37	1109.18
553.72	1111.75
554.07	1109.18
554.43	1121.58
554.78	1118.78
555.13	1126.03
555.49	1123.22
555.84	1127.44
556.19	1119.95
556.55	1119.95
556.90	1112.69
557.26	1105.90
557.61	1103.09
557.96	1101.22
558.32	1104.50
558.67	1096.31
559.02	1096.78
559.37	1099.82
559.73	1108.24
560.08	1103.56
560.43	1107.31
560.79	1118.07
561.14	1122.29
561.49	1119.01
561.85	1119.24
562.20	1130.01
562.55	1112.22
562.90	1101.92
563.26	1110.12
563.61	1106.61
563.96	1100.29
564.32	1108.01
564.67	1112.22
565.02	1099.35
565.37	1097.95
565.73	1101.69
566.08	1101.22
566.43	1093.26
566.78	1098.41
567.14	1106.61
567.49	1104.50
567.84	1121.58
568.19	1134.69
568.54	1129.07
568.90	1117.14
569.25	1115.27
569.60	1106.14
569.95	1098.65
570.31	1104.50
570.66	1118.54
571.01	1122.29
571.36	1122.75
571.71	1115.27
572.06	1113.16
572.42	1098.18
572.77	1100.52
573.12	1100.05
573.47	1103.56
573.82	1093.50
574.18	1095.84
574.53	1089.52
574.88	1069.39
575.23	1079.46
575.58	1083.90
575.93	1086.94
576.28	1099.12
576.64	1117.61
576.99	1111.99
577.34	1108.01
577.69	1102.39
578.04	1098.41
578.39	1100.29
578.74	1095.84
579.09	1106.14
579.44	1122.05
579.80	1117.61
580.15	1107.78
580.50	1112.22
580.85	1112.46
581.20	1109.18
581.55	1109.18
581.90	1109.41
582.25	1111.75
582.60	1109.88
582.95	1100.99
583.30	1106.14
583.65	1113.16
584.00	1119.48
584.35	1115.50
584.71	1116.67
585.06	1099.35
585.41	1094.67
585.76	1085.07
586.11	1086.01
586.46	1094.20
586.81	1103.56
587.16	1101.69
587.51	1092.80
587.86	1100.29
588.21	1100.29
588.56	1099.58
588.91	1107.78
589.26	1114.33
589.61	1105.90
589.96	1093.26
590.31	1080.63
590.66	1074.31
591.01	1079.46
591.36	1083.20
591.71	1095.84
592.06	1096.54
592.41	1096.78
592.76	1097.95
593.10	1094.90
593.45	1084.84
593.80	1093.03
594.15	1085.07
594.50	1075.94
594.85	1075.24
595.20	1070.80
595.55	1079.46
595.90	1085.31
596.25	1095.37
596.60	1101.92
596.95	1109.65
597.30	1103.56
597.64	1157.86
597.99	1166.05
598.34	1167.69
598.69	1174.48
599.04	1174.48
599.39	1129.78
599.74	1116.90
600.09	1116.67
600.44	1115.97
600.78	1114.80
601.13	1103.33
601.48	1116.90
601.83	1102.16
602.18	1099.58
602.53	1102.86
602.88	1114.56
603.22	1100.29
603.57	1107.78
603.92	1105.20
604.27	1102.16
604.62	1087.41
604.97	1085.31
605.31	1090.92
605.66	1088.12
606.01	1093.73
606.36	1100.29
606.71	1089.99
607.05	1079.46
607.40	1081.80
607.75	1077.58
608.10	1076.18
608.44	1089.29
608.79	1097.95
609.14	1104.03
609.49	1108.48
609.84	1110.12
610.18	1107.54
610.53	1109.88
610.88	1111.99
611.23	1107.07
611.57	1107.31
611.92	1110.35
612.27	1108.71
612.62	1099.12
612.96	1094.90
613.31	1093.97
613.66	1096.07
614.00	1086.01
614.35	1081.09
614.70	1091.39
615.05	1082.03
615.39	1074.31
615.74	1074.31
616.09	1078.99
616.43	1072.20
616.78	1084.37
617.13	1086.24
617.47	1092.09
617.82	1095.60
618.17	1086.48
618.51	1077.11
618.86	1074.54
619.21	1075.01
619.55	1073.37
619.90	1089.75
620.25	1101.92
620.59	1102.63
620.94	1102.63
621.29	1092.80
621.63	1081.09
621.98	1073.37
622.32	1070.09
622.67	1073.37
623.02	1085.07
623.36	1095.37
623.71	1093.03
624.05	1100.29
624.40	1096.31
624.75	1097.24
625.09	1087.88
625.44	1097.48
625.78	1097.01
626.13	1105.20
626.48	1098.88
626.82	1107.07
627.17	1094.20
627.51	1103.80
627.86	1090.92
628.20	1093.97
628.55	1094.20
628.89	1109.18
629.24	1093.03
629.58	1095.60
629.93	1092.80
630.28	1080.86
630.62	1071.03
630.97	1083.90
631.31	1079.46
631.66	1080.39
632.00	1097.01
632.35	1105.44
632.69	1100.75
633.04	1112.22
633.38	1109.41
633.73	1094.67
634.07	1093.73
634.42	1094.43
634.76	1082.73
635.11	1087.41
635.45	1091.39
635.79	1090.46
636.14	1092.09
636.48	1097.95
636.83	1090.46
637.17	1092.33
637.52	1081.80
637.86	1082.97
638.21	1081.33
638.55	1084.60
638.89	1082.03
639.24	1088.12
639.58	1085.31
639.93	1097.95
640.27	1103.33
640.61	1109.18
640.96	1108.24
641.30	1102.63
641.65	1090.22
641.99	1083.67
642.33	1072.90
642.68	1074.54
643.02	1081.09
643.37	1077.11
643.71	1095.37
644.05	1090.69
644.40	1091.63
644.74	1090.22
645.08	1094.20
645.43	1073.14
645.77	1077.35
646.11	1071.73
646.46	1065.65
646.80	1065.18
647.14	1068.22
647.49	1070.56
647.83	1070.09
648.17	1084.37
648.52	1078.52
648.86	1086.48
649.20	1086.48
649.55	1090.92
649.89	1081.56
650.23	1091.39
650.57	1090.92
650.92	1094.90
651.26	1089.52
651.60	1084.84
651.95	1075.01
652.29	1070.33
652.63	1077.35
652.97	1077.11
653.32	1078.05
653.66	1084.14
654.00	1085.31
654.34	1077.11
654.69	1078.28
655.03	1076.88
655.37	1075.48
655.71	1075.94
656.05	1077.11
656.40	1083.67
656.74	1087.18
657.08	1093.03
657.42	1092.33
657.76	1097.24
658.11	1094.90
658.45	1088.12
658.79	1088.58
659.13	1088.58
659.47	1087.65
659.82	1086.48
660.16	1087.88
660.50	1084.60
660.84	1082.73
661.18	1079.92
661.52	1075.71
661.87	1079.22
662.21	1080.86
662.55	1076.41
662.89	1081.80
663.23	1079.46
663.57	1081.09
663.91	1082.73
664.25	1088.12
664.60	1088.58
664.94	1091.39
665.28	1094.90
665.62	1086.94
665.96	1088.12
666.30	1075.48
666.64	1078.99
666.98	1075.94
667.32	1082.03
667.66	1072.90
668.01	1084.60
668.35	1086.01
668.69	1083.20
669.03	1075.24
669.37	1076.18
669.71	1058.39
670.05	1057.69
670.39	1067.28
670.73	1077.82
671.07	1083.20
671.41	1092.33
671.75	1084.37
672.09	1074.31
672.43	1066.11
672.77	1068.22
673.11	1070.33
673.45	1074.31
673.79	1080.16
674.13	1085.31
674.47	1085.31
674.81	1090.22
675.15	1097.71
675.49	1101.22
675.83	1102.39
676.17	1104.03
676.51	1111.05
676.85	1108.71
677.19	1103.80
677.53	1101.69
677.87	1100.52
678.21	1093.26
678.55	1091.39
678.89	1096.54
679.23	1101.46
679.57	1093.03
679.90	1086.01
680.24	1088.35
680.58	1085.54
680.92	1088.12
681.26	1092.56
681.60	1094.20
681.94	1090.22
682.28	1087.88
682.62	1080.63
682.96	1080.39
683.29	1080.86
683.63	1082.73
683.97	1087.65
684.31	1085.31
684.65	1091.39
684.99	1095.60
685.33	1102.39
685.67	1101.22
686.00	1106.61
686.34	1108.71
686.68	1104.03
687.02	1100.29
687.36	1090.46
687.70	1092.80
688.03	1101.46
688.37	1100.29
688.71	1096.07
689.05	1098.65
689.39	1096.78
689.72	1081.09
690.06	1078.75
690.40	1079.46
690.74	1082.97
691.08	1077.35
691.41	1076.41
691.75	1079.69
692.09	1081.09
692.43	1080.39
692.76	1083.90
693.10	1091.86
693.44	1091.16
693.78	1089.75
694.11	1091.16
694.45	1092.33
694.79	1083.90
695.13	1085.77
695.46	1082.26
695.80	1082.50
696.14	1082.97
696.48	1089.75
696.81	1091.63
697.15	1094.67
697.49	1087.18
697.82	1078.05
698.16	1071.03
698.50	1071.26
698.83	1071.73
699.17	1075.24
699.51	1085.07
699.84	1096.78
700.18	1094.90
700.52	1100.29
700.85	1106.61
701.19	1101.92
701.53	1092.56
701.86	1088.58
702.20	1081.56
702.54	1076.65
702.87	1071.97
703.21	1072.43
703.55	1076.88
703.88	1079.46
704.22	1076.65
704.55	1080.39
704.89	1081.33
705.23	1080.39
705.56	1081.09
705.90	1086.94
706.23	1083.90
706.57	1069.86
706.91	1076.88
707.24	1087.65
707.58	1095.37
707.91	1100.05
708.25	1122.05
708.58	1111.52
708.92	1088.12
709.26	1073.14
709.59	1079.92
709.93	1063.77
710.26	1056.75
710.60	1067.75
710.93	1077.58
711.27	1068.45
711.60	1082.26
711.94	1083.67
712.27	1084.60
712.61	1070.80
712.94	1065.65
713.28	1054.65
713.61	1061.43
713.95	1061.67
714.28	1069.62
714.62	1070.56
714.95	1080.39
715.29	1085.54
715.62	1079.46
715.96	1083.43
716.29	1088.12
716.63	1091.86
716.96	1083.43
717.29	1089.75
717.63	1085.54
717.96	1081.56
718.30	1072.67
718.63	1073.60
718.97	1076.88
719.30	1075.01
719.63	1076.88
719.97	1076.41
720.30	1083.67
720.64	1083.90
720.97	1079.22
721.30	1084.37
721.64	1089.75
721.97	1087.65
722.31	1086.48
722.64	1096.07
722.97	1098.65
723.31	1092.33
723.64	1096.07
723.97	1084.37
724.31	1081.56
724.64	1073.37
724.98	1080.39
725.31	1079.22
725.64	1096.54
725.98	1101.92
726.31	1104.03
726.64	1095.14
726.97	1091.39
727.31	1082.73
727.64	1083.43
727.97	1079.69
728.31	1086.71
728.64	1078.52
728.97	1072.20
729.31	1065.65
729.64	1064.01
729.97	1067.52
730.30	1072.43
730.64	1078.05
730.97	1077.58
731.30	1079.46
731.63	1068.92
731.97	1074.77
732.30	1064.71
732.63	1067.52
732.96	1080.16
733.30	1088.82
733.63	1090.69
733.96	1102.39
734.29	1102.86
734.63	1089.99
734.96	1085.07
735.29	1089.75
735.62	1098.18
735.95	1091.63
736.29	1095.14
736.62	1094.90
736.95	1085.77
737.28	1072.43
737.61	1087.18
737.94	1080.39
738.28	1088.58
738.61	1091.86
738.94	1100.99
739.27	1090.69
739.60	1097.95
739.93	1087.65
740.27	1084.37
740.60	1077.58
740.93	1069.62
741.26	1065.18
741.59	1069.16
741.92	1074.31
742.25	1082.50
742.58	1089.52
742.91	1092.80
743.25	1087.65
743.58	1081.80
743.91	1084.60
744.24	1079.69
744.57	1077.58
744.90	1083.43
745.23	1088.58
745.56	1089.52
745.89	1096.78
746.22	1094.67
746.55	1089.29
746.88	1088.58
747.21	1072.43
747.54	1072.90
747.87	1072.90
748.20	1082.97
748.53	1077.35
748.87	1078.52
749.20	1082.50
749.53	1082.97
749.86	1074.77
750.19	1071.73
750.52	1073.60
750.85	1058.39
751.18	1060.50
751.51	1060.03
751.84	1067.52
752.16	1073.60
752.49	1084.14
752.82	1087.41
753.15	1085.77
753.48	1075.48
753.81	1073.14
754.14	1067.75
754.47	1070.09
754.80	1079.22
755.13	1090.46
755.46	1082.73
755.79	1083.43
756.12	1078.75
756.45	1069.39
756.78	1056.75
757.11	1059.09
757.43	1060.26
757.76	1061.67
758.09	1071.97
758.42	1083.20
758.75	1095.37
759.08	1094.20
759.41	1100.75
759.74	1097.48
760.07	1100.99
760.39	1099.12
760.72	1101.69
761.05	1097.01
761.38	1087.18
761.71	1078.28
762.04	1071.73
762.36	1071.73
762.69	1077.58
763.02	1082.03
763.35	1089.99
763.68	1088.35
764.01	1090.46
764.33	1087.65
