SpectraSuite Data File
++++++++++++++++++++++++++++++++++++
Date: Mon Aug 26 10:24:35 PDT 2019
User: corrico
Dark Spectrum Present: No
Reference Spectrum Present: No
Number of Sampled Component Spectra: 1
Spectrometers: USB2+H06089
Integration Time (usec): 10000 (USB2+H06089)
Spectra Averaged: 2 (USB2+H06089)
Boxcar Smoothing: 2 (USB2+H06089)
Correct for Electrical Dark: No (USB2+H06089)
Strobe/Lamp Enabled: No (USB2+H06089)
Correct for Detector Non-linearity: No (USB2+H06089)
Correct for Stray Light: No (USB2+H06089)
Number of Pixels in Processed Spectrum: 2048
>>>>>Begin Processed Spectral Data<<<<<
339.70	1019.30
340.07	1019.30
340.45	985.13
340.82	954.24
341.19	936.21
341.57	905.79
341.94	892.91
342.31	883.79
342.69	893.38
343.06	881.21
343.43	878.64
343.81	877.70
344.18	895.72
344.55	887.30
344.93	898.53
345.30	908.13
345.67	924.51
346.04	918.89
346.42	935.51
346.79	950.26
347.16	959.85
347.54	957.75
347.91	970.85
348.28	985.13
348.65	989.11
349.03	999.41
349.40	1014.15
349.77	1027.26
350.14	1038.73
350.52	1048.56
350.89	1063.77
351.26	1065.41
351.63	1070.09
352.01	1068.45
352.38	1077.11
352.75	1078.99
353.12	1084.37
353.50	1090.92
353.87	1102.16
354.24	1098.18
354.61	1113.86
354.98	1119.95
355.36	1108.01
355.73	1109.65
356.10	1110.58
356.47	1100.05
356.84	1100.29
357.22	1109.88
357.59	1098.18
357.96	1090.92
358.33	1087.65
358.70	1089.29
359.08	1081.33
359.45	1079.92
359.82	1081.09
360.19	1082.50
360.56	1085.77
360.94	1093.73
361.31	1095.14
361.68	1088.82
362.05	1087.41
362.42	1084.60
362.79	1088.12
363.16	1086.01
363.54	1095.84
363.91	1095.84
364.28	1087.18
364.65	1085.77
365.02	1081.56
365.39	1086.71
365.76	1080.16
366.14	1084.84
366.51	1093.26
366.88	1113.39
367.25	1101.69
367.62	1107.31
367.99	1113.63
368.36	1097.48
368.73	1081.33
369.10	1090.46
369.48	1089.75
369.85	1083.43
370.22	1093.97
370.59	1101.22
370.96	1108.95
371.33	1104.97
371.70	1104.03
372.07	1098.65
372.44	1097.95
372.81	1089.99
373.18	1095.14
373.55	1087.65
373.93	1080.16
374.30	1077.35
374.67	1076.18
375.04	1078.75
375.41	1094.90
375.78	1106.61
376.15	1095.37
376.52	1104.03
376.89	1099.58
377.26	1087.65
377.63	1076.88
378.00	1091.63
378.37	1082.73
378.74	1086.48
379.11	1091.63
379.48	1095.60
379.85	1094.67
380.22	1101.22
380.59	1092.80
380.96	1096.31
381.33	1100.52
381.70	1095.60
382.07	1082.97
382.44	1089.75
382.81	1089.75
383.18	1090.92
383.55	1093.03
383.92	1104.03
384.29	1105.90
384.66	1103.09
385.03	1111.29
385.40	1112.69
385.77	1104.26
386.14	1104.97
386.51	1111.05
386.88	1115.03
387.25	1119.48
387.62	1123.46
387.99	1114.10
388.36	1108.48
388.73	1097.95
389.10	1100.05
389.46	1102.63
389.83	1106.37
390.20	1114.10
390.57	1123.22
390.94	1127.20
391.31	1125.80
391.68	1130.48
392.05	1128.14
392.42	1122.52
392.79	1118.54
393.16	1126.97
393.53	1132.12
393.89	1136.80
394.26	1130.71
394.63	1138.20
395.00	1134.69
395.37	1134.93
395.74	1126.03
396.11	1142.42
396.48	1134.69
396.84	1133.99
397.21	1128.61
397.58	1139.37
397.95	1143.59
398.32	1146.39
398.69	1152.01
399.06	1158.33
399.42	1155.05
399.79	1147.80
400.16	1152.01
400.53	1156.93
400.90	1168.86
401.27	1182.67
401.64	1181.97
402.00	1198.35
402.37	1207.01
402.74	1214.50
403.11	1209.59
403.48	1218.01
403.84	1218.48
404.21	1218.72
404.58	1227.14
404.95	1254.06
405.32	1266.46
405.68	1286.36
406.05	1317.72
406.42	1327.08
406.79	1339.96
407.16	1355.64
407.52	1368.51
407.89	1378.11
408.26	1411.81
408.63	1431.47
408.99	1462.60
409.36	1495.60
409.73	1530.48
410.10	1555.99
410.47	1595.54
410.83	1637.67
411.20	1679.80
411.57	1737.61
411.94	1790.51
412.30	1863.77
412.67	1932.58
413.04	1992.97
413.40	2070.20
413.77	2168.97
414.14	2229.83
414.51	2316.66
414.87	2412.86
415.24	2500.63
415.61	2601.04
415.97	2728.60
416.34	2865.05
416.71	3007.12
417.08	3160.66
417.44	3287.75
417.81	3448.55
418.18	3594.13
418.54	3767.79
418.91	3930.93
419.28	4144.62
419.64	4337.25
420.01	4567.32
420.38	4800.91
420.74	5074.05
421.11	5352.34
421.48	5643.03
421.84	5972.58
422.21	6288.08
422.58	6638.93
422.94	7011.78
423.31	7378.30
423.68	7775.96
424.04	8206.62
424.41	8602.87
424.77	9003.57
425.14	9485.26
425.51	9978.64
425.87	10548.33
426.24	11133.46
426.61	11771.49
426.97	12469.67
427.34	13073.30
427.70	13775.69
428.07	14476.92
428.44	15270.36
428.80	16055.37
429.17	16922.78
429.53	17658.41
429.90	18642.13
430.27	19452.19
430.63	20249.85
431.00	21132.70
431.36	22175.87
431.73	22965.34
432.09	23902.49
432.46	25002.30
432.83	26028.63
433.19	26952.20
433.56	28051.09
433.92	29072.50
434.29	29971.73
434.65	30931.12
435.02	31762.47
435.38	32634.56
435.75	33388.44
436.11	34228.23
436.48	34930.86
436.84	35812.54
437.21	36426.23
437.57	36978.12
437.94	37405.97
438.30	37766.18
438.67	37914.34
439.03	38114.45
439.40	38337.98
439.76	38323.23
440.13	38260.97
440.49	38145.35
440.86	37730.14
441.22	37464.49
441.59	36995.68
441.95	36543.25
442.32	35926.99
442.68	35507.57
443.05	34762.10
443.41	34084.52
443.78	33252.69
444.14	32409.87
444.51	31431.76
444.87	30747.15
445.24	29931.24
445.60	29209.65
445.96	28479.40
446.33	27824.05
446.69	26873.09
447.06	26092.76
447.42	25336.30
447.79	24529.28
448.15	23811.21
448.51	23146.26
448.88	22592.26
449.24	21870.67
449.61	21443.75
449.97	20860.73
450.33	20383.02
450.70	19745.93
451.06	19293.74
451.43	18676.07
451.79	18220.84
452.15	17657.47
452.52	17249.98
452.88	16813.24
453.24	16438.05
453.61	16056.78
453.97	15682.53
454.34	15244.14
454.70	14915.30
455.06	14537.77
455.43	14070.83
455.79	13564.81
456.15	13183.07
456.52	12674.23
456.88	12286.88
457.24	11864.41
457.61	11590.80
457.97	11239.95
458.33	10907.83
458.70	10522.58
459.06	10149.50
459.42	9777.12
459.79	9409.19
460.15	9074.26
460.51	8781.46
460.88	8554.19
461.24	8276.37
461.60	8022.19
461.96	7772.22
462.33	7525.76
462.69	7265.02
463.05	7069.59
463.42	6883.05
463.78	6713.36
464.14	6519.33
464.50	6368.83
464.87	6229.57
465.23	6071.58
465.59	5906.11
465.95	5773.40
466.32	5613.77
466.68	5445.26
467.04	5297.80
467.40	5164.63
467.77	5042.68
468.13	4937.59
468.49	4841.63
468.85	4737.95
469.22	4662.11
469.58	4547.43
469.94	4445.15
470.30	4321.57
470.66	4230.28
471.03	4118.41
471.39	4040.70
471.75	3959.72
472.11	3897.69
472.47	3837.07
472.84	3774.35
473.20	3695.24
473.56	3642.11
473.92	3581.02
474.28	3525.08
474.65	3470.78
475.01	3415.31
475.37	3326.37
475.73	3263.17
476.09	3179.38
476.45	3106.12
476.81	3069.38
477.18	3036.14
477.54	2971.08
477.90	2941.35
478.26	2910.69
478.62	2850.77
478.98	2783.37
479.34	2755.75
479.71	2689.51
480.07	2638.95
480.43	2597.99
480.79	2580.91
481.15	2544.40
481.51	2546.74
481.87	2527.78
482.23	2491.97
482.59	2447.73
482.96	2405.60
483.32	2359.96
483.68	2313.85
484.04	2296.53
484.40	2277.58
484.76	2265.40
485.12	2241.77
485.48	2212.98
485.84	2190.27
486.20	2166.17
486.56	2128.48
486.92	2110.70
487.28	2094.08
487.64	2049.84
488.00	2027.84
488.37	2011.69
488.73	1978.22
489.09	1943.35
489.45	1934.22
489.81	1903.56
490.17	1859.32
490.53	1826.09
490.89	1805.72
491.25	1785.36
491.61	1764.76
491.97	1764.06
492.33	1751.89
492.69	1737.61
493.05	1698.53
493.41	1669.97
493.77	1637.20
494.13	1612.63
494.49	1600.22
494.85	1592.03
495.21	1589.22
495.57	1585.95
495.93	1576.12
496.29	1557.86
496.64	1545.69
497.00	1533.28
497.36	1522.28
497.72	1511.99
498.08	1507.77
498.44	1504.26
498.80	1494.67
499.16	1479.22
499.52	1467.98
499.88	1454.17
500.24	1434.98
500.60	1426.79
500.96	1420.24
501.32	1411.81
501.68	1393.55
502.03	1385.60
502.39	1369.68
502.75	1364.77
503.11	1356.57
503.47	1342.30
503.83	1348.15
504.19	1341.13
504.55	1324.28
504.91	1316.32
505.26	1325.68
505.62	1307.66
505.98	1293.61
506.34	1294.55
506.70	1284.25
507.06	1264.36
507.42	1272.55
507.78	1277.70
508.13	1274.19
508.49	1281.44
508.85	1282.38
509.21	1269.51
509.57	1261.08
509.93	1251.95
510.28	1236.74
510.64	1235.10
511.00	1240.95
511.36	1244.70
511.72	1243.06
512.07	1242.59
512.43	1241.65
512.79	1230.89
513.15	1219.65
513.51	1212.87
513.86	1207.72
514.22	1196.72
514.58	1183.37
514.94	1181.74
515.30	1181.74
515.65	1178.69
516.01	1184.08
516.37	1193.21
516.73	1196.48
517.08	1190.16
517.44	1191.33
517.80	1191.80
518.16	1181.74
518.51	1176.12
518.87	1180.10
519.23	1180.80
519.59	1180.80
519.94	1185.01
520.30	1176.12
520.66	1170.97
521.01	1169.33
521.37	1154.59
521.73	1148.03
522.09	1153.65
522.44	1154.59
522.80	1144.05
523.16	1148.03
523.51	1141.95
523.87	1141.01
524.23	1140.07
524.58	1149.20
524.94	1148.03
525.30	1155.29
525.65	1154.12
526.01	1153.65
526.37	1154.59
526.72	1157.39
527.08	1143.12
527.44	1131.18
527.79	1131.65
528.15	1119.48
528.51	1124.63
528.86	1139.37
529.22	1146.86
529.58	1151.54
529.93	1163.95
530.29	1155.29
530.65	1152.71
531.00	1156.69
531.36	1148.27
531.71	1142.88
532.07	1145.93
532.43	1144.05
532.78	1139.37
533.14	1141.01
533.49	1147.80
533.85	1147.10
534.21	1143.35
534.56	1145.69
534.92	1145.69
535.27	1139.61
535.63	1142.88
535.98	1142.42
536.34	1142.65
536.69	1138.90
537.05	1133.99
537.41	1129.78
537.76	1126.03
538.12	1123.69
538.47	1129.54
538.83	1135.16
539.18	1131.88
539.54	1137.50
539.89	1136.33
540.25	1128.61
540.60	1119.01
540.96	1108.24
541.31	1109.41
541.67	1112.69
542.02	1109.65
542.38	1120.41
542.73	1121.82
543.09	1115.27
543.44	1118.54
543.80	1127.44
544.15	1122.05
544.51	1141.95
544.86	1142.18
545.22	1140.78
545.57	1133.52
545.93	1126.97
546.28	1118.07
546.64	1114.09
546.99	1108.95
547.35	1105.90
547.70	1103.09
548.05	1097.48
548.41	1100.75
548.76	1112.69
549.12	1120.41
549.47	1121.12
549.83	1125.80
550.18	1123.69
550.53	1110.12
550.89	1108.48
551.24	1113.39
551.60	1107.31
551.95	1104.26
552.30	1107.07
552.66	1104.97
553.01	1102.63
553.37	1107.07
553.72	1109.18
554.07	1107.78
554.43	1106.84
554.78	1104.73
555.13	1106.84
555.49	1110.58
555.84	1113.39
556.19	1116.44
556.55	1125.33
556.90	1118.07
557.26	1112.22
557.61	1115.97
557.96	1112.69
558.32	1100.75
558.67	1104.26
559.02	1105.90
559.37	1103.80
559.73	1108.01
560.08	1112.92
560.43	1115.97
560.79	1119.24
561.14	1110.12
561.49	1105.20
561.85	1096.78
562.20	1094.90
562.55	1101.46
562.90	1113.39
563.26	1105.20
563.61	1110.35
563.96	1104.03
564.32	1098.41
564.67	1089.75
565.02	1095.37
565.37	1093.50
565.73	1096.54
566.08	1087.18
566.43	1089.29
566.78	1097.01
567.14	1108.01
567.49	1115.27
567.84	1119.95
568.19	1119.24
568.54	1110.82
568.90	1100.29
569.25	1096.31
569.60	1104.03
569.95	1108.01
570.31	1104.26
570.66	1107.54
571.01	1100.29
571.36	1089.75
571.71	1083.43
572.06	1091.16
572.42	1085.07
572.77	1095.84
573.12	1095.60
573.47	1083.67
573.82	1088.82
574.18	1093.03
574.53	1087.18
574.88	1091.39
575.23	1100.29
575.58	1098.88
575.93	1106.84
576.28	1111.05
576.64	1108.71
576.99	1108.95
577.34	1102.39
577.69	1095.84
578.04	1089.52
578.39	1097.48
578.74	1097.95
579.09	1093.97
579.44	1093.26
579.80	1093.73
580.15	1099.35
580.50	1105.90
580.85	1116.67
581.20	1122.29
581.55	1123.46
581.90	1122.05
582.25	1119.01
582.60	1119.71
582.95	1110.35
583.30	1109.18
583.65	1101.22
584.00	1106.37
584.35	1096.07
584.71	1104.03
585.06	1105.67
585.41	1105.20
585.76	1102.86
586.11	1107.78
586.46	1104.03
586.81	1105.90
587.16	1098.41
587.51	1087.41
587.86	1091.16
588.21	1092.33
588.56	1092.33
588.91	1102.63
589.26	1108.95
589.61	1103.56
589.96	1101.22
590.31	1104.26
590.66	1093.03
591.01	1093.03
591.36	1098.41
591.71	1100.29
592.06	1094.43
592.41	1105.44
592.76	1100.75
593.10	1094.20
593.45	1097.48
593.80	1096.54
594.15	1088.58
594.50	1086.94
594.85	1094.90
595.20	1091.86
595.55	1083.20
595.90	1085.07
596.25	1087.88
596.60	1078.99
596.95	1074.31
597.30	1081.56
597.64	1130.95
597.99	1140.07
598.34	1133.29
598.69	1135.39
599.04	1136.10
599.39	1092.56
599.74	1086.94
600.09	1093.97
600.44	1094.20
600.78	1102.63
601.13	1092.56
601.48	1092.80
601.83	1100.75
602.18	1101.22
602.53	1092.56
602.88	1098.41
603.22	1098.41
603.57	1088.58
603.92	1092.80
604.27	1101.46
604.62	1100.29
604.97	1095.14
605.31	1097.71
605.66	1095.84
606.01	1084.37
606.36	1083.67
606.71	1083.90
607.05	1083.90
607.40	1077.35
607.75	1088.82
608.10	1081.33
608.44	1085.54
608.79	1093.03
609.14	1102.39
609.49	1100.05
609.84	1111.29
610.18	1121.12
610.53	1117.61
610.88	1115.27
611.23	1119.48
611.57	1115.50
611.92	1109.88
612.27	1103.09
612.62	1098.88
612.96	1088.82
613.31	1092.09
613.66	1089.75
614.00	1093.03
614.35	1090.22
614.70	1086.71
615.05	1090.22
615.39	1090.22
615.74	1088.35
616.09	1094.20
616.43	1103.80
616.78	1105.44
617.13	1103.80
617.47	1102.39
617.82	1107.07
618.17	1099.82
618.51	1088.58
618.86	1091.39
619.21	1104.26
619.55	1097.48
619.90	1100.29
620.25	1109.88
620.59	1113.63
620.94	1098.41
621.29	1096.31
621.63	1088.35
621.98	1085.77
622.32	1081.80
622.67	1084.60
623.02	1078.28
623.36	1090.92
623.71	1089.29
624.05	1082.26
624.40	1078.05
624.75	1083.90
625.09	1083.20
625.44	1086.94
625.78	1099.12
626.13	1103.09
626.48	1092.80
626.82	1089.52
627.17	1082.03
627.51	1073.14
627.86	1074.31
628.20	1087.18
628.55	1075.94
628.89	1082.50
629.24	1088.58
629.58	1093.03
629.93	1096.78
630.28	1118.54
630.62	1117.61
630.97	1111.52
631.31	1104.03
631.66	1102.16
632.00	1086.24
632.35	1084.60
632.69	1085.31
633.04	1094.67
633.38	1095.84
633.73	1094.90
634.07	1102.86
634.42	1108.48
634.76	1091.63
635.11	1093.26
635.45	1095.14
635.79	1080.63
636.14	1075.01
636.48	1086.94
636.83	1085.54
637.17	1088.82
637.52	1094.67
637.86	1088.35
638.21	1091.39
638.55	1090.22
638.89	1086.48
639.24	1089.29
639.58	1089.52
639.93	1083.67
640.27	1081.09
640.61	1083.43
640.96	1081.09
641.30	1091.86
641.65	1087.18
641.99	1077.58
642.33	1078.75
642.68	1069.86
643.02	1055.35
643.37	1065.18
643.71	1071.50
644.05	1083.90
644.40	1102.86
644.74	1110.12
645.08	1107.07
645.43	1113.16
645.77	1099.58
646.11	1081.33
646.46	1081.33
646.80	1089.52
647.14	1088.82
647.49	1088.35
647.83	1097.95
648.17	1107.31
648.52	1093.03
648.86	1086.48
649.20	1084.84
649.55	1084.60
649.89	1069.39
650.23	1073.37
650.57	1079.92
650.92	1085.07
651.26	1083.43
651.60	1091.39
651.95	1097.48
652.29	1097.48
652.63	1091.39
652.97	1077.11
653.32	1069.86
653.66	1058.39
654.00	1053.94
654.34	1059.33
654.69	1070.33
655.03	1074.31
655.37	1087.88
655.71	1089.29
656.05	1086.01
656.40	1086.71
656.74	1099.12
657.08	1084.37
657.42	1086.94
657.76	1089.75
658.11	1096.78
658.45	1087.88
658.79	1089.52
659.13	1086.24
659.47	1089.29
659.82	1090.92
660.16	1087.65
660.50	1090.46
660.84	1089.52
661.18	1076.65
661.52	1072.20
661.87	1070.80
662.21	1075.01
662.55	1076.65
662.89	1087.65
663.23	1086.01
663.57	1085.31
663.91	1083.20
664.25	1087.65
664.60	1085.54
664.94	1085.54
665.28	1091.39
665.62	1086.94
665.96	1085.31
666.30	1082.50
666.64	1084.84
666.98	1086.71
667.32	1094.20
667.66	1082.73
668.01	1085.31
668.35	1086.48
668.69	1078.52
669.03	1075.48
669.37	1088.58
669.71	1088.58
670.05	1091.16
670.39	1096.54
670.73	1097.01
671.07	1084.37
671.41	1084.37
671.75	1084.60
672.09	1074.31
672.43	1070.80
672.77	1088.82
673.11	1094.20
673.45	1092.56
673.79	1100.52
674.13	1102.86
674.47	1090.92
674.81	1079.22
675.15	1068.69
675.49	1073.37
675.83	1073.60
676.17	1072.67
676.51	1078.75
676.85	1079.22
677.19	1070.33
677.53	1069.62
677.87	1060.96
678.21	1057.92
678.55	1060.03
678.89	1069.62
679.23	1081.56
679.57	1093.97
679.90	1096.78
680.24	1095.84
680.58	1090.92
680.92	1096.78
681.26	1101.92
681.60	1093.73
681.94	1101.22
682.28	1110.82
682.62	1096.54
682.96	1098.41
683.29	1115.27
683.63	1107.31
683.97	1111.29
684.31	1116.20
684.65	1113.63
684.99	1106.61
685.33	1106.84
685.67	1096.07
686.00	1091.86
686.34	1086.71
686.68	1081.09
687.02	1075.71
687.36	1065.18
687.70	1064.94
688.03	1078.75
688.37	1084.14
688.71	1088.35
689.05	1098.65
689.39	1092.80
689.72	1080.39
690.06	1074.54
690.40	1080.16
690.74	1080.86
691.08	1082.97
691.41	1082.73
691.75	1088.58
692.09	1090.92
692.43	1092.09
692.76	1100.75
693.10	1100.29
693.44	1100.05
693.78	1103.56
694.11	1097.95
694.45	1096.54
694.79	1104.97
695.13	1100.05
695.46	1104.73
695.80	1106.84
696.14	1104.26
696.48	1098.88
696.81	1105.20
697.15	1092.33
697.49	1086.94
697.82	1081.09
698.16	1075.94
698.50	1070.33
698.83	1067.05
699.17	1073.60
699.51	1077.82
699.84	1070.56
700.18	1074.31
700.52	1076.88
700.85	1090.22
701.19	1087.18
701.53	1100.99
701.86	1101.22
702.20	1110.35
702.54	1097.71
702.87	1100.05
703.21	1095.84
703.55	1097.48
703.88	1086.94
704.22	1087.65
704.55	1097.48
704.89	1097.95
705.23	1102.63
705.56	1109.18
705.90	1101.46
706.23	1090.92
706.57	1089.52
706.91	1082.97
707.24	1079.22
707.58	1078.99
707.91	1071.03
708.25	1079.92
708.58	1078.52
708.92	1070.33
709.26	1075.48
709.59	1082.97
709.93	1079.69
710.26	1078.28
710.60	1092.09
710.93	1090.69
711.27	1086.01
711.60	1083.20
711.94	1082.26
712.27	1080.16
712.61	1075.71
712.94	1075.24
713.28	1070.56
713.61	1079.69
713.95	1070.80
714.28	1080.39
714.62	1089.52
714.95	1092.80
715.29	1079.69
715.62	1088.35
715.96	1076.41
716.29	1074.54
716.63	1079.46
716.96	1080.63
717.29	1079.46
717.63	1081.56
717.96	1074.54
718.30	1057.22
718.63	1056.52
718.97	1051.60
719.30	1057.92
719.63	1068.22
719.97	1075.01
720.30	1079.22
720.64	1084.14
720.97	1081.80
721.30	1070.80
721.64	1075.01
721.97	1067.99
722.31	1077.11
722.64	1075.94
722.97	1080.63
723.31	1065.88
723.64	1071.73
723.97	1063.77
724.31	1062.84
724.64	1064.71
724.98	1084.37
725.31	1076.41
725.64	1070.80
725.98	1070.09
726.31	1077.35
726.64	1070.09
726.97	1075.94
727.31	1081.09
727.64	1087.65
727.97	1082.26
728.31	1084.84
728.64	1094.20
728.97	1092.33
729.31	1091.63
729.64	1093.03
729.97	1088.12
730.30	1080.39
730.64	1066.11
730.97	1067.99
731.30	1067.99
731.63	1066.35
731.97	1060.73
732.30	1075.01
732.63	1065.41
732.96	1066.11
733.30	1071.26
733.63	1073.37
733.96	1066.58
734.29	1068.69
734.63	1072.90
734.96	1079.22
735.29	1088.82
735.62	1096.54
735.95	1102.63
736.29	1095.60
736.62	1090.92
736.95	1096.78
737.28	1105.20
737.61	1101.22
737.94	1104.03
738.28	1099.58
738.61	1092.80
738.94	1087.65
739.27	1082.26
739.60	1079.92
739.93	1083.67
740.27	1076.88
740.60	1075.94
740.93	1084.37
741.26	1076.65
741.59	1075.94
741.92	1075.48
742.25	1076.88
742.58	1080.39
742.91	1079.22
743.25	1081.80
743.58	1084.84
743.91	1069.39
744.24	1057.92
744.57	1055.11
744.90	1055.35
745.23	1066.35
745.56	1064.01
745.89	1067.99
746.22	1081.56
746.55	1082.50
746.88	1074.07
747.21	1086.48
747.54	1084.60
747.87	1079.46
748.20	1083.67
748.53	1082.03
748.87	1075.71
749.20	1086.94
749.53	1088.58
749.86	1079.22
750.19	1083.67
750.52	1093.50
750.85	1091.16
751.18	1086.94
751.51	1093.50
751.84	1084.84
752.16	1075.71
752.49	1074.07
752.82	1076.65
753.15	1070.09
753.48	1076.65
753.81	1086.48
754.14	1076.41
754.47	1071.97
754.80	1069.39
755.13	1065.41
755.46	1059.79
755.79	1062.84
756.12	1074.31
756.45	1083.67
756.78	1090.46
757.11	1096.78
757.43	1108.01
757.76	1099.35
758.09	1089.05
758.42	1094.20
758.75	1086.01
759.08	1078.99
759.41	1082.73
759.74	1090.92
760.07	1083.90
760.39	1085.31
760.72	1078.99
761.05	1070.56
761.38	1066.82
761.71	1064.24
762.04	1056.05
762.36	1062.14
762.69	1071.97
763.02	1075.48
763.35	1076.88
763.68	1085.07
764.01	1088.58
764.33	1085.07
