SpectraSuite Data File
++++++++++++++++++++++++++++++++++++
Date: Mon Aug 26 10:24:37 PDT 2019
User: corrico
Dark Spectrum Present: No
Reference Spectrum Present: No
Number of Sampled Component Spectra: 1
Spectrometers: USB2+H06089
Integration Time (usec): 10000 (USB2+H06089)
Spectra Averaged: 2 (USB2+H06089)
Boxcar Smoothing: 2 (USB2+H06089)
Correct for Electrical Dark: No (USB2+H06089)
Strobe/Lamp Enabled: No (USB2+H06089)
Correct for Detector Non-linearity: No (USB2+H06089)
Correct for Stray Light: No (USB2+H06089)
Number of Pixels in Processed Spectrum: 2048
>>>>>Begin Processed Spectral Data<<<<<
339.70	1011.11
340.07	1011.11
340.45	977.17
340.82	964.07
341.19	950.26
341.57	926.38
341.94	924.51
342.31	916.09
342.69	908.36
343.06	895.96
343.43	894.79
343.81	894.55
344.18	902.98
344.55	908.83
344.93	922.17
345.30	937.85
345.67	948.62
346.04	959.15
346.42	960.09
346.79	959.85
347.16	956.34
347.54	960.09
347.91	959.85
348.28	974.83
348.65	992.39
349.03	1015.32
349.40	1033.81
349.77	1051.37
350.14	1060.73
350.52	1072.20
350.89	1065.65
351.26	1064.94
351.63	1055.82
352.01	1058.62
352.38	1046.22
352.75	1064.48
353.12	1072.67
353.50	1080.86
353.87	1086.48
354.24	1096.78
354.61	1090.69
354.98	1089.29
355.36	1088.82
355.73	1085.54
356.10	1093.50
356.47	1094.20
356.84	1098.88
357.22	1105.67
357.59	1103.80
357.96	1098.18
358.33	1097.71
358.70	1097.71
359.08	1097.71
359.45	1105.67
359.82	1110.12
360.19	1117.61
360.56	1115.97
360.94	1117.84
361.31	1120.18
361.68	1125.10
362.05	1119.01
362.42	1113.86
362.79	1110.35
363.16	1104.26
363.54	1097.71
363.91	1092.09
364.28	1093.73
364.65	1093.50
365.02	1089.52
365.39	1088.82
365.76	1097.95
366.14	1099.35
366.51	1103.33
366.88	1103.33
367.25	1101.92
367.62	1100.05
367.99	1100.29
368.36	1094.67
368.73	1098.18
369.10	1105.90
369.48	1098.18
369.85	1095.84
370.22	1102.86
370.59	1114.09
370.96	1109.88
371.33	1121.58
371.70	1129.54
372.07	1119.01
372.44	1106.37
372.81	1101.22
373.18	1098.18
373.55	1102.16
373.93	1106.84
374.30	1119.24
374.67	1117.14
375.04	1110.82
375.41	1101.69
375.78	1097.24
376.15	1083.43
376.52	1088.82
376.89	1100.05
377.26	1112.92
377.63	1119.71
378.00	1131.88
378.37	1127.67
378.74	1125.56
379.11	1117.84
379.48	1117.14
379.85	1108.95
380.22	1112.46
380.59	1105.67
380.96	1112.92
381.33	1104.26
381.70	1104.97
382.07	1102.16
382.44	1106.61
382.81	1084.14
383.18	1102.86
383.55	1105.67
383.92	1109.41
384.29	1106.84
384.66	1118.54
385.03	1102.86
385.40	1101.22
385.77	1100.52
386.14	1102.86
386.51	1104.97
386.88	1114.56
387.25	1115.50
387.62	1118.54
387.99	1119.71
388.36	1110.82
388.73	1105.90
389.10	1107.07
389.46	1117.61
389.83	1119.24
390.20	1126.97
390.57	1127.44
390.94	1128.37
391.31	1118.78
391.68	1113.16
392.05	1119.71
392.42	1126.73
392.79	1130.48
393.16	1129.31
393.53	1148.97
393.89	1148.97
394.26	1146.16
394.63	1150.61
395.00	1154.35
395.37	1143.12
395.74	1138.67
396.11	1150.61
396.48	1139.14
396.84	1137.97
397.21	1136.33
397.58	1136.80
397.95	1125.10
398.32	1128.14
398.69	1135.16
399.06	1142.88
399.42	1150.14
399.79	1158.33
400.16	1173.78
400.53	1181.03
400.90	1191.80
401.27	1201.63
401.64	1209.59
402.00	1215.67
402.37	1219.89
402.74	1228.55
403.11	1242.36
403.48	1252.19
403.84	1262.02
404.21	1281.68
404.58	1287.29
404.95	1298.06
405.32	1328.02
405.68	1338.79
406.05	1355.40
406.42	1369.45
406.79	1384.66
407.16	1407.36
407.52	1447.62
407.89	1479.92
408.26	1524.39
408.63	1560.67
408.99	1599.76
409.36	1628.08
409.73	1657.80
410.10	1703.91
410.47	1755.17
410.83	1791.91
411.20	1848.32
411.57	1920.88
411.94	1991.80
412.30	2060.84
412.67	2159.38
413.04	2259.09
413.40	2347.79
413.77	2440.48
414.14	2564.99
414.51	2660.49
414.87	2772.83
415.24	2903.20
415.61	3066.34
415.97	3202.56
416.34	3372.01
416.71	3537.95
417.08	3724.96
417.44	3901.44
417.81	4133.85
418.18	4353.16
418.54	4622.09
418.91	4886.57
419.28	5163.46
419.64	5424.43
420.01	5753.50
420.38	6044.43
420.74	6377.02
421.11	6764.62
421.48	7153.38
421.84	7564.61
422.21	8006.50
422.58	8515.10
422.94	8988.59
423.31	9487.36
423.68	9994.79
424.04	10595.14
424.41	11124.33
424.77	11700.81
425.14	12320.35
425.51	12977.10
425.87	13668.26
426.24	14350.76
426.61	15214.89
426.97	16169.83
427.34	17055.02
427.70	18028.91
428.07	19050.09
428.44	20010.18
428.80	20967.46
429.17	22013.67
429.53	22985.23
429.90	24209.80
430.27	25246.66
430.63	26364.50
431.00	27592.58
431.36	28914.74
431.73	30037.73
432.09	31351.24
432.46	32500.68
432.83	33749.35
433.19	34886.62
433.56	36315.75
433.92	37771.57
434.29	39253.83
434.65	40553.53
435.02	41810.63
435.38	42846.08
435.75	43574.92
436.11	44689.02
436.48	45669.47
436.84	46700.24
437.21	47670.39
437.57	48669.10
437.94	49370.56
438.30	49994.08
438.67	50194.43
439.03	50290.39
439.40	50388.69
439.76	50235.15
440.13	49992.91
440.49	50010.93
440.86	49627.31
441.22	49266.87
441.59	48677.53
441.95	48061.50
442.32	47155.48
442.68	46530.32
443.05	45585.68
443.41	44666.08
443.78	43697.33
444.14	42836.02
444.51	41624.32
444.87	40728.13
445.24	39571.91
445.60	38466.94
445.96	37271.39
446.33	36398.37
446.69	35259.00
447.06	34424.37
447.42	33455.38
447.79	32374.76
448.15	31388.92
448.51	30469.80
448.88	29628.84
449.24	28654.71
449.61	28068.41
449.97	27342.84
450.33	26591.29
450.70	25726.00
451.06	25167.55
451.43	24345.08
451.79	23784.52
452.15	23280.37
452.52	22801.26
452.88	22263.18
453.24	21857.09
453.61	21199.87
453.97	20594.84
454.34	19969.92
454.70	19456.41
455.06	18866.36
455.43	18295.73
455.79	17575.32
456.15	17040.27
456.52	16397.09
456.88	15892.71
457.24	15352.74
457.61	14996.98
457.97	14545.73
458.33	14079.02
458.70	13545.38
459.06	13041.23
459.42	12592.78
459.79	12114.14
460.15	11740.60
460.51	11349.49
460.88	10987.18
461.24	10571.03
461.60	10227.91
461.96	9843.12
462.33	9518.02
462.69	9240.44
463.05	8962.38
463.42	8714.05
463.78	8460.10
464.14	8223.47
464.50	7993.87
464.87	7745.30
465.23	7491.59
465.59	7296.39
465.95	7104.46
466.32	6869.00
466.68	6702.36
467.04	6514.18
467.40	6362.75
467.77	6200.08
468.13	6042.56
468.49	5869.60
468.85	5750.46
469.22	5605.58
469.58	5495.34
469.94	5390.72
470.30	5290.31
470.66	5176.33
471.03	5069.13
471.39	4962.64
471.75	4860.12
472.11	4764.63
472.47	4684.82
472.84	4604.07
473.20	4490.08
473.56	4398.10
473.92	4287.63
474.28	4182.54
474.65	4072.06
475.01	3985.70
475.37	3907.52
475.73	3850.18
476.09	3790.97
476.45	3713.96
476.81	3638.13
477.18	3565.34
477.54	3491.61
477.90	3408.76
478.26	3349.07
478.62	3291.73
478.98	3233.68
479.34	3184.53
479.71	3142.40
480.07	3096.53
480.43	3067.51
480.79	3020.93
481.15	2966.16
481.51	2923.33
481.87	2888.69
482.23	2841.18
482.59	2785.24
482.96	2757.62
483.32	2732.81
483.68	2687.40
484.04	2632.17
484.40	2620.70
484.76	2584.19
485.12	2526.61
485.48	2487.05
485.84	2461.78
486.20	2404.90
486.56	2356.22
486.92	2320.88
487.28	2294.66
487.64	2267.04
488.00	2246.45
488.37	2225.38
488.73	2195.89
489.09	2152.59
489.45	2125.67
489.81	2106.95
490.17	2074.42
490.53	2050.31
490.89	2028.54
491.25	2000.46
491.61	1967.22
491.97	1948.26
492.33	1920.88
492.69	1912.92
493.05	1874.77
493.41	1843.17
493.77	1813.68
494.13	1804.32
494.49	1773.66
494.85	1766.87
495.21	1750.02
495.57	1736.91
495.93	1711.17
496.29	1698.99
496.64	1694.31
497.00	1678.16
497.36	1658.97
497.72	1640.72
498.08	1622.46
498.44	1591.80
498.80	1573.31
499.16	1560.44
499.52	1557.16
499.88	1526.97
500.24	1517.60
500.60	1507.54
500.96	1486.01
501.32	1457.22
501.68	1456.28
502.03	1442.94
502.39	1437.79
502.75	1431.94
503.11	1424.22
503.47	1410.64
503.83	1401.75
504.19	1389.58
504.55	1373.19
504.91	1365.70
505.26	1362.66
505.62	1355.40
505.98	1352.13
506.34	1363.13
506.70	1362.19
507.06	1363.60
507.42	1359.62
507.78	1339.72
508.13	1321.00
508.49	1315.85
508.85	1297.83
509.21	1291.51
509.57	1297.59
509.93	1296.89
510.28	1295.25
510.64	1301.57
511.00	1300.64
511.36	1293.61
511.72	1286.36
512.07	1261.08
512.43	1245.40
512.79	1231.36
513.15	1221.99
513.51	1211.93
513.86	1231.59
514.22	1236.04
514.58	1235.33
514.94	1242.36
515.30	1254.76
515.65	1245.87
516.01	1243.06
516.37	1240.25
516.73	1232.53
517.08	1225.50
517.44	1214.97
517.80	1208.65
518.16	1210.53
518.51	1202.57
518.87	1203.74
519.23	1196.72
519.59	1203.27
519.94	1192.27
520.30	1202.10
520.66	1196.95
521.01	1197.42
521.37	1181.97
521.73	1186.89
522.09	1178.23
522.44	1174.71
522.80	1176.82
523.16	1176.82
523.51	1172.14
523.87	1166.76
524.23	1159.03
524.58	1161.84
524.94	1169.57
525.30	1178.69
525.65	1183.37
526.01	1188.52
526.37	1183.14
526.72	1168.16
527.08	1155.76
527.44	1157.39
527.79	1155.52
528.15	1158.57
528.51	1165.82
528.86	1177.52
529.22	1180.10
529.58	1181.50
529.93	1181.74
530.29	1184.55
530.65	1179.40
531.00	1171.44
531.36	1161.84
531.71	1156.93
532.07	1165.12
532.43	1155.99
532.78	1150.84
533.14	1152.48
533.49	1150.61
533.85	1138.90
534.21	1140.78
534.56	1149.44
534.92	1154.35
535.27	1155.29
535.63	1151.78
535.98	1146.16
536.34	1138.44
536.69	1141.25
537.05	1140.31
537.41	1137.73
537.76	1142.65
538.12	1145.22
538.47	1140.78
538.83	1129.78
539.18	1136.56
539.54	1136.10
539.89	1140.31
540.25	1139.84
540.60	1155.52
540.96	1152.01
541.31	1149.67
541.67	1139.84
542.02	1127.67
542.38	1129.78
542.73	1128.14
543.09	1124.39
543.44	1128.14
543.80	1140.31
544.15	1124.86
544.51	1119.01
544.86	1120.41
545.22	1121.12
545.57	1119.71
545.93	1128.61
546.28	1138.44
546.64	1145.22
546.99	1146.16
547.35	1153.42
547.70	1152.25
548.05	1140.54
548.41	1136.33
548.76	1127.20
549.12	1116.20
549.47	1123.93
549.83	1124.63
550.18	1117.14
550.53	1122.29
550.89	1128.61
551.24	1122.29
551.60	1124.63
551.95	1130.24
552.30	1132.59
552.66	1134.69
553.01	1122.99
553.37	1123.93
553.72	1122.52
554.07	1122.29
554.43	1111.05
554.78	1116.90
555.13	1119.71
555.49	1121.12
555.84	1128.37
556.19	1130.71
556.55	1134.69
556.90	1136.80
557.26	1132.82
557.61	1125.33
557.96	1132.35
558.32	1126.03
558.67	1121.35
559.02	1122.75
559.37	1120.65
559.73	1114.10
560.08	1115.03
560.43	1114.80
560.79	1119.24
561.14	1118.31
561.49	1129.54
561.85	1133.99
562.20	1130.95
562.55	1121.35
562.90	1122.29
563.26	1118.07
563.61	1119.48
563.96	1121.82
564.32	1130.71
564.67	1120.65
565.02	1113.63
565.37	1104.03
565.73	1102.16
566.08	1090.22
566.43	1100.05
566.78	1097.71
567.14	1113.86
567.49	1112.22
567.84	1116.67
568.19	1112.92
568.54	1115.27
568.90	1107.07
569.25	1117.37
569.60	1123.93
569.95	1122.29
570.31	1117.84
570.66	1113.16
571.01	1106.14
571.36	1102.16
571.71	1106.14
572.06	1110.35
572.42	1111.05
572.77	1109.18
573.12	1116.90
573.47	1114.10
573.82	1119.71
574.18	1118.54
574.53	1121.82
574.88	1115.50
575.23	1118.31
575.58	1118.07
575.93	1115.97
576.28	1104.03
576.64	1108.95
576.99	1108.95
577.34	1103.09
577.69	1111.99
578.04	1127.20
578.39	1127.44
578.74	1121.35
579.09	1122.05
579.44	1118.07
579.80	1123.93
580.15	1108.01
580.50	1104.50
580.85	1107.78
581.20	1111.05
581.55	1099.35
581.90	1104.03
582.25	1117.14
582.60	1111.52
582.95	1108.01
583.30	1108.95
583.65	1114.10
584.00	1107.54
584.35	1107.54
584.71	1107.54
585.06	1111.52
585.41	1110.82
585.76	1108.01
586.11	1106.84
586.46	1103.80
586.81	1097.95
587.16	1097.48
587.51	1098.88
587.86	1096.78
588.21	1098.65
588.56	1104.97
588.91	1109.65
589.26	1115.03
589.61	1119.95
589.96	1119.48
590.31	1123.69
590.66	1106.37
591.01	1104.03
591.36	1100.52
591.71	1104.73
592.06	1094.20
592.41	1105.67
592.76	1102.86
593.10	1104.50
593.45	1099.35
593.80	1092.80
594.15	1099.58
594.50	1099.12
594.85	1097.48
595.20	1098.65
595.55	1105.67
595.90	1096.78
596.25	1098.41
596.60	1096.54
596.95	1091.39
597.30	1096.78
597.64	1148.03
597.99	1148.27
598.34	1157.86
598.69	1168.40
599.04	1157.39
599.39	1110.82
599.74	1104.03
600.09	1094.43
600.44	1084.14
600.78	1081.33
601.13	1088.12
601.48	1095.84
601.83	1097.24
602.18	1099.58
602.53	1098.18
602.88	1083.43
603.22	1082.73
603.57	1078.75
603.92	1080.63
604.27	1092.80
604.62	1108.24
604.97	1108.71
605.31	1113.39
605.66	1111.29
606.01	1104.97
606.36	1093.03
606.71	1091.16
607.05	1081.09
607.40	1083.43
607.75	1091.86
608.10	1095.14
608.44	1093.97
608.79	1101.22
609.14	1090.46
609.49	1078.99
609.84	1071.50
610.18	1080.16
610.53	1086.01
610.88	1097.95
611.23	1100.99
611.57	1103.80
611.92	1097.24
612.27	1094.67
612.62	1089.75
612.96	1089.99
613.31	1087.88
613.66	1085.77
614.00	1089.99
614.35	1093.03
614.70	1083.67
615.05	1085.07
615.39	1092.80
615.74	1098.41
616.09	1091.86
616.43	1109.88
616.78	1117.61
617.13	1113.63
617.47	1096.07
617.82	1097.48
618.17	1099.82
618.51	1092.09
618.86	1092.09
619.21	1098.18
619.55	1100.05
619.90	1090.92
620.25	1097.24
620.59	1089.05
620.94	1087.41
621.29	1096.07
621.63	1096.31
621.98	1099.58
622.32	1115.73
622.67	1124.63
623.02	1114.33
623.36	1113.63
623.71	1107.07
624.05	1094.90
624.40	1085.31
624.75	1083.43
625.09	1084.84
625.44	1086.71
625.78	1091.86
626.13	1098.41
626.48	1102.39
626.82	1098.18
627.17	1084.84
627.51	1070.33
627.86	1081.33
628.20	1081.56
628.55	1090.22
628.89	1103.09
629.24	1118.54
629.58	1105.90
629.93	1111.99
630.28	1109.41
630.62	1111.99
630.97	1096.78
631.31	1093.97
631.66	1086.01
632.00	1076.18
632.35	1075.71
632.69	1088.82
633.04	1095.37
633.38	1111.29
633.73	1119.48
634.07	1122.29
634.42	1126.97
634.76	1125.10
635.11	1117.14
635.45	1122.52
635.79	1115.73
636.14	1100.99
636.48	1091.63
636.83	1081.56
637.17	1069.16
637.52	1065.65
637.86	1066.11
638.21	1069.39
638.55	1075.71
638.89	1088.58
639.24	1098.88
639.58	1103.33
639.93	1110.35
640.27	1113.39
640.61	1109.65
640.96	1105.90
641.30	1113.16
641.65	1106.37
641.99	1103.09
642.33	1100.52
642.68	1092.09
643.02	1088.12
643.37	1088.58
643.71	1089.75
644.05	1094.43
644.40	1092.33
644.74	1098.18
645.08	1101.92
645.43	1091.63
645.77	1090.69
646.11	1081.09
646.46	1074.07
646.80	1064.71
647.14	1084.84
647.49	1078.75
647.83	1095.14
648.17	1101.22
648.52	1104.03
648.86	1088.58
649.20	1091.39
649.55	1094.67
649.89	1089.75
650.23	1097.48
650.57	1097.48
650.92	1093.50
651.26	1092.80
651.60	1094.67
651.95	1083.67
652.29	1078.99
652.63	1086.01
652.97	1089.52
653.32	1077.35
653.66	1075.71
654.00	1081.80
654.34	1071.03
654.69	1062.84
655.03	1070.80
655.37	1075.01
655.71	1075.24
656.05	1085.31
656.40	1091.39
656.74	1089.29
657.08	1086.01
657.42	1086.71
657.76	1086.71
658.11	1075.71
658.45	1075.71
658.79	1082.73
659.13	1087.41
659.47	1082.26
659.82	1088.82
660.16	1099.12
660.50	1102.16
660.84	1102.63
661.18	1109.41
661.52	1111.99
661.87	1100.52
662.21	1094.67
662.55	1084.14
662.89	1076.88
663.23	1075.24
663.57	1078.05
663.91	1078.28
664.25	1079.69
664.60	1086.71
664.94	1098.41
665.28	1106.84
665.62	1100.05
665.96	1109.18
666.30	1111.99
666.64	1103.80
666.98	1099.82
667.32	1115.50
667.66	1112.46
668.01	1104.97
668.35	1098.88
668.69	1104.73
669.03	1104.26
669.37	1101.46
669.71	1095.37
670.05	1092.33
670.39	1084.14
670.73	1080.39
671.07	1085.77
671.41	1087.18
671.75	1088.82
672.09	1092.56
672.43	1091.86
672.77	1090.69
673.11	1098.65
673.45	1104.03
673.79	1103.80
674.13	1104.03
674.47	1097.01
674.81	1088.82
675.15	1087.41
675.49	1075.71
675.83	1077.58
676.17	1080.39
676.51	1085.54
676.85	1082.73
677.19	1094.43
677.53	1088.35
677.87	1086.71
678.21	1084.84
678.55	1087.65
678.89	1075.48
679.23	1078.52
679.57	1072.20
679.90	1071.73
680.24	1076.88
680.58	1088.12
680.92	1092.80
681.26	1115.73
681.60	1114.09
681.94	1113.39
682.28	1110.35
682.62	1104.26
682.96	1087.65
683.29	1089.05
683.63	1093.03
683.97	1088.35
684.31	1087.41
684.65	1096.07
684.99	1091.86
685.33	1081.80
685.67	1078.52
686.00	1073.60
686.34	1062.37
686.68	1075.24
687.02	1076.41
687.36	1080.16
687.70	1094.43
688.03	1100.99
688.37	1089.05
688.71	1086.71
689.05	1091.39
689.39	1086.94
689.72	1086.94
690.06	1096.78
690.40	1097.95
690.74	1103.80
691.08	1093.03
691.41	1099.58
691.75	1091.63
692.09	1091.63
692.43	1078.28
692.76	1085.54
693.10	1079.46
693.44	1087.41
693.78	1088.35
694.11	1089.05
694.45	1092.80
694.79	1093.26
695.13	1089.75
695.46	1090.22
695.80	1104.97
696.14	1097.48
696.48	1091.63
696.81	1094.43
697.15	1097.95
697.49	1083.43
697.82	1096.31
698.16	1092.33
698.50	1092.56
698.83	1095.84
699.17	1094.67
699.51	1079.69
699.84	1081.33
700.18	1077.11
700.52	1068.45
700.85	1082.26
701.19	1089.75
701.53	1089.29
701.86	1077.82
702.20	1081.09
702.54	1061.67
702.87	1059.79
703.21	1064.01
703.55	1071.50
703.88	1078.52
704.22	1083.90
704.55	1085.31
704.89	1073.84
705.23	1080.86
705.56	1075.24
705.90	1086.71
706.23	1085.77
706.57	1098.88
706.91	1092.09
707.24	1082.73
707.58	1074.77
707.91	1065.41
708.25	1059.09
708.58	1062.37
708.92	1066.11
709.26	1064.48
709.59	1069.62
709.93	1073.84
710.26	1067.05
710.60	1068.45
710.93	1072.43
711.27	1065.88
711.60	1073.84
711.94	1076.88
712.27	1067.05
712.61	1072.20
712.94	1089.05
713.28	1093.73
713.61	1094.43
713.95	1103.80
714.28	1096.31
714.62	1085.77
714.95	1086.24
715.29	1088.35
715.62	1096.54
715.96	1099.82
716.29	1108.01
716.63	1092.56
716.96	1086.24
717.29	1073.37
717.63	1067.75
717.96	1057.45
718.30	1058.62
718.63	1056.99
718.97	1060.73
719.30	1077.35
719.63	1087.88
719.97	1087.88
720.30	1099.82
720.64	1103.80
720.97	1086.01
721.30	1077.82
721.64	1085.31
721.97	1079.22
722.31	1075.48
722.64	1085.77
722.97	1091.86
723.31	1084.60
723.64	1094.90
723.97	1096.07
724.31	1095.60
724.64	1087.65
724.98	1091.86
725.31	1085.54
725.64	1084.14
725.98	1075.71
726.31	1077.35
726.64	1076.41
726.97	1073.14
727.31	1070.80
727.64	1079.22
727.97	1082.97
728.31	1087.65
728.64	1092.80
728.97	1099.12
729.31	1093.50
729.64	1096.54
729.97	1100.52
730.30	1100.52
730.64	1090.92
730.97	1086.24
731.30	1081.56
731.63	1063.54
731.97	1060.50
732.30	1069.62
732.63	1082.97
732.96	1081.80
733.30	1087.41
733.63	1087.18
733.96	1083.20
734.29	1078.05
734.63	1079.46
734.96	1083.67
735.29	1086.01
735.62	1087.41
735.95	1088.82
736.29	1089.05
736.62	1087.88
736.95	1086.01
737.28	1087.65
737.61	1087.88
737.94	1084.60
738.28	1079.69
738.61	1085.77
738.94	1086.24
739.27	1088.58
739.60	1092.09
739.93	1101.46
740.27	1097.48
740.60	1093.97
740.93	1080.86
741.26	1087.88
741.59	1089.75
741.92	1089.75
742.25	1095.14
742.58	1101.46
742.91	1100.29
743.25	1086.01
743.58	1087.41
743.91	1087.65
744.24	1084.14
744.57	1080.86
744.90	1088.35
745.23	1079.22
745.56	1067.28
745.89	1062.84
746.22	1060.50
746.55	1053.94
746.88	1062.60
747.21	1073.60
747.54	1084.14
747.87	1088.35
748.20	1093.26
748.53	1091.63
748.87	1089.05
749.20	1084.84
749.53	1075.24
749.86	1089.75
750.19	1082.03
750.52	1080.86
750.85	1080.86
751.18	1086.01
751.51	1075.48
751.84	1082.26
752.16	1078.52
752.49	1083.90
752.82	1086.94
753.15	1088.58
753.48	1076.41
753.81	1078.75
754.14	1070.56
754.47	1067.99
754.80	1071.03
755.13	1080.63
755.46	1071.03
755.79	1074.07
756.12	1081.33
756.45	1073.37
756.78	1068.45
757.11	1074.54
757.43	1076.41
757.76	1075.01
758.09	1074.07
758.42	1075.01
758.75	1079.46
759.08	1077.11
759.41	1068.69
759.74	1068.22
760.07	1082.50
760.39	1083.20
760.72	1086.01
761.05	1091.39
761.38	1096.54
761.71	1085.07
762.04	1085.54
762.36	1083.90
762.69	1078.99
763.02	1072.43
763.35	1074.77
763.68	1069.39
764.01	1074.31
