SpectraSuite Data File
++++++++++++++++++++++++++++++++++++
Date: Mon Aug 26 10:24:39 PDT 2019
User: corrico
Dark Spectrum Present: No
Reference Spectrum Present: No
Number of Sampled Component Spectra: 1
Spectrometers: USB2+H06089
Integration Time (usec): 10000 (USB2+H06089)
Spectra Averaged: 2 (USB2+H06089)
Boxcar Smoothing: 2 (USB2+H06089)
Correct for Electrical Dark: No (USB2+H06089)
Strobe/Lamp Enabled: No (USB2+H06089)
Correct for Detector Non-linearity: No (USB2+H06089)
Correct for Stray Light: No (USB2+H06089)
Number of Pixels in Processed Spectrum: 2048
>>>>>Begin Processed Spectral Data<<<<<
339.70	1006.43
340.07	1006.43
340.45	967.11
340.82	961.02
341.19	944.41
341.57	925.68
341.94	924.98
342.31	920.77
342.69	891.28
343.06	882.85
343.43	876.30
343.81	875.59
344.18	876.06
344.55	898.30
344.93	904.38
345.30	921.47
345.67	929.43
346.04	952.83
346.42	954.24
346.79	963.60
347.16	960.79
347.54	975.30
347.91	972.73
348.28	989.34
348.65	1006.66
349.03	1023.98
349.40	1033.11
349.77	1034.28
350.14	1035.45
350.52	1031.94
350.89	1036.16
351.26	1042.01
351.63	1053.48
352.01	1064.24
352.38	1072.43
352.75	1080.39
353.12	1085.07
353.50	1091.39
353.87	1089.52
354.24	1089.52
354.61	1086.71
354.98	1082.73
355.36	1074.54
355.73	1088.12
356.10	1102.63
356.47	1103.33
356.84	1104.50
357.22	1112.69
357.59	1115.50
357.96	1112.46
358.33	1119.48
358.70	1120.88
359.08	1115.50
359.45	1100.52
359.82	1094.67
360.19	1089.99
360.56	1095.37
360.94	1099.82
361.31	1093.50
361.68	1105.90
362.05	1106.61
362.42	1100.75
362.79	1097.01
363.16	1106.61
363.54	1087.41
363.91	1077.11
364.28	1073.14
364.65	1076.41
365.02	1065.88
365.39	1071.26
365.76	1077.35
366.14	1078.75
366.51	1070.56
366.88	1086.01
367.25	1085.31
367.62	1096.07
367.99	1102.86
368.36	1113.63
368.73	1114.10
369.10	1107.07
369.48	1092.80
369.85	1085.54
370.22	1078.05
370.59	1067.99
370.96	1079.22
371.33	1092.56
371.70	1101.69
372.07	1111.52
372.44	1116.20
372.81	1113.16
373.18	1099.82
373.55	1092.09
373.93	1085.54
374.30	1088.82
374.67	1095.14
375.04	1102.39
375.41	1107.54
375.78	1107.07
376.15	1106.37
376.52	1103.09
376.89	1109.41
377.26	1111.29
377.63	1111.99
378.00	1114.10
378.37	1111.75
378.74	1112.46
379.11	1108.95
379.48	1119.71
379.85	1122.52
380.22	1121.58
380.59	1110.58
380.96	1112.69
381.33	1105.67
381.70	1090.69
382.07	1086.48
382.44	1093.97
382.81	1092.80
383.18	1094.43
383.55	1110.35
383.92	1115.97
384.29	1115.50
384.66	1114.56
385.03	1102.86
385.40	1100.75
385.77	1101.46
386.14	1098.41
386.51	1106.84
386.88	1117.84
387.25	1111.75
387.62	1115.97
387.99	1125.10
388.36	1113.16
388.73	1107.78
389.10	1106.84
389.46	1106.84
389.83	1100.29
390.20	1104.50
390.57	1118.54
390.94	1128.14
391.31	1138.44
391.68	1147.56
392.05	1154.82
392.42	1155.76
392.79	1146.16
393.16	1134.69
393.53	1127.44
393.89	1131.41
394.26	1119.71
394.63	1128.37
395.00	1144.99
395.37	1153.88
395.74	1150.61
396.11	1156.69
396.48	1164.42
396.84	1159.97
397.21	1155.29
397.58	1157.86
397.95	1167.23
398.32	1161.61
398.69	1159.27
399.06	1161.84
399.42	1161.61
399.79	1157.39
400.16	1163.01
400.53	1169.57
400.90	1186.18
401.27	1203.74
401.64	1220.12
402.00	1225.74
402.37	1236.51
402.74	1242.82
403.11	1239.31
403.48	1252.89
403.84	1273.02
404.21	1285.89
404.58	1292.21
404.95	1313.74
405.32	1327.32
405.68	1346.28
406.05	1370.85
406.42	1400.11
406.79	1426.09
407.16	1451.60
407.52	1470.09
407.89	1492.56
408.26	1518.07
408.63	1568.16
408.99	1605.37
409.36	1652.42
409.73	1707.42
410.10	1764.76
410.47	1805.02
410.83	1864.70
411.20	1936.09
411.57	2008.18
411.94	2070.44
412.30	2150.95
412.67	2236.85
413.04	2334.68
413.40	2423.16
413.77	2534.57
414.14	2665.87
414.51	2783.13
414.87	2905.31
415.24	3061.65
415.61	3240.00
415.97	3370.37
416.34	3548.02
416.71	3730.81
417.08	3922.97
417.44	4108.81
417.81	4366.97
418.18	4621.15
418.54	4877.68
418.91	5167.20
419.28	5455.55
419.64	5742.50
420.01	6057.77
420.38	6425.24
420.74	6770.00
421.11	7192.70
421.48	7632.49
421.84	8085.38
422.21	8537.81
422.58	9055.77
422.94	9569.98
423.31	10126.56
423.68	10685.01
424.04	11299.87
424.41	11899.99
424.77	12503.84
425.14	13124.79
425.51	13790.67
425.87	14557.43
426.24	15351.11
426.61	16282.87
426.97	17329.56
427.34	18365.48
427.70	19439.55
428.07	20493.96
428.44	21538.55
428.80	22596.47
429.17	23698.39
429.53	24688.67
429.90	25915.11
430.27	27092.40
430.63	28287.01
431.00	29662.08
431.36	31250.13
431.73	32602.26
432.09	33937.30
432.46	35224.13
432.83	36492.23
433.19	37644.71
433.56	39125.10
433.92	40786.18
434.29	42376.10
434.65	43989.43
435.02	45430.97
435.38	46676.84
435.75	47471.92
436.11	48668.63
436.48	49641.36
436.84	50630.94
437.21	51584.70
437.57	52651.52
437.94	53292.36
438.30	53786.92
438.67	54009.27
439.03	54059.35
439.40	54134.02
439.76	54071.76
440.13	53876.56
440.49	53891.30
440.86	53585.86
441.22	53222.38
441.59	52565.86
441.95	52008.34
442.32	51070.96
442.68	50368.33
443.05	49406.84
443.41	48501.28
443.78	47470.28
444.14	46619.96
444.51	45357.94
444.87	44461.52
445.24	43177.73
445.60	41948.72
445.96	40603.15
446.33	39601.16
446.69	38212.52
447.06	37355.18
447.42	36378.48
447.79	35313.30
448.15	34299.38
448.51	33386.34
448.88	32480.32
449.24	31419.12
449.61	30688.64
449.97	29914.15
450.33	29127.50
450.70	28216.80
451.06	27615.98
451.43	26804.75
451.79	26187.32
452.15	25601.01
452.52	25007.69
452.88	24382.30
453.24	23858.02
453.61	23198.45
453.97	22565.81
454.34	21904.61
454.70	21342.88
455.06	20753.06
455.43	20024.92
455.79	19258.40
456.15	18684.73
456.52	18006.21
456.88	17429.50
457.24	16900.54
457.61	16448.35
457.97	15895.05
458.33	15328.87
458.70	14730.16
459.06	14169.60
459.42	13686.98
459.79	13204.13
460.15	12787.05
460.51	12351.24
460.88	11963.41
461.24	11518.24
461.60	11134.40
461.96	10776.29
462.33	10416.32
462.69	10051.66
463.05	9753.01
463.42	9490.40
463.78	9174.90
464.14	8902.23
464.50	8643.13
464.87	8364.61
465.23	8081.87
465.59	7866.31
465.95	7625.23
466.32	7406.39
466.68	7213.30
467.04	6990.71
467.40	6789.66
467.77	6645.48
468.13	6460.35
468.49	6273.34
468.85	6136.65
469.22	6021.50
469.58	5892.06
469.94	5787.44
470.30	5687.27
470.66	5567.67
471.03	5426.06
471.39	5307.16
471.75	5210.97
472.11	5097.92
472.47	5020.45
472.84	4898.04
473.20	4768.61
473.56	4660.01
473.92	4524.26
474.28	4416.12
474.65	4329.76
475.01	4262.35
475.37	4161.24
475.73	4112.79
476.09	4036.96
476.45	3954.80
476.81	3865.16
477.18	3792.37
477.54	3712.79
477.90	3636.02
478.26	3569.32
478.62	3507.76
478.98	3454.40
479.34	3411.56
479.71	3361.24
480.07	3313.96
480.43	3259.20
480.79	3197.41
481.15	3123.91
481.51	3057.68
481.87	3011.10
482.23	2970.84
482.59	2909.99
482.96	2861.07
483.32	2830.18
483.68	2783.83
484.04	2745.45
484.40	2728.13
484.76	2711.28
485.12	2669.62
485.48	2632.87
485.84	2596.12
486.20	2541.82
486.56	2480.50
486.92	2454.05
487.28	2419.88
487.64	2379.15
488.00	2351.54
488.37	2330.94
488.73	2277.34
489.09	2241.53
489.45	2216.25
489.81	2186.06
490.17	2149.08
490.53	2131.99
490.89	2119.59
491.25	2082.14
491.61	2056.39
491.97	2033.69
492.33	2004.20
492.69	1966.52
493.05	1930.24
493.41	1895.13
493.77	1876.64
494.13	1843.64
494.49	1812.51
494.85	1809.70
495.21	1804.55
495.57	1787.47
495.93	1780.21
496.29	1765.00
496.64	1737.38
497.00	1705.78
497.36	1667.40
497.72	1643.06
498.08	1625.03
498.44	1607.95
498.80	1610.05
499.16	1605.37
499.52	1587.12
499.88	1585.95
500.24	1581.73
500.60	1549.20
500.96	1529.77
501.32	1518.54
501.68	1494.20
502.03	1471.96
502.39	1470.56
502.75	1461.66
503.11	1453.24
503.47	1445.51
503.83	1439.66
504.19	1433.11
504.55	1423.51
504.91	1413.22
505.26	1391.68
505.62	1381.85
505.98	1357.51
506.34	1366.87
506.70	1361.26
507.06	1361.96
507.42	1354.00
507.78	1361.02
508.13	1345.11
508.49	1332.70
508.85	1330.36
509.21	1320.06
509.57	1306.02
509.93	1294.08
510.28	1297.12
510.64	1293.38
511.00	1296.19
511.36	1296.89
511.72	1292.68
512.07	1282.85
512.43	1283.32
512.79	1268.34
513.15	1258.97
513.51	1250.08
513.86	1247.97
514.22	1229.25
514.58	1240.95
514.94	1250.55
515.30	1249.14
515.65	1247.97
516.01	1260.61
516.37	1256.17
516.73	1242.82
517.08	1248.44
517.44	1238.85
517.80	1235.33
518.16	1224.80
518.51	1224.10
518.87	1219.42
519.23	1212.87
519.59	1201.63
519.94	1199.29
520.30	1194.14
520.66	1180.57
521.01	1177.99
521.37	1181.27
521.73	1182.67
522.09	1184.31
522.44	1192.50
522.80	1196.95
523.16	1188.06
523.51	1192.03
523.87	1189.46
524.23	1190.63
524.58	1188.52
524.94	1187.35
525.30	1180.80
525.65	1177.29
526.01	1164.18
526.37	1159.74
526.72	1166.29
527.08	1164.65
527.44	1159.50
527.79	1163.71
528.15	1160.20
528.51	1144.05
528.86	1137.97
529.22	1149.67
529.58	1155.05
529.93	1163.71
530.29	1163.71
530.65	1161.61
531.00	1156.93
531.36	1137.73
531.71	1128.84
532.07	1119.01
532.43	1115.27
532.78	1099.82
533.14	1109.65
533.49	1112.22
533.85	1126.50
534.21	1128.84
534.56	1132.12
534.92	1141.48
535.27	1136.33
535.63	1138.20
535.98	1145.69
536.34	1149.91
536.69	1141.71
537.05	1144.76
537.41	1141.71
537.76	1133.52
538.12	1128.61
538.47	1125.10
538.83	1126.03
539.18	1127.44
539.54	1134.46
539.89	1130.01
540.25	1138.44
540.60	1140.54
540.96	1136.33
541.31	1130.24
541.67	1137.50
542.02	1137.50
542.38	1130.01
542.73	1129.31
543.09	1132.82
543.44	1128.61
543.80	1116.20
544.15	1113.63
544.51	1118.54
544.86	1116.44
545.22	1129.78
545.57	1130.95
545.93	1143.82
546.28	1144.05
546.64	1130.71
546.99	1122.05
547.35	1125.80
547.70	1116.20
548.05	1121.58
548.41	1128.61
548.76	1131.65
549.12	1128.61
549.47	1138.67
549.83	1129.78
550.18	1124.39
550.53	1121.82
550.89	1124.86
551.24	1118.78
551.60	1119.24
551.95	1126.27
552.30	1117.84
552.66	1120.41
553.01	1132.12
553.37	1137.73
553.72	1144.52
554.07	1150.61
554.43	1144.05
554.78	1118.54
555.13	1110.35
555.49	1105.44
555.84	1113.86
556.19	1116.20
556.55	1127.67
556.90	1129.54
557.26	1140.54
557.61	1122.75
557.96	1120.18
558.32	1127.20
558.67	1128.37
559.02	1126.50
559.37	1141.01
559.73	1144.99
560.08	1135.63
560.43	1133.76
560.79	1135.16
561.14	1123.46
561.49	1120.41
561.85	1114.56
562.20	1107.78
562.55	1092.33
562.90	1107.07
563.26	1107.78
563.61	1116.20
563.96	1120.18
564.32	1120.88
564.67	1109.88
565.02	1107.54
565.37	1103.33
565.73	1101.69
566.08	1102.16
566.43	1100.52
566.78	1100.99
567.14	1104.26
567.49	1102.86
567.84	1100.75
568.19	1103.56
568.54	1096.54
568.90	1094.43
569.25	1102.39
569.60	1112.69
569.95	1104.73
570.31	1105.90
570.66	1101.46
571.01	1103.09
571.36	1096.07
571.71	1106.37
572.06	1100.05
572.42	1105.20
572.77	1097.24
573.12	1100.99
573.47	1100.29
573.82	1108.01
574.18	1106.61
574.53	1118.07
574.88	1132.35
575.23	1132.35
575.58	1135.63
575.93	1136.10
576.28	1123.93
576.64	1111.29
576.99	1104.73
577.34	1110.82
577.69	1111.52
578.04	1113.16
578.39	1113.63
578.74	1120.65
579.09	1110.82
579.44	1115.73
579.80	1115.50
580.15	1106.37
580.50	1089.05
580.85	1095.60
581.20	1080.86
581.55	1089.29
581.90	1086.94
582.25	1103.56
582.60	1101.92
582.95	1108.71
583.30	1103.80
583.65	1111.29
584.00	1111.05
584.35	1120.65
584.71	1123.93
585.06	1122.05
585.41	1119.71
585.76	1110.58
586.11	1098.41
586.46	1089.75
586.81	1089.29
587.16	1088.58
587.51	1089.05
587.86	1084.14
588.21	1091.86
588.56	1087.65
588.91	1082.50
589.26	1093.50
589.61	1093.73
589.96	1086.24
590.31	1093.73
590.66	1098.88
591.01	1097.71
591.36	1107.31
591.71	1106.37
592.06	1101.69
592.41	1106.61
592.76	1084.37
593.10	1089.99
593.45	1094.20
593.80	1091.63
594.15	1089.99
594.50	1104.03
594.85	1090.69
595.20	1090.69
595.55	1092.33
595.90	1090.92
596.25	1098.18
596.60	1097.24
596.95	1101.69
597.30	1104.50
597.64	1149.91
597.99	1150.61
598.34	1155.99
598.69	1147.33
599.04	1148.97
599.39	1098.41
599.74	1092.80
600.09	1090.92
600.44	1098.65
600.78	1101.69
601.13	1105.44
601.48	1101.92
601.83	1096.07
602.18	1097.24
602.53	1095.37
602.88	1092.09
603.22	1106.84
603.57	1105.67
603.92	1103.80
604.27	1093.26
604.62	1090.69
604.97	1074.54
605.31	1075.48
605.66	1063.54
606.01	1068.92
606.36	1078.28
606.71	1083.43
607.05	1093.50
607.40	1111.99
607.75	1118.07
608.10	1126.97
608.44	1133.99
608.79	1137.50
609.14	1120.18
609.49	1121.58
609.84	1112.22
610.18	1104.97
610.53	1105.20
610.88	1116.20
611.23	1111.75
611.57	1117.61
611.92	1116.44
612.27	1114.80
612.62	1114.56
612.96	1109.88
613.31	1101.46
613.66	1101.92
614.00	1099.58
614.35	1089.29
614.70	1099.82
615.05	1092.80
615.39	1089.29
615.74	1087.88
616.09	1093.03
616.43	1089.75
616.78	1096.07
617.13	1104.26
617.47	1108.24
617.82	1114.80
618.17	1113.39
618.51	1111.75
618.86	1110.58
619.21	1104.50
619.55	1098.88
619.90	1090.92
620.25	1083.20
620.59	1077.82
620.94	1075.71
621.29	1079.46
621.63	1082.26
621.98	1091.86
622.32	1093.26
622.67	1099.12
623.02	1101.46
623.36	1108.01
623.71	1109.18
624.05	1114.10
624.40	1116.20
624.75	1119.48
625.09	1106.84
625.44	1104.50
625.78	1107.31
626.13	1087.88
626.48	1089.29
626.82	1093.50
627.17	1093.73
627.51	1091.86
627.86	1113.16
628.20	1099.58
628.55	1099.82
628.89	1099.82
629.24	1095.37
629.58	1092.33
629.93	1091.16
630.28	1091.16
630.62	1088.82
630.97	1084.84
631.31	1085.54
631.66	1085.07
632.00	1088.58
632.35	1092.80
632.69	1096.78
633.04	1093.26
633.38	1101.69
633.73	1097.48
634.07	1095.60
634.42	1092.33
634.76	1093.26
635.11	1096.54
635.45	1084.37
635.79	1082.97
636.14	1088.58
636.48	1088.12
636.83	1085.54
637.17	1104.50
637.52	1095.60
637.86	1094.20
638.21	1086.94
638.55	1085.54
638.89	1082.73
639.24	1097.01
639.58	1104.03
639.93	1107.78
640.27	1110.12
640.61	1102.63
640.96	1093.97
641.30	1086.94
641.65	1093.03
641.99	1086.71
642.33	1093.50
642.68	1099.82
643.02	1093.97
643.37	1091.86
643.71	1099.58
644.05	1107.78
644.40	1111.29
644.74	1115.27
645.08	1104.73
645.43	1093.26
645.77	1077.58
646.11	1066.11
646.46	1071.03
646.80	1073.60
647.14	1090.22
647.49	1100.29
647.83	1105.44
648.17	1106.61
648.52	1108.24
648.86	1104.50
649.20	1098.88
649.55	1104.26
649.89	1095.37
650.23	1101.22
650.57	1097.71
650.92	1102.63
651.26	1101.92
651.60	1095.84
651.95	1096.54
652.29	1091.39
652.63	1086.48
652.97	1086.94
653.32	1094.43
653.66	1086.24
654.00	1088.35
654.34	1091.86
654.69	1080.63
655.03	1080.39
655.37	1087.88
655.71	1082.26
656.05	1074.07
656.40	1084.84
656.74	1088.82
657.08	1084.14
657.42	1080.86
657.76	1086.94
658.11	1086.24
658.45	1082.03
658.79	1090.69
659.13	1107.07
659.47	1110.35
659.82	1116.20
660.16	1107.31
660.50	1095.84
660.84	1085.07
661.18	1087.41
661.52	1087.41
661.87	1101.22
662.21	1097.48
662.55	1102.63
662.89	1090.22
663.23	1086.94
663.57	1080.16
663.91	1091.63
664.25	1093.73
664.60	1100.05
664.94	1089.75
665.28	1086.71
665.62	1082.97
665.96	1082.73
666.30	1080.39
666.64	1080.86
666.98	1084.60
667.32	1087.41
667.66	1088.82
668.01	1093.26
668.35	1093.50
668.69	1091.39
669.03	1082.50
669.37	1082.03
669.71	1076.41
670.05	1074.77
670.39	1079.92
670.73	1080.39
671.07	1078.99
671.41	1081.09
671.75	1090.22
672.09	1095.84
672.43	1096.54
672.77	1093.73
673.11	1095.37
673.45	1097.71
673.79	1089.75
674.13	1086.71
674.47	1085.54
674.81	1091.39
675.15	1090.22
675.49	1092.80
675.83	1095.84
676.17	1104.03
676.51	1101.92
676.85	1099.35
677.19	1096.31
677.53	1105.67
677.87	1103.56
678.21	1091.86
678.55	1089.29
678.89	1087.88
679.23	1082.50
679.57	1079.69
679.90	1082.50
680.24	1082.50
680.58	1088.12
680.92	1088.58
681.26	1081.56
681.60	1083.20
681.94	1084.60
682.28	1085.31
682.62	1082.03
682.96	1084.37
683.29	1083.67
683.63	1076.41
683.97	1073.60
684.31	1084.60
684.65	1088.82
684.99	1092.80
685.33	1100.52
685.67	1098.18
686.00	1094.43
686.34	1088.82
686.68	1091.39
687.02	1087.65
687.36	1096.31
687.70	1089.99
688.03	1101.46
688.37	1107.07
688.71	1106.37
689.05	1101.46
689.39	1112.46
689.72	1102.16
690.06	1091.39
690.40	1093.73
690.74	1097.01
691.08	1087.88
691.41	1090.69
691.75	1091.63
692.09	1099.12
692.43	1089.29
692.76	1088.82
693.10	1090.46
693.44	1086.71
693.78	1075.71
694.11	1077.58
694.45	1072.67
694.79	1070.80
695.13	1080.86
695.46	1090.46
695.80	1087.88
696.14	1089.99
696.48	1087.88
696.81	1085.31
697.15	1072.67
697.49	1082.03
697.82	1083.43
698.16	1084.60
698.50	1085.31
698.83	1088.12
699.17	1087.41
699.51	1086.94
699.84	1092.09
700.18	1084.84
700.52	1088.35
700.85	1078.28
701.19	1072.20
701.53	1057.92
701.86	1063.07
702.20	1062.14
702.54	1061.67
702.87	1061.90
703.21	1072.20
703.55	1070.09
703.88	1069.39
704.22	1072.20
704.55	1085.07
704.89	1080.63
705.23	1078.05
705.56	1078.28
705.90	1082.73
706.23	1084.14
706.57	1092.80
706.91	1096.78
707.24	1096.31
707.58	1094.20
707.91	1087.41
708.25	1082.97
708.58	1076.18
708.92	1075.71
709.26	1078.52
709.59	1080.86
709.93	1067.99
710.26	1078.75
710.60	1083.20
710.93	1078.28
711.27	1067.75
711.60	1086.94
711.94	1081.80
712.27	1081.33
712.61	1092.80
712.94	1097.48
713.28	1100.05
713.61	1108.24
713.95	1106.84
714.28	1093.97
714.62	1102.16
714.95	1094.20
715.29	1093.03
715.62	1089.99
715.96	1096.07
716.29	1098.88
716.63	1093.73
716.96	1086.48
717.29	1104.73
717.63	1100.75
717.96	1096.78
718.30	1091.39
718.63	1096.78
718.97	1083.20
719.30	1087.65
719.63	1092.09
719.97	1094.20
720.30	1082.50
720.64	1089.52
720.97	1084.60
721.30	1085.54
721.64	1088.35
721.97	1085.31
722.31	1066.35
722.64	1066.11
722.97	1064.01
723.31	1065.18
723.64	1082.03
723.97	1085.54
724.31	1097.95
724.64	1080.63
724.98	1081.09
725.31	1072.90
725.64	1073.37
725.98	1063.54
726.31	1073.60
726.64	1067.52
726.97	1074.07
727.31	1083.43
727.64	1085.77
727.97	1090.46
728.31	1101.22
728.64	1098.88
728.97	1089.75
729.31	1086.71
729.64	1080.86
729.97	1081.09
730.30	1075.71
730.64	1081.09
730.97	1083.67
731.30	1089.99
731.63	1083.43
731.97	1092.80
732.30	1099.35
732.63	1100.99
732.96	1096.31
733.30	1097.01
733.63	1086.48
733.96	1084.84
734.29	1084.37
734.63	1094.20
734.96	1096.78
735.29	1110.58
735.62	1106.14
735.95	1104.50
736.29	1096.54
736.62	1106.14
736.95	1099.58
737.28	1099.58
737.61	1100.52
737.94	1102.63
738.28	1092.56
738.61	1090.46
738.94	1097.01
739.27	1092.80
739.60	1088.58
739.93	1079.69
740.27	1077.82
740.60	1062.60
740.93	1059.56
741.26	1064.48
741.59	1074.07
741.92	1076.41
742.25	1089.52
742.58	1097.71
742.91	1086.71
743.25	1082.73
743.58	1072.67
743.91	1072.67
744.24	1068.22
744.57	1069.86
744.90	1075.01
745.23	1076.65
745.56	1070.09
745.89	1074.77
746.22	1070.09
746.55	1061.43
746.88	1068.92
747.21	1062.60
747.54	1059.09
747.87	1069.16
748.20	1079.69
748.53	1080.39
748.87	1091.16
749.20	1087.65
749.53	1087.41
749.86	1080.16
750.19	1085.54
750.52	1079.46
750.85	1088.35
751.18	1083.20
751.51	1082.73
751.84	1071.50
752.16	1077.11
752.49	1079.46
752.82	1089.99
753.15	1091.39
753.48	1096.54
753.81	1088.58
754.14	1078.05
754.47	1064.71
754.80	1062.14
755.13	1067.99
755.46	1069.62
755.79	1078.52
756.12	1074.77
756.45	1079.46
756.78	1074.07
757.11	1082.97
757.43	1079.46
757.76	1081.33
758.09	1082.50
758.42	1081.56
758.75	1072.43
759.08	1071.97
759.41	1080.86
759.74	1082.97
760.07	1085.31
760.39	1090.22
760.72	1085.54
761.05	1091.63
761.38	1089.52
761.71	1083.20
762.04	1073.60
762.36	1070.56
762.69	1065.65
763.02	1068.22
763.35	1072.20
763.68	1095.60
764.01	1106.37
