SpectraSuite Data File
++++++++++++++++++++++++++++++++++++
Date: Mon Aug 26 10:24:35 PDT 2019
User: corrico
Dark Spectrum Present: No
Reference Spectrum Present: No
Number of Sampled Component Spectra: 1
Spectrometers: USB2+H06089
Integration Time (usec): 10000 (USB2+H06089)
Spectra Averaged: 2 (USB2+H06089)
Boxcar Smoothing: 2 (USB2+H06089)
Correct for Electrical Dark: No (USB2+H06089)
Strobe/Lamp Enabled: No (USB2+H06089)
Correct for Detector Non-linearity: No (USB2+H06089)
Correct for Stray Light: No (USB2+H06089)
Number of Pixels in Processed Spectrum: 2048
>>>>>Begin Processed Spectral Data<<<<<
339.70	1027.50
340.07	1027.50
340.45	987.00
340.82	967.11
341.19	939.96
341.57	912.81
341.94	901.11
342.31	895.72
342.69	891.98
343.06	885.89
343.43	885.89
343.81	895.02
344.18	901.34
344.55	906.96
344.93	913.75
345.30	918.19
345.67	927.79
346.04	935.04
346.42	934.34
346.79	942.07
347.16	956.81
347.54	956.11
347.91	969.45
348.28	981.39
348.65	1001.52
349.03	1010.18
349.40	1017.43
349.77	1013.45
350.14	1023.28
350.52	1029.13
350.89	1036.16
351.26	1046.92
351.63	1060.50
352.01	1072.67
352.38	1072.20
352.75	1080.39
353.12	1087.41
353.50	1095.37
353.87	1090.46
354.24	1098.18
354.61	1095.84
354.98	1089.52
355.36	1088.35
355.73	1092.80
356.10	1086.48
356.47	1088.58
356.84	1091.86
357.22	1092.09
357.59	1093.97
357.96	1100.75
358.33	1100.05
358.70	1088.35
359.08	1082.50
359.45	1079.69
359.82	1077.11
360.19	1068.92
360.56	1083.67
360.94	1093.03
361.31	1095.37
361.68	1095.60
362.05	1106.84
362.42	1103.09
362.79	1109.41
363.16	1099.12
363.54	1091.63
363.91	1089.29
364.28	1085.07
364.65	1069.16
365.02	1065.18
365.39	1069.86
365.76	1064.48
366.14	1062.84
366.51	1049.73
366.88	1049.50
367.25	1047.16
367.62	1042.24
367.99	1045.99
368.36	1060.50
368.73	1077.11
369.10	1074.54
369.48	1073.60
369.85	1081.56
370.22	1081.09
370.59	1075.01
370.96	1078.05
371.33	1083.67
371.70	1076.41
372.07	1089.99
372.44	1082.50
372.81	1085.54
373.18	1078.75
373.55	1075.01
373.93	1062.14
374.30	1064.94
374.67	1060.73
375.04	1069.39
375.41	1086.94
375.78	1084.60
376.15	1084.84
376.52	1093.97
376.89	1088.12
377.26	1081.09
377.63	1092.33
378.00	1097.71
378.37	1089.05
378.74	1092.09
379.11	1088.58
379.48	1075.01
379.85	1075.94
380.22	1086.48
380.59	1090.46
380.96	1086.94
381.33	1104.73
381.70	1104.26
382.07	1100.52
382.44	1100.52
382.81	1109.41
383.18	1097.24
383.55	1090.46
383.92	1100.29
384.29	1100.29
384.66	1103.56
385.03	1107.07
385.40	1117.37
385.77	1103.80
386.14	1103.56
386.51	1099.12
386.88	1092.09
387.25	1096.31
387.62	1103.80
387.99	1105.67
388.36	1106.37
388.73	1115.50
389.10	1110.35
389.46	1104.97
389.83	1090.22
390.20	1090.46
390.57	1100.29
390.94	1098.65
391.31	1105.90
391.68	1123.46
392.05	1108.24
392.42	1094.20
392.79	1096.54
393.16	1097.71
393.53	1086.48
393.89	1100.05
394.26	1094.20
394.63	1096.54
395.00	1094.90
395.37	1100.29
395.74	1102.63
396.11	1115.97
396.48	1115.97
396.84	1114.10
397.21	1124.86
397.58	1122.29
397.95	1117.84
398.32	1113.63
398.69	1111.29
399.06	1112.69
399.42	1124.86
399.79	1131.88
400.16	1137.97
400.53	1156.22
400.90	1155.52
401.27	1144.52
401.64	1144.76
402.00	1152.01
402.37	1136.56
402.74	1135.16
403.11	1153.65
403.48	1157.86
403.84	1160.67
404.21	1175.18
404.58	1192.50
404.95	1192.97
405.32	1199.99
405.68	1205.14
406.05	1222.23
406.42	1221.76
406.79	1230.19
407.16	1239.31
407.52	1252.89
407.89	1263.42
408.26	1292.44
408.63	1313.27
408.99	1340.89
409.36	1371.09
409.73	1396.36
410.10	1412.05
410.47	1446.45
410.83	1479.69
411.20	1505.20
411.57	1531.88
411.94	1574.48
412.30	1603.27
412.67	1646.33
413.04	1692.91
413.40	1747.91
413.77	1801.98
414.14	1850.90
414.51	1901.69
414.87	1953.65
415.24	2010.75
415.61	2076.76
415.97	2163.59
416.34	2256.04
416.71	2340.30
417.08	2429.48
417.44	2520.05
417.81	2622.57
418.18	2715.72
418.54	2843.28
418.91	2968.50
419.28	3105.19
419.64	3231.34
420.01	3374.58
420.38	3525.78
420.74	3683.77
421.11	3864.46
421.48	4063.64
421.84	4274.52
422.21	4465.98
422.58	4682.01
422.94	4900.61
423.31	5111.50
423.68	5349.53
424.04	5603.01
424.41	5861.40
424.77	6099.90
425.14	6372.81
425.51	6646.65
425.87	6990.24
426.24	7303.41
426.61	7684.21
426.97	8116.28
427.34	8531.02
427.70	8996.32
428.07	9457.17
428.44	9943.53
428.80	10401.11
429.17	10880.45
429.53	11315.55
429.90	11912.16
430.27	12418.18
430.63	12913.67
431.00	13476.34
431.36	14097.75
431.73	14631.39
432.09	15181.18
432.46	15809.62
432.83	16414.18
433.19	16966.31
433.56	17582.81
433.92	18250.33
434.29	18845.06
434.65	19427.85
435.02	19950.96
435.38	20461.20
435.75	20857.92
436.11	21411.22
436.48	21867.39
436.84	22362.88
437.21	22773.65
437.57	23192.84
437.94	23530.11
438.30	23837.65
438.67	24015.30
439.03	24090.67
439.40	24185.22
439.76	24084.35
440.13	24015.53
440.49	23965.92
440.86	23815.65
441.22	23620.22
441.59	23358.78
441.95	23060.60
442.32	22619.87
442.68	22314.43
443.05	21888.46
443.41	21391.56
443.78	20781.62
444.14	20209.82
444.51	19543.24
444.87	19094.32
445.24	18656.18
445.60	18268.58
445.96	17831.61
446.33	17457.12
446.69	16856.77
447.06	16358.71
447.42	15839.11
447.79	15381.53
448.15	14956.96
448.51	14586.45
448.88	14227.18
449.24	13837.95
449.61	13551.70
449.97	13209.05
450.33	12882.07
450.70	12485.35
451.06	12192.08
451.43	11784.60
451.79	11453.88
452.15	11184.25
452.52	10928.43
452.88	10655.99
453.24	10458.45
453.61	10252.01
453.97	9970.68
454.34	9717.20
454.70	9467.94
455.06	9222.41
455.43	8921.65
455.79	8660.92
456.15	8441.84
456.52	8168.70
456.88	7948.46
457.24	7715.34
457.61	7513.59
457.97	7249.11
458.33	7065.84
458.70	6829.92
459.06	6602.42
459.42	6393.41
459.79	6201.72
460.15	6013.30
460.51	5815.76
460.88	5630.63
461.24	5427.47
461.60	5285.87
461.96	5119.69
462.33	4975.74
462.69	4846.78
463.05	4733.03
463.42	4630.75
463.78	4539.00
464.14	4444.44
464.50	4360.42
464.87	4253.46
465.23	4116.53
465.59	4007.93
465.95	3913.14
466.32	3821.39
466.68	3739.71
467.04	3673.47
467.40	3599.98
467.77	3544.74
468.13	3480.14
468.49	3420.22
468.85	3357.97
469.22	3296.64
469.58	3214.73
469.94	3159.96
470.30	3100.51
470.66	3051.59
471.03	2995.65
471.39	2934.56
471.75	2868.79
472.11	2809.11
472.47	2774.94
472.84	2744.04
473.20	2731.17
473.56	2696.77
473.92	2659.55
474.28	2612.97
474.65	2573.18
475.01	2522.40
475.37	2488.46
475.73	2436.03
476.09	2399.75
476.45	2351.77
476.81	2333.75
477.18	2282.96
477.54	2271.02
477.90	2229.36
478.26	2207.36
478.62	2152.82
478.98	2130.82
479.34	2098.76
479.71	2075.12
480.07	2050.08
480.43	2031.82
480.79	2004.90
481.15	1986.18
481.51	1964.88
481.87	1943.58
482.23	1929.54
482.59	1913.15
482.96	1892.09
483.32	1872.66
483.68	1857.92
484.04	1839.66
484.40	1820.70
484.76	1792.62
485.12	1780.45
485.48	1750.25
485.84	1732.00
486.20	1724.04
486.56	1723.10
486.92	1709.29
487.28	1692.68
487.64	1672.31
488.00	1665.06
488.37	1638.84
488.73	1617.31
489.09	1614.97
489.45	1605.84
489.81	1585.24
490.17	1580.80
490.53	1591.80
490.89	1584.54
491.25	1572.61
491.61	1552.95
491.97	1543.35
492.33	1514.56
492.69	1489.75
493.05	1480.62
493.41	1472.43
493.77	1463.30
494.13	1451.60
494.49	1431.24
494.85	1413.92
495.21	1405.26
495.57	1386.53
495.93	1367.11
496.29	1372.49
496.64	1369.92
497.00	1357.74
497.36	1355.87
497.72	1353.77
498.08	1347.45
498.44	1332.70
498.80	1325.45
499.16	1316.55
499.52	1311.64
499.88	1302.51
500.24	1302.04
500.60	1296.66
500.96	1294.32
501.32	1285.42
501.68	1287.53
502.03	1281.44
502.39	1288.46
502.75	1281.21
503.11	1284.72
503.47	1266.23
503.83	1261.55
504.19	1241.65
504.55	1228.55
504.91	1216.14
505.26	1220.82
505.62	1220.59
505.98	1222.46
506.34	1225.74
506.70	1224.10
507.06	1220.12
507.42	1214.27
507.78	1201.16
508.13	1201.87
508.49	1195.31
508.85	1196.48
509.21	1187.82
509.57	1203.04
509.93	1197.89
510.28	1210.29
510.64	1203.50
511.00	1199.29
511.36	1181.97
511.72	1175.65
512.07	1162.08
512.43	1149.91
512.79	1148.73
513.15	1155.76
513.51	1160.20
513.86	1159.03
514.22	1162.31
514.58	1161.61
514.94	1156.69
515.30	1157.16
515.65	1158.80
516.01	1156.46
516.37	1158.33
516.73	1156.69
517.08	1143.12
517.44	1143.59
517.80	1141.25
518.16	1148.27
518.51	1146.86
518.87	1156.69
519.23	1148.97
519.59	1146.86
519.94	1137.97
520.30	1137.27
520.66	1127.90
521.01	1128.14
521.37	1133.76
521.73	1124.63
522.09	1124.63
522.44	1136.80
522.80	1132.82
523.16	1126.27
523.51	1132.35
523.87	1133.99
524.23	1126.03
524.58	1133.99
524.94	1131.88
525.30	1124.16
525.65	1120.88
526.01	1110.35
526.37	1104.50
526.72	1114.56
527.08	1112.92
527.44	1114.33
527.79	1119.95
528.15	1122.52
528.51	1117.37
528.86	1122.29
529.22	1118.07
529.58	1116.20
529.93	1115.73
530.29	1109.88
530.65	1115.03
531.00	1107.78
531.36	1116.67
531.71	1110.82
532.07	1121.12
532.43	1115.27
532.78	1124.86
533.14	1111.52
533.49	1117.37
533.85	1109.88
534.21	1113.63
534.56	1108.95
534.92	1107.31
535.27	1102.39
535.63	1104.97
535.98	1100.05
536.34	1104.26
536.69	1128.14
537.05	1124.63
537.41	1118.31
537.76	1129.31
538.12	1129.07
538.47	1107.07
538.83	1106.14
539.18	1117.84
539.54	1106.84
539.89	1104.03
540.25	1109.65
540.60	1118.54
540.96	1105.44
541.31	1101.22
541.67	1103.80
542.02	1106.84
542.38	1105.20
542.73	1105.67
543.09	1101.92
543.44	1098.88
543.80	1095.60
544.15	1091.39
544.51	1095.37
544.86	1111.29
545.22	1111.75
545.57	1114.10
545.93	1122.99
546.28	1121.58
546.64	1129.54
546.99	1132.82
547.35	1132.12
547.70	1125.10
548.05	1116.20
548.41	1103.56
548.76	1097.95
549.12	1086.71
549.47	1100.52
549.83	1114.56
550.18	1107.54
550.53	1110.12
550.89	1126.27
551.24	1098.41
551.60	1083.67
551.95	1082.26
552.30	1083.67
552.66	1064.01
553.01	1075.24
553.37	1082.03
553.72	1092.33
554.07	1095.37
554.43	1094.20
554.78	1088.35
555.13	1092.56
555.49	1091.63
555.84	1087.88
556.19	1099.12
556.55	1098.18
556.90	1101.22
557.26	1096.78
557.61	1089.75
557.96	1090.69
558.32	1104.97
558.67	1102.39
559.02	1105.90
559.37	1111.75
559.73	1112.22
560.08	1114.33
560.43	1111.99
560.79	1115.03
561.14	1100.99
561.49	1096.54
561.85	1086.24
562.20	1078.28
562.55	1075.94
562.90	1093.03
563.26	1101.92
563.61	1103.56
563.96	1106.84
564.32	1103.80
564.67	1100.29
565.02	1089.52
565.37	1079.22
565.73	1085.07
566.08	1088.35
566.43	1079.69
566.78	1074.31
567.14	1084.37
567.49	1083.90
567.84	1078.28
568.19	1081.56
568.54	1079.69
568.90	1078.05
569.25	1065.88
569.60	1063.31
569.95	1060.73
570.31	1079.69
570.66	1078.99
571.01	1090.92
571.36	1092.33
571.71	1090.22
572.06	1090.69
572.42	1094.43
572.77	1093.97
573.12	1094.43
573.47	1102.16
573.82	1096.54
574.18	1096.54
574.53	1105.90
574.88	1104.97
575.23	1107.07
575.58	1112.46
575.93	1098.65
576.28	1101.69
576.64	1096.07
576.99	1085.54
577.34	1078.05
577.69	1090.22
578.04	1076.65
578.39	1087.65
578.74	1099.12
579.09	1100.52
579.44	1105.20
579.80	1101.46
580.15	1097.48
580.50	1090.92
580.85	1097.71
581.20	1092.09
581.55	1093.26
581.90	1095.37
582.25	1094.90
582.60	1089.75
582.95	1096.54
583.30	1103.33
583.65	1101.46
584.00	1104.97
584.35	1106.61
584.71	1104.26
585.06	1099.35
585.41	1086.01
585.76	1090.69
586.11	1092.09
586.46	1084.14
586.81	1093.97
587.16	1100.99
587.51	1098.18
587.86	1094.20
588.21	1093.50
588.56	1075.48
588.91	1080.16
589.26	1081.09
589.61	1085.54
589.96	1089.05
590.31	1107.31
590.66	1111.99
591.01	1114.33
591.36	1117.61
591.71	1112.92
592.06	1109.65
592.41	1105.20
592.76	1097.24
593.10	1078.75
593.45	1083.67
593.80	1078.75
594.15	1072.43
594.50	1078.75
594.85	1086.48
595.20	1086.71
595.55	1086.24
595.90	1094.43
596.25	1092.09
596.60	1100.75
596.95	1101.46
597.30	1102.16
597.64	1148.97
597.99	1156.46
598.34	1152.25
598.69	1145.46
599.04	1139.61
599.39	1088.82
599.74	1081.09
600.09	1086.48
600.44	1092.33
600.78	1099.35
601.13	1108.24
601.48	1108.71
601.83	1103.33
602.18	1103.80
602.53	1108.95
602.88	1107.78
603.22	1104.73
603.57	1098.88
603.92	1095.37
604.27	1100.05
604.62	1098.18
604.97	1095.37
605.31	1098.65
605.66	1097.48
606.01	1079.69
606.36	1081.80
606.71	1083.43
607.05	1081.09
607.40	1092.80
607.75	1097.01
608.10	1096.07
608.44	1100.05
608.79	1098.18
609.14	1090.22
609.49	1095.14
609.84	1095.84
610.18	1096.31
610.53	1108.24
610.88	1106.84
611.23	1097.95
611.57	1091.39
611.92	1097.48
612.27	1075.71
612.62	1075.94
612.96	1077.11
613.31	1076.41
613.66	1073.14
614.00	1082.26
614.35	1087.65
614.70	1085.54
615.05	1079.69
615.39	1081.09
615.74	1083.20
616.09	1082.50
616.43	1092.09
616.78	1099.12
617.13	1097.48
617.47	1097.01
617.82	1095.60
618.17	1091.86
618.51	1078.75
618.86	1071.97
619.21	1081.56
619.55	1076.65
619.90	1072.67
620.25	1080.63
620.59	1085.54
620.94	1078.28
621.29	1077.58
621.63	1083.43
621.98	1089.52
622.32	1089.29
622.67	1089.75
623.02	1084.84
623.36	1081.09
623.71	1075.01
624.05	1074.07
624.40	1079.46
624.75	1086.48
625.09	1087.65
625.44	1092.80
625.78	1102.86
626.13	1098.88
626.48	1097.24
626.82	1099.35
627.17	1101.92
627.51	1091.63
627.86	1086.48
628.20	1090.22
628.55	1088.58
628.89	1082.03
629.24	1077.58
629.58	1082.26
629.93	1078.52
630.28	1079.92
630.62	1085.31
630.97	1093.03
631.31	1090.46
631.66	1097.01
632.00	1100.75
632.35	1098.41
632.69	1099.35
633.04	1099.58
633.38	1109.41
633.73	1107.54
634.07	1097.48
634.42	1089.75
634.76	1091.86
635.11	1080.39
635.45	1075.94
635.79	1087.65
636.14	1094.20
636.48	1095.60
636.83	1083.67
637.17	1077.58
637.52	1074.54
637.86	1062.84
638.21	1060.96
638.55	1073.84
638.89	1079.46
639.24	1084.84
639.58	1100.05
639.93	1102.16
640.27	1096.31
640.61	1102.39
640.96	1100.99
641.30	1089.52
641.65	1088.82
641.99	1100.05
642.33	1088.82
642.68	1089.99
643.02	1094.67
643.37	1090.22
643.71	1080.16
644.05	1089.52
644.40	1094.43
644.74	1092.09
645.08	1095.37
645.43	1086.94
645.77	1085.77
646.11	1085.31
646.46	1069.62
646.80	1063.31
647.14	1070.56
647.49	1070.09
647.83	1054.88
648.17	1069.16
648.52	1073.14
648.86	1077.35
649.20	1078.05
649.55	1086.71
649.89	1090.46
650.23	1086.94
650.57	1082.50
650.92	1083.67
651.26	1083.20
651.60	1071.26
651.95	1077.35
652.29	1086.24
652.63	1073.37
652.97	1074.54
653.32	1089.99
653.66	1088.35
654.00	1079.69
654.34	1084.14
654.69	1086.94
655.03	1088.35
655.37	1087.41
655.71	1102.16
656.05	1104.26
656.40	1102.39
656.74	1098.18
657.08	1098.88
657.42	1086.94
657.76	1089.52
658.11	1093.03
658.45	1080.16
658.79	1077.11
659.13	1084.14
659.47	1088.82
659.82	1078.75
660.16	1086.71
660.50	1090.69
660.84	1085.54
661.18	1086.01
661.52	1090.92
661.87	1091.39
662.21	1093.97
662.55	1091.63
662.89	1080.16
663.23	1071.73
663.57	1073.84
663.91	1074.54
664.25	1073.37
664.60	1075.71
664.94	1084.84
665.28	1081.80
665.62	1080.63
665.96	1086.48
666.30	1097.24
666.64	1092.80
666.98	1096.07
667.32	1083.90
667.66	1082.73
668.01	1076.41
668.35	1080.86
668.69	1083.43
669.03	1091.39
669.37	1087.41
669.71	1089.29
670.05	1087.65
670.39	1085.54
670.73	1083.67
671.07	1089.75
671.41	1087.41
671.75	1088.82
672.09	1096.31
672.43	1100.75
672.77	1090.22
673.11	1090.46
673.45	1075.71
673.79	1065.88
674.13	1061.67
674.47	1066.11
674.81	1074.31
675.15	1083.43
675.49	1087.41
675.83	1093.26
676.17	1093.03
676.51	1083.43
676.85	1092.33
677.19	1094.43
677.53	1093.50
677.87	1085.77
678.21	1090.22
678.55	1086.71
678.89	1074.54
679.23	1064.01
679.57	1076.65
679.90	1071.73
680.24	1069.62
680.58	1075.24
680.92	1078.99
681.26	1078.52
681.60	1085.54
681.94	1082.73
682.28	1078.05
682.62	1078.99
682.96	1064.48
683.29	1056.52
683.63	1059.56
683.97	1053.01
684.31	1055.11
684.65	1069.16
684.99	1078.28
685.33	1080.63
685.67	1105.90
686.00	1113.63
686.34	1114.80
686.68	1110.58
687.02	1107.07
687.36	1098.18
687.70	1094.20
688.03	1086.01
688.37	1083.20
688.71	1084.84
689.05	1073.14
689.39	1068.92
689.72	1073.37
690.06	1069.16
690.40	1071.73
690.74	1076.88
691.08	1075.24
691.41	1073.14
691.75	1084.14
692.09	1086.01
692.43	1085.54
692.76	1088.35
693.10	1095.14
693.44	1096.07
693.78	1088.82
694.11	1097.48
694.45	1083.67
694.79	1082.73
695.13	1074.31
695.46	1068.45
695.80	1054.88
696.14	1066.35
696.48	1064.71
696.81	1066.58
697.15	1078.75
697.49	1089.75
697.82	1086.94
698.16	1084.84
698.50	1085.77
698.83	1086.94
699.17	1081.80
699.51	1086.48
699.84	1086.94
700.18	1084.60
700.52	1082.50
700.85	1087.41
701.19	1095.14
701.53	1084.37
701.86	1072.20
702.20	1072.90
702.54	1070.09
702.87	1061.67
703.21	1068.45
703.55	1080.39
703.88	1073.14
704.22	1071.26
704.55	1075.24
704.89	1088.35
705.23	1086.01
705.56	1096.78
705.90	1104.50
706.23	1111.75
706.57	1105.44
706.91	1111.52
707.24	1097.24
707.58	1091.16
707.91	1078.99
708.25	1079.46
708.58	1070.80
708.92	1079.46
709.26	1075.01
709.59	1078.52
709.93	1079.46
710.26	1076.88
710.60	1079.22
710.93	1078.05
711.27	1081.09
711.60	1078.75
711.94	1088.12
712.27	1077.58
712.61	1078.05
712.94	1076.88
713.28	1075.71
713.61	1072.20
713.95	1084.14
714.28	1088.35
714.62	1084.37
714.95	1087.41
715.29	1086.94
715.62	1075.24
715.96	1064.94
716.29	1071.73
716.63	1066.11
716.96	1067.52
717.29	1068.22
717.63	1082.03
717.96	1075.94
718.30	1077.58
718.63	1087.18
718.97	1093.26
719.30	1089.99
719.63	1091.16
719.97	1097.48
720.30	1086.48
720.64	1091.86
720.97	1081.80
721.30	1074.54
721.64	1064.48
721.97	1065.65
722.31	1063.07
722.64	1074.07
722.97	1072.43
723.31	1074.54
723.64	1076.41
723.97	1068.22
724.31	1071.97
724.64	1074.77
724.98	1079.46
725.31	1068.69
725.64	1065.65
725.98	1063.77
726.31	1075.24
726.64	1068.69
726.97	1089.75
727.31	1090.69
727.64	1096.54
727.97	1090.46
728.31	1094.90
728.64	1090.69
728.97	1093.03
729.31	1082.97
729.64	1077.11
729.97	1076.88
730.30	1063.07
730.64	1060.26
730.97	1060.26
731.30	1072.20
731.63	1070.09
731.97	1079.92
732.30	1086.48
732.63	1086.01
732.96	1081.33
733.30	1086.71
733.63	1091.16
733.96	1094.67
734.29	1098.65
734.63	1096.78
734.96	1095.37
735.29	1089.99
735.62	1088.35
735.95	1095.37
736.29	1093.03
736.62	1104.26
736.95	1100.75
737.28	1088.35
737.61	1079.46
737.94	1090.69
738.28	1067.99
738.61	1075.94
738.94	1085.07
739.27	1079.22
739.60	1065.65
739.93	1071.73
740.27	1070.80
740.60	1072.90
740.93	1084.14
741.26	1086.94
741.59	1086.01
741.92	1075.48
742.25	1065.65
742.58	1067.75
742.91	1064.71
743.25	1070.80
743.58	1082.03
743.91	1093.97
744.24	1087.88
744.57	1086.94
744.90	1091.86
745.23	1091.86
745.56	1089.29
745.89	1090.46
746.22	1097.01
746.55	1084.37
746.88	1084.37
747.21	1089.05
747.54	1091.39
747.87	1101.22
748.20	1108.71
748.53	1100.29
748.87	1097.24
749.20	1087.65
749.53	1080.16
749.86	1076.41
750.19	1071.03
750.52	1073.84
750.85	1087.18
751.18	1087.41
751.51	1087.18
751.84	1097.24
752.16	1091.63
752.49	1081.56
752.82	1080.86
753.15	1087.41
753.48	1089.99
753.81	1095.84
754.14	1102.39
754.47	1101.69
754.80	1086.01
755.13	1080.39
755.46	1076.88
755.79	1071.26
756.12	1065.41
756.45	1079.69
756.78	1077.82
757.11	1075.01
757.43	1082.03
757.76	1084.37
758.09	1078.28
758.42	1076.41
758.75	1087.41
759.08	1088.82
759.41	1089.05
759.74	1090.69
760.07	1087.41
760.39	1074.07
760.72	1070.33
761.05	1071.26
761.38	1070.80
761.71	1081.33
762.04	1087.65
762.36	1080.86
762.69	1086.01
763.02	1088.58
763.35	1088.58
763.68	1090.22
764.01	1092.33
764.33	1088.82
764.66	1093.26
