SpectraSuite Data File
++++++++++++++++++++++++++++++++++++
Date: Mon Aug 26 10:24:39 PDT 2019
User: corrico
Dark Spectrum Present: No
Reference Spectrum Present: No
Number of Sampled Component Spectra: 1
Spectrometers: USB2+H06089
Integration Time (usec): 10000 (USB2+H06089)
Spectra Averaged: 2 (USB2+H06089)
Boxcar Smoothing: 2 (USB2+H06089)
Correct for Electrical Dark: No (USB2+H06089)
Strobe/Lamp Enabled: No (USB2+H06089)
Correct for Detector Non-linearity: No (USB2+H06089)
Correct for Stray Light: No (USB2+H06089)
Number of Pixels in Processed Spectrum: 2048
>>>>>Begin Processed Spectral Data<<<<<
339.70	1048.56
340.07	1048.56
340.45	1013.22
340.82	985.83
341.19	961.73
341.57	940.66
341.94	940.19
342.31	927.32
342.69	918.66
343.06	910.00
343.43	906.49
343.81	896.66
344.18	894.55
344.55	901.81
344.93	914.21
345.30	919.83
345.67	924.04
346.04	932.24
346.42	938.79
346.79	950.02
347.16	958.22
347.54	968.75
347.91	988.41
348.28	1005.49
348.65	1022.11
349.03	1030.30
349.40	1043.41
349.77	1045.75
350.14	1054.65
350.52	1059.33
350.89	1067.75
351.26	1069.62
351.63	1073.84
352.01	1073.37
352.38	1064.94
352.75	1063.54
353.12	1078.28
353.50	1078.28
353.87	1084.14
354.24	1082.97
354.61	1090.46
354.98	1078.99
355.36	1075.24
355.73	1072.67
356.10	1080.16
356.47	1086.94
356.84	1099.58
357.22	1105.44
357.59	1102.16
357.96	1106.14
358.33	1098.18
358.70	1088.35
359.08	1098.41
359.45	1110.12
359.82	1116.44
360.19	1122.75
360.56	1126.27
360.94	1120.18
361.31	1118.31
361.68	1121.58
362.05	1114.80
362.42	1118.78
362.79	1115.50
363.16	1115.73
363.54	1096.54
363.91	1097.48
364.28	1092.80
364.65	1099.58
365.02	1093.97
365.39	1104.73
365.76	1099.35
366.14	1100.52
366.51	1090.69
366.88	1090.92
367.25	1086.24
367.62	1078.75
367.99	1082.03
368.36	1089.99
368.73	1084.60
369.10	1082.26
369.48	1087.41
369.85	1084.14
370.22	1076.18
370.59	1084.60
370.96	1086.94
371.33	1086.48
371.70	1081.33
372.07	1095.14
372.44	1086.71
372.81	1082.97
373.18	1089.99
373.55	1099.58
373.93	1088.82
374.30	1095.14
374.67	1106.84
375.04	1105.44
375.41	1103.80
375.78	1108.01
376.15	1103.09
376.52	1092.09
376.89	1093.50
377.26	1095.60
377.63	1098.18
378.00	1103.09
378.37	1103.80
378.74	1097.48
379.11	1096.31
379.48	1086.94
379.85	1086.71
380.22	1091.63
380.59	1103.09
380.96	1109.41
381.33	1110.12
381.70	1110.12
382.07	1111.05
382.44	1109.18
382.81	1101.69
383.18	1108.24
383.55	1112.69
383.92	1122.52
384.29	1121.58
384.66	1123.22
385.03	1123.22
385.40	1129.54
385.77	1111.99
386.14	1110.82
386.51	1107.31
386.88	1114.80
387.25	1101.46
387.62	1115.27
387.99	1102.39
388.36	1100.05
388.73	1096.78
389.10	1106.61
389.46	1113.16
389.83	1127.20
390.20	1130.01
390.57	1124.86
390.94	1119.01
391.31	1107.54
391.68	1104.97
392.05	1112.69
392.42	1118.31
392.79	1124.39
393.16	1121.82
393.53	1127.90
393.89	1131.65
394.26	1136.33
394.63	1134.22
395.00	1137.50
395.37	1137.73
395.74	1136.10
396.11	1130.71
396.48	1145.93
396.84	1145.46
397.21	1149.91
397.58	1153.18
397.95	1158.10
398.32	1154.59
398.69	1167.23
399.06	1160.91
399.42	1166.52
399.79	1179.40
400.16	1181.50
400.53	1182.91
400.90	1197.42
401.27	1210.29
401.64	1207.01
402.00	1217.55
402.37	1224.33
402.74	1238.61
403.11	1232.53
403.48	1257.57
403.84	1272.08
404.21	1285.19
404.58	1296.66
404.95	1323.57
405.32	1327.55
405.68	1345.81
406.05	1365.94
406.42	1383.72
406.79	1406.90
407.16	1434.98
407.52	1461.66
407.89	1494.20
408.26	1532.82
408.63	1564.88
408.99	1599.52
409.36	1639.31
409.73	1683.78
410.10	1744.17
410.47	1794.72
410.83	1870.56
411.20	1931.64
411.57	2004.90
411.94	2075.12
412.30	2152.82
412.67	2219.30
413.04	2309.87
413.40	2404.90
413.77	2493.61
414.14	2601.51
414.51	2720.40
414.87	2839.77
415.24	3000.57
415.61	3167.92
415.97	3339.24
416.34	3524.14
416.71	3733.15
417.08	3920.63
417.44	4127.30
417.81	4368.61
418.18	4604.07
418.54	4864.34
418.91	5135.14
419.28	5423.26
419.64	5735.01
420.01	6035.77
420.38	6373.98
420.74	6707.74
421.11	7095.57
421.48	7492.05
421.84	7957.12
422.21	8378.42
422.58	8893.57
422.94	9430.49
423.31	9936.04
423.68	10527.96
424.04	11207.42
424.41	11817.60
424.77	12423.10
425.14	13132.04
425.51	13795.12
425.87	14503.60
426.24	15272.00
426.61	16218.98
426.97	17223.30
427.34	18199.77
427.70	19264.01
428.07	20355.64
428.44	21430.18
428.80	22479.44
429.17	23573.41
429.53	24598.33
429.90	25859.41
430.27	26924.59
430.63	28030.72
431.00	29388.00
431.36	30905.37
431.73	32230.11
432.09	33592.77
432.46	34963.16
432.83	36271.05
433.19	37412.29
433.56	38887.53
433.92	40480.27
434.29	41971.89
434.65	43449.70
435.02	44876.73
435.38	46075.08
435.75	46939.21
436.11	48212.46
436.48	49265.94
436.84	50291.56
437.21	51192.67
437.57	52223.20
437.94	52897.28
438.30	53457.13
438.67	53754.85
439.03	53880.07
439.40	53955.43
439.76	53789.02
440.13	53587.97
440.49	53541.16
440.86	53164.33
441.22	52770.19
441.59	52185.75
441.95	51522.91
442.32	50531.00
442.68	49772.19
443.05	48833.41
443.41	47929.02
443.78	46916.74
444.14	46104.11
444.51	44960.29
444.87	44057.31
445.24	42887.98
445.60	41677.22
445.96	40318.54
446.33	39316.55
446.69	37982.68
447.06	37046.00
447.42	36142.32
447.79	35137.06
448.15	34138.35
448.51	33240.05
448.88	32231.75
449.24	31215.49
449.61	30440.77
449.97	29600.52
450.33	28771.04
450.70	27927.74
451.06	27273.79
451.43	26513.82
451.79	25932.90
452.15	25400.66
452.52	24840.34
452.88	24204.42
453.24	23667.26
453.61	23008.87
453.97	22356.09
454.34	21679.91
454.70	21093.84
455.06	20504.50
455.43	19848.21
455.79	19069.05
456.15	18525.81
456.52	17863.44
456.88	17275.73
457.24	16682.17
457.61	16239.34
457.97	15690.25
458.33	15169.25
458.70	14592.30
459.06	14019.34
459.42	13558.02
459.79	13029.76
460.15	12608.70
460.51	12174.53
460.88	11775.00
461.24	11315.79
461.60	10949.49
461.96	10564.94
462.33	10237.97
462.69	9934.64
463.05	9632.71
463.42	9369.87
463.78	9100.47
464.14	8805.33
464.50	8569.87
464.87	8309.37
465.23	8014.70
465.59	7741.32
465.95	7534.42
466.32	7301.77
466.68	7107.50
467.04	6935.48
467.40	6792.47
467.77	6632.38
468.13	6476.03
468.49	6308.68
468.85	6167.08
469.22	6019.62
469.58	5862.34
469.94	5730.80
470.30	5629.92
470.66	5508.45
471.03	5382.06
471.39	5285.63
471.75	5166.03
472.11	5044.09
472.47	4961.00
472.84	4857.31
473.20	4708.46
473.56	4586.75
473.92	4474.40
474.28	4389.91
474.65	4278.97
475.01	4238.01
475.37	4167.09
475.73	4109.51
476.09	3989.21
476.45	3911.97
476.81	3801.97
477.18	3715.37
477.54	3636.96
477.90	3580.55
478.26	3509.40
478.62	3465.40
478.98	3427.01
479.34	3351.18
479.71	3301.56
480.07	3265.28
480.43	3229.00
480.79	3169.32
481.15	3131.40
481.51	3079.68
481.87	3026.55
482.23	2952.82
482.59	2906.71
482.96	2852.88
483.32	2811.69
483.68	2766.51
484.04	2737.26
484.40	2698.40
484.76	2672.42
485.12	2627.25
485.48	2594.48
485.84	2559.84
486.20	2525.91
486.56	2483.07
486.92	2458.03
487.28	2424.33
487.64	2388.98
488.00	2357.62
488.37	2315.02
488.73	2279.45
489.09	2248.79
489.45	2201.98
489.81	2164.76
490.17	2129.42
490.53	2083.78
490.89	2057.56
491.25	2030.88
491.61	2007.01
491.97	1992.03
492.33	1988.05
492.69	1952.24
493.05	1937.96
493.41	1913.62
493.77	1887.17
494.13	1854.64
494.49	1846.92
494.85	1831.24
495.21	1802.45
495.57	1774.59
495.93	1759.15
496.29	1739.49
496.64	1709.53
497.00	1695.02
497.36	1672.78
497.72	1653.59
498.08	1632.29
498.44	1632.52
498.80	1623.40
499.16	1618.25
499.52	1585.95
499.88	1563.71
500.24	1549.43
500.60	1534.92
500.96	1522.52
501.32	1515.26
501.68	1515.26
502.03	1486.94
502.39	1468.69
502.75	1451.13
503.11	1439.90
503.47	1434.75
503.83	1423.98
504.19	1417.19
504.55	1413.92
504.91	1405.96
505.26	1386.07
505.62	1385.60
505.98	1369.92
506.34	1353.53
506.70	1362.19
507.06	1360.32
507.42	1350.96
507.78	1342.77
508.13	1344.17
508.49	1328.25
508.85	1314.21
509.21	1312.81
509.57	1315.85
509.93	1315.85
510.28	1310.47
510.64	1311.40
511.00	1311.40
511.36	1309.06
511.72	1298.53
512.07	1290.81
512.43	1280.27
512.79	1265.06
513.15	1260.38
513.51	1254.76
513.86	1255.46
514.22	1262.48
514.58	1258.97
514.94	1251.72
515.30	1245.87
515.65	1240.02
516.01	1228.31
516.37	1225.27
516.73	1222.46
517.08	1221.06
517.44	1219.65
517.80	1214.27
518.16	1209.82
518.51	1207.95
518.87	1211.93
519.23	1212.16
519.59	1205.84
519.94	1200.93
520.30	1193.21
520.66	1184.31
521.01	1179.63
521.37	1189.93
521.73	1192.74
522.09	1188.29
522.44	1187.82
522.80	1184.55
523.16	1168.86
523.51	1171.44
523.87	1170.50
524.23	1170.74
524.58	1176.59
524.94	1174.01
525.30	1163.71
525.65	1166.29
526.01	1166.99
526.37	1157.39
526.72	1160.67
527.08	1165.82
527.44	1163.01
527.79	1162.54
528.15	1157.63
528.51	1155.52
528.86	1142.65
529.22	1145.46
529.58	1137.50
529.93	1142.88
530.29	1149.20
530.65	1162.31
531.00	1162.78
531.36	1161.84
531.71	1162.78
532.07	1152.71
532.43	1140.78
532.78	1135.63
533.14	1137.50
533.49	1136.10
533.85	1139.84
534.21	1146.63
534.56	1143.59
534.92	1133.52
535.27	1129.78
535.63	1136.80
535.98	1138.90
536.34	1135.86
536.69	1135.16
537.05	1134.69
537.41	1124.16
537.76	1115.97
538.12	1122.99
538.47	1134.93
538.83	1128.84
539.18	1134.22
539.54	1136.80
539.89	1143.82
540.25	1141.71
540.60	1145.46
540.96	1141.95
541.31	1140.07
541.67	1130.95
542.02	1133.29
542.38	1135.86
542.73	1135.16
543.09	1137.50
543.44	1134.46
543.80	1128.14
544.15	1126.27
544.51	1131.41
544.86	1134.46
545.22	1138.44
545.57	1150.14
545.93	1153.65
546.28	1150.84
546.64	1149.91
546.99	1146.63
547.35	1128.14
547.70	1117.61
548.05	1118.78
548.41	1109.41
548.76	1102.63
549.12	1113.16
549.47	1116.67
549.83	1114.56
550.18	1119.01
550.53	1133.29
550.89	1119.95
551.24	1126.73
551.60	1119.71
551.95	1118.31
552.30	1111.29
552.66	1120.41
553.01	1115.73
553.37	1114.56
553.72	1123.46
554.07	1123.69
554.43	1118.54
554.78	1120.41
555.13	1123.46
555.49	1116.67
555.84	1112.69
556.19	1118.07
556.55	1115.50
556.90	1108.95
557.26	1117.14
557.61	1123.69
557.96	1118.54
558.32	1117.84
558.67	1129.31
559.02	1125.10
559.37	1122.05
559.73	1128.84
560.08	1130.48
560.43	1125.80
560.79	1125.33
561.14	1132.82
561.49	1126.50
561.85	1114.80
562.20	1116.67
562.55	1112.46
562.90	1098.65
563.26	1101.22
563.61	1116.44
563.96	1111.05
564.32	1115.97
564.67	1116.44
565.02	1111.75
565.37	1103.80
565.73	1108.48
566.08	1097.71
566.43	1102.16
566.78	1106.84
567.14	1113.16
567.49	1113.63
567.84	1117.84
568.19	1111.99
568.54	1109.88
568.90	1103.56
569.25	1108.01
569.60	1111.05
569.95	1113.86
570.31	1114.33
570.66	1111.29
571.01	1106.37
571.36	1109.65
571.71	1111.99
572.06	1110.58
572.42	1108.24
572.77	1103.09
573.12	1099.35
573.47	1110.82
573.82	1114.80
574.18	1122.29
574.53	1121.58
574.88	1121.82
575.23	1118.54
575.58	1112.46
575.93	1106.84
576.28	1108.71
576.64	1104.03
576.99	1093.03
577.34	1111.52
577.69	1109.18
578.04	1107.54
578.39	1115.50
578.74	1127.44
579.09	1111.52
579.44	1118.31
579.80	1119.24
580.15	1112.92
580.50	1099.12
580.85	1103.33
581.20	1104.73
581.55	1109.41
581.90	1123.93
582.25	1125.56
582.60	1126.27
582.95	1119.48
583.30	1118.07
583.65	1102.16
584.00	1107.54
584.35	1105.90
584.71	1118.78
585.06	1125.33
585.41	1127.20
585.76	1124.86
586.11	1133.29
586.46	1120.41
586.81	1118.31
587.16	1118.54
587.51	1115.27
587.86	1099.58
588.21	1109.18
588.56	1097.48
588.91	1096.54
589.26	1096.78
589.61	1103.09
589.96	1089.29
590.31	1095.84
590.66	1091.63
591.01	1095.60
591.36	1089.99
591.71	1106.37
592.06	1106.14
592.41	1115.73
592.76	1123.22
593.10	1138.44
593.45	1131.18
593.80	1136.80
594.15	1130.24
594.50	1110.35
594.85	1094.20
595.20	1096.54
595.55	1087.41
595.90	1092.33
596.25	1092.80
596.60	1092.80
596.95	1096.78
597.30	1109.18
597.64	1157.63
597.99	1168.40
598.34	1173.78
598.69	1163.01
599.04	1152.25
599.39	1098.88
599.74	1095.14
600.09	1105.67
600.44	1104.26
600.78	1097.48
601.13	1100.75
601.48	1101.92
601.83	1086.48
602.18	1081.09
602.53	1088.35
602.88	1081.80
603.22	1080.39
603.57	1082.97
603.92	1087.18
604.27	1094.43
604.62	1097.01
604.97	1099.58
605.31	1098.65
605.66	1099.82
606.01	1092.33
606.36	1092.56
606.71	1087.41
607.05	1093.26
607.40	1096.54
607.75	1097.48
608.10	1095.37
608.44	1101.22
608.79	1099.82
609.14	1104.03
609.49	1107.54
609.84	1121.12
610.18	1116.90
610.53	1112.22
610.88	1105.20
611.23	1109.88
611.57	1100.75
611.92	1107.31
612.27	1112.92
612.62	1116.20
612.96	1108.24
613.31	1112.22
613.66	1110.58
614.00	1108.01
614.35	1106.14
614.70	1102.86
615.05	1095.60
615.39	1096.54
615.74	1090.46
616.09	1093.26
616.43	1099.12
616.78	1111.99
617.13	1109.65
617.47	1112.92
617.82	1113.39
618.17	1112.92
618.51	1104.03
618.86	1096.31
619.21	1092.56
619.55	1096.31
619.90	1090.92
620.25	1088.58
620.59	1096.31
620.94	1106.37
621.29	1102.39
621.63	1102.16
621.98	1104.73
622.32	1102.63
622.67	1096.54
623.02	1094.43
623.36	1099.12
623.71	1107.78
624.05	1117.61
624.40	1125.33
624.75	1129.54
625.09	1117.61
625.44	1104.26
625.78	1097.95
626.13	1090.46
626.48	1091.39
626.82	1099.82
627.17	1099.58
627.51	1092.80
627.86	1097.24
628.20	1093.73
628.55	1095.84
628.89	1094.20
629.24	1097.48
629.58	1086.71
629.93	1081.33
630.28	1075.24
630.62	1087.41
630.97	1089.29
631.31	1096.78
631.66	1094.20
632.00	1104.50
632.35	1097.71
632.69	1092.56
633.04	1094.67
633.38	1104.03
633.73	1089.99
634.07	1088.35
634.42	1091.39
634.76	1085.54
635.11	1080.16
635.45	1093.26
635.79	1089.52
636.14	1085.54
636.48	1089.52
636.83	1099.35
637.17	1101.46
637.52	1107.07
637.86	1122.75
638.21	1122.99
638.55	1116.67
638.89	1107.31
639.24	1109.41
639.58	1100.75
639.93	1096.07
640.27	1101.22
640.61	1108.01
640.96	1096.54
641.30	1106.14
641.65	1102.63
641.99	1102.39
642.33	1097.48
642.68	1103.09
643.02	1092.56
643.37	1099.12
643.71	1090.69
644.05	1086.71
644.40	1092.33
644.74	1089.75
645.08	1080.63
645.43	1082.50
645.77	1088.12
646.11	1082.50
646.46	1077.82
646.80	1090.22
647.14	1090.69
647.49	1087.88
647.83	1086.01
648.17	1093.26
648.52	1089.99
648.86	1097.48
649.20	1091.16
649.55	1094.90
649.89	1108.24
650.23	1108.01
650.57	1096.54
650.92	1109.65
651.26	1102.39
651.60	1088.82
651.95	1093.50
652.29	1099.35
652.63	1082.03
652.97	1095.14
653.32	1092.56
653.66	1092.33
654.00	1091.39
654.34	1105.90
654.69	1101.92
655.03	1096.54
655.37	1090.22
655.71	1089.29
656.05	1086.24
656.40	1079.92
656.74	1081.80
657.08	1083.67
657.42	1076.18
657.76	1076.18
658.11	1085.77
658.45	1099.58
658.79	1107.78
659.13	1123.22
659.47	1122.29
659.82	1123.22
660.16	1113.39
660.50	1104.26
660.84	1097.01
661.18	1095.60
661.52	1087.88
661.87	1092.09
662.21	1083.90
662.55	1081.09
662.89	1084.84
663.23	1090.46
663.57	1089.75
663.91	1097.01
664.25	1094.43
664.60	1092.80
664.94	1088.12
665.28	1085.07
665.62	1082.03
665.96	1092.33
666.30	1093.97
666.64	1082.26
666.98	1080.39
667.32	1089.75
667.66	1088.35
668.01	1080.63
668.35	1096.54
668.69	1112.22
669.03	1108.24
669.37	1096.31
669.71	1097.01
670.05	1090.22
670.39	1070.33
670.73	1065.41
671.07	1075.71
671.41	1079.22
671.75	1082.50
672.09	1089.52
672.43	1098.18
672.77	1097.24
673.11	1096.07
673.45	1094.67
673.79	1096.31
674.13	1095.84
674.47	1088.58
674.81	1090.22
675.15	1090.22
675.49	1092.33
675.83	1090.92
676.17	1097.01
676.51	1106.14
676.85	1111.05
677.19	1102.86
677.53	1093.26
677.87	1091.16
678.21	1082.73
678.55	1080.86
678.89	1081.33
679.23	1091.16
679.57	1093.97
679.90	1087.65
680.24	1075.94
680.58	1082.03
680.92	1082.50
681.26	1082.03
681.60	1091.86
681.94	1098.88
682.28	1095.60
682.62	1097.48
682.96	1095.60
683.29	1087.41
683.63	1092.09
683.97	1092.09
684.31	1095.14
684.65	1098.41
684.99	1102.16
685.33	1105.20
685.67	1102.39
686.00	1090.69
686.34	1094.43
686.68	1093.73
687.02	1086.71
687.36	1087.41
687.70	1093.50
688.03	1079.92
688.37	1078.99
688.71	1083.67
689.05	1085.54
689.39	1093.03
689.72	1097.48
690.06	1092.80
690.40	1081.80
690.74	1082.97
691.08	1069.86
691.41	1071.73
691.75	1076.65
692.09	1093.26
692.43	1085.77
692.76	1093.97
693.10	1094.43
693.44	1098.41
693.78	1090.46
694.11	1096.07
694.45	1082.03
694.79	1076.41
695.13	1068.22
695.46	1058.39
695.80	1051.84
696.14	1070.09
696.48	1088.35
696.81	1093.73
697.15	1100.52
697.49	1107.07
697.82	1093.26
698.16	1078.05
698.50	1081.80
698.83	1083.20
699.17	1078.75
699.51	1080.16
699.84	1079.69
700.18	1071.97
700.52	1069.16
700.85	1071.73
701.19	1068.69
701.53	1070.80
701.86	1067.52
702.20	1075.71
702.54	1078.52
702.87	1082.26
703.21	1087.41
703.55	1100.52
703.88	1095.84
704.22	1092.80
704.55	1093.03
704.89	1085.31
705.23	1079.69
705.56	1073.14
705.90	1074.07
706.23	1070.56
706.57	1071.50
706.91	1069.16
707.24	1083.90
707.58	1082.26
707.91	1086.94
708.25	1093.03
708.58	1099.82
708.92	1092.56
709.26	1094.20
709.59	1096.78
709.93	1097.71
710.26	1088.58
710.60	1084.14
710.93	1088.12
711.27	1079.92
711.60	1075.94
711.94	1082.03
712.27	1087.18
712.61	1083.90
712.94	1087.18
713.28	1086.24
713.61	1081.33
713.95	1078.52
714.28	1084.84
714.62	1076.88
714.95	1073.14
715.29	1086.48
715.62	1087.18
715.96	1074.77
716.29	1086.01
716.63	1091.16
716.96	1089.52
717.29	1090.22
717.63	1105.44
717.96	1100.29
718.30	1100.75
718.63	1096.07
718.97	1093.26
719.30	1087.41
719.63	1090.22
719.97	1083.43
720.30	1074.07
720.64	1070.80
720.97	1070.09
721.30	1072.90
721.64	1074.54
721.97	1076.65
722.31	1078.99
722.64	1075.24
722.97	1080.39
723.31	1076.41
723.64	1077.82
723.97	1087.18
724.31	1084.37
724.64	1081.80
724.98	1088.58
725.31	1087.88
725.64	1081.56
725.98	1088.82
726.31	1079.46
726.64	1075.94
726.97	1086.48
727.31	1088.82
727.64	1088.82
727.97	1085.77
728.31	1086.48
728.64	1082.26
728.97	1070.09
729.31	1067.99
729.64	1076.88
729.97	1080.86
730.30	1076.41
730.64	1082.03
730.97	1073.14
731.30	1070.09
731.63	1068.69
731.97	1071.03
732.30	1076.65
732.63	1088.12
732.96	1083.43
733.30	1078.99
733.63	1074.54
733.96	1079.22
734.29	1079.46
734.63	1090.46
734.96	1091.39
735.29	1096.78
735.62	1093.26
735.95	1086.01
736.29	1086.94
736.62	1095.84
736.95	1094.67
737.28	1090.22
737.61	1091.16
737.94	1090.22
738.28	1085.31
738.61	1082.26
738.94	1080.86
739.27	1082.03
739.60	1082.73
739.93	1083.90
740.27	1081.80
740.60	1080.16
740.93	1077.82
741.26	1068.92
741.59	1063.31
741.92	1061.90
742.25	1068.22
742.58	1068.45
742.91	1073.14
743.25	1082.73
743.58	1084.14
743.91	1080.39
744.24	1080.63
744.57	1083.20
744.90	1079.22
745.23	1079.69
745.56	1081.33
745.89	1085.07
746.22	1080.63
746.55	1072.90
746.88	1079.22
747.21	1082.03
747.54	1080.63
747.87	1084.37
748.20	1091.63
748.53	1080.86
748.87	1080.86
749.20	1087.88
749.53	1089.75
749.86	1095.37
750.19	1104.73
750.52	1100.52
750.85	1093.26
751.18	1090.69
751.51	1078.75
751.84	1072.43
752.16	1072.67
752.49	1080.39
752.82	1080.39
753.15	1085.07
753.48	1089.52
753.81	1084.14
754.14	1071.26
754.47	1063.77
754.80	1069.62
755.13	1071.73
755.46	1073.14
755.79	1077.82
756.12	1086.94
756.45	1082.73
756.78	1082.26
757.11	1081.09
757.43	1090.69
757.76	1081.80
758.09	1082.50
758.42	1073.37
758.75	1078.99
759.08	1061.67
759.41	1072.90
759.74	1066.35
760.07	1074.77
760.39	1069.16
760.72	1076.18
761.05	1073.60
761.38	1078.52
761.71	1075.94
762.04	1082.50
762.36	1089.75
762.69	1091.63
763.02	1089.75
763.35	1084.14
763.68	1075.94
764.01	1070.56
