SpectraSuite Data File
++++++++++++++++++++++++++++++++++++
Date: Mon Aug 26 10:24:36 PDT 2019
User: corrico
Dark Spectrum Present: No
Reference Spectrum Present: No
Number of Sampled Component Spectra: 1
Spectrometers: USB2+H06089
Integration Time (usec): 10000 (USB2+H06089)
Spectra Averaged: 2 (USB2+H06089)
Boxcar Smoothing: 2 (USB2+H06089)
Correct for Electrical Dark: No (USB2+H06089)
Strobe/Lamp Enabled: No (USB2+H06089)
Correct for Detector Non-linearity: No (USB2+H06089)
Correct for Stray Light: No (USB2+H06089)
Number of Pixels in Processed Spectrum: 2048
>>>>>Begin Processed Spectral Data<<<<<
339.70	1039.20
340.07	1039.20
340.45	1001.52
340.82	985.37
341.19	963.83
341.57	939.73
341.94	928.96
342.31	914.68
342.69	901.81
343.06	890.57
343.43	900.40
343.81	885.19
344.18	895.72
344.55	898.06
344.93	915.38
345.30	912.34
345.67	936.92
346.04	939.02
346.42	946.28
346.79	946.98
347.16	943.47
347.54	944.87
347.91	954.70
348.28	973.19
348.65	991.45
349.03	1008.30
349.40	1024.45
349.77	1030.77
350.14	1033.35
350.52	1031.71
350.89	1041.07
351.26	1046.45
351.63	1062.14
352.01	1067.52
352.38	1078.99
352.75	1080.86
353.12	1088.82
353.50	1095.84
353.87	1096.54
354.24	1093.03
354.61	1100.75
354.98	1098.41
355.36	1087.65
355.73	1096.07
356.10	1099.12
356.47	1098.65
356.84	1095.84
357.22	1100.05
357.59	1096.31
357.96	1098.41
358.33	1101.46
358.70	1110.82
359.08	1116.67
359.45	1115.97
359.82	1115.97
360.19	1104.97
360.56	1087.88
360.94	1083.90
361.31	1079.22
361.68	1079.22
362.05	1080.63
362.42	1095.60
362.79	1092.56
363.16	1103.80
363.54	1096.54
363.91	1092.56
364.28	1081.33
364.65	1081.09
365.02	1082.73
365.39	1076.88
365.76	1076.65
366.14	1087.88
366.51	1088.58
366.88	1091.39
367.25	1092.80
367.62	1101.46
367.99	1088.58
368.36	1093.03
368.73	1074.54
369.10	1079.69
369.48	1072.90
369.85	1070.33
370.22	1064.94
370.59	1065.41
370.96	1055.82
371.33	1055.82
371.70	1058.39
372.07	1062.84
372.44	1074.31
372.81	1083.43
373.18	1083.90
373.55	1091.86
373.93	1098.65
374.30	1092.09
374.67	1092.09
375.04	1096.78
375.41	1098.88
375.78	1089.52
376.15	1090.46
376.52	1097.01
376.89	1094.90
377.26	1085.31
377.63	1090.69
378.00	1096.54
378.37	1098.88
378.74	1101.92
379.11	1109.65
379.48	1105.90
379.85	1096.07
380.22	1086.01
380.59	1090.22
380.96	1089.52
381.33	1093.03
381.70	1103.09
382.07	1108.71
382.44	1109.18
382.81	1106.61
383.18	1106.61
383.55	1105.44
383.92	1112.92
384.29	1108.95
384.66	1114.56
385.03	1109.41
385.40	1116.20
385.77	1117.37
386.14	1113.16
386.51	1115.03
386.88	1113.16
387.25	1105.44
387.62	1101.92
387.99	1107.54
388.36	1104.97
388.73	1103.80
389.10	1110.12
389.46	1101.22
389.83	1101.69
390.20	1104.03
390.57	1115.73
390.94	1114.33
391.31	1120.88
391.68	1121.58
392.05	1120.41
392.42	1116.67
392.79	1111.52
393.16	1113.86
393.53	1111.29
393.89	1109.88
394.26	1095.60
394.63	1105.67
395.00	1111.52
395.37	1121.12
395.74	1130.95
396.11	1148.03
396.48	1145.22
396.84	1149.67
397.21	1147.80
397.58	1144.52
397.95	1154.82
398.32	1154.82
398.69	1142.65
399.06	1139.84
399.42	1136.10
399.79	1139.84
400.16	1138.20
400.53	1146.86
400.90	1153.18
401.27	1160.20
401.64	1155.99
402.00	1161.14
402.37	1173.78
402.74	1182.20
403.11	1196.01
403.48	1209.59
403.84	1219.89
404.21	1230.19
404.58	1243.99
404.95	1255.46
405.32	1271.38
405.68	1291.74
406.05	1302.74
406.42	1313.98
406.79	1330.36
407.16	1349.79
407.52	1374.60
407.89	1402.92
408.26	1441.77
408.63	1472.90
408.99	1501.45
409.36	1544.75
409.73	1579.63
410.10	1614.03
410.47	1653.35
410.83	1696.65
411.20	1732.93
411.57	1780.21
411.94	1837.79
412.30	1900.05
412.67	1962.31
413.04	2036.27
413.40	2126.14
413.77	2211.81
414.14	2320.41
414.51	2410.75
414.87	2504.14
415.24	2615.31
415.61	2733.28
415.97	2827.13
416.34	2960.08
416.71	3104.95
417.08	3230.64
417.44	3372.24
417.81	3564.40
418.18	3758.90
418.54	3948.25
418.91	4169.43
419.28	4389.67
419.64	4597.05
420.01	4833.91
420.38	5092.30
420.74	5347.19
421.11	5652.39
421.48	5978.20
421.84	6318.04
422.21	6637.53
422.58	6996.33
422.94	7374.33
423.31	7761.45
423.68	8164.96
424.04	8654.36
424.41	9131.60
424.77	9594.09
425.14	10093.33
425.51	10614.56
425.87	11177.70
426.24	11782.02
426.61	12507.59
426.97	13285.82
427.34	13990.32
427.70	14800.85
428.07	15528.75
428.44	16272.57
428.80	16991.59
429.17	17854.54
429.53	18674.43
429.90	19733.29
430.27	20612.63
430.63	21508.59
431.00	22543.10
431.36	23688.80
431.73	24575.62
432.09	25574.33
432.46	26644.89
432.83	27648.51
433.19	28431.89
433.56	29562.14
433.92	30688.17
434.29	31763.18
434.65	32819.93
435.02	33844.85
435.38	34699.38
435.75	35421.20
436.11	36400.95
436.48	37183.62
436.84	37888.36
437.21	38677.12
437.57	39474.54
437.94	40029.01
438.30	40617.19
438.67	41163.94
439.03	41364.76
439.40	41553.64
439.76	41472.42
440.13	41228.54
440.49	41113.62
440.86	40814.73
441.22	40476.52
441.59	40061.55
441.95	39678.40
442.32	38950.26
442.68	38470.68
443.05	37808.78
443.41	37070.11
443.78	36198.26
444.14	35401.07
444.51	34305.93
444.87	33453.51
445.24	32562.47
445.60	31695.53
445.96	30793.26
446.33	30085.01
446.69	29159.33
447.06	28387.66
447.42	27552.08
447.79	26745.54
448.15	25979.71
448.51	25246.89
448.88	24581.24
449.24	23876.04
449.61	23340.52
449.97	22753.52
450.33	22140.30
450.70	21449.37
451.06	20936.56
451.43	20301.57
451.79	19806.55
452.15	19349.68
452.52	18908.49
452.88	18456.06
453.24	18061.21
453.61	17618.62
453.97	17133.66
454.34	16597.67
454.70	16190.66
455.06	15713.42
455.43	15158.48
455.79	14619.22
456.15	14183.88
456.52	13607.41
456.88	13190.09
457.24	12772.07
457.61	12428.24
457.97	12038.31
458.33	11686.76
458.70	11245.10
459.06	10813.98
459.42	10462.90
459.79	10092.39
460.15	9750.67
460.51	9411.06
460.88	9124.81
461.24	8823.12
461.60	8573.15
461.96	8313.11
462.33	8066.19
462.69	7812.47
463.05	7556.42
463.42	7347.18
463.78	7140.51
464.14	6932.43
464.50	6751.04
464.87	6553.73
465.23	6353.85
465.59	6167.78
465.95	6019.16
466.32	5846.89
466.68	5697.57
467.04	5508.22
467.40	5354.44
467.77	5234.14
468.13	5129.99
468.49	4989.79
468.85	4909.04
469.22	4815.18
469.58	4693.01
469.94	4587.22
470.30	4515.83
470.66	4429.46
471.03	4320.16
471.39	4243.86
471.75	4168.03
472.11	4068.09
472.47	3988.27
472.84	3915.25
473.20	3825.84
473.56	3739.47
473.92	3662.47
474.28	3585.93
474.65	3533.74
475.01	3468.91
475.37	3404.08
475.73	3354.92
476.09	3289.15
476.45	3224.79
476.81	3168.15
477.18	3106.12
477.54	3050.19
477.90	3001.03
478.26	2949.31
478.62	2903.20
478.98	2863.65
479.34	2822.45
479.71	2802.79
480.07	2777.98
480.43	2730.70
480.79	2692.55
481.15	2664.93
481.51	2605.72
481.87	2562.18
482.23	2525.44
482.59	2483.07
482.96	2429.94
483.32	2401.86
483.68	2370.03
484.04	2357.86
484.40	2343.34
484.76	2328.60
485.12	2291.85
485.48	2255.11
485.84	2212.98
486.20	2175.29
486.56	2140.19
486.92	2123.10
487.28	2110.70
487.64	2090.80
488.00	2063.18
488.37	2044.69
488.73	2023.63
489.09	1996.24
489.45	1963.24
489.81	1945.69
490.17	1914.56
490.53	1894.90
490.89	1869.15
491.25	1850.43
491.61	1826.79
491.97	1816.72
492.33	1790.74
492.69	1756.57
493.05	1743.47
493.41	1716.08
493.77	1698.76
494.13	1674.19
494.49	1661.08
494.85	1633.46
495.21	1626.91
495.57	1603.27
495.93	1599.52
496.29	1592.03
496.64	1591.80
497.00	1578.46
497.36	1570.73
497.72	1551.78
498.08	1540.07
498.44	1516.90
498.80	1504.50
499.16	1484.84
499.52	1466.11
499.88	1446.69
500.24	1435.92
500.60	1427.73
500.96	1415.32
501.32	1423.28
501.68	1423.51
502.03	1422.11
502.39	1408.07
502.75	1401.28
503.11	1386.53
503.47	1379.75
503.83	1370.85
504.19	1362.66
504.55	1360.79
504.91	1346.04
505.26	1342.30
505.62	1336.68
505.98	1340.42
506.34	1324.74
506.70	1319.13
507.06	1309.06
507.42	1299.93
507.78	1282.15
508.13	1286.59
508.49	1284.02
508.85	1274.19
509.21	1263.66
509.57	1254.06
509.93	1247.27
510.28	1246.34
510.64	1242.82
511.00	1240.02
511.36	1235.57
511.72	1233.23
512.07	1227.38
512.43	1219.42
512.79	1214.50
513.15	1235.10
513.51	1230.19
513.86	1222.93
514.22	1225.04
514.58	1228.55
514.94	1208.42
515.30	1203.04
515.65	1200.69
516.01	1195.31
516.37	1188.06
516.73	1194.38
517.08	1192.97
517.44	1190.86
517.80	1191.10
518.16	1181.74
518.51	1173.31
518.87	1170.97
519.23	1164.42
519.59	1157.16
519.94	1171.20
520.30	1166.29
520.66	1168.16
521.01	1169.33
521.37	1173.08
521.73	1175.89
522.09	1176.35
522.44	1156.46
522.80	1156.93
523.16	1159.27
523.51	1146.86
523.87	1146.86
524.23	1169.10
524.58	1169.33
524.94	1164.65
525.30	1168.86
525.65	1163.48
526.01	1148.97
526.37	1148.03
526.72	1143.59
527.08	1137.97
527.44	1149.20
527.79	1162.31
528.15	1155.52
528.51	1157.86
528.86	1162.31
529.22	1150.37
529.58	1137.73
529.93	1139.61
530.29	1132.59
530.65	1130.71
531.00	1135.86
531.36	1141.95
531.71	1143.59
532.07	1141.01
532.43	1146.63
532.78	1146.16
533.14	1142.65
533.49	1139.14
533.85	1137.97
534.21	1121.35
534.56	1111.52
534.92	1111.99
535.27	1112.46
535.63	1115.27
535.98	1125.56
536.34	1124.39
536.69	1130.01
537.05	1134.93
537.41	1128.37
537.76	1122.99
538.12	1134.46
538.47	1128.14
538.83	1115.27
539.18	1122.99
539.54	1124.86
539.89	1122.75
540.25	1125.56
540.60	1130.71
540.96	1126.73
541.31	1123.69
541.67	1121.58
542.02	1116.20
542.38	1115.73
542.73	1115.50
543.09	1117.37
543.44	1111.05
543.80	1107.31
544.15	1112.46
544.51	1118.31
544.86	1121.12
545.22	1118.31
545.57	1127.20
545.93	1131.65
546.28	1130.01
546.64	1126.97
546.99	1133.29
547.35	1129.31
547.70	1117.14
548.05	1112.46
548.41	1110.58
548.76	1102.63
549.12	1096.54
549.47	1098.18
549.83	1099.82
550.18	1094.20
550.53	1100.75
550.89	1114.09
551.24	1120.41
551.60	1115.03
551.95	1119.95
552.30	1115.50
552.66	1105.67
553.01	1095.14
553.37	1113.16
553.72	1113.16
554.07	1118.78
554.43	1119.48
554.78	1127.67
555.13	1114.09
555.49	1116.67
555.84	1111.29
556.19	1100.75
556.55	1091.86
556.90	1097.01
557.26	1101.22
557.61	1100.52
557.96	1112.22
558.32	1117.14
558.67	1109.41
559.02	1101.22
559.37	1108.95
559.73	1108.48
560.08	1102.86
560.43	1100.99
560.79	1097.01
561.14	1100.05
561.49	1097.71
561.85	1103.80
562.20	1112.22
562.55	1117.14
562.90	1106.37
563.26	1101.92
563.61	1100.05
563.96	1100.29
564.32	1104.50
564.67	1103.33
565.02	1103.80
565.37	1103.56
565.73	1107.31
566.08	1107.78
566.43	1111.99
566.78	1114.56
567.14	1121.82
567.49	1115.27
567.84	1109.65
568.19	1110.82
568.54	1113.86
568.90	1104.73
569.25	1104.73
569.60	1102.86
569.95	1101.22
570.31	1103.56
570.66	1122.29
571.01	1127.44
571.36	1133.76
571.71	1129.31
572.06	1119.48
572.42	1104.03
572.77	1095.84
573.12	1089.99
573.47	1089.05
573.82	1092.33
574.18	1091.86
574.53	1092.80
574.88	1087.65
575.23	1102.63
575.58	1105.67
575.93	1113.86
576.28	1129.78
576.64	1133.29
576.99	1128.84
577.34	1124.86
577.69	1121.58
578.04	1119.71
578.39	1122.75
578.74	1114.56
579.09	1123.46
579.44	1125.33
579.80	1120.88
580.15	1121.82
580.50	1123.69
580.85	1118.31
581.20	1110.58
581.55	1106.84
581.90	1103.09
582.25	1098.41
582.60	1093.97
582.95	1100.29
583.30	1091.16
583.65	1093.50
584.00	1095.37
584.35	1101.69
584.71	1100.99
585.06	1109.65
585.41	1105.67
585.76	1103.09
586.11	1094.90
586.46	1098.88
586.81	1095.37
587.16	1100.75
587.51	1114.33
587.86	1119.95
588.21	1123.93
588.56	1131.41
588.91	1126.27
589.26	1119.24
589.61	1123.46
589.96	1106.37
590.31	1097.71
590.66	1102.39
591.01	1101.22
591.36	1094.90
591.71	1105.20
592.06	1113.16
592.41	1103.09
592.76	1101.92
593.10	1103.33
593.45	1097.01
593.80	1098.18
594.15	1106.14
594.50	1100.52
594.85	1095.60
595.20	1091.39
595.55	1077.11
595.90	1066.82
596.25	1079.22
596.60	1082.03
596.95	1082.03
597.30	1086.94
597.64	1145.22
597.99	1137.03
598.34	1134.93
598.69	1135.39
599.04	1133.76
599.39	1079.22
599.74	1076.41
600.09	1073.37
600.44	1071.50
600.78	1079.46
601.13	1080.86
601.48	1082.97
601.83	1083.20
602.18	1095.84
602.53	1093.97
602.88	1089.99
603.22	1092.80
603.57	1101.46
603.92	1094.20
604.27	1091.63
604.62	1106.37
604.97	1102.39
605.31	1096.54
605.66	1097.48
606.01	1101.92
606.36	1097.95
606.71	1100.99
607.05	1105.44
607.40	1113.63
607.75	1114.10
608.10	1115.03
608.44	1112.46
608.79	1110.12
609.14	1105.90
609.49	1094.43
609.84	1095.37
610.18	1098.88
610.53	1103.09
610.88	1100.05
611.23	1102.16
611.57	1095.37
611.92	1091.39
612.27	1088.82
612.62	1086.48
612.96	1096.31
613.31	1100.29
613.66	1104.50
614.00	1108.95
614.35	1107.07
614.70	1105.90
615.05	1103.80
615.39	1099.35
615.74	1095.14
616.09	1097.71
616.43	1094.67
616.78	1094.67
617.13	1111.52
617.47	1119.01
617.82	1120.18
618.17	1113.16
618.51	1119.48
618.86	1115.50
619.21	1104.97
619.55	1114.33
619.90	1122.29
620.25	1122.52
620.59	1108.24
620.94	1102.86
621.29	1101.69
621.63	1097.01
621.98	1094.43
622.32	1105.44
622.67	1105.44
623.02	1096.78
623.36	1096.07
623.71	1091.63
624.05	1086.24
624.40	1091.63
624.75	1091.16
625.09	1096.07
625.44	1102.86
625.78	1108.71
626.13	1109.65
626.48	1104.73
626.82	1103.56
627.17	1093.97
627.51	1089.52
627.86	1085.54
628.20	1088.58
628.55	1095.84
628.89	1095.14
629.24	1093.26
629.58	1102.86
629.93	1107.31
630.28	1093.03
630.62	1095.84
630.97	1098.65
631.31	1092.56
631.66	1078.05
632.00	1079.22
632.35	1079.69
632.69	1070.09
633.04	1064.24
633.38	1080.16
633.73	1085.31
634.07	1087.41
634.42	1085.77
634.76	1088.12
635.11	1089.99
635.45	1096.31
635.79	1095.37
636.14	1093.26
636.48	1097.24
636.83	1086.01
637.17	1086.71
637.52	1082.97
637.86	1084.60
638.21	1086.71
638.55	1094.90
638.89	1087.88
639.24	1097.01
639.58	1107.78
639.93	1104.50
640.27	1094.43
640.61	1090.22
640.96	1082.26
641.30	1073.60
641.65	1089.05
641.99	1096.54
642.33	1100.99
642.68	1097.24
643.02	1103.80
643.37	1084.60
643.71	1081.33
644.05	1085.77
644.40	1079.46
644.74	1072.90
645.08	1086.24
645.43	1077.35
645.77	1067.99
646.11	1083.90
646.46	1090.22
646.80	1082.73
647.14	1090.92
647.49	1095.14
647.83	1092.56
648.17	1093.97
648.52	1093.97
648.86	1097.95
649.20	1098.41
649.55	1088.82
649.89	1081.33
650.23	1081.56
650.57	1074.07
650.92	1068.92
651.26	1085.54
651.60	1092.33
651.95	1092.80
652.29	1107.78
652.63	1110.58
652.97	1106.14
653.32	1111.29
653.66	1114.80
654.00	1106.84
654.34	1106.37
654.69	1091.63
655.03	1087.18
655.37	1085.54
655.71	1088.35
656.05	1082.26
656.40	1092.56
656.74	1081.09
657.08	1077.82
657.42	1075.48
657.76	1078.75
658.11	1080.86
658.45	1083.90
658.79	1075.24
659.13	1068.92
659.47	1073.84
659.82	1071.73
660.16	1082.50
660.50	1089.52
660.84	1099.35
661.18	1105.90
661.52	1103.80
661.87	1096.78
662.21	1100.29
662.55	1088.58
662.89	1081.09
663.23	1088.35
663.57	1084.14
663.91	1081.56
664.25	1092.33
664.60	1097.71
664.94	1092.33
665.28	1097.71
665.62	1095.37
665.96	1090.22
666.30	1078.99
666.64	1083.67
666.98	1083.90
667.32	1085.77
667.66	1080.39
668.01	1082.50
668.35	1075.01
668.69	1070.09
669.03	1071.03
669.37	1078.52
669.71	1085.77
670.05	1092.09
670.39	1099.82
670.73	1105.20
671.07	1095.84
671.41	1098.18
671.75	1086.71
672.09	1084.84
672.43	1083.20
672.77	1094.90
673.11	1083.20
673.45	1093.97
673.79	1101.22
674.13	1097.24
674.47	1094.90
674.81	1100.05
675.15	1093.50
675.49	1083.43
675.83	1079.92
676.17	1081.80
676.51	1080.39
676.85	1086.71
677.19	1084.84
677.53	1085.07
677.87	1077.58
678.21	1091.39
678.55	1093.97
678.89	1096.54
679.23	1091.63
679.57	1093.73
679.90	1083.20
680.24	1075.71
680.58	1084.14
680.92	1093.50
681.26	1086.48
681.60	1086.24
681.94	1084.14
682.28	1081.80
682.62	1086.71
682.96	1104.97
683.29	1109.41
683.63	1115.27
683.97	1104.03
684.31	1098.65
684.65	1088.12
684.99	1082.26
685.33	1079.22
685.67	1087.41
686.00	1090.22
686.34	1097.71
686.68	1095.60
687.02	1100.05
687.36	1106.37
687.70	1106.84
688.03	1100.75
688.37	1097.24
688.71	1100.05
689.05	1092.80
689.39	1089.99
689.72	1086.48
690.06	1094.67
690.40	1094.67
690.74	1090.69
691.08	1096.78
691.41	1098.88
691.75	1097.24
692.09	1094.20
692.43	1097.24
692.76	1081.80
693.10	1071.50
693.44	1065.65
693.78	1064.48
694.11	1061.20
694.45	1060.03
694.79	1074.31
695.13	1086.71
695.46	1081.56
695.80	1086.94
696.14	1089.29
696.48	1074.54
696.81	1066.35
697.15	1071.97
697.49	1075.24
697.82	1082.26
698.16	1096.07
698.50	1102.39
698.83	1099.58
699.17	1091.86
699.51	1087.41
699.84	1089.52
700.18	1091.16
700.52	1095.14
700.85	1085.54
701.19	1084.84
701.53	1080.39
701.86	1083.67
702.20	1080.16
702.54	1087.18
702.87	1093.26
703.21	1089.05
703.55	1076.41
703.88	1079.22
704.22	1087.88
704.55	1092.33
704.89	1096.78
705.23	1103.56
705.56	1099.35
705.90	1095.37
706.23	1080.86
706.57	1079.22
706.91	1084.37
707.24	1088.35
707.58	1086.48
707.91	1092.33
708.25	1100.75
708.58	1097.24
708.92	1098.88
709.26	1106.37
709.59	1107.78
709.93	1099.58
710.26	1095.60
710.60	1094.90
710.93	1083.90
711.27	1086.01
711.60	1087.18
711.94	1077.11
712.27	1074.54
712.61	1087.41
712.94	1084.14
713.28	1097.48
713.61	1105.90
713.95	1101.22
714.28	1093.73
714.62	1095.84
714.95	1086.48
715.29	1085.77
715.62	1080.63
715.96	1079.69
716.29	1078.05
716.63	1077.82
716.96	1073.84
717.29	1081.09
717.63	1080.86
717.96	1088.58
718.30	1075.71
718.63	1073.84
718.97	1073.84
719.30	1072.67
719.63	1060.03
719.97	1070.09
720.30	1074.31
720.64	1079.22
720.97	1078.75
721.30	1085.77
721.64	1085.31
721.97	1091.63
722.31	1089.29
722.64	1095.60
722.97	1095.14
723.31	1085.07
723.64	1074.54
723.97	1081.09
724.31	1071.97
724.64	1074.07
724.98	1085.07
725.31	1094.20
725.64	1088.35
725.98	1096.07
726.31	1093.97
726.64	1090.46
726.97	1087.88
727.31	1084.60
727.64	1074.77
727.97	1072.20
728.31	1076.41
728.64	1067.99
728.97	1068.92
729.31	1082.73
729.64	1095.84
729.97	1095.84
730.30	1102.39
730.64	1093.50
730.97	1091.39
731.30	1077.82
731.63	1077.58
731.97	1083.90
732.30	1093.50
732.63	1083.67
732.96	1086.94
733.30	1079.22
733.63	1075.01
733.96	1070.80
734.29	1084.60
734.63	1092.33
734.96	1100.75
735.29	1095.60
735.62	1100.99
735.95	1087.88
736.29	1069.39
736.62	1061.20
736.95	1069.39
737.28	1071.26
737.61	1072.90
737.94	1083.67
738.28	1088.12
738.61	1078.28
738.94	1075.71
739.27	1076.65
739.60	1067.28
739.93	1070.56
740.27	1077.35
740.60	1075.24
740.93	1071.97
741.26	1085.54
741.59	1075.94
741.92	1067.99
742.25	1076.41
742.58	1084.60
742.91	1077.35
743.25	1075.24
743.58	1085.31
743.91	1084.84
744.24	1078.28
744.57	1071.73
744.90	1078.75
745.23	1074.54
745.56	1065.65
745.89	1078.28
746.22	1092.56
746.55	1093.26
746.88	1089.99
747.21	1090.46
747.54	1073.84
747.87	1064.71
748.20	1060.96
748.53	1059.33
748.87	1052.54
749.20	1049.50
749.53	1056.75
749.86	1062.60
750.19	1076.65
750.52	1081.80
750.85	1083.20
751.18	1077.11
751.51	1072.20
751.84	1063.54
752.16	1073.60
752.49	1083.20
752.82	1075.48
753.15	1071.03
753.48	1067.52
753.81	1065.41
754.14	1067.99
754.47	1080.16
754.80	1092.09
755.13	1108.24
755.46	1103.33
755.79	1104.73
756.12	1110.58
756.45	1100.52
756.78	1086.94
757.11	1084.60
757.43	1075.01
757.76	1068.69
758.09	1067.75
758.42	1069.39
758.75	1077.11
759.08	1093.03
759.41	1086.48
759.74	1093.73
760.07	1085.31
760.39	1070.09
760.72	1060.50
761.05	1063.77
761.38	1066.58
761.71	1071.97
762.04	1084.84
762.36	1079.46
762.69	1083.67
763.02	1083.20
763.35	1084.14
763.68	1079.46
764.01	1076.65
764.33	1068.92
