SpectraSuite Data File
++++++++++++++++++++++++++++++++++++
Date: Mon Aug 26 10:24:38 PDT 2019
User: corrico
Dark Spectrum Present: No
Reference Spectrum Present: No
Number of Sampled Component Spectra: 1
Spectrometers: USB2+H06089
Integration Time (usec): 10000 (USB2+H06089)
Spectra Averaged: 2 (USB2+H06089)
Boxcar Smoothing: 2 (USB2+H06089)
Correct for Electrical Dark: No (USB2+H06089)
Strobe/Lamp Enabled: No (USB2+H06089)
Correct for Detector Non-linearity: No (USB2+H06089)
Correct for Stray Light: No (USB2+H06089)
Number of Pixels in Processed Spectrum: 2048
>>>>>Begin Processed Spectral Data<<<<<
339.70	1047.39
340.07	1047.39
340.45	1001.28
340.82	968.28
341.19	942.07
341.57	908.83
341.94	898.06
342.31	898.06
342.69	908.36
343.06	904.38
343.43	915.85
343.81	911.17
344.18	913.28
344.55	911.40
344.93	909.30
345.30	904.62
345.67	916.55
346.04	912.34
346.42	921.94
346.79	930.60
347.16	944.64
347.54	957.75
347.91	970.15
348.28	984.43
348.65	1010.41
349.03	1015.79
349.40	1020.47
349.77	1042.71
350.14	1033.11
350.52	1035.45
350.89	1053.48
351.26	1062.14
351.63	1056.05
352.01	1075.94
352.38	1069.16
352.75	1072.90
353.12	1084.84
353.50	1095.60
353.87	1092.09
354.24	1110.35
354.61	1114.33
354.98	1106.37
355.36	1100.75
355.73	1105.44
356.10	1100.29
356.47	1093.97
356.84	1103.33
357.22	1102.86
357.59	1103.33
357.96	1095.14
358.33	1096.31
358.70	1091.16
359.08	1093.50
359.45	1101.22
359.82	1111.05
360.19	1111.99
360.56	1111.05
360.94	1104.50
361.31	1096.31
361.68	1086.94
362.05	1076.18
362.42	1072.43
362.79	1076.88
363.16	1073.60
363.54	1083.43
363.91	1082.26
364.28	1089.52
364.65	1101.46
365.02	1104.50
365.39	1094.43
365.76	1098.41
366.14	1083.67
366.51	1078.75
366.88	1069.39
367.25	1070.33
367.62	1078.75
367.99	1093.73
368.36	1086.01
368.73	1102.86
369.10	1108.48
369.48	1100.52
369.85	1087.41
370.22	1095.14
370.59	1095.14
370.96	1092.09
371.33	1102.16
371.70	1120.65
372.07	1123.46
372.44	1120.18
372.81	1131.41
373.18	1123.22
373.55	1113.39
373.93	1112.46
374.30	1107.07
374.67	1106.61
375.04	1100.29
375.41	1097.48
375.78	1090.69
376.15	1084.14
376.52	1072.67
376.89	1077.58
377.26	1086.24
377.63	1080.39
378.00	1083.90
378.37	1089.29
378.74	1098.18
379.11	1103.56
379.48	1116.67
379.85	1122.05
380.22	1130.24
380.59	1125.80
380.96	1122.52
381.33	1118.07
381.70	1118.31
382.07	1108.95
382.44	1105.90
382.81	1101.69
383.18	1111.75
383.55	1120.65
383.92	1127.20
384.29	1127.90
384.66	1132.59
385.03	1128.61
385.40	1122.05
385.77	1122.05
386.14	1115.73
386.51	1104.26
386.88	1097.95
387.25	1105.90
387.62	1109.88
387.99	1131.88
388.36	1137.50
388.73	1151.54
389.10	1138.90
389.46	1131.65
389.83	1119.24
390.20	1122.52
390.57	1107.54
390.94	1104.50
391.31	1100.99
391.68	1104.97
392.05	1104.50
392.42	1110.35
392.79	1115.73
393.16	1119.95
393.53	1117.84
393.89	1129.54
394.26	1141.25
394.63	1146.39
395.00	1148.97
395.37	1153.42
395.74	1142.65
396.11	1144.05
396.48	1151.08
396.84	1160.20
397.21	1158.33
397.58	1174.01
397.95	1165.35
398.32	1174.25
398.69	1170.27
399.06	1178.46
399.42	1163.25
399.79	1171.44
400.16	1169.80
400.53	1168.63
400.90	1175.18
401.27	1187.59
401.64	1201.16
402.00	1210.76
402.37	1230.42
402.74	1229.48
403.11	1237.91
403.48	1245.63
403.84	1250.31
404.21	1260.85
404.58	1294.55
404.95	1319.13
405.32	1345.81
405.68	1367.58
406.05	1384.66
406.42	1399.87
406.79	1420.94
407.16	1439.43
407.52	1463.07
407.89	1493.96
408.26	1531.88
408.63	1571.67
408.99	1606.31
409.36	1644.69
409.73	1686.12
410.10	1738.32
410.47	1782.55
410.83	1840.83
411.20	1926.96
411.57	2011.46
411.94	2083.78
412.30	2186.53
412.67	2262.36
413.04	2335.15
413.40	2432.05
413.77	2531.52
414.14	2632.17
414.51	2766.51
414.87	2900.86
415.24	3049.72
415.61	3215.90
415.97	3368.26
416.34	3559.25
416.71	3753.99
417.08	3950.12
417.44	4150.00
417.81	4388.97
418.18	4610.62
418.54	4870.19
418.91	5145.43
419.28	5453.92
419.64	5739.93
420.01	6081.18
420.38	6424.54
420.74	6791.53
421.11	7181.23
421.48	7627.34
421.84	8056.36
422.21	8500.83
422.58	9008.72
422.94	9544.00
423.31	10053.77
423.68	10632.12
424.04	11280.68
424.41	11865.35
424.77	12479.03
425.14	13184.00
425.51	13902.08
425.87	14673.29
426.24	15472.11
426.61	16411.60
426.97	17419.67
427.34	18387.25
427.70	19412.40
428.07	20483.20
428.44	21525.67
428.80	22569.79
429.17	23605.71
429.53	24622.44
429.90	25950.46
430.27	27138.28
430.63	28333.59
431.00	29755.46
431.36	31333.22
431.73	32570.66
432.09	33925.60
432.46	35284.98
432.83	36675.49
433.19	37817.44
433.56	39342.06
433.92	40869.03
434.29	42427.12
434.65	43841.51
435.02	45195.98
435.38	46391.06
435.75	47206.03
436.11	48329.25
436.48	49347.15
436.84	50484.42
437.21	51406.12
437.57	52471.30
437.94	53132.50
438.30	53720.44
438.67	53900.67
439.03	54026.12
439.40	54168.42
439.76	54091.89
440.13	53904.18
440.49	53943.96
440.86	53617.46
441.22	53174.16
441.59	52523.49
441.95	51832.57
442.32	50838.78
442.68	50025.44
443.05	49130.65
443.41	48297.89
443.78	47310.18
444.14	46394.33
444.51	45192.94
444.87	44295.11
445.24	42966.38
445.60	41790.73
445.96	40509.06
446.33	39535.63
446.69	38167.58
447.06	37234.65
447.42	36191.47
447.79	35211.72
448.15	34196.63
448.51	33277.27
448.88	32440.76
449.24	31465.69
449.61	30684.42
449.97	29904.32
450.33	29064.07
450.70	28049.92
451.06	27402.76
451.43	26589.89
451.79	26010.37
452.15	25456.13
452.52	24979.37
452.88	24362.40
453.24	23865.51
453.61	23172.71
453.97	22486.93
454.34	21807.24
454.70	21220.23
455.06	20546.16
455.43	19853.83
455.79	19165.01
456.15	18604.68
456.52	17938.33
456.88	17416.39
457.24	16848.58
457.61	16338.34
457.97	15796.51
458.33	15241.57
458.70	14636.54
459.06	14052.34
459.42	13545.38
459.79	13029.29
460.15	12615.72
460.51	12187.87
460.88	11819.71
461.24	11416.43
461.60	11070.27
461.96	10671.20
462.33	10305.61
462.69	9952.66
463.05	9636.69
463.42	9316.74
463.78	9029.79
464.14	8762.50
464.50	8524.70
464.87	8257.41
465.23	7997.84
465.59	7762.15
465.95	7528.57
466.32	7294.28
466.68	7108.91
467.04	6907.62
467.40	6729.98
467.77	6579.48
468.13	6397.15
468.49	6242.44
468.85	6117.69
469.22	6000.43
469.58	5864.21
469.94	5775.97
470.30	5656.84
470.66	5542.62
471.03	5401.96
471.39	5311.14
471.75	5179.14
472.11	5077.09
472.47	4970.60
472.84	4887.51
473.20	4748.48
473.56	4658.84
473.92	4532.21
474.28	4441.87
474.65	4343.80
475.01	4269.84
475.37	4164.75
475.73	4102.49
476.09	4023.15
476.45	3927.65
476.81	3832.86
477.18	3756.56
477.54	3679.56
477.90	3616.60
478.26	3547.08
478.62	3480.84
478.98	3429.35
479.34	3365.69
479.71	3287.28
480.07	3240.24
480.43	3202.32
480.79	3157.85
481.15	3103.32
481.51	3048.78
481.87	3003.84
482.23	2954.69
482.59	2889.16
482.96	2853.35
483.32	2800.45
483.68	2765.11
484.04	2737.96
484.40	2707.77
484.76	2664.47
485.12	2646.91
485.48	2601.27
485.84	2544.86
486.20	2507.42
486.56	2475.58
486.92	2444.46
487.28	2410.28
487.64	2376.58
488.00	2342.41
488.37	2309.64
488.73	2278.28
489.09	2252.06
489.45	2236.15
489.81	2208.30
490.17	2178.34
490.53	2141.82
490.89	2108.82
491.25	2078.86
491.61	2052.65
491.97	2029.48
492.33	1990.63
492.69	1962.77
493.05	1926.03
493.41	1893.03
493.77	1869.15
494.13	1868.45
494.49	1837.09
494.85	1811.11
495.21	1798.00
495.57	1772.49
495.93	1743.00
496.29	1743.70
496.64	1733.63
497.00	1717.49
497.36	1696.65
497.72	1677.70
498.08	1652.18
498.44	1645.16
498.80	1618.25
499.16	1594.37
499.52	1581.27
499.88	1572.37
500.24	1562.07
500.60	1556.22
500.96	1546.39
501.32	1540.31
501.68	1517.84
502.03	1497.71
502.39	1480.15
502.75	1468.69
503.11	1452.54
503.47	1448.79
503.83	1434.98
504.19	1439.43
504.55	1435.22
504.91	1421.41
505.26	1416.49
505.62	1403.85
505.98	1383.02
506.34	1388.64
506.70	1394.96
507.06	1387.47
507.42	1386.53
507.78	1387.70
508.13	1378.34
508.49	1369.45
508.85	1357.98
509.21	1346.28
509.57	1331.53
509.93	1315.62
510.28	1305.78
510.64	1304.85
511.00	1301.81
511.36	1294.55
511.72	1294.32
512.07	1289.64
512.43	1273.02
512.79	1262.48
513.15	1259.44
513.51	1249.38
513.86	1240.02
514.22	1246.80
514.58	1255.00
514.94	1241.65
515.30	1236.74
515.65	1229.48
516.01	1230.42
516.37	1226.21
516.73	1230.42
517.08	1234.87
517.44	1232.76
517.80	1220.12
518.16	1209.59
518.51	1215.21
518.87	1208.18
519.23	1207.72
519.59	1203.97
519.94	1202.80
520.30	1196.48
520.66	1185.72
521.01	1191.57
521.37	1186.89
521.73	1189.46
522.09	1189.46
522.44	1192.74
522.80	1184.31
523.16	1188.06
523.51	1185.01
523.87	1179.16
524.23	1176.35
524.58	1182.44
524.94	1179.16
525.30	1176.35
525.65	1191.57
526.01	1197.89
526.37	1189.23
526.72	1190.63
527.08	1198.59
527.44	1183.37
527.79	1170.97
528.15	1161.14
528.51	1155.52
528.86	1148.50
529.22	1155.52
529.58	1167.23
529.93	1179.16
530.29	1181.50
530.65	1172.37
531.00	1156.22
531.36	1130.95
531.71	1130.01
532.07	1136.80
532.43	1141.71
532.78	1144.52
533.14	1158.80
533.49	1152.48
533.85	1146.63
534.21	1142.88
534.56	1149.67
534.92	1147.80
535.27	1142.42
535.63	1144.29
535.98	1147.56
536.34	1141.48
536.69	1141.48
537.05	1136.10
537.41	1129.07
537.76	1119.71
538.12	1115.50
538.47	1111.75
538.83	1118.54
539.18	1120.88
539.54	1123.46
539.89	1126.27
540.25	1127.90
540.60	1139.61
540.96	1140.78
541.31	1147.33
541.67	1146.63
542.02	1142.42
542.38	1143.35
542.73	1147.80
543.09	1141.71
543.44	1141.71
543.80	1149.20
544.15	1141.48
544.51	1129.07
544.86	1134.69
545.22	1130.95
545.57	1131.18
545.93	1130.01
546.28	1130.95
546.64	1132.82
546.99	1131.65
547.35	1137.27
547.70	1137.97
548.05	1138.44
548.41	1130.24
548.76	1132.59
549.12	1113.39
549.47	1108.24
549.83	1109.41
550.18	1109.88
550.53	1117.14
550.89	1128.14
551.24	1124.63
551.60	1126.27
551.95	1121.82
552.30	1104.26
552.66	1104.26
553.01	1107.78
553.37	1107.78
553.72	1112.92
554.07	1123.69
554.43	1120.65
554.78	1121.58
555.13	1120.18
555.49	1127.20
555.84	1131.88
556.19	1134.46
556.55	1138.20
556.90	1136.56
557.26	1117.37
557.61	1114.56
557.96	1104.26
558.32	1093.73
558.67	1100.29
559.02	1112.69
559.37	1107.07
559.73	1116.20
560.08	1122.05
560.43	1110.12
560.79	1106.61
561.14	1110.35
561.49	1113.86
561.85	1110.82
562.20	1119.48
562.55	1109.65
562.90	1115.03
563.26	1112.92
563.61	1108.71
563.96	1107.54
564.32	1119.95
564.67	1116.20
565.02	1108.95
565.37	1105.20
565.73	1098.41
566.08	1090.46
566.43	1089.99
566.78	1083.90
567.14	1099.12
567.49	1105.90
567.84	1110.12
568.19	1103.56
568.54	1108.24
568.90	1099.12
569.25	1092.33
569.60	1100.29
569.95	1110.35
570.31	1112.46
570.66	1114.10
571.01	1121.35
571.36	1117.84
571.71	1123.69
572.06	1127.20
572.42	1123.93
572.77	1112.46
573.12	1109.88
573.47	1089.29
573.82	1085.07
574.18	1081.56
574.53	1089.29
574.88	1089.75
575.23	1101.46
575.58	1106.61
575.93	1120.18
576.28	1126.50
576.64	1112.46
576.99	1111.05
577.34	1105.20
577.69	1099.82
578.04	1096.54
578.39	1104.97
578.74	1098.88
579.09	1089.52
579.44	1092.56
579.80	1089.99
580.15	1089.75
580.50	1096.31
580.85	1104.26
581.20	1096.07
581.55	1096.54
581.90	1100.99
582.25	1094.43
582.60	1104.73
582.95	1109.65
583.30	1106.14
583.65	1107.07
584.00	1115.03
584.35	1120.41
584.71	1117.84
585.06	1125.56
585.41	1132.59
585.76	1134.22
586.11	1122.75
586.46	1126.50
586.81	1127.90
587.16	1115.03
587.51	1106.84
587.86	1111.52
588.21	1111.99
588.56	1100.99
588.91	1097.24
589.26	1095.14
589.61	1092.33
589.96	1093.97
590.31	1103.09
590.66	1107.07
591.01	1109.65
591.36	1115.27
591.71	1116.90
592.06	1113.63
592.41	1118.78
592.76	1119.71
593.10	1116.90
593.45	1113.63
593.80	1107.07
594.15	1096.78
594.50	1101.92
594.85	1091.86
595.20	1091.39
595.55	1099.58
595.90	1109.65
596.25	1106.84
596.60	1105.20
596.95	1098.18
597.30	1095.37
597.64	1139.14
597.99	1139.14
598.34	1143.12
598.69	1147.10
599.04	1141.95
599.39	1093.50
599.74	1089.29
600.09	1096.54
600.44	1106.84
600.78	1104.73
601.13	1110.35
601.48	1114.10
601.83	1115.97
602.18	1113.39
602.53	1115.27
602.88	1115.03
603.22	1115.03
603.57	1107.78
603.92	1104.73
604.27	1104.73
604.62	1111.05
604.97	1116.67
605.31	1131.41
605.66	1121.35
606.01	1126.97
606.36	1119.01
606.71	1113.39
607.05	1099.12
607.40	1112.69
607.75	1114.80
608.10	1112.22
608.44	1111.29
608.79	1109.41
609.14	1101.92
609.49	1096.78
609.84	1097.24
610.18	1102.39
610.53	1104.50
610.88	1104.50
611.23	1113.16
611.57	1107.78
611.92	1099.35
612.27	1100.99
612.62	1099.58
612.96	1101.92
613.31	1109.88
613.66	1112.69
614.00	1110.82
614.35	1103.56
614.70	1094.90
615.05	1095.60
615.39	1101.46
615.74	1101.46
616.09	1114.56
616.43	1119.48
616.78	1124.63
617.13	1121.82
617.47	1126.97
617.82	1127.67
618.17	1120.88
618.51	1117.14
618.86	1118.54
619.21	1119.01
619.55	1120.18
619.90	1122.75
620.25	1117.37
620.59	1112.69
620.94	1103.56
621.29	1087.65
621.63	1075.94
621.98	1071.03
622.32	1071.26
622.67	1076.65
623.02	1082.03
623.36	1086.94
623.71	1095.14
624.05	1094.90
624.40	1104.97
624.75	1102.63
625.09	1102.86
625.44	1099.35
625.78	1108.01
626.13	1097.24
626.48	1105.44
626.82	1106.14
627.17	1111.52
627.51	1102.63
627.86	1102.86
628.20	1097.01
628.55	1092.09
628.89	1088.35
629.24	1083.90
629.58	1080.16
629.93	1087.88
630.28	1096.07
630.62	1106.84
630.97	1107.54
631.31	1118.07
631.66	1112.46
632.00	1107.78
632.35	1097.71
632.69	1096.07
633.04	1089.05
633.38	1095.37
633.73	1097.95
634.07	1097.24
634.42	1108.95
634.76	1109.41
635.11	1103.80
635.45	1099.12
635.79	1095.84
636.14	1094.43
636.48	1108.71
636.83	1097.71
637.17	1104.50
637.52	1111.99
637.86	1099.35
638.21	1084.84
638.55	1095.84
638.89	1082.03
639.24	1069.39
639.58	1072.20
639.93	1071.73
640.27	1069.39
640.61	1083.90
640.96	1095.14
641.30	1095.14
641.65	1102.63
641.99	1110.35
642.33	1106.84
642.68	1103.56
643.02	1105.20
643.37	1096.07
643.71	1089.52
644.05	1092.33
644.40	1086.94
644.74	1083.43
645.08	1084.14
645.43	1084.60
645.77	1077.11
646.11	1086.24
646.46	1087.88
646.80	1093.03
647.14	1103.80
647.49	1112.46
647.83	1113.39
648.17	1120.65
648.52	1115.27
648.86	1102.39
649.20	1102.63
649.55	1101.69
649.89	1100.99
650.23	1108.01
650.57	1118.31
650.92	1117.14
651.26	1110.58
651.60	1103.56
651.95	1088.35
652.29	1080.16
652.63	1078.75
652.97	1076.18
653.32	1072.43
653.66	1084.14
654.00	1075.94
654.34	1073.37
654.69	1084.37
655.03	1087.88
655.37	1083.43
655.71	1090.69
656.05	1093.97
656.40	1098.18
656.74	1102.39
657.08	1104.26
657.42	1105.44
657.76	1116.67
658.11	1104.73
658.45	1110.35
658.79	1111.29
659.13	1107.31
659.47	1099.58
659.82	1098.65
660.16	1091.63
660.50	1086.01
660.84	1093.03
661.18	1092.33
661.52	1089.05
661.87	1086.48
662.21	1087.18
662.55	1081.80
662.89	1078.52
663.23	1081.33
663.57	1086.01
663.91	1091.16
664.25	1087.18
664.60	1085.31
664.94	1093.97
665.28	1093.73
665.62	1093.50
665.96	1092.56
666.30	1091.63
666.64	1089.99
666.98	1093.03
667.32	1090.92
667.66	1096.54
668.01	1097.48
668.35	1087.18
668.69	1078.05
669.03	1079.92
669.37	1085.07
669.71	1079.46
670.05	1091.16
670.39	1090.22
670.73	1086.94
671.07	1080.86
671.41	1080.86
671.75	1086.71
672.09	1094.90
672.43	1090.69
672.77	1091.86
673.11	1094.43
673.45	1082.03
673.79	1078.99
674.13	1086.71
674.47	1088.35
674.81	1093.03
675.15	1093.97
675.49	1093.26
675.83	1084.37
676.17	1081.56
676.51	1081.80
676.85	1085.31
677.19	1083.20
677.53	1091.63
677.87	1094.90
678.21	1086.01
678.55	1081.56
678.89	1081.80
679.23	1077.82
679.57	1073.14
679.90	1082.26
680.24	1087.65
680.58	1088.35
680.92	1087.65
681.26	1098.18
681.60	1095.14
681.94	1102.63
682.28	1111.52
682.62	1119.24
682.96	1101.46
683.29	1103.33
683.63	1079.69
683.97	1065.65
684.31	1051.13
684.65	1063.07
684.99	1062.84
685.33	1071.73
685.67	1078.52
686.00	1086.01
686.34	1092.09
686.68	1093.03
687.02	1096.07
687.36	1101.22
687.70	1106.61
688.03	1102.39
688.37	1095.84
688.71	1097.24
689.05	1097.95
689.39	1092.56
689.72	1088.82
690.06	1097.95
690.40	1101.22
690.74	1088.58
691.08	1093.97
691.41	1095.60
691.75	1098.41
692.09	1093.97
692.43	1104.73
692.76	1101.22
693.10	1100.99
693.44	1095.14
693.78	1083.67
694.11	1078.99
694.45	1076.41
694.79	1070.56
695.13	1065.88
695.46	1077.58
695.80	1080.86
696.14	1089.99
696.48	1096.78
696.81	1104.26
697.15	1111.75
697.49	1117.84
697.82	1106.84
698.16	1106.14
698.50	1102.86
698.83	1088.58
699.17	1084.37
699.51	1092.33
699.84	1090.69
700.18	1088.82
700.52	1094.20
700.85	1090.92
701.19	1079.69
701.53	1070.80
701.86	1072.43
702.20	1070.09
702.54	1077.82
702.87	1082.97
703.21	1097.95
703.55	1092.80
703.88	1098.18
704.22	1085.54
704.55	1078.52
704.89	1064.94
705.23	1069.62
705.56	1069.16
705.90	1066.82
706.23	1072.90
706.57	1077.11
706.91	1081.09
707.24	1087.65
707.58	1088.82
707.91	1088.35
708.25	1093.97
708.58	1087.41
708.92	1078.99
709.26	1071.97
709.59	1078.05
709.93	1071.03
710.26	1079.22
710.60	1074.31
710.93	1091.39
711.27	1094.90
711.60	1097.71
711.94	1090.22
712.27	1085.77
712.61	1087.18
712.94	1085.31
713.28	1087.18
713.61	1097.48
713.95	1106.37
714.28	1102.16
714.62	1092.09
714.95	1084.37
715.29	1078.99
715.62	1077.35
715.96	1069.39
716.29	1087.65
716.63	1097.01
716.96	1086.48
717.29	1078.75
717.63	1080.63
717.96	1071.26
718.30	1077.82
718.63	1085.31
718.97	1098.88
719.30	1101.69
719.63	1089.29
719.97	1082.03
720.30	1080.63
720.64	1070.33
720.97	1070.80
721.30	1085.77
721.64	1077.35
721.97	1068.69
722.31	1070.33
722.64	1075.01
722.97	1073.37
723.31	1077.35
723.64	1084.37
723.97	1085.77
724.31	1072.20
724.64	1061.43
724.98	1064.71
725.31	1060.96
725.64	1065.65
725.98	1069.16
726.31	1066.11
726.64	1071.26
726.97	1081.80
727.31	1080.63
727.64	1076.41
727.97	1081.80
728.31	1068.69
728.64	1068.22
728.97	1056.99
729.31	1060.50
729.64	1054.41
729.97	1051.37
730.30	1042.24
730.64	1055.35
730.97	1060.03
731.30	1072.20
731.63	1082.26
731.97	1086.01
732.30	1075.94
732.63	1074.07
732.96	1069.39
733.30	1078.28
733.63	1080.39
733.96	1081.09
734.29	1076.88
734.63	1080.63
734.96	1071.50
735.29	1074.54
735.62	1081.09
735.95	1081.56
736.29	1086.24
736.62	1086.48
736.95	1094.90
737.28	1099.58
737.61	1096.54
737.94	1094.20
738.28	1091.63
738.61	1079.92
738.94	1075.24
739.27	1086.24
739.60	1086.94
739.93	1088.58
740.27	1080.39
740.60	1085.54
740.93	1094.67
741.26	1089.29
741.59	1089.99
741.92	1100.29
742.25	1095.14
742.58	1076.88
742.91	1079.69
743.25	1086.94
743.58	1083.67
743.91	1084.84
744.24	1089.99
744.57	1084.60
744.90	1082.03
745.23	1097.24
745.56	1092.80
745.89	1093.50
746.22	1098.65
746.55	1099.82
746.88	1084.60
747.21	1076.18
747.54	1070.33
747.87	1074.77
748.20	1073.37
748.53	1078.05
748.87	1092.80
749.20	1103.09
749.53	1101.69
749.86	1101.46
750.19	1096.31
750.52	1088.82
750.85	1083.43
751.18	1069.86
751.51	1073.84
751.84	1082.97
752.16	1078.75
752.49	1078.28
752.82	1087.18
753.15	1068.45
753.48	1050.67
753.81	1061.43
754.14	1069.16
754.47	1059.33
754.80	1067.05
755.13	1082.97
755.46	1066.58
755.79	1065.18
756.12	1077.58
756.45	1075.94
756.78	1074.54
757.11	1091.39
757.43	1087.41
757.76	1083.90
758.09	1091.63
758.42	1089.75
758.75	1084.84
759.08	1089.75
759.41	1087.18
759.74	1099.58
760.07	1087.18
760.39	1091.63
760.72	1082.03
761.05	1080.16
761.38	1063.77
761.71	1072.43
762.04	1058.86
762.36	1062.60
762.69	1073.14
763.02	1071.50
763.35	1061.20
763.68	1072.20
764.01	1079.46
