SpectraSuite Data File
++++++++++++++++++++++++++++++++++++
Date: Mon Aug 26 10:24:35 PDT 2019
User: corrico
Dark Spectrum Present: No
Reference Spectrum Present: No
Number of Sampled Component Spectra: 1
Spectrometers: USB2+H06089
Integration Time (usec): 10000 (USB2+H06089)
Spectra Averaged: 2 (USB2+H06089)
Boxcar Smoothing: 2 (USB2+H06089)
Correct for Electrical Dark: No (USB2+H06089)
Strobe/Lamp Enabled: No (USB2+H06089)
Correct for Detector Non-linearity: No (USB2+H06089)
Correct for Stray Light: No (USB2+H06089)
Number of Pixels in Processed Spectrum: 2048
>>>>>Begin Processed Spectral Data<<<<<
339.70	1002.92
340.07	1002.92
340.45	973.19
340.82	951.43
341.19	921.70
341.57	902.28
341.94	887.53
342.31	886.83
342.69	882.15
343.06	888.94
343.43	884.25
343.81	891.28
344.18	895.96
344.55	905.55
344.93	906.49
345.30	907.19
345.67	911.64
346.04	911.17
346.42	914.45
346.79	935.28
347.16	952.83
347.54	964.53
347.91	991.45
348.28	1004.56
348.65	1014.39
349.03	1024.22
349.40	1023.05
349.77	1015.56
350.14	1033.11
350.52	1033.11
350.89	1039.67
351.26	1054.18
351.63	1070.33
352.01	1064.01
352.38	1071.50
352.75	1071.26
353.12	1072.67
353.50	1069.16
353.87	1086.94
354.24	1095.37
354.61	1094.67
354.98	1097.48
355.36	1095.14
355.73	1088.82
356.10	1086.01
356.47	1095.37
356.84	1099.58
357.22	1110.58
357.59	1106.61
357.96	1104.03
358.33	1100.05
358.70	1096.78
359.08	1091.16
359.45	1100.75
359.82	1096.07
360.19	1097.48
360.56	1098.65
360.94	1092.09
361.31	1068.22
361.68	1066.82
362.05	1069.86
362.42	1061.67
362.79	1074.31
363.16	1085.31
363.54	1090.22
363.91	1098.65
364.28	1097.95
364.65	1095.14
365.02	1091.16
365.39	1088.12
365.76	1077.58
366.14	1088.58
366.51	1081.09
366.88	1080.86
367.25	1092.09
367.62	1090.92
367.99	1093.50
368.36	1092.80
368.73	1096.78
369.10	1089.52
369.48	1087.65
369.85	1074.54
370.22	1089.75
370.59	1085.77
370.96	1083.20
371.33	1082.73
371.70	1090.92
372.07	1079.22
372.44	1088.35
372.81	1091.16
373.18	1095.60
373.55	1091.16
373.93	1094.20
374.30	1090.92
374.67	1087.41
375.04	1080.63
375.41	1089.75
375.78	1087.18
376.15	1081.56
376.52	1082.03
376.89	1088.58
377.26	1077.58
377.63	1072.90
378.00	1072.90
378.37	1064.48
378.74	1062.60
379.11	1060.96
379.48	1062.60
379.85	1069.16
380.22	1083.43
380.59	1088.12
380.96	1091.63
381.33	1102.63
381.70	1100.75
382.07	1093.73
382.44	1089.29
382.81	1090.22
383.18	1085.31
383.55	1096.54
383.92	1111.29
384.29	1111.75
384.66	1119.71
385.03	1126.03
385.40	1119.71
385.77	1109.18
386.14	1109.65
386.51	1111.05
386.88	1098.41
387.25	1098.88
387.62	1104.03
387.99	1097.48
388.36	1088.12
388.73	1098.18
389.10	1105.67
389.46	1100.52
389.83	1116.67
390.20	1117.37
390.57	1115.97
390.94	1109.18
391.31	1105.44
391.68	1097.48
392.05	1105.67
392.42	1113.86
392.79	1122.05
393.16	1127.67
393.53	1131.88
393.89	1131.41
394.26	1122.05
394.63	1113.63
395.00	1107.78
395.37	1104.97
395.74	1103.33
396.11	1109.18
396.48	1112.92
396.84	1120.18
397.21	1110.12
397.58	1118.07
397.95	1114.10
398.32	1111.99
398.69	1121.12
399.06	1131.41
399.42	1141.95
399.79	1151.54
400.16	1150.61
400.53	1155.05
400.90	1163.95
401.27	1160.67
401.64	1163.01
402.00	1178.69
402.37	1184.08
402.74	1192.50
403.11	1199.52
403.48	1206.08
403.84	1203.04
404.21	1211.23
404.58	1232.29
404.95	1236.04
405.32	1252.65
405.68	1269.04
406.05	1281.68
406.42	1288.00
406.79	1304.38
407.16	1319.36
407.52	1335.51
407.89	1343.47
408.26	1368.75
408.63	1388.64
408.99	1414.85
409.36	1435.22
409.73	1467.28
410.10	1488.35
410.47	1527.67
410.83	1556.22
411.20	1610.29
411.57	1651.01
411.94	1702.27
412.30	1746.51
412.67	1805.96
413.04	1869.15
413.40	1943.81
413.77	2003.26
414.14	2064.35
414.51	2140.19
414.87	2227.49
415.24	2319.47
415.61	2424.56
415.97	2529.65
416.34	2642.93
416.71	2741.00
417.08	2854.52
417.44	2958.67
417.81	3121.57
418.18	3274.64
418.54	3433.80
418.91	3584.06
419.28	3775.52
419.64	3928.36
420.01	4085.17
420.38	4293.48
420.74	4535.72
421.11	4792.71
421.48	5064.92
421.84	5334.08
422.21	5584.28
422.58	5858.36
422.94	6148.12
423.31	6437.88
423.68	6790.36
424.04	7160.17
424.41	7505.86
424.77	7857.41
425.14	8248.75
425.51	8669.58
425.87	9144.71
426.24	9610.47
426.61	10141.07
426.97	10743.29
427.34	11260.08
427.70	11846.62
428.07	12452.35
428.44	13115.89
428.80	13759.07
429.17	14457.26
429.53	15111.20
429.90	15926.64
430.27	16607.51
430.63	17268.00
431.00	18066.83
431.36	18914.57
431.73	19600.35
432.09	20383.96
432.46	21300.05
432.83	22129.06
433.19	22949.42
433.56	23937.13
433.92	24879.19
434.29	25625.12
434.65	26413.18
435.02	27101.53
435.38	27709.37
435.75	28150.56
436.11	28886.19
436.48	29500.11
436.84	30194.78
437.21	30819.47
437.57	31367.39
437.94	31755.92
438.30	32078.45
438.67	32150.30
439.03	32265.92
439.40	32491.08
439.76	32475.64
440.13	32381.08
440.49	32430.93
440.86	32092.02
441.22	31778.39
441.59	31312.62
441.95	30912.63
442.32	30273.66
442.68	29879.04
443.05	29268.40
443.41	28644.65
443.78	27866.42
444.14	27172.22
444.51	26378.77
444.87	25821.26
445.24	25209.68
445.60	24632.03
445.96	23952.11
446.33	23368.14
446.69	22594.60
447.06	21961.48
447.42	21296.30
447.79	20695.02
448.15	20126.03
448.51	19577.41
448.88	19088.24
449.24	18603.98
449.61	18189.24
449.97	17669.17
450.33	17205.75
450.70	16686.62
451.06	16267.43
451.43	15756.25
451.79	15337.30
452.15	14913.66
452.52	14546.43
452.88	14214.31
453.24	13940.00
453.61	13646.49
453.97	13318.82
454.34	12963.99
454.70	12601.91
455.06	12250.60
455.43	11862.77
455.79	11426.03
456.15	11078.46
456.52	10688.99
456.88	10377.94
457.24	10042.07
457.61	9818.08
457.97	9509.13
458.33	9210.24
458.70	8907.84
459.06	8570.34
459.42	8269.35
459.79	7986.84
460.15	7768.94
460.51	7474.73
460.88	7287.73
461.24	7031.91
461.60	6837.88
461.96	6626.52
462.33	6457.54
462.69	6238.23
463.05	6119.10
463.42	5973.75
463.78	5815.06
464.14	5662.22
464.50	5538.18
464.87	5352.34
465.23	5203.48
465.59	5077.32
465.95	4953.51
466.32	4832.50
466.68	4751.99
467.04	4638.94
467.40	4521.68
467.77	4403.95
468.13	4315.48
468.49	4213.67
468.85	4106.47
469.22	4020.81
469.58	3961.36
469.94	3860.95
470.30	3785.82
470.66	3746.73
471.03	3658.73
471.39	3577.74
471.75	3532.57
472.11	3459.31
472.47	3397.52
472.84	3355.16
473.20	3291.73
473.56	3224.09
473.92	3160.66
474.28	3100.27
474.65	3053.93
475.01	3009.69
475.37	2967.57
475.73	2931.52
476.09	2867.62
476.45	2809.35
476.81	2762.07
477.18	2691.85
477.54	2636.61
477.90	2601.51
478.26	2561.01
478.62	2524.50
478.98	2513.27
479.34	2485.41
479.71	2453.58
480.07	2418.94
480.43	2393.90
480.79	2374.47
481.15	2348.03
481.51	2317.36
481.87	2297.70
482.23	2271.49
482.59	2227.02
482.96	2194.72
483.32	2172.25
483.68	2146.97
484.04	2113.97
484.40	2101.10
484.76	2076.06
485.12	2041.88
485.48	2014.03
485.84	1999.29
486.20	1968.39
486.56	1951.54
486.92	1943.11
487.28	1915.96
487.64	1888.81
488.00	1863.77
488.37	1844.34
488.73	1810.40
489.09	1789.34
489.45	1757.27
489.81	1749.32
490.17	1731.53
490.53	1724.04
490.89	1716.08
491.25	1710.70
491.61	1691.51
491.97	1675.12
492.33	1661.31
492.69	1645.16
493.05	1627.61
493.41	1605.61
493.77	1589.22
494.13	1573.78
494.49	1567.69
494.85	1551.78
495.21	1547.80
495.57	1545.22
495.93	1537.73
496.29	1519.24
496.64	1506.37
497.00	1487.41
497.36	1463.54
497.72	1444.58
498.08	1433.58
498.44	1427.96
498.80	1425.62
499.16	1419.53
499.52	1412.05
499.88	1388.17
500.24	1373.89
500.60	1349.79
500.96	1346.51
501.32	1341.36
501.68	1349.79
502.03	1347.45
502.39	1347.68
502.75	1327.32
503.11	1315.85
503.47	1314.91
503.83	1323.81
504.19	1320.30
504.55	1322.17
504.91	1321.47
505.26	1311.17
505.62	1285.19
505.98	1279.80
506.34	1273.72
506.70	1266.46
507.06	1255.70
507.42	1255.46
507.78	1253.12
508.13	1251.48
508.49	1250.78
508.85	1244.46
509.21	1236.27
509.57	1230.42
509.93	1231.36
510.28	1227.85
510.64	1225.04
511.00	1224.57
511.36	1211.23
511.72	1206.31
512.07	1202.80
512.43	1201.63
512.79	1202.80
513.15	1210.76
513.51	1197.65
513.86	1190.63
514.22	1188.52
514.58	1172.37
514.94	1174.71
515.30	1183.37
515.65	1178.69
516.01	1178.93
516.37	1194.84
516.73	1179.63
517.08	1176.35
517.44	1188.52
517.80	1191.10
518.16	1180.10
518.51	1181.97
518.87	1183.37
519.23	1170.03
519.59	1170.27
519.94	1171.44
520.30	1181.03
520.66	1169.33
521.01	1172.61
521.37	1159.74
521.73	1160.44
522.09	1142.18
522.44	1145.69
522.80	1141.48
523.16	1150.37
523.51	1153.88
523.87	1162.31
524.23	1157.86
524.58	1154.12
524.94	1138.90
525.30	1134.22
525.65	1126.97
526.01	1130.95
526.37	1140.78
526.72	1140.31
527.08	1134.93
527.44	1141.01
527.79	1130.01
528.15	1125.80
528.51	1126.73
528.86	1126.50
529.22	1120.65
529.58	1131.65
529.93	1128.61
530.29	1125.10
530.65	1119.71
531.00	1120.88
531.36	1115.03
531.71	1108.24
532.07	1119.48
532.43	1131.65
532.78	1137.50
533.14	1135.63
533.49	1139.84
533.85	1134.22
534.21	1126.03
534.56	1115.27
534.92	1117.37
535.27	1117.14
535.63	1118.54
535.98	1115.03
536.34	1127.90
536.69	1128.37
537.05	1129.07
537.41	1124.39
537.76	1127.90
538.12	1120.18
538.47	1117.84
538.83	1110.12
539.18	1113.86
539.54	1112.46
539.89	1110.35
540.25	1108.71
540.60	1117.37
540.96	1112.92
541.31	1113.63
541.67	1116.20
542.02	1110.58
542.38	1109.88
542.73	1106.61
543.09	1102.39
543.44	1101.69
543.80	1103.80
544.15	1103.09
544.51	1104.97
544.86	1111.99
545.22	1119.71
545.57	1132.35
545.93	1133.29
546.28	1127.44
546.64	1125.56
546.99	1122.05
547.35	1119.71
547.70	1119.24
548.05	1134.69
548.41	1134.93
548.76	1136.33
549.12	1130.01
549.47	1133.99
549.83	1134.93
550.18	1134.22
550.53	1118.78
550.89	1124.39
551.24	1117.37
551.60	1103.56
551.95	1104.50
552.30	1116.67
552.66	1106.61
553.01	1100.05
553.37	1108.01
553.72	1100.52
554.07	1097.24
554.43	1097.71
554.78	1110.35
555.13	1112.46
555.49	1111.52
555.84	1110.58
556.19	1119.95
556.55	1110.12
556.90	1110.82
557.26	1119.48
557.61	1120.41
557.96	1118.31
558.32	1121.58
558.67	1114.56
559.02	1111.05
559.37	1098.88
559.73	1098.18
560.08	1093.73
560.43	1096.54
560.79	1094.67
561.14	1096.78
561.49	1091.63
561.85	1093.97
562.20	1088.12
562.55	1088.58
562.90	1095.60
563.26	1103.33
563.61	1105.67
563.96	1110.35
564.32	1113.16
564.67	1119.48
565.02	1119.48
565.37	1114.56
565.73	1115.03
566.08	1109.18
566.43	1108.48
566.78	1102.86
567.14	1104.97
567.49	1112.46
567.84	1122.75
568.19	1118.31
568.54	1118.31
568.90	1119.71
569.25	1118.07
569.60	1109.88
569.95	1102.39
570.31	1100.29
570.66	1099.58
571.01	1099.82
571.36	1101.46
571.71	1113.63
572.06	1115.73
572.42	1108.71
572.77	1101.69
573.12	1107.07
573.47	1100.75
573.82	1113.86
574.18	1117.61
574.53	1113.16
574.88	1111.75
575.23	1117.61
575.58	1104.26
575.93	1111.75
576.28	1118.78
576.64	1114.10
576.99	1102.63
577.34	1107.78
577.69	1099.82
578.04	1095.37
578.39	1094.90
578.74	1096.31
579.09	1081.33
579.44	1089.05
579.80	1100.75
580.15	1103.56
580.50	1104.50
580.85	1115.97
581.20	1102.63
581.55	1093.50
581.90	1099.35
582.25	1104.50
582.60	1092.33
582.95	1096.31
583.30	1097.01
583.65	1088.35
584.00	1090.69
584.35	1097.48
584.71	1097.01
585.06	1094.67
585.41	1093.97
585.76	1090.22
586.11	1097.48
586.46	1100.29
586.81	1102.63
587.16	1095.84
587.51	1091.16
587.86	1085.54
588.21	1085.07
588.56	1091.16
588.91	1104.26
589.26	1101.69
589.61	1097.95
589.96	1101.46
590.31	1093.73
590.66	1081.09
591.01	1087.18
591.36	1089.52
591.71	1085.31
592.06	1084.60
592.41	1097.48
592.76	1103.09
593.10	1109.88
593.45	1113.86
593.80	1118.31
594.15	1111.75
594.50	1115.50
594.85	1112.69
595.20	1118.31
595.55	1115.50
595.90	1114.10
596.25	1097.48
596.60	1094.20
596.95	1087.88
597.30	1077.35
597.64	1128.37
597.99	1148.03
598.34	1149.20
598.69	1154.59
599.04	1161.84
599.39	1114.33
599.74	1098.88
600.09	1100.29
600.44	1093.73
600.78	1097.71
601.13	1097.48
601.48	1108.48
601.83	1106.61
602.18	1107.07
602.53	1111.75
602.88	1109.65
603.22	1107.07
603.57	1110.35
603.92	1115.50
604.27	1111.52
604.62	1113.16
604.97	1099.12
605.31	1102.86
605.66	1104.26
606.01	1102.63
606.36	1100.52
606.71	1112.92
607.05	1105.20
607.40	1100.52
607.75	1101.69
608.10	1100.99
608.44	1089.99
608.79	1082.26
609.14	1078.28
609.49	1077.58
609.84	1077.82
610.18	1077.11
610.53	1087.18
610.88	1097.48
611.23	1094.90
611.57	1099.12
611.92	1110.12
612.27	1111.29
612.62	1103.09
612.96	1100.52
613.31	1102.63
613.66	1100.99
614.00	1102.63
614.35	1106.37
614.70	1109.65
615.05	1100.75
615.39	1104.26
615.74	1096.31
616.09	1094.20
616.43	1101.22
616.78	1108.48
617.13	1108.24
617.47	1108.71
617.82	1111.05
618.17	1107.31
618.51	1104.50
618.86	1100.29
619.21	1109.65
619.55	1104.73
619.90	1103.80
620.25	1094.67
620.59	1087.18
620.94	1077.35
621.29	1067.05
621.63	1059.33
621.98	1060.73
622.32	1065.18
622.67	1068.69
623.02	1074.31
623.36	1074.77
623.71	1089.99
624.05	1089.75
624.40	1091.86
624.75	1094.43
625.09	1101.22
625.44	1096.78
625.78	1097.01
626.13	1089.05
626.48	1092.09
626.82	1091.86
627.17	1091.63
627.51	1088.35
627.86	1086.24
628.20	1079.92
628.55	1067.99
628.89	1065.18
629.24	1061.20
629.58	1069.86
629.93	1071.50
630.28	1089.52
630.62	1089.29
630.97	1096.31
631.31	1086.24
631.66	1084.84
632.00	1068.22
632.35	1062.84
632.69	1058.39
633.04	1066.58
633.38	1069.86
633.73	1072.90
634.07	1079.92
634.42	1084.14
634.76	1085.31
635.11	1084.37
635.45	1087.41
635.79	1083.20
636.14	1079.69
636.48	1077.11
636.83	1082.26
637.17	1081.09
637.52	1081.56
637.86	1092.80
638.21	1094.43
638.55	1095.14
638.89	1103.56
639.24	1100.29
639.58	1106.14
639.93	1107.78
640.27	1100.99
640.61	1092.80
640.96	1101.92
641.30	1087.88
641.65	1084.14
641.99	1091.86
642.33	1097.24
642.68	1085.07
643.02	1086.94
643.37	1091.16
643.71	1083.43
644.05	1074.54
644.40	1076.18
644.74	1073.60
645.08	1073.14
645.43	1073.60
645.77	1074.77
646.11	1081.09
646.46	1071.26
646.80	1065.41
647.14	1067.28
647.49	1077.82
647.83	1076.41
648.17	1091.16
648.52	1093.73
648.86	1097.24
649.20	1098.18
649.55	1089.52
649.89	1096.07
650.23	1097.01
650.57	1094.67
650.92	1082.50
651.26	1097.71
651.60	1094.67
651.95	1095.37
652.29	1093.26
652.63	1103.33
652.97	1103.56
653.32	1097.48
653.66	1094.90
654.00	1086.94
654.34	1084.60
654.69	1071.26
655.03	1069.62
655.37	1066.58
655.71	1077.35
656.05	1078.52
656.40	1082.03
656.74	1084.37
657.08	1088.58
657.42	1079.69
657.76	1068.69
658.11	1070.56
658.45	1064.71
658.79	1060.73
659.13	1062.14
659.47	1078.99
659.82	1076.88
660.16	1083.20
660.50	1090.69
660.84	1100.29
661.18	1087.88
661.52	1085.54
661.87	1086.24
662.21	1082.26
662.55	1077.11
662.89	1084.60
663.23	1091.86
663.57	1087.18
663.91	1089.52
664.25	1096.31
664.60	1088.58
664.94	1087.41
665.28	1088.58
665.62	1087.65
665.96	1077.11
666.30	1081.33
666.64	1079.69
666.98	1078.52
667.32	1073.84
667.66	1079.92
668.01	1077.35
668.35	1077.58
668.69	1075.94
669.03	1089.75
669.37	1086.01
669.71	1085.77
670.05	1089.29
670.39	1103.33
670.73	1092.33
671.07	1094.43
671.41	1096.31
671.75	1091.16
672.09	1086.94
672.43	1089.05
672.77	1082.03
673.11	1087.65
673.45	1089.99
673.79	1079.69
674.13	1088.82
674.47	1100.05
674.81	1085.31
675.15	1087.65
675.49	1094.67
675.83	1083.67
676.17	1084.14
676.51	1092.80
676.85	1092.09
677.19	1084.37
677.53	1088.35
677.87	1078.52
678.21	1083.67
678.55	1076.18
678.89	1083.43
679.23	1079.46
679.57	1092.56
679.90	1079.92
680.24	1083.20
680.58	1086.24
680.92	1081.80
681.26	1083.90
681.60	1087.41
681.94	1101.46
682.28	1099.12
682.62	1108.01
682.96	1088.35
683.29	1083.43
683.63	1076.65
683.97	1077.35
684.31	1075.24
684.65	1087.88
684.99	1096.54
685.33	1089.99
685.67	1089.29
686.00	1082.73
686.34	1074.77
686.68	1077.35
687.02	1075.71
687.36	1063.07
687.70	1064.48
688.03	1064.94
688.37	1065.41
688.71	1073.37
689.05	1085.07
689.39	1088.12
689.72	1089.75
690.06	1093.26
690.40	1089.99
690.74	1092.80
691.08	1094.67
691.41	1090.22
691.75	1083.90
692.09	1079.22
692.43	1071.03
692.76	1066.11
693.10	1073.84
693.44	1083.90
693.78	1098.88
694.11	1097.24
694.45	1100.05
694.79	1102.86
695.13	1097.95
695.46	1088.35
695.80	1091.39
696.14	1088.58
696.48	1080.63
696.81	1084.14
697.15	1077.82
697.49	1080.16
697.82	1089.52
698.16	1085.54
698.50	1073.60
698.83	1079.69
699.17	1075.94
699.51	1071.26
699.84	1072.20
700.18	1073.14
700.52	1067.75
700.85	1066.58
701.19	1064.71
701.53	1064.94
701.86	1072.90
702.20	1075.01
702.54	1075.48
702.87	1069.16
703.21	1075.48
703.55	1067.52
703.88	1068.22
704.22	1069.86
704.55	1077.11
704.89	1074.54
705.23	1073.37
705.56	1077.58
705.90	1089.05
706.23	1087.41
706.57	1091.86
706.91	1086.71
707.24	1081.56
707.58	1064.48
707.91	1063.31
708.25	1075.48
708.58	1086.71
708.92	1086.94
709.26	1095.37
709.59	1096.78
709.93	1081.33
710.26	1077.35
710.60	1081.56
710.93	1084.14
711.27	1089.29
711.60	1091.86
711.94	1092.33
712.27	1091.63
712.61	1083.67
712.94	1077.11
713.28	1078.52
713.61	1081.33
713.95	1080.63
714.28	1081.80
714.62	1081.09
714.95	1078.75
715.29	1067.05
715.62	1058.39
715.96	1060.96
716.29	1064.71
716.63	1073.37
716.96	1085.07
717.29	1090.69
717.63	1090.92
717.96	1097.71
718.30	1097.95
718.63	1103.56
718.97	1111.05
719.30	1111.75
719.63	1104.03
719.97	1086.24
720.30	1075.01
720.64	1065.41
720.97	1056.52
721.30	1060.50
721.64	1067.99
721.97	1068.92
722.31	1080.39
722.64	1095.60
722.97	1092.33
723.31	1102.39
723.64	1111.05
723.97	1108.24
724.31	1104.73
724.64	1102.16
724.98	1099.58
725.31	1097.48
725.64	1079.69
725.98	1080.39
726.31	1087.88
726.64	1083.20
726.97	1075.48
727.31	1093.26
727.64	1089.75
727.97	1078.52
728.31	1079.46
728.64	1074.31
728.97	1066.35
729.31	1066.35
729.64	1068.69
729.97	1068.92
730.30	1085.07
730.64	1087.18
730.97	1089.52
731.30	1094.67
731.63	1096.31
731.97	1087.65
732.30	1089.75
732.63	1092.09
732.96	1086.71
733.30	1083.67
733.63	1079.69
733.96	1073.84
734.29	1063.31
734.63	1070.56
734.96	1066.35
735.29	1079.22
735.62	1083.20
735.95	1092.56
736.29	1082.73
736.62	1086.24
736.95	1080.86
737.28	1082.73
737.61	1079.92
737.94	1089.75
738.28	1087.41
738.61	1084.60
738.94	1078.99
739.27	1071.73
739.60	1078.05
739.93	1081.80
740.27	1085.54
740.60	1086.24
740.93	1102.63
741.26	1084.14
741.59	1082.73
741.92	1082.73
742.25	1092.80
742.58	1086.24
742.91	1086.48
743.25	1090.22
743.58	1089.52
743.91	1080.63
744.24	1080.63
744.57	1090.46
744.90	1091.63
745.23	1093.03
745.56	1098.65
745.89	1101.92
746.22	1091.86
746.55	1086.01
746.88	1079.92
747.21	1077.35
747.54	1072.90
747.87	1082.03
748.20	1081.33
748.53	1086.94
748.87	1082.97
749.20	1096.78
749.53	1100.52
749.86	1104.03
750.19	1104.50
750.52	1109.41
750.85	1091.16
751.18	1085.77
751.51	1075.01
751.84	1067.52
752.16	1060.26
752.49	1058.39
752.82	1067.28
753.15	1073.60
753.48	1077.82
753.81	1085.77
754.14	1093.26
754.47	1078.75
754.80	1079.22
755.13	1082.26
755.46	1090.46
755.79	1090.22
756.12	1103.33
756.45	1102.39
756.78	1102.63
757.11	1088.35
757.43	1081.33
757.76	1078.99
758.09	1080.86
758.42	1076.18
758.75	1076.65
759.08	1077.11
759.41	1065.18
759.74	1061.20
760.07	1056.75
760.39	1054.65
760.72	1054.88
761.05	1055.82
761.38	1061.67
761.71	1073.60
762.04	1076.18
762.36	1079.69
762.69	1097.48
763.02	1094.90
763.35	1091.39
763.68	1091.63
764.01	1092.33
764.33	1078.52
