SpectraSuite Data File
++++++++++++++++++++++++++++++++++++
Date: Mon Aug 26 10:24:38 PDT 2019
User: corrico
Dark Spectrum Present: No
Reference Spectrum Present: No
Number of Sampled Component Spectra: 1
Spectrometers: USB2+H06089
Integration Time (usec): 10000 (USB2+H06089)
Spectra Averaged: 2 (USB2+H06089)
Boxcar Smoothing: 2 (USB2+H06089)
Correct for Electrical Dark: No (USB2+H06089)
Strobe/Lamp Enabled: No (USB2+H06089)
Correct for Detector Non-linearity: No (USB2+H06089)
Correct for Stray Light: No (USB2+H06089)
Number of Pixels in Processed Spectrum: 2048
>>>>>Begin Processed Spectral Data<<<<<
339.70	1040.37
340.07	1040.37
340.45	1002.69
340.82	971.32
341.19	950.02
341.57	920.53
341.94	914.21
342.31	906.02
342.69	909.06
343.06	897.13
343.43	898.77
343.81	899.00
344.18	899.94
344.55	905.32
344.93	923.58
345.30	937.15
345.67	944.64
346.04	950.02
346.42	960.32
346.79	960.32
347.16	959.15
347.54	968.51
347.91	970.62
348.28	979.28
348.65	992.62
349.03	1003.62
349.40	1011.58
349.77	1035.92
350.14	1046.45
350.52	1051.37
350.89	1054.65
351.26	1066.11
351.63	1064.71
352.01	1062.60
352.38	1074.54
352.75	1088.12
353.12	1082.97
353.50	1078.28
353.87	1079.92
354.24	1073.60
354.61	1076.65
354.98	1073.84
355.36	1081.56
355.73	1083.90
356.10	1090.92
356.47	1088.12
356.84	1090.46
357.22	1093.97
357.59	1100.05
357.96	1104.97
358.33	1103.56
358.70	1108.24
359.08	1106.14
359.45	1099.82
359.82	1086.94
360.19	1092.56
360.56	1096.54
360.94	1110.12
361.31	1112.22
361.68	1114.33
362.05	1106.61
362.42	1110.12
362.79	1100.29
363.16	1094.67
363.54	1097.71
363.91	1094.90
364.28	1085.31
364.65	1089.29
365.02	1095.37
365.39	1081.56
365.76	1083.90
366.14	1098.18
366.51	1087.41
366.88	1086.24
367.25	1100.29
367.62	1100.75
367.99	1084.14
368.36	1097.71
368.73	1105.20
369.10	1102.63
369.48	1107.07
369.85	1117.37
370.22	1110.58
370.59	1106.84
370.96	1106.37
371.33	1101.69
371.70	1093.03
372.07	1091.63
372.44	1099.12
372.81	1092.33
373.18	1101.92
373.55	1110.35
373.93	1110.82
374.30	1099.58
374.67	1106.61
375.04	1097.24
375.41	1102.63
375.78	1095.37
376.15	1097.01
376.52	1096.54
376.89	1099.58
377.26	1085.77
377.63	1087.65
378.00	1092.09
378.37	1095.60
378.74	1097.71
379.11	1096.78
379.48	1109.41
379.85	1094.67
380.22	1089.52
380.59	1085.77
380.96	1095.84
381.33	1083.20
381.70	1094.43
382.07	1094.20
382.44	1097.71
382.81	1099.35
383.18	1104.26
383.55	1105.67
383.92	1109.88
384.29	1108.48
384.66	1097.95
385.03	1102.16
385.40	1103.80
385.77	1108.48
386.14	1115.27
386.51	1133.52
386.88	1138.20
387.25	1144.05
387.62	1142.65
387.99	1143.35
388.36	1131.88
388.73	1129.54
389.10	1121.12
389.46	1119.71
389.83	1106.14
390.20	1103.80
390.57	1092.56
390.94	1096.31
391.31	1104.97
391.68	1114.09
392.05	1117.37
392.42	1137.27
392.79	1143.12
393.16	1138.67
393.53	1141.95
393.89	1143.59
394.26	1136.10
394.63	1140.78
395.00	1151.54
395.37	1155.05
395.74	1148.27
396.11	1151.78
396.48	1153.88
396.84	1146.16
397.21	1135.39
397.58	1141.25
397.95	1143.82
398.32	1130.71
398.69	1138.67
399.06	1153.65
399.42	1166.05
399.79	1164.88
400.16	1176.35
400.53	1178.23
400.90	1186.89
401.27	1195.78
401.64	1207.48
402.00	1225.04
402.37	1226.67
402.74	1237.44
403.11	1240.72
403.48	1257.10
403.84	1264.36
404.21	1278.63
404.58	1293.38
404.95	1302.27
405.32	1325.45
405.68	1346.04
406.05	1373.89
406.42	1386.07
406.79	1417.90
407.16	1428.19
407.52	1454.41
407.89	1486.71
408.26	1524.16
408.63	1572.14
408.99	1628.78
409.36	1671.61
409.73	1712.10
410.10	1761.72
410.47	1810.64
410.83	1852.07
411.20	1919.94
411.57	1991.56
411.94	2062.48
412.30	2137.14
412.67	2231.93
413.04	2318.30
413.40	2425.97
413.77	2542.29
414.14	2655.10
414.51	2784.07
414.87	2921.92
415.24	3078.74
415.61	3241.41
415.97	3406.65
416.34	3588.74
416.71	3777.16
417.08	3965.10
417.44	4152.58
417.81	4384.29
418.18	4633.09
418.54	4902.02
418.91	5192.71
419.28	5516.88
419.64	5839.40
420.01	6155.14
420.38	6508.09
420.74	6860.11
421.11	7284.92
421.48	7706.92
421.84	8160.04
422.21	8612.24
422.58	9129.73
422.94	9630.37
423.31	10160.73
423.68	10732.29
424.04	11393.49
424.41	12018.18
424.77	12651.06
425.14	13333.33
425.51	14041.11
425.87	14792.65
426.24	15577.20
426.61	16561.16
426.97	17629.85
427.34	18577.77
427.70	19618.60
428.07	20714.68
428.44	21764.88
428.80	22828.18
429.17	24006.87
429.53	25104.35
429.90	26392.82
430.27	27573.62
430.63	28751.61
431.00	30134.63
431.36	31623.21
431.73	32915.42
432.09	34263.57
432.46	35644.95
432.83	36988.66
433.19	38204.33
433.56	39706.72
433.92	41311.16
434.29	42811.21
434.65	44371.64
435.02	45833.77
435.38	47163.20
435.75	48023.81
436.11	49304.09
436.48	50255.51
436.84	51239.71
437.21	52090.96
437.57	53115.42
437.94	53736.36
438.30	54294.34
438.67	54538.46
439.03	54613.59
439.40	54736.70
439.76	54659.93
440.13	54450.46
440.49	54461.22
440.86	54116.46
441.22	53672.23
441.59	52966.09
441.95	52338.12
442.32	51404.72
442.68	50703.96
443.05	49829.07
443.41	49006.84
443.78	47967.17
444.14	47132.07
444.51	45952.44
444.87	44985.56
445.24	43733.85
445.60	42643.62
445.96	41292.67
446.33	40324.62
446.69	39007.37
447.06	38097.84
447.42	36987.49
447.79	35847.88
448.15	34747.13
448.51	33768.78
448.88	32832.10
449.24	31836.20
449.61	31161.89
449.97	30349.49
450.33	29566.35
450.70	28539.32
451.06	27871.10
451.43	27061.04
451.79	26449.22
452.15	25889.84
452.52	25432.03
452.88	24831.68
453.24	24319.80
453.61	23718.99
453.97	23044.45
454.34	22332.46
454.70	21708.94
455.06	20985.95
455.43	20255.23
455.79	19464.83
456.15	18907.08
456.52	18246.35
456.88	17723.71
457.24	17077.72
457.61	16633.72
457.97	16044.84
458.33	15502.54
458.70	14880.66
459.06	14329.93
459.42	13809.86
459.79	13293.54
460.15	12811.39
460.51	12382.84
460.88	11982.37
461.24	11492.97
461.60	11150.55
461.96	10791.98
462.33	10457.05
462.69	10138.97
463.05	9862.55
463.42	9557.34
463.78	9271.80
464.14	8958.63
464.50	8645.70
464.87	8358.52
465.23	8071.10
465.59	7830.50
465.95	7629.21
466.32	7444.78
466.68	7267.36
467.04	7088.08
467.40	6902.94
467.77	6700.49
468.13	6489.37
468.49	6319.68
468.85	6170.82
469.22	6046.77
469.58	5913.13
469.94	5835.19
470.30	5731.27
470.66	5615.18
471.03	5472.17
471.39	5391.89
471.75	5258.01
472.11	5130.22
472.47	5023.96
472.84	4937.13
473.20	4815.42
473.56	4734.44
473.92	4634.03
474.28	4537.60
474.65	4439.76
475.01	4347.08
475.37	4259.54
475.73	4188.62
476.09	4095.47
476.45	4021.74
476.81	3921.80
477.18	3832.39
477.54	3735.03
477.90	3664.58
478.26	3571.19
478.62	3507.99
478.98	3434.03
479.34	3391.44
479.71	3324.73
480.07	3285.41
480.43	3255.92
480.79	3212.15
481.15	3162.77
481.51	3111.51
481.87	3060.02
482.23	3011.33
482.59	2950.71
482.96	2888.92
483.32	2850.77
483.68	2797.41
484.04	2759.02
484.40	2726.26
484.76	2692.32
485.12	2650.19
485.48	2631.93
485.84	2577.87
486.20	2544.86
486.56	2508.82
486.92	2476.05
487.28	2452.41
487.64	2424.33
488.00	2391.79
488.37	2363.71
488.73	2327.66
489.09	2281.09
489.45	2255.57
489.81	2214.85
490.17	2193.32
490.53	2165.23
490.89	2128.72
491.25	2101.57
491.61	2067.63
491.97	2028.31
492.33	1996.01
492.69	1972.37
493.05	1930.01
493.41	1909.64
493.77	1881.32
494.13	1873.60
494.49	1858.62
494.85	1843.41
495.21	1825.62
495.57	1810.87
495.93	1771.32
496.29	1744.17
496.64	1725.68
497.00	1716.08
497.36	1686.36
497.72	1679.10
498.08	1658.50
498.44	1636.74
498.80	1631.35
499.16	1627.84
499.52	1606.78
499.88	1597.18
500.24	1598.82
500.60	1564.88
500.96	1544.99
501.32	1539.37
501.68	1522.05
502.03	1507.30
502.39	1503.33
502.75	1483.20
503.11	1468.69
503.47	1460.26
503.83	1439.90
504.19	1423.98
504.55	1421.41
504.91	1408.30
505.26	1399.41
505.62	1389.58
505.98	1382.55
506.34	1370.38
506.70	1364.06
507.06	1358.68
507.42	1348.38
507.78	1334.34
508.13	1332.47
508.49	1331.53
508.85	1330.36
509.21	1334.57
509.57	1340.89
509.93	1331.06
510.28	1325.45
510.64	1310.70
511.00	1301.57
511.36	1285.42
511.72	1278.87
512.07	1273.49
512.43	1271.14
512.79	1262.25
513.15	1257.57
513.51	1251.02
513.86	1246.57
514.22	1238.61
514.58	1230.89
514.94	1232.99
515.30	1247.04
515.65	1247.27
516.01	1245.63
516.37	1246.34
516.73	1239.31
517.08	1228.78
517.44	1215.91
517.80	1208.18
518.16	1206.78
518.51	1203.27
518.87	1190.40
519.23	1181.74
519.59	1193.67
519.94	1192.97
520.30	1198.59
520.66	1209.82
521.01	1219.65
521.37	1210.06
521.73	1199.76
522.09	1193.21
522.44	1192.03
522.80	1187.35
523.16	1181.27
523.51	1190.63
523.87	1177.99
524.23	1167.69
524.58	1163.71
524.94	1157.86
525.30	1148.97
525.65	1161.61
526.01	1166.29
526.37	1160.67
526.72	1162.08
527.08	1160.20
527.44	1162.54
527.79	1164.18
528.15	1165.12
528.51	1167.69
528.86	1169.57
529.22	1159.03
529.58	1160.91
529.93	1163.25
530.29	1171.67
530.65	1175.18
531.00	1169.10
531.36	1156.46
531.71	1169.57
532.07	1163.01
532.43	1159.97
532.78	1162.54
533.14	1148.27
533.49	1132.12
533.85	1133.99
534.21	1130.71
534.56	1133.52
534.92	1147.33
535.27	1154.59
535.63	1142.88
535.98	1153.65
536.34	1148.03
536.69	1151.31
537.05	1133.52
537.41	1135.16
537.76	1123.22
538.12	1125.80
538.47	1125.56
538.83	1129.78
539.18	1132.12
539.54	1141.95
539.89	1137.50
540.25	1133.52
540.60	1134.46
540.96	1132.59
541.31	1122.29
541.67	1119.95
542.02	1123.46
542.38	1122.52
542.73	1116.44
543.09	1114.10
543.44	1113.63
543.80	1106.84
544.15	1103.80
544.51	1113.63
544.86	1111.52
545.22	1119.95
545.57	1130.71
545.93	1136.33
546.28	1127.44
546.64	1132.35
546.99	1127.90
547.35	1121.82
547.70	1118.07
548.05	1134.22
548.41	1126.50
548.76	1129.07
549.12	1125.33
549.47	1135.16
549.83	1119.01
550.18	1112.22
550.53	1113.86
550.89	1118.54
551.24	1107.54
551.60	1117.61
551.95	1125.33
552.30	1115.97
552.66	1107.54
553.01	1111.99
553.37	1112.22
553.72	1116.20
554.07	1119.01
554.43	1121.82
554.78	1120.41
555.13	1115.03
555.49	1113.86
555.84	1117.14
556.19	1112.22
556.55	1110.35
556.90	1116.67
557.26	1113.16
557.61	1111.99
557.96	1116.44
558.32	1120.41
558.67	1105.90
559.02	1114.33
559.37	1112.46
559.73	1115.03
560.08	1112.46
560.43	1118.31
560.79	1112.69
561.14	1115.97
561.49	1115.50
561.85	1120.18
562.20	1128.84
562.55	1133.05
562.90	1127.90
563.26	1131.18
563.61	1126.50
563.96	1119.24
564.32	1118.31
564.67	1115.97
565.02	1099.12
565.37	1093.97
565.73	1087.65
566.08	1073.60
566.43	1074.31
566.78	1091.16
567.14	1100.99
567.49	1108.71
567.84	1129.78
568.19	1137.03
568.54	1126.97
568.90	1123.46
569.25	1122.05
569.60	1112.69
569.95	1112.46
570.31	1120.88
570.66	1113.63
571.01	1110.82
571.36	1124.39
571.71	1117.61
572.06	1117.84
572.42	1123.22
572.77	1122.75
573.12	1110.58
573.47	1127.90
573.82	1127.67
574.18	1121.12
574.53	1124.63
574.88	1129.54
575.23	1123.93
575.58	1116.20
575.93	1118.07
576.28	1104.97
576.64	1107.31
576.99	1098.41
577.34	1095.60
577.69	1097.01
578.04	1109.65
578.39	1091.63
578.74	1096.54
579.09	1111.52
579.44	1119.48
579.80	1112.69
580.15	1114.33
580.50	1110.12
580.85	1108.71
581.20	1100.99
581.55	1107.31
581.90	1116.44
582.25	1120.65
582.60	1118.54
582.95	1119.48
583.30	1120.18
583.65	1111.75
584.00	1111.52
584.35	1102.39
584.71	1111.52
585.06	1104.97
585.41	1114.80
585.76	1121.82
586.11	1129.78
586.46	1120.65
586.81	1119.71
587.16	1115.97
587.51	1099.82
587.86	1093.03
588.21	1098.88
588.56	1106.14
588.91	1111.75
589.26	1124.86
589.61	1119.48
589.96	1117.14
590.31	1106.61
590.66	1104.97
591.01	1097.95
591.36	1114.80
591.71	1117.61
592.06	1115.50
592.41	1114.56
592.76	1105.20
593.10	1089.52
593.45	1082.26
593.80	1094.90
594.15	1088.82
594.50	1096.54
594.85	1095.84
595.20	1103.09
595.55	1105.67
595.90	1111.75
596.25	1109.65
596.60	1122.52
596.95	1116.44
597.30	1107.54
597.64	1157.86
597.99	1170.50
598.34	1162.31
598.69	1159.50
599.04	1161.84
599.39	1102.39
599.74	1093.50
600.09	1100.75
600.44	1098.41
600.78	1099.35
601.13	1108.01
601.48	1105.90
601.83	1100.05
602.18	1097.48
602.53	1097.24
602.88	1096.07
603.22	1101.22
603.57	1098.65
603.92	1101.22
604.27	1100.29
604.62	1091.16
604.97	1072.43
605.31	1074.07
605.66	1083.20
606.01	1089.05
606.36	1095.14
606.71	1106.84
607.05	1114.33
607.40	1122.75
607.75	1122.05
608.10	1125.10
608.44	1132.35
608.79	1128.37
609.14	1124.63
609.49	1119.95
609.84	1113.86
610.18	1108.71
610.53	1102.63
610.88	1093.03
611.23	1084.60
611.57	1085.77
611.92	1084.84
612.27	1090.92
612.62	1098.18
612.96	1103.56
613.31	1112.69
613.66	1114.33
614.00	1105.90
614.35	1102.86
614.70	1104.26
615.05	1099.12
615.39	1105.90
615.74	1112.22
616.09	1109.18
616.43	1110.12
616.78	1103.09
617.13	1099.58
617.47	1101.22
617.82	1091.86
618.17	1087.41
618.51	1097.48
618.86	1089.05
619.21	1082.97
619.55	1086.94
619.90	1093.73
620.25	1099.82
620.59	1106.37
620.94	1117.61
621.29	1115.50
621.63	1115.97
621.98	1111.99
622.32	1108.01
622.67	1109.41
623.02	1120.65
623.36	1119.24
623.71	1112.92
624.05	1107.31
624.40	1100.29
624.75	1092.56
625.09	1099.35
625.44	1099.35
625.78	1099.35
626.13	1092.80
626.48	1089.75
626.82	1081.80
627.17	1075.24
627.51	1082.73
627.86	1088.12
628.20	1085.07
628.55	1094.90
628.89	1102.39
629.24	1100.75
629.58	1108.48
629.93	1125.56
630.28	1118.54
630.62	1114.10
630.97	1108.48
631.31	1099.12
631.66	1090.46
632.00	1087.18
632.35	1098.41
632.69	1102.39
633.04	1102.63
633.38	1093.97
633.73	1086.24
634.07	1079.92
634.42	1078.28
634.76	1072.67
635.11	1079.92
635.45	1092.33
635.79	1091.86
636.14	1088.35
636.48	1095.14
636.83	1100.05
637.17	1088.58
637.52	1085.54
637.86	1087.88
638.21	1090.92
638.55	1092.56
638.89	1096.31
639.24	1091.16
639.58	1097.01
639.93	1097.71
640.27	1100.75
640.61	1105.20
640.96	1114.56
641.30	1114.56
641.65	1108.01
641.99	1096.78
642.33	1096.31
642.68	1090.92
643.02	1086.24
643.37	1087.65
643.71	1089.75
644.05	1090.46
644.40	1102.39
644.74	1096.54
645.08	1100.75
645.43	1101.22
645.77	1109.41
646.11	1097.48
646.46	1102.86
646.80	1096.07
647.14	1103.33
647.49	1089.29
647.83	1088.82
648.17	1100.05
648.52	1103.09
648.86	1090.69
649.20	1102.39
649.55	1107.54
649.89	1102.39
650.23	1103.56
650.57	1110.12
650.92	1101.22
651.26	1100.29
651.60	1104.97
651.95	1106.61
652.29	1115.03
652.63	1109.88
652.97	1109.18
653.32	1097.24
653.66	1092.80
654.00	1084.60
654.34	1091.16
654.69	1085.07
655.03	1092.56
655.37	1091.63
655.71	1091.16
656.05	1087.18
656.40	1090.22
656.74	1087.41
657.08	1087.65
657.42	1097.48
657.76	1101.92
658.11	1105.20
658.45	1108.71
658.79	1107.78
659.13	1094.90
659.47	1089.75
659.82	1079.22
660.16	1075.71
660.50	1072.67
660.84	1075.71
661.18	1081.56
661.52	1088.58
661.87	1089.05
662.21	1084.84
662.55	1067.99
662.89	1067.28
663.23	1065.88
663.57	1066.35
663.91	1074.54
664.25	1088.35
664.60	1087.41
664.94	1083.90
665.28	1079.69
665.62	1083.20
665.96	1078.52
666.30	1066.58
666.64	1077.11
666.98	1073.60
667.32	1082.50
667.66	1088.58
668.01	1102.63
668.35	1093.73
668.69	1095.14
669.03	1080.63
669.37	1080.39
669.71	1078.05
670.05	1084.14
670.39	1091.16
670.73	1091.63
671.07	1087.41
671.41	1100.29
671.75	1103.56
672.09	1106.84
672.43	1108.48
672.77	1116.67
673.11	1108.95
673.45	1107.07
673.79	1102.86
674.13	1097.24
674.47	1096.54
674.81	1093.26
675.15	1083.20
675.49	1080.86
675.83	1086.48
676.17	1089.99
676.51	1095.60
676.85	1099.82
677.19	1109.88
677.53	1110.58
677.87	1104.97
678.21	1100.99
678.55	1104.50
678.89	1101.22
679.23	1101.69
679.57	1105.90
679.90	1105.44
680.24	1108.24
680.58	1103.80
680.92	1099.82
681.26	1092.80
681.60	1081.56
681.94	1075.48
682.28	1078.99
682.62	1077.58
682.96	1078.52
683.29	1088.35
683.63	1084.84
683.97	1089.52
684.31	1095.60
684.65	1097.71
684.99	1100.99
685.33	1106.84
685.67	1097.24
686.00	1102.16
686.34	1096.54
686.68	1092.80
687.02	1089.75
687.36	1089.29
687.70	1087.41
688.03	1086.94
688.37	1082.97
688.71	1084.14
689.05	1082.50
689.39	1088.12
689.72	1087.41
690.06	1094.43
690.40	1096.78
690.74	1102.16
691.08	1090.92
691.41	1099.35
691.75	1093.03
692.09	1087.65
692.43	1082.50
692.76	1081.56
693.10	1085.77
693.44	1076.65
693.78	1074.77
694.11	1075.01
694.45	1073.84
694.79	1066.58
695.13	1069.86
695.46	1075.71
695.80	1077.11
696.14	1085.77
696.48	1085.54
696.81	1100.52
697.15	1096.78
697.49	1090.22
697.82	1087.88
698.16	1081.33
698.50	1068.45
698.83	1077.58
699.17	1086.24
699.51	1083.67
699.84	1088.58
700.18	1095.14
700.52	1090.46
700.85	1091.16
701.19	1094.20
701.53	1092.33
701.86	1089.05
702.20	1089.52
702.54	1084.14
702.87	1080.39
703.21	1085.54
703.55	1086.94
703.88	1089.75
704.22	1095.37
704.55	1088.82
704.89	1090.69
705.23	1091.63
705.56	1081.80
705.90	1074.31
706.23	1085.77
706.57	1077.82
706.91	1077.58
707.24	1091.63
707.58	1093.73
707.91	1086.01
708.25	1091.39
708.58	1089.05
708.92	1085.31
709.26	1093.97
709.59	1098.65
709.93	1103.09
710.26	1097.24
710.60	1090.22
710.93	1076.88
711.27	1075.01
711.60	1074.54
711.94	1076.41
712.27	1069.86
712.61	1074.54
712.94	1070.80
713.28	1062.37
713.61	1062.60
713.95	1062.60
714.28	1069.39
714.62	1073.84
714.95	1086.01
715.29	1085.07
715.62	1089.52
715.96	1093.03
716.29	1089.75
716.63	1084.60
716.96	1100.05
717.29	1100.05
717.63	1089.52
717.96	1093.73
718.30	1088.12
718.63	1073.14
718.97	1070.33
719.30	1075.24
719.63	1076.65
719.97	1086.01
720.30	1086.71
720.64	1093.73
720.97	1101.46
721.30	1099.82
721.64	1091.16
721.97	1088.35
722.31	1086.94
722.64	1075.94
722.97	1076.18
723.31	1079.92
723.64	1089.52
723.97	1090.69
724.31	1093.03
724.64	1081.80
724.98	1081.33
725.31	1070.33
725.64	1066.11
725.98	1073.37
726.31	1078.75
726.64	1077.82
726.97	1092.56
727.31	1095.60
727.64	1087.65
727.97	1091.39
728.31	1093.03
728.64	1089.52
728.97	1086.48
729.31	1096.07
729.64	1100.99
729.97	1102.63
730.30	1097.24
730.64	1100.05
730.97	1097.48
731.30	1092.33
731.63	1085.31
731.97	1077.58
732.30	1079.22
732.63	1071.26
732.96	1073.84
733.30	1067.99
733.63	1073.84
733.96	1068.92
734.29	1077.82
734.63	1079.92
734.96	1099.12
735.29	1107.31
735.62	1109.18
735.95	1106.84
736.29	1097.24
736.62	1084.37
736.95	1089.99
737.28	1090.92
737.61	1092.80
737.94	1098.41
738.28	1102.39
738.61	1093.97
738.94	1106.37
739.27	1096.78
739.60	1087.65
739.93	1084.60
740.27	1086.24
740.60	1073.84
740.93	1074.54
741.26	1087.41
741.59	1091.16
741.92	1088.12
742.25	1090.22
742.58	1084.37
742.91	1086.71
743.25	1076.65
743.58	1078.28
743.91	1078.75
744.24	1083.90
744.57	1068.22
744.90	1081.80
745.23	1076.65
745.56	1067.05
745.89	1064.48
746.22	1066.58
746.55	1067.05
746.88	1068.45
747.21	1081.56
747.54	1080.16
747.87	1101.22
748.20	1095.60
748.53	1095.37
748.87	1085.77
749.20	1082.50
749.53	1058.16
749.86	1053.24
750.19	1060.50
750.52	1075.01
750.85	1082.50
751.18	1084.14
751.51	1083.90
751.84	1075.94
752.16	1065.65
752.49	1064.01
752.82	1063.54
753.15	1064.48
753.48	1064.01
753.81	1059.09
754.14	1060.50
754.47	1075.24
754.80	1069.86
755.13	1069.16
755.46	1075.24
755.79	1074.07
756.12	1070.56
756.45	1077.58
756.78	1081.33
757.11	1077.82
757.43	1090.22
757.76	1081.33
758.09	1082.97
758.42	1074.54
758.75	1088.82
759.08	1075.94
759.41	1082.97
759.74	1081.09
760.07	1084.37
760.39	1073.14
760.72	1080.63
761.05	1076.88
761.38	1076.41
761.71	1082.03
762.04	1086.94
762.36	1086.01
762.69	1087.41
763.02	1084.37
763.35	1076.41
763.68	1067.05
764.01	1057.45
