SpectraSuite Data File
++++++++++++++++++++++++++++++++++++
Date: Mon Aug 26 10:24:38 PDT 2019
User: corrico
Dark Spectrum Present: No
Reference Spectrum Present: No
Number of Sampled Component Spectra: 1
Spectrometers: USB2+H06089
Integration Time (usec): 10000 (USB2+H06089)
Spectra Averaged: 2 (USB2+H06089)
Boxcar Smoothing: 2 (USB2+H06089)
Correct for Electrical Dark: No (USB2+H06089)
Strobe/Lamp Enabled: No (USB2+H06089)
Correct for Detector Non-linearity: No (USB2+H06089)
Correct for Stray Light: No (USB2+H06089)
Number of Pixels in Processed Spectrum: 2048
>>>>>Begin Processed Spectral Data<<<<<
339.70	1018.13
340.07	1018.13
340.45	979.75
340.82	961.02
341.19	938.32
341.57	918.19
341.94	917.49
342.31	930.60
342.69	920.06
343.06	914.68
343.43	911.17
343.81	904.85
344.18	890.34
344.55	901.57
344.93	905.09
345.30	921.94
345.67	925.68
346.04	940.66
346.42	950.02
346.79	962.43
347.16	962.19
347.54	968.05
347.91	967.81
348.28	972.73
348.65	985.37
349.03	995.43
349.40	1010.88
349.77	1028.90
350.14	1036.39
350.52	1038.50
350.89	1043.88
351.26	1052.77
351.63	1054.18
352.01	1060.26
352.38	1074.31
352.75	1082.03
353.12	1090.69
353.50	1096.54
353.87	1095.84
354.24	1088.35
354.61	1085.07
354.98	1080.39
355.36	1086.01
355.73	1102.63
356.10	1111.29
356.47	1114.80
356.84	1112.92
357.22	1111.05
357.59	1102.39
357.96	1103.56
358.33	1112.46
358.70	1111.75
359.08	1105.44
359.45	1103.80
359.82	1107.78
360.19	1103.33
360.56	1098.88
360.94	1102.39
361.31	1093.26
361.68	1092.09
362.05	1090.46
362.42	1088.35
362.79	1078.28
363.16	1096.07
363.54	1090.22
363.91	1086.24
364.28	1087.18
364.65	1102.16
365.02	1087.41
365.39	1096.07
365.76	1096.54
366.14	1104.50
366.51	1095.60
366.88	1094.43
367.25	1075.71
367.62	1075.48
367.99	1073.14
368.36	1076.88
368.73	1081.33
369.10	1092.09
369.48	1089.99
369.85	1094.67
370.22	1098.88
370.59	1100.52
370.96	1092.09
371.33	1093.73
371.70	1094.67
372.07	1090.69
372.44	1088.12
372.81	1093.50
373.18	1083.90
373.55	1086.48
373.93	1090.69
374.30	1086.01
374.67	1088.35
375.04	1104.50
375.41	1104.50
375.78	1088.58
376.15	1100.75
376.52	1097.48
376.89	1108.01
377.26	1103.09
377.63	1107.54
378.00	1112.22
378.37	1120.88
378.74	1106.84
379.11	1105.20
379.48	1116.90
379.85	1112.69
380.22	1110.35
380.59	1107.31
380.96	1121.12
381.33	1125.10
381.70	1129.78
382.07	1128.61
382.44	1136.56
382.81	1130.48
383.18	1127.90
383.55	1123.69
383.92	1126.50
384.29	1123.93
384.66	1116.44
385.03	1120.88
385.40	1115.73
385.77	1118.07
386.14	1116.90
386.51	1120.18
386.88	1112.22
387.25	1120.41
387.62	1125.33
387.99	1129.78
388.36	1130.24
388.73	1140.54
389.10	1136.10
389.46	1127.20
389.83	1117.61
390.20	1115.50
390.57	1099.12
390.94	1096.07
391.31	1098.88
391.68	1101.92
392.05	1107.54
392.42	1115.27
392.79	1124.16
393.16	1133.05
393.53	1148.27
393.89	1152.25
394.26	1158.10
394.63	1160.44
395.00	1150.61
395.37	1142.65
395.74	1132.35
396.11	1139.84
396.48	1135.86
396.84	1141.25
397.21	1145.93
397.58	1148.27
397.95	1144.76
398.32	1152.01
398.69	1147.80
399.06	1155.05
399.42	1168.16
399.79	1173.78
400.16	1180.33
400.53	1198.12
400.90	1195.78
401.27	1201.16
401.64	1212.16
402.00	1215.91
402.37	1227.14
402.74	1237.44
403.11	1248.68
403.48	1251.95
403.84	1267.87
404.21	1276.53
404.58	1295.02
404.95	1304.85
405.32	1324.51
405.68	1343.94
406.05	1346.51
406.42	1366.64
406.79	1406.19
407.16	1423.75
407.52	1451.13
407.89	1507.07
408.26	1541.24
408.63	1567.22
408.99	1626.67
409.36	1661.55
409.73	1690.33
410.10	1745.81
410.47	1805.96
410.83	1845.98
411.20	1919.94
411.57	1992.03
411.94	2073.25
412.30	2141.12
412.67	2227.25
413.04	2323.92
413.40	2428.31
413.77	2515.14
414.14	2634.04
414.51	2769.56
414.87	2884.48
415.24	3012.50
415.61	3170.96
415.97	3322.62
416.34	3480.38
416.71	3676.28
417.08	3886.23
417.44	4098.04
417.81	4340.99
418.18	4576.45
418.54	4837.19
418.91	5126.71
419.28	5424.89
419.64	5707.63
420.01	6047.24
420.38	6379.36
420.74	6731.38
421.11	7135.36
421.48	7536.29
421.84	7982.87
422.21	8416.57
422.58	8927.04
422.94	9439.15
423.31	9986.60
423.68	10528.67
424.04	11174.19
424.41	11728.89
424.77	12318.94
425.14	12965.40
425.51	13641.11
425.87	14430.10
426.24	15245.31
426.61	16129.57
426.97	17184.45
427.34	18192.98
427.70	19153.31
428.07	20152.25
428.44	21243.17
428.80	22277.69
429.17	23386.40
429.53	24465.85
429.90	25798.55
430.27	26946.12
430.63	28076.36
431.00	29356.87
431.36	30805.43
431.73	32053.17
432.09	33413.02
432.46	34789.02
432.83	36099.25
433.19	37339.27
433.56	38865.77
433.92	40417.54
434.29	41944.51
434.65	43510.09
435.02	44861.52
435.38	46089.13
435.75	46918.61
436.11	48087.48
436.48	49055.99
436.84	50107.12
437.21	50978.97
437.57	52035.02
437.94	52678.20
438.30	53253.74
438.67	53520.56
439.03	53660.76
439.40	53825.30
439.76	53703.12
440.13	53538.58
440.49	53544.90
440.86	53152.16
441.22	52689.67
441.59	52111.09
441.95	51393.25
442.32	50379.10
442.68	49679.04
443.05	48707.25
443.41	47878.23
443.78	46832.72
444.14	45978.89
444.51	44746.13
444.87	43808.98
445.24	42517.47
445.60	41436.84
445.96	40146.27
446.33	39224.57
446.69	37923.47
447.06	36985.38
447.42	35967.01
447.79	34932.96
448.15	33867.08
448.51	32994.30
448.88	32123.38
449.24	31075.53
449.61	30310.41
449.97	29527.50
450.33	28734.29
450.70	27784.27
451.06	27162.39
451.43	26365.20
451.79	25769.30
452.15	25170.82
452.52	24675.10
452.88	24143.33
453.24	23671.94
453.61	23062.47
453.97	22458.84
454.34	21765.58
454.70	21148.61
455.06	20550.61
455.43	19829.25
455.79	19080.75
456.15	18527.68
456.52	17892.69
456.88	17305.92
457.24	16728.28
457.61	16249.17
457.97	15687.67
458.33	15129.93
458.70	14582.24
459.06	14047.19
459.42	13556.15
459.79	13056.91
460.15	12596.30
460.51	12108.06
460.88	11694.02
461.24	11291.21
461.60	10943.17
461.96	10587.88
462.33	10301.17
462.69	9972.79
463.05	9644.18
463.42	9378.53
463.78	9077.77
464.14	8784.50
464.50	8542.72
464.87	8280.11
465.23	8001.36
465.59	7794.45
465.95	7536.06
466.32	7311.13
466.68	7083.63
467.04	6892.41
467.40	6720.15
467.77	6553.73
468.13	6385.68
468.49	6235.66
468.85	6082.58
469.22	5949.41
469.58	5834.25
469.94	5736.42
470.30	5644.20
470.66	5550.58
471.03	5410.38
471.39	5285.16
471.75	5159.24
472.11	5053.68
472.47	4944.15
472.84	4854.27
473.20	4738.88
473.56	4645.03
473.92	4535.26
474.28	4429.93
474.65	4340.99
475.01	4289.03
475.37	4199.86
475.73	4113.49
476.09	4025.96
476.45	3959.25
476.81	3875.46
477.18	3767.33
477.54	3698.05
477.90	3628.77
478.26	3530.70
478.62	3460.95
478.98	3418.59
479.34	3378.33
479.71	3312.56
480.07	3251.24
480.43	3177.51
480.79	3125.08
481.15	3053.46
481.51	3005.72
481.87	2966.63
482.23	2942.76
482.59	2887.05
482.96	2841.88
483.32	2800.22
483.68	2768.62
484.04	2732.81
484.40	2698.40
484.76	2674.06
485.12	2630.29
485.48	2584.65
485.84	2539.72
486.20	2503.20
486.56	2463.65
486.92	2444.22
487.28	2421.75
487.64	2375.88
488.00	2350.83
488.37	2317.83
488.73	2297.47
489.09	2256.98
489.45	2233.81
489.81	2197.53
490.17	2162.42
490.53	2120.76
490.89	2087.06
491.25	2065.99
491.61	2046.33
491.97	2020.82
492.33	1988.99
492.69	1977.28
493.05	1942.88
493.41	1912.92
493.77	1886.24
494.13	1865.88
494.49	1829.13
494.85	1805.49
495.21	1777.64
495.57	1767.81
495.93	1744.64
496.29	1727.55
496.64	1717.02
497.00	1698.29
497.36	1670.67
497.72	1669.04
498.08	1646.33
498.44	1621.99
498.80	1603.74
499.16	1585.71
499.52	1552.71
499.88	1542.41
500.24	1540.77
500.60	1536.09
500.96	1517.84
501.32	1506.13
501.68	1505.90
502.03	1491.16
502.39	1471.26
502.75	1460.03
503.11	1459.56
503.47	1442.00
503.83	1417.19
504.19	1412.51
504.55	1412.98
504.91	1401.04
505.26	1397.53
505.62	1390.51
505.98	1384.66
506.34	1363.60
506.70	1353.30
507.06	1340.89
507.42	1352.13
507.78	1350.96
508.13	1345.57
508.49	1333.40
508.85	1327.32
509.21	1311.64
509.57	1291.74
509.93	1291.27
510.28	1290.10
510.64	1281.44
511.00	1272.08
511.36	1279.34
511.72	1276.53
512.07	1278.87
512.43	1281.91
512.79	1286.83
513.15	1275.83
513.51	1266.46
513.86	1249.61
514.22	1235.80
514.58	1230.65
514.94	1228.78
515.30	1236.51
515.65	1227.85
516.01	1235.33
516.37	1237.21
516.73	1231.59
517.08	1228.55
517.44	1238.14
517.80	1232.76
518.16	1218.72
518.51	1210.06
518.87	1200.46
519.23	1185.95
519.59	1181.50
519.94	1180.33
520.30	1182.44
520.66	1183.37
521.01	1187.59
521.37	1179.86
521.73	1181.27
522.09	1180.57
522.44	1174.48
522.80	1173.54
523.16	1169.80
523.51	1163.48
523.87	1161.37
524.23	1161.61
524.58	1160.91
524.94	1168.86
525.30	1170.27
525.65	1172.14
526.01	1174.71
526.37	1179.86
526.72	1169.80
527.08	1161.61
527.44	1167.46
527.79	1151.08
528.15	1143.12
528.51	1153.65
528.86	1157.86
529.22	1149.20
529.58	1153.88
529.93	1159.03
530.29	1147.56
530.65	1150.61
531.00	1152.01
531.36	1150.37
531.71	1147.33
532.07	1158.80
532.43	1152.95
532.78	1150.61
533.14	1159.50
533.49	1150.37
533.85	1151.08
534.21	1157.39
534.56	1163.01
534.92	1161.14
535.27	1167.46
535.63	1152.95
535.98	1141.01
536.34	1125.56
536.69	1126.03
537.05	1127.44
537.41	1140.78
537.76	1139.37
538.12	1150.14
538.47	1149.44
538.83	1138.90
539.18	1122.52
539.54	1129.78
539.89	1131.18
540.25	1125.80
540.60	1135.16
540.96	1146.86
541.31	1135.16
541.67	1131.18
542.02	1133.76
542.38	1127.67
542.73	1119.01
543.09	1125.80
543.44	1128.14
543.80	1127.44
544.15	1124.63
544.51	1130.01
544.86	1134.93
545.22	1128.14
545.57	1119.95
545.93	1129.31
546.28	1124.39
546.64	1122.05
546.99	1123.46
547.35	1130.48
547.70	1123.46
548.05	1126.03
548.41	1124.16
548.76	1129.78
549.12	1122.75
549.47	1121.58
549.83	1125.10
550.18	1124.86
550.53	1123.93
550.89	1132.35
551.24	1138.90
551.60	1130.48
551.95	1128.14
552.30	1117.84
552.66	1109.18
553.01	1104.50
553.37	1109.41
553.72	1113.16
554.07	1125.10
554.43	1131.41
554.78	1133.29
555.13	1142.18
555.49	1138.90
555.84	1123.69
556.19	1123.93
556.55	1114.56
556.90	1103.80
557.26	1101.46
557.61	1100.52
557.96	1103.33
558.32	1108.48
558.67	1110.35
559.02	1114.56
559.37	1118.54
559.73	1114.10
560.08	1114.33
560.43	1117.14
560.79	1119.24
561.14	1119.01
561.49	1114.10
561.85	1120.88
562.20	1111.75
562.55	1107.54
562.90	1105.67
563.26	1107.54
563.61	1097.01
563.96	1093.97
564.32	1093.26
564.67	1093.73
565.02	1100.29
565.37	1104.50
565.73	1105.44
566.08	1105.67
566.43	1112.92
566.78	1103.09
567.14	1109.18
567.49	1116.44
567.84	1124.86
568.19	1118.54
568.54	1117.84
568.90	1101.69
569.25	1099.58
569.60	1085.07
569.95	1084.14
570.31	1098.41
570.66	1110.58
571.01	1118.31
571.36	1127.67
571.71	1130.48
572.06	1125.33
572.42	1120.65
572.77	1109.65
573.12	1107.31
573.47	1103.09
573.82	1101.92
574.18	1103.09
574.53	1106.14
574.88	1108.24
575.23	1118.31
575.58	1114.33
575.93	1115.97
576.28	1108.48
576.64	1101.69
576.99	1099.35
577.34	1100.52
577.69	1107.31
578.04	1117.61
578.39	1127.44
578.74	1123.69
579.09	1124.63
579.44	1125.80
579.80	1121.58
580.15	1116.20
580.50	1111.75
580.85	1115.73
581.20	1107.54
581.55	1118.54
581.90	1113.16
582.25	1124.63
582.60	1128.84
582.95	1126.50
583.30	1117.61
583.65	1125.10
584.00	1119.95
584.35	1110.82
584.71	1119.24
585.06	1118.78
585.41	1121.82
585.76	1123.22
586.11	1128.14
586.46	1113.16
586.81	1120.18
587.16	1116.20
587.51	1108.71
587.86	1101.69
588.21	1106.14
588.56	1102.63
588.91	1101.46
589.26	1114.33
589.61	1123.22
589.96	1125.56
590.31	1123.93
590.66	1125.80
591.01	1117.61
591.36	1115.27
591.71	1113.63
592.06	1106.37
592.41	1107.31
592.76	1108.01
593.10	1101.46
593.45	1104.03
593.80	1103.56
594.15	1091.63
594.50	1094.90
594.85	1100.52
595.20	1102.63
595.55	1104.50
595.90	1111.52
596.25	1104.26
596.60	1102.63
596.95	1094.20
597.30	1091.86
597.64	1141.71
597.99	1160.20
598.34	1141.95
598.69	1146.86
599.04	1142.65
599.39	1092.80
599.74	1074.31
600.09	1095.37
600.44	1086.48
600.78	1086.48
601.13	1086.48
601.48	1083.20
601.83	1078.28
602.18	1072.43
602.53	1075.24
602.88	1071.73
603.22	1071.50
603.57	1073.84
603.92	1090.46
604.27	1094.20
604.62	1087.41
604.97	1098.18
605.31	1092.56
605.66	1094.43
606.01	1092.09
606.36	1098.88
606.71	1090.92
607.05	1095.14
607.40	1082.03
607.75	1084.37
608.10	1072.90
608.44	1075.94
608.79	1091.63
609.14	1101.69
609.49	1106.14
609.84	1120.18
610.18	1117.61
610.53	1101.22
610.88	1099.58
611.23	1096.54
611.57	1093.50
611.92	1102.86
612.27	1096.07
612.62	1094.20
612.96	1093.50
613.31	1100.75
613.66	1092.09
614.00	1100.05
614.35	1103.56
614.70	1103.80
615.05	1098.18
615.39	1107.78
615.74	1102.86
616.09	1101.92
616.43	1108.71
616.78	1112.22
617.13	1100.29
617.47	1102.86
617.82	1099.82
618.17	1087.18
618.51	1091.16
618.86	1097.48
619.21	1097.24
619.55	1108.95
619.90	1108.95
620.25	1097.48
620.59	1090.92
620.94	1095.14
621.29	1091.16
621.63	1097.01
621.98	1106.84
622.32	1109.18
622.67	1097.95
623.02	1089.52
623.36	1087.88
623.71	1084.14
624.05	1094.20
624.40	1103.56
624.75	1107.78
625.09	1119.01
625.44	1125.10
625.78	1114.80
626.13	1106.61
626.48	1099.12
626.82	1093.03
627.17	1083.20
627.51	1080.86
627.86	1084.37
628.20	1088.12
628.55	1078.75
628.89	1091.63
629.24	1095.14
629.58	1095.84
629.93	1103.09
630.28	1108.48
630.62	1109.65
630.97	1107.31
631.31	1112.46
631.66	1111.99
632.00	1102.86
632.35	1096.78
632.69	1108.71
633.04	1110.58
633.38	1111.05
633.73	1116.67
634.07	1116.90
634.42	1105.20
634.76	1098.41
635.11	1097.95
635.45	1100.29
635.79	1097.24
636.14	1097.01
636.48	1100.29
636.83	1111.52
637.17	1115.03
637.52	1104.73
637.86	1098.41
638.21	1099.82
638.55	1082.26
638.89	1071.26
639.24	1076.65
639.58	1088.35
639.93	1084.60
640.27	1084.60
640.61	1091.63
640.96	1083.67
641.30	1079.92
641.65	1082.50
641.99	1085.77
642.33	1086.01
642.68	1093.73
643.02	1098.18
643.37	1101.22
643.71	1100.52
644.05	1108.95
644.40	1107.54
644.74	1109.41
645.08	1099.12
645.43	1091.39
645.77	1097.71
646.11	1102.63
646.46	1102.39
646.80	1106.14
647.14	1114.56
647.49	1111.99
647.83	1119.95
648.17	1121.35
648.52	1118.78
648.86	1126.50
649.20	1111.29
649.55	1094.43
649.89	1099.12
650.23	1104.73
650.57	1101.69
650.92	1100.05
651.26	1104.03
651.60	1089.75
651.95	1082.03
652.29	1072.90
652.63	1074.54
652.97	1079.46
653.32	1079.92
653.66	1083.90
654.00	1093.03
654.34	1095.84
654.69	1099.58
655.03	1107.07
655.37	1105.20
655.71	1099.12
656.05	1102.39
656.40	1103.80
656.74	1098.88
657.08	1094.67
657.42	1091.16
657.76	1086.24
658.11	1082.50
658.45	1085.54
658.79	1090.92
659.13	1092.09
659.47	1087.18
659.82	1075.48
660.16	1064.71
660.50	1061.43
660.84	1063.31
661.18	1063.07
661.52	1074.07
661.87	1078.28
662.21	1084.14
662.55	1091.16
662.89	1097.95
663.23	1098.41
663.57	1092.80
663.91	1089.52
664.25	1082.03
664.60	1082.73
664.94	1073.37
665.28	1085.77
665.62	1088.82
665.96	1086.48
666.30	1089.52
666.64	1093.50
666.98	1097.48
667.32	1097.71
667.66	1108.24
668.01	1105.90
668.35	1106.61
668.69	1100.05
669.03	1098.88
669.37	1097.48
669.71	1093.97
670.05	1099.35
670.39	1099.82
670.73	1100.75
671.07	1096.54
671.41	1096.78
671.75	1096.07
672.09	1098.41
672.43	1094.67
672.77	1093.50
673.11	1103.56
673.45	1108.24
673.79	1111.52
674.13	1117.84
674.47	1121.82
674.81	1121.82
675.15	1119.95
675.49	1107.54
675.83	1110.82
676.17	1103.56
676.51	1091.39
676.85	1093.97
677.19	1104.73
677.53	1100.52
677.87	1119.95
678.21	1121.35
678.55	1116.90
678.89	1122.52
679.23	1113.63
679.57	1101.92
679.90	1105.20
680.24	1105.67
680.58	1090.92
680.92	1102.39
681.26	1091.16
681.60	1087.41
681.94	1085.77
682.28	1089.52
682.62	1082.26
682.96	1085.77
683.29	1086.48
683.63	1086.71
683.97	1088.82
684.31	1087.65
684.65	1096.31
684.99	1102.16
685.33	1097.01
685.67	1098.18
686.00	1097.01
686.34	1090.69
686.68	1085.07
687.02	1086.24
687.36	1078.75
687.70	1077.82
688.03	1078.28
688.37	1074.31
688.71	1083.20
689.05	1089.99
689.39	1100.05
689.72	1101.69
690.06	1108.48
690.40	1096.78
690.74	1099.35
691.08	1091.39
691.41	1088.82
691.75	1084.37
692.09	1088.58
692.43	1087.88
692.76	1078.52
693.10	1079.69
693.44	1086.01
693.78	1088.12
694.11	1075.48
694.45	1092.09
694.79	1098.41
695.13	1084.37
695.46	1080.39
695.80	1087.65
696.14	1089.29
696.48	1084.84
696.81	1090.46
697.15	1088.35
697.49	1089.52
697.82	1077.82
698.16	1080.39
698.50	1082.97
698.83	1089.05
699.17	1086.71
699.51	1087.18
699.84	1070.56
700.18	1072.90
700.52	1071.73
700.85	1078.28
701.19	1086.24
701.53	1095.14
701.86	1090.46
702.20	1079.69
702.54	1077.35
702.87	1077.35
703.21	1076.65
703.55	1079.46
703.88	1086.94
704.22	1082.50
704.55	1072.43
704.89	1075.24
705.23	1086.01
705.56	1087.18
705.90	1096.31
706.23	1112.92
706.57	1112.92
706.91	1111.05
707.24	1109.88
707.58	1100.29
707.91	1086.24
708.25	1084.84
708.58	1079.46
708.92	1075.24
709.26	1072.20
709.59	1075.01
709.93	1076.18
710.26	1079.46
710.60	1088.58
710.93	1091.63
711.27	1088.58
711.60	1081.33
711.94	1080.16
712.27	1072.43
712.61	1075.71
712.94	1081.56
713.28	1084.84
713.61	1074.54
713.95	1087.18
714.28	1090.22
714.62	1092.09
714.95	1092.09
715.29	1106.37
715.62	1086.01
715.96	1083.90
716.29	1084.14
716.63	1081.80
716.96	1079.92
717.29	1099.12
717.63	1104.03
717.96	1115.73
718.30	1125.10
718.63	1122.29
718.97	1115.27
719.30	1105.67
719.63	1087.88
719.97	1074.77
720.30	1072.90
720.64	1068.92
720.97	1073.37
721.30	1070.80
721.64	1079.69
721.97	1083.20
722.31	1088.82
722.64	1083.90
722.97	1085.54
723.31	1088.58
723.64	1083.20
723.97	1086.48
724.31	1098.88
724.64	1104.73
724.98	1108.48
725.31	1111.52
725.64	1112.22
725.98	1103.33
726.31	1100.05
726.64	1091.39
726.97	1091.16
727.31	1083.90
727.64	1083.90
727.97	1079.92
728.31	1078.75
728.64	1076.18
728.97	1075.71
729.31	1077.11
729.64	1079.69
729.97	1082.97
730.30	1078.52
730.64	1079.22
730.97	1079.69
731.30	1079.92
731.63	1075.48
731.97	1086.94
732.30	1089.52
732.63	1088.82
732.96	1089.29
733.30	1092.56
733.63	1084.14
733.96	1090.22
734.29	1085.31
734.63	1088.58
734.96	1092.80
735.29	1094.90
735.62	1087.18
735.95	1087.18
736.29	1081.33
736.62	1071.03
736.95	1070.56
737.28	1075.24
737.61	1082.50
737.94	1085.07
738.28	1091.39
738.61	1085.31
738.94	1085.77
739.27	1078.99
739.60	1085.07
739.93	1088.58
740.27	1098.18
740.60	1094.43
740.93	1098.18
741.26	1091.86
741.59	1093.97
741.92	1087.88
742.25	1087.88
742.58	1092.56
742.91	1096.54
743.25	1108.01
743.58	1110.12
743.91	1103.80
744.24	1110.12
744.57	1108.24
744.90	1085.31
745.23	1089.52
745.56	1089.52
745.89	1086.94
746.22	1076.65
746.55	1070.56
746.88	1069.62
747.21	1075.24
747.54	1065.18
747.87	1068.92
748.20	1083.43
748.53	1076.88
748.87	1086.01
749.20	1094.90
749.53	1105.90
749.86	1097.71
750.19	1105.44
750.52	1101.22
750.85	1085.07
751.18	1083.20
751.51	1092.56
751.84	1090.46
752.16	1087.88
752.49	1098.88
752.82	1095.60
753.15	1099.12
753.48	1102.39
753.81	1105.67
754.14	1098.41
754.47	1100.52
754.80	1097.71
755.13	1089.99
755.46	1083.20
755.79	1082.26
756.12	1087.88
756.45	1086.48
756.78	1089.52
757.11	1089.99
757.43	1091.16
757.76	1084.84
758.09	1081.80
758.42	1079.69
758.75	1075.24
759.08	1076.18
759.41	1070.33
759.74	1076.41
760.07	1072.67
760.39	1085.77
760.72	1088.12
761.05	1086.71
761.38	1086.71
761.71	1088.35
762.04	1070.33
762.36	1067.28
762.69	1074.31
763.02	1065.88
763.35	1072.20
763.68	1083.67
764.01	1089.75
