SpectraSuite Data File
++++++++++++++++++++++++++++++++++++
Date: Mon Aug 26 10:24:35 PDT 2019
User: corrico
Dark Spectrum Present: No
Reference Spectrum Present: No
Number of Sampled Component Spectra: 1
Spectrometers: USB2+H06089
Integration Time (usec): 10000 (USB2+H06089)
Spectra Averaged: 2 (USB2+H06089)
Boxcar Smoothing: 2 (USB2+H06089)
Correct for Electrical Dark: No (USB2+H06089)
Strobe/Lamp Enabled: No (USB2+H06089)
Correct for Detector Non-linearity: No (USB2+H06089)
Correct for Stray Light: No (USB2+H06089)
Number of Pixels in Processed Spectrum: 2048
>>>>>Begin Processed Spectral Data<<<<<
339.70	1026.32
340.07	1026.32
340.45	998.94
340.82	973.90
341.19	949.09
341.57	932.94
341.94	918.66
342.31	918.19
342.69	921.00
343.06	917.96
343.43	912.81
343.81	906.02
344.18	909.53
344.55	902.98
344.93	912.11
345.30	923.58
345.67	931.53
346.04	930.60
346.42	952.13
346.79	952.36
347.16	960.56
347.54	969.92
347.91	980.45
348.28	988.41
348.65	1001.52
349.03	1001.98
349.40	1011.35
349.77	1012.05
350.14	1021.64
350.52	1036.62
350.89	1051.60
351.26	1057.69
351.63	1070.80
352.01	1066.35
352.38	1065.41
352.75	1058.39
353.12	1069.86
353.50	1074.07
353.87	1078.99
354.24	1083.90
354.61	1078.75
354.98	1080.39
355.36	1072.90
355.73	1077.58
356.10	1072.43
356.47	1084.14
356.84	1080.63
357.22	1092.56
357.59	1082.73
357.96	1088.58
358.33	1084.84
358.70	1082.50
359.08	1078.28
359.45	1087.88
359.82	1079.69
360.19	1078.28
360.56	1075.24
360.94	1075.71
361.31	1071.73
361.68	1071.50
362.05	1076.88
362.42	1087.18
362.79	1089.99
363.16	1081.80
363.54	1085.31
363.91	1082.73
364.28	1079.92
364.65	1063.31
365.02	1067.28
365.39	1069.86
365.76	1064.24
366.14	1046.69
366.51	1054.65
366.88	1050.90
367.25	1050.20
367.62	1051.13
367.99	1063.31
368.36	1064.48
368.73	1074.77
369.10	1078.99
369.48	1091.39
369.85	1098.65
370.22	1099.12
370.59	1098.18
370.96	1089.99
371.33	1081.56
371.70	1086.01
372.07	1085.31
372.44	1078.99
372.81	1083.67
373.18	1073.60
373.55	1061.67
373.93	1069.39
374.30	1068.22
374.67	1072.20
375.04	1081.33
375.41	1070.56
375.78	1066.82
376.15	1066.11
376.52	1064.48
376.89	1069.86
377.26	1083.43
377.63	1083.67
378.00	1088.58
378.37	1082.73
378.74	1068.45
379.11	1071.73
379.48	1060.26
379.85	1052.77
380.22	1053.94
380.59	1067.75
380.96	1063.07
381.33	1069.86
381.70	1078.28
382.07	1077.35
382.44	1070.09
382.81	1074.77
383.18	1089.05
383.55	1092.80
383.92	1108.71
384.29	1112.69
384.66	1109.88
385.03	1098.18
385.40	1093.03
385.77	1074.54
386.14	1069.86
386.51	1066.82
386.88	1061.43
387.25	1061.20
387.62	1070.09
387.99	1077.11
388.36	1084.37
388.73	1080.86
389.10	1089.75
389.46	1084.60
389.83	1078.99
390.20	1072.90
390.57	1082.26
390.94	1067.28
391.31	1071.26
391.68	1076.65
392.05	1084.84
392.42	1084.14
392.79	1094.67
393.16	1102.39
393.53	1106.84
393.89	1104.03
394.26	1104.73
394.63	1097.95
395.00	1087.88
395.37	1085.77
395.74	1079.22
396.11	1091.86
396.48	1100.29
396.84	1101.46
397.21	1101.46
397.58	1100.52
397.95	1091.63
398.32	1089.99
398.69	1086.94
399.06	1087.18
399.42	1094.67
399.79	1093.03
400.16	1088.82
400.53	1090.69
400.90	1103.80
401.27	1101.22
401.64	1101.69
402.00	1105.67
402.37	1105.67
402.74	1095.37
403.11	1094.67
403.48	1103.56
403.84	1115.97
404.21	1118.78
404.58	1128.61
404.95	1135.16
405.32	1127.67
405.68	1124.63
406.05	1134.93
406.42	1131.65
406.79	1137.03
407.16	1145.22
407.52	1156.22
407.89	1167.23
408.26	1176.35
408.63	1180.33
408.99	1207.72
409.36	1205.38
409.73	1207.48
410.10	1221.29
410.47	1242.12
410.83	1238.14
411.20	1251.25
411.57	1264.12
411.94	1276.29
412.30	1288.70
412.67	1305.08
413.04	1325.68
413.40	1349.08
413.77	1364.77
414.14	1386.53
414.51	1417.19
414.87	1454.17
415.24	1471.73
415.61	1506.84
415.97	1542.18
416.34	1581.27
416.71	1599.99
417.08	1645.86
417.44	1682.61
417.81	1712.34
418.18	1745.34
418.54	1799.40
418.91	1851.36
419.28	1906.83
419.64	1968.86
420.01	2042.12
420.38	2103.21
420.74	2174.59
421.11	2254.40
421.48	2330.71
421.84	2394.13
422.21	2476.52
422.58	2554.69
422.94	2638.95
423.31	2743.11
423.68	2847.73
424.04	2954.69
424.41	3055.10
424.77	3151.06
425.14	3250.77
425.51	3364.05
425.87	3482.25
426.24	3621.51
426.61	3769.20
426.97	3947.08
427.34	4118.87
427.70	4315.25
428.07	4497.57
428.44	4715.24
428.80	4907.40
429.17	5102.84
429.53	5292.89
429.90	5527.41
430.27	5735.25
430.63	5933.73
431.00	6179.72
431.36	6468.07
431.73	6703.53
432.09	6943.43
432.46	7214.23
432.83	7445.95
433.19	7658.23
433.56	7910.54
433.92	8157.47
434.29	8394.57
434.65	8650.85
435.02	8865.72
435.38	9102.58
435.75	9278.12
436.11	9503.51
436.48	9669.46
436.84	9898.13
437.21	10066.18
437.57	10241.95
437.94	10373.49
438.30	10555.82
438.67	10638.44
439.03	10717.78
439.40	10786.83
439.76	10813.74
440.13	10757.10
440.49	10763.19
440.86	10682.91
441.22	10619.48
441.59	10482.09
441.95	10404.15
442.32	10208.25
442.68	10052.83
443.05	9911.70
443.41	9779.23
443.78	9563.90
444.14	9359.57
444.51	9146.58
444.87	8942.48
445.24	8735.58
445.60	8557.00
445.96	8366.24
446.33	8182.75
446.69	7939.57
447.06	7718.85
447.42	7477.31
447.79	7287.96
448.15	7133.95
448.51	6973.39
448.88	6862.92
449.24	6723.89
449.61	6587.44
449.97	6426.17
450.33	6294.64
450.70	6103.88
451.06	5961.58
451.43	5797.98
451.79	5643.27
452.15	5473.58
452.52	5340.40
452.88	5238.82
453.24	5143.09
453.61	5057.90
453.97	4968.49
454.34	4858.72
454.70	4737.48
455.06	4614.13
455.43	4479.55
455.79	4354.10
456.15	4243.86
456.52	4152.34
456.88	4080.72
457.24	3981.72
457.61	3903.55
457.97	3824.20
458.33	3733.62
458.70	3635.79
459.06	3544.04
459.42	3477.33
459.79	3395.18
460.15	3301.09
460.51	3208.64
460.88	3151.53
461.24	3051.59
461.60	2997.76
461.96	2937.14
462.33	2884.71
462.69	2807.71
463.05	2763.24
463.42	2699.11
463.78	2635.21
464.14	2577.40
464.50	2536.67
464.87	2487.99
465.23	2421.52
465.59	2391.56
465.95	2347.79
466.32	2313.39
466.68	2268.45
467.04	2252.30
467.40	2205.49
467.77	2182.32
468.13	2154.23
468.49	2132.46
468.85	2095.95
469.22	2075.59
469.58	2045.63
469.94	2021.99
470.30	1998.58
470.66	1974.24
471.03	1960.43
471.39	1943.58
471.75	1911.75
472.11	1889.05
472.47	1857.92
472.84	1816.72
473.20	1785.36
473.56	1789.57
473.92	1773.19
474.28	1767.34
474.65	1753.30
475.01	1755.17
475.37	1723.57
475.73	1692.21
476.09	1678.63
476.45	1674.89
476.81	1643.76
477.18	1621.99
477.54	1616.61
477.90	1609.82
478.26	1596.71
478.62	1586.18
478.98	1571.20
479.34	1563.71
479.71	1548.03
480.07	1523.22
480.43	1517.37
480.79	1507.54
481.15	1488.35
481.51	1470.56
481.87	1475.01
482.23	1464.47
482.59	1458.15
482.96	1460.03
483.32	1467.28
483.68	1461.90
484.04	1449.49
484.40	1449.26
484.76	1446.69
485.12	1423.98
485.48	1404.32
485.84	1396.13
486.20	1383.49
486.56	1373.19
486.92	1362.66
487.28	1351.66
487.64	1342.30
488.00	1341.36
488.37	1333.40
488.73	1335.28
489.09	1335.51
489.45	1328.72
489.81	1313.98
490.17	1300.40
490.53	1291.51
490.89	1283.08
491.25	1276.29
491.61	1267.40
491.97	1264.36
492.33	1262.95
492.69	1260.38
493.05	1264.59
493.41	1265.76
493.77	1252.42
494.13	1245.16
494.49	1235.10
494.85	1223.87
495.21	1216.61
495.57	1227.61
495.93	1224.10
496.29	1231.12
496.64	1226.44
497.00	1233.93
497.36	1221.76
497.72	1210.99
498.08	1200.93
498.44	1199.76
498.80	1182.44
499.16	1178.93
499.52	1185.48
499.88	1199.52
500.24	1197.89
500.60	1211.70
500.96	1204.44
501.32	1199.76
501.68	1180.33
502.03	1171.67
502.39	1155.29
502.75	1160.44
503.11	1161.37
503.47	1169.57
503.83	1171.67
504.19	1175.42
504.55	1176.82
504.91	1169.33
505.26	1160.44
505.62	1156.46
505.98	1147.10
506.34	1138.90
506.70	1138.20
507.06	1137.73
507.42	1141.95
507.78	1139.61
508.13	1127.90
508.49	1129.31
508.85	1126.03
509.21	1122.99
509.57	1126.27
509.93	1135.63
510.28	1125.56
510.64	1129.78
511.00	1131.41
511.36	1124.39
511.72	1126.73
512.07	1126.03
512.43	1107.54
512.79	1111.99
513.15	1116.44
513.51	1114.33
513.86	1125.80
514.22	1132.35
514.58	1122.05
514.94	1116.20
515.30	1121.58
515.65	1121.12
516.01	1122.99
516.37	1115.73
516.73	1126.27
517.08	1116.20
517.44	1103.80
517.80	1110.82
518.16	1111.99
518.51	1106.84
518.87	1109.65
519.23	1127.67
519.59	1120.41
519.94	1129.31
520.30	1122.75
520.66	1128.61
521.01	1107.54
521.37	1110.58
521.73	1105.20
522.09	1101.92
522.44	1090.22
522.80	1094.90
523.16	1098.18
523.51	1093.03
523.87	1093.03
524.23	1090.22
524.58	1095.60
524.94	1094.90
525.30	1099.12
525.65	1105.90
526.01	1111.05
526.37	1106.37
526.72	1101.69
527.08	1101.46
527.44	1099.12
527.79	1093.50
528.15	1093.50
528.51	1097.24
528.86	1097.71
529.22	1096.31
529.58	1102.39
529.93	1105.90
530.29	1094.90
530.65	1088.82
531.00	1082.03
531.36	1077.35
531.71	1077.11
532.07	1082.26
532.43	1075.71
532.78	1083.20
533.14	1087.18
533.49	1079.22
533.85	1074.54
534.21	1091.63
534.56	1093.26
534.92	1078.75
535.27	1089.75
535.63	1085.07
535.98	1076.18
536.34	1082.03
536.69	1091.16
537.05	1084.14
537.41	1097.48
537.76	1100.99
538.12	1096.54
538.47	1106.84
538.83	1105.67
539.18	1104.03
539.54	1097.01
539.89	1102.39
540.25	1086.71
540.60	1092.56
540.96	1084.84
541.31	1101.46
541.67	1092.33
542.02	1100.52
542.38	1098.18
542.73	1095.37
543.09	1081.80
543.44	1079.92
543.80	1069.39
544.15	1065.65
544.51	1076.88
544.86	1082.26
545.22	1086.24
545.57	1096.07
545.93	1095.84
546.28	1091.16
546.64	1080.63
546.99	1078.75
547.35	1082.97
547.70	1081.80
548.05	1086.94
548.41	1091.39
548.76	1089.99
549.12	1083.67
549.47	1087.41
549.83	1080.63
550.18	1094.67
550.53	1095.14
550.89	1093.97
551.24	1084.60
551.60	1083.43
551.95	1063.07
552.30	1064.24
552.66	1058.16
553.01	1066.82
553.37	1072.43
553.72	1078.75
554.07	1075.94
554.43	1086.71
554.78	1079.22
555.13	1070.33
555.49	1078.28
555.84	1088.35
556.19	1090.69
556.55	1085.31
556.90	1093.73
557.26	1085.77
557.61	1081.80
557.96	1078.05
558.32	1090.46
558.67	1084.60
559.02	1083.90
559.37	1088.58
559.73	1092.09
560.08	1092.80
560.43	1099.58
560.79	1108.95
561.14	1100.99
561.49	1098.41
561.85	1104.50
562.20	1096.78
562.55	1096.31
562.90	1100.99
563.26	1107.78
563.61	1098.88
563.96	1103.09
564.32	1107.31
564.67	1112.69
565.02	1102.16
565.37	1107.07
565.73	1109.18
566.08	1099.82
566.43	1088.12
566.78	1087.65
567.14	1090.46
567.49	1096.54
567.84	1096.54
568.19	1097.48
568.54	1100.99
568.90	1091.86
569.25	1078.99
569.60	1071.73
569.95	1076.18
570.31	1077.82
570.66	1076.65
571.01	1075.48
571.36	1078.75
571.71	1087.41
572.06	1082.03
572.42	1087.41
572.77	1091.39
573.12	1088.12
573.47	1079.69
573.82	1083.43
574.18	1082.26
574.53	1091.16
574.88	1101.22
575.23	1093.97
575.58	1089.05
575.93	1093.73
576.28	1089.29
576.64	1091.16
576.99	1100.52
577.34	1103.80
577.69	1090.69
578.04	1085.07
578.39	1070.09
578.74	1061.43
579.09	1056.28
579.44	1062.14
579.80	1062.60
580.15	1075.01
580.50	1078.28
580.85	1088.82
581.20	1093.97
581.55	1096.07
581.90	1097.24
582.25	1092.09
582.60	1083.90
582.95	1078.28
583.30	1077.11
583.65	1071.97
584.00	1076.41
584.35	1081.09
584.71	1071.26
585.06	1079.69
585.41	1086.01
585.76	1092.09
586.11	1100.29
586.46	1099.12
586.81	1097.95
587.16	1097.01
587.51	1090.69
587.86	1079.92
588.21	1085.31
588.56	1081.80
588.91	1084.60
589.26	1077.82
589.61	1085.31
589.96	1085.77
590.31	1083.20
590.66	1075.48
591.01	1085.07
591.36	1083.90
591.71	1072.67
592.06	1080.39
592.41	1079.69
592.76	1080.39
593.10	1072.90
593.45	1082.73
593.80	1071.50
594.15	1071.03
594.50	1061.90
594.85	1071.73
595.20	1088.12
595.55	1100.29
595.90	1101.92
596.25	1104.73
596.60	1095.37
596.95	1079.22
597.30	1068.45
597.64	1115.27
597.99	1122.29
598.34	1127.20
598.69	1130.01
599.04	1126.27
599.39	1078.99
599.74	1076.18
600.09	1078.05
600.44	1089.75
600.78	1090.92
601.13	1088.82
601.48	1085.54
601.83	1073.84
602.18	1062.84
602.53	1069.16
602.88	1068.92
603.22	1071.26
603.57	1069.16
603.92	1058.86
604.27	1059.33
604.62	1061.90
604.97	1057.92
605.31	1065.65
605.66	1078.28
606.01	1070.33
606.36	1078.99
606.71	1085.77
607.05	1086.48
607.40	1091.86
607.75	1099.12
608.10	1085.54
608.44	1078.05
608.79	1080.63
609.14	1079.46
609.49	1081.09
609.84	1078.99
610.18	1083.20
610.53	1084.84
610.88	1078.05
611.23	1075.71
611.57	1090.46
611.92	1091.16
612.27	1086.01
612.62	1087.65
612.96	1081.33
613.31	1067.28
613.66	1067.28
614.00	1065.88
614.35	1066.11
614.70	1071.50
615.05	1086.48
615.39	1083.90
615.74	1081.56
616.09	1079.46
616.43	1073.60
616.78	1056.28
617.13	1063.54
617.47	1066.82
617.82	1063.07
618.17	1075.48
618.51	1086.48
618.86	1086.01
619.21	1092.80
619.55	1093.50
619.90	1086.24
620.25	1093.03
620.59	1080.16
620.94	1068.92
621.29	1072.20
621.63	1069.16
621.98	1062.84
622.32	1070.56
622.67	1081.09
623.02	1085.31
623.36	1089.52
623.71	1091.39
624.05	1091.39
624.40	1090.22
624.75	1089.99
625.09	1084.84
625.44	1075.71
625.78	1072.20
626.13	1067.75
626.48	1065.18
626.82	1065.88
627.17	1075.71
627.51	1085.07
627.86	1085.31
628.20	1075.94
628.55	1080.63
628.89	1079.22
629.24	1067.05
629.58	1065.41
629.93	1083.43
630.28	1079.46
630.62	1078.05
630.97	1081.80
631.31	1087.18
631.66	1075.24
632.00	1074.31
632.35	1073.14
632.69	1077.35
633.04	1084.84
633.38	1100.29
633.73	1102.16
634.07	1105.44
634.42	1104.03
634.76	1096.54
635.11	1080.63
635.45	1080.39
635.79	1078.05
636.14	1075.24
636.48	1080.86
636.83	1080.86
637.17	1078.75
637.52	1077.58
637.86	1083.67
638.21	1078.75
638.55	1083.43
638.89	1079.69
639.24	1082.26
639.58	1075.01
639.93	1075.71
640.27	1078.52
640.61	1078.28
640.96	1064.01
641.30	1059.33
641.65	1056.52
641.99	1054.18
642.33	1065.65
642.68	1069.16
643.02	1082.26
643.37	1085.07
643.71	1083.67
644.05	1079.46
644.40	1081.80
644.74	1073.37
645.08	1072.67
645.43	1073.60
645.77	1071.73
646.11	1074.77
646.46	1075.01
646.80	1076.18
647.14	1088.58
647.49	1093.03
647.83	1094.67
648.17	1095.84
648.52	1087.18
648.86	1061.43
649.20	1056.05
649.55	1058.62
649.89	1056.75
650.23	1062.84
650.57	1075.24
650.92	1085.07
651.26	1086.24
651.60	1097.95
651.95	1093.97
652.29	1103.56
652.63	1100.05
652.97	1090.92
653.32	1076.41
653.66	1084.37
654.00	1073.14
654.34	1078.05
654.69	1082.73
655.03	1094.90
655.37	1096.07
655.71	1102.16
656.05	1101.46
656.40	1103.09
656.74	1085.07
657.08	1075.01
657.42	1071.97
657.76	1064.24
658.11	1061.20
658.45	1078.99
658.79	1084.60
659.13	1081.33
659.47	1080.39
659.82	1086.24
660.16	1079.92
660.50	1074.54
660.84	1079.22
661.18	1074.77
661.52	1068.22
661.87	1062.37
662.21	1058.39
662.55	1058.62
662.89	1070.33
663.23	1084.60
663.57	1096.31
663.91	1106.37
664.25	1103.33
664.60	1104.03
664.94	1096.07
665.28	1090.69
665.62	1082.26
665.96	1082.26
666.30	1068.69
666.64	1062.14
666.98	1071.03
667.32	1079.46
667.66	1086.01
668.01	1097.71
668.35	1100.52
668.69	1088.12
669.03	1082.73
669.37	1082.97
669.71	1074.54
670.05	1063.07
670.39	1054.65
670.73	1060.73
671.07	1053.01
671.41	1054.41
671.75	1062.14
672.09	1077.35
672.43	1068.92
672.77	1067.05
673.11	1064.48
673.45	1067.52
673.79	1055.11
674.13	1049.03
674.47	1048.09
674.81	1052.30
675.15	1048.56
675.49	1049.26
675.83	1054.65
676.17	1056.05
676.51	1052.77
676.85	1046.45
677.19	1049.26
677.53	1056.75
677.87	1056.05
678.21	1065.65
678.55	1074.54
678.89	1075.48
679.23	1074.31
679.57	1080.63
679.90	1073.37
680.24	1077.11
680.58	1082.26
680.92	1087.88
681.26	1086.48
681.60	1102.39
681.94	1097.24
682.28	1096.07
682.62	1090.69
682.96	1089.05
683.29	1076.88
683.63	1080.16
683.97	1081.56
684.31	1074.54
684.65	1071.26
684.99	1066.82
685.33	1074.31
685.67	1072.90
686.00	1085.31
686.34	1088.12
686.68	1085.77
687.02	1082.73
687.36	1079.69
687.70	1071.97
688.03	1081.33
688.37	1081.56
688.71	1068.92
689.05	1075.48
689.39	1080.86
689.72	1070.33
690.06	1073.37
690.40	1080.39
690.74	1081.80
691.08	1075.01
691.41	1076.65
691.75	1078.75
692.09	1082.03
692.43	1079.69
692.76	1084.60
693.10	1082.03
693.44	1082.73
693.78	1078.52
694.11	1078.28
694.45	1084.14
694.79	1091.39
695.13	1095.37
695.46	1099.82
695.80	1090.69
696.14	1088.12
696.48	1084.84
696.81	1076.88
697.15	1080.63
697.49	1084.60
697.82	1091.63
698.16	1087.18
698.50	1096.78
698.83	1086.94
699.17	1095.60
699.51	1085.77
699.84	1089.75
700.18	1088.35
700.52	1094.43
700.85	1092.80
701.19	1091.16
701.53	1093.97
701.86	1091.16
702.20	1095.14
702.54	1088.82
702.87	1090.69
703.21	1084.60
703.55	1092.56
703.88	1091.39
704.22	1096.31
704.55	1090.46
704.89	1091.39
705.23	1085.07
705.56	1083.67
705.90	1079.69
706.23	1080.86
706.57	1078.05
706.91	1076.88
707.24	1083.90
707.58	1086.71
707.91	1098.18
708.25	1101.46
708.58	1097.95
708.92	1090.92
709.26	1100.99
709.59	1096.54
709.93	1099.12
710.26	1101.46
710.60	1103.56
710.93	1086.71
711.27	1084.14
711.60	1079.69
711.94	1063.31
712.27	1058.39
712.61	1056.52
712.94	1049.96
713.28	1052.54
713.61	1077.11
713.95	1066.58
714.28	1069.39
714.62	1078.28
714.95	1083.43
715.29	1070.33
715.62	1075.94
715.96	1075.24
716.29	1071.26
716.63	1064.24
716.96	1076.41
717.29	1079.69
717.63	1075.94
717.96	1071.50
718.30	1078.99
718.63	1063.31
718.97	1063.07
719.30	1060.96
719.63	1065.65
719.97	1051.84
720.30	1061.43
720.64	1056.28
720.97	1071.97
721.30	1074.77
721.64	1086.24
721.97	1077.58
722.31	1086.94
722.64	1079.92
722.97	1080.63
723.31	1077.11
723.64	1082.97
723.97	1080.39
724.31	1082.03
724.64	1078.52
724.98	1079.69
725.31	1074.77
725.64	1075.71
725.98	1073.60
726.31	1071.97
726.64	1075.24
726.97	1069.39
727.31	1068.45
727.64	1061.90
727.97	1061.90
728.31	1061.90
728.64	1062.84
728.97	1074.54
729.31	1086.01
729.64	1086.94
729.97	1076.88
730.30	1086.48
730.64	1074.07
730.97	1075.94
731.30	1072.20
731.63	1084.60
731.97	1089.99
732.30	1089.05
732.63	1088.58
732.96	1089.05
733.30	1080.63
733.63	1083.43
733.96	1080.16
734.29	1075.24
734.63	1079.92
734.96	1078.05
735.29	1076.65
735.62	1069.62
735.95	1076.18
736.29	1080.39
736.62	1082.97
736.95	1074.54
737.28	1085.31
737.61	1080.86
737.94	1074.77
738.28	1075.71
738.61	1082.03
738.94	1078.99
739.27	1075.48
739.60	1077.11
739.93	1076.18
740.27	1075.24
740.60	1080.63
740.93	1085.54
741.26	1097.48
741.59	1097.24
741.92	1087.18
742.25	1088.35
742.58	1086.01
742.91	1076.88
743.25	1084.37
743.58	1090.46
743.91	1097.95
744.24	1093.50
744.57	1089.52
744.90	1086.24
745.23	1093.03
745.56	1084.37
745.89	1080.63
746.22	1079.69
746.55	1081.56
746.88	1073.84
747.21	1069.86
747.54	1073.60
747.87	1081.80
748.20	1082.50
748.53	1081.33
748.87	1083.43
749.20	1091.16
749.53	1088.35
749.86	1086.01
750.19	1091.16
750.52	1097.01
750.85	1096.78
751.18	1096.54
751.51	1091.16
751.84	1091.39
752.16	1080.86
752.49	1085.31
752.82	1081.56
753.15	1091.86
753.48	1088.35
753.81	1103.56
754.14	1094.90
754.47	1097.95
754.80	1100.29
755.13	1100.99
755.46	1092.09
755.79	1091.16
756.12	1083.90
756.45	1070.09
756.78	1072.20
757.11	1072.43
757.43	1069.86
757.76	1070.80
758.09	1072.67
758.42	1065.41
758.75	1066.11
759.08	1060.73
759.41	1057.69
759.74	1056.99
760.07	1059.56
760.39	1044.58
760.72	1061.20
761.05	1067.99
761.38	1079.69
761.71	1085.31
762.04	1099.82
762.36	1092.09
762.69	1085.54
763.02	1079.69
763.35	1074.07
763.68	1073.37
764.01	1072.67
764.33	1079.69
764.66	1083.43
764.99	1086.24
765.32	1090.22
765.65	1096.54
765.97	1112.69
