SpectraSuite Data File
++++++++++++++++++++++++++++++++++++
Date: Mon Aug 26 10:24:37 PDT 2019
User: corrico
Dark Spectrum Present: No
Reference Spectrum Present: No
Number of Sampled Component Spectra: 1
Spectrometers: USB2+H06089
Integration Time (usec): 10000 (USB2+H06089)
Spectra Averaged: 2 (USB2+H06089)
Boxcar Smoothing: 2 (USB2+H06089)
Correct for Electrical Dark: No (USB2+H06089)
Strobe/Lamp Enabled: No (USB2+H06089)
Correct for Detector Non-linearity: No (USB2+H06089)
Correct for Stray Light: No (USB2+H06089)
Number of Pixels in Processed Spectrum: 2048
>>>>>Begin Processed Spectral Data<<<<<
339.70	1035.69
340.07	1035.69
340.45	1005.26
340.82	983.02
341.19	961.49
341.57	931.07
341.94	917.49
342.31	906.96
342.69	899.94
343.06	884.96
343.43	884.96
343.81	896.89
344.18	908.83
344.55	913.98
344.93	930.13
345.30	937.38
345.67	929.89
346.04	930.60
346.42	944.64
346.79	948.62
347.16	955.64
347.54	961.73
347.91	965.00
348.28	969.68
348.65	982.56
349.03	992.39
349.40	1020.94
349.77	1038.03
350.14	1051.37
350.52	1060.50
350.89	1065.41
351.26	1059.79
351.63	1070.09
352.01	1075.24
352.38	1078.05
352.75	1091.63
353.12	1095.84
353.50	1092.56
353.87	1086.01
354.24	1092.80
354.61	1092.33
354.98	1091.63
355.36	1090.46
355.73	1106.61
356.10	1101.46
356.47	1100.75
356.84	1103.80
357.22	1101.92
357.59	1096.31
357.96	1089.52
358.33	1086.24
358.70	1093.73
359.08	1093.73
359.45	1087.18
359.82	1096.54
360.19	1110.82
360.56	1105.90
360.94	1114.56
361.31	1126.27
361.68	1129.31
362.05	1119.01
362.42	1115.27
362.79	1107.78
363.16	1100.05
363.54	1100.05
363.91	1094.90
364.28	1089.05
364.65	1093.50
365.02	1086.71
365.39	1082.73
365.76	1076.65
366.14	1085.07
366.51	1077.58
366.88	1097.48
367.25	1095.14
367.62	1101.92
367.99	1096.54
368.36	1107.54
368.73	1094.20
369.10	1098.41
369.48	1099.35
369.85	1094.67
370.22	1087.41
370.59	1086.24
370.96	1085.31
371.33	1089.29
371.70	1103.33
372.07	1105.90
372.44	1094.90
372.81	1092.09
373.18	1093.50
373.55	1087.41
373.93	1083.20
374.30	1094.90
374.67	1090.69
375.04	1080.86
375.41	1089.75
375.78	1092.56
376.15	1093.50
376.52	1101.92
376.89	1110.58
377.26	1105.20
377.63	1107.31
378.00	1110.35
378.37	1118.07
378.74	1122.05
379.11	1122.75
379.48	1130.48
379.85	1123.69
380.22	1111.75
380.59	1111.29
380.96	1106.37
381.33	1097.01
381.70	1104.26
382.07	1114.56
382.44	1115.50
382.81	1113.16
383.18	1116.67
383.55	1122.52
383.92	1111.29
384.29	1105.44
384.66	1112.92
385.03	1109.88
385.40	1103.09
385.77	1111.75
386.14	1112.69
386.51	1112.22
386.88	1115.73
387.25	1113.16
387.62	1110.58
387.99	1117.61
388.36	1119.71
388.73	1136.10
389.10	1133.05
389.46	1132.82
389.83	1133.05
390.20	1136.33
390.57	1120.65
390.94	1126.27
391.31	1132.59
391.68	1135.39
392.05	1133.99
392.42	1141.48
392.79	1146.63
393.16	1143.59
393.53	1141.25
393.89	1140.78
394.26	1133.52
394.63	1133.76
395.00	1137.97
395.37	1132.35
395.74	1128.84
396.11	1137.97
396.48	1137.03
396.84	1132.82
397.21	1139.14
397.58	1149.91
397.95	1146.63
398.32	1143.12
398.69	1151.54
399.06	1163.25
399.42	1169.80
399.79	1174.25
400.16	1197.42
400.53	1201.16
400.90	1203.27
401.27	1193.44
401.64	1198.82
402.00	1198.82
402.37	1219.19
402.74	1219.89
403.11	1232.06
403.48	1242.59
403.84	1257.80
404.21	1264.36
404.58	1297.12
404.95	1325.91
405.32	1346.98
405.68	1355.17
406.05	1362.66
406.42	1371.09
406.79	1387.94
407.16	1407.36
407.52	1442.00
407.89	1478.98
408.26	1508.24
408.63	1547.80
408.99	1588.29
409.36	1632.76
409.73	1681.21
410.10	1735.51
410.47	1786.06
410.83	1848.09
411.20	1905.90
411.57	1987.35
411.94	2065.29
412.30	2142.99
412.67	2221.87
413.04	2309.41
413.40	2380.56
413.77	2474.65
414.14	2586.53
414.51	2715.96
414.87	2835.56
415.24	2983.95
415.61	3136.08
415.97	3276.28
416.34	3434.97
416.71	3614.02
417.08	3823.97
417.44	4017.53
417.81	4258.84
418.18	4502.96
418.54	4773.76
418.91	5030.98
419.28	5345.78
419.64	5650.76
420.01	5973.75
420.38	6312.42
420.74	6668.42
421.11	7044.08
421.48	7430.50
421.84	7856.71
422.21	8249.69
422.58	8729.50
422.94	9207.67
423.31	9720.95
423.68	10309.12
424.04	10968.22
424.41	11550.78
424.77	12160.02
425.14	12817.01
425.51	13454.57
425.87	14180.60
426.24	14934.72
426.61	15865.32
426.97	16859.35
427.34	17810.77
427.70	18868.23
428.07	19935.04
428.44	20967.92
428.80	22017.65
429.17	23103.19
429.53	24137.01
429.90	25342.62
430.27	26418.56
430.63	27430.14
431.00	28736.86
431.36	30122.46
431.73	31390.56
432.09	32774.99
432.46	34253.27
432.83	35564.67
433.19	36758.35
433.56	38220.71
433.92	39735.98
434.29	41180.56
434.65	42540.41
435.02	43914.54
435.38	45061.63
435.75	45815.75
436.11	46940.85
436.48	48017.03
436.84	49066.52
437.21	50013.27
437.57	51125.02
437.94	51858.55
438.30	52452.34
438.67	52613.84
439.03	52770.89
439.40	52895.17
439.76	52771.59
440.13	52533.09
440.49	52595.11
440.86	52234.91
441.22	51761.88
441.59	51067.68
441.95	50424.27
442.32	49430.24
442.68	48754.30
443.05	47873.55
443.41	47041.26
443.78	46085.85
444.14	45202.30
444.51	43974.22
444.87	43063.75
445.24	41880.38
445.60	40743.11
445.96	39538.67
446.33	38561.50
446.69	37305.80
447.06	36361.86
447.42	35370.88
447.79	34248.36
448.15	33267.44
448.51	32319.52
448.88	31454.69
449.24	30425.09
449.61	29770.21
449.97	28958.51
450.33	28203.22
450.70	27275.20
451.06	26604.40
451.43	25838.58
451.79	25266.79
452.15	24746.72
452.52	24208.16
452.88	23697.69
453.24	23193.07
453.61	22574.94
453.97	21892.43
454.34	21311.75
454.70	20718.66
455.06	20118.54
455.43	19399.06
455.79	18640.49
456.15	18073.15
456.52	17413.12
456.88	16849.05
457.24	16283.34
457.61	15839.34
457.97	15283.46
458.33	14763.16
458.70	14209.39
459.06	13711.09
459.42	13264.75
459.79	12803.43
460.15	12394.77
460.51	11968.10
460.88	11558.74
461.24	11101.63
461.60	10732.06
461.96	10384.72
462.33	10061.03
462.69	9764.25
463.05	9480.11
463.42	9198.31
463.78	8901.99
464.14	8580.40
464.50	8343.78
464.87	8069.93
465.23	7837.99
465.59	7633.89
465.95	7466.31
466.32	7207.21
466.68	7039.63
467.04	6833.43
467.40	6627.46
467.77	6430.39
468.13	6284.81
468.49	6130.33
468.85	5975.15
469.22	5856.02
469.58	5752.10
469.94	5655.67
470.30	5533.03
470.66	5443.15
471.03	5334.78
471.39	5217.99
471.75	5088.09
472.11	4964.04
472.47	4849.36
472.84	4725.78
473.20	4602.66
473.56	4510.68
473.92	4423.85
474.28	4348.25
474.65	4276.39
475.01	4219.99
475.37	4135.73
475.73	4067.62
476.09	3992.72
476.45	3891.84
476.81	3784.65
477.18	3699.92
477.54	3623.38
477.90	3525.55
478.26	3460.72
478.62	3407.35
478.98	3354.92
479.34	3301.33
479.71	3256.39
480.07	3228.07
480.43	3177.51
480.79	3131.40
481.15	3066.57
481.51	3008.29
481.87	2937.84
482.23	2896.88
482.59	2835.79
482.96	2800.22
483.32	2761.36
483.68	2721.57
484.04	2687.64
484.40	2654.87
484.76	2629.12
485.12	2590.27
485.48	2551.42
485.84	2517.01
486.20	2481.20
486.56	2435.80
486.92	2413.56
487.28	2396.47
487.64	2353.41
488.00	2323.22
488.37	2282.96
488.73	2245.51
489.09	2194.95
489.45	2168.97
489.81	2135.04
490.17	2115.14
490.53	2087.99
490.89	2071.84
491.25	2044.69
491.61	2007.71
491.97	1976.58
492.33	1954.35
492.69	1941.01
493.05	1905.66
493.41	1887.64
493.77	1869.85
494.13	1841.30
494.49	1807.60
494.85	1801.04
495.21	1794.72
495.57	1760.32
495.93	1740.19
496.29	1717.72
496.64	1685.19
497.00	1661.08
497.36	1652.42
497.72	1644.46
498.08	1632.99
498.44	1633.93
498.80	1614.27
499.16	1595.78
499.52	1571.20
499.88	1552.01
500.24	1535.16
500.60	1528.37
500.96	1523.45
501.32	1525.09
501.68	1516.67
502.03	1497.94
502.39	1476.64
502.75	1465.41
503.11	1445.28
503.47	1435.68
503.83	1438.03
504.19	1436.85
504.55	1433.11
504.91	1423.98
505.26	1417.43
505.62	1399.64
505.98	1386.77
506.34	1365.47
506.70	1361.02
507.06	1348.62
507.42	1333.87
507.78	1332.70
508.13	1344.17
508.49	1329.89
508.85	1322.17
509.21	1330.36
509.57	1317.96
509.93	1299.00
510.28	1300.17
510.64	1299.70
511.00	1286.36
511.36	1271.38
511.72	1273.49
512.07	1267.87
512.43	1254.76
512.79	1250.31
513.15	1253.36
513.51	1240.95
513.86	1238.85
514.22	1244.70
514.58	1245.87
514.94	1240.95
515.30	1233.70
515.65	1235.33
516.01	1231.12
516.37	1223.63
516.73	1229.95
517.08	1233.70
517.44	1221.53
517.80	1219.42
518.16	1219.65
518.51	1219.89
518.87	1213.33
519.23	1210.29
519.59	1210.99
519.94	1207.72
520.30	1200.93
520.66	1211.23
521.01	1210.76
521.37	1202.57
521.73	1201.87
522.09	1196.95
522.44	1175.42
522.80	1172.61
523.16	1177.52
523.51	1172.14
523.87	1171.20
524.23	1181.27
524.58	1186.89
524.94	1167.69
525.30	1166.76
525.65	1151.08
526.01	1151.78
526.37	1142.65
526.72	1156.22
527.08	1162.31
527.44	1176.82
527.79	1163.48
528.15	1159.50
528.51	1152.25
528.86	1144.05
529.22	1145.46
529.58	1148.27
529.93	1148.27
530.29	1147.56
530.65	1152.25
531.00	1144.05
531.36	1141.48
531.71	1138.67
532.07	1146.86
532.43	1140.31
532.78	1138.90
533.14	1145.22
533.49	1143.82
533.85	1139.14
534.21	1132.12
534.56	1129.31
534.92	1126.50
535.27	1138.20
535.63	1134.93
535.98	1140.31
536.34	1148.27
536.69	1156.93
537.05	1154.12
537.41	1163.25
537.76	1159.97
538.12	1154.82
538.47	1144.99
538.83	1139.37
539.18	1126.97
539.54	1129.54
539.89	1125.10
540.25	1127.67
540.60	1130.48
540.96	1136.80
541.31	1129.31
541.67	1128.84
542.02	1120.41
542.38	1109.41
542.73	1109.41
543.09	1122.05
543.44	1128.61
543.80	1133.99
544.15	1141.95
544.51	1142.88
544.86	1146.16
545.22	1148.27
545.57	1146.63
545.93	1146.16
546.28	1149.91
546.64	1137.50
546.99	1134.93
547.35	1136.33
547.70	1137.97
548.05	1126.97
548.41	1126.27
548.76	1129.54
549.12	1130.48
549.47	1127.67
549.83	1130.24
550.18	1130.01
550.53	1125.33
550.89	1115.73
551.24	1116.20
551.60	1112.92
551.95	1113.63
552.30	1123.93
552.66	1137.03
553.01	1141.95
553.37	1141.95
553.72	1139.14
554.07	1125.80
554.43	1120.41
554.78	1115.73
555.13	1109.88
555.49	1119.24
555.84	1133.05
556.19	1132.35
556.55	1124.86
556.90	1118.31
557.26	1105.20
557.61	1096.78
557.96	1100.99
558.32	1097.71
558.67	1104.03
559.02	1110.58
559.37	1110.35
559.73	1096.07
560.08	1093.03
560.43	1109.65
560.79	1105.44
561.14	1094.20
561.49	1107.07
561.85	1118.07
562.20	1096.07
562.55	1104.26
562.90	1113.86
563.26	1112.92
563.61	1112.22
563.96	1117.37
564.32	1113.63
564.67	1112.92
565.02	1098.65
565.37	1097.24
565.73	1097.48
566.08	1095.60
566.43	1089.52
566.78	1094.43
567.14	1091.16
567.49	1097.48
567.84	1099.82
568.19	1102.86
568.54	1111.29
568.90	1116.67
569.25	1110.82
569.60	1111.75
569.95	1111.29
570.31	1111.29
570.66	1106.61
571.01	1117.84
571.36	1113.39
571.71	1115.50
572.06	1115.03
572.42	1122.99
572.77	1108.01
573.12	1116.20
573.47	1118.54
573.82	1119.48
574.18	1104.73
574.53	1109.41
574.88	1086.48
575.23	1081.56
575.58	1082.26
575.93	1083.20
576.28	1082.03
576.64	1094.20
576.99	1100.99
577.34	1099.12
577.69	1114.10
578.04	1111.29
578.39	1113.86
578.74	1113.63
579.09	1112.69
579.44	1101.46
579.80	1111.75
580.15	1117.84
580.50	1110.58
580.85	1111.29
581.20	1122.05
581.55	1116.20
581.90	1110.82
582.25	1116.20
582.60	1114.80
582.95	1110.58
583.30	1113.16
583.65	1105.67
584.00	1101.46
584.35	1097.24
584.71	1093.03
585.06	1086.71
585.41	1100.99
585.76	1108.24
586.11	1114.80
586.46	1119.71
586.81	1132.59
587.16	1131.41
587.51	1120.18
587.86	1111.29
588.21	1115.97
588.56	1108.71
588.91	1104.73
589.26	1114.80
589.61	1122.99
589.96	1119.01
590.31	1124.39
590.66	1117.14
591.01	1113.16
591.36	1110.82
591.71	1112.46
592.06	1103.33
592.41	1107.78
592.76	1102.63
593.10	1105.44
593.45	1099.35
593.80	1098.65
594.15	1100.52
594.50	1106.37
594.85	1101.22
595.20	1091.39
595.55	1101.92
595.90	1099.12
596.25	1102.86
596.60	1110.35
596.95	1112.69
597.30	1100.99
597.64	1154.12
597.99	1153.65
598.34	1154.82
598.69	1158.10
599.04	1160.67
599.39	1110.58
599.74	1108.71
600.09	1105.90
600.44	1109.18
600.78	1108.71
601.13	1106.14
601.48	1102.39
601.83	1099.58
602.18	1099.35
602.53	1100.52
602.88	1099.82
603.22	1097.01
603.57	1099.58
603.92	1099.12
604.27	1106.61
604.62	1098.65
604.97	1099.58
605.31	1098.88
605.66	1094.67
606.01	1080.16
606.36	1089.75
606.71	1086.48
607.05	1082.26
607.40	1088.82
607.75	1093.03
608.10	1092.33
608.44	1096.07
608.79	1104.73
609.14	1094.67
609.49	1093.50
609.84	1090.46
610.18	1095.14
610.53	1096.78
610.88	1106.61
611.23	1116.20
611.57	1123.93
611.92	1123.93
612.27	1114.56
612.62	1110.12
612.96	1110.82
613.31	1107.07
613.66	1097.01
614.00	1094.43
614.35	1096.54
614.70	1092.56
615.05	1095.37
615.39	1098.41
615.74	1090.69
616.09	1085.07
616.43	1081.56
616.78	1089.29
617.13	1093.97
617.47	1099.58
617.82	1108.24
618.17	1114.10
618.51	1108.24
618.86	1113.16
619.21	1113.63
619.55	1116.20
619.90	1115.50
620.25	1109.88
620.59	1107.78
620.94	1108.24
621.29	1109.18
621.63	1102.39
621.98	1093.03
622.32	1091.63
622.67	1089.99
623.02	1091.39
623.36	1093.50
623.71	1105.90
624.05	1097.01
624.40	1094.67
624.75	1090.46
625.09	1095.14
625.44	1084.84
625.78	1090.69
626.13	1096.31
626.48	1104.03
626.82	1104.73
627.17	1108.48
627.51	1109.18
627.86	1111.75
628.20	1102.39
628.55	1103.09
628.89	1108.01
629.24	1099.12
629.58	1097.24
629.93	1097.01
630.28	1085.77
630.62	1092.56
630.97	1096.31
631.31	1097.48
631.66	1096.31
632.00	1100.52
632.35	1085.07
632.69	1091.63
633.04	1086.48
633.38	1080.86
633.73	1087.65
634.07	1096.78
634.42	1090.46
634.76	1097.24
635.11	1108.71
635.45	1099.82
635.79	1096.54
636.14	1096.07
636.48	1094.20
636.83	1089.75
637.17	1103.80
637.52	1105.20
637.86	1107.31
638.21	1107.54
638.55	1092.33
638.89	1081.80
639.24	1071.97
639.58	1079.92
639.93	1072.67
640.27	1086.01
640.61	1095.84
640.96	1105.90
641.30	1104.73
641.65	1108.24
641.99	1102.39
642.33	1088.35
642.68	1089.05
643.02	1084.37
643.37	1085.54
643.71	1080.39
644.05	1086.71
644.40	1082.03
644.74	1082.26
645.08	1080.63
645.43	1089.99
645.77	1080.63
646.11	1082.73
646.46	1088.35
646.80	1091.63
647.14	1092.09
647.49	1095.37
647.83	1098.65
648.17	1097.24
648.52	1096.54
648.86	1100.75
649.20	1106.37
649.55	1111.05
649.89	1109.18
650.23	1108.24
650.57	1111.29
650.92	1105.20
651.26	1099.58
651.60	1092.33
651.95	1088.12
652.29	1092.80
652.63	1099.35
652.97	1095.37
653.32	1095.84
653.66	1094.20
654.00	1074.77
654.34	1070.80
654.69	1071.50
655.03	1073.37
655.37	1082.26
655.71	1090.46
656.05	1094.43
656.40	1094.20
656.74	1091.39
657.08	1089.52
657.42	1083.67
657.76	1083.20
658.11	1091.39
658.45	1096.54
658.79	1089.99
659.13	1099.82
659.47	1102.63
659.82	1085.31
660.16	1095.60
660.50	1100.75
660.84	1095.60
661.18	1077.82
661.52	1079.69
661.87	1065.88
662.21	1061.20
662.55	1062.60
662.89	1077.58
663.23	1084.14
663.57	1087.88
663.91	1100.99
664.25	1099.58
664.60	1102.63
664.94	1104.03
665.28	1104.26
665.62	1097.95
665.96	1097.95
666.30	1093.97
666.64	1094.20
666.98	1095.37
667.32	1089.99
667.66	1087.65
668.01	1078.05
668.35	1079.69
668.69	1071.73
669.03	1063.77
669.37	1070.33
669.71	1082.97
670.05	1074.54
670.39	1079.92
670.73	1086.24
671.07	1080.86
671.41	1079.69
671.75	1083.90
672.09	1078.05
672.43	1087.88
672.77	1095.84
673.11	1094.67
673.45	1100.52
673.79	1110.58
674.13	1107.31
674.47	1091.86
674.81	1093.03
675.15	1093.26
675.49	1084.14
675.83	1093.26
676.17	1106.61
676.51	1095.37
676.85	1092.33
677.19	1099.58
677.53	1092.09
677.87	1086.01
678.21	1100.52
678.55	1099.82
678.89	1106.37
679.23	1108.01
679.57	1116.67
679.90	1108.48
680.24	1112.22
680.58	1104.26
680.92	1097.01
681.26	1086.24
681.60	1098.65
681.94	1093.03
682.28	1084.14
682.62	1082.26
682.96	1085.07
683.29	1075.48
683.63	1076.18
683.97	1076.88
684.31	1080.39
684.65	1077.58
684.99	1065.65
685.33	1067.28
685.67	1071.73
686.00	1079.69
686.34	1083.67
686.68	1092.80
687.02	1089.29
687.36	1088.82
687.70	1087.18
688.03	1080.86
688.37	1076.41
688.71	1081.09
689.05	1087.65
689.39	1077.58
689.72	1074.07
690.06	1078.99
690.40	1069.16
690.74	1072.43
691.08	1078.05
691.41	1081.80
691.75	1074.31
692.09	1084.37
692.43	1078.28
692.76	1078.99
693.10	1084.14
693.44	1092.09
693.78	1088.58
694.11	1089.05
694.45	1082.03
694.79	1078.05
695.13	1075.48
695.46	1069.62
695.80	1066.82
696.14	1077.35
696.48	1088.82
696.81	1088.82
697.15	1101.22
697.49	1104.26
697.82	1093.26
698.16	1085.31
698.50	1081.80
698.83	1076.18
699.17	1078.28
699.51	1086.48
699.84	1085.54
700.18	1082.73
700.52	1085.31
700.85	1080.39
701.19	1078.28
701.53	1084.84
701.86	1092.80
702.20	1089.05
702.54	1089.75
702.87	1081.09
703.21	1074.54
703.55	1076.18
703.88	1077.11
704.22	1073.84
704.55	1078.99
704.89	1079.22
705.23	1072.43
705.56	1068.22
705.90	1067.99
706.23	1065.88
706.57	1066.11
706.91	1072.67
707.24	1075.01
707.58	1076.65
707.91	1077.82
708.25	1083.20
708.58	1087.18
708.92	1092.09
709.26	1088.12
709.59	1088.12
709.93	1084.60
710.26	1079.92
710.60	1082.97
710.93	1094.20
711.27	1097.95
711.60	1102.16
711.94	1107.07
712.27	1098.88
712.61	1088.58
712.94	1087.41
713.28	1080.63
713.61	1078.52
713.95	1084.37
714.28	1094.20
714.62	1093.50
714.95	1089.52
715.29	1086.01
715.62	1084.37
715.96	1087.65
716.29	1084.14
716.63	1094.20
716.96	1096.54
717.29	1102.16
717.63	1097.24
717.96	1098.88
718.30	1100.99
718.63	1101.46
718.97	1088.58
719.30	1079.22
719.63	1085.54
719.97	1075.94
720.30	1076.88
720.64	1075.01
720.97	1083.43
721.30	1075.71
721.64	1080.63
721.97	1079.69
722.31	1094.43
722.64	1100.29
722.97	1095.84
723.31	1084.14
723.64	1091.16
723.97	1085.07
724.31	1073.37
724.64	1090.69
724.98	1101.69
725.31	1086.48
725.64	1088.35
725.98	1093.50
726.31	1091.16
726.64	1086.71
726.97	1084.60
727.31	1071.03
727.64	1058.16
727.97	1045.05
728.31	1046.92
728.64	1052.07
728.97	1071.73
729.31	1082.50
729.64	1096.54
729.97	1103.33
730.30	1108.24
730.64	1091.63
730.97	1095.60
731.30	1081.56
731.63	1076.65
731.97	1070.33
732.30	1076.41
732.63	1065.18
732.96	1081.80
733.30	1080.86
733.63	1084.37
733.96	1089.29
734.29	1089.75
734.63	1076.41
734.96	1070.80
735.29	1081.33
735.62	1074.77
735.95	1083.67
736.29	1088.58
736.62	1090.46
736.95	1082.03
737.28	1087.65
737.61	1071.26
737.94	1070.80
738.28	1078.75
738.61	1078.28
738.94	1075.94
739.27	1093.97
739.60	1097.24
739.93	1094.67
740.27	1098.65
740.60	1094.90
740.93	1097.24
741.26	1098.18
741.59	1104.03
741.92	1095.60
742.25	1103.09
742.58	1097.24
742.91	1093.50
743.25	1087.65
743.58	1096.78
743.91	1087.65
744.24	1080.86
744.57	1076.65
744.90	1069.39
745.23	1060.96
745.56	1062.37
745.89	1071.03
746.22	1069.16
746.55	1075.94
746.88	1075.24
747.21	1076.88
747.54	1065.88
747.87	1063.31
748.20	1056.05
748.53	1056.05
748.87	1063.07
749.20	1058.39
749.53	1058.86
749.86	1070.33
750.19	1073.60
750.52	1071.73
750.85	1078.99
751.18	1097.71
751.51	1097.71
751.84	1095.37
752.16	1096.78
752.49	1092.80
752.82	1081.80
753.15	1075.48
753.48	1077.58
753.81	1078.28
754.14	1096.07
754.47	1103.33
754.80	1105.90
755.13	1102.86
755.46	1097.24
755.79	1086.48
756.12	1077.58
756.45	1066.58
756.78	1075.24
757.11	1064.24
757.43	1067.99
757.76	1065.65
758.09	1071.97
758.42	1064.01
758.75	1079.69
759.08	1076.65
759.41	1073.37
759.74	1080.39
760.07	1082.26
760.39	1070.56
760.72	1066.58
761.05	1068.69
761.38	1056.75
761.71	1062.14
762.04	1066.58
762.36	1080.63
762.69	1083.20
763.02	1091.86
763.35	1084.84
763.68	1092.09
764.01	1091.86
