SpectraSuite Data File
++++++++++++++++++++++++++++++++++++
Date: Mon Aug 26 10:24:39 PDT 2019
User: corrico
Dark Spectrum Present: No
Reference Spectrum Present: No
Number of Sampled Component Spectra: 1
Spectrometers: USB2+H06089
Integration Time (usec): 10000 (USB2+H06089)
Spectra Averaged: 2 (USB2+H06089)
Boxcar Smoothing: 2 (USB2+H06089)
Correct for Electrical Dark: No (USB2+H06089)
Strobe/Lamp Enabled: No (USB2+H06089)
Correct for Detector Non-linearity: No (USB2+H06089)
Correct for Stray Light: No (USB2+H06089)
Number of Pixels in Processed Spectrum: 2048
>>>>>Begin Processed Spectral Data<<<<<
339.70	1020.47
340.07	1020.47
340.45	981.39
340.82	963.13
341.19	945.11
341.57	922.41
341.94	921.94
342.31	911.17
342.69	905.79
343.06	904.15
343.43	908.36
343.81	902.98
344.18	908.36
344.55	914.68
344.93	910.23
345.30	906.72
345.67	916.55
346.04	926.38
346.42	936.92
346.79	950.26
347.16	964.07
347.54	972.26
347.91	982.09
348.28	1002.45
348.65	1015.32
349.03	1029.13
349.40	1041.30
349.77	1052.30
350.14	1038.50
350.52	1043.18
350.89	1038.50
351.26	1047.86
351.63	1051.37
352.01	1059.79
352.38	1064.01
352.75	1078.05
353.12	1076.88
353.50	1076.18
353.87	1075.94
354.24	1075.94
354.61	1074.54
354.98	1075.24
355.36	1085.31
355.73	1090.92
356.10	1096.07
356.47	1093.26
356.84	1090.46
357.22	1097.48
357.59	1118.31
357.96	1108.24
358.33	1124.16
358.70	1123.22
359.08	1104.50
359.45	1088.82
359.82	1105.20
360.19	1097.48
360.56	1107.31
360.94	1117.84
361.31	1111.05
361.68	1106.37
362.05	1099.58
362.42	1100.75
362.79	1096.31
363.16	1098.41
363.54	1097.71
363.91	1103.33
364.28	1090.92
364.65	1101.22
365.02	1099.58
365.39	1096.07
365.76	1088.58
366.14	1083.90
366.51	1068.22
366.88	1071.50
367.25	1077.11
367.62	1084.14
367.99	1096.78
368.36	1101.69
368.73	1096.78
369.10	1097.24
369.48	1094.20
369.85	1081.56
370.22	1085.77
370.59	1094.20
370.96	1099.12
371.33	1098.88
371.70	1109.88
372.07	1111.29
372.44	1105.90
372.81	1090.92
373.18	1086.01
373.55	1080.86
373.93	1070.09
374.30	1075.48
374.67	1080.63
375.04	1086.24
375.41	1096.54
375.78	1104.03
376.15	1105.67
376.52	1103.09
376.89	1108.24
377.26	1109.88
377.63	1115.27
378.00	1109.41
378.37	1107.31
378.74	1107.31
379.11	1111.75
379.48	1109.65
379.85	1121.12
380.22	1136.56
380.59	1133.99
380.96	1128.37
381.33	1126.27
381.70	1119.24
382.07	1111.05
382.44	1121.35
382.81	1121.35
383.18	1123.22
383.55	1121.82
383.92	1125.56
384.29	1109.18
384.66	1108.24
385.03	1105.44
385.40	1109.41
385.77	1117.37
386.14	1131.65
386.51	1134.22
386.88	1143.59
387.25	1141.71
387.62	1129.31
387.99	1123.46
388.36	1130.01
388.73	1129.78
389.10	1127.90
389.46	1135.16
389.83	1130.71
390.20	1117.61
390.57	1111.52
390.94	1109.18
391.31	1094.43
391.68	1103.33
392.05	1119.24
392.42	1119.24
392.79	1126.03
393.16	1138.67
393.53	1132.59
393.89	1123.69
394.26	1132.35
394.63	1129.78
395.00	1143.12
395.37	1137.03
395.74	1136.80
396.11	1130.71
396.48	1135.16
396.84	1116.20
397.21	1128.61
397.58	1137.97
397.95	1138.44
398.32	1139.37
398.69	1155.52
399.06	1160.91
399.42	1163.25
399.79	1181.97
400.16	1184.55
400.53	1184.78
400.90	1189.93
401.27	1193.67
401.64	1193.91
402.00	1190.86
402.37	1209.12
402.74	1220.36
403.11	1239.31
403.48	1255.00
403.84	1275.83
404.21	1274.19
404.58	1294.55
404.95	1305.78
405.32	1315.15
405.68	1345.57
406.05	1373.89
406.42	1398.47
406.79	1416.73
407.16	1433.11
407.52	1458.39
407.89	1484.13
408.26	1511.99
408.63	1550.84
408.99	1604.67
409.36	1631.12
409.73	1676.76
410.10	1722.17
410.47	1787.70
410.83	1822.81
411.20	1910.35
411.57	1974.01
411.94	2050.31
412.30	2105.55
412.67	2205.02
413.04	2274.30
413.40	2367.45
413.77	2485.18
414.14	2614.85
414.51	2741.94
414.87	2878.86
415.24	3030.29
415.61	3169.09
415.97	3313.03
416.34	3472.89
416.71	3668.79
417.08	3878.74
417.44	4098.04
417.81	4346.84
418.18	4597.75
418.54	4856.14
418.91	5128.35
419.28	5424.43
419.64	5714.42
420.01	6042.33
420.38	6375.85
420.74	6709.85
421.11	7076.84
421.48	7488.54
421.84	7937.69
422.21	8380.99
422.58	8893.10
422.94	9426.27
423.31	9955.23
423.68	10514.86
424.04	11166.93
424.41	11800.75
424.77	12385.18
425.14	13033.51
425.51	13686.52
425.87	14425.66
426.24	15148.18
426.61	16069.18
426.97	17118.68
427.34	18094.21
427.70	19143.01
428.07	20249.14
428.44	21343.35
428.80	22399.39
429.17	23469.72
429.53	24525.07
429.90	25770.94
430.27	26817.62
430.63	27875.55
431.00	29236.33
431.36	30668.74
431.73	31927.95
432.09	33284.76
432.46	34659.59
432.83	35970.99
433.19	37210.77
433.56	38705.21
433.92	40322.75
434.29	41817.88
434.65	43318.63
435.02	44634.02
435.38	45856.01
435.75	46709.60
436.11	47954.30
436.48	48943.41
436.84	49950.31
437.21	50862.88
437.57	51871.19
437.94	52483.24
438.30	53007.05
438.67	53355.09
439.03	53470.94
439.40	53616.06
439.76	53518.46
440.13	53338.94
440.49	53270.83
440.86	52874.11
441.22	52484.88
441.59	51833.04
441.95	51185.88
442.32	50222.05
442.68	49506.54
443.05	48498.47
443.41	47582.15
443.78	46621.13
444.14	45778.54
444.51	44621.38
444.87	43747.42
445.24	42601.96
445.60	41399.63
445.96	40094.55
446.33	39128.61
446.69	37782.10
447.06	36910.72
447.42	35961.86
447.79	34900.43
448.15	33853.98
448.51	32944.21
448.88	32005.42
449.24	30961.31
449.61	30236.21
449.97	29406.02
450.33	28596.90
450.70	27685.96
451.06	27050.51
451.43	26308.09
451.79	25707.27
452.15	25174.33
452.52	24680.48
452.88	24066.09
453.24	23481.66
453.61	22890.21
453.97	22231.11
454.34	21570.14
454.70	21044.93
455.06	20455.11
455.43	19764.65
455.79	19029.96
456.15	18409.95
456.52	17703.34
456.88	17160.34
457.24	16569.35
457.61	16109.67
457.97	15548.65
458.33	15014.07
458.70	14431.51
459.06	13908.87
459.42	13419.93
459.79	12934.97
460.15	12562.12
460.51	12117.19
460.88	11706.66
461.24	11276.94
461.60	10911.58
461.96	10515.56
462.33	10183.20
462.69	9852.95
463.05	9552.90
463.42	9283.27
463.78	8989.30
464.14	8699.54
464.50	8456.59
464.87	8202.64
465.23	7917.80
465.59	7712.30
465.95	7504.69
466.32	7275.56
466.68	7071.23
467.04	6909.03
467.40	6729.27
467.77	6567.78
468.13	6401.60
468.49	6260.46
468.85	6117.69
469.22	5993.18
469.58	5841.74
469.94	5730.10
470.30	5586.62
470.66	5478.49
471.03	5357.72
471.39	5276.50
471.75	5154.09
472.11	5052.05
472.47	4942.51
472.84	4810.97
473.20	4702.60
473.56	4607.11
473.92	4510.91
474.28	4410.51
474.65	4321.33
475.01	4219.75
475.37	4128.70
475.73	4040.70
476.09	3948.72
476.45	3862.12
476.81	3783.71
477.18	3716.77
477.54	3650.07
477.90	3586.64
478.26	3523.68
478.62	3454.86
478.98	3386.99
479.34	3335.26
479.71	3294.30
480.07	3246.09
480.43	3206.77
480.79	3151.53
481.15	3107.06
481.51	3034.50
481.87	2976.69
482.23	2938.07
482.59	2890.33
482.96	2835.09
483.32	2795.30
483.68	2763.24
484.04	2711.98
484.40	2680.15
484.76	2648.32
485.12	2613.91
485.48	2581.61
485.84	2530.59
486.20	2487.76
486.56	2441.65
486.92	2418.71
487.28	2379.62
487.64	2354.81
488.00	2327.90
488.37	2301.45
488.73	2258.15
489.09	2225.85
489.45	2184.66
489.81	2142.29
490.17	2117.95
490.53	2103.91
490.89	2081.44
491.25	2065.29
491.61	2039.31
491.97	2004.43
492.33	1971.67
492.69	1944.99
493.05	1929.30
493.41	1907.30
493.77	1868.22
494.13	1839.90
494.49	1826.32
494.85	1791.21
495.21	1785.59
495.57	1774.59
495.93	1765.93
496.29	1744.64
496.64	1734.10
497.00	1711.40
497.36	1694.08
497.72	1664.59
498.08	1635.57
498.44	1629.01
498.80	1622.69
499.16	1611.46
499.52	1600.69
499.88	1593.20
500.24	1571.67
500.60	1537.97
500.96	1517.14
501.32	1504.50
501.68	1492.33
502.03	1478.75
502.39	1475.94
502.75	1472.20
503.11	1459.32
503.47	1456.05
503.83	1442.47
504.19	1423.75
504.55	1407.13
504.91	1405.02
505.26	1391.68
505.62	1392.85
505.98	1396.83
506.34	1397.77
506.70	1385.36
507.06	1377.64
507.42	1363.83
507.78	1353.53
508.13	1347.21
508.49	1331.06
508.85	1304.85
509.21	1288.70
509.57	1276.53
509.93	1265.53
510.28	1271.38
510.64	1289.40
511.00	1295.02
511.36	1288.23
511.72	1290.57
512.07	1277.00
512.43	1268.80
512.79	1269.97
513.15	1274.66
513.51	1264.83
513.86	1264.59
514.22	1252.89
514.58	1247.04
514.94	1241.65
515.30	1243.06
515.65	1241.19
516.01	1247.74
516.37	1243.06
516.73	1243.53
517.08	1234.16
517.44	1222.46
517.80	1216.14
518.16	1205.38
518.51	1188.29
518.87	1187.35
519.23	1192.97
519.59	1198.35
519.94	1208.18
520.30	1207.25
520.66	1201.40
521.01	1196.72
521.37	1186.42
521.73	1164.88
522.09	1168.63
522.44	1175.18
522.80	1169.33
523.16	1163.95
523.51	1168.86
523.87	1164.18
524.23	1163.25
524.58	1176.12
524.94	1182.67
525.30	1185.48
525.65	1200.46
526.01	1195.55
526.37	1187.59
526.72	1185.25
527.08	1182.44
527.44	1172.14
527.79	1170.50
528.15	1169.33
528.51	1155.99
528.86	1153.18
529.22	1148.50
529.58	1148.50
529.93	1145.93
530.29	1150.37
530.65	1158.80
531.00	1156.46
531.36	1156.69
531.71	1162.08
532.07	1166.29
532.43	1152.95
532.78	1163.48
533.14	1162.08
533.49	1154.12
533.85	1144.99
534.21	1145.93
534.56	1133.05
534.92	1143.12
535.27	1133.76
535.63	1134.46
535.98	1139.84
536.34	1145.46
536.69	1131.88
537.05	1142.65
537.41	1136.33
537.76	1137.73
538.12	1134.46
538.47	1133.05
538.83	1132.35
539.18	1138.90
539.54	1138.20
539.89	1138.67
540.25	1140.31
540.60	1142.88
540.96	1160.44
541.31	1160.44
541.67	1159.97
542.02	1152.48
542.38	1153.88
542.73	1139.61
543.09	1135.39
543.44	1133.05
543.80	1135.16
544.15	1116.67
544.51	1118.31
544.86	1117.37
545.22	1127.20
545.57	1133.76
545.93	1138.90
546.28	1137.27
546.64	1140.07
546.99	1141.48
547.35	1134.93
547.70	1148.27
548.05	1144.99
548.41	1128.84
548.76	1118.07
549.12	1116.20
549.47	1115.03
549.83	1114.33
550.18	1119.71
550.53	1108.95
550.89	1119.71
551.24	1123.46
551.60	1125.56
551.95	1129.78
552.30	1137.97
552.66	1132.82
553.01	1117.37
553.37	1113.39
553.72	1114.33
554.07	1120.41
554.43	1132.12
554.78	1144.05
555.13	1143.35
555.49	1143.12
555.84	1139.61
556.19	1116.20
556.55	1111.52
556.90	1121.35
557.26	1116.90
557.61	1110.12
557.96	1121.12
558.32	1108.48
558.67	1102.39
559.02	1109.65
559.37	1114.33
559.73	1111.29
560.08	1127.90
560.43	1128.37
560.79	1133.05
561.14	1129.31
561.49	1131.88
561.85	1133.29
562.20	1133.76
562.55	1121.35
562.90	1124.39
563.26	1130.48
563.61	1114.56
563.96	1106.14
564.32	1103.33
564.67	1091.63
565.02	1084.60
565.37	1091.39
565.73	1102.86
566.08	1110.58
566.43	1117.37
566.78	1120.65
567.14	1116.20
567.49	1112.46
567.84	1113.86
568.19	1116.90
568.54	1114.80
568.90	1115.50
569.25	1104.50
569.60	1107.07
569.95	1108.24
570.31	1104.97
570.66	1115.27
571.01	1125.80
571.36	1120.88
571.71	1127.90
572.06	1129.31
572.42	1126.27
572.77	1129.07
573.12	1130.24
573.47	1120.18
573.82	1118.78
574.18	1111.05
574.53	1104.97
574.88	1105.67
575.23	1107.07
575.58	1113.16
575.93	1120.88
576.28	1110.82
576.64	1111.99
576.99	1114.56
577.34	1109.88
577.69	1105.44
578.04	1108.95
578.39	1110.58
578.74	1122.29
579.09	1124.63
579.44	1122.05
579.80	1130.24
580.15	1130.95
580.50	1113.39
580.85	1108.01
581.20	1103.80
581.55	1104.03
581.90	1097.01
582.25	1098.88
582.60	1093.26
582.95	1108.95
583.30	1108.24
583.65	1109.65
584.00	1113.16
584.35	1124.63
584.71	1112.22
585.06	1107.31
585.41	1105.90
585.76	1102.16
586.11	1092.56
586.46	1094.43
586.81	1084.84
587.16	1084.37
587.51	1086.01
587.86	1092.33
588.21	1089.75
588.56	1102.86
588.91	1110.58
589.26	1101.92
589.61	1094.67
589.96	1089.29
590.31	1083.67
590.66	1074.54
591.01	1089.29
591.36	1090.22
591.71	1103.09
592.06	1099.12
592.41	1097.01
592.76	1083.20
593.10	1082.50
593.45	1083.43
593.80	1085.07
594.15	1093.26
594.50	1097.24
594.85	1095.37
595.20	1091.86
595.55	1094.90
595.90	1082.26
596.25	1080.39
596.60	1090.69
596.95	1082.03
597.30	1089.52
597.64	1143.82
597.99	1148.73
598.34	1148.73
598.69	1159.74
599.04	1154.82
599.39	1110.82
599.74	1119.95
600.09	1117.37
600.44	1119.01
600.78	1126.97
601.13	1127.90
601.48	1113.16
601.83	1104.97
602.18	1088.58
602.53	1079.22
602.88	1077.35
603.22	1082.03
603.57	1082.26
603.92	1094.43
604.27	1098.18
604.62	1093.50
604.97	1089.29
605.31	1087.88
605.66	1086.48
606.01	1085.54
606.36	1090.92
606.71	1092.80
607.05	1091.63
607.40	1088.58
607.75	1085.54
608.10	1082.73
608.44	1082.97
608.79	1091.86
609.14	1095.60
609.49	1102.16
609.84	1114.56
610.18	1122.99
610.53	1128.84
610.88	1135.39
611.23	1140.07
611.57	1118.78
611.92	1109.18
612.27	1104.26
612.62	1097.24
612.96	1090.92
613.31	1096.07
613.66	1099.82
614.00	1097.95
614.35	1096.31
614.70	1090.69
615.05	1088.12
615.39	1084.60
615.74	1086.94
616.09	1084.84
616.43	1094.43
616.78	1111.05
617.13	1119.71
617.47	1116.90
617.82	1121.82
618.17	1119.24
618.51	1107.54
618.86	1097.95
619.21	1099.35
619.55	1098.18
619.90	1093.03
620.25	1096.07
620.59	1104.73
620.94	1094.43
621.29	1104.50
621.63	1112.22
621.98	1113.63
622.32	1107.54
622.67	1126.50
623.02	1105.67
623.36	1095.84
623.71	1089.05
624.05	1085.77
624.40	1074.54
624.75	1082.97
625.09	1083.20
625.44	1091.16
625.78	1098.88
626.13	1100.75
626.48	1092.80
626.82	1093.26
627.17	1085.07
627.51	1075.01
627.86	1074.77
628.20	1086.94
628.55	1086.48
628.89	1082.73
629.24	1095.60
629.58	1103.33
629.93	1101.69
630.28	1106.84
630.62	1119.48
630.97	1117.84
631.31	1109.65
631.66	1112.69
632.00	1110.82
632.35	1116.20
632.69	1113.86
633.04	1110.82
633.38	1108.71
633.73	1104.50
634.07	1096.07
634.42	1097.95
634.76	1097.48
635.11	1097.01
635.45	1102.63
635.79	1110.82
636.14	1114.56
636.48	1116.67
636.83	1112.46
637.17	1103.33
637.52	1090.46
637.86	1081.09
638.21	1088.82
638.55	1087.18
638.89	1106.84
639.24	1119.24
639.58	1123.93
639.93	1116.20
640.27	1119.95
640.61	1103.80
640.96	1092.09
641.30	1088.12
641.65	1092.80
641.99	1092.80
642.33	1089.75
642.68	1098.88
643.02	1102.16
643.37	1102.39
643.71	1094.43
644.05	1087.65
644.40	1081.33
644.74	1081.80
645.08	1085.31
645.43	1102.63
645.77	1109.41
646.11	1101.46
646.46	1097.01
646.80	1085.31
647.14	1065.18
647.49	1063.77
647.83	1072.20
648.17	1075.94
648.52	1080.39
648.86	1086.01
649.20	1099.12
649.55	1102.39
649.89	1099.12
650.23	1093.73
650.57	1087.41
650.92	1083.67
651.26	1087.18
651.60	1082.97
651.95	1093.97
652.29	1103.09
652.63	1095.14
652.97	1084.37
653.32	1086.24
653.66	1090.69
654.00	1084.60
654.34	1096.78
654.69	1096.54
655.03	1100.05
655.37	1080.16
655.71	1088.12
656.05	1083.67
656.40	1090.46
656.74	1087.41
657.08	1086.71
657.42	1082.73
657.76	1083.20
658.11	1076.65
658.45	1081.33
658.79	1091.16
659.13	1100.05
659.47	1093.73
659.82	1099.58
660.16	1101.69
660.50	1102.39
660.84	1093.50
661.18	1100.99
661.52	1097.48
661.87	1092.33
662.21	1091.63
662.55	1091.63
662.89	1079.92
663.23	1081.09
663.57	1084.60
663.91	1089.29
664.25	1100.05
664.60	1109.18
664.94	1107.31
665.28	1102.63
665.62	1102.16
665.96	1097.95
666.30	1099.58
666.64	1097.01
666.98	1103.09
667.32	1101.46
667.66	1093.97
668.01	1083.20
668.35	1087.65
668.69	1083.90
669.03	1072.20
669.37	1076.88
669.71	1071.97
670.05	1060.96
670.39	1066.82
670.73	1075.94
671.07	1074.31
671.41	1087.88
671.75	1102.16
672.09	1092.09
672.43	1094.67
672.77	1098.88
673.11	1091.39
673.45	1088.82
673.79	1080.63
674.13	1079.46
674.47	1076.88
674.81	1084.60
675.15	1083.43
675.49	1089.99
675.83	1085.31
676.17	1086.71
676.51	1082.97
676.85	1083.43
677.19	1088.82
677.53	1099.12
677.87	1098.41
678.21	1098.41
678.55	1102.86
678.89	1100.99
679.23	1093.73
679.57	1088.35
679.90	1088.58
680.24	1081.56
680.58	1091.39
680.92	1092.56
681.26	1090.69
681.60	1082.50
681.94	1076.18
682.28	1070.80
682.62	1065.18
682.96	1067.28
683.29	1076.41
683.63	1093.03
683.97	1093.97
684.31	1100.05
684.65	1095.37
684.99	1089.75
685.33	1075.48
685.67	1071.03
686.00	1073.60
686.34	1075.71
686.68	1074.07
687.02	1083.67
687.36	1086.94
687.70	1065.18
688.03	1075.01
688.37	1081.33
688.71	1078.05
689.05	1072.90
689.39	1098.18
689.72	1093.50
690.06	1090.92
690.40	1083.43
690.74	1085.07
691.08	1080.63
691.41	1079.92
691.75	1085.77
692.09	1103.09
692.43	1097.95
692.76	1097.24
693.10	1100.52
693.44	1097.24
693.78	1080.39
694.11	1086.71
694.45	1085.31
694.79	1078.52
695.13	1070.33
695.46	1067.75
695.80	1070.80
696.14	1069.16
696.48	1075.48
696.81	1086.01
697.15	1091.86
697.49	1093.50
697.82	1093.50
698.16	1087.65
698.50	1086.48
698.83	1099.12
699.17	1099.35
699.51	1101.46
699.84	1105.90
700.18	1108.01
700.52	1090.69
700.85	1082.97
701.19	1090.46
701.53	1089.52
701.86	1084.37
702.20	1089.29
702.54	1081.33
702.87	1066.82
703.21	1066.58
703.55	1059.79
703.88	1051.84
704.22	1057.45
704.55	1055.11
704.89	1051.13
705.23	1063.77
705.56	1075.24
705.90	1081.56
706.23	1084.14
706.57	1100.99
706.91	1100.05
707.24	1106.61
707.58	1102.86
707.91	1106.61
708.25	1098.41
708.58	1087.88
708.92	1086.94
709.26	1090.22
709.59	1083.90
709.93	1075.01
710.26	1085.31
710.60	1074.31
710.93	1080.16
711.27	1096.07
711.60	1106.61
711.94	1104.73
712.27	1105.44
712.61	1101.22
712.94	1103.09
713.28	1100.52
713.61	1100.52
713.95	1099.35
714.28	1099.82
714.62	1087.41
714.95	1082.03
715.29	1074.31
715.62	1072.43
715.96	1059.56
716.29	1061.43
716.63	1062.60
716.96	1067.28
717.29	1074.31
717.63	1093.03
717.96	1089.29
718.30	1087.41
718.63	1078.52
718.97	1071.26
719.30	1062.37
719.63	1058.86
719.97	1062.14
720.30	1066.82
720.64	1062.37
720.97	1066.35
721.30	1074.77
721.64	1072.67
721.97	1084.84
722.31	1098.18
722.64	1090.69
722.97	1095.84
723.31	1086.24
723.64	1089.52
723.97	1078.05
724.31	1083.67
724.64	1072.90
724.98	1086.01
725.31	1083.67
725.64	1083.67
725.98	1080.39
726.31	1087.41
726.64	1080.63
726.97	1072.43
727.31	1086.01
727.64	1078.99
727.97	1081.09
728.31	1087.18
728.64	1096.54
728.97	1095.37
729.31	1107.78
729.64	1102.16
729.97	1097.71
730.30	1086.71
730.64	1074.07
730.97	1069.39
731.30	1073.60
731.63	1071.03
731.97	1080.63
732.30	1080.86
732.63	1076.88
732.96	1075.01
733.30	1078.05
733.63	1070.09
733.96	1074.07
734.29	1070.56
734.63	1064.24
734.96	1068.45
735.29	1073.37
735.62	1073.14
735.95	1069.39
736.29	1075.94
736.62	1083.20
736.95	1083.20
737.28	1081.09
737.61	1100.29
737.94	1095.60
738.28	1088.12
738.61	1078.99
738.94	1073.14
739.27	1066.11
739.60	1072.90
739.93	1070.80
740.27	1078.99
740.60	1094.43
740.93	1096.07
741.26	1082.50
741.59	1082.50
741.92	1078.75
742.25	1084.37
742.58	1072.43
742.91	1076.41
743.25	1073.60
743.58	1067.28
743.91	1055.82
744.24	1064.48
744.57	1068.92
744.90	1067.52
745.23	1069.16
745.56	1067.75
745.89	1063.77
746.22	1064.48
746.55	1057.69
746.88	1060.26
747.21	1064.94
747.54	1068.92
747.87	1068.69
748.20	1071.26
748.53	1069.86
748.87	1075.94
749.20	1074.54
749.53	1073.84
749.86	1078.99
750.19	1087.88
750.52	1075.94
750.85	1075.01
751.18	1070.80
751.51	1072.43
751.84	1068.22
752.16	1075.48
752.49	1076.65
752.82	1068.69
753.15	1064.48
753.48	1065.65
753.81	1070.80
754.14	1080.39
754.47	1097.71
754.80	1098.65
755.13	1104.26
755.46	1096.07
755.79	1079.92
756.12	1084.14
756.45	1085.31
756.78	1073.84
757.11	1080.16
757.43	1083.90
757.76	1080.16
758.09	1083.43
758.42	1092.80
758.75	1089.05
759.08	1091.86
759.41	1085.31
759.74	1091.86
760.07	1091.86
760.39	1084.14
760.72	1077.58
761.05	1079.46
761.38	1070.33
761.71	1060.73
762.04	1061.67
762.36	1074.07
762.69	1081.56
763.02	1080.39
763.35	1080.86
763.68	1076.65
764.01	1075.94
