SpectraSuite Data File
++++++++++++++++++++++++++++++++++++
Date: Mon Aug 26 10:24:36 PDT 2019
User: corrico
Dark Spectrum Present: No
Reference Spectrum Present: No
Number of Sampled Component Spectra: 1
Spectrometers: USB2+H06089
Integration Time (usec): 10000 (USB2+H06089)
Spectra Averaged: 2 (USB2+H06089)
Boxcar Smoothing: 2 (USB2+H06089)
Correct for Electrical Dark: No (USB2+H06089)
Strobe/Lamp Enabled: No (USB2+H06089)
Correct for Detector Non-linearity: No (USB2+H06089)
Correct for Stray Light: No (USB2+H06089)
Number of Pixels in Processed Spectrum: 2048
>>>>>Begin Processed Spectral Data<<<<<
339.70	1048.56
340.07	1048.56
340.45	1003.86
340.82	982.09
341.19	962.90
341.57	935.04
341.94	929.19
342.31	923.34
342.69	908.36
343.06	906.02
343.43	908.60
343.81	901.57
344.18	901.81
344.55	921.47
344.93	922.41
345.30	927.32
345.67	939.49
346.04	949.32
346.42	941.36
346.79	942.53
347.16	948.15
347.54	956.81
347.91	972.96
348.28	984.43
348.65	1006.43
349.03	1012.28
349.40	1015.09
349.77	1030.54
350.14	1039.20
350.52	1035.22
350.89	1044.35
351.26	1053.01
351.63	1050.90
352.01	1055.82
352.38	1068.92
352.75	1070.80
353.12	1073.84
353.50	1075.01
353.87	1084.37
354.24	1074.31
354.61	1085.31
354.98	1086.01
355.36	1082.50
355.73	1077.11
356.10	1084.60
356.47	1079.92
356.84	1088.12
357.22	1091.16
357.59	1098.18
357.96	1088.35
358.33	1096.31
358.70	1093.50
359.08	1094.67
359.45	1089.75
359.82	1106.84
360.19	1099.35
360.56	1102.86
360.94	1105.20
361.31	1104.97
361.68	1092.33
362.05	1085.07
362.42	1087.41
362.79	1077.35
363.16	1072.20
363.54	1077.11
363.91	1090.22
364.28	1082.03
364.65	1082.73
365.02	1090.22
365.39	1093.50
365.76	1087.41
366.14	1094.90
366.51	1101.22
366.88	1102.86
367.25	1106.37
367.62	1105.44
367.99	1094.67
368.36	1097.95
368.73	1100.75
369.10	1095.84
369.48	1103.33
369.85	1117.14
370.22	1113.86
370.59	1111.29
370.96	1107.54
371.33	1095.60
371.70	1089.52
372.07	1090.92
372.44	1087.18
372.81	1085.77
373.18	1089.99
373.55	1087.65
373.93	1090.22
374.30	1089.05
374.67	1095.84
375.04	1098.65
375.41	1100.05
375.78	1090.22
376.15	1094.43
376.52	1092.80
376.89	1089.52
377.26	1081.33
377.63	1081.56
378.00	1083.67
378.37	1085.54
378.74	1094.43
379.11	1101.69
379.48	1103.33
379.85	1100.52
380.22	1092.80
380.59	1087.18
380.96	1086.94
381.33	1092.33
381.70	1078.52
382.07	1085.54
382.44	1086.01
382.81	1087.65
383.18	1087.65
383.55	1105.67
383.92	1107.78
384.29	1110.58
384.66	1105.90
385.03	1110.82
385.40	1111.29
385.77	1111.75
386.14	1110.58
386.51	1115.50
386.88	1111.75
387.25	1108.24
387.62	1100.75
387.99	1100.52
388.36	1103.09
388.73	1086.48
389.10	1086.94
389.46	1097.24
389.83	1094.43
390.20	1080.86
390.57	1094.90
390.94	1095.14
391.31	1099.82
391.68	1104.26
392.05	1110.82
392.42	1113.16
392.79	1112.92
393.16	1098.65
393.53	1098.65
393.89	1107.54
394.26	1113.86
394.63	1119.24
395.00	1127.90
395.37	1128.84
395.74	1136.80
396.11	1128.61
396.48	1131.65
396.84	1137.50
397.21	1139.61
397.58	1136.80
397.95	1144.05
398.32	1138.67
398.69	1133.05
399.06	1126.50
399.42	1127.67
399.79	1138.67
400.16	1150.37
400.53	1150.61
400.90	1159.74
401.27	1163.71
401.64	1166.05
402.00	1160.91
402.37	1167.46
402.74	1166.05
403.11	1167.69
403.48	1168.86
403.84	1181.74
404.21	1187.59
404.58	1204.67
404.95	1221.06
405.32	1236.74
405.68	1249.14
406.05	1273.25
406.42	1304.15
406.79	1319.83
407.16	1325.91
407.52	1351.19
407.89	1367.58
408.26	1378.34
408.63	1400.58
408.99	1441.07
409.36	1459.56
409.73	1486.71
410.10	1511.52
410.47	1552.01
410.83	1584.07
411.20	1645.86
411.57	1696.19
411.94	1749.55
412.30	1795.89
412.67	1860.96
413.04	1913.86
413.40	1985.71
413.77	2063.65
414.14	2151.42
414.51	2241.53
414.87	2332.81
415.24	2420.35
415.61	2529.42
415.97	2623.27
416.34	2712.45
416.71	2826.90
417.08	2975.29
417.44	3085.29
417.81	3226.66
418.18	3393.31
418.54	3566.74
418.91	3735.73
419.28	3947.31
419.64	4153.51
420.01	4366.27
420.38	4568.26
420.74	4782.65
421.11	5043.15
421.48	5315.12
421.84	5572.58
422.21	5873.81
422.58	6188.84
422.94	6497.80
423.31	6787.32
423.68	7181.47
424.04	7559.23
424.41	7952.44
424.77	8346.35
425.14	8785.67
425.51	9210.01
425.87	9704.80
426.24	10218.31
426.61	10813.28
426.97	11519.41
427.34	12120.93
427.70	12774.64
428.07	13399.10
428.44	14027.53
428.80	14672.12
429.17	15413.13
429.53	16111.08
429.90	16972.39
430.27	17690.94
430.63	18398.25
431.00	19239.91
431.36	20250.08
431.73	21040.95
432.09	21991.44
432.46	22923.21
432.83	23846.08
433.19	24506.11
433.56	25465.73
433.92	26364.96
434.29	27232.60
434.65	28081.51
435.02	28988.00
435.38	29806.49
435.75	30470.26
436.11	31380.50
436.48	32076.34
436.84	32767.97
437.21	33448.83
437.57	34092.01
437.94	34556.84
438.30	35074.80
438.67	35444.14
439.03	35534.72
439.40	35816.05
439.76	35778.13
440.13	35602.82
440.49	35586.44
440.86	35311.19
441.22	34903.00
441.59	34382.47
441.95	33894.47
442.32	33202.37
442.68	32797.22
443.05	32173.00
443.41	31576.17
443.78	30896.24
444.14	30210.00
444.51	29254.82
444.87	28641.37
445.24	27916.27
445.60	27261.16
445.96	26507.27
446.33	26020.67
446.69	25138.52
447.06	24515.71
447.42	23719.93
447.79	22971.19
448.15	22261.30
448.51	21658.62
448.88	21093.84
449.24	20460.03
449.61	20044.11
449.97	19494.79
450.33	18974.02
450.70	18328.97
451.06	17945.59
451.43	17345.48
451.79	16889.07
452.15	16516.69
452.52	16151.33
452.88	15776.38
453.24	15413.36
453.61	15051.75
453.97	14651.52
454.34	14278.67
454.70	13920.57
455.06	13624.02
455.43	13160.13
455.79	12691.55
456.15	12293.20
456.52	11852.94
456.88	11470.73
457.24	11122.93
457.61	10812.57
457.97	10483.49
458.33	10140.14
458.70	9754.18
459.06	9421.12
459.42	9140.49
459.79	8812.35
460.15	8553.25
460.51	8275.67
460.88	8010.72
461.24	7718.38
461.60	7499.31
461.96	7258.47
462.33	7067.72
462.69	6859.17
463.05	6659.53
463.42	6478.13
463.78	6289.02
464.14	6099.44
464.50	5958.54
464.87	5821.85
465.23	5644.67
465.59	5517.81
465.95	5367.08
466.32	5234.84
466.68	5093.71
467.04	4961.47
467.40	4801.37
467.77	4678.50
468.13	4552.81
468.49	4465.98
468.85	4375.63
469.22	4311.73
469.58	4230.28
469.94	4132.68
470.30	4037.19
470.66	3970.95
471.03	3871.95
471.39	3801.73
471.75	3740.41
472.11	3676.05
472.47	3609.57
472.84	3556.21
473.20	3482.01
473.56	3412.50
473.92	3329.88
474.28	3258.26
474.65	3181.96
475.01	3138.89
475.37	3088.34
475.73	3056.27
476.09	2999.40
476.45	2971.31
476.81	2903.90
477.18	2849.13
477.54	2784.30
477.90	2756.45
478.26	2686.94
478.62	2664.47
478.98	2635.68
479.34	2607.59
479.71	2550.95
480.07	2527.31
480.43	2491.03
480.79	2451.71
481.15	2421.28
481.51	2388.28
481.87	2367.22
482.23	2326.49
482.59	2287.17
482.96	2249.25
483.32	2249.72
483.68	2221.40
484.04	2197.53
484.40	2183.49
484.76	2163.83
485.12	2117.48
485.48	2090.57
485.84	2073.01
486.20	2041.88
486.56	2015.90
486.92	2002.33
487.28	1974.01
487.64	1948.73
488.00	1929.30
488.37	1904.26
488.73	1869.85
489.09	1852.30
489.45	1825.85
489.81	1803.38
490.17	1790.74
490.53	1783.72
490.89	1762.19
491.25	1743.93
491.61	1734.81
491.97	1705.55
492.33	1690.33
492.69	1672.78
493.05	1658.97
493.41	1630.65
493.77	1620.59
494.13	1594.84
494.49	1585.71
494.85	1569.56
495.21	1559.03
495.57	1553.41
495.93	1546.86
496.29	1539.14
496.64	1533.75
497.00	1514.09
497.36	1491.16
497.72	1475.24
498.08	1450.66
498.44	1432.41
498.80	1434.05
499.16	1433.34
499.52	1426.56
499.88	1428.66
500.24	1422.11
500.60	1410.87
500.96	1396.13
501.32	1384.89
501.68	1359.85
502.03	1350.49
502.39	1352.36
502.75	1343.70
503.11	1337.85
503.47	1335.04
503.83	1331.76
504.19	1310.70
504.55	1306.25
504.91	1291.98
505.26	1294.08
505.62	1288.23
505.98	1295.95
506.34	1293.85
506.70	1293.38
507.06	1287.06
507.42	1273.95
507.78	1259.21
508.13	1256.17
508.49	1251.48
508.85	1244.93
509.21	1249.61
509.57	1251.72
509.93	1245.40
510.28	1240.48
510.64	1229.72
511.00	1219.65
511.36	1216.38
511.72	1205.38
512.07	1205.84
512.43	1202.57
512.79	1206.08
513.15	1203.97
513.51	1202.10
513.86	1204.91
514.22	1206.55
514.58	1199.52
514.94	1206.55
515.30	1209.59
515.65	1200.69
516.01	1212.63
516.37	1214.04
516.73	1206.55
517.08	1201.40
517.44	1206.55
517.80	1201.63
518.16	1191.10
518.51	1176.35
518.87	1175.89
519.23	1172.14
519.59	1168.40
519.94	1171.44
520.30	1171.91
520.66	1169.57
521.01	1160.44
521.37	1139.61
521.73	1143.35
522.09	1144.99
522.44	1146.39
522.80	1136.10
523.16	1148.03
523.51	1144.99
523.87	1147.80
524.23	1139.84
524.58	1147.56
524.94	1144.05
525.30	1135.16
525.65	1120.41
526.01	1117.14
526.37	1115.03
526.72	1119.71
527.08	1126.97
527.44	1134.69
527.79	1140.54
528.15	1144.05
528.51	1146.16
528.86	1136.80
529.22	1130.01
529.58	1123.46
529.93	1126.03
530.29	1116.90
530.65	1123.22
531.00	1137.50
531.36	1139.61
531.71	1135.63
532.07	1139.37
532.43	1141.71
532.78	1136.56
533.14	1145.22
533.49	1150.14
533.85	1142.65
534.21	1129.54
534.56	1129.07
534.92	1123.46
535.27	1112.92
535.63	1118.31
535.98	1121.58
536.34	1114.80
536.69	1106.37
537.05	1099.12
537.41	1099.82
537.76	1115.27
538.12	1115.27
538.47	1122.52
538.83	1120.41
539.18	1115.97
539.54	1106.84
539.89	1114.33
540.25	1114.09
540.60	1129.78
540.96	1133.29
541.31	1135.86
541.67	1129.07
542.02	1129.78
542.38	1114.33
542.73	1113.86
543.09	1115.27
543.44	1112.92
543.80	1111.05
544.15	1118.78
544.51	1122.29
544.86	1119.24
545.22	1133.52
545.57	1137.50
545.93	1137.97
546.28	1132.35
546.64	1126.97
546.99	1118.54
547.35	1115.50
547.70	1108.71
548.05	1119.01
548.41	1127.67
548.76	1121.12
549.12	1116.44
549.47	1129.31
549.83	1123.46
550.18	1119.24
550.53	1116.67
550.89	1120.88
551.24	1112.22
551.60	1111.75
551.95	1102.86
552.30	1109.18
552.66	1104.73
553.01	1102.63
553.37	1094.67
553.72	1094.43
554.07	1094.43
554.43	1100.99
554.78	1114.33
555.13	1110.82
555.49	1122.99
555.84	1126.73
556.19	1122.52
556.55	1114.80
556.90	1120.18
557.26	1106.61
557.61	1095.14
557.96	1094.90
558.32	1093.26
558.67	1095.37
559.02	1107.78
559.37	1117.84
559.73	1121.12
560.08	1131.18
560.43	1133.05
560.79	1126.50
561.14	1112.69
561.49	1105.20
561.85	1103.09
562.20	1100.05
562.55	1107.54
562.90	1114.10
563.26	1125.80
563.61	1124.16
563.96	1122.29
564.32	1116.67
564.67	1116.67
565.02	1106.84
565.37	1100.99
565.73	1101.22
566.08	1091.63
566.43	1091.39
566.78	1097.01
567.14	1100.99
567.49	1104.73
567.84	1117.61
568.19	1129.78
568.54	1121.58
568.90	1112.92
569.25	1111.75
569.60	1107.31
569.95	1097.48
570.31	1105.44
570.66	1104.97
571.01	1100.05
571.36	1093.73
571.71	1099.58
572.06	1097.95
572.42	1097.71
572.77	1102.39
573.12	1112.22
573.47	1108.24
573.82	1102.86
574.18	1111.99
574.53	1111.52
574.88	1109.18
575.23	1102.86
575.58	1102.86
575.93	1093.03
576.28	1096.78
576.64	1080.16
576.99	1076.65
577.34	1074.77
577.69	1091.39
578.04	1086.48
578.39	1101.92
578.74	1119.01
579.09	1132.35
579.44	1123.93
579.80	1130.01
580.15	1124.16
580.50	1107.07
580.85	1096.78
581.20	1094.43
581.55	1084.14
581.90	1097.71
582.25	1095.14
582.60	1095.14
582.95	1097.95
583.30	1094.43
583.65	1082.73
584.00	1088.58
584.35	1086.71
584.71	1086.24
585.06	1090.69
585.41	1088.58
585.76	1089.29
586.11	1096.07
586.46	1094.20
586.81	1099.58
587.16	1114.33
587.51	1115.97
587.86	1105.90
588.21	1113.39
588.56	1119.24
588.91	1109.65
589.26	1120.65
589.61	1133.99
589.96	1136.33
590.31	1125.80
590.66	1124.39
591.01	1113.86
591.36	1101.22
591.71	1098.18
592.06	1100.99
592.41	1104.50
592.76	1105.67
593.10	1112.46
593.45	1104.73
593.80	1108.24
594.15	1106.61
594.50	1110.12
594.85	1110.12
595.20	1112.92
595.55	1107.54
595.90	1103.56
596.25	1103.33
596.60	1100.29
596.95	1092.09
597.30	1090.92
597.64	1139.61
597.99	1140.07
598.34	1145.69
598.69	1147.80
599.04	1149.91
599.39	1105.20
599.74	1095.37
600.09	1094.67
600.44	1106.14
600.78	1116.44
601.13	1115.97
601.48	1123.22
601.83	1117.14
602.18	1114.80
602.53	1100.75
602.88	1094.43
603.22	1088.58
603.57	1090.69
603.92	1089.75
604.27	1098.18
604.62	1101.46
604.97	1107.07
605.31	1111.05
605.66	1099.35
606.01	1093.97
606.36	1104.97
606.71	1104.50
607.05	1095.37
607.40	1101.46
607.75	1103.80
608.10	1096.54
608.44	1093.26
608.79	1097.24
609.14	1095.84
609.49	1091.39
609.84	1090.22
610.18	1094.67
610.53	1098.65
610.88	1096.78
611.23	1113.63
611.57	1115.50
611.92	1115.97
612.27	1116.90
612.62	1115.73
612.96	1108.95
613.31	1104.73
613.66	1100.75
614.00	1091.63
614.35	1089.99
614.70	1096.31
615.05	1098.65
615.39	1098.65
615.74	1089.99
616.09	1093.97
616.43	1086.71
616.78	1086.48
617.13	1086.01
617.47	1097.01
617.82	1092.09
618.17	1084.14
618.51	1091.16
618.86	1091.39
619.21	1097.01
619.55	1103.80
619.90	1098.65
620.25	1080.63
620.59	1087.41
620.94	1084.60
621.29	1085.31
621.63	1095.37
621.98	1114.33
622.32	1115.03
622.67	1118.07
623.02	1117.14
623.36	1111.99
623.71	1104.97
624.05	1098.18
624.40	1096.54
624.75	1097.01
625.09	1101.22
625.44	1087.41
625.78	1085.31
626.13	1085.77
626.48	1086.48
626.82	1085.77
627.17	1104.03
627.51	1108.24
627.86	1103.33
628.20	1096.31
628.55	1092.56
628.89	1082.73
629.24	1077.58
629.58	1078.75
629.93	1084.37
630.28	1085.54
630.62	1084.37
630.97	1099.12
631.31	1101.22
631.66	1100.52
632.00	1111.52
632.35	1118.07
632.69	1106.61
633.04	1106.84
633.38	1106.61
633.73	1097.48
634.07	1095.37
634.42	1093.50
634.76	1097.01
635.11	1097.95
635.45	1099.82
635.79	1097.95
636.14	1111.75
636.48	1102.86
636.83	1097.71
637.17	1093.03
637.52	1087.18
637.86	1082.26
638.21	1084.84
638.55	1095.84
638.89	1083.67
639.24	1084.60
639.58	1082.03
639.93	1091.39
640.27	1082.73
640.61	1095.60
640.96	1097.48
641.30	1094.67
641.65	1091.39
641.99	1095.37
642.33	1104.73
642.68	1110.35
643.02	1104.50
643.37	1097.01
643.71	1100.52
644.05	1089.05
644.40	1083.20
644.74	1089.29
645.08	1094.20
645.43	1094.90
645.77	1105.20
646.11	1105.44
646.46	1113.86
646.80	1109.18
647.14	1106.14
647.49	1094.43
647.83	1101.92
648.17	1088.35
648.52	1092.33
648.86	1087.41
649.20	1095.84
649.55	1103.56
649.89	1107.54
650.23	1108.71
650.57	1108.95
650.92	1100.52
651.26	1090.92
651.60	1090.46
651.95	1093.50
652.29	1089.05
652.63	1084.37
652.97	1089.52
653.32	1091.86
653.66	1094.43
654.00	1099.35
654.34	1110.82
654.69	1100.29
655.03	1094.67
655.37	1089.52
655.71	1098.88
656.05	1093.97
656.40	1095.84
656.74	1091.86
657.08	1086.01
657.42	1067.52
657.76	1062.84
658.11	1070.56
658.45	1072.20
658.79	1069.39
659.13	1081.56
659.47	1092.33
659.82	1084.37
660.16	1089.99
660.50	1104.26
660.84	1106.37
661.18	1095.60
661.52	1086.94
661.87	1080.16
662.21	1075.71
662.55	1072.90
662.89	1083.67
663.23	1100.52
663.57	1109.41
663.91	1111.52
664.25	1116.67
664.60	1107.78
664.94	1107.31
665.28	1098.18
665.62	1097.95
665.96	1088.12
666.30	1094.90
666.64	1087.18
666.98	1095.60
667.32	1095.37
667.66	1098.65
668.01	1093.73
668.35	1093.97
668.69	1094.90
669.03	1092.80
669.37	1091.39
669.71	1084.84
670.05	1083.90
670.39	1072.20
670.73	1065.88
671.07	1065.65
671.41	1068.45
671.75	1075.01
672.09	1084.84
672.43	1082.26
672.77	1079.69
673.11	1089.99
673.45	1086.01
673.79	1075.94
674.13	1079.22
674.47	1092.09
674.81	1086.01
675.15	1082.50
675.49	1090.46
675.83	1098.65
676.17	1087.41
676.51	1089.29
676.85	1104.50
677.19	1099.12
677.53	1087.18
677.87	1089.75
678.21	1085.07
678.55	1078.05
678.89	1075.94
679.23	1078.52
679.57	1084.84
679.90	1090.46
680.24	1087.18
680.58	1093.03
680.92	1093.50
681.26	1079.69
681.60	1069.86
681.94	1070.09
682.28	1060.96
682.62	1068.45
682.96	1076.88
683.29	1084.60
683.63	1082.97
683.97	1100.75
684.31	1106.14
684.65	1104.03
684.99	1098.41
685.33	1093.26
685.67	1079.22
686.00	1065.88
686.34	1059.33
686.68	1064.71
687.02	1068.92
687.36	1070.33
687.70	1073.60
688.03	1084.14
688.37	1090.92
688.71	1086.71
689.05	1091.39
689.39	1089.75
689.72	1088.58
690.06	1079.69
690.40	1078.52
690.74	1077.11
691.08	1073.60
691.41	1070.09
691.75	1068.69
692.09	1061.90
692.43	1066.11
692.76	1073.14
693.10	1077.58
693.44	1082.26
693.78	1093.97
694.11	1093.50
694.45	1086.24
694.79	1076.88
695.13	1073.14
695.46	1070.09
695.80	1073.37
696.14	1077.35
696.48	1086.71
696.81	1082.50
697.15	1081.80
697.49	1078.75
697.82	1090.92
698.16	1091.63
698.50	1100.29
698.83	1101.69
699.17	1095.37
699.51	1076.88
699.84	1073.84
700.18	1076.41
700.52	1084.84
700.85	1081.33
701.19	1073.14
701.53	1066.82
701.86	1054.18
702.20	1041.54
702.54	1054.41
702.87	1067.28
703.21	1078.99
703.55	1085.77
703.88	1089.52
704.22	1078.52
704.55	1077.58
704.89	1074.31
705.23	1070.09
705.56	1078.28
705.90	1080.86
706.23	1080.16
706.57	1072.67
706.91	1078.28
707.24	1068.69
707.58	1067.28
707.91	1066.11
708.25	1075.71
708.58	1064.71
708.92	1065.41
709.26	1067.05
709.59	1077.82
709.93	1068.22
710.26	1081.56
710.60	1083.20
710.93	1077.82
711.27	1064.94
711.60	1068.69
711.94	1061.43
712.27	1061.20
712.61	1064.71
712.94	1078.99
713.28	1085.77
713.61	1088.12
713.95	1078.05
714.28	1078.99
714.62	1069.16
714.95	1069.86
715.29	1074.54
715.62	1086.48
715.96	1092.33
716.29	1093.97
716.63	1087.65
716.96	1083.67
717.29	1085.31
717.63	1081.80
717.96	1076.41
718.30	1076.65
718.63	1079.46
718.97	1070.80
719.30	1072.43
719.63	1073.14
719.97	1064.71
720.30	1065.88
720.64	1083.67
720.97	1092.33
721.30	1097.48
721.64	1097.71
721.97	1093.73
722.31	1082.50
722.64	1062.14
722.97	1069.39
723.31	1073.14
723.64	1065.18
723.97	1070.56
724.31	1080.86
724.64	1075.94
724.98	1083.43
725.31	1101.69
725.64	1090.69
725.98	1088.35
726.31	1083.90
726.64	1086.48
726.97	1072.20
727.31	1079.92
727.64	1084.60
727.97	1078.52
728.31	1075.24
728.64	1078.05
728.97	1078.75
729.31	1070.09
729.64	1074.54
729.97	1078.75
730.30	1069.39
730.64	1071.03
730.97	1078.52
731.30	1079.69
731.63	1069.86
731.97	1089.05
732.30	1076.88
732.63	1078.05
732.96	1087.65
733.30	1081.56
733.63	1082.97
733.96	1096.07
734.29	1095.37
734.63	1086.94
734.96	1100.29
735.29	1098.18
735.62	1095.37
735.95	1099.35
736.29	1102.63
736.62	1094.67
736.95	1077.11
737.28	1072.43
737.61	1069.62
737.94	1062.60
738.28	1061.43
738.61	1073.60
738.94	1076.65
739.27	1077.58
739.60	1074.54
739.93	1072.67
740.27	1072.67
740.60	1074.77
740.93	1072.67
741.26	1077.35
741.59	1088.58
741.92	1095.60
742.25	1095.60
742.58	1095.84
742.91	1101.69
743.25	1091.63
743.58	1080.86
743.91	1071.73
744.24	1070.09
744.57	1068.92
744.90	1077.82
745.23	1079.69
745.56	1085.07
745.89	1074.31
746.22	1068.92
746.55	1063.77
746.88	1054.88
747.21	1067.99
747.54	1086.24
747.87	1101.92
748.20	1096.78
748.53	1109.18
748.87	1096.54
749.20	1096.31
749.53	1085.31
749.86	1082.03
750.19	1069.62
750.52	1066.58
750.85	1056.52
751.18	1058.39
751.51	1061.43
751.84	1075.71
752.16	1087.88
752.49	1091.39
752.82	1092.09
753.15	1098.41
753.48	1093.03
753.81	1082.03
754.14	1086.71
754.47	1079.22
754.80	1072.67
755.13	1070.80
755.46	1072.43
755.79	1064.48
756.12	1061.43
756.45	1064.94
756.78	1065.65
757.11	1070.09
757.43	1075.01
757.76	1077.35
758.09	1079.69
758.42	1093.50
758.75	1083.20
759.08	1070.09
759.41	1070.56
759.74	1070.56
760.07	1056.52
760.39	1063.31
760.72	1081.56
761.05	1083.20
761.38	1078.99
761.71	1081.09
762.04	1080.39
762.36	1076.41
762.69	1083.43
763.02	1083.43
763.35	1086.94
763.68	1087.18
764.01	1090.46
764.33	1085.54
