SpectraSuite Data File
++++++++++++++++++++++++++++++++++++
Date: Mon Aug 26 10:24:37 PDT 2019
User: corrico
Dark Spectrum Present: No
Reference Spectrum Present: No
Number of Sampled Component Spectra: 1
Spectrometers: USB2+H06089
Integration Time (usec): 10000 (USB2+H06089)
Spectra Averaged: 2 (USB2+H06089)
Boxcar Smoothing: 2 (USB2+H06089)
Correct for Electrical Dark: No (USB2+H06089)
Strobe/Lamp Enabled: No (USB2+H06089)
Correct for Detector Non-linearity: No (USB2+H06089)
Correct for Stray Light: No (USB2+H06089)
Number of Pixels in Processed Spectrum: 2048
>>>>>Begin Processed Spectral Data<<<<<
339.70	1027.50
340.07	1027.50
340.45	989.34
340.82	971.32
341.19	948.15
341.57	929.89
341.94	921.70
342.31	918.66
342.69	915.15
343.06	907.66
343.43	899.94
343.81	902.28
344.18	904.38
344.55	898.30
344.93	907.19
345.30	908.13
345.67	909.06
346.04	922.17
346.42	940.66
346.79	954.24
347.16	968.28
347.54	976.47
347.91	975.54
348.28	989.11
348.65	1001.05
349.03	1009.94
349.40	1018.37
349.77	1038.26
350.14	1042.71
350.52	1048.79
350.89	1061.43
351.26	1073.14
351.63	1079.69
352.01	1086.01
352.38	1088.58
352.75	1089.05
353.12	1097.95
353.50	1091.86
353.87	1079.46
354.24	1072.67
354.61	1069.62
354.98	1067.52
355.36	1074.54
355.73	1091.63
356.10	1107.54
356.47	1115.27
356.84	1121.82
357.22	1108.48
357.59	1104.26
357.96	1100.99
358.33	1100.05
358.70	1093.03
359.08	1103.56
359.45	1100.05
359.82	1093.73
360.19	1090.92
360.56	1092.33
360.94	1086.01
361.31	1086.48
361.68	1087.65
362.05	1093.50
362.42	1089.05
362.79	1081.56
363.16	1085.07
363.54	1086.48
363.91	1089.52
364.28	1094.43
364.65	1116.67
365.02	1115.97
365.39	1116.44
365.76	1108.71
366.14	1099.82
366.51	1087.88
366.88	1086.71
367.25	1082.73
367.62	1075.71
367.99	1087.65
368.36	1080.86
368.73	1081.80
369.10	1085.31
369.48	1089.52
369.85	1078.28
370.22	1087.88
370.59	1092.09
370.96	1098.65
371.33	1101.46
371.70	1103.56
372.07	1105.44
372.44	1094.90
372.81	1085.31
373.18	1092.33
373.55	1099.58
373.93	1095.37
374.30	1094.43
374.67	1098.65
375.04	1091.86
375.41	1090.69
375.78	1097.71
376.15	1108.48
376.52	1109.18
376.89	1107.31
377.26	1111.99
377.63	1112.46
378.00	1113.39
378.37	1126.03
378.74	1131.88
379.11	1125.33
379.48	1129.07
379.85	1121.12
380.22	1113.63
380.59	1111.75
380.96	1113.39
381.33	1101.46
381.70	1108.01
382.07	1108.24
382.44	1110.82
382.81	1116.67
383.18	1123.46
383.55	1127.44
383.92	1121.35
384.29	1123.46
384.66	1116.20
385.03	1115.73
385.40	1118.54
385.77	1122.99
386.14	1112.92
386.51	1111.05
386.88	1119.71
387.25	1118.78
387.62	1111.05
387.99	1115.73
388.36	1123.22
388.73	1115.73
389.10	1108.48
389.46	1103.09
389.83	1099.82
390.20	1098.18
390.57	1107.78
390.94	1108.24
391.31	1126.03
391.68	1121.82
392.05	1132.35
392.42	1128.14
392.79	1129.31
393.16	1125.33
393.53	1143.59
393.89	1133.29
394.26	1127.20
394.63	1122.05
395.00	1116.67
395.37	1119.01
395.74	1130.24
396.11	1126.97
396.48	1135.86
396.84	1144.52
397.21	1137.73
397.58	1135.63
397.95	1155.05
398.32	1154.35
398.69	1161.37
399.06	1169.33
399.42	1173.54
399.79	1175.42
400.16	1179.16
400.53	1168.40
400.90	1163.71
401.27	1171.67
401.64	1180.33
402.00	1192.97
402.37	1216.14
402.74	1238.38
403.11	1240.25
403.48	1246.10
403.84	1261.31
404.21	1278.63
404.58	1289.64
404.95	1312.34
405.32	1321.93
405.68	1327.08
406.05	1342.06
406.42	1367.34
406.79	1394.02
407.16	1421.64
407.52	1461.43
407.89	1491.16
408.26	1516.43
408.63	1538.20
408.99	1573.31
409.36	1608.88
409.73	1645.63
410.10	1696.19
410.47	1765.93
410.83	1816.02
411.20	1878.51
411.57	1937.73
411.94	2003.73
412.30	2063.65
412.67	2156.57
413.04	2235.68
413.40	2325.56
413.77	2426.20
414.14	2546.03
414.51	2659.08
414.87	2789.45
415.24	2936.44
415.61	3090.68
415.97	3242.81
416.34	3386.76
416.71	3565.57
417.08	3772.71
417.44	3958.78
417.81	4158.43
418.18	4409.10
418.54	4648.54
418.91	4881.66
419.28	5139.58
419.64	5413.19
420.01	5699.20
420.38	6014.94
420.74	6340.28
421.11	6720.61
421.48	7126.70
421.84	7523.18
422.21	7906.10
422.58	8369.29
422.94	8843.95
423.31	9335.69
423.68	9903.74
424.04	10536.86
424.41	11115.91
424.77	11687.23
425.14	12282.20
425.51	12907.59
425.87	13562.47
426.24	14260.18
426.61	15103.01
426.97	16085.10
427.34	16981.99
427.70	18051.62
428.07	19038.39
428.44	20044.11
428.80	20970.73
429.17	21969.91
429.53	22908.93
429.90	24097.69
430.27	25135.01
430.63	26235.06
431.00	27477.42
431.36	28840.32
431.73	29927.73
432.09	31158.62
432.46	32433.51
432.83	33655.97
433.19	34758.36
433.56	36213.70
433.92	37705.33
434.29	39114.56
434.65	40541.36
435.02	41893.72
435.38	43035.43
435.75	43842.45
436.11	44940.16
436.48	45917.57
436.84	46845.59
437.21	47851.78
437.57	48872.49
437.94	49596.65
438.30	50175.70
438.67	50445.57
439.03	50474.12
439.40	50581.32
439.76	50430.12
440.13	50208.47
440.49	50192.09
440.86	49893.43
441.22	49523.86
441.59	48955.35
441.95	48378.17
442.32	47440.55
442.68	46791.52
443.05	45859.99
443.41	44880.71
443.78	43803.83
444.14	42959.36
444.51	41771.77
444.87	40888.69
445.24	39804.55
445.60	38815.91
445.96	37612.41
446.33	36663.09
446.69	35413.01
447.06	34574.86
447.42	33515.07
447.79	32469.32
448.15	31534.27
448.51	30639.72
448.88	29794.08
449.24	28856.93
449.61	28276.71
449.97	27502.46
450.33	26791.41
450.70	25894.98
451.06	25334.89
451.43	24557.37
451.79	24009.68
452.15	23474.17
452.52	22992.95
452.88	22427.01
453.24	21978.33
453.61	21333.28
453.97	20770.62
454.34	20178.46
454.70	19677.12
455.06	19040.96
455.43	18431.72
455.79	17731.66
456.15	17138.10
456.52	16488.14
456.88	15987.73
457.24	15428.34
457.61	14983.64
457.97	14550.64
458.33	14098.22
458.70	13572.06
459.06	13100.45
459.42	12710.28
459.79	12234.45
460.15	11854.81
460.51	11440.54
460.88	11077.29
461.24	10629.31
461.60	10255.29
461.96	9882.21
462.33	9570.45
462.69	9245.12
463.05	8975.25
463.42	8763.43
463.78	8502.46
464.14	8233.77
464.50	8010.48
464.87	7760.05
465.23	7481.99
465.59	7278.60
465.95	7090.89
466.32	6882.81
466.68	6705.40
467.04	6533.14
467.40	6361.34
467.77	6203.12
468.13	6047.48
468.49	5919.68
468.85	5786.04
469.22	5655.67
469.58	5544.50
469.94	5444.79
470.30	5320.51
470.66	5235.54
471.03	5105.18
471.39	4994.70
471.75	4901.08
472.11	4802.08
472.47	4695.82
472.84	4612.73
473.20	4496.87
473.56	4398.80
473.92	4282.71
474.28	4193.07
474.65	4102.73
475.01	4035.08
475.37	3951.99
475.73	3892.54
476.09	3818.58
476.45	3745.56
476.81	3666.22
477.18	3586.87
477.54	3522.04
477.90	3461.18
478.26	3400.56
478.62	3330.82
478.98	3272.30
479.34	3225.02
479.71	3171.43
480.07	3137.96
480.43	3112.68
480.79	3080.38
481.15	3015.55
481.51	2954.69
481.87	2897.35
482.23	2838.60
482.59	2785.47
482.96	2752.47
483.32	2704.72
483.68	2661.42
484.04	2625.14
484.40	2598.46
484.76	2556.33
485.12	2541.12
485.48	2496.42
485.84	2461.78
486.20	2411.22
486.56	2378.45
486.92	2337.96
487.28	2315.96
487.64	2288.81
488.00	2264.94
488.37	2222.81
488.73	2190.98
489.09	2167.57
489.45	2133.87
489.81	2105.78
490.17	2088.23
490.53	2065.99
490.89	2040.71
491.25	2019.18
491.61	1985.71
491.97	1959.50
492.33	1927.90
492.69	1896.07
493.05	1879.68
493.41	1862.83
493.77	1834.75
494.13	1815.32
494.49	1794.49
494.85	1778.81
495.21	1759.38
495.57	1748.15
495.93	1729.66
496.29	1714.44
496.64	1693.85
497.00	1669.04
497.36	1654.29
497.72	1638.61
498.08	1604.44
498.44	1586.18
498.80	1575.88
499.16	1544.05
499.52	1525.56
499.88	1522.28
500.24	1494.90
500.60	1485.07
500.96	1497.24
501.32	1480.15
501.68	1475.94
502.03	1466.58
502.39	1445.28
502.75	1419.07
503.11	1414.39
503.47	1402.92
503.83	1395.90
504.19	1392.15
504.55	1387.24
504.91	1382.32
505.26	1372.96
505.62	1371.55
505.98	1369.21
506.34	1359.85
506.70	1361.49
507.06	1352.13
507.42	1340.89
507.78	1333.87
508.13	1331.76
508.49	1308.13
508.85	1306.25
509.21	1296.19
509.57	1289.64
509.93	1277.00
510.28	1277.00
510.64	1267.63
511.00	1263.89
511.36	1264.36
511.72	1259.68
512.07	1265.29
512.43	1269.04
512.79	1269.27
513.15	1256.63
513.51	1244.46
513.86	1227.61
514.22	1219.19
514.58	1221.06
514.94	1221.29
515.30	1227.61
515.65	1236.04
516.01	1232.99
516.37	1230.42
516.73	1230.19
517.08	1235.80
517.44	1224.10
517.80	1223.63
518.16	1211.70
518.51	1206.31
518.87	1193.91
519.23	1194.38
519.59	1191.80
519.94	1192.50
520.30	1184.08
520.66	1188.99
521.01	1190.86
521.37	1188.29
521.73	1193.21
522.09	1197.65
522.44	1193.91
522.80	1192.27
523.16	1186.65
523.51	1181.03
523.87	1178.93
524.23	1164.42
524.58	1152.95
524.94	1157.63
525.30	1155.52
525.65	1153.65
526.01	1175.18
526.37	1176.59
526.72	1184.55
527.08	1186.18
527.44	1181.50
527.79	1173.78
528.15	1174.48
528.51	1165.59
528.86	1155.76
529.22	1156.46
529.58	1141.71
529.93	1144.76
530.29	1141.01
530.65	1151.31
531.00	1141.01
531.36	1144.52
531.71	1139.14
532.07	1134.69
532.43	1120.18
532.78	1133.52
533.14	1142.65
533.49	1147.80
533.85	1147.80
534.21	1155.29
534.56	1145.93
534.92	1133.99
535.27	1130.01
535.63	1134.46
535.98	1130.24
536.34	1128.84
536.69	1126.03
537.05	1127.20
537.41	1111.99
537.76	1105.20
538.12	1110.12
538.47	1116.20
538.83	1118.07
539.18	1127.90
539.54	1123.93
539.89	1123.22
540.25	1129.07
540.60	1125.33
540.96	1129.07
541.31	1132.82
541.67	1136.80
542.02	1128.14
542.38	1128.61
542.73	1130.71
543.09	1138.44
543.44	1141.71
543.80	1145.22
544.15	1139.61
544.51	1139.61
544.86	1140.78
545.22	1130.01
545.57	1128.61
545.93	1138.90
546.28	1129.07
546.64	1126.73
546.99	1125.33
547.35	1126.50
547.70	1120.88
548.05	1115.97
548.41	1113.63
548.76	1113.39
549.12	1097.71
549.47	1089.52
549.83	1098.18
550.18	1100.99
550.53	1104.50
550.89	1115.97
551.24	1124.63
551.60	1124.63
551.95	1113.39
552.30	1125.10
552.66	1134.22
553.01	1127.90
553.37	1128.84
553.72	1138.20
554.07	1131.41
554.43	1117.37
554.78	1117.84
555.13	1117.37
555.49	1122.05
555.84	1121.12
556.19	1130.95
556.55	1134.22
556.90	1128.37
557.26	1124.63
557.61	1126.03
557.96	1117.61
558.32	1122.75
558.67	1131.88
559.02	1128.37
559.37	1124.16
559.73	1128.14
560.08	1125.33
560.43	1124.39
560.79	1114.09
561.14	1119.24
561.49	1112.69
561.85	1114.09
562.20	1110.12
562.55	1126.27
562.90	1116.20
563.26	1121.82
563.61	1114.09
563.96	1112.92
564.32	1104.26
564.67	1099.12
565.02	1101.69
565.37	1108.01
565.73	1111.52
566.08	1120.65
566.43	1126.03
566.78	1130.95
567.14	1122.99
567.49	1127.20
567.84	1123.93
568.19	1126.97
568.54	1115.97
568.90	1119.01
569.25	1109.41
569.60	1104.26
569.95	1100.99
570.31	1109.41
570.66	1109.41
571.01	1112.69
571.36	1112.92
571.71	1121.58
572.06	1124.86
572.42	1131.18
572.77	1128.84
573.12	1124.63
573.47	1115.50
573.82	1103.33
574.18	1094.20
574.53	1093.03
574.88	1097.71
575.23	1101.46
575.58	1106.37
575.93	1106.84
576.28	1103.80
576.64	1108.71
576.99	1108.01
577.34	1107.54
577.69	1111.99
578.04	1118.78
578.39	1115.97
578.74	1121.35
579.09	1118.07
579.44	1105.20
579.80	1107.78
580.15	1108.95
580.50	1105.90
580.85	1107.31
581.20	1113.86
581.55	1103.56
581.90	1105.20
582.25	1100.75
582.60	1096.54
582.95	1094.90
583.30	1103.80
583.65	1099.12
584.00	1106.37
584.35	1110.35
584.71	1128.84
585.06	1123.93
585.41	1128.37
585.76	1119.95
586.11	1124.86
586.46	1107.78
586.81	1103.80
587.16	1106.61
587.51	1103.80
587.86	1099.12
588.21	1100.05
588.56	1109.18
588.91	1104.26
589.26	1107.78
589.61	1111.52
589.96	1110.58
590.31	1107.31
590.66	1099.35
591.01	1097.71
591.36	1087.88
591.71	1090.92
592.06	1090.46
592.41	1093.03
592.76	1094.90
593.10	1096.78
593.45	1086.48
593.80	1078.99
594.15	1086.48
594.50	1085.77
594.85	1086.71
595.20	1103.56
595.55	1105.67
595.90	1099.58
596.25	1096.07
596.60	1094.90
596.95	1088.12
597.30	1091.86
597.64	1140.54
597.99	1148.73
598.34	1153.65
598.69	1158.10
599.04	1161.61
599.39	1112.92
599.74	1115.73
600.09	1106.84
600.44	1103.80
600.78	1097.71
601.13	1102.16
601.48	1091.16
601.83	1100.29
602.18	1098.65
602.53	1097.95
602.88	1093.03
603.22	1089.99
603.57	1092.33
603.92	1090.92
604.27	1084.37
604.62	1085.07
604.97	1091.16
605.31	1092.33
605.66	1095.60
606.01	1094.43
606.36	1099.35
606.71	1098.41
607.05	1088.35
607.40	1089.29
607.75	1098.18
608.10	1098.41
608.44	1099.35
608.79	1100.99
609.14	1100.29
609.49	1102.63
609.84	1099.35
610.18	1097.01
610.53	1112.69
610.88	1111.52
611.23	1109.41
611.57	1113.86
611.92	1116.90
612.27	1110.58
612.62	1115.73
612.96	1104.97
613.31	1098.18
613.66	1095.84
614.00	1100.75
614.35	1099.35
614.70	1110.58
615.05	1119.01
615.39	1123.46
615.74	1109.88
616.09	1105.67
616.43	1110.12
616.78	1092.56
617.13	1087.18
617.47	1099.12
617.82	1097.01
618.17	1088.58
618.51	1092.80
618.86	1098.41
619.21	1093.73
619.55	1101.92
619.90	1110.58
620.25	1131.18
620.59	1132.82
620.94	1123.22
621.29	1115.50
621.63	1111.99
621.98	1096.78
622.32	1087.65
622.67	1088.35
623.02	1094.20
623.36	1095.84
623.71	1090.92
624.05	1100.52
624.40	1111.52
624.75	1107.78
625.09	1105.90
625.44	1100.99
625.78	1094.43
626.13	1100.29
626.48	1102.39
626.82	1104.03
627.17	1108.95
627.51	1105.20
627.86	1092.56
628.20	1094.20
628.55	1088.35
628.89	1098.88
629.24	1104.26
629.58	1105.90
629.93	1092.33
630.28	1093.73
630.62	1099.82
630.97	1099.82
631.31	1102.16
631.66	1112.92
632.00	1124.39
632.35	1110.35
632.69	1119.01
633.04	1120.65
633.38	1117.37
633.73	1108.01
634.07	1107.78
634.42	1101.92
634.76	1094.20
635.11	1085.77
635.45	1087.18
635.79	1089.52
636.14	1092.09
636.48	1094.43
636.83	1109.65
637.17	1105.20
637.52	1103.56
637.86	1093.97
638.21	1089.05
638.55	1080.16
638.89	1082.26
639.24	1082.50
639.58	1086.94
639.93	1092.09
640.27	1095.14
640.61	1095.60
640.96	1087.88
641.30	1082.50
641.65	1076.88
641.99	1078.75
642.33	1076.65
642.68	1081.33
643.02	1094.20
643.37	1093.73
643.71	1091.16
644.05	1089.75
644.40	1089.99
644.74	1078.28
645.08	1083.90
645.43	1092.33
645.77	1099.58
646.11	1105.44
646.46	1101.92
646.80	1100.05
647.14	1092.09
647.49	1087.88
647.83	1089.05
648.17	1104.26
648.52	1102.86
648.86	1109.88
649.20	1107.31
649.55	1097.24
649.89	1090.69
650.23	1091.16
650.57	1089.75
650.92	1094.20
651.26	1090.92
651.60	1082.26
651.95	1082.73
652.29	1072.20
652.63	1065.88
652.97	1065.88
653.32	1069.39
653.66	1066.11
654.00	1075.01
654.34	1083.20
654.69	1089.99
655.03	1089.75
655.37	1082.26
655.71	1068.69
656.05	1069.16
656.40	1078.75
656.74	1078.99
657.08	1089.52
657.42	1097.71
657.76	1103.80
658.11	1093.73
658.45	1097.24
658.79	1102.39
659.13	1098.41
659.47	1093.73
659.82	1095.14
660.16	1091.39
660.50	1089.29
660.84	1093.97
661.18	1090.22
661.52	1091.86
661.87	1099.82
662.21	1093.73
662.55	1095.60
662.89	1103.33
663.23	1100.75
663.57	1087.41
663.91	1082.97
664.25	1091.86
664.60	1083.67
664.94	1082.03
665.28	1091.16
665.62	1092.56
665.96	1081.09
666.30	1071.97
666.64	1076.65
666.98	1077.11
667.32	1076.88
667.66	1068.92
668.01	1082.26
668.35	1076.41
668.69	1073.37
669.03	1082.50
669.37	1099.12
669.71	1093.50
670.05	1097.71
670.39	1097.95
670.73	1093.97
671.07	1089.29
671.41	1079.22
671.75	1078.75
672.09	1078.99
672.43	1088.35
672.77	1081.80
673.11	1086.24
673.45	1083.20
673.79	1083.90
674.13	1076.41
674.47	1077.11
674.81	1083.90
675.15	1084.14
675.49	1087.88
675.83	1090.22
676.17	1089.99
676.51	1082.73
676.85	1089.99
677.19	1089.05
677.53	1088.82
677.87	1089.99
678.21	1094.67
678.55	1087.65
678.89	1075.01
679.23	1068.22
679.57	1061.67
679.90	1065.65
680.24	1077.11
680.58	1085.77
680.92	1085.77
681.26	1082.03
681.60	1070.09
681.94	1051.84
682.28	1056.52
682.62	1059.33
682.96	1071.97
683.29	1084.60
683.63	1094.20
683.97	1095.60
684.31	1099.35
684.65	1094.20
684.99	1089.29
685.33	1091.39
685.67	1082.26
686.00	1082.97
686.34	1099.82
686.68	1089.75
687.02	1087.88
687.36	1094.67
687.70	1092.09
688.03	1079.22
688.37	1093.03
688.71	1099.35
689.05	1096.54
689.39	1094.67
689.72	1095.37
690.06	1094.67
690.40	1096.78
690.74	1091.39
691.08	1095.60
691.41	1097.48
691.75	1091.86
692.09	1080.39
692.43	1083.20
692.76	1081.33
693.10	1076.65
693.44	1079.92
693.78	1083.43
694.11	1078.52
694.45	1080.39
694.79	1081.80
695.13	1082.26
695.46	1079.46
695.80	1091.16
696.14	1086.24
696.48	1087.18
696.81	1085.31
697.15	1086.48
697.49	1080.39
697.82	1082.73
698.16	1085.54
698.50	1086.71
698.83	1091.86
699.17	1100.29
699.51	1097.71
699.84	1092.56
700.18	1097.24
700.52	1091.39
700.85	1083.67
701.19	1082.50
701.53	1082.26
701.86	1075.01
702.20	1071.97
702.54	1067.75
702.87	1076.65
703.21	1072.90
703.55	1076.18
703.88	1082.97
704.22	1089.05
704.55	1084.14
704.89	1096.31
705.23	1092.80
705.56	1089.99
705.90	1084.14
706.23	1081.09
706.57	1077.58
706.91	1076.65
707.24	1086.71
707.58	1085.54
707.91	1093.73
708.25	1088.35
708.58	1088.12
708.92	1076.18
709.26	1084.14
709.59	1080.86
709.93	1093.73
710.26	1101.69
710.60	1106.84
710.93	1099.35
711.27	1095.84
711.60	1085.54
711.94	1079.22
712.27	1072.90
712.61	1077.35
712.94	1082.73
713.28	1085.31
713.61	1078.99
713.95	1082.73
714.28	1089.52
714.62	1077.11
714.95	1071.03
715.29	1072.43
715.62	1066.58
715.96	1053.01
716.29	1060.96
716.63	1061.20
716.96	1060.73
717.29	1071.03
717.63	1076.65
717.96	1070.80
718.30	1071.97
718.63	1077.35
718.97	1071.03
719.30	1076.88
719.63	1082.03
719.97	1086.71
720.30	1086.71
720.64	1088.82
720.97	1091.63
721.30	1093.73
721.64	1097.95
721.97	1099.12
722.31	1101.46
722.64	1094.43
722.97	1091.86
723.31	1090.46
723.64	1092.09
723.97	1092.56
724.31	1087.41
724.64	1086.24
724.98	1072.90
725.31	1067.52
725.64	1067.28
725.98	1072.20
726.31	1073.60
726.64	1080.16
726.97	1078.99
727.31	1082.03
727.64	1080.39
727.97	1080.63
728.31	1082.03
728.64	1084.84
728.97	1076.88
729.31	1073.60
729.64	1064.94
729.97	1062.37
730.30	1062.37
730.64	1063.31
730.97	1066.58
731.30	1076.18
731.63	1080.63
731.97	1087.41
732.30	1090.22
732.63	1093.03
732.96	1095.60
733.30	1094.67
733.63	1089.05
733.96	1093.97
734.29	1089.99
734.63	1092.56
734.96	1092.09
735.29	1096.07
735.62	1095.84
735.95	1101.46
736.29	1093.50
736.62	1084.60
736.95	1081.80
737.28	1069.39
737.61	1062.37
737.94	1067.99
738.28	1072.43
738.61	1075.48
738.94	1077.58
739.27	1082.26
739.60	1080.39
739.93	1089.29
740.27	1088.58
740.60	1089.75
740.93	1088.58
741.26	1085.31
741.59	1076.65
741.92	1067.99
742.25	1067.75
742.58	1067.05
742.91	1068.45
743.25	1067.05
743.58	1078.75
743.91	1079.22
744.24	1074.54
744.57	1076.65
744.90	1082.03
745.23	1074.54
745.56	1077.58
745.89	1085.77
746.22	1086.01
746.55	1088.82
746.88	1098.65
747.21	1102.63
747.54	1101.22
747.87	1092.33
748.20	1093.26
748.53	1093.73
748.87	1086.01
749.20	1092.09
749.53	1099.12
749.86	1090.69
750.19	1076.65
750.52	1089.05
750.85	1080.86
751.18	1090.22
751.51	1089.99
751.84	1096.54
752.16	1089.99
752.49	1101.69
752.82	1091.86
753.15	1094.67
753.48	1097.01
753.81	1098.18
754.14	1088.12
754.47	1083.67
754.80	1077.58
755.13	1079.92
755.46	1079.69
755.79	1084.60
756.12	1088.82
756.45	1103.09
756.78	1101.46
757.11	1102.16
757.43	1097.71
757.76	1091.16
758.09	1084.14
758.42	1077.82
758.75	1066.58
759.08	1058.62
759.41	1062.84
759.74	1067.28
760.07	1066.35
760.39	1070.33
760.72	1068.22
761.05	1069.62
761.38	1069.39
761.71	1076.65
762.04	1079.69
762.36	1084.60
762.69	1080.63
763.02	1072.90
763.35	1066.58
763.68	1060.73
764.01	1070.56
