SpectraSuite Data File
++++++++++++++++++++++++++++++++++++
Date: Mon Aug 26 10:24:38 PDT 2019
User: corrico
Dark Spectrum Present: No
Reference Spectrum Present: No
Number of Sampled Component Spectra: 1
Spectrometers: USB2+H06089
Integration Time (usec): 10000 (USB2+H06089)
Spectra Averaged: 2 (USB2+H06089)
Boxcar Smoothing: 2 (USB2+H06089)
Correct for Electrical Dark: No (USB2+H06089)
Strobe/Lamp Enabled: No (USB2+H06089)
Correct for Detector Non-linearity: No (USB2+H06089)
Correct for Stray Light: No (USB2+H06089)
Number of Pixels in Processed Spectrum: 2048
>>>>>Begin Processed Spectral Data<<<<<
339.70	1031.01
340.07	1031.01
340.45	1001.98
340.82	972.02
341.19	948.39
341.57	917.96
341.94	905.09
342.31	902.98
342.69	900.17
343.06	896.19
343.43	895.72
343.81	891.98
344.18	884.96
344.55	880.98
344.93	889.87
345.30	906.02
345.67	917.72
346.04	924.04
346.42	949.79
346.79	960.56
347.16	965.94
347.54	970.39
347.91	978.58
348.28	982.32
348.65	987.24
349.03	990.05
349.40	1007.13
349.77	1031.01
350.14	1043.88
350.52	1051.60
350.89	1062.37
351.26	1060.26
351.63	1058.16
352.01	1057.69
352.38	1073.14
352.75	1081.09
353.12	1085.77
353.50	1092.56
353.87	1105.67
354.24	1097.71
354.61	1096.07
354.98	1095.60
355.36	1097.71
355.73	1088.58
356.10	1093.97
356.47	1094.20
356.84	1096.07
357.22	1092.56
357.59	1100.05
357.96	1099.12
358.33	1101.69
358.70	1109.88
359.08	1110.58
359.45	1106.61
359.82	1107.31
360.19	1113.86
360.56	1116.20
360.94	1123.22
361.31	1128.84
361.68	1122.29
362.05	1117.84
362.42	1113.86
362.79	1105.20
363.16	1102.39
363.54	1111.75
363.91	1114.56
364.28	1108.24
364.65	1107.07
365.02	1103.80
365.39	1089.52
365.76	1079.92
366.14	1088.35
366.51	1085.31
366.88	1093.97
367.25	1104.03
367.62	1110.35
367.99	1101.22
368.36	1113.16
368.73	1105.44
369.10	1103.09
369.48	1095.60
369.85	1098.65
370.22	1092.09
370.59	1096.78
370.96	1097.01
371.33	1101.69
371.70	1098.65
372.07	1093.26
372.44	1087.88
372.81	1084.37
373.18	1080.63
373.55	1089.05
373.93	1087.41
374.30	1089.99
374.67	1086.94
375.04	1091.86
375.41	1091.39
375.78	1097.95
376.15	1095.60
376.52	1109.65
376.89	1105.90
377.26	1096.54
377.63	1103.09
378.00	1111.29
378.37	1115.73
378.74	1110.82
379.11	1121.12
379.48	1111.29
379.85	1107.31
380.22	1097.95
380.59	1105.67
380.96	1100.99
381.33	1103.09
381.70	1099.58
382.07	1101.22
382.44	1115.27
382.81	1113.16
383.18	1117.84
383.55	1124.16
383.92	1124.39
384.29	1111.99
384.66	1122.75
385.03	1120.18
385.40	1114.80
385.77	1113.16
386.14	1127.44
386.51	1125.56
386.88	1121.58
387.25	1127.44
387.62	1125.33
387.99	1109.88
388.36	1104.97
388.73	1109.88
389.10	1104.50
389.46	1107.31
389.83	1108.48
390.20	1109.65
390.57	1112.69
390.94	1117.61
391.31	1118.07
391.68	1123.22
392.05	1130.01
392.42	1121.82
392.79	1120.88
393.16	1124.63
393.53	1127.67
393.89	1121.82
394.26	1125.10
394.63	1133.52
395.00	1137.27
395.37	1142.65
395.74	1147.80
396.11	1157.86
396.48	1167.93
396.84	1160.67
397.21	1164.18
397.58	1165.35
397.95	1164.42
398.32	1142.18
398.69	1142.42
399.06	1148.27
399.42	1152.25
399.79	1155.76
400.16	1165.35
400.53	1181.50
400.90	1173.31
401.27	1189.69
401.64	1200.23
402.00	1210.06
402.37	1215.91
402.74	1225.50
403.11	1224.80
403.48	1232.29
403.84	1244.46
404.21	1252.65
404.58	1267.40
404.95	1297.12
405.32	1319.13
405.68	1346.04
406.05	1369.45
406.42	1387.24
406.79	1389.11
407.16	1410.41
407.52	1431.71
407.89	1458.15
408.26	1497.94
408.63	1548.50
408.99	1583.61
409.36	1630.65
409.73	1686.59
410.10	1736.21
410.47	1790.98
410.83	1847.85
411.20	1908.94
411.57	1972.14
411.94	2036.73
412.30	2098.99
412.67	2167.10
413.04	2252.77
413.40	2331.64
413.77	2443.99
414.14	2551.42
414.51	2694.42
414.87	2831.81
415.24	2972.95
415.61	3116.42
415.97	3270.90
416.34	3447.84
416.71	3626.89
417.08	3848.54
417.44	4070.89
417.81	4319.22
418.18	4546.72
418.54	4791.54
418.91	5052.05
419.28	5332.44
419.64	5620.56
420.01	5966.26
420.38	6330.92
420.74	6685.04
421.11	7058.82
421.48	7477.08
421.84	7875.20
422.21	8271.69
422.58	8766.94
422.94	9276.25
423.31	9784.84
423.68	10381.21
424.04	11037.03
424.41	11617.25
424.77	12243.11
425.14	12904.78
425.51	13496.23
425.87	14249.65
426.24	15023.43
426.61	15920.32
426.97	16930.50
427.34	17966.42
427.70	18985.26
428.07	20024.45
428.44	21135.97
428.80	22192.26
429.17	23254.63
429.53	24294.99
429.90	25583.23
430.27	26643.49
430.63	27817.03
431.00	29207.55
431.36	30662.66
431.73	31912.97
432.09	33244.03
432.46	34551.22
432.83	35869.41
433.19	37150.39
433.56	38619.78
433.92	40190.51
434.29	41769.67
434.65	43268.55
435.02	44530.56
435.38	45854.84
435.75	46746.35
436.11	47936.98
436.48	48863.36
436.84	49979.57
437.21	50766.22
437.57	51834.91
437.94	52459.36
438.30	53081.71
438.67	53340.57
439.03	53554.97
439.40	53672.23
439.76	53551.93
440.13	53371.94
440.49	53363.04
440.86	52941.05
441.22	52482.07
441.59	51845.21
441.95	51206.24
442.32	50208.70
442.68	49491.80
443.05	48490.98
443.41	47603.22
443.78	46559.11
444.14	45672.98
444.51	44505.75
444.87	43686.10
445.24	42485.87
445.60	41323.09
445.96	40076.52
446.33	39063.54
446.69	37699.01
447.06	36743.60
447.42	35745.36
447.79	34693.06
448.15	33729.69
448.51	32851.53
448.88	32066.98
449.24	31025.67
449.61	30265.47
449.97	29475.77
450.33	28713.46
450.70	27712.41
451.06	27157.70
451.43	26400.07
451.79	25762.28
452.15	25164.04
452.52	24677.91
452.88	24076.15
453.24	23513.02
453.61	22915.48
453.97	22212.39
454.34	21512.33
454.70	20921.11
455.06	20322.64
455.43	19613.46
455.79	18946.64
456.15	18379.99
456.52	17681.58
456.88	17159.87
457.24	16554.61
457.61	16073.63
457.97	15553.09
458.33	15010.56
458.70	14425.66
459.06	13887.33
459.42	13409.63
459.79	12845.80
460.15	12410.69
460.51	11959.67
460.88	11563.88
461.24	11125.27
461.60	10792.21
461.96	10450.96
462.33	10125.39
462.69	9819.48
463.05	9532.30
463.42	9282.33
463.78	9008.02
464.14	8712.88
464.50	8477.65
464.87	8202.41
465.23	7902.58
465.59	7672.98
465.95	7485.03
466.32	7263.85
466.68	7066.55
467.04	6868.30
467.40	6697.91
467.77	6525.88
468.13	6354.79
468.49	6213.89
468.85	6117.69
469.22	5994.35
469.58	5869.60
469.94	5752.10
470.30	5608.86
470.66	5486.68
471.03	5364.51
471.39	5281.42
471.75	5161.12
472.11	5069.83
472.47	4973.17
472.84	4842.57
473.20	4678.26
473.56	4591.90
473.92	4484.47
474.28	4377.04
474.65	4304.25
475.01	4239.18
475.37	4152.11
475.73	4081.43
476.09	3985.46
476.45	3898.16
476.81	3821.16
477.18	3743.45
477.54	3661.77
477.90	3590.62
478.26	3522.27
478.62	3443.16
478.98	3388.39
479.34	3346.26
479.71	3305.30
480.07	3253.34
480.43	3227.13
480.79	3163.47
481.15	3100.51
481.51	3071.95
481.87	3035.67
482.23	2981.84
482.59	2936.20
482.96	2876.52
483.32	2808.88
483.68	2763.00
484.04	2712.21
484.40	2684.36
484.76	2662.36
485.12	2620.93
485.48	2573.18
485.84	2558.21
486.20	2519.82
486.56	2480.27
486.92	2451.71
487.28	2429.24
487.64	2385.24
488.00	2357.62
488.37	2327.90
488.73	2283.43
489.09	2248.08
489.45	2212.74
489.81	2146.97
490.17	2108.59
490.53	2097.35
490.89	2057.80
491.25	2031.58
491.61	2021.99
491.97	1998.82
492.33	1957.62
492.69	1945.45
493.05	1915.73
493.41	1891.62
493.77	1869.39
494.13	1844.58
494.49	1823.51
494.85	1799.64
495.21	1780.21
495.57	1771.08
495.93	1760.32
496.29	1738.55
496.64	1713.51
497.00	1695.48
497.36	1669.97
497.72	1647.74
498.08	1607.95
498.44	1595.31
498.80	1577.76
499.16	1566.05
499.52	1552.01
499.88	1553.41
500.24	1539.37
500.60	1540.77
500.96	1529.07
501.32	1521.35
501.68	1520.18
502.03	1505.90
502.39	1483.67
502.75	1470.79
503.11	1465.18
503.47	1449.03
503.83	1452.30
504.19	1449.96
504.55	1432.64
504.91	1413.45
505.26	1405.96
505.62	1398.47
505.98	1387.94
506.34	1381.85
506.70	1381.85
507.06	1381.85
507.42	1366.40
507.78	1352.13
508.13	1348.85
508.49	1338.32
508.85	1328.02
509.21	1324.51
509.57	1313.74
509.93	1308.36
510.28	1307.19
510.64	1297.59
511.00	1293.85
511.36	1299.47
511.72	1303.91
512.07	1296.42
512.43	1289.40
512.79	1271.38
513.15	1262.25
513.51	1247.97
513.86	1241.65
514.22	1235.80
514.58	1254.06
514.94	1250.31
515.30	1243.53
515.65	1251.72
516.01	1258.97
516.37	1248.21
516.73	1239.31
517.08	1245.87
517.44	1237.44
517.80	1225.74
518.16	1214.97
518.51	1223.63
518.87	1214.97
519.23	1196.95
519.59	1192.50
519.94	1188.29
520.30	1181.03
520.66	1179.86
521.01	1183.37
521.37	1181.97
521.73	1184.78
522.09	1185.48
522.44	1186.18
522.80	1187.12
523.16	1183.61
523.51	1183.14
523.87	1166.29
524.23	1163.01
524.58	1172.61
524.94	1170.97
525.30	1168.40
525.65	1171.91
526.01	1169.33
526.37	1150.14
526.72	1148.03
527.08	1149.20
527.44	1154.12
527.79	1153.18
528.15	1158.10
528.51	1151.54
528.86	1155.52
529.22	1158.10
529.58	1155.52
529.93	1153.65
530.29	1160.67
530.65	1163.25
531.00	1159.74
531.36	1163.48
531.71	1163.48
532.07	1161.14
532.43	1154.59
532.78	1157.63
533.14	1156.69
533.49	1152.01
533.85	1159.97
534.21	1144.29
534.56	1148.73
534.92	1142.88
535.27	1151.08
535.63	1140.07
535.98	1150.84
536.34	1140.78
536.69	1134.93
537.05	1137.03
537.41	1137.27
537.76	1131.18
538.12	1125.80
538.47	1124.39
538.83	1127.67
539.18	1131.18
539.54	1129.31
539.89	1135.86
540.25	1141.95
540.60	1132.59
540.96	1124.39
541.31	1125.80
541.67	1128.61
542.02	1138.90
542.38	1138.90
542.73	1146.86
543.09	1152.48
543.44	1150.37
543.80	1145.46
544.15	1140.54
544.51	1142.65
544.86	1142.65
545.22	1137.03
545.57	1147.33
545.93	1148.03
546.28	1138.44
546.64	1137.27
546.99	1141.95
547.35	1125.33
547.70	1126.73
548.05	1132.59
548.41	1129.31
548.76	1126.27
549.12	1124.63
549.47	1125.10
549.83	1121.12
550.18	1117.84
550.53	1125.56
550.89	1130.24
551.24	1135.16
551.60	1139.37
551.95	1151.08
552.30	1139.37
552.66	1132.12
553.01	1126.97
553.37	1121.12
553.72	1116.20
554.07	1118.78
554.43	1119.48
554.78	1118.07
555.13	1118.31
555.49	1109.65
555.84	1103.09
556.19	1094.43
556.55	1085.54
556.90	1080.63
557.26	1080.86
557.61	1088.12
557.96	1097.48
558.32	1105.20
558.67	1115.27
559.02	1119.71
559.37	1124.16
559.73	1129.54
560.08	1123.69
560.43	1126.27
560.79	1123.22
561.14	1119.48
561.49	1115.50
561.85	1117.61
562.20	1112.92
562.55	1116.44
562.90	1109.88
563.26	1101.69
563.61	1103.33
563.96	1101.92
564.32	1091.16
564.67	1094.20
565.02	1096.31
565.37	1104.73
565.73	1105.20
566.08	1115.03
566.43	1120.65
566.78	1127.67
567.14	1128.61
567.49	1125.80
567.84	1125.80
568.19	1121.58
568.54	1116.20
568.90	1097.71
569.25	1098.18
569.60	1105.20
569.95	1100.99
570.31	1104.26
570.66	1114.10
571.01	1110.58
571.36	1113.39
571.71	1112.92
572.06	1109.65
572.42	1111.99
572.77	1119.01
573.12	1109.41
573.47	1117.14
573.82	1117.37
574.18	1119.48
574.53	1114.10
574.88	1105.67
575.23	1102.39
575.58	1099.12
575.93	1098.41
576.28	1095.37
576.64	1103.09
576.99	1107.07
577.34	1116.90
577.69	1108.71
578.04	1109.88
578.39	1108.48
578.74	1109.65
579.09	1102.86
579.44	1104.26
579.80	1105.90
580.15	1105.44
580.50	1101.69
580.85	1104.97
581.20	1105.20
581.55	1114.80
581.90	1115.73
582.25	1115.97
582.60	1116.67
582.95	1120.18
583.30	1115.27
583.65	1121.58
584.00	1118.31
584.35	1116.20
584.71	1116.20
585.06	1113.86
585.41	1102.63
585.76	1101.69
586.11	1111.52
586.46	1115.03
586.81	1115.50
587.16	1122.52
587.51	1135.39
587.86	1128.61
588.21	1120.41
588.56	1110.12
588.91	1110.82
589.26	1091.63
589.61	1086.24
589.96	1094.90
590.31	1095.60
590.66	1097.24
591.01	1104.03
591.36	1105.20
591.71	1097.48
592.06	1101.69
592.41	1102.63
592.76	1098.41
593.10	1101.22
593.45	1105.20
593.80	1109.88
594.15	1103.09
594.50	1093.97
594.85	1087.41
595.20	1080.86
595.55	1077.58
595.90	1081.80
596.25	1098.41
596.60	1104.50
596.95	1097.48
597.30	1098.88
597.64	1139.14
597.99	1135.63
598.34	1131.65
598.69	1134.69
599.04	1137.03
599.39	1089.52
599.74	1094.67
600.09	1098.18
600.44	1108.48
600.78	1105.20
601.13	1098.18
601.48	1095.84
601.83	1097.71
602.18	1093.97
602.53	1088.58
602.88	1099.35
603.22	1097.24
603.57	1094.90
603.92	1098.65
604.27	1104.03
604.62	1106.61
604.97	1100.05
605.31	1106.84
605.66	1095.14
606.01	1096.07
606.36	1091.39
606.71	1103.80
607.05	1095.14
607.40	1102.16
607.75	1098.65
608.10	1110.58
608.44	1112.92
608.79	1117.84
609.14	1124.16
609.49	1131.41
609.84	1120.41
610.18	1111.52
610.53	1113.63
610.88	1118.54
611.23	1122.52
611.57	1118.78
611.92	1117.14
612.27	1109.65
612.62	1098.41
612.96	1098.41
613.31	1104.97
613.66	1107.07
614.00	1105.20
614.35	1107.78
614.70	1111.05
615.05	1106.14
615.39	1115.50
615.74	1113.16
616.09	1119.95
616.43	1105.44
616.78	1110.58
617.13	1104.03
617.47	1104.50
617.82	1089.29
618.17	1088.35
618.51	1086.48
618.86	1088.82
619.21	1088.82
619.55	1095.60
619.90	1095.37
620.25	1088.82
620.59	1082.26
620.94	1089.05
621.29	1096.54
621.63	1100.52
621.98	1089.75
622.32	1095.14
622.67	1092.80
623.02	1086.48
623.36	1083.67
623.71	1108.01
624.05	1106.61
624.40	1102.39
624.75	1093.73
625.09	1100.75
625.44	1090.22
625.78	1085.77
626.13	1093.26
626.48	1096.78
626.82	1092.33
627.17	1090.92
627.51	1093.97
627.86	1085.54
628.20	1082.03
628.55	1078.05
628.89	1087.88
629.24	1099.12
629.58	1116.44
629.93	1122.99
630.28	1130.95
630.62	1111.75
630.97	1100.29
631.31	1092.33
631.66	1097.48
632.00	1100.99
632.35	1113.39
632.69	1108.48
633.04	1102.39
633.38	1108.95
633.73	1099.58
634.07	1103.56
634.42	1108.01
634.76	1115.97
635.11	1096.54
635.45	1091.86
635.79	1080.86
636.14	1078.52
636.48	1070.33
636.83	1090.22
637.17	1091.39
637.52	1096.78
637.86	1090.46
638.21	1091.86
638.55	1073.37
638.89	1078.52
639.24	1086.24
639.58	1095.37
639.93	1100.99
640.27	1112.46
640.61	1116.44
640.96	1117.14
641.30	1115.03
641.65	1114.56
641.99	1104.50
642.33	1093.73
642.68	1089.29
643.02	1084.84
643.37	1081.09
643.71	1084.60
644.05	1092.80
644.40	1086.24
644.74	1085.54
645.08	1086.94
645.43	1092.80
645.77	1085.54
646.11	1084.14
646.46	1083.90
646.80	1082.73
647.14	1072.20
647.49	1072.43
647.83	1071.97
648.17	1075.01
648.52	1069.62
648.86	1080.63
649.20	1089.99
649.55	1088.58
649.89	1097.24
650.23	1099.12
650.57	1094.20
650.92	1088.35
651.26	1100.52
651.60	1097.48
651.95	1092.33
652.29	1095.60
652.63	1090.22
652.97	1088.58
653.32	1086.24
653.66	1102.63
654.00	1111.52
654.34	1113.63
654.69	1104.50
655.03	1100.29
655.37	1094.20
655.71	1081.80
656.05	1088.12
656.40	1098.65
656.74	1094.67
657.08	1091.39
657.42	1093.26
657.76	1093.50
658.11	1097.24
658.45	1102.63
658.79	1104.26
659.13	1103.09
659.47	1105.20
659.82	1098.41
660.16	1093.97
660.50	1084.84
660.84	1077.82
661.18	1072.90
661.52	1071.50
661.87	1081.33
662.21	1095.84
662.55	1098.88
662.89	1102.16
663.23	1102.39
663.57	1097.95
663.91	1094.43
664.25	1100.99
664.60	1100.52
664.94	1100.29
665.28	1110.35
665.62	1115.50
665.96	1115.97
666.30	1119.01
666.64	1118.54
666.98	1108.01
667.32	1102.39
667.66	1104.50
668.01	1102.39
668.35	1103.33
668.69	1096.78
669.03	1090.22
669.37	1085.54
669.71	1079.22
670.05	1085.07
670.39	1089.29
670.73	1095.37
671.07	1092.56
671.41	1102.16
671.75	1100.05
672.09	1111.75
672.43	1109.41
672.77	1109.18
673.11	1093.97
673.45	1092.09
673.79	1080.16
674.13	1082.50
674.47	1090.92
674.81	1101.22
675.15	1101.92
675.49	1115.03
675.83	1109.18
676.17	1109.88
676.51	1110.58
676.85	1104.26
677.19	1092.33
677.53	1088.82
677.87	1073.14
678.21	1073.37
678.55	1075.01
678.89	1080.86
679.23	1089.52
679.57	1100.29
679.90	1104.97
680.24	1108.71
680.58	1108.95
680.92	1106.14
681.26	1105.67
681.60	1092.80
681.94	1087.88
682.28	1085.31
682.62	1087.41
682.96	1085.07
683.29	1083.43
683.63	1092.09
683.97	1097.01
684.31	1100.75
684.65	1103.56
684.99	1115.27
685.33	1111.99
685.67	1100.29
686.00	1089.52
686.34	1090.92
686.68	1087.88
687.02	1089.52
687.36	1089.75
687.70	1091.86
688.03	1089.05
688.37	1090.69
688.71	1080.63
689.05	1085.07
689.39	1084.14
689.72	1088.12
690.06	1093.26
690.40	1099.12
690.74	1104.03
691.08	1104.03
691.41	1097.01
691.75	1081.56
692.09	1074.07
692.43	1072.20
692.76	1083.67
693.10	1082.03
693.44	1095.60
693.78	1108.24
694.11	1113.86
694.45	1105.44
694.79	1113.86
695.13	1098.41
695.46	1099.12
695.80	1089.29
696.14	1073.14
696.48	1066.82
696.81	1073.37
697.15	1069.16
697.49	1071.73
697.82	1085.54
698.16	1087.41
698.50	1091.39
698.83	1088.35
699.17	1093.26
699.51	1092.56
699.84	1098.18
700.18	1098.18
700.52	1101.69
700.85	1097.48
701.19	1106.14
701.53	1097.24
701.86	1093.73
702.20	1080.86
702.54	1077.11
702.87	1064.94
703.21	1071.03
703.55	1068.92
703.88	1084.60
704.22	1086.48
704.55	1097.71
704.89	1097.71
705.23	1098.88
705.56	1093.50
705.90	1093.26
706.23	1097.01
706.57	1091.16
706.91	1091.86
707.24	1098.18
707.58	1096.78
707.91	1085.07
708.25	1085.07
708.58	1088.82
708.92	1081.80
709.26	1087.88
709.59	1093.73
709.93	1101.22
710.26	1103.80
710.60	1099.35
710.93	1095.60
711.27	1087.41
711.60	1084.60
711.94	1078.28
712.27	1089.29
712.61	1082.03
712.94	1087.41
713.28	1089.29
713.61	1083.67
713.95	1081.56
714.28	1089.52
714.62	1089.05
714.95	1083.67
715.29	1092.56
715.62	1089.75
715.96	1092.80
716.29	1097.24
716.63	1093.50
716.96	1094.90
717.29	1091.16
717.63	1085.31
717.96	1074.54
718.30	1082.97
718.63	1089.52
718.97	1097.48
719.30	1102.39
719.63	1099.82
719.97	1098.88
720.30	1093.26
720.64	1085.77
720.97	1083.67
721.30	1097.48
721.64	1096.07
721.97	1098.88
722.31	1110.82
722.64	1109.65
722.97	1099.12
723.31	1103.09
723.64	1093.26
723.97	1086.24
724.31	1090.92
724.64	1096.31
724.98	1088.12
725.31	1095.84
725.64	1091.39
725.98	1088.12
726.31	1096.31
726.64	1098.41
726.97	1093.26
727.31	1089.75
727.64	1084.84
727.97	1070.56
728.31	1081.56
728.64	1075.94
728.97	1082.50
729.31	1087.18
729.64	1095.84
729.97	1078.99
730.30	1082.97
730.64	1072.43
730.97	1065.18
731.30	1066.58
731.63	1071.97
731.97	1077.58
732.30	1092.56
732.63	1099.82
732.96	1096.54
733.30	1101.22
733.63	1092.80
733.96	1084.37
734.29	1080.16
734.63	1083.90
734.96	1079.92
735.29	1076.41
735.62	1078.75
735.95	1088.12
736.29	1086.24
736.62	1080.39
736.95	1095.14
737.28	1097.01
737.61	1084.37
737.94	1086.01
738.28	1087.88
738.61	1085.54
738.94	1075.71
739.27	1082.73
739.60	1078.05
739.93	1093.73
740.27	1091.63
740.60	1104.26
740.93	1105.20
741.26	1111.29
741.59	1090.92
741.92	1087.41
742.25	1076.88
742.58	1071.03
742.91	1065.18
743.25	1071.03
743.58	1068.69
743.91	1068.22
744.24	1077.11
744.57	1083.67
744.90	1097.95
745.23	1097.95
745.56	1105.20
745.89	1097.48
746.22	1089.75
746.55	1076.41
746.88	1084.14
747.21	1077.11
747.54	1086.01
747.87	1077.58
748.20	1085.07
748.53	1089.99
748.87	1091.63
749.20	1087.18
749.53	1102.16
749.86	1093.50
750.19	1085.31
750.52	1093.26
750.85	1094.43
751.18	1091.16
751.51	1104.26
751.84	1098.88
752.16	1094.90
752.49	1080.39
752.82	1078.52
753.15	1054.41
753.48	1055.35
753.81	1059.33
754.14	1066.35
754.47	1057.22
754.80	1071.03
755.13	1076.41
755.46	1075.94
755.79	1075.24
756.12	1088.58
756.45	1087.18
756.78	1083.90
757.11	1084.14
757.43	1091.16
757.76	1078.05
758.09	1078.75
758.42	1081.56
758.75	1081.80
759.08	1083.90
759.41	1089.05
759.74	1096.31
760.07	1095.37
760.39	1091.16
760.72	1094.43
761.05	1094.20
761.38	1085.31
761.71	1080.16
762.04	1084.14
762.36	1077.58
762.69	1087.65
763.02	1089.52
763.35	1092.33
763.68	1082.97
764.01	1090.22
