SpectraSuite Data File
++++++++++++++++++++++++++++++++++++
Date: Mon Aug 26 10:24:36 PDT 2019
User: corrico
Dark Spectrum Present: No
Reference Spectrum Present: No
Number of Sampled Component Spectra: 1
Spectrometers: USB2+H06089
Integration Time (usec): 10000 (USB2+H06089)
Spectra Averaged: 2 (USB2+H06089)
Boxcar Smoothing: 2 (USB2+H06089)
Correct for Electrical Dark: No (USB2+H06089)
Strobe/Lamp Enabled: No (USB2+H06089)
Correct for Detector Non-linearity: No (USB2+H06089)
Correct for Stray Light: No (USB2+H06089)
Number of Pixels in Processed Spectrum: 2048
>>>>>Begin Processed Spectral Data<<<<<
339.70	987.71
340.07	987.71
340.45	971.56
340.82	949.56
341.19	932.24
341.57	918.43
341.94	901.34
342.31	886.59
342.69	888.47
343.06	892.91
343.43	889.17
343.81	900.87
344.18	919.83
344.55	924.04
344.93	929.89
345.30	934.81
345.67	940.66
346.04	935.98
346.42	938.09
346.79	946.98
347.16	953.53
347.54	967.34
347.91	978.11
348.28	995.90
348.65	1001.28
349.03	1015.09
349.40	1019.30
349.77	1034.75
350.14	1048.09
350.52	1054.88
350.89	1060.03
351.26	1068.45
351.63	1079.69
352.01	1081.56
352.38	1085.07
352.75	1095.37
353.12	1096.54
353.50	1089.29
353.87	1086.24
354.24	1087.88
354.61	1087.88
354.98	1093.03
355.36	1092.80
355.73	1094.90
356.10	1105.44
356.47	1103.80
356.84	1102.39
357.22	1100.75
357.59	1108.24
357.96	1112.69
358.33	1123.46
358.70	1120.88
359.08	1124.16
359.45	1120.88
359.82	1109.41
360.19	1101.92
360.56	1087.41
360.94	1086.01
361.31	1084.60
361.68	1087.65
362.05	1084.84
362.42	1100.29
362.79	1104.03
363.16	1103.33
363.54	1100.99
363.91	1094.20
364.28	1092.80
364.65	1084.84
365.02	1085.77
365.39	1087.65
365.76	1085.31
366.14	1080.86
366.51	1077.82
366.88	1073.37
367.25	1074.54
367.62	1080.63
367.99	1089.75
368.36	1097.95
368.73	1101.69
369.10	1089.99
369.48	1097.71
369.85	1093.26
370.22	1086.48
370.59	1083.67
370.96	1089.29
371.33	1083.20
371.70	1087.65
372.07	1097.24
372.44	1106.37
372.81	1102.16
373.18	1095.37
373.55	1087.41
373.93	1089.99
374.30	1083.20
374.67	1089.75
375.04	1088.35
375.41	1086.94
375.78	1082.03
376.15	1086.71
376.52	1078.52
376.89	1092.33
377.26	1101.69
377.63	1101.92
378.00	1103.80
378.37	1097.95
378.74	1099.82
379.11	1093.97
379.48	1093.97
379.85	1086.71
380.22	1101.92
380.59	1096.07
380.96	1105.44
381.33	1102.39
381.70	1107.31
382.07	1104.50
382.44	1111.52
382.81	1109.65
383.18	1111.05
383.55	1103.33
383.92	1101.69
384.29	1096.31
384.66	1086.24
385.03	1081.80
385.40	1090.92
385.77	1101.46
386.14	1104.26
386.51	1113.63
386.88	1120.65
387.25	1118.31
387.62	1113.39
387.99	1104.50
388.36	1097.95
388.73	1093.03
389.10	1097.24
389.46	1100.29
389.83	1105.67
390.20	1117.14
390.57	1126.03
390.94	1124.16
391.31	1132.12
391.68	1132.12
392.05	1124.39
392.42	1120.41
392.79	1123.22
393.16	1126.97
393.53	1120.18
393.89	1122.99
394.26	1127.20
394.63	1128.61
395.00	1114.80
395.37	1122.52
395.74	1130.48
396.11	1138.20
396.48	1136.80
396.84	1140.07
397.21	1140.78
397.58	1131.88
397.95	1131.88
398.32	1136.80
398.69	1141.25
399.06	1151.08
399.42	1155.76
399.79	1158.57
400.16	1165.59
400.53	1165.12
400.90	1163.95
401.27	1163.48
401.64	1173.31
402.00	1178.23
402.37	1187.12
402.74	1195.55
403.11	1215.91
403.48	1218.95
403.84	1230.42
404.21	1241.65
404.58	1263.19
404.95	1278.87
405.32	1295.02
405.68	1308.59
406.05	1317.49
406.42	1316.55
406.79	1326.85
407.16	1338.55
407.52	1351.66
407.89	1383.96
408.26	1416.26
408.63	1441.30
408.99	1465.41
409.36	1494.43
409.73	1516.90
410.10	1555.29
410.47	1614.27
410.83	1652.42
411.20	1722.40
411.57	1787.47
411.94	1834.04
412.30	1863.77
412.67	1938.90
413.04	1971.67
413.40	2024.33
413.77	2108.82
414.14	2204.32
414.51	2300.98
414.87	2419.41
415.24	2539.01
415.61	2653.47
415.97	2770.73
416.34	2890.33
416.71	3010.40
417.08	3148.02
417.44	3273.47
417.81	3427.71
418.18	3567.44
418.54	3743.92
418.91	3929.99
419.28	4150.47
419.64	4359.72
420.01	4610.86
420.38	4869.02
420.74	5126.01
421.11	5415.53
421.48	5724.48
421.84	6026.41
422.21	6349.87
422.58	6681.06
422.94	7017.63
423.31	7378.54
423.68	7778.54
424.04	8207.09
424.41	8648.05
424.77	9085.49
425.14	9511.94
425.51	9954.30
425.87	10443.70
426.24	11003.79
426.61	11633.87
426.97	12384.71
427.34	13072.83
427.70	13839.82
428.07	14532.85
428.44	15304.53
428.80	16013.71
429.17	16809.26
429.53	17528.74
429.90	18479.70
430.27	19216.27
430.63	20070.33
431.00	21004.67
431.36	22003.38
431.73	22845.74
432.09	23849.36
432.46	24809.21
432.83	25782.64
433.19	26657.77
433.56	27658.81
433.92	28645.58
434.29	29563.77
434.65	30507.71
435.02	31433.63
435.38	32249.31
435.75	32925.25
436.11	33910.85
436.48	34677.61
436.84	35418.62
437.21	36222.60
437.57	36981.17
437.94	37445.06
438.30	38003.51
438.67	38424.57
439.03	38620.48
439.40	38904.85
439.76	38861.08
440.13	38628.44
440.49	38609.01
440.86	38321.12
441.22	37945.70
441.59	37480.40
441.95	37016.51
442.32	36249.28
442.68	35666.02
443.05	34952.16
443.41	34329.57
443.78	33586.69
444.14	32815.72
444.51	31867.56
444.87	31167.74
445.24	30292.62
445.60	29563.54
445.96	28760.27
446.33	28152.67
446.69	27243.60
447.06	26556.19
447.42	25705.40
447.79	24910.09
448.15	24153.86
448.51	23450.06
448.88	22802.67
449.24	22137.02
449.61	21676.40
449.97	21120.53
450.33	20559.50
450.70	19958.68
451.06	19529.43
451.43	18927.21
451.79	18430.31
452.15	18003.63
452.52	17590.53
452.88	17133.89
453.24	16777.43
453.61	16357.77
453.97	15932.49
454.34	15457.60
454.70	15074.22
455.06	14611.96
455.43	14170.31
455.79	13639.00
456.15	13230.81
456.52	12746.09
456.88	12364.82
457.24	11968.80
457.61	11664.53
457.97	11323.75
458.33	10971.50
458.70	10592.80
459.06	10195.14
459.42	9861.15
459.79	9502.34
460.15	9204.39
460.51	8885.14
460.88	8597.26
461.24	8327.16
461.60	8088.66
461.96	7837.52
462.33	7590.83
462.69	7387.67
463.05	7157.36
463.42	6931.50
463.78	6691.36
464.14	6507.39
464.50	6345.19
464.87	6181.59
465.23	6010.50
465.59	5873.57
465.95	5724.01
466.32	5577.26
466.68	5424.43
467.04	5287.04
467.40	5162.05
467.77	5041.51
468.13	4877.68
468.49	4759.48
468.85	4655.09
469.22	4564.75
469.58	4454.74
469.94	4395.99
470.30	4299.56
470.66	4222.33
471.03	4105.77
471.39	4040.93
471.75	3951.29
472.11	3873.82
472.47	3811.56
472.84	3763.11
473.20	3668.79
473.56	3610.28
473.92	3540.76
474.28	3460.95
474.65	3389.56
475.01	3359.37
475.37	3277.45
475.73	3231.11
476.09	3177.04
476.45	3135.15
476.81	3071.02
477.18	3027.25
477.54	2971.54
477.90	2909.75
478.26	2842.58
478.62	2797.88
478.98	2767.92
479.34	2742.17
479.71	2724.15
480.07	2702.15
480.43	2657.44
480.79	2598.46
481.15	2561.25
481.51	2500.63
481.87	2454.05
482.23	2415.20
482.59	2396.01
482.96	2337.96
483.32	2331.88
483.68	2294.90
484.04	2266.34
484.40	2239.66
484.76	2231.70
485.12	2189.57
485.48	2165.00
485.84	2144.87
486.20	2103.67
486.56	2073.01
486.92	2049.14
487.28	2027.14
487.64	2005.61
488.00	1997.88
488.37	1977.75
488.73	1955.52
489.09	1937.03
489.45	1911.52
489.81	1880.39
490.17	1853.00
490.53	1839.43
490.89	1820.70
491.25	1797.77
491.61	1787.00
491.97	1771.55
492.33	1745.34
492.69	1724.97
493.05	1712.10
493.41	1695.95
493.77	1683.31
494.13	1667.40
494.49	1659.67
494.85	1644.69
495.21	1611.22
495.57	1587.35
495.93	1576.58
496.29	1555.52
496.64	1537.50
497.00	1533.28
497.36	1527.67
497.72	1519.48
498.08	1514.56
498.44	1511.05
498.80	1503.33
499.16	1483.67
499.52	1457.92
499.88	1426.56
500.24	1411.58
500.60	1408.07
500.96	1405.49
501.32	1401.98
501.68	1410.41
502.03	1397.30
502.39	1376.94
502.75	1374.60
503.11	1369.45
503.47	1363.83
503.83	1359.85
504.19	1354.47
504.55	1349.32
504.91	1350.49
505.26	1342.77
505.62	1336.91
505.98	1331.76
506.34	1316.79
506.70	1305.08
507.06	1290.81
507.42	1286.36
507.78	1279.10
508.13	1273.25
508.49	1264.12
508.85	1262.25
509.21	1253.59
509.57	1257.34
509.93	1258.51
510.28	1257.10
510.64	1260.85
511.00	1256.63
511.36	1244.46
511.72	1231.59
512.07	1223.16
512.43	1209.12
512.79	1212.63
513.15	1209.12
513.51	1201.40
513.86	1204.91
514.22	1201.40
514.58	1191.10
514.94	1184.55
515.30	1194.61
515.65	1191.57
516.01	1193.44
516.37	1191.10
516.73	1191.33
517.08	1184.31
517.44	1175.42
517.80	1170.27
518.16	1175.18
518.51	1171.44
518.87	1164.88
519.23	1171.67
519.59	1181.27
519.94	1175.65
520.30	1180.10
520.66	1179.16
521.01	1167.23
521.37	1157.86
521.73	1156.93
522.09	1155.99
522.44	1165.59
522.80	1161.37
523.16	1154.35
523.51	1146.86
523.87	1144.05
524.23	1136.80
524.58	1151.08
524.94	1153.18
525.30	1155.29
525.65	1148.50
526.01	1140.78
526.37	1131.18
526.72	1127.20
527.08	1127.20
527.44	1127.20
527.79	1130.01
528.15	1133.76
528.51	1142.88
528.86	1143.12
529.22	1147.56
529.58	1141.71
529.93	1134.93
530.29	1124.39
530.65	1121.35
531.00	1126.27
531.36	1130.24
531.71	1122.75
532.07	1126.03
532.43	1136.80
532.78	1134.93
533.14	1130.95
533.49	1146.63
533.85	1150.61
534.21	1136.33
534.56	1128.61
534.92	1133.99
535.27	1130.01
535.63	1125.56
535.98	1133.29
536.34	1129.07
536.69	1128.61
537.05	1113.63
537.41	1108.24
537.76	1105.44
538.12	1101.22
538.47	1093.50
538.83	1096.78
539.18	1102.63
539.54	1103.09
539.89	1113.16
540.25	1121.12
540.60	1134.46
540.96	1126.03
541.31	1116.67
541.67	1119.48
542.02	1111.29
542.38	1104.26
542.73	1114.33
543.09	1116.67
543.44	1120.65
543.80	1127.44
544.15	1136.10
544.51	1130.24
544.86	1138.44
545.22	1128.37
545.57	1128.84
545.93	1117.61
546.28	1126.03
546.64	1122.29
546.99	1123.22
547.35	1123.93
547.70	1128.37
548.05	1126.27
548.41	1127.67
548.76	1131.65
549.12	1133.99
549.47	1132.82
549.83	1126.97
550.18	1128.61
550.53	1125.56
550.89	1125.56
551.24	1122.52
551.60	1127.67
551.95	1125.10
552.30	1117.84
552.66	1111.29
553.01	1110.12
553.37	1092.09
553.72	1091.16
554.07	1095.14
554.43	1093.50
554.78	1091.86
555.13	1108.01
555.49	1100.75
555.84	1103.33
556.19	1100.75
556.55	1107.31
556.90	1097.01
557.26	1100.99
557.61	1100.05
557.96	1109.18
558.32	1106.61
558.67	1110.35
559.02	1104.03
559.37	1094.67
559.73	1082.73
560.08	1085.07
560.43	1083.67
560.79	1088.82
561.14	1100.52
561.49	1108.71
561.85	1100.52
562.20	1101.46
562.55	1098.88
562.90	1095.14
563.26	1094.67
563.61	1088.82
563.96	1086.01
564.32	1098.88
564.67	1097.48
565.02	1095.37
565.37	1103.56
565.73	1105.20
566.08	1101.69
566.43	1103.56
566.78	1105.90
567.14	1108.71
567.49	1106.84
567.84	1097.24
568.19	1092.33
568.54	1090.22
568.90	1092.33
569.25	1095.14
569.60	1097.71
569.95	1102.63
570.31	1107.54
570.66	1104.03
571.01	1105.20
571.36	1103.09
571.71	1100.52
572.06	1104.97
572.42	1111.05
572.77	1110.35
573.12	1120.88
573.47	1125.80
573.82	1113.39
574.18	1104.97
574.53	1111.52
574.88	1106.61
575.23	1110.35
575.58	1120.65
575.93	1130.01
576.28	1129.31
576.64	1119.48
576.99	1109.88
577.34	1103.09
577.69	1097.71
578.04	1092.09
578.39	1094.90
578.74	1104.97
579.09	1105.20
579.44	1110.12
579.80	1110.58
580.15	1119.95
580.50	1115.27
580.85	1110.35
581.20	1102.86
581.55	1099.58
581.90	1098.41
582.25	1093.26
582.60	1101.46
582.95	1103.33
583.30	1111.52
583.65	1107.78
584.00	1109.88
584.35	1100.05
584.71	1098.88
585.06	1099.58
585.41	1105.90
585.76	1106.61
586.11	1110.58
586.46	1115.97
586.81	1112.22
587.16	1105.90
587.51	1102.39
587.86	1102.39
588.21	1090.92
588.56	1079.69
588.91	1083.67
589.26	1090.92
589.61	1082.03
589.96	1080.16
590.31	1086.94
590.66	1090.69
591.01	1082.97
591.36	1098.65
591.71	1104.73
592.06	1098.88
592.41	1086.71
592.76	1090.92
593.10	1083.67
593.45	1078.75
593.80	1085.54
594.15	1096.31
594.50	1092.80
594.85	1094.90
595.20	1096.78
595.55	1095.84
595.90	1087.41
596.25	1087.88
596.60	1081.56
596.95	1091.39
597.30	1096.54
597.64	1141.71
597.99	1144.05
598.34	1150.14
598.69	1145.69
599.04	1147.80
599.39	1100.75
599.74	1091.86
600.09	1100.29
600.44	1108.71
600.78	1110.82
601.13	1109.65
601.48	1116.20
601.83	1101.92
602.18	1090.69
602.53	1075.01
602.88	1086.94
603.22	1096.31
603.57	1095.60
603.92	1093.97
604.27	1113.16
604.62	1110.12
604.97	1105.90
605.31	1119.24
605.66	1137.27
606.01	1131.65
606.36	1133.29
606.71	1129.78
607.05	1120.65
607.40	1097.01
607.75	1093.03
608.10	1089.99
608.44	1092.80
608.79	1096.31
609.14	1109.18
609.49	1103.80
609.84	1096.07
610.18	1093.03
610.53	1093.26
610.88	1101.46
611.23	1103.56
611.57	1110.82
611.92	1118.07
612.27	1121.12
612.62	1117.61
612.96	1115.50
613.31	1110.82
613.66	1102.86
614.00	1094.67
614.35	1080.86
614.70	1077.35
615.05	1078.28
615.39	1080.16
615.74	1087.18
616.09	1097.01
616.43	1105.44
616.78	1107.31
617.13	1108.48
617.47	1117.61
617.82	1114.56
618.17	1104.97
618.51	1095.60
618.86	1092.33
619.21	1066.58
619.55	1059.09
619.90	1068.69
620.25	1087.18
620.59	1093.73
620.94	1112.69
621.29	1122.52
621.63	1105.90
621.98	1101.92
622.32	1095.37
622.67	1090.92
623.02	1090.69
623.36	1108.71
623.71	1112.22
624.05	1115.50
624.40	1109.18
624.75	1105.20
625.09	1102.63
625.44	1102.63
625.78	1096.78
626.13	1100.52
626.48	1096.78
626.82	1099.12
627.17	1089.99
627.51	1092.33
627.86	1094.90
628.20	1096.54
628.55	1092.33
628.89	1096.31
629.24	1095.60
629.58	1100.52
629.93	1100.75
630.28	1103.56
630.62	1090.92
630.97	1094.67
631.31	1086.01
631.66	1085.54
632.00	1094.90
632.35	1103.56
632.69	1100.75
633.04	1107.07
633.38	1100.99
633.73	1087.41
634.07	1084.37
634.42	1082.50
634.76	1076.88
635.11	1088.58
635.45	1095.14
635.79	1096.78
636.14	1096.78
636.48	1105.67
636.83	1104.50
637.17	1097.48
637.52	1097.01
637.86	1100.99
638.21	1089.05
638.55	1079.69
638.89	1081.09
639.24	1087.88
639.58	1076.18
639.93	1085.07
640.27	1096.31
640.61	1093.50
640.96	1078.75
641.30	1095.37
641.65	1086.71
641.99	1084.37
642.33	1079.22
642.68	1092.09
643.02	1076.88
643.37	1073.60
643.71	1076.18
644.05	1076.18
644.40	1072.67
644.74	1088.35
645.08	1086.48
645.43	1082.50
645.77	1084.84
646.11	1085.54
646.46	1071.97
646.80	1082.50
647.14	1088.35
647.49	1089.29
647.83	1088.82
648.17	1098.65
648.52	1088.12
648.86	1068.22
649.20	1073.84
649.55	1070.80
649.89	1066.35
650.23	1078.28
650.57	1097.48
650.92	1109.18
651.26	1107.07
651.60	1113.63
651.95	1110.35
652.29	1108.24
652.63	1089.99
652.97	1096.78
653.32	1091.16
653.66	1086.94
654.00	1084.14
654.34	1089.99
654.69	1081.09
655.03	1078.05
655.37	1092.33
655.71	1089.52
656.05	1085.77
656.40	1088.58
656.74	1089.52
657.08	1078.28
657.42	1087.18
657.76	1086.94
658.11	1095.84
658.45	1105.20
658.79	1104.73
659.13	1099.58
659.47	1107.31
659.82	1102.63
660.16	1096.78
660.50	1103.56
660.84	1104.73
661.18	1108.24
661.52	1107.07
661.87	1116.44
662.21	1106.84
662.55	1100.29
662.89	1090.22
663.23	1091.16
663.57	1081.33
663.91	1089.75
664.25	1097.71
664.60	1106.37
664.94	1108.24
665.28	1105.44
665.62	1101.22
665.96	1104.03
666.30	1098.18
666.64	1095.37
666.98	1098.41
667.32	1096.54
667.66	1097.24
668.01	1093.97
668.35	1099.35
668.69	1100.75
669.03	1105.44
669.37	1090.69
669.71	1091.63
670.05	1081.09
670.39	1073.60
670.73	1064.71
671.07	1078.28
671.41	1078.52
671.75	1084.14
672.09	1093.26
672.43	1103.33
672.77	1098.41
673.11	1102.86
673.45	1090.69
673.79	1084.37
674.13	1082.50
674.47	1076.88
674.81	1073.84
675.15	1089.99
675.49	1092.80
675.83	1084.14
676.17	1090.22
676.51	1087.65
676.85	1078.28
677.19	1078.05
677.53	1095.37
677.87	1095.37
678.21	1103.80
678.55	1103.56
678.89	1102.16
679.23	1086.71
679.57	1082.97
679.90	1070.80
680.24	1080.86
680.58	1079.92
680.92	1077.35
681.26	1084.84
681.60	1087.88
681.94	1077.35
682.28	1086.24
682.62	1090.46
682.96	1079.69
683.29	1077.82
683.63	1083.90
683.97	1079.46
684.31	1081.80
684.65	1081.33
684.99	1077.35
685.33	1073.14
685.67	1061.90
686.00	1063.07
686.34	1073.84
686.68	1082.73
687.02	1083.43
687.36	1086.48
687.70	1077.11
688.03	1064.01
688.37	1069.62
688.71	1075.94
689.05	1074.31
689.39	1082.73
689.72	1087.41
690.06	1072.20
690.40	1054.65
690.74	1054.41
691.08	1053.24
691.41	1049.73
691.75	1060.26
692.09	1063.77
692.43	1067.99
692.76	1060.73
693.10	1073.60
693.44	1070.33
693.78	1085.07
694.11	1082.73
694.45	1096.31
694.79	1090.22
695.13	1087.18
695.46	1081.33
695.80	1090.46
696.14	1093.03
696.48	1092.33
696.81	1105.67
697.15	1116.44
697.49	1112.92
697.82	1104.26
698.16	1096.31
698.50	1093.03
698.83	1080.39
699.17	1071.03
699.51	1073.60
699.84	1079.69
700.18	1073.14
700.52	1061.90
700.85	1068.45
701.19	1066.35
701.53	1066.82
701.86	1064.48
702.20	1079.92
702.54	1079.22
702.87	1075.94
703.21	1075.24
703.55	1071.26
703.88	1070.56
704.22	1064.94
704.55	1064.71
704.89	1064.24
705.23	1082.50
705.56	1081.56
705.90	1081.56
706.23	1075.24
706.57	1071.03
706.91	1059.79
707.24	1062.84
707.58	1073.14
707.91	1077.11
708.25	1079.46
708.58	1079.46
708.92	1080.39
709.26	1071.73
709.59	1068.69
709.93	1084.37
710.26	1079.46
710.60	1068.45
710.93	1078.75
711.27	1083.20
711.60	1075.48
711.94	1086.71
712.27	1095.14
712.61	1086.94
712.94	1095.14
713.28	1092.56
713.61	1088.35
713.95	1087.41
714.28	1100.29
714.62	1087.65
714.95	1089.29
715.29	1089.75
715.62	1082.73
715.96	1076.41
716.29	1092.56
716.63	1086.71
716.96	1084.60
717.29	1086.48
717.63	1086.94
717.96	1083.20
718.30	1084.37
718.63	1094.43
718.97	1107.31
719.30	1099.12
719.63	1103.33
719.97	1099.35
720.30	1085.54
720.64	1076.88
720.97	1076.65
721.30	1070.09
721.64	1071.50
721.97	1073.84
722.31	1067.52
722.64	1067.05
722.97	1062.37
723.31	1066.58
723.64	1072.20
723.97	1081.33
724.31	1086.01
724.64	1086.24
724.98	1080.63
725.31	1084.14
725.64	1087.18
725.98	1089.75
726.31	1101.46
726.64	1103.09
726.97	1099.82
727.31	1096.31
727.64	1103.56
727.97	1101.69
728.31	1101.69
728.64	1096.54
728.97	1085.54
729.31	1080.63
729.64	1079.69
729.97	1087.88
730.30	1097.48
730.64	1109.41
730.97	1102.86
731.30	1100.75
731.63	1095.37
731.97	1083.90
732.30	1083.67
732.63	1084.37
732.96	1073.60
733.30	1070.09
733.63	1064.48
733.96	1052.54
734.29	1051.84
734.63	1063.07
734.96	1058.39
735.29	1068.22
735.62	1077.82
735.95	1086.24
736.29	1081.33
736.62	1093.26
736.95	1090.22
737.28	1089.05
737.61	1086.48
737.94	1079.69
738.28	1086.01
738.61	1086.71
738.94	1097.24
739.27	1095.14
739.60	1110.58
739.93	1100.05
740.27	1091.86
740.60	1073.84
740.93	1067.99
741.26	1055.11
741.59	1048.09
741.92	1053.48
742.25	1065.41
742.58	1070.56
742.91	1066.58
743.25	1080.86
743.58	1086.94
743.91	1080.63
744.24	1079.46
744.57	1091.63
744.90	1091.86
745.23	1090.46
745.56	1096.78
745.89	1092.80
746.22	1091.16
746.55	1081.80
746.88	1073.60
747.21	1068.22
747.54	1072.43
747.87	1064.94
748.20	1062.14
748.53	1066.58
748.87	1070.09
749.20	1069.86
749.53	1075.48
749.86	1070.33
750.19	1064.24
750.52	1061.20
750.85	1068.22
751.18	1064.71
751.51	1071.26
751.84	1075.01
752.16	1082.50
752.49	1072.20
752.82	1070.56
753.15	1073.60
753.48	1071.97
753.81	1064.71
754.14	1067.52
754.47	1065.65
754.80	1066.35
755.13	1070.09
755.46	1067.52
755.79	1069.16
756.12	1078.75
756.45	1073.37
756.78	1075.71
757.11	1073.60
757.43	1070.80
757.76	1064.94
758.09	1069.62
758.42	1068.92
758.75	1071.03
759.08	1068.45
759.41	1072.90
759.74	1074.07
760.07	1075.01
760.39	1079.46
760.72	1084.60
761.05	1071.26
761.38	1075.24
761.71	1067.05
762.04	1062.37
762.36	1063.54
762.69	1070.09
763.02	1073.37
763.35	1082.03
763.68	1082.50
764.01	1083.43
764.33	1084.14
