SpectraSuite Data File
++++++++++++++++++++++++++++++++++++
Date: Mon Aug 26 10:24:39 PDT 2019
User: corrico
Dark Spectrum Present: No
Reference Spectrum Present: No
Number of Sampled Component Spectra: 1
Spectrometers: USB2+H06089
Integration Time (usec): 10000 (USB2+H06089)
Spectra Averaged: 2 (USB2+H06089)
Boxcar Smoothing: 2 (USB2+H06089)
Correct for Electrical Dark: No (USB2+H06089)
Strobe/Lamp Enabled: No (USB2+H06089)
Correct for Detector Non-linearity: No (USB2+H06089)
Correct for Stray Light: No (USB2+H06089)
Number of Pixels in Processed Spectrum: 2048
>>>>>Begin Processed Spectral Data<<<<<
339.70	1053.24
340.07	1053.24
340.45	1006.66
340.82	975.77
341.19	944.64
341.57	917.72
341.94	909.53
342.31	909.77
342.69	909.77
343.06	907.19
343.43	899.94
343.81	898.30
344.18	898.53
344.55	903.21
344.93	915.15
345.30	935.28
345.67	944.64
346.04	949.56
346.42	966.88
346.79	968.75
347.16	974.37
347.54	979.28
347.91	991.45
348.28	991.92
348.65	1000.81
349.03	1004.56
349.40	1011.81
349.77	1022.35
350.14	1033.58
350.52	1048.33
350.89	1058.16
351.26	1075.24
351.63	1076.41
352.01	1075.94
352.38	1074.77
352.75	1078.05
353.12	1080.63
353.50	1080.16
353.87	1091.63
354.24	1095.37
354.61	1096.07
354.98	1097.71
355.36	1096.31
355.73	1090.22
356.10	1086.94
356.47	1077.82
356.84	1078.75
357.22	1082.50
357.59	1074.31
357.96	1082.03
358.33	1087.41
358.70	1084.84
359.08	1087.18
359.45	1091.63
359.82	1091.63
360.19	1093.73
360.56	1096.78
360.94	1103.33
361.31	1099.82
361.68	1098.18
362.05	1100.52
362.42	1084.84
362.79	1076.41
363.16	1081.80
363.54	1082.03
363.91	1087.41
364.28	1099.12
364.65	1108.71
365.02	1109.41
365.39	1104.73
365.76	1098.18
366.14	1091.86
366.51	1082.73
366.88	1087.65
367.25	1093.97
367.62	1087.41
367.99	1095.60
368.36	1098.88
368.73	1099.82
369.10	1104.97
369.48	1107.07
369.85	1105.20
370.22	1105.44
370.59	1098.18
370.96	1086.71
371.33	1091.63
371.70	1096.31
372.07	1090.22
372.44	1094.90
372.81	1094.20
373.18	1087.88
373.55	1077.11
373.93	1081.33
374.30	1073.14
374.67	1074.54
375.04	1082.50
375.41	1089.05
375.78	1104.73
376.15	1106.61
376.52	1114.10
376.89	1113.86
377.26	1109.41
377.63	1099.58
378.00	1111.29
378.37	1116.20
378.74	1113.63
379.11	1115.03
379.48	1113.86
379.85	1115.97
380.22	1097.48
380.59	1102.16
380.96	1105.67
381.33	1092.56
381.70	1084.84
382.07	1105.20
382.44	1108.01
382.81	1097.71
383.18	1108.48
383.55	1112.69
383.92	1110.58
384.29	1107.31
384.66	1114.10
385.03	1108.48
385.40	1115.27
385.77	1115.97
386.14	1113.39
386.51	1130.01
386.88	1144.99
387.25	1130.71
387.62	1122.05
387.99	1124.63
388.36	1119.01
388.73	1112.22
389.10	1119.48
389.46	1127.67
389.83	1124.16
390.20	1111.05
390.57	1112.22
390.94	1111.99
391.31	1110.12
391.68	1122.75
392.05	1144.52
392.42	1140.31
392.79	1138.90
393.16	1141.95
393.53	1129.78
393.89	1116.67
394.26	1126.27
394.63	1119.48
395.00	1131.65
395.37	1143.12
395.74	1149.20
396.11	1150.61
396.48	1165.59
396.84	1155.76
397.21	1156.22
397.58	1159.03
397.95	1170.03
398.32	1175.18
398.69	1179.63
399.06	1183.14
399.42	1190.16
399.79	1177.99
400.16	1175.65
400.53	1180.57
400.90	1179.63
401.27	1184.08
401.64	1196.25
402.00	1208.42
402.37	1209.35
402.74	1222.93
403.11	1225.74
403.48	1233.23
403.84	1247.27
404.21	1261.31
404.58	1277.46
404.95	1303.68
405.32	1329.66
405.68	1346.74
406.05	1371.32
406.42	1386.30
406.79	1398.70
407.16	1419.07
407.52	1436.39
407.89	1473.84
408.26	1505.67
408.63	1546.39
408.99	1576.82
409.36	1629.25
409.73	1662.72
410.10	1715.14
410.47	1767.10
410.83	1830.06
411.20	1902.15
411.57	1969.09
411.94	2050.31
412.30	2111.87
412.67	2181.61
413.04	2250.43
413.40	2335.85
413.77	2440.71
414.14	2564.99
414.51	2698.40
414.87	2816.83
415.24	2969.67
415.61	3113.61
415.97	3271.60
416.34	3426.54
416.71	3623.85
417.08	3816.48
417.44	4014.25
417.81	4244.80
418.18	4476.51
418.54	4708.22
418.91	4948.59
419.28	5220.33
419.64	5499.79
420.01	5817.87
420.38	6163.57
420.74	6482.35
421.11	6858.94
421.48	7222.43
421.84	7652.38
422.21	8062.21
422.58	8589.53
422.94	9114.51
423.31	9640.43
423.68	10208.71
424.04	10820.53
424.41	11407.07
424.77	12013.27
425.14	12637.72
425.51	13256.33
425.87	13967.61
426.24	14692.24
426.61	15554.50
426.97	16565.14
427.34	17523.59
427.70	18569.81
428.07	19574.37
428.44	20571.90
428.80	21520.29
429.17	22592.02
429.53	23606.64
429.90	24834.96
430.27	25823.36
430.63	26995.97
431.00	28233.18
431.36	29585.78
431.73	30793.96
432.09	32196.64
432.46	33395.23
432.83	34622.14
433.19	35827.52
433.56	37244.94
433.92	38787.83
434.29	40356.69
434.65	41871.01
435.02	43229.46
435.38	44514.41
435.75	45307.86
436.11	46506.91
436.48	47574.20
436.84	48595.84
437.21	49530.42
437.57	50605.66
437.94	51275.75
438.30	51814.08
438.67	52040.64
439.03	52061.24
439.40	52190.44
439.76	52055.85
440.13	51852.70
440.49	51858.78
440.86	51586.81
441.22	51152.17
441.59	50550.42
441.95	49947.27
442.32	49011.52
442.68	48326.45
443.05	47408.96
443.41	46570.34
443.78	45507.27
444.14	44618.33
444.51	43309.98
444.87	42325.08
445.24	41031.46
445.60	39867.28
445.96	38617.90
446.33	37748.39
446.69	36587.72
447.06	35799.20
447.42	34877.02
447.79	33854.44
448.15	32890.61
448.51	31910.40
448.88	30988.69
449.24	30017.84
449.61	29396.66
449.97	28562.49
450.33	27861.50
450.70	26977.48
451.06	26342.73
451.43	25503.65
451.79	24922.26
452.15	24370.13
452.52	23836.95
452.88	23273.82
453.24	22812.27
453.61	22214.02
453.97	21591.44
454.34	21010.76
454.70	20474.77
455.06	19884.96
455.43	19246.23
455.79	18524.87
456.15	17947.93
456.52	17311.30
456.88	16748.64
457.24	16145.02
457.61	15686.04
457.97	15161.76
458.33	14605.88
458.70	14019.34
459.06	13529.70
459.42	13095.53
459.79	12594.19
460.15	12195.83
460.51	11807.77
460.88	11420.64
461.24	10965.41
461.60	10623.46
461.96	10273.31
462.33	9937.21
462.69	9624.28
463.05	9344.82
463.42	9078.70
463.78	8802.99
464.14	8535.93
464.50	8319.67
464.87	8074.38
465.23	7785.32
465.59	7537.46
465.95	7313.24
466.32	7086.67
466.68	6884.22
467.04	6712.19
467.40	6564.27
467.77	6392.94
468.13	6226.29
468.49	6091.48
468.85	5962.28
469.22	5833.32
469.58	5711.61
469.94	5578.43
470.30	5427.70
470.66	5292.65
471.03	5173.05
471.39	5086.69
471.75	4983.47
472.11	4886.80
472.47	4797.86
472.84	4678.96
473.20	4566.15
473.56	4482.83
473.92	4395.99
474.28	4335.37
474.65	4250.65
475.01	4164.75
475.37	4078.85
475.73	4002.78
476.09	3892.78
476.45	3826.31
476.81	3749.30
477.18	3682.36
477.54	3614.49
477.90	3559.72
478.26	3472.65
478.62	3402.20
478.98	3329.65
479.34	3287.52
479.71	3229.24
480.07	3193.90
480.43	3163.23
480.79	3107.76
481.15	3041.53
481.51	2988.86
481.87	2943.69
482.23	2888.22
482.59	2836.73
482.96	2788.51
483.32	2753.17
483.68	2705.89
484.04	2678.51
484.40	2665.17
484.76	2621.40
485.12	2575.06
485.48	2561.01
485.84	2513.27
486.20	2456.16
486.56	2431.35
486.92	2410.52
487.28	2358.09
487.64	2335.85
488.00	2308.47
488.37	2275.47
488.73	2216.49
489.09	2185.59
489.45	2151.65
489.81	2118.89
490.17	2089.63
490.53	2091.27
490.89	2065.99
491.25	2027.84
491.61	2010.52
491.97	1985.48
492.33	1958.56
492.69	1932.81
493.05	1903.32
493.41	1887.41
493.77	1865.17
494.13	1830.30
494.49	1806.66
494.85	1801.28
495.21	1781.15
495.57	1760.08
495.93	1736.44
496.29	1721.93
496.64	1697.82
497.00	1678.16
497.36	1657.80
497.72	1648.21
498.08	1646.80
498.44	1632.29
498.80	1615.44
499.16	1604.44
499.52	1585.48
499.88	1553.18
500.24	1543.12
500.60	1526.03
500.96	1517.60
501.32	1518.77
501.68	1510.35
502.03	1487.41
502.39	1478.52
502.75	1466.35
503.11	1448.56
503.47	1433.81
503.83	1435.22
504.19	1417.43
504.55	1407.83
504.91	1394.96
505.26	1395.90
505.62	1363.60
505.98	1358.21
506.34	1343.47
506.70	1337.62
507.06	1318.89
507.42	1330.59
507.78	1329.89
508.13	1334.57
508.49	1327.55
508.85	1318.42
509.21	1303.91
509.57	1290.57
509.93	1277.23
510.28	1270.44
510.64	1275.59
511.00	1275.59
511.36	1268.57
511.72	1267.40
512.07	1270.21
512.43	1258.97
512.79	1252.65
513.15	1252.65
513.51	1240.25
513.86	1233.23
514.22	1223.87
514.58	1220.59
514.94	1210.53
515.30	1212.63
515.65	1206.31
516.01	1220.82
516.37	1225.50
516.73	1217.55
517.08	1212.40
517.44	1216.14
517.80	1208.18
518.16	1195.78
518.51	1207.72
518.87	1208.65
519.23	1207.72
519.59	1208.18
519.94	1206.55
520.30	1212.63
520.66	1204.44
521.01	1207.25
521.37	1199.06
521.73	1198.82
522.09	1187.82
522.44	1193.91
522.80	1187.35
523.16	1196.01
523.51	1202.10
523.87	1200.93
524.23	1200.93
524.58	1189.93
524.94	1171.44
525.30	1162.78
525.65	1155.29
526.01	1140.54
526.37	1138.90
526.72	1148.27
527.08	1152.01
527.44	1153.18
527.79	1157.39
528.15	1155.29
528.51	1148.50
528.86	1153.88
529.22	1159.27
529.58	1159.27
529.93	1155.29
530.29	1154.12
530.65	1144.29
531.00	1139.84
531.36	1138.67
531.71	1146.16
532.07	1146.16
532.43	1156.93
532.78	1155.29
533.14	1146.86
533.49	1142.18
533.85	1153.65
534.21	1134.93
534.56	1131.65
534.92	1138.20
535.27	1139.14
535.63	1117.14
535.98	1129.54
536.34	1130.95
536.69	1128.84
537.05	1121.35
537.41	1125.56
537.76	1115.97
538.12	1127.44
538.47	1127.44
538.83	1135.39
539.18	1137.03
539.54	1138.20
539.89	1128.84
540.25	1126.50
540.60	1118.31
540.96	1127.20
541.31	1130.48
541.67	1126.27
542.02	1138.90
542.38	1152.95
542.73	1151.31
543.09	1142.42
543.44	1140.07
543.80	1111.52
544.15	1100.05
544.51	1094.67
544.86	1088.58
545.22	1094.43
545.57	1118.31
545.93	1116.67
546.28	1119.71
546.64	1130.24
546.99	1125.33
547.35	1124.16
547.70	1124.16
548.05	1127.90
548.41	1137.50
548.76	1144.76
549.12	1131.65
549.47	1130.71
549.83	1121.12
550.18	1110.58
550.53	1091.63
550.89	1095.84
551.24	1093.97
551.60	1104.97
551.95	1101.69
552.30	1116.20
552.66	1122.75
553.01	1123.46
553.37	1117.61
553.72	1120.88
554.07	1126.73
554.43	1130.24
554.78	1122.29
555.13	1124.16
555.49	1124.86
555.84	1114.80
556.19	1118.54
556.55	1124.86
556.90	1116.20
557.26	1115.73
557.61	1109.88
557.96	1107.31
558.32	1115.27
558.67	1119.71
559.02	1111.99
559.37	1117.37
559.73	1107.07
560.08	1108.01
560.43	1099.82
560.79	1111.99
561.14	1109.65
561.49	1097.95
561.85	1100.52
562.20	1106.61
562.55	1098.41
562.90	1100.05
563.26	1115.73
563.61	1105.90
563.96	1111.75
564.32	1114.33
564.67	1107.07
565.02	1105.90
565.37	1111.75
565.73	1110.35
566.08	1106.14
566.43	1120.18
566.78	1117.61
567.14	1111.29
567.49	1103.56
567.84	1115.50
568.19	1105.20
568.54	1109.65
568.90	1116.20
569.25	1119.95
569.60	1124.39
569.95	1136.33
570.31	1132.59
570.66	1132.82
571.01	1139.14
571.36	1128.61
571.71	1127.44
572.06	1136.80
572.42	1133.76
572.77	1120.88
573.12	1112.92
573.47	1112.92
573.82	1103.56
574.18	1114.10
574.53	1120.88
574.88	1133.52
575.23	1117.37
575.58	1108.71
575.93	1096.78
576.28	1090.22
576.64	1083.43
576.99	1095.14
577.34	1108.95
577.69	1104.50
578.04	1110.58
578.39	1113.16
578.74	1107.54
579.09	1096.07
579.44	1096.31
579.80	1087.41
580.15	1084.60
580.50	1083.20
580.85	1091.86
581.20	1099.58
581.55	1116.44
581.90	1112.92
582.25	1119.01
582.60	1119.71
582.95	1115.50
583.30	1108.71
583.65	1110.35
584.00	1109.18
584.35	1109.65
584.71	1113.63
585.06	1111.75
585.41	1114.56
585.76	1111.99
586.11	1106.37
586.46	1091.63
586.81	1091.16
587.16	1091.86
587.51	1096.54
587.86	1092.33
588.21	1103.56
588.56	1106.14
588.91	1099.82
589.26	1101.69
589.61	1113.16
589.96	1114.09
590.31	1104.50
590.66	1109.41
591.01	1103.33
591.36	1103.33
591.71	1104.50
592.06	1115.03
592.41	1118.31
592.76	1121.82
593.10	1105.20
593.45	1094.67
593.80	1100.99
594.15	1101.22
594.50	1097.95
594.85	1106.61
595.20	1116.20
595.55	1112.22
595.90	1112.22
596.25	1107.31
596.60	1113.39
596.95	1106.37
597.30	1100.52
597.64	1137.97
597.99	1137.27
598.34	1142.65
598.69	1153.18
599.04	1153.18
599.39	1116.20
599.74	1125.56
600.09	1113.39
600.44	1103.09
600.78	1100.75
601.13	1088.58
601.48	1073.84
601.83	1080.39
602.18	1081.80
602.53	1086.24
602.88	1093.50
603.22	1107.54
603.57	1099.82
603.92	1108.01
604.27	1100.52
604.62	1095.84
604.97	1082.26
605.31	1078.99
605.66	1063.07
606.01	1061.43
606.36	1068.22
606.71	1068.92
607.05	1070.80
607.40	1091.16
607.75	1093.03
608.10	1085.07
608.44	1097.71
608.79	1090.22
609.14	1084.37
609.49	1090.69
609.84	1090.69
610.18	1083.90
610.53	1094.20
610.88	1090.46
611.23	1100.05
611.57	1100.29
611.92	1108.48
612.27	1115.97
612.62	1114.33
612.96	1103.56
613.31	1112.22
613.66	1105.90
614.00	1098.65
614.35	1098.65
614.70	1096.07
615.05	1097.48
615.39	1104.03
615.74	1104.03
616.09	1109.41
616.43	1115.03
616.78	1117.14
617.13	1124.16
617.47	1129.31
617.82	1125.80
618.17	1117.14
618.51	1110.82
618.86	1090.92
619.21	1090.22
619.55	1088.12
619.90	1091.16
620.25	1096.54
620.59	1100.52
620.94	1097.01
621.29	1101.92
621.63	1108.01
621.98	1101.22
622.32	1114.80
622.67	1118.07
623.02	1120.41
623.36	1109.65
623.71	1106.61
624.05	1099.82
624.40	1097.24
624.75	1097.24
625.09	1101.92
625.44	1103.33
625.78	1089.29
626.13	1089.99
626.48	1083.20
626.82	1081.56
627.17	1076.41
627.51	1090.69
627.86	1090.69
628.20	1087.41
628.55	1087.88
628.89	1089.29
629.24	1076.41
629.58	1070.56
629.93	1085.31
630.28	1083.90
630.62	1088.82
630.97	1099.58
631.31	1105.44
631.66	1096.07
632.00	1101.46
632.35	1092.80
632.69	1088.12
633.04	1086.24
633.38	1083.20
633.73	1078.28
634.07	1080.86
634.42	1085.54
634.76	1089.75
635.11	1085.77
635.45	1081.80
635.79	1087.65
636.14	1093.03
636.48	1083.90
636.83	1092.33
637.17	1104.03
637.52	1100.29
637.86	1087.18
638.21	1097.71
638.55	1099.12
638.89	1091.63
639.24	1103.33
639.58	1106.84
639.93	1099.12
640.27	1104.97
640.61	1104.50
640.96	1093.50
641.30	1098.41
641.65	1111.29
641.99	1094.67
642.33	1096.31
642.68	1089.29
643.02	1091.63
643.37	1086.01
643.71	1100.05
644.05	1094.67
644.40	1101.46
644.74	1097.24
645.08	1089.52
645.43	1080.86
645.77	1084.84
646.11	1088.12
646.46	1088.35
646.80	1085.07
647.14	1088.58
647.49	1085.77
647.83	1087.18
648.17	1089.05
648.52	1097.01
648.86	1100.29
649.20	1095.14
649.55	1090.69
649.89	1084.84
650.23	1088.58
650.57	1079.92
650.92	1085.31
651.26	1093.26
651.60	1100.29
651.95	1100.99
652.29	1109.65
652.63	1115.50
652.97	1110.82
653.32	1112.22
653.66	1099.58
654.00	1093.97
654.34	1096.07
654.69	1095.14
655.03	1091.39
655.37	1091.16
655.71	1091.16
656.05	1086.48
656.40	1090.46
656.74	1086.71
657.08	1091.63
657.42	1104.50
657.76	1112.46
658.11	1113.39
658.45	1119.95
658.79	1124.86
659.13	1109.65
659.47	1103.80
659.82	1108.71
660.16	1104.26
660.50	1093.73
660.84	1092.80
661.18	1088.82
661.52	1074.54
661.87	1081.09
662.21	1093.03
662.55	1096.54
662.89	1093.97
663.23	1100.05
663.57	1093.03
663.91	1082.26
664.25	1078.28
664.60	1083.67
664.94	1092.33
665.28	1098.88
665.62	1104.03
665.96	1120.18
666.30	1127.44
666.64	1120.88
666.98	1115.50
667.32	1118.31
667.66	1097.48
668.01	1089.05
668.35	1079.92
668.69	1087.65
669.03	1089.52
669.37	1090.92
669.71	1090.22
670.05	1086.48
670.39	1079.46
670.73	1065.18
671.07	1075.24
671.41	1074.31
671.75	1090.22
672.09	1084.37
672.43	1099.82
672.77	1096.07
673.11	1097.95
673.45	1096.31
673.79	1097.95
674.13	1088.12
674.47	1091.86
674.81	1099.58
675.15	1088.58
675.49	1091.16
675.83	1096.78
676.17	1091.16
676.51	1083.20
676.85	1094.20
677.19	1094.20
677.53	1085.54
677.87	1085.31
678.21	1079.69
678.55	1081.33
678.89	1073.84
679.23	1077.35
679.57	1078.05
679.90	1086.94
680.24	1078.99
680.58	1074.07
680.92	1077.11
681.26	1081.56
681.60	1078.75
681.94	1080.63
682.28	1083.90
682.62	1085.07
682.96	1078.99
683.29	1086.24
683.63	1095.37
683.97	1101.22
684.31	1094.20
684.65	1082.97
684.99	1066.58
685.33	1056.75
685.67	1064.01
686.00	1068.69
686.34	1087.18
686.68	1098.18
687.02	1099.12
687.36	1097.24
687.70	1102.63
688.03	1093.26
688.37	1092.56
688.71	1090.92
689.05	1088.35
689.39	1089.52
689.72	1095.84
690.06	1089.29
690.40	1091.39
690.74	1089.52
691.08	1086.71
691.41	1090.92
691.75	1097.24
692.09	1097.71
692.43	1094.20
692.76	1093.03
693.10	1082.97
693.44	1085.77
693.78	1082.26
694.11	1087.88
694.45	1090.92
694.79	1095.60
695.13	1092.80
695.46	1092.56
695.80	1089.99
696.14	1093.73
696.48	1080.63
696.81	1079.69
697.15	1079.22
697.49	1080.16
697.82	1072.90
698.16	1081.09
698.50	1094.43
698.83	1098.88
699.17	1105.67
699.51	1101.22
699.84	1106.14
700.18	1095.60
700.52	1094.43
700.85	1092.56
701.19	1101.22
701.53	1100.75
701.86	1101.22
702.20	1098.65
702.54	1094.67
702.87	1091.63
703.21	1095.84
703.55	1085.54
703.88	1084.60
704.22	1085.54
704.55	1081.09
704.89	1086.48
705.23	1094.90
705.56	1103.56
705.90	1099.82
706.23	1095.60
706.57	1087.88
706.91	1081.80
707.24	1071.73
707.58	1075.24
707.91	1070.09
708.25	1073.60
708.58	1071.97
708.92	1064.48
709.26	1062.60
709.59	1072.90
709.93	1061.20
710.26	1067.52
710.60	1083.90
710.93	1087.88
711.27	1084.37
711.60	1093.73
711.94	1094.67
712.27	1094.20
712.61	1084.84
712.94	1093.50
713.28	1093.50
713.61	1093.73
713.95	1087.88
714.28	1088.35
714.62	1079.22
714.95	1075.01
715.29	1070.56
715.62	1066.35
715.96	1069.16
716.29	1076.88
716.63	1086.71
716.96	1091.63
717.29	1084.37
717.63	1089.99
717.96	1084.60
718.30	1072.20
718.63	1064.48
718.97	1072.67
719.30	1071.97
719.63	1064.94
719.97	1072.90
720.30	1085.31
720.64	1091.63
720.97	1083.67
721.30	1090.22
721.64	1085.31
721.97	1074.07
722.31	1070.33
722.64	1075.01
722.97	1076.65
723.31	1071.73
723.64	1066.58
723.97	1065.88
724.31	1069.16
724.64	1072.43
724.98	1080.39
725.31	1088.82
725.64	1098.41
725.98	1095.84
726.31	1099.35
726.64	1100.05
726.97	1106.14
727.31	1108.71
727.64	1106.61
727.97	1093.73
728.31	1087.88
728.64	1078.05
728.97	1065.65
729.31	1061.43
729.64	1064.71
729.97	1070.09
730.30	1083.20
730.64	1089.99
730.97	1096.54
731.30	1098.65
731.63	1096.07
731.97	1086.48
732.30	1076.41
732.63	1085.07
732.96	1085.54
733.30	1086.94
733.63	1080.39
733.96	1088.12
734.29	1076.41
734.63	1082.73
734.96	1077.35
735.29	1079.69
735.62	1084.84
735.95	1087.41
736.29	1087.41
736.62	1093.26
736.95	1097.24
737.28	1087.65
737.61	1082.97
737.94	1069.16
738.28	1062.60
738.61	1062.60
738.94	1055.35
739.27	1050.43
739.60	1056.75
739.93	1066.82
740.27	1069.16
740.60	1069.86
740.93	1087.88
741.26	1091.39
741.59	1089.05
741.92	1090.92
742.25	1112.69
742.58	1107.07
742.91	1111.52
743.25	1104.73
743.58	1101.46
743.91	1089.75
744.24	1089.99
744.57	1078.75
744.90	1084.37
745.23	1079.69
745.56	1076.65
745.89	1071.97
746.22	1082.97
746.55	1085.07
746.88	1079.92
747.21	1085.07
747.54	1079.92
747.87	1077.35
748.20	1074.77
748.53	1088.12
748.87	1086.01
749.20	1085.31
749.53	1083.43
749.86	1082.26
750.19	1074.77
750.52	1061.67
750.85	1067.99
751.18	1066.35
751.51	1067.05
751.84	1073.60
752.16	1084.60
752.49	1086.94
752.82	1095.84
753.15	1101.69
753.48	1103.80
753.81	1107.31
754.14	1097.48
754.47	1093.26
754.80	1075.94
755.13	1078.05
755.46	1078.99
755.79	1087.65
756.12	1093.26
756.45	1096.78
756.78	1090.46
757.11	1088.35
757.43	1086.94
757.76	1077.11
758.09	1084.84
758.42	1075.48
758.75	1076.88
759.08	1075.01
759.41	1069.16
759.74	1068.22
760.07	1077.58
760.39	1077.35
760.72	1077.35
761.05	1084.37
761.38	1081.09
761.71	1080.86
762.04	1068.45
762.36	1072.90
762.69	1072.43
763.02	1081.09
763.35	1084.84
763.68	1091.16
764.01	1086.71
