SpectraSuite Data File
++++++++++++++++++++++++++++++++++++
Date: Mon Aug 26 10:24:37 PDT 2019
User: corrico
Dark Spectrum Present: No
Reference Spectrum Present: No
Number of Sampled Component Spectra: 1
Spectrometers: USB2+H06089
Integration Time (usec): 10000 (USB2+H06089)
Spectra Averaged: 2 (USB2+H06089)
Boxcar Smoothing: 2 (USB2+H06089)
Correct for Electrical Dark: No (USB2+H06089)
Strobe/Lamp Enabled: No (USB2+H06089)
Correct for Detector Non-linearity: No (USB2+H06089)
Correct for Stray Light: No (USB2+H06089)
Number of Pixels in Processed Spectrum: 2048
>>>>>Begin Processed Spectral Data<<<<<
339.70	1031.01
340.07	1031.01
340.45	990.51
340.82	959.39
341.19	930.36
341.57	906.02
341.94	908.13
342.31	902.28
342.69	902.28
343.06	901.34
343.43	903.68
343.81	886.59
344.18	881.91
344.55	897.36
344.93	913.51
345.30	913.28
345.67	933.87
346.04	952.36
346.42	955.64
346.79	954.47
347.16	963.60
347.54	975.30
347.91	972.96
348.28	973.19
348.65	993.09
349.03	1003.39
349.40	1009.47
349.77	1025.15
350.14	1037.09
350.52	1038.73
350.89	1053.24
351.26	1060.96
351.63	1064.24
352.01	1067.28
352.38	1071.73
352.75	1065.41
353.12	1064.24
353.50	1068.45
353.87	1078.52
354.24	1075.48
354.61	1088.82
354.98	1100.29
355.36	1105.67
355.73	1108.24
356.10	1124.39
356.47	1116.67
356.84	1108.24
357.22	1100.99
357.59	1100.99
357.96	1095.60
358.33	1095.60
358.70	1104.03
359.08	1102.86
359.45	1104.97
359.82	1087.88
360.19	1086.24
360.56	1078.52
360.94	1087.88
361.31	1091.16
361.68	1101.69
362.05	1095.14
362.42	1080.39
362.79	1067.52
363.16	1065.41
363.54	1064.94
363.91	1075.71
364.28	1085.77
364.65	1097.95
365.02	1087.41
365.39	1092.80
365.76	1097.71
366.14	1101.69
366.51	1096.78
366.88	1099.58
367.25	1093.50
367.62	1081.56
367.99	1087.88
368.36	1086.71
368.73	1089.99
369.10	1086.71
369.48	1095.37
369.85	1091.63
370.22	1097.95
370.59	1094.20
370.96	1099.12
371.33	1092.56
371.70	1093.03
372.07	1092.56
372.44	1102.39
372.81	1094.20
373.18	1097.71
373.55	1090.22
373.93	1085.77
374.30	1075.01
374.67	1075.01
375.04	1075.94
375.41	1089.05
375.78	1097.95
376.15	1102.39
376.52	1112.69
376.89	1121.82
377.26	1109.65
377.63	1089.99
378.00	1076.88
378.37	1075.01
378.74	1071.50
379.11	1085.07
379.48	1097.95
379.85	1107.78
380.22	1115.97
380.59	1117.61
380.96	1112.22
381.33	1104.03
381.70	1095.37
382.07	1088.35
382.44	1078.52
382.81	1070.33
383.18	1083.67
383.55	1100.29
383.92	1098.65
384.29	1103.80
384.66	1115.73
385.03	1119.95
385.40	1126.03
385.77	1127.44
386.14	1123.46
386.51	1119.48
386.88	1110.82
387.25	1100.99
387.62	1103.09
387.99	1101.22
388.36	1103.80
388.73	1108.48
389.10	1114.33
389.46	1114.33
389.83	1120.41
390.20	1112.69
390.57	1111.05
390.94	1096.31
391.31	1102.86
391.68	1106.84
392.05	1117.61
392.42	1121.35
392.79	1136.80
393.16	1135.86
393.53	1130.24
393.89	1127.67
394.26	1125.10
394.63	1123.22
395.00	1123.93
395.37	1123.69
395.74	1121.82
396.11	1127.44
396.48	1130.95
396.84	1134.46
397.21	1147.80
397.58	1139.84
397.95	1135.86
398.32	1135.86
398.69	1125.80
399.06	1121.58
399.42	1136.33
399.79	1141.71
400.16	1150.61
400.53	1170.03
400.90	1176.12
401.27	1182.91
401.64	1200.69
402.00	1196.01
402.37	1188.29
402.74	1196.95
403.11	1203.27
403.48	1203.97
403.84	1216.84
404.21	1222.23
404.58	1233.70
404.95	1251.48
405.32	1262.48
405.68	1283.78
406.05	1317.25
406.42	1337.38
406.79	1349.32
407.16	1374.83
407.52	1402.45
407.89	1428.43
408.26	1442.71
408.63	1478.75
408.99	1509.41
409.36	1549.43
409.73	1586.65
410.10	1639.08
410.47	1692.44
410.83	1738.55
411.20	1780.91
411.57	1832.87
411.94	1879.68
412.30	1927.43
412.67	1985.94
413.04	2050.54
413.40	2133.63
413.77	2240.13
414.14	2335.39
414.51	2456.39
414.87	2577.87
415.24	2699.34
415.61	2796.71
415.97	2924.27
416.34	3040.59
416.71	3178.21
417.08	3321.92
417.44	3495.36
417.81	3675.81
418.18	3891.61
418.54	4093.36
418.91	4298.16
419.28	4535.49
419.64	4781.95
420.01	5018.34
420.38	5293.59
420.74	5549.18
421.11	5858.36
421.48	6159.59
421.84	6494.75
422.21	6842.32
422.58	7269.47
422.94	7654.25
423.31	8072.04
423.68	8517.44
424.04	8987.42
424.41	9459.74
424.77	9954.53
425.14	10503.62
425.51	11033.29
425.87	11628.72
426.24	12213.38
426.61	12911.80
426.97	13710.16
427.34	14470.13
427.70	15265.91
428.07	16057.25
428.44	16836.41
428.80	17611.36
429.17	18458.40
429.53	19295.38
429.90	20399.17
430.27	21349.43
430.63	22292.67
431.00	23366.50
431.36	24515.71
431.73	25462.22
432.09	26526.46
432.46	27658.58
432.83	28729.61
433.19	29658.80
433.56	30783.90
433.92	31958.84
434.29	32991.26
434.65	34150.52
435.02	35189.95
435.38	36124.06
435.75	36893.40
436.11	37963.02
436.48	38653.25
436.84	39591.80
437.21	40464.35
437.57	41222.22
437.94	41758.67
438.30	42479.79
438.67	42854.51
439.03	43103.31
439.40	43417.64
439.76	43358.66
440.13	43046.66
440.49	42957.49
440.86	42531.75
441.22	42156.79
441.59	41648.19
441.95	41154.11
442.32	40350.13
442.68	39784.19
443.05	38943.00
443.41	38160.56
443.78	37286.14
444.14	36451.97
444.51	35361.28
444.87	34537.88
445.24	33588.33
445.60	32695.65
445.96	31759.20
446.33	31087.23
446.69	30069.56
447.06	29340.49
447.42	28513.11
447.79	27634.24
448.15	26815.52
448.51	26061.87
448.88	25302.13
449.24	24510.56
449.61	23998.92
449.97	23372.36
450.33	22814.61
450.70	22143.57
451.06	21716.89
451.43	21071.84
451.79	20613.57
452.15	20118.07
452.52	19660.97
452.88	19125.92
453.24	18725.69
453.61	18176.13
453.97	17715.75
454.34	17225.87
454.70	16827.28
455.06	16295.51
455.43	15734.49
455.79	15134.14
456.15	14708.16
456.52	14136.84
456.88	13755.09
457.24	13343.63
457.61	13040.53
457.97	12630.00
458.33	12248.49
458.70	11779.92
459.06	11342.24
459.42	10952.30
459.79	10522.81
460.15	10177.59
460.51	9817.61
460.88	9511.94
461.24	9162.26
461.60	8890.52
461.96	8608.96
462.33	8376.31
462.69	8114.17
463.05	7870.29
463.42	7654.49
463.78	7423.48
464.14	7212.83
464.50	7034.48
464.87	6835.77
465.23	6628.16
465.59	6462.45
465.95	6278.96
466.32	6080.01
466.68	5908.92
467.04	5736.65
467.40	5566.26
467.77	5412.96
468.13	5287.04
468.49	5182.65
468.85	5071.71
469.22	4985.58
469.58	4892.42
469.94	4803.72
470.30	4703.31
470.66	4617.41
471.03	4515.60
471.39	4443.04
471.75	4358.31
472.11	4262.58
472.47	4180.90
472.84	4122.39
473.20	4022.68
473.56	3942.16
473.92	3863.76
474.28	3777.62
474.65	3678.62
475.01	3616.60
475.37	3531.63
475.73	3462.59
476.09	3425.61
476.45	3369.90
476.81	3300.16
477.18	3254.51
477.54	3188.98
477.90	3125.79
478.26	3049.25
478.62	2986.06
478.98	2942.29
479.34	2907.41
479.71	2865.99
480.07	2850.07
480.43	2820.11
480.79	2773.53
481.15	2729.53
481.51	2692.55
481.87	2640.36
482.23	2599.63
482.59	2550.95
482.96	2518.42
483.32	2469.97
483.68	2443.05
484.04	2417.31
484.40	2401.39
484.76	2364.18
485.12	2327.90
485.48	2307.30
485.84	2271.26
486.20	2222.81
486.56	2181.85
486.92	2165.23
487.28	2138.55
487.64	2117.48
488.00	2104.14
488.37	2082.14
488.73	2056.39
489.09	2037.44
489.45	2013.56
489.81	1984.77
490.17	1969.09
490.53	1937.26
490.89	1886.94
491.25	1857.45
491.61	1822.81
491.97	1793.79
492.33	1776.23
492.69	1759.85
493.05	1734.57
493.41	1722.17
493.77	1716.31
494.13	1690.80
494.49	1689.63
494.85	1667.16
495.21	1660.14
495.57	1645.86
495.93	1635.80
496.29	1617.54
496.64	1604.91
497.00	1591.10
497.36	1565.35
497.72	1556.22
498.08	1542.18
498.44	1528.60
498.80	1516.20
499.16	1513.39
499.52	1497.47
499.88	1479.45
500.24	1467.75
500.60	1440.13
500.96	1423.28
501.32	1410.17
501.68	1403.62
502.03	1398.24
502.39	1402.45
502.75	1392.15
503.11	1394.73
503.47	1385.60
503.83	1383.96
504.19	1379.51
504.55	1375.77
504.91	1360.79
505.26	1363.83
505.62	1343.00
505.98	1326.15
506.34	1316.79
506.70	1306.25
507.06	1289.17
507.42	1289.87
507.78	1278.63
508.13	1269.51
508.49	1268.80
508.85	1269.51
509.21	1263.19
509.57	1266.93
509.93	1262.48
510.28	1250.78
510.64	1242.59
511.00	1241.65
511.36	1238.38
511.72	1240.72
512.07	1249.38
512.43	1240.72
512.79	1232.06
513.15	1231.36
513.51	1230.89
513.86	1226.67
514.22	1227.61
514.58	1237.44
514.94	1235.57
515.30	1232.53
515.65	1221.29
516.01	1221.06
516.37	1214.27
516.73	1209.35
517.08	1211.46
517.44	1214.50
517.80	1207.48
518.16	1215.67
518.51	1210.06
518.87	1199.76
519.23	1190.40
519.59	1188.29
519.94	1174.48
520.30	1171.91
520.66	1164.65
521.01	1160.91
521.37	1158.80
521.73	1150.84
522.09	1149.91
522.44	1146.39
522.80	1157.63
523.16	1157.16
523.51	1163.95
523.87	1163.01
524.23	1172.61
524.58	1163.01
524.94	1168.86
525.30	1161.84
525.65	1160.44
526.01	1156.22
526.37	1151.78
526.72	1142.88
527.08	1144.99
527.44	1143.35
527.79	1133.99
528.15	1137.97
528.51	1144.52
528.86	1150.61
529.22	1150.37
529.58	1158.57
529.93	1155.76
530.29	1151.78
530.65	1138.90
531.00	1128.84
531.36	1126.03
531.71	1122.52
532.07	1110.82
532.43	1114.56
532.78	1115.97
533.14	1101.46
533.49	1106.84
533.85	1121.35
534.21	1122.75
534.56	1142.88
534.92	1154.12
535.27	1148.03
535.63	1135.16
535.98	1131.65
536.34	1115.73
536.69	1117.14
537.05	1124.39
537.41	1133.05
537.76	1134.46
538.12	1140.31
538.47	1138.44
538.83	1137.97
539.18	1136.33
539.54	1132.82
539.89	1129.07
540.25	1132.12
540.60	1123.93
540.96	1123.46
541.31	1124.86
541.67	1128.84
542.02	1132.82
542.38	1135.39
542.73	1141.01
543.09	1145.22
543.44	1141.48
543.80	1135.16
544.15	1133.99
544.51	1127.67
544.86	1130.01
545.22	1132.82
545.57	1129.07
545.93	1128.61
546.28	1133.76
546.64	1131.41
546.99	1122.29
547.35	1124.39
547.70	1125.80
548.05	1113.63
548.41	1111.29
548.76	1115.27
549.12	1110.82
549.47	1107.31
549.83	1106.61
550.18	1100.52
550.53	1093.73
550.89	1102.86
551.24	1106.84
551.60	1105.44
551.95	1112.69
552.30	1112.46
552.66	1111.99
553.01	1121.12
553.37	1118.78
553.72	1111.99
554.07	1121.82
554.43	1112.92
554.78	1101.22
555.13	1108.95
555.49	1110.12
555.84	1111.05
556.19	1115.50
556.55	1113.63
556.90	1109.41
557.26	1105.44
557.61	1101.46
557.96	1100.99
558.32	1109.65
558.67	1111.75
559.02	1104.73
559.37	1100.52
559.73	1094.20
560.08	1091.86
560.43	1096.54
560.79	1112.69
561.14	1113.86
561.49	1118.78
561.85	1117.84
562.20	1107.31
562.55	1112.46
562.90	1107.78
563.26	1118.78
563.61	1120.41
563.96	1124.39
564.32	1125.33
564.67	1132.12
565.02	1119.24
565.37	1123.46
565.73	1128.84
566.08	1116.90
566.43	1116.90
566.78	1107.54
567.14	1108.95
567.49	1110.35
567.84	1112.46
568.19	1104.73
568.54	1108.24
568.90	1104.50
569.25	1105.20
569.60	1099.35
569.95	1106.61
570.31	1107.54
570.66	1099.35
571.01	1098.41
571.36	1098.18
571.71	1095.37
572.06	1107.07
572.42	1113.39
572.77	1100.52
573.12	1106.37
573.47	1111.99
573.82	1111.99
574.18	1101.92
574.53	1112.22
574.88	1110.82
575.23	1108.71
575.58	1109.65
575.93	1118.78
576.28	1112.22
576.64	1120.88
576.99	1130.24
577.34	1130.01
577.69	1122.52
578.04	1125.33
578.39	1119.24
578.74	1116.44
579.09	1097.24
579.44	1105.44
579.80	1107.54
580.15	1104.73
580.50	1108.95
580.85	1117.14
581.20	1116.44
581.55	1113.86
581.90	1105.44
582.25	1090.69
582.60	1091.63
582.95	1092.56
583.30	1095.84
583.65	1108.71
584.00	1115.97
584.35	1114.56
584.71	1101.22
585.06	1101.46
585.41	1100.52
585.76	1098.41
586.11	1104.97
586.46	1115.50
586.81	1109.88
587.16	1112.46
587.51	1115.27
587.86	1106.37
588.21	1098.65
588.56	1103.09
588.91	1095.37
589.26	1086.01
589.61	1103.80
589.96	1102.39
590.31	1104.50
590.66	1108.24
591.01	1098.18
591.36	1079.46
591.71	1085.31
592.06	1090.22
592.41	1083.90
592.76	1105.90
593.10	1111.99
593.45	1110.82
593.80	1101.46
594.15	1097.48
594.50	1093.73
594.85	1096.78
595.20	1093.97
595.55	1090.92
595.90	1084.60
596.25	1078.52
596.60	1066.11
596.95	1057.22
597.30	1060.96
597.64	1128.37
597.99	1133.29
598.34	1148.50
598.69	1162.08
599.04	1161.61
599.39	1120.41
599.74	1113.39
600.09	1111.99
600.44	1106.61
600.78	1108.95
601.13	1109.88
601.48	1113.39
601.83	1103.33
602.18	1103.09
602.53	1107.07
602.88	1096.78
603.22	1090.46
603.57	1095.60
603.92	1100.52
604.27	1094.90
604.62	1104.50
604.97	1105.90
605.31	1114.56
605.66	1112.92
606.01	1111.52
606.36	1103.09
606.71	1114.33
607.05	1102.86
607.40	1109.41
607.75	1106.84
608.10	1104.03
608.44	1097.24
608.79	1100.99
609.14	1085.07
609.49	1092.33
609.84	1086.01
610.18	1088.58
610.53	1091.16
610.88	1108.24
611.23	1098.18
611.57	1103.09
611.92	1102.63
612.27	1089.52
612.62	1085.77
612.96	1096.78
613.31	1093.50
613.66	1087.88
614.00	1091.86
614.35	1079.22
614.70	1074.31
615.05	1080.86
615.39	1083.67
615.74	1091.63
616.09	1095.37
616.43	1098.41
616.78	1101.22
617.13	1094.67
617.47	1087.18
617.82	1088.58
618.17	1087.18
618.51	1078.75
618.86	1095.14
619.21	1101.22
619.55	1110.12
619.90	1105.20
620.25	1113.63
620.59	1097.01
620.94	1102.63
621.29	1100.75
621.63	1114.10
621.98	1106.84
622.32	1116.20
622.67	1104.50
623.02	1098.65
623.36	1083.90
623.71	1087.18
624.05	1090.46
624.40	1097.71
624.75	1101.69
625.09	1106.14
625.44	1110.58
625.78	1105.44
626.13	1103.33
626.48	1097.71
626.82	1099.12
627.17	1090.69
627.51	1084.14
627.86	1075.94
628.20	1073.37
628.55	1074.07
628.89	1076.88
629.24	1086.71
629.58	1091.39
629.93	1103.09
630.28	1102.86
630.62	1100.29
630.97	1106.84
631.31	1108.95
631.66	1111.52
632.00	1110.58
632.35	1107.07
632.69	1091.16
633.04	1096.31
633.38	1084.37
633.73	1085.31
634.07	1088.35
634.42	1092.09
634.76	1086.01
635.11	1102.16
635.45	1106.37
635.79	1111.99
636.14	1115.97
636.48	1113.63
636.83	1097.71
637.17	1090.22
637.52	1089.75
637.86	1082.03
638.21	1077.82
638.55	1082.97
638.89	1079.46
639.24	1079.46
639.58	1084.14
639.93	1099.58
640.27	1094.67
640.61	1099.82
640.96	1092.09
641.30	1086.71
641.65	1089.52
641.99	1091.16
642.33	1092.09
642.68	1099.58
643.02	1106.61
643.37	1097.01
643.71	1099.58
644.05	1094.90
644.40	1092.09
644.74	1089.29
645.08	1097.95
645.43	1095.14
645.77	1099.35
646.11	1096.07
646.46	1098.65
646.80	1090.46
647.14	1091.39
647.49	1089.99
647.83	1095.37
648.17	1092.33
648.52	1090.46
648.86	1087.18
649.20	1084.84
649.55	1088.12
649.89	1082.26
650.23	1085.07
650.57	1091.63
650.92	1097.24
651.26	1089.05
651.60	1104.26
651.95	1100.75
652.29	1096.07
652.63	1089.29
652.97	1102.86
653.32	1098.41
653.66	1094.90
654.00	1094.67
654.34	1094.43
654.69	1087.65
655.03	1078.28
655.37	1079.92
655.71	1083.43
656.05	1087.65
656.40	1084.60
656.74	1087.88
657.08	1087.18
657.42	1082.26
657.76	1080.16
658.11	1086.01
658.45	1090.92
658.79	1087.18
659.13	1083.90
659.47	1085.77
659.82	1070.33
660.16	1072.43
660.50	1070.09
660.84	1077.58
661.18	1086.71
661.52	1092.80
661.87	1089.99
662.21	1094.90
662.55	1095.37
662.89	1086.94
663.23	1088.58
663.57	1089.05
663.91	1093.26
664.25	1094.20
664.60	1090.46
664.94	1096.54
665.28	1088.58
665.62	1090.46
665.96	1088.82
666.30	1095.60
666.64	1091.63
666.98	1098.18
667.32	1099.58
667.66	1093.73
668.01	1088.35
668.35	1080.39
668.69	1077.58
669.03	1076.41
669.37	1080.16
669.71	1079.69
670.05	1078.28
670.39	1079.69
670.73	1077.11
671.07	1075.24
671.41	1077.35
671.75	1089.29
672.09	1090.92
672.43	1090.92
672.77	1089.29
673.11	1100.75
673.45	1094.67
673.79	1090.46
674.13	1101.92
674.47	1102.86
674.81	1086.71
675.15	1083.90
675.49	1079.92
675.83	1070.09
676.17	1075.94
676.51	1076.88
676.85	1082.03
677.19	1085.77
677.53	1086.71
677.87	1089.75
678.21	1096.31
678.55	1096.78
678.89	1097.95
679.23	1097.95
679.57	1092.09
679.90	1085.07
680.24	1084.60
680.58	1089.99
680.92	1093.26
681.26	1095.37
681.60	1090.92
681.94	1089.75
682.28	1086.71
682.62	1078.75
682.96	1078.28
683.29	1084.60
683.63	1076.18
683.97	1075.71
684.31	1082.97
684.65	1082.03
684.99	1078.05
685.33	1082.97
685.67	1082.73
686.00	1081.80
686.34	1080.86
686.68	1095.60
687.02	1102.16
687.36	1103.33
687.70	1107.07
688.03	1104.50
688.37	1103.80
688.71	1107.78
689.05	1108.71
689.39	1104.97
689.72	1115.50
690.06	1117.37
690.40	1112.92
690.74	1112.92
691.08	1109.18
691.41	1094.90
691.75	1089.05
692.09	1086.71
692.43	1079.92
692.76	1077.82
693.10	1081.33
693.44	1065.41
693.78	1061.67
694.11	1071.26
694.45	1071.03
694.79	1075.24
695.13	1087.18
695.46	1087.18
695.80	1087.41
696.14	1094.90
696.48	1099.58
696.81	1101.22
697.15	1106.84
697.49	1104.73
697.82	1101.69
698.16	1090.22
698.50	1086.01
698.83	1089.29
699.17	1084.84
699.51	1086.48
699.84	1089.75
700.18	1094.90
700.52	1085.77
700.85	1081.56
701.19	1080.86
701.53	1083.67
701.86	1074.77
702.20	1077.11
702.54	1087.41
702.87	1084.14
703.21	1073.14
703.55	1081.56
703.88	1079.92
704.22	1077.35
704.55	1068.22
704.89	1088.35
705.23	1089.52
705.56	1100.75
705.90	1097.24
706.23	1110.35
706.57	1106.61
706.91	1097.95
707.24	1086.71
707.58	1093.73
707.91	1088.12
708.25	1088.12
708.58	1092.80
708.92	1093.73
709.26	1089.29
709.59	1088.58
709.93	1085.77
710.26	1085.54
710.60	1083.90
710.93	1072.90
711.27	1078.28
711.60	1074.54
711.94	1073.60
712.27	1081.56
712.61	1081.80
712.94	1086.01
713.28	1103.33
713.61	1106.84
713.95	1089.29
714.28	1105.90
714.62	1098.18
714.95	1077.11
715.29	1077.35
715.62	1088.35
715.96	1084.60
716.29	1089.29
716.63	1090.69
716.96	1085.54
717.29	1079.22
717.63	1072.43
717.96	1072.90
718.30	1075.24
718.63	1074.77
718.97	1082.03
719.30	1085.77
719.63	1080.86
719.97	1079.92
720.30	1082.73
720.64	1081.09
720.97	1078.52
721.30	1073.84
721.64	1084.84
721.97	1077.58
722.31	1079.92
722.64	1081.56
722.97	1086.94
723.31	1079.46
723.64	1081.33
723.97	1078.05
724.31	1080.16
724.64	1084.84
724.98	1082.26
725.31	1082.26
725.64	1080.86
725.98	1079.22
726.31	1076.88
726.64	1070.33
726.97	1073.60
727.31	1079.92
727.64	1084.60
727.97	1075.71
728.31	1080.86
728.64	1086.01
728.97	1081.56
729.31	1072.90
729.64	1071.03
729.97	1071.03
730.30	1071.73
730.64	1077.58
730.97	1082.50
731.30	1091.16
731.63	1095.37
731.97	1091.16
732.30	1084.84
732.63	1085.54
732.96	1080.39
733.30	1078.99
733.63	1065.18
733.96	1064.48
734.29	1062.60
734.63	1063.77
734.96	1066.58
735.29	1087.65
735.62	1093.26
735.95	1097.48
736.29	1104.73
736.62	1102.39
736.95	1097.24
737.28	1092.33
737.61	1094.43
737.94	1090.92
738.28	1085.77
738.61	1085.31
738.94	1086.24
739.27	1082.26
739.60	1075.71
739.93	1072.20
740.27	1068.22
740.60	1063.07
740.93	1068.22
741.26	1083.20
741.59	1084.37
741.92	1082.73
742.25	1087.88
742.58	1083.20
742.91	1069.39
743.25	1075.01
743.58	1077.82
743.91	1075.48
744.24	1070.80
744.57	1065.18
744.90	1066.58
745.23	1060.50
745.56	1064.94
745.89	1056.52
746.22	1072.20
746.55	1077.58
746.88	1089.52
747.21	1089.75
747.54	1095.60
747.87	1084.14
748.20	1067.05
748.53	1062.14
748.87	1056.99
749.20	1054.41
749.53	1056.28
749.86	1071.03
750.19	1073.84
750.52	1080.86
750.85	1083.67
751.18	1089.29
751.51	1079.92
751.84	1084.84
752.16	1088.35
752.49	1086.01
752.82	1084.84
753.15	1092.56
753.48	1080.39
753.81	1070.56
754.14	1083.67
754.47	1075.24
754.80	1067.75
755.13	1069.86
755.46	1071.03
755.79	1075.24
756.12	1086.48
756.45	1085.07
756.78	1084.60
757.11	1093.73
757.43	1086.24
757.76	1081.09
758.09	1086.48
758.42	1100.05
758.75	1103.56
759.08	1103.56
759.41	1107.54
759.74	1110.35
760.07	1095.14
760.39	1083.67
760.72	1073.84
761.05	1068.92
761.38	1075.94
761.71	1086.48
762.04	1091.63
762.36	1093.73
762.69	1095.14
763.02	1089.99
763.35	1081.33
763.68	1088.35
764.01	1090.22
764.33	1082.73
