SpectraSuite Data File
++++++++++++++++++++++++++++++++++++
Date: Mon Aug 26 10:24:35 PDT 2019
User: corrico
Dark Spectrum Present: No
Reference Spectrum Present: No
Number of Sampled Component Spectra: 1
Spectrometers: USB2+H06089
Integration Time (usec): 10000 (USB2+H06089)
Spectra Averaged: 2 (USB2+H06089)
Boxcar Smoothing: 2 (USB2+H06089)
Correct for Electrical Dark: No (USB2+H06089)
Strobe/Lamp Enabled: No (USB2+H06089)
Correct for Detector Non-linearity: No (USB2+H06089)
Correct for Stray Light: No (USB2+H06089)
Number of Pixels in Processed Spectrum: 2048
>>>>>Begin Processed Spectral Data<<<<<
339.70	1031.01
340.07	1031.01
340.45	1008.77
340.82	985.13
341.19	959.15
341.57	936.92
341.94	920.53
342.31	907.43
342.69	909.06
343.06	912.11
343.43	906.49
343.81	907.19
344.18	909.53
344.55	908.83
344.93	902.04
345.30	914.45
345.67	917.96
346.04	927.32
346.42	931.77
346.79	951.19
347.16	959.15
347.54	973.66
347.91	979.05
348.28	990.98
348.65	1000.11
349.03	1015.56
349.40	1019.77
349.77	1032.41
350.14	1046.45
350.52	1055.11
350.89	1049.96
351.26	1053.94
351.63	1060.26
352.01	1073.14
352.38	1074.07
352.75	1084.84
353.12	1096.54
353.50	1102.63
353.87	1095.37
354.24	1108.95
354.61	1118.78
354.98	1128.84
355.36	1126.97
355.73	1134.46
356.10	1117.84
356.47	1109.18
356.84	1107.07
357.22	1108.01
357.59	1100.29
357.96	1111.29
358.33	1104.50
358.70	1099.35
359.08	1097.01
359.45	1095.14
359.82	1089.29
360.19	1102.16
360.56	1105.44
360.94	1098.88
361.31	1104.50
361.68	1111.99
362.05	1106.14
362.42	1086.94
362.79	1098.41
363.16	1091.86
363.54	1077.11
363.91	1062.37
364.28	1080.86
364.65	1071.50
365.02	1063.31
365.39	1070.33
365.76	1089.75
366.14	1082.73
366.51	1090.92
366.88	1101.69
367.25	1103.56
367.62	1091.16
367.99	1091.16
368.36	1084.37
368.73	1087.65
369.10	1088.82
369.48	1089.99
369.85	1087.88
370.22	1091.39
370.59	1087.18
370.96	1086.71
371.33	1095.14
371.70	1103.33
372.07	1106.37
372.44	1108.71
372.81	1111.29
373.18	1103.80
373.55	1099.82
373.93	1090.92
374.30	1089.75
374.67	1089.29
375.04	1084.14
375.41	1079.46
375.78	1082.26
376.15	1086.94
376.52	1090.69
376.89	1104.97
377.26	1113.86
377.63	1111.99
378.00	1108.48
378.37	1100.75
378.74	1091.63
379.11	1099.58
379.48	1108.95
379.85	1105.20
380.22	1107.78
380.59	1117.84
380.96	1105.44
381.33	1094.43
381.70	1101.92
382.07	1105.20
382.44	1096.07
382.81	1094.67
383.18	1097.95
383.55	1093.97
383.92	1091.16
384.29	1090.69
384.66	1087.88
385.03	1103.33
385.40	1104.97
385.77	1102.39
386.14	1111.75
386.51	1111.99
386.88	1102.16
387.25	1100.52
387.62	1114.10
387.99	1110.58
388.36	1125.80
388.73	1131.65
389.10	1132.59
389.46	1123.93
389.83	1128.84
390.20	1127.90
390.57	1121.58
390.94	1119.71
391.31	1125.56
391.68	1134.93
392.05	1134.93
392.42	1141.95
392.79	1142.65
393.16	1130.71
393.53	1116.90
393.89	1115.73
394.26	1108.01
394.63	1115.27
395.00	1127.44
395.37	1121.82
395.74	1119.01
396.11	1129.07
396.48	1126.97
396.84	1128.37
397.21	1143.82
397.58	1149.91
397.95	1159.50
398.32	1167.93
398.69	1173.08
399.06	1171.20
399.42	1172.61
399.79	1166.29
400.16	1165.59
400.53	1170.50
400.90	1182.91
401.27	1195.08
401.64	1193.67
402.00	1202.80
402.37	1216.84
402.74	1212.87
403.11	1218.25
403.48	1239.78
403.84	1249.85
404.21	1252.19
404.58	1274.42
404.95	1295.25
405.32	1317.49
405.68	1333.64
406.05	1356.57
406.42	1381.62
406.79	1397.07
407.16	1415.79
407.52	1444.58
407.89	1466.58
408.26	1491.16
408.63	1530.94
408.99	1561.14
409.36	1602.80
409.73	1649.61
410.10	1707.65
410.47	1764.06
410.83	1827.02
411.20	1889.75
411.57	1953.41
411.94	2020.35
412.30	2080.50
412.67	2147.44
413.04	2241.77
413.40	2333.05
413.77	2437.67
414.14	2548.14
414.51	2664.23
414.87	2789.92
415.24	2932.22
415.61	3059.08
415.97	3190.62
416.34	3372.48
416.71	3522.27
417.08	3701.32
417.44	3889.27
417.81	4114.19
418.18	4323.20
418.54	4562.64
418.91	4813.08
419.28	5110.33
419.64	5409.45
420.01	5723.31
420.38	6039.52
420.74	6392.71
421.11	6745.42
421.48	7111.95
421.84	7503.76
422.21	7904.93
422.58	8355.48
422.94	8841.14
423.31	9357.70
423.68	9898.36
424.04	10519.77
424.41	11082.44
424.77	11659.38
425.14	12229.77
425.51	12838.77
425.87	13544.45
426.24	14214.54
426.61	15086.86
426.97	16109.91
427.34	17052.68
427.70	18033.36
428.07	19088.00
428.44	20084.61
428.80	21116.78
429.17	22166.04
429.53	23142.98
429.90	24364.74
430.27	25417.28
430.63	26400.77
431.00	27621.13
431.36	28914.74
431.73	29936.15
432.09	31122.57
432.46	32474.70
432.83	33768.55
433.19	34978.84
433.56	36428.57
433.92	37857.70
434.29	39125.10
434.65	40327.66
435.02	41448.78
435.38	42671.94
435.75	43457.43
436.11	44530.10
436.48	45468.42
436.84	46657.64
437.21	47491.11
437.57	48439.96
437.94	49026.97
438.30	49543.06
438.67	49647.44
439.03	49722.11
439.40	49829.30
439.76	49727.72
440.13	49566.70
440.49	49459.73
440.86	49012.46
441.22	48602.16
441.59	48009.77
441.95	47414.10
442.32	46558.87
442.68	46016.57
443.05	45246.77
443.41	44385.92
443.78	43394.23
444.14	42411.44
444.51	41238.13
444.87	40288.58
445.24	39221.53
445.60	38209.01
445.96	37164.43
446.33	36153.32
446.69	34881.94
447.06	33891.19
447.42	32947.72
447.79	32039.59
448.15	31187.64
448.51	30461.37
448.88	29715.21
449.24	28814.10
449.61	28116.39
449.97	27371.39
450.33	26594.81
450.70	25744.25
451.06	25141.80
451.43	24339.46
451.79	23673.58
452.15	23008.40
452.52	22531.87
452.88	21893.14
453.24	21383.37
453.61	20851.60
453.97	20282.38
454.34	19671.73
454.70	19193.80
455.06	18634.64
455.43	17999.89
455.79	17351.56
456.15	16802.71
456.52	16212.89
456.88	15763.74
457.24	15261.70
457.61	14911.79
457.97	14462.64
458.33	13924.32
458.70	13361.65
459.06	12842.75
459.42	12354.28
459.79	11866.05
460.15	11497.65
460.51	11113.33
460.88	10720.59
461.24	10353.83
461.60	10043.71
461.96	9689.82
462.33	9401.00
462.69	9131.60
463.05	8863.37
463.42	8593.51
463.78	8347.99
464.14	8102.47
464.50	7909.37
464.87	7668.06
465.23	7458.35
465.59	7286.09
465.95	7089.25
466.32	6874.62
466.68	6694.40
467.04	6514.65
467.40	6331.38
467.77	6145.31
468.13	5982.88
468.49	5831.21
468.85	5698.97
469.22	5571.18
469.58	5461.87
469.94	5369.89
470.30	5264.57
470.66	5157.37
471.03	5029.34
471.39	4927.53
471.75	4806.29
472.11	4684.58
472.47	4572.47
472.84	4486.57
473.20	4396.23
473.56	4312.20
473.92	4227.24
474.28	4145.56
474.65	4071.83
475.01	4001.85
475.37	3910.57
475.73	3838.24
476.09	3755.39
476.45	3666.22
476.81	3587.11
477.18	3527.66
477.54	3477.80
477.90	3422.80
478.26	3378.10
478.62	3295.71
478.98	3225.26
479.34	3158.08
479.71	3103.55
480.07	3036.14
480.43	3014.38
480.79	2969.44
481.15	2916.07
481.51	2877.92
481.87	2837.20
482.23	2781.49
482.59	2733.04
482.96	2706.36
483.32	2664.00
483.68	2639.19
484.04	2609.00
484.40	2601.97
484.76	2555.63
485.12	2527.31
485.48	2483.31
485.84	2448.90
486.20	2393.43
486.56	2377.75
486.92	2349.66
487.28	2312.68
487.64	2266.11
488.00	2236.62
488.37	2198.47
488.73	2159.14
489.09	2131.99
489.45	2110.23
489.81	2075.35
490.17	2038.84
490.53	2010.99
490.89	1982.67
491.25	1956.22
491.61	1942.18
491.97	1922.28
492.33	1895.13
492.69	1875.71
493.05	1859.32
493.41	1833.11
493.77	1813.45
494.13	1778.10
494.49	1753.53
494.85	1727.08
495.21	1707.65
495.57	1683.78
495.93	1680.74
496.29	1668.33
496.64	1665.53
497.00	1651.25
497.36	1640.01
497.72	1629.48
498.08	1613.10
498.44	1581.50
498.80	1570.73
499.16	1552.24
499.52	1529.31
499.88	1507.77
500.24	1494.20
500.60	1473.37
500.96	1466.81
501.32	1462.13
501.68	1464.24
502.03	1456.98
502.39	1444.58
502.75	1430.30
503.11	1423.98
503.47	1410.64
503.83	1395.19
504.19	1392.38
504.55	1391.45
504.91	1370.62
505.26	1357.51
505.62	1364.06
505.98	1366.64
506.34	1360.32
506.70	1372.26
507.06	1374.36
507.42	1359.85
507.78	1342.30
508.13	1324.51
508.49	1301.57
508.85	1299.93
509.21	1294.08
509.57	1299.00
509.93	1300.87
510.28	1303.44
510.64	1290.81
511.00	1296.42
511.36	1289.40
511.72	1280.27
512.07	1267.17
512.43	1263.89
512.79	1263.66
513.15	1264.36
513.51	1264.83
513.86	1273.02
514.22	1271.14
514.58	1256.17
514.94	1247.74
515.30	1240.95
515.65	1232.99
516.01	1215.44
516.37	1210.53
516.73	1202.57
517.08	1201.87
517.44	1193.91
517.80	1197.89
518.16	1195.31
518.51	1192.27
518.87	1186.65
519.23	1196.72
519.59	1205.84
519.94	1213.10
520.30	1212.87
520.66	1208.18
521.01	1207.72
521.37	1205.38
521.73	1197.89
522.09	1192.74
522.44	1192.27
522.80	1186.42
523.16	1175.18
523.51	1178.46
523.87	1180.80
524.23	1174.48
524.58	1170.27
524.94	1176.12
525.30	1170.50
525.65	1164.42
526.01	1179.40
526.37	1168.40
526.72	1163.48
527.08	1155.52
527.44	1150.37
527.79	1145.22
528.15	1144.76
528.51	1135.86
528.86	1143.35
529.22	1156.69
529.58	1136.56
529.93	1147.33
530.29	1160.44
530.65	1153.42
531.00	1155.05
531.36	1185.01
531.71	1175.18
532.07	1167.93
532.43	1170.74
532.78	1160.67
533.14	1148.03
533.49	1148.50
533.85	1147.33
534.21	1141.48
534.56	1133.05
534.92	1139.84
535.27	1136.80
535.63	1137.50
535.98	1141.48
536.34	1158.57
536.69	1151.78
537.05	1162.31
537.41	1159.97
537.76	1152.48
538.12	1137.97
538.47	1130.24
538.83	1125.80
539.18	1123.93
539.54	1120.18
539.89	1118.54
540.25	1112.22
540.60	1110.58
540.96	1111.05
541.31	1119.71
541.67	1123.69
542.02	1129.31
542.38	1117.14
542.73	1119.95
543.09	1119.24
543.44	1119.71
543.80	1125.10
544.15	1140.07
544.51	1132.12
544.86	1131.88
545.22	1134.46
545.57	1135.63
545.93	1125.10
546.28	1134.46
546.64	1136.56
546.99	1132.59
547.35	1130.01
547.70	1139.14
548.05	1135.86
548.41	1138.20
548.76	1144.29
549.12	1137.50
549.47	1144.05
549.83	1140.54
550.18	1141.01
550.53	1133.99
550.89	1131.88
551.24	1122.99
551.60	1117.84
551.95	1106.37
552.30	1107.31
552.66	1115.50
553.01	1113.39
553.37	1118.78
553.72	1124.63
554.07	1123.22
554.43	1114.09
554.78	1112.46
555.13	1110.58
555.49	1106.37
555.84	1102.86
556.19	1102.39
556.55	1109.65
556.90	1104.73
557.26	1106.61
557.61	1104.97
557.96	1112.46
558.32	1100.99
558.67	1102.16
559.02	1108.95
559.37	1107.54
559.73	1106.37
560.08	1112.46
560.43	1120.18
560.79	1116.20
561.14	1127.44
561.49	1127.67
561.85	1122.99
562.20	1128.14
562.55	1123.69
562.90	1117.61
563.26	1117.37
563.61	1115.97
563.96	1109.18
564.32	1113.86
564.67	1120.41
565.02	1119.24
565.37	1116.67
565.73	1111.99
566.08	1103.09
566.43	1107.54
566.78	1104.03
567.14	1112.69
567.49	1109.88
567.84	1120.41
568.19	1115.97
568.54	1113.16
568.90	1112.22
569.25	1117.84
569.60	1104.03
569.95	1097.01
570.31	1095.60
570.66	1094.67
571.01	1088.12
571.36	1090.46
571.71	1089.75
572.06	1107.07
572.42	1106.61
572.77	1112.22
573.12	1109.88
573.47	1115.50
573.82	1110.35
574.18	1104.73
574.53	1113.63
574.88	1118.78
575.23	1119.24
575.58	1114.33
575.93	1123.46
576.28	1114.56
576.64	1121.35
576.99	1122.75
577.34	1121.82
577.69	1113.86
578.04	1113.86
578.39	1109.41
578.74	1096.07
579.09	1094.20
579.44	1102.16
579.80	1103.33
580.15	1115.03
580.50	1126.27
580.85	1132.35
581.20	1115.73
581.55	1116.44
581.90	1105.90
582.25	1094.43
582.60	1098.65
582.95	1110.58
583.30	1104.97
583.65	1112.46
584.00	1115.27
584.35	1104.50
584.71	1105.90
585.06	1108.48
585.41	1098.65
585.76	1103.09
586.11	1103.80
586.46	1102.16
586.81	1092.33
587.16	1091.39
587.51	1095.37
587.86	1102.63
588.21	1093.73
588.56	1107.78
588.91	1104.73
589.26	1097.24
589.61	1082.73
589.96	1093.97
590.31	1088.12
590.66	1090.69
591.01	1096.07
591.36	1100.99
591.71	1096.31
592.06	1095.84
592.41	1101.69
592.76	1096.78
593.10	1100.99
593.45	1100.29
593.80	1101.22
594.15	1101.46
594.50	1103.09
594.85	1106.84
595.20	1102.86
595.55	1108.24
595.90	1107.31
596.25	1111.05
596.60	1107.78
596.95	1107.78
597.30	1109.88
597.64	1152.71
597.99	1146.63
598.34	1142.65
598.69	1137.73
599.04	1141.95
599.39	1092.33
599.74	1097.95
600.09	1094.67
600.44	1115.27
600.78	1106.37
601.13	1107.07
601.48	1109.65
601.83	1126.03
602.18	1119.01
602.53	1117.84
602.88	1123.46
603.22	1106.84
603.57	1099.12
603.92	1089.99
604.27	1096.78
604.62	1094.90
604.97	1107.54
605.31	1109.41
605.66	1121.58
606.01	1109.41
606.36	1108.48
606.71	1103.56
607.05	1099.12
607.40	1092.56
607.75	1098.18
608.10	1091.86
608.44	1089.99
608.79	1094.90
609.14	1097.95
609.49	1093.97
609.84	1101.92
610.18	1106.84
610.53	1104.03
610.88	1095.14
611.23	1107.31
611.57	1100.29
611.92	1099.12
612.27	1098.65
612.62	1102.16
612.96	1093.50
613.31	1100.99
613.66	1100.29
614.00	1102.39
614.35	1106.61
614.70	1104.26
615.05	1101.69
615.39	1103.33
615.74	1098.65
616.09	1101.46
616.43	1100.52
616.78	1102.39
617.13	1095.84
617.47	1091.16
617.82	1090.46
618.17	1096.78
618.51	1096.31
618.86	1095.84
619.21	1107.31
619.55	1104.97
619.90	1101.22
620.25	1101.22
620.59	1100.99
620.94	1093.03
621.29	1092.56
621.63	1095.84
621.98	1090.92
622.32	1096.78
622.67	1102.39
623.02	1099.35
623.36	1088.12
623.71	1092.09
624.05	1097.48
624.40	1096.07
624.75	1101.69
625.09	1102.63
625.44	1115.73
625.78	1107.78
626.13	1107.54
626.48	1098.41
626.82	1101.92
627.17	1084.14
627.51	1086.71
627.86	1078.99
628.20	1087.18
628.55	1091.86
628.89	1095.84
629.24	1094.90
629.58	1102.63
629.93	1100.52
630.28	1097.95
630.62	1095.37
630.97	1102.16
631.31	1095.37
631.66	1086.24
632.00	1086.71
632.35	1088.12
632.69	1080.16
633.04	1081.56
633.38	1084.60
633.73	1083.43
634.07	1087.18
634.42	1094.43
634.76	1095.84
635.11	1100.99
635.45	1110.82
635.79	1111.52
636.14	1105.20
636.48	1108.48
636.83	1106.61
637.17	1101.22
637.52	1090.69
637.86	1093.50
638.21	1091.86
638.55	1092.80
638.89	1082.26
639.24	1083.90
639.58	1083.67
639.93	1088.12
640.27	1091.16
640.61	1095.14
640.96	1095.37
641.30	1091.63
641.65	1086.24
641.99	1082.50
642.33	1082.03
642.68	1093.50
643.02	1093.73
643.37	1101.22
643.71	1098.18
644.05	1095.60
644.40	1081.56
644.74	1088.35
645.08	1080.86
645.43	1085.54
645.77	1094.67
646.11	1103.09
646.46	1106.84
646.80	1104.26
647.14	1099.12
647.49	1093.97
647.83	1087.18
648.17	1086.24
648.52	1083.90
648.86	1081.80
649.20	1089.05
649.55	1097.71
649.89	1089.29
650.23	1098.65
650.57	1103.56
650.92	1100.29
651.26	1102.16
651.60	1101.22
651.95	1099.58
652.29	1093.50
652.63	1098.88
652.97	1099.58
653.32	1110.35
653.66	1109.41
654.00	1114.56
654.34	1110.12
654.69	1106.37
655.03	1094.90
655.37	1089.99
655.71	1088.58
656.05	1085.77
656.40	1081.33
656.74	1080.16
657.08	1081.56
657.42	1089.99
657.76	1092.33
658.11	1095.14
658.45	1090.69
658.79	1102.86
659.13	1098.88
659.47	1095.60
659.82	1094.43
660.16	1093.73
660.50	1082.26
660.84	1077.58
661.18	1076.41
661.52	1073.37
661.87	1082.97
662.21	1086.71
662.55	1086.48
662.89	1088.82
663.23	1087.65
663.57	1079.22
663.91	1067.28
664.25	1068.69
664.60	1070.80
664.94	1078.99
665.28	1081.80
665.62	1091.16
665.96	1093.73
666.30	1087.88
666.64	1079.22
666.98	1078.75
667.32	1068.69
667.66	1064.24
668.01	1067.28
668.35	1075.24
668.69	1082.03
669.03	1088.12
669.37	1089.52
669.71	1088.35
670.05	1082.03
670.39	1076.88
670.73	1085.07
671.07	1090.69
671.41	1092.80
671.75	1098.88
672.09	1095.60
672.43	1088.58
672.77	1087.65
673.11	1104.97
673.45	1094.67
673.79	1091.86
674.13	1090.69
674.47	1099.58
674.81	1079.92
675.15	1087.88
675.49	1094.67
675.83	1101.92
676.17	1085.77
676.51	1086.48
676.85	1091.63
677.19	1097.01
677.53	1093.26
677.87	1090.92
678.21	1090.22
678.55	1085.07
678.89	1083.67
679.23	1085.31
679.57	1087.88
679.90	1085.31
680.24	1077.58
680.58	1074.54
680.92	1071.50
681.26	1077.35
681.60	1078.05
681.94	1084.14
682.28	1091.16
682.62	1082.97
682.96	1078.99
683.29	1087.18
683.63	1087.65
683.97	1089.99
684.31	1104.26
684.65	1101.22
684.99	1096.07
685.33	1092.33
685.67	1087.88
686.00	1080.63
686.34	1084.37
686.68	1086.48
687.02	1086.24
687.36	1081.80
687.70	1094.67
688.03	1092.33
688.37	1085.07
688.71	1088.35
689.05	1084.37
689.39	1071.97
689.72	1064.71
690.06	1061.43
690.40	1060.03
690.74	1065.88
691.08	1067.28
691.41	1083.90
691.75	1093.03
692.09	1103.80
692.43	1104.50
692.76	1106.14
693.10	1097.48
693.44	1099.82
693.78	1099.35
694.11	1095.84
694.45	1097.48
694.79	1102.16
695.13	1096.07
695.46	1076.18
695.80	1080.39
696.14	1077.35
696.48	1074.54
696.81	1082.73
697.15	1094.90
697.49	1095.14
697.82	1102.63
698.16	1106.14
698.50	1093.50
698.83	1095.60
699.17	1094.20
699.51	1089.52
699.84	1076.18
700.18	1088.35
700.52	1088.82
700.85	1089.05
701.19	1083.90
701.53	1092.80
701.86	1092.33
702.20	1095.84
702.54	1095.14
702.87	1099.35
703.21	1101.22
703.55	1093.26
703.88	1080.86
704.22	1081.09
704.55	1075.94
704.89	1071.03
705.23	1069.86
705.56	1080.63
705.90	1084.84
706.23	1093.26
706.57	1109.41
706.91	1126.27
707.24	1126.73
707.58	1119.48
707.91	1113.63
708.25	1094.90
708.58	1074.31
708.92	1066.35
709.26	1061.43
709.59	1057.92
709.93	1066.58
710.26	1071.73
710.60	1079.22
710.93	1089.99
711.27	1087.18
711.60	1083.90
711.94	1081.80
712.27	1081.80
712.61	1079.46
712.94	1089.29
713.28	1089.52
713.61	1100.52
713.95	1095.37
714.28	1087.18
714.62	1081.33
714.95	1089.29
715.29	1078.28
715.62	1080.86
715.96	1085.54
716.29	1087.41
716.63	1073.37
716.96	1075.94
717.29	1070.09
717.63	1071.97
717.96	1076.41
718.30	1085.54
718.63	1083.90
718.97	1089.52
719.30	1084.84
719.63	1079.69
719.97	1080.39
720.30	1081.33
720.64	1078.99
720.97	1080.39
721.30	1087.88
721.64	1086.01
721.97	1085.54
722.31	1090.46
722.64	1082.97
722.97	1072.90
723.31	1076.18
723.64	1080.86
723.97	1085.07
724.31	1089.29
724.64	1086.94
724.98	1069.86
725.31	1068.45
725.64	1059.09
725.98	1067.52
726.31	1071.73
726.64	1080.86
726.97	1089.99
727.31	1094.20
727.64	1089.52
727.97	1087.18
728.31	1089.29
728.64	1079.92
728.97	1083.67
729.31	1085.31
729.64	1086.71
729.97	1092.33
730.30	1090.92
730.64	1084.14
730.97	1081.09
731.30	1088.35
731.63	1095.14
731.97	1089.52
732.30	1097.01
732.63	1094.20
732.96	1093.50
733.30	1088.82
733.63	1100.75
733.96	1097.95
734.29	1104.26
734.63	1101.92
734.96	1097.24
735.29	1085.77
735.62	1083.67
735.95	1085.31
736.29	1080.86
736.62	1076.88
736.95	1079.46
737.28	1079.46
737.61	1078.05
737.94	1085.31
738.28	1087.18
738.61	1089.52
738.94	1088.35
739.27	1098.18
739.60	1096.54
739.93	1099.58
740.27	1102.63
740.60	1103.09
740.93	1100.52
741.26	1100.99
741.59	1103.80
741.92	1104.97
742.25	1102.86
742.58	1091.39
742.91	1098.65
743.25	1095.37
743.58	1097.71
743.91	1096.31
744.24	1094.20
744.57	1083.67
744.90	1082.26
745.23	1077.35
745.56	1082.73
745.89	1091.16
746.22	1093.03
746.55	1096.54
746.88	1098.41
747.21	1100.99
747.54	1099.12
747.87	1091.39
748.20	1090.22
748.53	1083.67
748.87	1066.58
749.20	1060.73
749.53	1076.88
749.86	1067.99
750.19	1075.01
750.52	1089.05
750.85	1088.12
751.18	1078.52
751.51	1073.37
751.84	1069.62
752.16	1060.03
752.49	1068.92
752.82	1067.28
753.15	1074.54
753.48	1071.03
753.81	1080.63
754.14	1075.24
754.47	1065.65
754.80	1070.33
755.13	1074.77
755.46	1067.05
755.79	1077.58
756.12	1088.82
756.45	1094.67
756.78	1094.67
757.11	1097.48
757.43	1086.01
757.76	1091.86
758.09	1086.71
758.42	1095.14
758.75	1089.75
759.08	1082.03
759.41	1086.48
759.74	1084.84
760.07	1076.18
760.39	1078.75
760.72	1086.48
761.05	1073.14
761.38	1072.67
761.71	1075.94
762.04	1081.09
762.36	1089.99
762.69	1097.24
763.02	1099.35
763.35	1099.82
763.68	1089.05
764.01	1075.48
