SpectraSuite Data File
++++++++++++++++++++++++++++++++++++
Date: Mon Aug 26 10:24:37 PDT 2019
User: corrico
Dark Spectrum Present: No
Reference Spectrum Present: No
Number of Sampled Component Spectra: 1
Spectrometers: USB2+H06089
Integration Time (usec): 10000 (USB2+H06089)
Spectra Averaged: 2 (USB2+H06089)
Boxcar Smoothing: 2 (USB2+H06089)
Correct for Electrical Dark: No (USB2+H06089)
Strobe/Lamp Enabled: No (USB2+H06089)
Correct for Detector Non-linearity: No (USB2+H06089)
Correct for Stray Light: No (USB2+H06089)
Number of Pixels in Processed Spectrum: 2048
>>>>>Begin Processed Spectral Data<<<<<
339.70	1035.69
340.07	1035.69
340.45	995.20
340.82	971.56
341.19	949.79
341.57	928.02
341.94	909.06
342.31	899.70
342.69	896.89
343.06	902.04
343.43	902.04
343.81	909.53
344.18	926.85
344.55	935.28
344.93	933.87
345.30	935.51
345.67	948.39
346.04	954.24
346.42	955.87
346.79	954.24
347.16	964.07
347.54	968.28
347.91	973.66
348.28	985.13
348.65	1005.03
349.03	1017.43
349.40	1033.11
349.77	1037.79
350.14	1054.18
350.52	1065.41
350.89	1069.16
351.26	1071.50
351.63	1085.54
352.01	1081.09
352.38	1080.39
352.75	1077.11
353.12	1074.77
353.50	1072.20
353.87	1082.73
354.24	1081.80
354.61	1094.43
354.98	1092.33
355.36	1094.20
355.73	1085.07
356.10	1086.71
356.47	1087.41
356.84	1089.05
357.22	1093.97
357.59	1097.24
357.96	1095.14
358.33	1088.35
358.70	1106.84
359.08	1110.58
359.45	1107.31
359.82	1127.44
360.19	1139.14
360.56	1118.07
360.94	1117.84
361.31	1111.75
361.68	1102.86
362.05	1098.18
362.42	1112.46
362.79	1099.58
363.16	1101.22
363.54	1088.35
363.91	1081.09
364.28	1076.65
364.65	1083.20
365.02	1093.26
365.39	1097.48
365.76	1095.14
366.14	1088.35
366.51	1081.80
366.88	1087.18
367.25	1086.71
367.62	1079.92
367.99	1086.71
368.36	1087.41
368.73	1085.31
369.10	1087.18
369.48	1104.50
369.85	1109.41
370.22	1112.69
370.59	1102.39
370.96	1107.07
371.33	1108.95
371.70	1105.67
372.07	1112.46
372.44	1118.07
372.81	1117.37
373.18	1116.44
373.55	1106.37
373.93	1098.88
374.30	1098.18
374.67	1093.03
375.04	1082.97
375.41	1086.48
375.78	1089.29
376.15	1100.75
376.52	1103.09
376.89	1106.14
377.26	1110.58
377.63	1113.86
378.00	1105.44
378.37	1106.84
378.74	1119.24
379.11	1115.03
379.48	1117.37
379.85	1111.05
380.22	1114.10
380.59	1109.65
380.96	1111.29
381.33	1104.50
381.70	1113.63
382.07	1110.35
382.44	1104.26
382.81	1104.73
383.18	1111.52
383.55	1112.92
383.92	1113.16
384.29	1119.48
384.66	1129.54
385.03	1129.78
385.40	1130.48
385.77	1126.50
386.14	1126.03
386.51	1120.65
386.88	1111.99
387.25	1112.22
387.62	1109.88
387.99	1114.80
388.36	1117.84
388.73	1128.61
389.10	1126.50
389.46	1137.97
389.83	1131.65
390.20	1130.95
390.57	1126.50
390.94	1127.44
391.31	1122.05
391.68	1124.16
392.05	1125.80
392.42	1136.80
392.79	1135.63
393.16	1142.42
393.53	1151.08
393.89	1145.93
394.26	1145.93
394.63	1148.27
395.00	1144.05
395.37	1146.63
395.74	1153.42
396.11	1152.48
396.48	1151.08
396.84	1158.80
397.21	1148.73
397.58	1148.97
397.95	1149.20
398.32	1166.29
398.69	1170.97
399.06	1175.89
399.42	1189.93
399.79	1190.86
400.16	1185.25
400.53	1196.72
400.90	1197.42
401.27	1199.52
401.64	1211.23
402.00	1228.08
402.37	1223.40
402.74	1236.97
403.11	1249.38
403.48	1262.02
403.84	1269.97
404.21	1284.49
404.58	1307.66
404.95	1316.08
405.32	1336.68
405.68	1356.34
406.05	1386.77
406.42	1396.13
406.79	1417.90
407.16	1443.17
407.52	1472.43
407.89	1496.30
408.26	1529.77
408.63	1571.20
408.99	1611.46
409.36	1642.82
409.73	1689.16
410.10	1747.91
410.47	1798.94
410.83	1848.09
411.20	1917.37
411.57	1989.69
411.94	2070.44
412.30	2137.85
412.67	2217.89
413.04	2317.83
413.40	2411.22
413.77	2508.59
414.14	2639.89
414.51	2782.43
414.87	2901.56
415.24	3041.99
415.61	3197.87
415.97	3354.69
416.34	3535.85
416.71	3705.07
417.08	3920.63
417.44	4132.45
417.81	4390.14
418.18	4637.30
418.54	4937.13
418.91	5218.69
419.28	5527.41
419.64	5806.17
420.01	6119.80
420.38	6469.01
420.74	6814.00
421.11	7190.36
421.48	7604.87
421.84	8054.72
422.21	8490.53
422.58	8997.72
422.94	9550.56
423.31	10104.79
423.68	10660.44
424.04	11257.27
424.41	11887.11
424.77	12503.14
425.14	13121.51
425.51	13812.67
425.87	14608.69
426.24	15407.04
426.61	16336.47
426.97	17381.29
427.34	18377.89
427.70	19395.55
428.07	20412.75
428.44	21498.99
428.80	22572.36
429.17	23685.05
429.53	24775.04
429.90	26053.44
430.27	27115.81
430.63	28260.80
431.00	29551.14
431.36	30991.97
431.73	32239.94
432.09	33640.99
432.46	35004.35
432.83	36400.01
433.19	37567.47
433.56	39019.07
433.92	40510.93
434.29	42058.72
434.65	43514.07
435.02	44921.20
435.38	46188.37
435.75	47036.11
436.11	48146.93
436.48	49142.12
436.84	50164.23
437.21	51022.51
437.57	52109.45
437.94	52797.34
438.30	53368.19
438.67	53617.69
439.03	53839.34
439.40	54002.71
439.76	53905.35
440.13	53726.76
440.49	53767.96
440.86	53368.90
441.22	52893.06
441.59	52277.50
441.95	51571.60
442.32	50567.98
442.68	49934.86
443.05	49031.18
443.41	48203.57
443.78	47251.91
444.14	46353.37
444.51	45080.36
444.87	44241.51
445.24	43025.83
445.60	41889.27
445.96	40641.53
446.33	39664.59
446.69	38256.52
447.06	37222.94
447.42	36176.96
447.79	35176.61
448.15	34147.01
448.51	33201.20
448.88	32362.12
449.24	31299.28
449.61	30557.10
449.97	29713.33
450.33	28915.45
450.70	27935.00
451.06	27333.71
451.43	26527.87
451.79	25954.20
452.15	25403.24
452.52	24906.11
452.88	24313.48
453.24	23790.14
453.61	23175.05
453.97	22500.74
454.34	21817.30
454.70	21254.40
455.06	20660.84
455.43	19930.13
455.79	19214.86
456.15	18648.92
456.52	17949.10
456.88	17353.90
457.24	16760.58
457.61	16265.08
457.97	15707.57
458.33	15154.27
458.70	14560.94
459.06	14029.17
459.42	13555.21
459.79	13033.27
460.15	12582.49
460.51	12158.85
460.88	11745.74
461.24	11303.85
461.60	10960.96
461.96	10622.52
462.33	10275.89
462.69	9945.64
463.05	9668.99
463.42	9406.61
463.78	9101.88
464.14	8812.59
464.50	8582.04
464.87	8298.60
465.23	7988.01
465.59	7782.05
465.95	7555.72
466.32	7339.92
466.68	7127.40
467.04	6935.24
467.40	6740.27
467.77	6570.82
468.13	6394.58
468.49	6268.89
468.85	6144.61
469.22	6047.71
469.58	5903.77
469.94	5801.49
470.30	5681.88
470.66	5564.16
471.03	5405.70
471.39	5330.80
471.75	5226.18
472.11	5104.94
472.47	5016.47
472.84	4916.06
473.20	4760.18
473.56	4648.30
473.92	4522.15
474.28	4427.36
474.65	4340.76
475.01	4294.88
475.37	4199.39
475.73	4142.75
476.09	4036.25
476.45	3941.93
476.81	3838.48
477.18	3772.24
477.54	3692.90
477.90	3627.36
478.26	3559.95
478.62	3494.42
478.98	3414.14
479.34	3359.84
479.71	3296.18
480.07	3249.13
480.43	3204.66
480.79	3156.45
481.15	3104.02
481.51	3067.51
481.87	3016.72
482.23	2969.67
482.59	2931.99
482.96	2880.03
483.32	2839.07
483.68	2798.11
484.04	2759.26
484.40	2713.15
484.76	2670.32
485.12	2635.68
485.48	2603.14
485.84	2573.65
486.20	2525.91
486.56	2494.31
486.92	2457.33
487.28	2428.31
487.64	2384.54
488.00	2363.94
488.37	2333.05
488.73	2300.28
489.09	2254.64
489.45	2213.44
489.81	2168.97
490.17	2139.02
490.53	2113.27
490.89	2082.37
491.25	2058.03
491.61	2035.33
491.97	2009.58
492.33	1976.35
492.69	1949.90
493.05	1924.86
493.41	1910.81
493.77	1887.88
494.13	1865.17
494.49	1846.45
494.85	1820.47
495.21	1790.98
495.57	1764.76
495.93	1751.42
496.29	1738.55
496.64	1739.49
497.00	1726.38
497.36	1712.34
497.72	1690.10
498.08	1660.84
498.44	1634.16
498.80	1613.10
499.16	1581.03
499.52	1567.22
499.88	1572.37
500.24	1550.37
500.60	1543.12
500.96	1535.16
501.32	1524.86
501.68	1496.77
502.03	1502.16
502.39	1490.69
502.75	1484.60
503.11	1462.83
503.47	1455.58
503.83	1445.05
504.19	1446.45
504.55	1438.26
504.91	1426.32
505.26	1425.62
505.62	1402.45
505.98	1375.53
506.34	1371.55
506.70	1377.64
507.06	1360.79
507.42	1356.34
507.78	1365.94
508.13	1357.98
508.49	1349.08
508.85	1341.60
509.21	1343.70
509.57	1335.98
509.93	1336.68
510.28	1331.30
510.64	1331.06
511.00	1319.13
511.36	1313.27
511.72	1296.89
512.07	1293.15
512.43	1279.80
512.79	1282.61
513.15	1273.49
513.51	1268.57
513.86	1256.87
514.22	1260.85
514.58	1249.85
514.94	1239.55
515.30	1230.89
515.65	1225.50
516.01	1218.48
516.37	1210.53
516.73	1202.57
517.08	1213.10
517.44	1218.72
517.80	1208.65
518.16	1205.38
518.51	1209.35
518.87	1200.69
519.23	1198.82
519.59	1212.40
519.94	1219.65
520.30	1219.42
520.66	1215.67
521.01	1209.12
521.37	1202.10
521.73	1206.08
522.09	1196.48
522.44	1192.03
522.80	1191.80
523.16	1190.63
523.51	1180.80
523.87	1178.23
524.23	1182.20
524.58	1179.63
524.94	1166.29
525.30	1167.69
525.65	1170.27
526.01	1166.52
526.37	1162.78
526.72	1167.23
527.08	1166.29
527.44	1163.71
527.79	1162.08
528.15	1157.16
528.51	1152.71
528.86	1147.10
529.22	1154.59
529.58	1149.20
529.93	1145.46
530.29	1148.03
530.65	1140.78
531.00	1125.80
531.36	1133.29
531.71	1138.20
532.07	1138.90
532.43	1143.59
532.78	1146.16
533.14	1142.65
533.49	1148.27
533.85	1137.73
534.21	1141.48
534.56	1138.20
534.92	1139.37
535.27	1139.14
535.63	1150.14
535.98	1150.14
536.34	1148.73
536.69	1150.14
537.05	1148.73
537.41	1149.91
537.76	1145.69
538.12	1153.88
538.47	1142.18
538.83	1136.56
539.18	1123.22
539.54	1128.84
539.89	1122.52
540.25	1117.61
540.60	1121.82
540.96	1125.10
541.31	1119.95
541.67	1121.58
542.02	1127.44
542.38	1126.73
542.73	1129.54
543.09	1128.14
543.44	1133.52
543.80	1136.10
544.15	1135.86
544.51	1139.61
544.86	1131.18
545.22	1131.41
545.57	1133.99
545.93	1127.90
546.28	1125.80
546.64	1144.05
546.99	1156.46
547.35	1158.80
547.70	1163.71
548.05	1165.82
548.41	1147.33
548.76	1136.33
549.12	1127.20
549.47	1120.88
549.83	1113.86
550.18	1116.67
550.53	1106.14
550.89	1111.75
551.24	1111.29
551.60	1106.37
551.95	1101.69
552.30	1115.50
552.66	1114.10
553.01	1122.75
553.37	1127.67
553.72	1130.48
554.07	1115.27
554.43	1119.48
554.78	1115.73
555.13	1115.03
555.49	1120.88
555.84	1120.18
556.19	1115.97
556.55	1110.82
556.90	1112.69
557.26	1107.78
557.61	1120.88
557.96	1121.82
558.32	1120.18
558.67	1122.29
559.02	1126.73
559.37	1116.44
559.73	1112.69
560.08	1120.88
560.43	1122.05
560.79	1126.50
561.14	1123.22
561.49	1136.80
561.85	1137.03
562.20	1132.12
562.55	1128.37
562.90	1127.67
563.26	1118.31
563.61	1116.90
563.96	1111.52
564.32	1101.46
564.67	1103.09
565.02	1094.90
565.37	1087.41
565.73	1101.69
566.08	1108.71
566.43	1111.05
566.78	1115.97
567.14	1110.58
567.49	1101.69
567.84	1108.48
568.19	1117.84
568.54	1120.18
568.90	1117.37
569.25	1120.65
569.60	1111.29
569.95	1100.29
570.31	1097.24
570.66	1108.48
571.01	1105.90
571.36	1103.80
571.71	1099.12
572.06	1104.03
572.42	1104.26
572.77	1094.67
573.12	1106.37
573.47	1107.31
573.82	1101.22
574.18	1103.33
574.53	1115.50
574.88	1113.39
575.23	1118.78
575.58	1133.29
575.93	1121.82
576.28	1117.37
576.64	1114.56
576.99	1111.05
577.34	1101.46
577.69	1115.97
578.04	1117.84
578.39	1118.07
578.74	1122.52
579.09	1122.29
579.44	1116.90
579.80	1117.37
580.15	1106.37
580.50	1106.37
580.85	1105.20
581.20	1098.88
581.55	1093.50
581.90	1105.90
582.25	1108.24
582.60	1104.50
582.95	1104.73
583.30	1106.14
583.65	1099.82
584.00	1090.92
584.35	1095.37
584.71	1105.67
585.06	1111.99
585.41	1111.52
585.76	1111.99
586.11	1106.61
586.46	1109.88
586.81	1108.95
587.16	1105.44
587.51	1112.46
587.86	1114.80
588.21	1108.95
588.56	1104.26
588.91	1111.75
589.26	1109.88
589.61	1110.82
589.96	1114.10
590.31	1115.27
590.66	1112.69
591.01	1111.99
591.36	1096.31
591.71	1088.58
592.06	1088.82
592.41	1095.60
592.76	1100.75
593.10	1115.03
593.45	1110.35
593.80	1107.31
594.15	1102.16
594.50	1093.97
594.85	1096.78
595.20	1111.29
595.55	1109.65
595.90	1105.90
596.25	1112.46
596.60	1103.56
596.95	1092.80
597.30	1102.39
597.64	1156.93
597.99	1160.91
598.34	1161.14
598.69	1161.37
599.04	1161.84
599.39	1106.61
599.74	1104.73
600.09	1104.97
600.44	1103.56
600.78	1102.39
601.13	1101.46
601.48	1099.82
601.83	1099.82
602.18	1093.26
602.53	1079.92
602.88	1082.26
603.22	1079.22
603.57	1093.26
603.92	1104.50
604.27	1111.99
604.62	1111.05
604.97	1103.09
605.31	1104.03
605.66	1111.05
606.01	1110.58
606.36	1117.37
606.71	1126.50
607.05	1115.27
607.40	1104.50
607.75	1103.09
608.10	1099.12
608.44	1097.48
608.79	1100.99
609.14	1101.22
609.49	1101.92
609.84	1108.48
610.18	1106.14
610.53	1118.31
610.88	1117.84
611.23	1116.20
611.57	1112.69
611.92	1116.67
612.27	1103.56
612.62	1095.84
612.96	1095.84
613.31	1092.09
613.66	1082.73
614.00	1083.20
614.35	1089.05
614.70	1088.35
615.05	1085.31
615.39	1087.41
615.74	1079.92
616.09	1073.37
616.43	1079.92
616.78	1081.56
617.13	1092.09
617.47	1102.39
617.82	1111.99
618.17	1104.73
618.51	1097.24
618.86	1092.09
619.21	1088.12
619.55	1082.97
619.90	1092.80
620.25	1098.88
620.59	1093.73
620.94	1092.80
621.29	1095.84
621.63	1097.71
621.98	1100.75
622.32	1114.80
622.67	1109.88
623.02	1108.01
623.36	1103.80
623.71	1096.54
624.05	1095.37
624.40	1109.65
624.75	1114.56
625.09	1110.82
625.44	1122.29
625.78	1115.50
626.13	1104.97
626.48	1103.56
626.82	1095.60
627.17	1083.67
627.51	1083.43
627.86	1078.99
628.20	1077.11
628.55	1082.73
628.89	1093.26
629.24	1102.16
629.58	1108.95
629.93	1108.95
630.28	1113.39
630.62	1107.31
630.97	1096.78
631.31	1093.26
631.66	1094.90
632.00	1101.46
632.35	1108.48
632.69	1101.69
633.04	1103.09
633.38	1103.80
633.73	1105.44
634.07	1102.86
634.42	1118.07
634.76	1123.22
635.11	1119.71
635.45	1107.31
635.79	1104.03
636.14	1089.29
636.48	1087.18
636.83	1098.88
637.17	1114.33
637.52	1118.78
637.86	1119.95
638.21	1107.78
638.55	1100.75
638.89	1079.69
639.24	1074.07
639.58	1077.58
639.93	1077.35
640.27	1076.41
640.61	1080.86
640.96	1079.92
641.30	1082.03
641.65	1082.50
641.99	1072.43
642.33	1075.48
642.68	1076.18
643.02	1075.71
643.37	1076.88
643.71	1083.90
644.05	1093.97
644.40	1097.24
644.74	1095.60
645.08	1104.50
645.43	1104.03
645.77	1093.50
646.11	1096.07
646.46	1100.29
646.80	1102.16
647.14	1107.54
647.49	1118.54
647.83	1114.56
648.17	1104.97
648.52	1108.95
648.86	1104.97
649.20	1093.50
649.55	1084.37
649.89	1088.58
650.23	1086.94
650.57	1085.07
650.92	1083.43
651.26	1089.75
651.60	1097.01
651.95	1084.14
652.29	1092.80
652.63	1094.90
652.97	1091.39
653.32	1081.09
653.66	1086.01
654.00	1075.01
654.34	1079.69
654.69	1082.03
655.03	1087.88
655.37	1088.35
655.71	1093.26
656.05	1091.39
656.40	1091.39
656.74	1093.50
657.08	1097.01
657.42	1089.29
657.76	1086.48
658.11	1096.54
658.45	1092.56
658.79	1092.09
659.13	1101.22
659.47	1110.82
659.82	1097.95
660.16	1089.75
660.50	1080.39
660.84	1075.24
661.18	1070.33
661.52	1077.82
661.87	1086.24
662.21	1097.71
662.55	1106.84
662.89	1101.22
663.23	1100.99
663.57	1096.31
663.91	1084.14
664.25	1073.37
664.60	1077.11
664.94	1076.41
665.28	1074.31
665.62	1080.86
665.96	1090.69
666.30	1089.75
666.64	1079.92
666.98	1093.03
667.32	1089.05
667.66	1085.07
668.01	1088.82
668.35	1099.12
668.69	1093.73
669.03	1096.54
669.37	1100.29
669.71	1101.69
670.05	1098.41
670.39	1097.71
670.73	1103.33
671.07	1098.41
671.41	1092.56
671.75	1092.80
672.09	1100.75
672.43	1102.16
672.77	1102.86
673.11	1083.43
673.45	1082.03
673.79	1071.50
674.13	1066.58
674.47	1062.37
674.81	1074.07
675.15	1069.86
675.49	1070.80
675.83	1068.45
676.17	1068.69
676.51	1074.07
676.85	1087.65
677.19	1094.90
677.53	1094.20
677.87	1100.05
678.21	1098.18
678.55	1087.88
678.89	1074.54
679.23	1080.16
679.57	1075.01
679.90	1075.94
680.24	1078.75
680.58	1089.75
680.92	1085.07
681.26	1084.14
681.60	1084.37
681.94	1085.31
682.28	1081.80
682.62	1078.99
682.96	1077.11
683.29	1070.33
683.63	1066.11
683.97	1060.73
684.31	1060.96
684.65	1062.37
684.99	1070.56
685.33	1082.50
685.67	1087.41
686.00	1097.71
686.34	1107.78
686.68	1107.07
687.02	1096.07
687.36	1101.22
687.70	1100.75
688.03	1095.60
688.37	1100.75
688.71	1103.56
689.05	1100.05
689.39	1095.84
689.72	1091.63
690.06	1090.92
690.40	1103.09
690.74	1110.82
691.08	1111.05
691.41	1102.39
691.75	1104.26
692.09	1084.37
692.43	1080.39
692.76	1078.75
693.10	1084.14
693.44	1083.67
693.78	1094.43
694.11	1085.31
694.45	1075.24
694.79	1086.94
695.13	1079.46
695.46	1075.71
695.80	1079.22
696.14	1088.58
696.48	1080.63
696.81	1088.82
697.15	1081.80
697.49	1083.90
697.82	1091.86
698.16	1095.60
698.50	1086.01
698.83	1094.90
699.17	1093.03
699.51	1081.09
699.84	1077.58
700.18	1082.97
700.52	1074.31
700.85	1074.07
701.19	1083.20
701.53	1085.77
701.86	1091.39
702.20	1100.05
702.54	1102.39
702.87	1103.09
703.21	1105.90
703.55	1099.58
703.88	1095.37
704.22	1087.65
704.55	1084.14
704.89	1082.03
705.23	1082.50
705.56	1084.84
705.90	1090.22
706.23	1089.75
706.57	1090.92
706.91	1085.31
707.24	1080.86
707.58	1082.73
707.91	1075.94
708.25	1070.09
708.58	1073.84
708.92	1070.80
709.26	1075.94
709.59	1078.52
709.93	1079.22
710.26	1084.84
710.60	1089.05
710.93	1087.88
711.27	1095.60
711.60	1108.71
711.94	1105.20
712.27	1115.50
712.61	1114.10
712.94	1105.44
713.28	1098.88
713.61	1096.54
713.95	1095.37
714.28	1101.22
714.62	1103.80
714.95	1101.69
715.29	1105.67
715.62	1098.18
715.96	1089.29
716.29	1096.31
716.63	1097.01
716.96	1091.86
717.29	1096.31
717.63	1102.39
717.96	1097.48
718.30	1094.90
718.63	1089.75
718.97	1084.37
719.30	1073.14
719.63	1076.65
719.97	1078.99
720.30	1092.09
720.64	1091.63
720.97	1094.67
721.30	1092.80
721.64	1097.01
721.97	1098.41
722.31	1108.01
722.64	1113.16
722.97	1110.82
723.31	1105.90
723.64	1094.90
723.97	1085.07
724.31	1078.28
724.64	1077.11
724.98	1075.24
725.31	1070.80
725.64	1075.71
725.98	1087.88
726.31	1088.12
726.64	1087.18
726.97	1094.43
727.31	1093.73
727.64	1079.22
727.97	1080.16
728.31	1077.35
728.64	1075.94
728.97	1072.20
729.31	1077.82
729.64	1082.03
729.97	1087.65
730.30	1096.31
730.64	1102.86
730.97	1098.88
731.30	1096.78
731.63	1101.22
731.97	1096.78
732.30	1093.03
732.63	1098.18
732.96	1103.56
733.30	1103.33
733.63	1096.07
733.96	1098.41
734.29	1094.20
734.63	1083.90
734.96	1076.41
735.29	1073.14
735.62	1081.56
735.95	1075.24
736.29	1077.35
736.62	1079.69
736.95	1089.52
737.28	1077.58
737.61	1083.67
737.94	1073.84
738.28	1071.73
738.61	1068.69
738.94	1070.09
739.27	1069.86
739.60	1079.22
739.93	1082.97
740.27	1079.69
740.60	1071.26
740.93	1069.86
741.26	1068.69
741.59	1061.20
741.92	1071.03
742.25	1067.05
742.58	1070.09
742.91	1068.45
743.25	1069.39
743.58	1060.96
743.91	1074.07
744.24	1082.73
744.57	1086.71
744.90	1083.90
745.23	1086.71
745.56	1073.14
745.89	1062.60
746.22	1060.73
746.55	1069.39
746.88	1072.20
747.21	1085.54
747.54	1086.48
747.87	1086.01
748.20	1076.88
748.53	1075.94
748.87	1068.92
749.20	1075.71
749.53	1081.80
749.86	1089.75
750.19	1083.20
750.52	1091.86
750.85	1091.63
751.18	1089.99
751.51	1093.50
751.84	1094.67
752.16	1090.92
752.49	1089.52
752.82	1104.26
753.15	1099.35
753.48	1108.95
753.81	1113.16
754.14	1110.58
754.47	1094.43
754.80	1088.12
755.13	1082.03
755.46	1077.11
755.79	1078.52
756.12	1065.88
756.45	1067.52
756.78	1070.09
757.11	1064.94
757.43	1065.41
757.76	1082.03
758.09	1097.71
758.42	1094.20
758.75	1094.20
759.08	1086.48
759.41	1082.73
759.74	1074.77
760.07	1071.97
760.39	1078.99
760.72	1078.52
761.05	1073.84
761.38	1080.16
761.71	1075.24
762.04	1062.37
762.36	1068.69
762.69	1072.20
763.02	1063.31
763.35	1075.94
763.68	1087.88
764.01	1083.20
