SpectraSuite Data File
++++++++++++++++++++++++++++++++++++
Date: Mon Aug 26 10:24:38 PDT 2019
User: corrico
Dark Spectrum Present: No
Reference Spectrum Present: No
Number of Sampled Component Spectra: 1
Spectrometers: USB2+H06089
Integration Time (usec): 10000 (USB2+H06089)
Spectra Averaged: 2 (USB2+H06089)
Boxcar Smoothing: 2 (USB2+H06089)
Correct for Electrical Dark: No (USB2+H06089)
Strobe/Lamp Enabled: No (USB2+H06089)
Correct for Detector Non-linearity: No (USB2+H06089)
Correct for Stray Light: No (USB2+H06089)
Number of Pixels in Processed Spectrum: 2048
>>>>>Begin Processed Spectral Data<<<<<
339.70	1047.39
340.07	1047.39
340.45	993.79
340.82	968.75
341.19	939.26
341.57	905.32
341.94	899.94
342.31	900.40
342.69	891.98
343.06	888.23
343.43	895.49
343.81	906.96
344.18	902.51
344.55	911.40
344.93	921.94
345.30	931.77
345.67	928.26
346.04	931.30
346.42	950.73
346.79	954.94
347.16	961.49
347.54	968.75
347.91	983.96
348.28	976.47
348.65	998.71
349.03	1011.58
349.40	1034.52
349.77	1051.37
350.14	1062.60
350.52	1075.24
350.89	1082.26
351.26	1080.63
351.63	1082.26
352.01	1087.18
352.38	1085.54
352.75	1076.88
353.12	1089.05
353.50	1097.48
353.87	1107.07
354.24	1105.90
354.61	1111.75
354.98	1098.88
355.36	1088.82
355.73	1091.86
356.10	1093.97
356.47	1096.07
356.84	1094.20
357.22	1108.01
357.59	1096.78
357.96	1093.26
358.33	1092.56
358.70	1105.90
359.08	1099.35
359.45	1104.73
359.82	1103.33
360.19	1115.73
360.56	1109.41
360.94	1111.29
361.31	1110.82
361.68	1115.73
362.05	1105.90
362.42	1105.67
362.79	1108.01
363.16	1104.50
363.54	1095.37
363.91	1081.33
364.28	1093.03
364.65	1093.73
365.02	1093.97
365.39	1098.18
365.76	1107.54
366.14	1098.65
366.51	1092.56
366.88	1096.54
367.25	1093.03
367.62	1089.75
367.99	1095.60
368.36	1094.43
368.73	1094.67
369.10	1103.56
369.48	1118.78
369.85	1105.90
370.22	1095.14
370.59	1093.50
370.96	1089.99
371.33	1074.77
371.70	1067.28
372.07	1079.46
372.44	1086.94
372.81	1085.54
373.18	1096.31
373.55	1102.16
373.93	1101.22
374.30	1087.88
374.67	1094.20
375.04	1087.41
375.41	1093.73
375.78	1096.07
376.15	1101.92
376.52	1104.97
376.89	1118.54
377.26	1119.01
377.63	1122.29
378.00	1127.90
378.37	1123.69
378.74	1111.05
379.11	1116.20
379.48	1119.71
379.85	1116.67
380.22	1102.86
380.59	1109.88
380.96	1107.78
381.33	1097.48
381.70	1103.56
382.07	1111.99
382.44	1112.69
382.81	1108.48
383.18	1117.61
383.55	1120.88
383.92	1119.71
384.29	1113.86
384.66	1122.29
385.03	1128.61
385.40	1123.22
385.77	1130.48
386.14	1132.12
386.51	1136.33
386.88	1126.73
387.25	1129.07
387.62	1123.93
387.99	1132.35
388.36	1126.03
388.73	1122.99
389.10	1114.33
389.46	1122.29
389.83	1121.35
390.20	1115.27
390.57	1113.39
390.94	1118.54
391.31	1109.18
391.68	1113.39
392.05	1129.31
392.42	1133.52
392.79	1139.84
393.16	1144.29
393.53	1132.59
393.89	1125.33
394.26	1129.07
394.63	1116.90
395.00	1121.12
395.37	1135.86
395.74	1135.16
396.11	1138.20
396.48	1148.50
396.84	1147.33
397.21	1142.88
397.58	1150.14
397.95	1150.14
398.32	1152.95
398.69	1161.61
399.06	1155.76
399.42	1164.65
399.79	1175.65
400.16	1174.71
400.53	1177.76
400.90	1198.59
401.27	1203.74
401.64	1205.14
402.00	1228.55
402.37	1239.78
402.74	1243.76
403.11	1250.78
403.48	1259.68
403.84	1273.49
404.21	1297.36
404.58	1308.83
404.95	1328.25
405.32	1357.74
405.68	1365.00
406.05	1377.41
406.42	1402.92
406.79	1418.36
407.16	1437.32
407.52	1465.88
407.89	1492.79
408.26	1529.54
408.63	1572.14
408.99	1611.46
409.36	1662.01
409.73	1710.70
410.10	1764.30
410.47	1814.38
410.83	1874.54
411.20	1939.84
411.57	2017.07
411.94	2090.10
412.30	2192.85
412.67	2271.26
413.04	2361.60
413.40	2452.65
413.77	2564.29
414.14	2675.23
414.51	2817.77
414.87	2971.08
415.24	3134.68
415.61	3297.81
415.97	3442.46
416.34	3635.09
416.71	3802.67
417.08	4011.21
417.44	4207.35
417.81	4465.27
418.18	4675.45
418.54	4974.57
418.91	5256.84
419.28	5579.13
419.64	5901.89
420.01	6273.81
420.38	6626.06
420.74	6983.22
421.11	7390.24
421.48	7790.24
421.84	8239.39
422.21	8696.49
422.58	9233.88
422.94	9752.54
423.31	10305.85
423.68	10856.57
424.04	11488.75
424.41	12096.12
424.77	12742.11
425.14	13419.46
425.51	14134.03
425.87	14914.36
426.24	15701.48
426.61	16692.23
426.97	17771.22
427.34	18834.76
427.70	19987.24
428.07	21096.42
428.44	22186.17
428.80	23231.69
429.17	24376.68
429.53	25437.64
429.90	26758.64
430.27	27886.08
430.63	29092.39
431.00	30441.48
431.36	31886.29
431.73	33182.48
432.09	34640.63
432.46	36098.55
432.83	37493.28
433.19	38768.40
433.56	40349.43
433.92	41897.46
434.29	43355.38
434.65	44791.77
435.02	46160.05
435.38	47368.93
435.75	48250.85
436.11	49487.35
436.48	50531.93
436.84	51565.75
437.21	52453.28
437.57	53484.52
437.94	54155.32
438.30	54710.49
438.67	54974.74
439.03	55069.53
439.40	55149.11
439.76	55001.89
440.13	54843.43
440.49	54891.41
440.86	54530.27
441.22	54152.04
441.59	53567.14
441.95	52931.22
442.32	51927.13
442.68	51255.16
443.05	50286.41
443.41	49408.47
443.78	48326.45
444.14	47434.94
444.51	46192.11
444.87	45288.20
445.24	44028.99
445.60	42876.04
445.96	41569.08
446.33	40578.34
446.69	39230.66
447.06	38271.04
447.42	37276.07
447.79	36181.17
448.15	35097.97
448.51	34090.14
448.88	33218.99
449.24	32171.60
449.61	31439.71
449.97	30640.19
450.33	29861.26
450.70	28834.23
451.06	28120.13
451.43	27245.71
451.79	26639.74
452.15	26091.36
452.52	25542.73
452.88	24946.13
453.24	24464.92
453.61	23801.14
453.97	23075.11
454.34	22416.95
454.70	21830.64
455.06	21174.59
455.43	20447.86
455.79	19687.18
456.15	19106.73
456.52	18375.78
456.88	17798.60
457.24	17233.36
457.61	16775.09
457.97	16211.25
458.33	15695.63
458.70	15085.69
459.06	14475.51
459.42	13961.06
459.79	13448.72
460.15	12974.99
460.51	12560.25
460.88	12147.15
461.24	11717.19
461.60	11326.55
461.96	10964.47
462.33	10585.77
462.69	10234.93
463.05	9877.06
463.42	9575.37
463.78	9300.59
464.14	8989.76
464.50	8766.71
464.87	8515.57
465.23	8205.45
465.59	7913.82
465.95	7710.19
466.32	7471.22
466.68	7252.62
467.04	7066.55
467.40	6898.03
467.77	6739.57
468.13	6561.22
468.49	6418.92
468.85	6284.57
469.22	6153.74
469.58	5999.03
469.94	5901.66
470.30	5777.14
470.66	5673.46
471.03	5545.67
471.39	5454.38
471.75	5316.29
472.11	5188.97
472.47	5066.09
472.84	4942.04
473.20	4802.78
473.56	4686.92
473.92	4597.05
474.28	4518.87
474.65	4460.12
475.01	4373.76
475.37	4301.44
475.73	4217.18
476.09	4112.32
476.45	4008.87
476.81	3932.80
477.18	3855.10
477.54	3777.62
477.90	3712.09
478.26	3625.96
478.62	3552.00
478.98	3474.76
479.34	3423.27
479.71	3366.63
480.07	3331.99
480.43	3279.09
480.79	3238.60
481.15	3183.36
481.51	3128.13
481.87	3078.74
482.23	3034.97
482.59	2992.14
482.96	2939.48
483.32	2900.39
483.68	2845.16
484.04	2804.43
484.40	2748.49
484.76	2714.09
485.12	2676.87
485.48	2645.74
485.84	2603.14
486.20	2571.55
486.56	2528.01
486.92	2476.99
487.28	2452.41
487.64	2413.09
488.00	2368.15
488.37	2340.30
488.73	2297.94
489.09	2264.00
489.45	2242.23
489.81	2217.89
490.17	2173.66
490.53	2154.23
490.89	2115.14
491.25	2078.40
491.61	2056.39
491.97	2039.78
492.33	2011.46
492.69	1989.46
493.05	1958.79
493.41	1921.35
493.77	1874.30
494.13	1841.07
494.49	1810.64
494.85	1795.19
495.21	1789.34
495.57	1778.57
495.93	1762.89
496.29	1745.10
496.64	1721.70
497.00	1696.65
497.36	1686.36
497.72	1670.67
498.08	1639.78
498.44	1623.16
498.80	1600.22
499.16	1584.07
499.52	1574.48
499.88	1583.14
500.24	1572.14
500.60	1555.99
500.96	1544.05
501.32	1523.92
501.68	1497.24
502.03	1486.94
502.39	1482.73
502.75	1470.09
503.11	1471.96
503.47	1476.41
503.83	1471.96
504.19	1471.03
504.55	1462.13
504.91	1453.94
505.26	1433.58
505.62	1416.73
505.98	1389.81
506.34	1373.19
506.70	1363.83
507.06	1357.74
507.42	1346.28
507.78	1351.43
508.13	1352.13
508.49	1335.51
508.85	1321.23
509.21	1314.44
509.57	1314.21
509.93	1314.21
510.28	1316.79
510.64	1320.30
511.00	1324.74
511.36	1309.30
511.72	1301.10
512.07	1291.04
512.43	1281.44
512.79	1270.21
513.15	1257.34
513.51	1254.06
513.86	1248.68
514.22	1245.40
514.58	1243.99
514.94	1244.23
515.30	1243.06
515.65	1247.04
516.01	1252.89
516.37	1248.44
516.73	1263.19
517.08	1252.89
517.44	1240.72
517.80	1231.12
518.16	1227.14
518.51	1207.95
518.87	1214.97
519.23	1216.84
519.59	1212.16
519.94	1209.82
520.30	1218.01
520.66	1208.18
521.01	1209.35
521.37	1207.95
521.73	1207.01
522.09	1193.91
522.44	1195.08
522.80	1177.99
523.16	1179.16
523.51	1174.71
523.87	1173.31
524.23	1171.67
524.58	1173.54
524.94	1157.63
525.30	1156.22
525.65	1163.48
526.01	1152.95
526.37	1163.01
526.72	1180.57
527.08	1183.37
527.44	1166.29
527.79	1171.44
528.15	1159.74
528.51	1161.61
528.86	1156.46
529.22	1177.99
529.58	1179.16
529.93	1180.80
530.29	1170.03
530.65	1167.93
531.00	1162.08
531.36	1160.20
531.71	1159.03
532.07	1148.73
532.43	1156.22
532.78	1146.16
533.14	1142.88
533.49	1148.03
533.85	1155.05
534.21	1147.10
534.56	1151.78
534.92	1156.69
535.27	1157.86
535.63	1154.35
535.98	1151.08
536.34	1141.48
536.69	1118.31
537.05	1118.78
537.41	1118.07
537.76	1121.58
538.12	1119.48
538.47	1137.27
538.83	1136.33
539.18	1137.73
539.54	1141.71
539.89	1145.69
540.25	1148.97
540.60	1145.22
540.96	1138.67
541.31	1135.63
541.67	1135.16
542.02	1128.14
542.38	1120.41
542.73	1129.54
543.09	1126.03
543.44	1126.03
543.80	1127.90
544.15	1130.01
544.51	1134.46
544.86	1138.44
545.22	1135.63
545.57	1131.65
545.93	1130.24
546.28	1128.84
546.64	1129.54
546.99	1125.80
547.35	1135.86
547.70	1138.90
548.05	1137.03
548.41	1142.18
548.76	1149.91
549.12	1139.37
549.47	1137.97
549.83	1134.69
550.18	1128.14
550.53	1123.22
550.89	1120.65
551.24	1125.56
551.60	1122.75
551.95	1112.46
552.30	1112.69
552.66	1117.84
553.01	1107.54
553.37	1106.61
553.72	1116.44
554.07	1124.86
554.43	1128.61
554.78	1129.07
555.13	1131.65
555.49	1114.80
555.84	1114.33
556.19	1107.31
556.55	1112.92
556.90	1115.27
557.26	1128.37
557.61	1123.22
557.96	1120.88
558.32	1129.78
558.67	1126.73
559.02	1125.56
559.37	1127.20
559.73	1122.29
560.08	1112.69
560.43	1110.12
560.79	1108.24
561.14	1112.46
561.49	1118.54
561.85	1117.84
562.20	1122.99
562.55	1128.14
562.90	1120.18
563.26	1122.75
563.61	1124.16
563.96	1122.52
564.32	1117.84
564.67	1115.73
565.02	1123.22
565.37	1122.29
565.73	1126.03
566.08	1126.50
566.43	1126.27
566.78	1117.37
567.14	1113.39
567.49	1104.03
567.84	1108.95
568.19	1104.97
568.54	1104.50
568.90	1105.67
569.25	1114.80
569.60	1111.05
569.95	1110.58
570.31	1108.01
570.66	1107.07
571.01	1107.31
571.36	1107.54
571.71	1114.56
572.06	1118.54
572.42	1126.03
572.77	1120.41
573.12	1121.35
573.47	1126.50
573.82	1122.75
574.18	1114.33
574.53	1101.69
574.88	1099.35
575.23	1089.52
575.58	1089.52
575.93	1090.69
576.28	1105.44
576.64	1111.99
576.99	1112.92
577.34	1115.27
577.69	1120.41
578.04	1115.73
578.39	1107.07
578.74	1112.69
579.09	1119.01
579.44	1111.99
579.80	1118.78
580.15	1118.78
580.50	1119.71
580.85	1110.35
581.20	1116.20
581.55	1110.35
581.90	1113.63
582.25	1113.86
582.60	1115.27
582.95	1119.71
583.30	1116.20
583.65	1125.10
584.00	1119.95
584.35	1125.56
584.71	1121.12
585.06	1119.95
585.41	1106.37
585.76	1104.97
586.11	1093.50
586.46	1091.63
586.81	1093.73
587.16	1099.58
587.51	1092.56
587.86	1092.33
588.21	1099.12
588.56	1102.63
588.91	1098.65
589.26	1108.48
589.61	1106.61
589.96	1105.67
590.31	1109.65
590.66	1115.03
591.01	1106.61
591.36	1114.56
591.71	1113.39
592.06	1115.27
592.41	1103.09
592.76	1105.20
593.10	1100.05
593.45	1089.05
593.80	1084.14
594.15	1091.63
594.50	1090.69
594.85	1086.01
595.20	1085.31
595.55	1084.14
595.90	1078.75
596.25	1086.24
596.60	1090.69
596.95	1108.24
597.30	1103.33
597.64	1154.59
597.99	1160.44
598.34	1175.42
598.69	1162.54
599.04	1163.25
599.39	1118.54
599.74	1109.88
600.09	1096.07
600.44	1093.03
600.78	1087.18
601.13	1081.33
601.48	1079.46
601.83	1081.80
602.18	1092.56
602.53	1100.99
602.88	1099.82
603.22	1105.90
603.57	1104.73
603.92	1099.82
604.27	1096.07
604.62	1095.37
604.97	1091.86
605.31	1094.67
605.66	1087.65
606.01	1093.03
606.36	1086.24
606.71	1085.77
607.05	1088.58
607.40	1092.09
607.75	1096.07
608.10	1109.65
608.44	1105.20
608.79	1102.39
609.14	1106.61
609.49	1096.07
609.84	1102.63
610.18	1111.75
610.53	1114.56
610.88	1104.26
611.23	1111.75
611.57	1101.22
611.92	1106.37
612.27	1097.48
612.62	1111.05
612.96	1103.56
613.31	1102.16
613.66	1092.80
614.00	1100.99
614.35	1086.24
614.70	1088.58
615.05	1089.05
615.39	1087.18
615.74	1085.07
616.09	1093.50
616.43	1098.18
616.78	1105.20
617.13	1104.73
617.47	1101.92
617.82	1092.33
618.17	1084.37
618.51	1070.80
618.86	1063.31
619.21	1069.86
619.55	1083.20
619.90	1087.18
620.25	1097.01
620.59	1104.50
620.94	1097.95
621.29	1094.67
621.63	1097.71
621.98	1097.71
622.32	1101.69
622.67	1120.18
623.02	1127.67
623.36	1127.67
623.71	1126.97
624.05	1125.56
624.40	1112.69
624.75	1104.97
625.09	1100.05
625.44	1095.84
625.78	1097.71
626.13	1092.56
626.48	1089.75
626.82	1095.84
627.17	1104.97
627.51	1109.18
627.86	1100.75
628.20	1100.75
628.55	1086.94
628.89	1078.75
629.24	1080.39
629.58	1087.41
629.93	1088.35
630.28	1105.20
630.62	1102.63
630.97	1095.84
631.31	1097.71
631.66	1101.46
632.00	1099.58
632.35	1115.03
632.69	1102.16
633.04	1098.88
633.38	1093.03
633.73	1087.18
634.07	1072.90
634.42	1078.05
634.76	1075.48
635.11	1079.46
635.45	1078.52
635.79	1082.50
636.14	1089.52
636.48	1099.12
636.83	1102.39
637.17	1102.63
637.52	1104.97
637.86	1099.58
638.21	1101.46
638.55	1100.52
638.89	1101.69
639.24	1096.31
639.58	1110.82
639.93	1114.10
640.27	1106.84
640.61	1106.14
640.96	1107.54
641.30	1087.18
641.65	1078.05
641.99	1081.56
642.33	1089.52
642.68	1092.80
643.02	1103.80
643.37	1104.26
643.71	1101.69
644.05	1095.14
644.40	1094.67
644.74	1090.22
645.08	1090.92
645.43	1086.94
645.77	1082.26
646.11	1075.48
646.46	1071.03
646.80	1064.94
647.14	1067.28
647.49	1074.54
647.83	1080.39
648.17	1087.65
648.52	1088.35
648.86	1096.07
649.20	1096.31
649.55	1095.60
649.89	1096.78
650.23	1097.95
650.57	1089.05
650.92	1088.82
651.26	1089.05
651.60	1090.46
651.95	1084.37
652.29	1089.29
652.63	1085.31
652.97	1092.80
653.32	1082.26
653.66	1090.22
654.00	1088.12
654.34	1086.71
654.69	1078.99
655.03	1076.88
655.37	1083.90
655.71	1093.50
656.05	1096.78
656.40	1097.71
656.74	1109.65
657.08	1100.99
657.42	1098.18
657.76	1093.26
658.11	1092.33
658.45	1080.86
658.79	1082.97
659.13	1075.01
659.47	1075.48
659.82	1084.14
660.16	1098.65
660.50	1100.29
660.84	1103.56
661.18	1114.80
661.52	1105.67
661.87	1100.52
662.21	1090.46
662.55	1089.05
662.89	1081.33
663.23	1089.29
663.57	1088.58
663.91	1096.31
664.25	1095.37
664.60	1089.99
664.94	1068.69
665.28	1070.33
665.62	1067.75
665.96	1080.39
666.30	1083.90
666.64	1090.92
666.98	1083.67
667.32	1087.65
667.66	1076.41
668.01	1073.37
668.35	1076.41
668.69	1086.71
669.03	1078.99
669.37	1079.92
669.71	1080.39
670.05	1087.88
670.39	1075.71
670.73	1085.54
671.07	1078.99
671.41	1078.52
671.75	1073.37
672.09	1082.03
672.43	1073.84
672.77	1081.33
673.11	1090.46
673.45	1086.71
673.79	1084.60
674.13	1093.50
674.47	1093.50
674.81	1082.97
675.15	1086.71
675.49	1082.73
675.83	1080.39
676.17	1073.37
676.51	1086.24
676.85	1089.99
677.19	1097.95
677.53	1102.63
677.87	1112.22
678.21	1106.61
678.55	1099.12
678.89	1094.20
679.23	1085.07
679.57	1081.09
679.90	1083.90
680.24	1098.88
680.58	1092.33
680.92	1090.69
681.26	1082.73
681.60	1080.63
681.94	1070.80
682.28	1079.46
682.62	1087.65
682.96	1100.75
683.29	1089.75
683.63	1079.92
683.97	1082.26
684.31	1075.24
684.65	1070.09
684.99	1077.58
685.33	1088.12
685.67	1080.63
686.00	1087.41
686.34	1087.88
686.68	1076.41
687.02	1083.90
687.36	1095.60
687.70	1093.03
688.03	1094.90
688.37	1105.44
688.71	1101.69
689.05	1097.71
689.39	1092.56
689.72	1096.54
690.06	1090.46
690.40	1086.01
690.74	1083.20
691.08	1097.48
691.41	1085.54
691.75	1092.33
692.09	1086.48
692.43	1078.05
692.76	1058.62
693.10	1074.54
693.44	1078.75
693.78	1093.97
694.11	1105.20
694.45	1120.18
694.79	1104.73
695.13	1100.29
695.46	1093.03
695.80	1094.43
696.14	1087.88
696.48	1094.20
696.81	1085.77
697.15	1080.86
697.49	1073.14
697.82	1075.48
698.16	1073.14
698.50	1078.05
698.83	1085.31
699.17	1083.90
699.51	1079.46
699.84	1077.82
700.18	1082.50
700.52	1076.65
700.85	1075.94
701.19	1079.22
701.53	1075.48
701.86	1071.03
702.20	1078.05
702.54	1080.86
702.87	1080.39
703.21	1083.90
703.55	1084.37
703.88	1073.84
704.22	1072.43
704.55	1078.28
704.89	1078.99
705.23	1082.50
705.56	1079.22
705.90	1078.75
706.23	1073.37
706.57	1078.75
706.91	1075.24
707.24	1077.11
707.58	1085.54
707.91	1092.09
708.25	1083.67
708.58	1081.09
708.92	1094.90
709.26	1089.29
709.59	1076.88
709.93	1076.65
710.26	1091.16
710.60	1082.26
710.93	1089.05
711.27	1100.75
711.60	1105.20
711.94	1100.05
712.27	1101.69
712.61	1105.20
712.94	1102.39
713.28	1103.80
713.61	1096.07
713.95	1100.99
714.28	1085.54
714.62	1089.29
714.95	1090.22
715.29	1098.65
715.62	1098.18
715.96	1100.99
716.29	1092.80
716.63	1081.80
716.96	1074.07
717.29	1058.86
717.63	1063.54
717.96	1065.65
718.30	1080.16
718.63	1089.75
718.97	1093.26
719.30	1092.09
719.63	1086.71
719.97	1081.80
720.30	1078.05
720.64	1080.86
720.97	1069.86
721.30	1072.90
721.64	1069.62
721.97	1067.99
722.31	1075.24
722.64	1086.24
722.97	1095.60
723.31	1097.48
723.64	1100.75
723.97	1103.33
724.31	1100.99
724.64	1098.41
724.98	1100.05
725.31	1088.12
725.64	1083.90
725.98	1078.75
726.31	1075.94
726.64	1064.01
726.97	1063.77
727.31	1056.05
727.64	1065.65
727.97	1065.18
728.31	1078.28
728.64	1090.92
728.97	1102.63
729.31	1102.86
729.64	1100.75
729.97	1097.01
730.30	1090.69
730.64	1081.56
730.97	1077.11
731.30	1081.80
731.63	1087.65
731.97	1092.09
732.30	1102.63
732.63	1105.90
732.96	1094.90
733.30	1089.05
733.63	1094.67
733.96	1097.01
734.29	1101.22
734.63	1110.35
734.96	1104.50
735.29	1094.43
735.62	1091.39
735.95	1085.31
736.29	1084.60
736.62	1086.71
736.95	1091.86
737.28	1081.80
737.61	1078.75
737.94	1078.75
738.28	1083.43
738.61	1077.35
738.94	1086.24
739.27	1093.26
739.60	1090.46
739.93	1086.01
740.27	1097.01
740.60	1093.50
740.93	1086.94
741.26	1089.99
741.59	1093.03
741.92	1094.20
742.25	1089.52
742.58	1090.22
742.91	1087.41
743.25	1087.65
743.58	1083.43
743.91	1089.99
744.24	1096.07
744.57	1089.05
744.90	1088.12
745.23	1084.84
745.56	1078.52
745.89	1079.46
746.22	1089.52
746.55	1088.12
746.88	1091.39
747.21	1095.14
747.54	1089.99
747.87	1084.14
748.20	1093.03
748.53	1095.84
748.87	1085.77
749.20	1078.75
749.53	1083.67
749.86	1084.60
750.19	1083.67
750.52	1089.99
750.85	1094.90
751.18	1085.54
751.51	1082.26
751.84	1068.69
752.16	1067.28
752.49	1068.45
752.82	1077.82
753.15	1074.31
753.48	1089.29
753.81	1094.67
754.14	1085.77
754.47	1089.05
754.80	1090.69
755.13	1086.94
755.46	1080.16
755.79	1088.58
756.12	1091.63
756.45	1086.01
756.78	1086.01
757.11	1091.16
757.43	1100.99
757.76	1080.63
758.09	1085.31
758.42	1082.26
758.75	1072.90
759.08	1061.20
759.41	1078.05
759.74	1076.65
760.07	1071.50
760.39	1076.88
760.72	1070.09
761.05	1069.16
761.38	1071.03
761.71	1075.94
762.04	1090.46
762.36	1091.86
762.69	1083.20
763.02	1079.22
763.35	1078.75
763.68	1067.99
764.01	1075.71
