SpectraSuite Data File
++++++++++++++++++++++++++++++++++++
Date: Mon Aug 26 10:24:39 PDT 2019
User: corrico
Dark Spectrum Present: No
Reference Spectrum Present: No
Number of Sampled Component Spectra: 1
Spectrometers: USB2+H06089
Integration Time (usec): 10000 (USB2+H06089)
Spectra Averaged: 2 (USB2+H06089)
Boxcar Smoothing: 2 (USB2+H06089)
Correct for Electrical Dark: No (USB2+H06089)
Strobe/Lamp Enabled: No (USB2+H06089)
Correct for Detector Non-linearity: No (USB2+H06089)
Correct for Stray Light: No (USB2+H06089)
Number of Pixels in Processed Spectrum: 2048
>>>>>Begin Processed Spectral Data<<<<<
339.70	1043.88
340.07	1043.88
340.45	1003.62
340.82	971.32
341.19	946.98
341.57	917.72
341.94	900.87
342.31	893.62
342.69	901.34
343.06	889.87
343.43	900.64
343.81	898.30
344.18	906.26
344.55	907.19
344.93	922.41
345.30	921.70
345.67	931.53
346.04	929.43
346.42	928.02
346.79	928.96
347.16	943.70
347.54	963.83
347.91	976.00
348.28	982.32
348.65	995.20
349.03	1009.24
349.40	1011.11
349.77	1031.47
350.14	1060.73
350.52	1071.26
350.89	1079.92
351.26	1083.90
351.63	1076.88
352.01	1071.73
352.38	1071.73
352.75	1066.82
353.12	1075.71
353.50	1094.67
353.87	1087.65
354.24	1086.71
354.61	1077.58
354.98	1080.16
355.36	1068.92
355.73	1074.54
356.10	1072.67
356.47	1082.26
356.84	1081.80
357.22	1088.12
357.59	1101.92
357.96	1109.41
358.33	1103.56
358.70	1106.37
359.08	1107.07
359.45	1101.46
359.82	1103.80
360.19	1108.95
360.56	1100.52
360.94	1090.22
361.31	1097.01
361.68	1095.14
362.05	1102.16
362.42	1108.71
362.79	1115.03
363.16	1102.86
363.54	1097.71
363.91	1080.16
364.28	1074.07
364.65	1086.24
365.02	1082.50
365.39	1085.31
365.76	1088.82
366.14	1086.48
366.51	1076.18
366.88	1086.94
367.25	1089.05
367.62	1096.07
367.99	1105.44
368.36	1094.20
368.73	1090.69
369.10	1098.18
369.48	1093.26
369.85	1089.75
370.22	1100.29
370.59	1105.44
370.96	1098.18
371.33	1095.84
371.70	1097.95
372.07	1097.01
372.44	1098.18
372.81	1104.50
373.18	1110.12
373.55	1109.41
373.93	1106.37
374.30	1100.05
374.67	1097.01
375.04	1100.05
375.41	1096.31
375.78	1097.48
376.15	1100.29
376.52	1102.86
376.89	1103.56
377.26	1104.97
377.63	1104.73
378.00	1096.78
378.37	1094.90
378.74	1091.86
379.11	1093.73
379.48	1092.33
379.85	1096.78
380.22	1101.22
380.59	1107.31
380.96	1103.80
381.33	1109.88
381.70	1115.03
382.07	1110.82
382.44	1108.24
382.81	1114.33
383.18	1119.95
383.55	1122.52
383.92	1120.41
384.29	1113.39
384.66	1115.97
385.03	1110.58
385.40	1102.39
385.77	1109.88
386.14	1114.33
386.51	1107.07
386.88	1114.80
387.25	1129.54
387.62	1127.67
387.99	1126.27
388.36	1133.05
388.73	1122.99
389.10	1118.54
389.46	1118.31
389.83	1124.39
390.20	1127.20
390.57	1130.95
390.94	1130.48
391.31	1132.35
391.68	1132.82
392.05	1127.20
392.42	1136.10
392.79	1127.20
393.16	1119.95
393.53	1119.48
393.89	1122.29
394.26	1122.29
394.63	1141.48
395.00	1147.10
395.37	1139.14
395.74	1140.78
396.11	1141.48
396.48	1133.76
396.84	1142.42
397.21	1153.88
397.58	1153.42
397.95	1163.25
398.32	1171.20
398.69	1165.59
399.06	1169.80
399.42	1180.80
399.79	1172.61
400.16	1174.48
400.53	1174.48
400.90	1179.16
401.27	1183.84
401.64	1189.93
402.00	1190.63
402.37	1210.53
402.74	1214.97
403.11	1219.65
403.48	1232.76
403.84	1260.38
404.21	1275.83
404.58	1298.76
404.95	1321.23
405.32	1340.89
405.68	1355.64
406.05	1383.26
406.42	1403.62
406.79	1436.62
407.16	1463.54
407.52	1489.28
407.89	1517.60
408.26	1557.63
408.63	1581.97
408.99	1626.20
409.36	1663.65
409.73	1698.99
410.10	1761.02
410.47	1825.62
410.83	1879.68
411.20	1955.99
411.57	2034.86
411.94	2095.01
412.30	2177.87
412.67	2267.04
413.04	2343.58
413.40	2445.63
413.77	2543.23
414.14	2644.81
414.51	2766.28
414.87	2886.11
415.24	3008.99
415.61	3183.36
415.97	3349.31
416.34	3504.72
416.71	3716.07
417.08	3926.48
417.44	4136.90
417.81	4387.57
418.18	4644.56
418.54	4917.47
418.91	5194.35
419.28	5481.53
419.64	5771.06
420.01	6117.93
420.38	6464.33
420.74	6833.19
421.11	7232.49
421.48	7645.13
421.84	8113.94
422.21	8548.57
422.58	9053.43
422.94	9559.45
423.31	10100.58
423.68	10655.05
424.04	11316.49
424.41	11936.03
424.77	12591.85
425.14	13286.99
425.51	13981.66
425.87	14732.97
426.24	15509.09
426.61	16435.01
426.97	17467.89
427.34	18411.12
427.70	19527.32
428.07	20620.35
428.44	21737.02
428.80	22791.90
429.17	23941.81
429.53	24964.86
429.90	26262.68
430.27	27378.88
430.63	28522.47
431.00	29845.11
431.36	31295.07
431.73	32567.85
432.09	33917.17
432.46	35336.24
432.83	36715.98
433.19	37963.72
433.56	39466.58
433.92	41026.31
434.29	42534.56
434.65	44067.37
435.02	45436.12
435.38	46738.39
435.75	47645.35
436.11	48842.77
436.48	49808.24
436.84	50870.37
437.21	51655.86
437.57	52671.65
437.94	53269.19
438.30	53847.30
438.67	54100.31
439.03	54296.92
439.40	54409.50
439.76	54331.79
440.13	54159.76
440.49	54163.04
440.86	53789.26
441.22	53391.60
441.59	52805.29
441.95	52111.79
442.32	51059.96
442.68	50309.35
443.05	49335.22
443.41	48441.13
443.78	47450.38
444.14	46571.28
444.51	45421.37
444.87	44573.16
445.24	43302.95
445.60	42179.03
445.96	40932.69
446.33	39921.35
446.69	38546.98
447.06	37584.32
447.42	36503.00
447.79	35483.93
448.15	34407.28
448.51	33470.36
448.88	32600.62
449.24	31585.76
449.61	30856.92
449.97	30085.01
450.33	29255.53
450.70	28344.12
451.06	27717.56
451.43	26851.80
451.79	26239.98
452.15	25697.91
452.52	25136.65
452.88	24550.35
453.24	24025.60
453.61	23338.42
453.97	22653.58
454.34	21939.25
454.70	21367.45
455.06	20751.42
455.43	20078.75
455.79	19377.53
456.15	18887.89
456.52	18147.58
456.88	17568.30
457.24	16992.99
457.61	16503.82
457.97	15884.05
458.33	15360.94
458.70	14781.42
459.06	14215.48
459.42	13690.73
459.79	13189.85
460.15	12716.83
460.51	12251.77
460.88	11839.60
461.24	11414.79
461.60	11053.41
461.96	10703.97
462.33	10390.57
462.69	10057.28
463.05	9731.25
463.42	9456.00
463.78	9154.77
464.14	8836.46
464.50	8600.53
464.87	8357.58
465.23	8053.55
465.59	7806.86
465.95	7610.95
466.32	7368.01
466.68	7142.85
467.04	6946.94
467.40	6757.13
467.77	6585.57
468.13	6416.81
468.49	6287.15
468.85	6174.33
469.22	6077.90
469.58	5931.62
469.94	5830.74
470.30	5683.29
470.66	5590.60
471.03	5449.94
471.39	5350.70
471.75	5218.69
472.11	5121.56
472.47	5012.49
472.84	4917.93
473.20	4795.29
473.56	4711.73
473.92	4577.62
474.28	4465.04
474.65	4358.78
475.01	4282.71
475.37	4192.60
475.73	4136.43
476.09	4040.93
476.45	3961.36
476.81	3890.20
477.18	3792.14
477.54	3698.98
477.90	3631.58
478.26	3560.42
478.62	3487.87
478.98	3428.65
479.34	3385.82
479.71	3328.94
480.07	3273.94
480.43	3235.32
480.79	3201.85
481.15	3139.83
481.51	3086.00
481.87	3035.91
482.23	2969.91
482.59	2899.46
482.96	2864.58
483.32	2828.07
483.68	2807.47
484.04	2769.56
484.40	2750.13
484.76	2714.32
485.12	2676.17
485.48	2635.68
485.84	2601.74
486.20	2549.08
486.56	2496.18
486.92	2450.07
487.28	2411.45
487.64	2376.35
488.00	2340.30
488.37	2303.56
488.73	2283.19
489.09	2235.68
489.45	2201.98
489.81	2161.72
490.17	2149.08
490.53	2116.31
490.89	2094.78
491.25	2079.33
491.61	2071.61
491.97	2037.90
492.33	2009.58
492.69	1993.20
493.05	1954.58
493.41	1934.45
493.77	1920.41
494.13	1901.92
494.49	1865.41
494.85	1846.21
495.21	1823.04
495.57	1798.47
495.93	1781.62
496.29	1759.61
496.64	1742.29
497.00	1715.14
497.36	1691.04
497.72	1661.55
498.08	1644.69
498.44	1616.61
498.80	1588.99
499.16	1572.61
499.52	1564.41
499.88	1551.54
500.24	1546.86
500.60	1548.73
500.96	1535.86
501.32	1515.73
501.68	1509.88
502.03	1498.65
502.39	1483.67
502.75	1473.13
503.11	1470.32
503.47	1452.07
503.83	1445.28
504.19	1445.05
504.55	1430.07
504.91	1407.83
505.26	1400.11
505.62	1374.36
505.98	1353.06
506.34	1344.17
506.70	1344.17
507.06	1339.02
507.42	1338.08
507.78	1333.17
508.13	1336.68
508.49	1340.42
508.85	1339.49
509.21	1331.30
509.57	1327.32
509.93	1320.76
510.28	1304.61
510.64	1300.64
511.00	1294.08
511.36	1291.51
511.72	1289.17
512.07	1282.15
512.43	1281.21
512.79	1277.00
513.15	1267.87
513.51	1268.57
513.86	1273.72
514.22	1258.51
514.58	1261.31
514.94	1262.25
515.30	1248.68
515.65	1237.68
516.01	1240.25
516.37	1229.72
516.73	1232.29
517.08	1234.63
517.44	1227.85
517.80	1208.18
518.16	1212.16
518.51	1205.61
518.87	1202.80
519.23	1203.97
519.59	1203.27
519.94	1205.14
520.30	1195.31
520.66	1188.52
521.01	1189.93
521.37	1198.82
521.73	1194.61
522.09	1195.78
522.44	1192.74
522.80	1188.76
523.16	1188.06
523.51	1185.01
523.87	1199.29
524.23	1201.16
524.58	1195.78
524.94	1192.74
525.30	1183.84
525.65	1169.80
526.01	1155.52
526.37	1157.86
526.72	1158.57
527.08	1165.12
527.44	1160.91
527.79	1165.35
528.15	1164.42
528.51	1162.78
528.86	1160.44
529.22	1158.57
529.58	1162.31
529.93	1158.57
530.29	1153.18
530.65	1143.35
531.00	1147.56
531.36	1148.97
531.71	1152.71
532.07	1155.29
532.43	1162.08
532.78	1146.39
533.14	1154.59
533.49	1156.93
533.85	1146.39
534.21	1147.10
534.56	1152.48
534.92	1142.18
535.27	1137.50
535.63	1147.56
535.98	1141.48
536.34	1141.71
536.69	1140.31
537.05	1139.84
537.41	1142.42
537.76	1145.69
538.12	1152.01
538.47	1156.69
538.83	1159.97
539.18	1160.20
539.54	1157.63
539.89	1157.16
540.25	1152.71
540.60	1148.03
540.96	1146.86
541.31	1147.80
541.67	1138.44
542.02	1137.73
542.38	1138.67
542.73	1136.10
543.09	1133.76
543.44	1126.03
543.80	1125.80
544.15	1121.12
544.51	1126.73
544.86	1129.07
545.22	1140.31
545.57	1140.07
545.93	1145.46
546.28	1132.59
546.64	1144.05
546.99	1142.65
547.35	1135.63
547.70	1129.78
548.05	1131.88
548.41	1120.18
548.76	1124.16
549.12	1133.99
549.47	1137.97
549.83	1132.59
550.18	1122.29
550.53	1114.56
550.89	1109.88
551.24	1111.75
551.60	1125.56
551.95	1139.84
552.30	1141.25
552.66	1149.20
553.01	1146.39
553.37	1139.61
553.72	1138.90
554.07	1140.54
554.43	1121.35
554.78	1118.78
555.13	1113.86
555.49	1100.99
555.84	1097.24
556.19	1106.84
556.55	1109.65
556.90	1108.24
557.26	1108.24
557.61	1109.18
557.96	1116.20
558.32	1110.58
558.67	1115.97
559.02	1131.65
559.37	1134.69
559.73	1128.84
560.08	1131.65
560.43	1127.90
560.79	1114.33
561.14	1112.92
561.49	1111.75
561.85	1112.69
562.20	1110.12
562.55	1117.14
562.90	1113.63
563.26	1099.82
563.61	1096.07
563.96	1097.71
564.32	1090.69
564.67	1089.52
565.02	1104.50
565.37	1106.61
565.73	1116.44
566.08	1121.82
566.43	1125.80
566.78	1127.44
567.14	1125.56
567.49	1126.97
567.84	1125.80
568.19	1131.18
568.54	1120.88
568.90	1118.31
569.25	1110.58
569.60	1111.05
569.95	1101.69
570.31	1109.88
570.66	1114.33
571.01	1112.69
571.36	1106.84
571.71	1104.26
572.06	1100.75
572.42	1100.29
572.77	1092.33
573.12	1105.90
573.47	1117.14
573.82	1111.52
574.18	1116.90
574.53	1117.61
574.88	1097.48
575.23	1088.82
575.58	1085.77
575.93	1078.28
576.28	1087.65
576.64	1098.65
576.99	1104.03
577.34	1108.24
577.69	1106.14
578.04	1103.56
578.39	1105.67
578.74	1108.01
579.09	1108.95
579.44	1108.48
579.80	1109.18
580.15	1109.41
580.50	1099.82
580.85	1105.67
581.20	1113.16
581.55	1109.41
581.90	1109.18
582.25	1115.97
582.60	1114.80
582.95	1108.24
583.30	1110.82
583.65	1120.18
584.00	1107.54
584.35	1101.69
584.71	1099.82
585.06	1108.71
585.41	1096.54
585.76	1103.09
586.11	1109.18
586.46	1112.46
586.81	1099.12
587.16	1103.33
587.51	1104.97
587.86	1103.09
588.21	1104.97
588.56	1107.78
588.91	1105.44
589.26	1099.58
589.61	1107.07
589.96	1112.22
590.31	1107.07
590.66	1108.71
591.01	1117.84
591.36	1102.16
591.71	1092.56
592.06	1104.73
592.41	1106.37
592.76	1107.31
593.10	1105.20
593.45	1118.07
593.80	1107.78
594.15	1100.99
594.50	1100.05
594.85	1105.67
595.20	1096.78
595.55	1103.80
595.90	1108.01
596.25	1112.46
596.60	1116.20
596.95	1114.80
597.30	1107.31
597.64	1152.01
597.99	1149.91
598.34	1141.48
598.69	1138.67
599.04	1137.03
599.39	1080.86
599.74	1076.18
600.09	1082.73
600.44	1076.41
600.78	1084.14
601.13	1105.90
601.48	1100.99
601.83	1096.07
602.18	1091.86
602.53	1086.94
602.88	1083.43
603.22	1086.48
603.57	1093.26
603.92	1104.03
604.27	1105.67
604.62	1099.35
604.97	1115.50
605.31	1115.97
605.66	1120.18
606.01	1125.10
606.36	1123.22
606.71	1112.22
607.05	1120.18
607.40	1119.48
607.75	1114.56
608.10	1112.46
608.44	1109.88
608.79	1104.26
609.14	1106.61
609.49	1116.44
609.84	1117.37
610.18	1108.71
610.53	1103.56
610.88	1107.07
611.23	1097.24
611.57	1108.24
611.92	1116.20
612.27	1118.31
612.62	1097.24
612.96	1102.63
613.31	1083.43
613.66	1089.75
614.00	1093.73
614.35	1114.56
614.70	1105.90
615.05	1111.75
615.39	1106.84
615.74	1104.73
616.09	1095.14
616.43	1103.09
616.78	1091.63
617.13	1085.07
617.47	1085.31
617.82	1087.65
618.17	1078.75
618.51	1086.94
618.86	1087.65
619.21	1079.69
619.55	1078.99
619.90	1077.58
620.25	1079.69
620.59	1082.50
620.94	1083.20
621.29	1097.01
621.63	1092.33
621.98	1095.37
622.32	1094.67
622.67	1108.01
623.02	1088.82
623.36	1100.99
623.71	1097.24
624.05	1104.50
624.40	1094.67
624.75	1093.03
625.09	1087.88
625.44	1088.35
625.78	1086.71
626.13	1088.35
626.48	1095.60
626.82	1107.31
627.17	1112.69
627.51	1109.65
627.86	1109.88
628.20	1111.05
628.55	1096.07
628.89	1090.92
629.24	1090.46
629.58	1086.71
629.93	1081.09
630.28	1083.20
630.62	1087.41
630.97	1098.88
631.31	1100.05
631.66	1106.61
632.00	1101.69
632.35	1102.86
632.69	1094.67
633.04	1093.26
633.38	1094.90
633.73	1100.75
634.07	1094.20
634.42	1090.22
634.76	1099.12
635.11	1097.24
635.45	1096.54
635.79	1100.05
636.14	1104.26
636.48	1094.90
636.83	1094.20
637.17	1093.03
637.52	1085.31
637.86	1076.41
638.21	1081.80
638.55	1078.75
638.89	1082.97
639.24	1094.43
639.58	1109.65
639.93	1102.16
640.27	1102.63
640.61	1109.41
640.96	1110.12
641.30	1104.50
641.65	1108.48
641.99	1108.71
642.33	1103.56
642.68	1088.58
643.02	1072.67
643.37	1071.26
643.71	1068.45
644.05	1074.31
644.40	1081.33
644.74	1090.92
645.08	1091.16
645.43	1093.50
645.77	1085.07
646.11	1089.05
646.46	1086.01
646.80	1086.01
647.14	1088.58
647.49	1101.22
647.83	1103.33
648.17	1106.84
648.52	1104.97
648.86	1103.80
649.20	1090.46
649.55	1086.01
649.89	1085.07
650.23	1086.71
650.57	1086.71
650.92	1076.65
651.26	1075.48
651.60	1075.24
651.95	1076.88
652.29	1074.31
652.63	1091.86
652.97	1100.75
653.32	1103.80
653.66	1095.84
654.00	1101.46
654.34	1099.12
654.69	1092.33
655.03	1094.90
655.37	1109.88
655.71	1105.67
656.05	1102.86
656.40	1098.41
656.74	1090.46
657.08	1084.84
657.42	1086.94
657.76	1086.48
658.11	1092.33
658.45	1091.39
658.79	1086.94
659.13	1078.05
659.47	1073.37
659.82	1068.69
660.16	1071.03
660.50	1075.24
660.84	1079.69
661.18	1083.43
661.52	1083.20
661.87	1095.14
662.21	1099.82
662.55	1093.97
662.89	1094.90
663.23	1095.84
663.57	1082.73
663.91	1085.07
664.25	1091.63
664.60	1099.35
664.94	1090.69
665.28	1082.73
665.62	1071.03
665.96	1066.11
666.30	1059.33
666.64	1068.45
666.98	1071.26
667.32	1067.28
667.66	1074.54
668.01	1074.54
668.35	1072.67
668.69	1085.07
669.03	1086.01
669.37	1079.22
669.71	1077.35
670.05	1092.33
670.39	1098.41
670.73	1100.52
671.07	1098.88
671.41	1092.80
671.75	1080.16
672.09	1063.54
672.43	1065.41
672.77	1071.97
673.11	1073.14
673.45	1064.01
673.79	1067.28
674.13	1060.50
674.47	1059.09
674.81	1069.86
675.15	1074.31
675.49	1077.58
675.83	1087.18
676.17	1078.28
676.51	1076.65
676.85	1078.75
677.19	1076.65
677.53	1075.94
677.87	1089.52
678.21	1084.60
678.55	1087.18
678.89	1090.22
679.23	1084.37
679.57	1077.11
679.90	1077.82
680.24	1082.97
680.58	1079.92
680.92	1081.33
681.26	1090.69
681.60	1089.75
681.94	1077.35
682.28	1071.97
682.62	1076.18
682.96	1072.67
683.29	1073.84
683.63	1077.11
683.97	1088.58
684.31	1082.26
684.65	1078.52
684.99	1081.09
685.33	1083.43
685.67	1082.97
686.00	1089.75
686.34	1087.65
686.68	1082.26
687.02	1079.92
687.36	1074.77
687.70	1078.05
688.03	1084.60
688.37	1087.41
688.71	1098.88
689.05	1101.22
689.39	1098.18
689.72	1091.86
690.06	1091.16
690.40	1087.18
690.74	1086.48
691.08	1086.24
691.41	1095.60
691.75	1093.73
692.09	1091.16
692.43	1093.26
692.76	1093.73
693.10	1092.09
693.44	1090.46
693.78	1096.07
694.11	1093.26
694.45	1082.73
694.79	1071.97
695.13	1073.60
695.46	1070.80
695.80	1073.84
696.14	1078.75
696.48	1096.31
696.81	1106.14
697.15	1114.56
697.49	1110.35
697.82	1109.18
698.16	1099.35
698.50	1079.69
698.83	1072.90
699.17	1067.99
699.51	1082.03
699.84	1080.86
700.18	1092.09
700.52	1094.20
700.85	1101.22
701.19	1084.37
701.53	1082.50
701.86	1081.80
702.20	1073.84
702.54	1066.58
702.87	1075.24
703.21	1079.22
703.55	1075.94
703.88	1075.48
704.22	1085.07
704.55	1083.67
704.89	1085.77
705.23	1097.71
705.56	1095.60
705.90	1093.97
706.23	1082.50
706.57	1081.09
706.91	1078.52
707.24	1080.86
707.58	1075.48
707.91	1087.18
708.25	1085.31
708.58	1073.60
708.92	1066.11
709.26	1064.94
709.59	1056.75
709.93	1056.28
710.26	1062.84
710.60	1066.82
710.93	1072.90
711.27	1072.43
711.60	1077.11
711.94	1080.16
712.27	1087.18
712.61	1081.09
712.94	1085.54
713.28	1087.41
713.61	1080.39
713.95	1075.48
714.28	1084.84
714.62	1102.39
714.95	1093.50
715.29	1093.73
715.62	1098.18
715.96	1099.58
716.29	1090.69
716.63	1089.05
716.96	1098.18
717.29	1101.69
717.63	1109.41
717.96	1108.24
718.30	1115.97
718.63	1110.82
718.97	1105.90
719.30	1093.73
719.63	1090.46
719.97	1085.77
720.30	1092.80
720.64	1093.26
720.97	1091.86
721.30	1077.11
721.64	1075.94
721.97	1069.39
722.31	1069.86
722.64	1070.33
722.97	1078.05
723.31	1086.48
723.64	1086.48
723.97	1089.05
724.31	1083.20
724.64	1082.03
724.98	1076.88
725.31	1076.41
725.64	1071.97
725.98	1086.71
726.31	1092.56
726.64	1090.92
726.97	1097.95
727.31	1098.88
727.64	1087.18
727.97	1086.01
728.31	1087.18
728.64	1086.94
728.97	1090.69
729.31	1090.22
729.64	1093.73
729.97	1092.09
730.30	1084.60
730.64	1085.54
730.97	1089.75
731.30	1094.90
731.63	1091.16
731.97	1084.84
732.30	1087.18
732.63	1087.18
732.96	1087.18
733.30	1096.07
733.63	1106.61
733.96	1105.67
734.29	1101.92
734.63	1104.73
734.96	1101.22
735.29	1106.84
735.62	1102.39
735.95	1107.54
736.29	1102.86
736.62	1112.69
736.95	1104.26
737.28	1112.46
737.61	1106.37
737.94	1104.97
738.28	1096.54
738.61	1100.05
738.94	1081.09
739.27	1091.63
739.60	1092.33
739.93	1088.35
740.27	1082.26
740.60	1091.16
740.93	1084.84
741.26	1081.09
741.59	1082.73
741.92	1081.56
742.25	1083.20
742.58	1086.48
742.91	1093.26
743.25	1087.41
743.58	1093.73
743.91	1096.54
744.24	1095.14
744.57	1089.05
744.90	1095.84
745.23	1087.65
745.56	1081.56
745.89	1078.52
746.22	1081.56
746.55	1078.75
746.88	1085.07
747.21	1085.77
747.54	1086.71
747.87	1082.26
748.20	1090.69
748.53	1088.12
748.87	1087.88
749.20	1086.94
749.53	1078.75
749.86	1070.80
750.19	1076.41
750.52	1071.03
750.85	1067.75
751.18	1083.67
751.51	1089.52
751.84	1086.01
752.16	1089.05
752.49	1092.80
752.82	1084.37
753.15	1074.31
753.48	1078.52
753.81	1085.77
754.14	1067.99
754.47	1069.86
754.80	1066.58
755.13	1065.41
755.46	1056.05
755.79	1078.75
756.12	1089.52
756.45	1102.63
756.78	1102.63
757.11	1100.75
757.43	1096.07
757.76	1090.46
758.09	1082.73
758.42	1077.35
758.75	1082.03
759.08	1080.86
759.41	1073.60
759.74	1075.48
760.07	1073.84
760.39	1076.41
760.72	1084.60
761.05	1090.69
761.38	1093.26
761.71	1098.18
762.04	1103.80
762.36	1098.88
762.69	1102.16
763.02	1097.71
763.35	1098.41
763.68	1097.24
764.01	1093.26
