SpectraSuite Data File
++++++++++++++++++++++++++++++++++++
Date: Mon Aug 26 10:24:35 PDT 2019
User: corrico
Dark Spectrum Present: No
Reference Spectrum Present: No
Number of Sampled Component Spectra: 1
Spectrometers: USB2+H06089
Integration Time (usec): 10000 (USB2+H06089)
Spectra Averaged: 2 (USB2+H06089)
Boxcar Smoothing: 2 (USB2+H06089)
Correct for Electrical Dark: No (USB2+H06089)
Strobe/Lamp Enabled: No (USB2+H06089)
Correct for Detector Non-linearity: No (USB2+H06089)
Correct for Stray Light: No (USB2+H06089)
Number of Pixels in Processed Spectrum: 2048
>>>>>Begin Processed Spectral Data<<<<<
339.70	1026.32
340.07	1026.32
340.45	985.37
340.82	961.49
341.19	931.30
341.57	909.30
341.94	908.13
342.31	915.15
342.69	926.15
343.06	939.02
343.43	939.02
343.81	940.66
344.18	935.51
344.55	924.28
344.93	912.81
345.30	913.28
345.67	921.47
346.04	916.32
346.42	925.21
346.79	947.92
347.16	958.22
347.54	959.85
347.91	980.22
348.28	987.71
348.65	996.83
349.03	1013.22
349.40	1025.62
349.77	1042.01
350.14	1061.20
350.52	1059.56
350.89	1067.75
351.26	1067.52
351.63	1060.26
352.01	1062.60
352.38	1072.67
352.75	1076.41
353.12	1090.46
353.50	1100.52
353.87	1103.33
354.24	1108.71
354.61	1095.60
354.98	1093.50
355.36	1087.88
355.73	1082.73
356.10	1076.88
356.47	1087.65
356.84	1082.50
357.22	1084.37
357.59	1096.78
357.96	1100.05
358.33	1097.01
358.70	1099.58
359.08	1104.03
359.45	1098.18
359.82	1100.52
360.19	1109.88
360.56	1117.37
360.94	1117.61
361.31	1109.88
361.68	1106.37
362.05	1104.73
362.42	1094.20
362.79	1098.18
363.16	1096.78
363.54	1092.80
363.91	1082.26
364.28	1086.48
364.65	1079.22
365.02	1078.99
365.39	1080.63
365.76	1087.18
366.14	1088.82
366.51	1082.03
366.88	1085.77
367.25	1089.52
367.62	1093.97
367.99	1089.29
368.36	1098.41
368.73	1102.86
369.10	1105.67
369.48	1097.24
369.85	1099.35
370.22	1100.52
370.59	1095.37
370.96	1095.37
371.33	1099.35
371.70	1089.29
372.07	1089.99
372.44	1091.39
372.81	1085.77
373.18	1080.39
373.55	1082.73
373.93	1081.56
374.30	1074.77
374.67	1074.77
375.04	1082.73
375.41	1090.22
375.78	1093.50
376.15	1101.69
376.52	1095.14
376.89	1098.41
377.26	1098.65
377.63	1096.78
378.00	1099.82
378.37	1106.14
378.74	1102.39
379.11	1101.69
379.48	1107.07
379.85	1096.07
380.22	1109.41
380.59	1108.24
380.96	1113.86
381.33	1107.07
381.70	1118.54
382.07	1107.07
382.44	1098.18
382.81	1090.22
383.18	1093.73
383.55	1096.07
383.92	1106.14
384.29	1119.95
384.66	1119.71
385.03	1108.95
385.40	1103.80
385.77	1105.90
386.14	1106.14
386.51	1106.37
386.88	1114.33
387.25	1108.24
387.62	1096.78
387.99	1091.39
388.36	1101.69
388.73	1113.63
389.10	1117.37
389.46	1117.14
389.83	1123.93
390.20	1118.31
390.57	1111.75
390.94	1118.31
391.31	1120.18
391.68	1112.69
392.05	1112.46
392.42	1107.31
392.79	1096.78
393.16	1102.39
393.53	1116.20
393.89	1116.44
394.26	1129.07
394.63	1140.31
395.00	1139.14
395.37	1135.39
395.74	1140.78
396.11	1131.65
396.48	1137.50
396.84	1146.39
397.21	1138.20
397.58	1147.56
397.95	1159.97
398.32	1160.67
398.69	1157.16
399.06	1167.69
399.42	1166.99
399.79	1171.91
400.16	1175.18
400.53	1187.82
400.90	1192.74
401.27	1199.29
401.64	1204.91
402.00	1215.44
402.37	1217.31
402.74	1228.08
403.11	1241.42
403.48	1243.76
403.84	1256.40
404.21	1270.91
404.58	1277.23
404.95	1292.21
405.32	1303.91
405.68	1330.13
406.05	1348.85
406.42	1370.38
406.79	1388.17
407.16	1420.47
407.52	1438.49
407.89	1468.92
408.26	1510.82
408.63	1547.80
408.99	1589.93
409.36	1626.67
409.73	1656.16
410.10	1703.68
410.47	1751.89
410.83	1788.87
411.20	1860.02
411.57	1937.03
411.94	2005.61
412.30	2073.48
412.67	2174.59
413.04	2257.21
413.40	2354.58
413.77	2449.60
414.14	2571.78
414.51	2677.10
414.87	2794.60
415.24	2937.14
415.61	3073.12
415.97	3202.09
416.34	3367.80
416.71	3534.68
417.08	3724.49
417.44	3933.74
417.81	4167.56
418.18	4415.42
418.54	4673.35
418.91	4909.98
419.28	5195.05
419.64	5483.64
420.01	5771.06
420.38	6085.86
420.74	6428.52
421.11	6812.60
421.48	7199.25
421.84	7599.49
422.21	8016.10
422.58	8496.38
422.94	8973.85
423.31	9464.19
423.68	10004.15
424.04	10618.31
424.41	11189.63
424.77	11736.15
425.14	12316.84
425.51	12965.87
425.87	13632.22
426.24	14329.46
426.61	15189.84
426.97	16210.08
427.34	17102.06
427.70	18099.13
428.07	19135.05
428.44	20236.51
428.80	21212.98
429.17	22218.00
429.53	23253.69
429.90	24497.92
430.27	25471.11
430.63	26523.89
431.00	27685.96
431.36	28953.36
431.73	30016.90
432.09	31273.30
432.46	32584.47
432.83	34010.79
433.19	35215.93
433.56	36631.72
433.92	38056.17
434.29	39416.03
434.65	40760.20
435.02	42039.30
435.38	43275.10
435.75	44192.36
436.11	45332.20
436.48	46287.37
436.84	47326.33
437.21	48136.39
437.57	48955.11
437.94	49516.37
438.30	50003.20
438.67	50187.41
439.03	50284.54
439.40	50411.39
439.76	50291.79
440.13	50105.72
440.49	50033.63
440.86	49612.57
441.22	49120.12
441.59	48514.62
441.95	47861.85
442.32	46960.74
442.68	46359.46
443.05	45497.91
443.41	44676.61
443.78	43701.55
444.14	42789.21
444.51	41696.64
444.87	40945.57
445.24	39852.30
445.60	38788.53
445.96	37639.56
446.33	36571.57
446.69	35311.19
447.06	34374.04
447.42	33450.94
447.79	32478.68
448.15	31667.68
448.51	30853.18
448.88	30064.42
449.24	29155.82
449.61	28515.21
449.97	27687.84
450.33	26919.20
450.70	26020.44
451.06	25342.62
451.43	24510.79
451.79	23852.17
452.15	23188.39
452.52	22708.11
452.88	22178.45
453.24	21699.81
453.61	21171.78
453.97	20620.12
454.34	19991.22
454.70	19428.79
455.06	18869.87
455.43	18215.69
455.79	17561.04
456.15	16999.78
456.52	16402.94
456.88	15899.73
457.24	15391.36
457.61	14970.53
457.97	14513.19
458.33	14020.04
458.70	13465.57
459.06	12927.71
459.42	12484.89
459.79	11977.46
460.15	11562.48
460.51	11159.21
460.88	10816.08
461.24	10417.72
461.60	10119.31
461.96	9793.97
462.33	9472.62
462.69	9153.60
463.05	8859.16
463.42	8588.83
463.78	8329.50
464.14	8108.55
464.50	7920.84
464.87	7701.06
465.23	7476.37
465.59	7275.56
465.95	7075.91
466.32	6856.37
466.68	6668.42
467.04	6492.18
467.40	6319.21
467.77	6157.01
468.13	6004.18
468.49	5855.79
468.85	5715.59
469.22	5622.67
469.58	5504.47
469.94	5403.83
470.30	5297.33
470.66	5192.71
471.03	5058.60
471.39	4965.21
471.75	4844.67
472.11	4732.80
472.47	4633.09
472.84	4532.68
473.20	4409.34
473.56	4317.12
473.92	4222.09
474.28	4153.28
474.65	4073.70
475.01	4017.53
475.37	3927.89
475.73	3855.10
476.09	3769.90
476.45	3674.17
476.81	3580.32
477.18	3514.55
477.54	3451.59
477.90	3393.31
478.26	3329.88
478.62	3266.45
478.98	3222.45
479.34	3175.64
479.71	3104.25
480.07	3073.36
480.43	3036.61
480.79	2980.20
481.15	2945.10
481.51	2911.39
481.87	2858.50
482.23	2809.81
482.59	2781.49
482.96	2714.09
483.32	2677.81
483.68	2654.17
484.04	2627.02
484.40	2573.42
484.76	2537.84
485.12	2509.76
485.48	2479.33
485.84	2430.88
486.20	2396.24
486.56	2373.07
486.92	2337.02
487.28	2300.04
487.64	2268.68
488.00	2244.11
488.37	2220.23
488.73	2171.78
489.09	2128.02
489.45	2113.50
489.81	2096.42
490.17	2078.16
490.53	2069.74
490.89	2049.14
491.25	2020.12
491.61	1987.58
491.97	1948.73
492.33	1907.77
492.69	1876.88
493.05	1856.75
493.41	1817.66
493.77	1794.72
494.13	1790.04
494.49	1773.66
494.85	1733.40
495.21	1719.36
495.57	1701.34
495.93	1667.87
496.29	1657.80
496.64	1653.82
497.00	1652.42
497.36	1631.59
497.72	1615.20
498.08	1591.80
498.44	1579.16
498.80	1537.50
499.16	1526.03
499.52	1499.58
499.88	1486.01
500.24	1474.77
500.60	1471.96
500.96	1463.30
501.32	1481.79
501.68	1483.67
502.03	1478.05
502.39	1486.24
502.75	1486.24
503.11	1468.22
503.47	1452.30
503.83	1436.62
504.19	1423.98
504.55	1400.11
504.91	1398.00
505.26	1391.92
505.62	1383.02
505.98	1367.11
506.34	1373.43
506.70	1361.49
507.06	1360.09
507.42	1356.81
507.78	1355.17
508.13	1345.34
508.49	1332.47
508.85	1312.34
509.21	1294.55
509.57	1286.59
509.93	1275.12
510.28	1270.21
510.64	1266.70
511.00	1264.83
511.36	1266.70
511.72	1260.38
512.07	1248.21
512.43	1248.21
512.79	1254.06
513.15	1240.48
513.51	1244.23
513.86	1246.57
514.22	1243.99
514.58	1231.12
514.94	1240.48
515.30	1239.78
515.65	1236.27
516.01	1239.08
516.37	1241.89
516.73	1235.33
517.08	1232.53
517.44	1236.97
517.80	1228.55
518.16	1231.59
518.51	1233.70
518.87	1229.48
519.23	1221.99
519.59	1208.89
519.94	1201.87
520.30	1195.31
520.66	1182.20
521.01	1187.82
521.37	1185.01
521.73	1184.31
522.09	1174.25
522.44	1174.25
522.80	1169.57
523.16	1175.65
523.51	1167.46
523.87	1177.76
524.23	1176.12
524.58	1177.29
524.94	1176.59
525.30	1173.31
525.65	1166.05
526.01	1166.76
526.37	1156.69
526.72	1159.03
527.08	1159.50
527.44	1149.44
527.79	1153.88
528.15	1156.46
528.51	1155.76
528.86	1157.86
529.22	1156.93
529.58	1157.39
529.93	1160.91
530.29	1152.25
530.65	1160.67
531.00	1159.97
531.36	1152.25
531.71	1147.80
532.07	1142.18
532.43	1125.33
532.78	1137.03
533.14	1128.14
533.49	1129.07
533.85	1137.97
534.21	1146.63
534.56	1148.97
534.92	1161.14
535.27	1149.67
535.63	1143.82
535.98	1141.71
536.34	1131.88
536.69	1122.29
537.05	1130.01
537.41	1127.44
537.76	1119.24
538.12	1116.20
538.47	1118.78
538.83	1115.97
539.18	1110.82
539.54	1116.90
539.89	1119.48
540.25	1126.03
540.60	1132.12
540.96	1142.88
541.31	1136.33
541.67	1135.63
542.02	1137.03
542.38	1137.50
542.73	1141.48
543.09	1144.29
543.44	1137.27
543.80	1124.39
544.15	1111.52
544.51	1111.52
544.86	1119.01
545.22	1123.46
545.57	1136.80
545.93	1153.42
546.28	1137.50
546.64	1133.29
546.99	1137.03
547.35	1128.37
547.70	1116.20
548.05	1126.73
548.41	1124.86
548.76	1115.97
549.12	1113.63
549.47	1118.78
549.83	1118.07
550.18	1117.84
550.53	1117.61
550.89	1113.39
551.24	1119.01
551.60	1116.20
551.95	1113.86
552.30	1117.61
552.66	1119.01
553.01	1112.22
553.37	1106.37
553.72	1107.07
554.07	1104.26
554.43	1111.05
554.78	1109.41
555.13	1114.33
555.49	1111.75
555.84	1112.92
556.19	1101.69
556.55	1108.48
556.90	1111.99
557.26	1119.95
557.61	1119.48
557.96	1122.05
558.32	1109.65
558.67	1101.92
559.02	1105.90
559.37	1104.03
559.73	1111.99
560.08	1118.54
560.43	1119.95
560.79	1118.54
561.14	1124.63
561.49	1118.07
561.85	1110.58
562.20	1109.41
562.55	1093.26
562.90	1103.09
563.26	1106.14
563.61	1102.63
563.96	1108.24
564.32	1115.73
564.67	1102.16
565.02	1095.37
565.37	1105.44
565.73	1104.50
566.08	1103.80
566.43	1104.50
566.78	1106.37
567.14	1103.09
567.49	1108.48
567.84	1113.16
568.19	1100.75
568.54	1106.14
568.90	1110.58
569.25	1113.63
569.60	1121.12
569.95	1133.29
570.31	1127.67
570.66	1125.10
571.01	1113.86
571.36	1107.54
571.71	1101.22
572.06	1104.50
572.42	1107.07
572.77	1112.22
573.12	1114.80
573.47	1118.31
573.82	1116.67
574.18	1118.07
574.53	1114.80
574.88	1110.12
575.23	1112.22
575.58	1114.80
575.93	1113.86
576.28	1117.61
576.64	1114.56
576.99	1111.75
577.34	1111.05
577.69	1100.52
578.04	1098.18
578.39	1100.75
578.74	1099.82
579.09	1101.69
579.44	1111.29
579.80	1109.88
580.15	1111.05
580.50	1110.12
580.85	1105.44
581.20	1108.24
581.55	1116.90
581.90	1116.90
582.25	1115.50
582.60	1110.58
582.95	1103.33
583.30	1086.24
583.65	1093.26
584.00	1103.56
584.35	1105.90
584.71	1094.90
585.06	1099.58
585.41	1091.16
585.76	1084.37
586.11	1087.65
586.46	1100.75
586.81	1099.82
587.16	1091.16
587.51	1098.18
587.86	1105.67
588.21	1106.84
588.56	1117.37
588.91	1135.16
589.26	1133.76
589.61	1135.63
589.96	1134.69
590.31	1133.05
590.66	1124.39
591.01	1118.54
591.36	1107.07
591.71	1101.92
592.06	1098.18
592.41	1089.99
592.76	1089.75
593.10	1094.90
593.45	1102.39
593.80	1106.84
594.15	1115.27
594.50	1119.24
594.85	1109.88
595.20	1105.20
595.55	1093.03
595.90	1100.99
596.25	1096.31
596.60	1097.48
596.95	1099.35
597.30	1098.65
597.64	1129.54
597.99	1133.76
598.34	1139.61
598.69	1144.52
599.04	1147.56
599.39	1106.61
599.74	1108.95
600.09	1109.41
600.44	1102.16
600.78	1097.48
601.13	1099.82
601.48	1103.56
601.83	1099.82
602.18	1095.84
602.53	1096.78
602.88	1091.39
603.22	1076.65
603.57	1075.24
603.92	1080.16
604.27	1083.90
604.62	1090.92
604.97	1100.29
605.31	1101.92
605.66	1101.69
606.01	1105.20
606.36	1100.29
606.71	1099.58
607.05	1098.18
607.40	1094.43
607.75	1092.33
608.10	1089.52
608.44	1083.43
608.79	1093.73
609.14	1099.12
609.49	1094.67
609.84	1108.95
610.18	1110.35
610.53	1104.50
610.88	1098.88
611.23	1112.46
611.57	1100.05
611.92	1092.56
612.27	1099.35
612.62	1100.52
612.96	1091.86
613.31	1094.90
613.66	1100.05
614.00	1092.33
614.35	1082.73
614.70	1081.33
615.05	1079.92
615.39	1076.41
615.74	1074.07
616.09	1086.01
616.43	1088.35
616.78	1086.48
617.13	1094.20
617.47	1088.58
617.82	1083.20
618.17	1083.90
618.51	1087.18
618.86	1092.80
619.21	1104.97
619.55	1104.03
619.90	1103.56
620.25	1104.97
620.59	1102.16
620.94	1100.29
621.29	1105.20
621.63	1113.16
621.98	1106.14
622.32	1098.18
622.67	1099.35
623.02	1097.71
623.36	1094.43
623.71	1094.90
624.05	1104.50
624.40	1100.99
624.75	1100.29
625.09	1099.35
625.44	1100.75
625.78	1095.60
626.13	1092.33
626.48	1094.90
626.82	1087.88
627.17	1089.05
627.51	1086.94
627.86	1086.01
628.20	1084.60
628.55	1083.20
628.89	1083.67
629.24	1083.43
629.58	1087.41
629.93	1092.09
630.28	1094.20
630.62	1095.37
630.97	1097.01
631.31	1104.03
631.66	1102.39
632.00	1105.67
632.35	1102.63
632.69	1104.73
633.04	1091.86
633.38	1091.16
633.73	1097.01
634.07	1095.14
634.42	1093.73
634.76	1098.88
635.11	1102.39
635.45	1095.84
635.79	1088.12
636.14	1085.31
636.48	1086.71
636.83	1076.65
637.17	1077.82
637.52	1083.43
637.86	1081.56
638.21	1086.24
638.55	1088.82
638.89	1088.58
639.24	1082.97
639.58	1087.41
639.93	1082.26
640.27	1091.63
640.61	1086.71
640.96	1100.75
641.30	1100.52
641.65	1105.90
641.99	1097.24
642.33	1096.54
642.68	1091.39
643.02	1089.99
643.37	1084.84
643.71	1087.65
644.05	1094.90
644.40	1100.05
644.74	1097.48
645.08	1099.35
645.43	1090.22
645.77	1090.92
646.11	1084.37
646.46	1089.52
646.80	1085.54
647.14	1092.56
647.49	1085.07
647.83	1084.37
648.17	1079.22
648.52	1080.63
648.86	1079.22
649.20	1092.80
649.55	1093.73
649.89	1090.69
650.23	1092.56
650.57	1097.95
650.92	1095.37
651.26	1106.61
651.60	1111.99
651.95	1104.73
652.29	1097.95
652.63	1101.46
652.97	1089.05
653.32	1086.24
653.66	1091.63
654.00	1092.80
654.34	1085.07
654.69	1088.58
655.03	1093.73
655.37	1097.24
655.71	1099.58
656.05	1104.73
656.40	1100.75
656.74	1104.26
657.08	1098.88
657.42	1098.18
657.76	1077.11
658.11	1087.41
658.45	1085.31
658.79	1095.37
659.13	1092.33
659.47	1100.05
659.82	1091.86
660.16	1092.80
660.50	1081.33
660.84	1087.65
661.18	1091.63
661.52	1102.16
661.87	1096.07
662.21	1099.35
662.55	1092.56
662.89	1092.33
663.23	1073.84
663.57	1078.75
663.91	1091.16
664.25	1099.82
664.60	1099.58
664.94	1115.27
665.28	1117.14
665.62	1100.99
665.96	1093.03
666.30	1097.48
666.64	1087.65
666.98	1086.94
667.32	1105.20
667.66	1112.69
668.01	1107.54
668.35	1107.07
668.69	1113.63
669.03	1097.01
669.37	1080.86
669.71	1080.63
670.05	1086.48
670.39	1077.82
670.73	1073.60
671.07	1082.26
671.41	1077.35
671.75	1067.05
672.09	1067.99
672.43	1074.07
672.77	1074.77
673.11	1082.73
673.45	1086.48
673.79	1086.01
674.13	1081.56
674.47	1081.56
674.81	1077.82
675.15	1077.11
675.49	1072.20
675.83	1076.18
676.17	1070.09
676.51	1076.18
676.85	1077.35
677.19	1085.77
677.53	1080.86
677.87	1085.07
678.21	1084.14
678.55	1087.88
678.89	1084.14
679.23	1083.67
679.57	1082.97
679.90	1081.80
680.24	1076.41
680.58	1081.80
680.92	1092.80
681.26	1101.46
681.60	1095.60
681.94	1093.26
682.28	1088.58
682.62	1083.20
682.96	1079.69
683.29	1081.56
683.63	1088.35
683.97	1085.31
684.31	1083.90
684.65	1084.84
684.99	1086.71
685.33	1086.48
685.67	1085.77
686.00	1093.26
686.34	1100.05
686.68	1099.82
687.02	1103.56
687.36	1104.03
687.70	1100.29
688.03	1103.56
688.37	1103.33
688.71	1100.05
689.05	1096.54
689.39	1098.65
689.72	1091.16
690.06	1091.63
690.40	1089.75
690.74	1095.60
691.08	1091.39
691.41	1087.65
691.75	1086.94
692.09	1093.73
692.43	1092.09
692.76	1089.52
693.10	1094.67
693.44	1096.54
693.78	1098.88
694.11	1106.84
694.45	1112.46
694.79	1110.12
695.13	1113.63
695.46	1099.12
695.80	1087.18
696.14	1086.94
696.48	1088.12
696.81	1088.82
697.15	1098.41
697.49	1107.07
697.82	1094.67
698.16	1087.18
698.50	1075.48
698.83	1067.52
699.17	1056.52
699.51	1065.18
699.84	1062.60
700.18	1070.09
700.52	1068.92
700.85	1077.82
701.19	1076.18
701.53	1080.63
701.86	1067.52
702.20	1062.37
702.54	1060.26
702.87	1062.60
703.21	1055.35
703.55	1061.67
703.88	1078.99
704.22	1076.41
704.55	1076.18
704.89	1074.54
705.23	1076.41
705.56	1071.73
705.90	1076.18
706.23	1075.01
706.57	1092.56
706.91	1102.63
707.24	1101.22
707.58	1097.48
707.91	1092.56
708.25	1088.12
708.58	1083.43
708.92	1073.84
709.26	1071.97
709.59	1077.11
709.93	1077.11
710.26	1074.77
710.60	1087.65
710.93	1090.22
711.27	1102.86
711.60	1103.09
711.94	1100.99
712.27	1100.52
712.61	1100.52
712.94	1084.14
713.28	1081.09
713.61	1088.12
713.95	1088.35
714.28	1087.18
714.62	1101.22
714.95	1106.84
715.29	1102.39
715.62	1099.12
715.96	1100.52
716.29	1089.99
716.63	1088.58
716.96	1097.24
717.29	1097.48
717.63	1095.14
717.96	1102.39
718.30	1098.41
718.63	1088.12
718.97	1088.58
719.30	1087.88
719.63	1078.28
719.97	1078.05
720.30	1072.67
720.64	1072.20
720.97	1085.07
721.30	1084.60
721.64	1086.01
721.97	1097.01
722.31	1097.48
722.64	1090.22
722.97	1094.20
723.31	1086.01
723.64	1088.35
723.97	1093.50
724.31	1091.86
724.64	1099.58
724.98	1104.73
725.31	1101.92
725.64	1100.05
725.98	1097.01
726.31	1079.92
726.64	1079.22
726.97	1080.16
727.31	1067.99
727.64	1074.31
727.97	1082.26
728.31	1090.69
728.64	1087.41
728.97	1093.26
729.31	1088.58
729.64	1092.80
729.97	1089.99
730.30	1082.97
730.64	1092.80
730.97	1090.69
731.30	1080.86
731.63	1078.75
731.97	1080.39
732.30	1071.03
732.63	1074.31
732.96	1075.01
733.30	1076.88
733.63	1075.24
733.96	1085.77
734.29	1090.92
734.63	1094.20
734.96	1088.12
735.29	1089.75
735.62	1089.05
735.95	1080.63
736.29	1075.94
736.62	1074.77
736.95	1082.03
737.28	1076.18
737.61	1075.94
737.94	1079.22
738.28	1086.71
738.61	1087.18
738.94	1082.26
739.27	1078.52
739.60	1080.16
739.93	1076.41
740.27	1077.82
740.60	1078.75
740.93	1079.92
741.26	1078.75
741.59	1075.94
741.92	1069.86
742.25	1070.80
742.58	1071.26
742.91	1066.82
743.25	1059.79
743.58	1059.33
743.91	1061.20
744.24	1062.37
744.57	1088.35
744.90	1096.54
745.23	1093.50
745.56	1090.46
745.89	1090.92
746.22	1076.18
746.55	1085.54
746.88	1085.07
747.21	1086.24
747.54	1088.82
747.87	1089.52
748.20	1093.50
748.53	1101.69
748.87	1102.16
749.20	1101.92
749.53	1095.60
749.86	1078.99
750.19	1084.14
750.52	1083.20
750.85	1083.20
751.18	1078.05
751.51	1090.92
751.84	1078.52
752.16	1083.90
752.49	1089.52
752.82	1097.01
753.15	1092.80
753.48	1096.07
753.81	1083.67
754.14	1077.58
754.47	1080.63
754.80	1085.54
755.13	1083.43
755.46	1093.50
755.79	1095.84
756.12	1089.75
756.45	1078.05
756.78	1087.18
757.11	1080.16
757.43	1070.80
757.76	1069.86
758.09	1073.60
758.42	1068.69
758.75	1078.05
759.08	1088.82
759.41	1094.20
759.74	1086.01
760.07	1084.14
760.39	1089.05
760.72	1092.33
761.05	1083.90
761.38	1093.26
761.71	1091.39
762.04	1081.56
762.36	1078.05
762.69	1083.67
763.02	1083.20
763.35	1076.18
763.68	1080.39
764.01	1075.24
