SpectraSuite Data File
++++++++++++++++++++++++++++++++++++
Date: Mon Aug 26 10:24:37 PDT 2019
User: corrico
Dark Spectrum Present: No
Reference Spectrum Present: No
Number of Sampled Component Spectra: 1
Spectrometers: USB2+H06089
Integration Time (usec): 10000 (USB2+H06089)
Spectra Averaged: 2 (USB2+H06089)
Boxcar Smoothing: 2 (USB2+H06089)
Correct for Electrical Dark: No (USB2+H06089)
Strobe/Lamp Enabled: No (USB2+H06089)
Correct for Detector Non-linearity: No (USB2+H06089)
Correct for Stray Light: No (USB2+H06089)
Number of Pixels in Processed Spectrum: 2048
>>>>>Begin Processed Spectral Data<<<<<
339.70	1063.77
340.07	1063.77
340.45	1014.15
340.82	990.28
341.19	964.07
341.57	929.66
341.94	928.96
342.31	924.04
342.69	918.19
343.06	915.38
343.43	922.87
343.81	912.57
344.18	914.92
344.55	911.17
344.93	911.17
345.30	911.17
345.67	914.45
346.04	912.81
346.42	923.81
346.79	924.98
347.16	937.15
347.54	953.07
347.91	972.26
348.28	987.71
348.65	999.88
349.03	1000.11
349.40	1009.71
349.77	1017.66
350.14	1027.96
350.52	1040.37
350.89	1051.37
351.26	1056.75
351.63	1065.18
352.01	1062.37
352.38	1065.88
352.75	1071.26
353.12	1077.58
353.50	1080.39
353.87	1082.97
354.24	1086.94
354.61	1090.69
354.98	1093.26
355.36	1086.01
355.73	1088.12
356.10	1090.46
356.47	1092.56
356.84	1097.95
357.22	1103.33
357.59	1109.88
357.96	1106.84
358.33	1096.78
358.70	1088.82
359.08	1094.20
359.45	1077.11
359.82	1078.75
360.19	1079.69
360.56	1078.75
360.94	1075.24
361.31	1082.03
361.68	1090.22
362.05	1089.99
362.42	1095.84
362.79	1094.90
363.16	1099.12
363.54	1079.69
363.91	1081.09
364.28	1066.35
364.65	1074.07
365.02	1075.94
365.39	1086.94
365.76	1096.78
366.14	1111.05
366.51	1102.63
366.88	1094.90
367.25	1083.67
367.62	1082.26
367.99	1078.05
368.36	1070.33
368.73	1083.43
369.10	1094.90
369.48	1088.82
369.85	1088.58
370.22	1098.18
370.59	1087.65
370.96	1090.22
371.33	1086.24
371.70	1088.58
372.07	1091.16
372.44	1094.90
372.81	1091.16
373.18	1098.88
373.55	1099.35
373.93	1098.41
374.30	1094.90
374.67	1095.84
375.04	1107.07
375.41	1107.78
375.78	1100.29
376.15	1111.05
376.52	1108.24
376.89	1109.88
377.26	1104.03
377.63	1104.50
378.00	1094.90
378.37	1101.46
378.74	1092.80
379.11	1104.50
379.48	1113.39
379.85	1124.86
380.22	1125.33
380.59	1123.22
380.96	1114.33
381.33	1109.88
381.70	1098.18
382.07	1097.95
382.44	1097.95
382.81	1102.16
383.18	1112.22
383.55	1121.58
383.92	1120.88
384.29	1121.82
384.66	1121.12
385.03	1112.92
385.40	1108.71
385.77	1108.01
386.14	1101.92
386.51	1096.07
386.88	1103.09
387.25	1103.33
387.62	1106.37
387.99	1113.16
388.36	1110.82
388.73	1098.65
389.10	1098.65
389.46	1094.67
389.83	1098.18
390.20	1108.95
390.57	1115.27
390.94	1122.99
391.31	1131.18
391.68	1115.27
392.05	1116.67
392.42	1115.27
392.79	1108.48
393.16	1100.99
393.53	1110.82
393.89	1110.12
394.26	1115.50
394.63	1118.54
395.00	1117.61
395.37	1122.29
395.74	1113.16
396.11	1105.44
396.48	1109.18
396.84	1114.56
397.21	1114.56
397.58	1125.33
397.95	1139.84
398.32	1133.05
398.69	1136.80
399.06	1148.27
399.42	1149.67
399.79	1151.78
400.16	1158.80
400.53	1167.23
400.90	1164.18
401.27	1177.76
401.64	1181.27
402.00	1193.91
402.37	1200.69
402.74	1211.70
403.11	1213.57
403.48	1219.19
403.84	1228.08
404.21	1231.36
404.58	1241.89
404.95	1255.93
405.32	1272.32
405.68	1286.12
406.05	1311.87
406.42	1323.57
406.79	1333.40
407.16	1348.15
407.52	1363.13
407.89	1371.55
408.26	1397.77
408.63	1422.34
408.99	1444.81
409.36	1470.09
409.73	1499.35
410.10	1531.18
410.47	1563.24
410.83	1600.93
411.20	1650.78
411.57	1703.44
411.94	1753.06
412.30	1798.70
412.67	1856.28
413.04	1901.69
413.40	1959.96
413.77	2035.10
414.14	2128.48
414.51	2209.93
414.87	2304.96
415.24	2397.18
415.61	2474.41
415.97	2575.29
416.34	2667.98
416.71	2788.51
417.08	2918.18
417.44	3062.83
417.81	3206.53
418.18	3369.90
418.54	3522.27
418.91	3687.75
419.28	3868.91
419.64	4053.34
420.01	4265.16
420.38	4485.17
420.74	4723.90
421.11	5005.00
421.48	5261.06
421.84	5536.77
422.21	5799.61
422.58	6109.97
422.94	6423.60
423.31	6761.11
423.68	7129.04
424.04	7547.29
424.41	7948.46
424.77	8332.07
425.14	8745.88
425.51	9181.92
425.87	9627.09
426.24	10084.67
426.61	10625.33
426.97	11279.51
427.34	11837.96
427.70	12482.78
428.07	13159.19
428.44	13814.54
428.80	14403.42
429.17	15136.48
429.53	15866.96
429.90	16693.87
430.27	17388.31
430.63	18145.71
431.00	18986.43
431.36	19898.53
431.73	20630.42
432.09	21569.91
432.46	22522.98
432.83	23368.38
433.19	24077.09
433.56	25050.75
433.92	25966.84
434.29	26781.35
434.65	27681.05
435.02	28544.94
435.38	29299.29
435.75	29923.28
436.11	30723.74
436.48	31357.56
436.84	32024.85
437.21	32633.39
437.57	33271.18
437.94	33800.14
438.30	34363.04
438.67	34713.19
439.03	34857.60
439.40	35029.63
439.76	34956.37
440.13	34739.17
440.49	34717.63
440.86	34537.65
441.22	34222.38
441.59	33762.46
441.95	33299.04
442.32	32646.03
442.68	32116.60
443.05	31485.12
443.41	30874.94
443.78	30178.63
444.14	29450.02
444.51	28573.96
444.87	27912.76
445.24	27239.39
445.60	26591.76
445.96	25853.32
446.33	25324.83
446.69	24526.47
447.06	23865.51
447.42	23157.03
447.79	22447.38
448.15	21799.98
448.51	21187.70
448.88	20658.97
449.24	20042.01
449.61	19650.20
449.97	19131.54
450.33	18609.60
450.70	17985.85
451.06	17556.36
451.43	17014.52
451.79	16596.04
452.15	16265.79
452.52	15894.11
452.88	15524.54
453.24	15151.93
453.61	14736.72
453.97	14345.85
454.34	13962.23
454.70	13620.98
455.06	13328.18
455.43	12960.25
455.79	12506.89
456.15	12177.57
456.52	11734.51
456.88	11380.62
457.24	10971.03
457.61	10689.69
457.97	10322.46
458.33	10005.32
458.70	9611.88
459.06	9279.52
459.42	8932.65
459.79	8630.26
460.15	8354.78
460.51	8086.32
460.88	7836.11
461.24	7601.36
461.60	7384.62
461.96	7166.72
462.33	6954.20
462.69	6761.57
463.05	6565.20
463.42	6366.02
463.78	6186.04
464.14	6006.28
464.50	5860.47
464.87	5701.78
465.23	5532.56
465.59	5395.87
465.95	5274.87
466.32	5128.11
466.68	5003.60
467.04	4884.46
467.40	4763.46
467.77	4660.24
468.13	4561.00
468.49	4473.70
468.85	4398.80
469.22	4304.25
469.58	4197.75
469.94	4115.60
470.30	4025.02
470.66	3962.29
471.03	3875.93
471.39	3803.37
471.75	3724.26
472.11	3626.43
472.47	3560.42
472.84	3493.48
473.20	3426.31
473.56	3377.63
473.92	3337.14
474.28	3267.39
474.65	3214.26
475.01	3158.32
475.37	3090.21
475.73	3036.85
476.09	2976.69
476.45	2938.54
476.81	2896.18
477.18	2841.88
477.54	2789.45
477.90	2750.60
478.26	2695.13
478.62	2634.27
478.98	2601.74
479.34	2590.04
479.71	2561.25
480.07	2528.48
480.43	2507.65
480.79	2464.82
481.15	2426.20
481.51	2390.16
481.87	2366.28
482.23	2336.79
482.59	2327.19
482.96	2295.83
483.32	2256.98
483.68	2221.64
484.04	2193.32
484.40	2157.04
484.76	2129.42
485.12	2106.48
485.48	2084.25
485.84	2058.97
486.20	2046.10
486.56	2017.07
486.92	1992.50
487.28	1975.18
487.64	1963.94
488.00	1932.58
488.37	1915.96
488.73	1899.81
489.09	1873.36
489.45	1832.41
489.81	1804.79
490.17	1778.34
490.53	1757.04
490.89	1734.57
491.25	1730.36
491.61	1713.04
491.97	1704.14
492.33	1690.33
492.69	1673.48
493.05	1659.44
493.41	1656.16
493.77	1635.10
494.13	1624.10
494.49	1616.84
494.85	1599.76
495.21	1577.99
495.57	1564.88
495.93	1543.35
496.29	1528.37
496.64	1513.62
497.00	1494.90
497.36	1469.15
497.72	1451.83
498.08	1424.22
498.44	1404.79
498.80	1402.45
499.16	1408.53
499.52	1406.43
499.88	1416.26
500.24	1408.77
500.60	1395.43
500.96	1384.19
501.32	1370.15
501.68	1348.85
502.03	1347.45
502.39	1330.59
502.75	1322.64
503.11	1314.91
503.47	1316.55
503.83	1315.38
504.19	1316.55
504.55	1307.19
504.91	1297.36
505.26	1294.08
505.62	1287.06
505.98	1274.66
506.34	1268.57
506.70	1277.46
507.06	1272.55
507.42	1266.70
507.78	1275.59
508.13	1279.10
508.49	1265.53
508.85	1262.25
509.21	1254.06
509.57	1251.02
509.93	1234.63
510.28	1231.59
510.64	1225.74
511.00	1219.19
511.36	1209.12
511.72	1207.72
512.07	1207.25
512.43	1201.40
512.79	1200.69
513.15	1203.50
513.51	1203.74
513.86	1207.25
514.22	1209.82
514.58	1210.06
514.94	1201.87
515.30	1203.27
515.65	1191.80
516.01	1184.08
516.37	1175.42
516.73	1172.84
517.08	1176.59
517.44	1177.29
517.80	1181.03
518.16	1177.76
518.51	1180.57
518.87	1170.74
519.23	1165.12
519.59	1157.16
519.94	1168.16
520.30	1170.74
520.66	1175.89
521.01	1174.71
521.37	1166.76
521.73	1164.65
522.09	1167.23
522.44	1160.44
522.80	1163.71
523.16	1166.29
523.51	1157.86
523.87	1154.59
524.23	1153.42
524.58	1141.25
524.94	1146.86
525.30	1149.67
525.65	1154.82
526.01	1160.44
526.37	1169.80
526.72	1159.97
527.08	1152.95
527.44	1138.20
527.79	1133.29
528.15	1127.90
528.51	1131.88
528.86	1132.12
529.22	1128.61
529.58	1122.05
529.93	1127.44
530.29	1125.56
530.65	1122.05
531.00	1122.75
531.36	1119.01
531.71	1112.92
532.07	1117.37
532.43	1122.99
532.78	1129.54
533.14	1144.29
533.49	1152.71
533.85	1151.31
534.21	1150.84
534.56	1139.61
534.92	1128.37
535.27	1129.31
535.63	1123.93
535.98	1124.16
536.34	1135.86
536.69	1133.52
537.05	1127.67
537.41	1129.54
537.76	1130.71
538.12	1121.58
538.47	1126.03
538.83	1139.37
539.18	1138.20
539.54	1139.14
539.89	1144.99
540.25	1144.52
540.60	1138.44
540.96	1130.95
541.31	1123.93
541.67	1123.69
542.02	1127.44
542.38	1123.46
542.73	1134.46
543.09	1129.78
543.44	1127.20
543.80	1115.03
544.15	1109.65
544.51	1111.29
544.86	1123.93
545.22	1128.37
545.57	1134.93
545.93	1122.99
546.28	1119.95
546.64	1117.14
546.99	1113.39
547.35	1116.44
547.70	1126.97
548.05	1131.41
548.41	1120.65
548.76	1123.46
549.12	1116.67
549.47	1120.65
549.83	1114.10
550.18	1115.73
550.53	1117.14
550.89	1118.54
551.24	1100.29
551.60	1096.54
551.95	1098.65
552.30	1099.35
552.66	1097.95
553.01	1116.44
553.37	1117.14
553.72	1117.61
554.07	1107.07
554.43	1100.99
554.78	1088.12
555.13	1099.35
555.49	1099.82
555.84	1097.71
556.19	1107.07
556.55	1117.84
556.90	1108.71
557.26	1107.31
557.61	1113.63
557.96	1108.48
558.32	1104.03
558.67	1097.95
559.02	1098.88
559.37	1102.39
559.73	1105.44
560.08	1110.35
560.43	1111.29
560.79	1109.65
561.14	1105.90
561.49	1098.18
561.85	1105.20
562.20	1110.82
562.55	1115.97
562.90	1105.44
563.26	1108.24
563.61	1093.73
563.96	1091.16
564.32	1088.82
564.67	1087.18
565.02	1091.16
565.37	1098.18
565.73	1099.12
566.08	1093.26
566.43	1109.88
566.78	1105.20
567.14	1097.48
567.49	1097.48
567.84	1092.56
568.19	1086.24
568.54	1086.94
568.90	1087.41
569.25	1084.14
569.60	1086.94
569.95	1078.05
570.31	1082.03
570.66	1082.50
571.01	1087.41
571.36	1085.07
571.71	1082.50
572.06	1082.50
572.42	1095.84
572.77	1084.60
573.12	1089.05
573.47	1101.22
573.82	1105.67
574.18	1095.60
574.53	1102.39
574.88	1109.18
575.23	1105.67
575.58	1096.07
575.93	1107.07
576.28	1112.69
576.64	1108.71
576.99	1119.01
577.34	1125.80
577.69	1121.35
578.04	1122.52
578.39	1115.73
578.74	1103.56
579.09	1094.90
579.44	1081.56
579.80	1074.54
580.15	1072.20
580.50	1080.39
580.85	1088.35
581.20	1100.29
581.55	1101.22
581.90	1109.88
582.25	1109.65
582.60	1109.88
582.95	1105.44
583.30	1109.18
583.65	1103.33
584.00	1090.92
584.35	1089.05
584.71	1081.80
585.06	1081.09
585.41	1082.26
585.76	1089.05
586.11	1087.41
586.46	1091.16
586.81	1087.41
587.16	1095.37
587.51	1093.73
587.86	1082.26
588.21	1085.54
588.56	1092.33
588.91	1090.46
589.26	1093.50
589.61	1104.50
589.96	1103.33
590.31	1089.52
590.66	1082.50
591.01	1082.97
591.36	1082.73
591.71	1081.80
592.06	1092.80
592.41	1107.31
592.76	1106.14
593.10	1103.33
593.45	1108.01
593.80	1109.65
594.15	1100.99
594.50	1101.69
594.85	1108.01
595.20	1111.99
595.55	1105.44
595.90	1106.37
596.25	1101.22
596.60	1105.67
596.95	1103.33
597.30	1100.29
597.64	1150.61
597.99	1155.76
598.34	1150.37
598.69	1140.54
599.04	1146.16
599.39	1097.95
599.74	1097.48
600.09	1097.48
600.44	1105.67
600.78	1100.75
601.13	1100.99
601.48	1097.71
601.83	1097.01
602.18	1088.35
602.53	1088.58
602.88	1093.26
603.22	1098.18
603.57	1092.80
603.92	1099.82
604.27	1098.41
604.62	1098.41
604.97	1093.50
605.31	1094.67
605.66	1095.37
606.01	1104.03
606.36	1099.35
606.71	1104.03
607.05	1101.92
607.40	1096.54
607.75	1099.35
608.10	1101.22
608.44	1105.90
608.79	1113.39
609.14	1106.61
609.49	1111.29
609.84	1106.61
610.18	1096.54
610.53	1090.46
610.88	1097.71
611.23	1093.73
611.57	1104.50
611.92	1112.69
612.27	1119.95
612.62	1123.22
612.96	1122.29
613.31	1114.10
613.66	1103.09
614.00	1091.39
614.35	1086.01
614.70	1065.88
615.05	1059.09
615.39	1065.65
615.74	1074.54
616.09	1077.58
616.43	1096.31
616.78	1108.95
617.13	1123.93
617.47	1123.69
617.82	1120.18
618.17	1114.33
618.51	1112.92
618.86	1089.29
619.21	1089.99
619.55	1084.14
619.90	1086.24
620.25	1083.90
620.59	1091.63
620.94	1084.84
621.29	1095.84
621.63	1097.71
621.98	1095.84
622.32	1097.01
622.67	1109.41
623.02	1109.18
623.36	1105.90
623.71	1105.20
624.05	1114.56
624.40	1102.16
624.75	1109.18
625.09	1113.39
625.44	1109.65
625.78	1102.63
626.13	1108.24
626.48	1096.31
626.82	1094.90
627.17	1093.97
627.51	1081.56
627.86	1080.39
628.20	1081.33
628.55	1073.14
628.89	1075.94
629.24	1091.16
629.58	1090.22
629.93	1097.48
630.28	1110.12
630.62	1114.10
630.97	1105.90
631.31	1106.84
631.66	1105.90
632.00	1098.88
632.35	1089.52
632.69	1097.71
633.04	1101.92
633.38	1093.97
633.73	1080.86
634.07	1078.52
634.42	1078.28
634.76	1077.35
635.11	1082.97
635.45	1099.82
635.79	1101.46
636.14	1089.29
636.48	1086.48
636.83	1078.99
637.17	1073.60
637.52	1069.62
637.86	1071.73
638.21	1073.37
638.55	1076.18
638.89	1078.28
639.24	1083.67
639.58	1088.35
639.93	1089.52
640.27	1089.29
640.61	1093.03
640.96	1090.22
641.30	1092.33
641.65	1090.69
641.99	1092.09
642.33	1076.18
642.68	1096.78
643.02	1094.20
643.37	1093.73
643.71	1099.35
644.05	1102.63
644.40	1081.80
644.74	1081.56
645.08	1081.56
645.43	1081.56
645.77	1085.07
646.11	1089.29
646.46	1085.07
646.80	1090.22
647.14	1092.80
647.49	1088.35
647.83	1083.67
648.17	1076.41
648.52	1076.18
648.86	1069.39
649.20	1081.80
649.55	1090.92
649.89	1101.69
650.23	1091.16
650.57	1093.50
650.92	1092.09
651.26	1087.88
651.60	1088.35
651.95	1092.56
652.29	1087.41
652.63	1087.41
652.97	1087.41
653.32	1081.80
653.66	1082.50
654.00	1074.07
654.34	1072.67
654.69	1077.58
655.03	1089.75
655.37	1091.63
655.71	1107.54
656.05	1110.12
656.40	1105.90
656.74	1086.24
657.08	1079.69
657.42	1077.82
657.76	1075.48
658.11	1073.84
658.45	1089.99
658.79	1088.35
659.13	1091.86
659.47	1091.86
659.82	1086.48
660.16	1079.46
660.50	1076.88
660.84	1066.35
661.18	1066.58
661.52	1075.24
661.87	1076.88
662.21	1084.60
662.55	1095.14
662.89	1094.67
663.23	1104.50
663.57	1102.16
663.91	1108.01
664.25	1096.78
664.60	1091.63
664.94	1082.73
665.28	1087.65
665.62	1079.92
665.96	1081.80
666.30	1082.73
666.64	1083.67
666.98	1080.63
667.32	1085.77
667.66	1096.07
668.01	1094.90
668.35	1093.97
668.69	1098.88
669.03	1105.67
669.37	1101.92
669.71	1113.16
670.05	1107.54
670.39	1096.31
670.73	1093.26
671.07	1089.75
671.41	1087.65
671.75	1093.50
672.09	1108.71
672.43	1108.95
672.77	1103.09
673.11	1089.75
673.45	1093.50
673.79	1088.12
674.13	1081.56
674.47	1090.22
674.81	1106.14
675.15	1097.71
675.49	1098.18
675.83	1106.37
676.17	1099.35
676.51	1094.43
676.85	1100.05
677.19	1092.33
677.53	1093.26
677.87	1091.39
678.21	1092.09
678.55	1089.05
678.89	1085.07
679.23	1076.18
679.57	1093.50
679.90	1087.65
680.24	1097.01
680.58	1112.69
680.92	1107.31
681.26	1084.37
681.60	1082.50
681.94	1074.07
682.28	1072.67
682.62	1078.99
682.96	1084.84
683.29	1081.09
683.63	1081.33
683.97	1073.37
684.31	1081.33
684.65	1093.03
684.99	1103.09
685.33	1100.29
685.67	1103.56
686.00	1092.33
686.34	1080.86
686.68	1075.48
687.02	1074.07
687.36	1069.16
687.70	1074.07
688.03	1081.56
688.37	1082.26
688.71	1088.58
689.05	1099.82
689.39	1083.67
689.72	1082.73
690.06	1085.07
690.40	1079.46
690.74	1077.35
691.08	1092.09
691.41	1090.92
691.75	1087.65
692.09	1098.18
692.43	1092.80
692.76	1085.31
693.10	1085.31
693.44	1083.67
693.78	1081.09
694.11	1084.60
694.45	1088.82
694.79	1090.92
695.13	1100.75
695.46	1095.37
695.80	1083.90
696.14	1083.43
696.48	1076.88
696.81	1067.28
697.15	1067.28
697.49	1067.99
697.82	1072.90
698.16	1090.92
698.50	1102.63
698.83	1100.29
699.17	1097.95
699.51	1090.69
699.84	1081.33
700.18	1073.60
700.52	1080.39
700.85	1089.05
701.19	1100.52
701.53	1093.03
701.86	1093.26
702.20	1089.75
702.54	1087.88
702.87	1074.54
703.21	1075.48
703.55	1080.86
703.88	1075.01
704.22	1075.48
704.55	1078.99
704.89	1073.60
705.23	1067.28
705.56	1075.01
705.90	1073.14
706.23	1072.20
706.57	1083.20
706.91	1083.43
707.24	1086.24
707.58	1087.65
707.91	1090.69
708.25	1081.80
708.58	1073.37
708.92	1068.69
709.26	1065.65
709.59	1078.05
709.93	1076.88
710.26	1083.90
710.60	1077.35
710.93	1081.56
711.27	1075.01
711.60	1077.82
711.94	1073.84
712.27	1076.88
712.61	1075.71
712.94	1074.77
713.28	1070.80
713.61	1081.33
713.95	1079.69
714.28	1075.01
714.62	1075.48
714.95	1085.31
715.29	1074.54
715.62	1078.28
715.96	1087.88
716.29	1080.86
716.63	1083.43
716.96	1087.41
717.29	1088.35
717.63	1089.99
717.96	1093.50
718.30	1083.43
718.63	1089.99
718.97	1091.63
719.30	1092.56
719.63	1091.63
719.97	1099.35
720.30	1093.26
720.64	1097.71
720.97	1093.50
721.30	1106.84
721.64	1096.78
721.97	1092.80
722.31	1089.99
722.64	1077.11
722.97	1058.16
723.31	1071.50
723.64	1076.41
723.97	1071.26
724.31	1082.03
724.64	1085.54
724.98	1076.88
725.31	1085.77
725.64	1095.60
725.98	1101.46
726.31	1095.84
726.64	1094.43
726.97	1085.54
727.31	1075.71
727.64	1064.01
727.97	1066.35
728.31	1065.18
728.64	1069.86
728.97	1069.39
729.31	1074.31
729.64	1076.18
729.97	1085.54
730.30	1085.77
730.64	1086.48
730.97	1084.37
731.30	1089.52
731.63	1088.58
731.97	1092.09
732.30	1097.24
732.63	1105.67
732.96	1109.18
733.30	1114.10
733.63	1101.22
733.96	1105.90
734.29	1105.67
734.63	1100.29
734.96	1089.52
735.29	1096.54
735.62	1086.71
735.95	1083.43
736.29	1083.20
736.62	1083.43
736.95	1088.35
737.28	1090.46
737.61	1081.33
737.94	1083.90
738.28	1086.71
738.61	1072.20
738.94	1077.11
739.27	1088.35
739.60	1088.12
739.93	1081.56
740.27	1097.01
740.60	1080.86
740.93	1071.73
741.26	1064.94
741.59	1068.92
741.92	1071.97
742.25	1079.22
742.58	1080.39
742.91	1082.26
743.25	1076.88
743.58	1067.99
743.91	1063.31
744.24	1069.16
744.57	1076.88
744.90	1074.54
745.23	1073.60
745.56	1076.88
745.89	1075.94
746.22	1057.92
746.55	1067.52
746.88	1072.67
747.21	1075.48
747.54	1079.69
747.87	1099.35
748.20	1099.58
748.53	1097.24
748.87	1094.67
749.20	1089.05
749.53	1080.16
749.86	1079.46
750.19	1072.90
750.52	1076.18
750.85	1076.41
751.18	1078.75
751.51	1073.14
751.84	1072.67
752.16	1068.22
752.49	1076.88
752.82	1073.84
753.15	1075.94
753.48	1079.69
753.81	1081.33
754.14	1078.28
754.47	1070.80
754.80	1068.45
755.13	1068.22
755.46	1069.86
755.79	1073.37
756.12	1087.18
756.45	1088.58
756.78	1090.22
757.11	1086.48
757.43	1078.75
757.76	1078.75
758.09	1092.33
758.42	1093.97
758.75	1089.52
759.08	1084.37
759.41	1075.94
759.74	1070.09
760.07	1067.52
760.39	1075.01
760.72	1078.99
761.05	1084.37
761.38	1077.58
761.71	1072.20
762.04	1068.92
762.36	1071.50
762.69	1070.33
763.02	1073.14
763.35	1075.94
763.68	1083.20
764.01	1083.20
764.33	1084.14
