SpectraSuite Data File
++++++++++++++++++++++++++++++++++++
Date: Mon Aug 26 10:24:37 PDT 2019
User: corrico
Dark Spectrum Present: No
Reference Spectrum Present: No
Number of Sampled Component Spectra: 1
Spectrometers: USB2+H06089
Integration Time (usec): 10000 (USB2+H06089)
Spectra Averaged: 2 (USB2+H06089)
Boxcar Smoothing: 2 (USB2+H06089)
Correct for Electrical Dark: No (USB2+H06089)
Strobe/Lamp Enabled: No (USB2+H06089)
Correct for Detector Non-linearity: No (USB2+H06089)
Correct for Stray Light: No (USB2+H06089)
Number of Pixels in Processed Spectrum: 2048
>>>>>Begin Processed Spectral Data<<<<<
339.70	990.05
340.07	990.05
340.45	978.11
340.82	965.47
341.19	951.66
341.57	932.24
341.94	914.68
342.31	899.47
342.69	891.74
343.06	888.94
343.43	889.17
343.81	903.68
344.18	913.98
344.55	912.57
344.93	915.85
345.30	923.11
345.67	921.94
346.04	919.60
346.42	933.41
346.79	944.87
347.16	952.36
347.54	963.83
347.91	980.68
348.28	994.96
348.65	995.20
349.03	1009.94
349.40	1015.79
349.77	1014.15
350.14	1018.37
350.52	1038.96
350.89	1037.09
351.26	1047.39
351.63	1068.92
352.01	1070.09
352.38	1066.35
352.75	1075.24
353.12	1068.69
353.50	1063.77
353.87	1071.97
354.24	1078.05
354.61	1079.46
354.98	1091.16
355.36	1094.67
355.73	1102.63
356.10	1103.09
356.47	1099.35
356.84	1105.67
357.22	1108.95
357.59	1113.63
357.96	1115.97
358.33	1124.63
358.70	1113.86
359.08	1107.07
359.45	1089.52
359.82	1083.90
360.19	1078.05
360.56	1081.33
360.94	1080.39
361.31	1090.92
361.68	1085.07
362.05	1080.63
362.42	1081.33
362.79	1088.58
363.16	1088.35
363.54	1097.24
363.91	1102.86
364.28	1103.09
364.65	1095.37
365.02	1085.31
365.39	1086.71
365.76	1094.67
366.14	1093.26
366.51	1090.69
366.88	1093.97
367.25	1096.78
367.62	1089.29
367.99	1085.07
368.36	1089.05
368.73	1082.73
369.10	1081.33
369.48	1088.82
369.85	1090.22
370.22	1097.24
370.59	1100.52
370.96	1095.84
371.33	1091.63
371.70	1093.73
372.07	1085.77
372.44	1088.12
372.81	1082.50
373.18	1084.60
373.55	1084.84
373.93	1081.09
374.30	1082.73
374.67	1083.67
375.04	1071.97
375.41	1078.99
375.78	1078.99
376.15	1076.88
376.52	1081.80
376.89	1083.90
377.26	1078.28
377.63	1088.58
378.00	1094.90
378.37	1095.84
378.74	1097.01
379.11	1105.44
379.48	1104.26
379.85	1108.95
380.22	1109.18
380.59	1111.75
380.96	1108.71
381.33	1103.56
381.70	1100.99
382.07	1101.69
382.44	1109.18
382.81	1107.54
383.18	1119.24
383.55	1107.31
383.92	1103.56
384.29	1101.92
384.66	1096.54
385.03	1097.95
385.40	1105.90
385.77	1120.18
386.14	1124.16
386.51	1132.59
386.88	1124.16
387.25	1136.33
387.62	1130.24
387.99	1128.37
388.36	1127.20
388.73	1126.27
389.10	1112.46
389.46	1111.52
389.83	1105.90
390.20	1105.44
390.57	1112.46
390.94	1123.46
391.31	1137.97
391.68	1142.42
392.05	1142.65
392.42	1131.65
392.79	1132.82
393.16	1117.84
393.53	1111.29
393.89	1123.69
394.26	1138.90
394.63	1134.93
395.00	1133.99
395.37	1147.80
395.74	1139.84
396.11	1128.37
396.48	1121.12
396.84	1128.61
397.21	1128.61
397.58	1123.69
397.95	1137.03
398.32	1145.69
398.69	1143.59
399.06	1134.46
399.42	1143.35
399.79	1141.95
400.16	1147.33
400.53	1157.86
400.90	1166.76
401.27	1169.33
401.64	1177.52
402.00	1173.31
402.37	1177.29
402.74	1192.27
403.11	1208.18
403.48	1214.04
403.84	1233.23
404.21	1248.68
404.58	1258.97
404.95	1267.63
405.32	1275.36
405.68	1289.87
406.05	1288.00
406.42	1298.06
406.79	1311.40
407.16	1337.62
407.52	1365.00
407.89	1399.64
408.26	1427.02
408.63	1458.39
408.99	1489.28
409.36	1516.43
409.73	1549.90
410.10	1597.42
410.47	1628.54
410.83	1653.59
411.20	1690.57
411.57	1732.00
411.94	1770.15
412.30	1824.45
412.67	1899.11
413.04	1971.20
413.40	2043.99
413.77	2134.33
414.14	2234.98
414.51	2315.73
414.87	2413.56
415.24	2513.74
415.61	2618.36
415.97	2711.51
416.34	2848.90
416.71	2975.29
417.08	3126.02
417.44	3260.83
417.81	3444.10
418.18	3603.96
418.54	3794.01
418.91	3966.97
419.28	4180.66
419.64	4397.40
420.01	4649.24
420.38	4898.27
420.74	5149.18
421.11	5446.19
421.48	5721.91
421.84	6011.90
422.21	6312.42
422.58	6674.51
422.94	7028.86
423.31	7414.58
423.68	7793.28
424.04	8227.22
424.41	8658.58
424.77	9102.58
425.14	9528.55
425.51	10008.83
425.87	10576.88
426.24	11112.16
426.61	11728.19
426.97	12479.03
427.34	13150.30
427.70	13836.78
428.07	14601.90
428.44	15326.30
428.80	16047.65
429.17	16876.43
429.53	17672.21
429.90	18539.85
430.27	19297.72
430.63	20093.50
431.00	20990.63
431.36	21989.33
431.73	22893.48
432.09	23988.15
432.46	25020.33
432.83	25965.67
433.19	26793.75
433.56	27836.93
433.92	28821.82
434.29	29781.91
434.65	30848.03
435.02	31828.24
435.38	32725.60
435.75	33367.85
436.11	34290.95
436.48	34951.92
436.84	35748.64
437.21	36432.08
437.57	37180.11
437.94	37703.22
438.30	38284.38
438.67	38649.50
439.03	38859.91
439.40	39116.67
439.76	39050.43
440.13	38800.70
440.49	38662.14
440.86	38299.59
441.22	37913.87
441.59	37432.19
441.95	37043.42
442.32	36326.28
442.68	35701.83
443.05	34975.80
443.41	34285.57
443.78	33413.49
444.14	32665.45
444.51	31806.48
444.87	31087.23
445.24	30285.83
445.60	29565.41
445.96	28763.31
446.33	28143.07
446.69	27300.24
447.06	26582.40
447.42	25786.62
447.79	24989.43
448.15	24280.48
448.51	23601.49
448.88	22966.04
449.24	22350.24
449.61	21875.11
449.97	21253.94
450.33	20622.23
450.70	20003.15
451.06	19501.81
451.43	18876.19
451.79	18433.83
452.15	18033.13
452.52	17585.15
452.88	17153.55
453.24	16786.32
453.61	16415.58
453.97	16009.73
454.34	15572.99
454.70	15152.39
455.06	14731.10
455.43	14226.71
455.79	13686.52
456.15	13327.24
456.52	12871.54
456.88	12513.21
457.24	12066.16
457.61	11744.81
457.97	11300.81
458.33	10950.66
458.70	10532.64
459.06	10143.18
459.42	9836.80
459.79	9517.32
460.15	9232.71
460.51	8914.40
460.88	8669.58
461.24	8353.14
461.60	8097.55
461.96	7799.60
462.33	7567.19
462.69	7344.13
463.05	7126.23
463.42	6936.65
463.78	6752.91
464.14	6550.69
464.50	6366.02
464.87	6213.65
465.23	6035.31
465.59	5867.49
465.95	5723.31
466.32	5591.07
466.68	5437.77
467.04	5292.65
467.40	5174.46
467.77	5051.11
468.13	4906.47
468.49	4795.29
468.85	4695.82
469.22	4601.49
469.58	4512.79
469.94	4438.59
470.30	4340.99
470.66	4272.88
471.03	4190.50
471.39	4108.34
471.75	4037.19
472.11	3971.42
472.47	3889.03
472.84	3796.58
473.20	3721.22
473.56	3649.13
473.92	3567.21
474.28	3520.87
474.65	3471.95
475.01	3414.14
475.37	3331.52
475.73	3279.09
476.09	3200.21
476.45	3143.57
476.81	3083.66
477.18	3030.53
477.54	2962.42
477.90	2898.99
478.26	2825.49
478.62	2783.83
478.98	2742.87
479.34	2714.55
479.71	2680.15
480.07	2654.87
480.43	2622.80
480.79	2589.80
481.15	2536.91
481.51	2499.22
481.87	2458.73
482.23	2407.01
482.59	2380.56
482.96	2352.00
483.32	2336.32
483.68	2310.11
484.04	2293.26
484.40	2260.02
484.76	2247.15
485.12	2206.42
485.48	2186.76
485.84	2157.97
486.20	2124.50
486.56	2087.52
486.92	2065.52
487.28	2047.73
487.64	2026.90
488.00	2016.61
488.37	1995.31
488.73	1976.35
489.09	1946.39
489.45	1919.24
489.81	1883.20
490.17	1859.56
490.53	1836.15
490.89	1816.26
491.25	1795.42
491.61	1783.02
491.97	1768.04
492.33	1748.85
492.69	1731.06
493.05	1714.68
493.41	1698.76
493.77	1676.76
494.13	1650.08
494.49	1622.93
494.85	1604.91
495.21	1570.73
495.57	1553.18
495.93	1544.75
496.29	1549.43
496.64	1545.46
497.00	1538.67
497.36	1530.71
497.72	1523.22
498.08	1493.73
498.44	1470.09
498.80	1466.81
499.16	1462.13
499.52	1451.60
499.88	1450.66
500.24	1445.75
500.60	1436.15
500.96	1415.09
501.32	1414.62
501.68	1389.81
502.03	1378.81
502.39	1363.13
502.75	1345.81
503.11	1337.38
503.47	1341.60
503.83	1337.62
504.19	1333.64
504.55	1350.26
504.91	1338.55
505.26	1330.83
505.62	1326.15
505.98	1324.74
506.34	1308.13
506.70	1291.74
507.06	1281.91
507.42	1276.29
507.78	1262.25
508.13	1253.36
508.49	1271.38
508.85	1272.55
509.21	1268.10
509.57	1264.83
509.93	1262.72
510.28	1248.91
510.64	1244.46
511.00	1235.57
511.36	1229.02
511.72	1222.70
512.07	1208.42
512.43	1205.14
512.79	1208.89
513.15	1205.38
513.51	1196.95
513.86	1207.25
514.22	1210.29
514.58	1200.23
514.94	1208.18
515.30	1214.74
515.65	1206.78
516.01	1195.78
516.37	1199.06
516.73	1191.33
517.08	1195.08
517.44	1186.18
517.80	1174.71
518.16	1171.20
518.51	1180.80
518.87	1170.97
519.23	1173.78
519.59	1186.89
519.94	1173.54
520.30	1158.10
520.66	1177.06
521.01	1178.93
521.37	1167.69
521.73	1185.01
522.09	1188.29
522.44	1166.99
522.80	1157.39
523.16	1161.61
523.51	1152.71
523.87	1152.25
524.23	1160.20
524.58	1155.05
524.94	1158.33
525.30	1155.29
525.65	1156.69
526.01	1144.76
526.37	1150.14
526.72	1138.90
527.08	1136.10
527.44	1127.20
527.79	1134.93
528.15	1137.73
528.51	1147.56
528.86	1146.16
529.22	1159.50
529.58	1148.50
529.93	1145.69
530.29	1136.80
530.65	1145.22
531.00	1142.42
531.36	1143.82
531.71	1153.88
532.07	1156.69
532.43	1159.27
532.78	1149.44
533.14	1162.31
533.49	1155.29
533.85	1153.65
534.21	1147.56
534.56	1146.16
534.92	1136.80
535.27	1136.80
535.63	1144.29
535.98	1132.12
536.34	1126.03
536.69	1124.63
537.05	1118.31
537.41	1114.10
537.76	1124.63
538.12	1133.29
538.47	1133.52
538.83	1140.78
539.18	1127.90
539.54	1115.03
539.89	1113.16
540.25	1120.88
540.60	1119.01
540.96	1127.20
541.31	1132.59
541.67	1126.73
542.02	1111.99
542.38	1114.80
542.73	1112.69
543.09	1108.01
543.44	1115.97
543.80	1123.69
544.15	1125.56
544.51	1125.33
544.86	1128.84
545.22	1130.24
545.57	1121.35
545.93	1105.90
546.28	1111.75
546.64	1107.31
546.99	1098.41
547.35	1105.20
547.70	1107.07
548.05	1109.18
548.41	1128.84
548.76	1142.42
549.12	1143.12
549.47	1155.52
549.83	1150.84
550.18	1142.42
550.53	1131.88
550.89	1128.37
551.24	1119.48
551.60	1113.86
551.95	1098.18
552.30	1105.20
552.66	1100.52
553.01	1094.43
553.37	1096.31
553.72	1099.58
554.07	1096.31
554.43	1095.14
554.78	1104.03
555.13	1104.97
555.49	1109.65
555.84	1102.16
556.19	1104.73
556.55	1100.05
556.90	1106.61
557.26	1110.82
557.61	1107.78
557.96	1108.48
558.32	1116.67
558.67	1116.67
559.02	1111.29
559.37	1117.61
559.73	1116.44
560.08	1104.03
560.43	1098.41
560.79	1101.22
561.14	1100.05
561.49	1102.63
561.85	1106.37
562.20	1113.63
562.55	1119.95
562.90	1121.82
563.26	1120.65
563.61	1128.37
563.96	1119.71
564.32	1119.95
564.67	1124.86
565.02	1132.12
565.37	1131.88
565.73	1137.50
566.08	1125.80
566.43	1124.63
566.78	1122.99
567.14	1115.73
567.49	1113.39
567.84	1126.73
568.19	1118.78
568.54	1108.71
568.90	1103.33
569.25	1105.20
569.60	1093.26
569.95	1086.24
570.31	1088.35
570.66	1096.07
571.01	1097.95
571.36	1102.16
571.71	1119.01
572.06	1127.44
572.42	1123.22
572.77	1123.46
573.12	1124.63
573.47	1129.54
573.82	1112.69
574.18	1113.63
574.53	1111.52
574.88	1110.82
575.23	1102.39
575.58	1114.56
575.93	1113.86
576.28	1111.05
576.64	1114.56
576.99	1107.54
577.34	1103.80
577.69	1097.48
578.04	1094.67
578.39	1089.75
578.74	1097.95
579.09	1101.92
579.44	1109.41
579.80	1102.63
580.15	1095.14
580.50	1089.05
580.85	1095.84
581.20	1099.12
581.55	1101.46
581.90	1111.29
582.25	1103.56
582.60	1089.99
582.95	1082.03
583.30	1087.18
583.65	1084.84
584.00	1093.50
584.35	1105.67
584.71	1107.78
585.06	1113.63
585.41	1115.03
585.76	1112.22
586.11	1106.84
586.46	1113.63
586.81	1106.61
587.16	1097.71
587.51	1093.73
587.86	1097.24
588.21	1093.50
588.56	1099.35
588.91	1114.33
589.26	1116.44
589.61	1122.75
589.96	1116.90
590.31	1106.37
590.66	1101.92
591.01	1101.22
591.36	1088.12
591.71	1090.69
592.06	1091.16
592.41	1087.41
592.76	1095.60
593.10	1099.35
593.45	1102.86
593.80	1096.78
594.15	1099.82
594.50	1103.33
594.85	1097.48
595.20	1096.31
595.55	1102.39
595.90	1101.92
596.25	1093.26
596.60	1102.63
596.95	1097.95
597.30	1100.75
597.64	1145.46
597.99	1147.56
598.34	1135.86
598.69	1148.50
599.04	1155.99
599.39	1110.35
599.74	1105.90
600.09	1109.88
600.44	1105.20
600.78	1093.50
601.13	1088.12
601.48	1091.86
601.83	1085.77
602.18	1080.39
602.53	1088.12
602.88	1093.97
603.22	1094.20
603.57	1092.80
603.92	1096.78
604.27	1097.01
604.62	1095.84
604.97	1089.52
605.31	1095.37
605.66	1091.39
606.01	1088.58
606.36	1093.50
606.71	1099.12
607.05	1096.54
607.40	1084.60
607.75	1084.84
608.10	1080.16
608.44	1083.90
608.79	1090.46
609.14	1103.33
609.49	1108.48
609.84	1099.82
610.18	1094.67
610.53	1096.31
610.88	1103.33
611.23	1092.09
611.57	1100.99
611.92	1098.88
612.27	1096.31
612.62	1097.01
612.96	1102.39
613.31	1103.80
613.66	1106.14
614.00	1107.78
614.35	1104.73
614.70	1100.52
615.05	1108.48
615.39	1100.99
615.74	1100.99
616.09	1099.82
616.43	1107.54
616.78	1095.84
617.13	1106.84
617.47	1102.86
617.82	1091.63
618.17	1096.54
618.51	1089.99
618.86	1087.65
619.21	1091.39
619.55	1099.82
619.90	1093.26
620.25	1108.48
620.59	1108.48
620.94	1101.46
621.29	1099.82
621.63	1090.22
621.98	1075.71
622.32	1077.11
622.67	1097.24
623.02	1094.67
623.36	1103.09
623.71	1107.31
624.05	1102.16
624.40	1099.12
624.75	1093.26
625.09	1098.18
625.44	1097.71
625.78	1095.60
626.13	1080.63
626.48	1089.75
626.82	1089.52
627.17	1093.73
627.51	1098.18
627.86	1094.90
628.20	1088.82
628.55	1082.97
628.89	1075.48
629.24	1073.37
629.58	1072.67
629.93	1080.86
630.28	1087.18
630.62	1086.94
630.97	1087.41
631.31	1086.48
631.66	1092.80
632.00	1088.12
632.35	1089.05
632.69	1091.63
633.04	1104.97
633.38	1094.43
633.73	1092.09
634.07	1092.56
634.42	1077.58
634.76	1066.82
635.11	1070.33
635.45	1073.37
635.79	1083.90
636.14	1097.95
636.48	1104.73
636.83	1102.86
637.17	1098.41
637.52	1089.75
637.86	1085.31
638.21	1085.54
638.55	1091.16
638.89	1094.90
639.24	1092.09
639.58	1098.18
639.93	1102.16
640.27	1097.48
640.61	1097.24
640.96	1082.03
641.30	1083.43
641.65	1072.67
641.99	1073.60
642.33	1078.75
642.68	1095.37
643.02	1086.01
643.37	1087.88
643.71	1082.97
644.05	1071.26
644.40	1072.43
644.74	1071.50
645.08	1075.01
645.43	1079.92
645.77	1078.05
646.11	1084.84
646.46	1092.09
646.80	1088.58
647.14	1088.82
647.49	1091.39
647.83	1090.46
648.17	1084.14
648.52	1089.52
648.86	1082.03
649.20	1085.54
649.55	1079.46
649.89	1087.88
650.23	1086.48
650.57	1087.41
650.92	1092.56
651.26	1096.31
651.60	1083.43
651.95	1088.12
652.29	1092.33
652.63	1085.07
652.97	1078.75
653.32	1076.18
653.66	1079.46
654.00	1085.54
654.34	1077.11
654.69	1090.69
655.03	1111.05
655.37	1104.50
655.71	1095.60
656.05	1108.71
656.40	1096.78
656.74	1084.14
657.08	1084.84
657.42	1089.75
657.76	1082.50
658.11	1077.35
658.45	1081.56
658.79	1070.09
659.13	1062.84
659.47	1069.86
659.82	1081.56
660.16	1081.56
660.50	1090.22
660.84	1090.92
661.18	1096.31
661.52	1096.07
661.87	1097.24
662.21	1094.43
662.55	1096.31
662.89	1085.77
663.23	1086.24
663.57	1084.60
663.91	1082.03
664.25	1085.31
664.60	1081.33
664.94	1084.14
665.28	1085.54
665.62	1093.50
665.96	1078.99
666.30	1082.03
666.64	1072.20
666.98	1071.03
667.32	1065.18
667.66	1078.75
668.01	1083.67
668.35	1080.63
668.69	1074.54
669.03	1083.20
669.37	1079.92
669.71	1075.71
670.05	1079.46
670.39	1096.54
670.73	1096.07
671.07	1094.90
671.41	1097.01
671.75	1099.12
672.09	1091.63
672.43	1085.31
672.77	1088.35
673.11	1096.54
673.45	1102.16
673.79	1101.22
674.13	1103.56
674.47	1102.16
674.81	1090.46
675.15	1081.56
675.49	1078.05
675.83	1089.05
676.17	1089.52
676.51	1099.82
676.85	1107.07
677.19	1103.33
677.53	1102.63
677.87	1097.71
678.21	1082.26
678.55	1081.80
678.89	1084.37
679.23	1075.71
679.57	1084.14
679.90	1091.16
680.24	1085.77
680.58	1088.35
680.92	1083.43
681.26	1085.31
681.60	1083.67
681.94	1074.77
682.28	1077.35
682.62	1069.39
682.96	1064.48
683.29	1067.28
683.63	1076.88
683.97	1073.84
684.31	1081.80
684.65	1078.99
684.99	1072.90
685.33	1078.75
685.67	1087.88
686.00	1088.35
686.34	1089.29
686.68	1094.67
687.02	1098.65
687.36	1094.67
687.70	1092.56
688.03	1093.26
688.37	1094.43
688.71	1093.26
689.05	1087.18
689.39	1085.77
689.72	1081.80
690.06	1069.62
690.40	1063.77
690.74	1062.37
691.08	1070.56
691.41	1082.26
691.75	1097.95
692.09	1095.60
692.43	1090.92
692.76	1081.80
693.10	1077.11
693.44	1075.24
693.78	1070.09
694.11	1078.99
694.45	1086.24
694.79	1080.86
695.13	1072.90
695.46	1082.73
695.80	1082.97
696.14	1073.84
696.48	1079.22
696.81	1082.26
697.15	1074.54
697.49	1077.82
697.82	1076.41
698.16	1079.46
698.50	1084.84
698.83	1083.90
699.17	1082.50
699.51	1093.26
699.84	1091.16
700.18	1086.94
700.52	1094.67
700.85	1089.52
701.19	1086.01
701.53	1082.73
701.86	1083.43
702.20	1077.35
702.54	1074.77
702.87	1078.52
703.21	1079.92
703.55	1076.18
703.88	1067.99
704.22	1061.20
704.55	1059.56
704.89	1057.92
705.23	1061.67
705.56	1076.41
705.90	1083.20
706.23	1086.01
706.57	1077.82
706.91	1075.71
707.24	1060.26
707.58	1071.03
707.91	1067.52
708.25	1075.01
708.58	1075.94
708.92	1086.24
709.26	1082.97
709.59	1080.86
709.93	1078.05
710.26	1074.54
710.60	1072.20
710.93	1062.60
711.27	1069.86
711.60	1075.48
711.94	1085.54
712.27	1080.16
712.61	1086.01
712.94	1078.99
713.28	1076.18
713.61	1069.62
713.95	1075.24
714.28	1072.20
714.62	1072.20
714.95	1071.50
715.29	1063.07
715.62	1058.62
715.96	1061.90
716.29	1064.48
716.63	1066.82
716.96	1063.54
717.29	1067.75
717.63	1066.82
717.96	1066.58
718.30	1065.41
718.63	1074.54
718.97	1073.14
719.30	1080.16
719.63	1081.56
719.97	1075.48
720.30	1083.43
720.64	1097.24
720.97	1086.01
721.30	1079.92
721.64	1087.41
721.97	1087.18
722.31	1079.92
722.64	1091.86
722.97	1097.01
723.31	1101.46
723.64	1106.84
723.97	1107.07
724.31	1109.65
724.64	1112.46
724.98	1107.31
725.31	1107.07
725.64	1112.22
725.98	1099.82
726.31	1092.09
726.64	1092.80
726.97	1080.39
727.31	1078.75
727.64	1077.82
727.97	1082.73
728.31	1078.75
728.64	1076.65
728.97	1065.41
729.31	1068.45
729.64	1065.65
729.97	1069.39
730.30	1079.92
730.64	1093.03
730.97	1101.22
731.30	1100.29
731.63	1106.37
731.97	1108.95
732.30	1102.86
732.63	1091.39
732.96	1085.31
733.30	1073.37
733.63	1062.37
733.96	1060.73
734.29	1059.79
734.63	1071.03
734.96	1079.92
735.29	1078.99
735.62	1086.48
735.95	1086.71
736.29	1084.84
736.62	1080.39
736.95	1088.58
737.28	1090.69
737.61	1101.22
737.94	1104.26
738.28	1098.65
738.61	1098.41
738.94	1087.41
739.27	1072.20
739.60	1067.99
739.93	1068.45
740.27	1061.90
740.60	1062.84
740.93	1078.28
741.26	1078.28
741.59	1093.26
741.92	1095.60
742.25	1091.63
742.58	1089.29
742.91	1091.63
743.25	1073.37
743.58	1065.88
743.91	1070.33
744.24	1062.37
744.57	1057.22
744.90	1065.18
745.23	1068.92
745.56	1059.56
745.89	1069.39
746.22	1080.63
746.55	1086.71
746.88	1082.03
747.21	1092.56
747.54	1080.86
747.87	1074.31
748.20	1062.14
748.53	1065.41
748.87	1063.77
749.20	1070.33
749.53	1068.45
749.86	1087.18
750.19	1094.90
750.52	1094.90
750.85	1089.75
751.18	1085.07
751.51	1071.50
751.84	1078.05
752.16	1080.39
752.49	1088.35
752.82	1093.97
753.15	1096.54
753.48	1095.14
753.81	1093.26
754.14	1083.67
754.47	1081.09
754.80	1072.43
755.13	1063.77
755.46	1066.11
755.79	1068.92
756.12	1066.58
756.45	1072.43
756.78	1076.88
757.11	1077.58
757.43	1074.54
757.76	1078.28
758.09	1084.60
758.42	1078.05
758.75	1067.52
759.08	1076.41
759.41	1083.20
759.74	1077.11
760.07	1074.54
760.39	1067.52
760.72	1062.60
761.05	1055.82
761.38	1061.43
761.71	1075.48
762.04	1086.01
762.36	1084.84
762.69	1093.03
763.02	1079.22
763.35	1067.28
763.68	1070.33
764.01	1081.56
764.33	1071.03
