SpectraSuite Data File
++++++++++++++++++++++++++++++++++++
Date: Mon Aug 26 10:24:35 PDT 2019
User: corrico
Dark Spectrum Present: No
Reference Spectrum Present: No
Number of Sampled Component Spectra: 1
Spectrometers: USB2+H06089
Integration Time (usec): 10000 (USB2+H06089)
Spectra Averaged: 2 (USB2+H06089)
Boxcar Smoothing: 2 (USB2+H06089)
Correct for Electrical Dark: No (USB2+H06089)
Strobe/Lamp Enabled: No (USB2+H06089)
Correct for Detector Non-linearity: No (USB2+H06089)
Correct for Stray Light: No (USB2+H06089)
Number of Pixels in Processed Spectrum: 2048
>>>>>Begin Processed Spectral Data<<<<<
339.70	1031.01
340.07	1031.01
340.45	983.26
340.82	960.56
341.19	931.07
341.57	904.62
341.94	904.85
342.31	907.89
342.69	901.57
343.06	904.15
343.43	899.23
343.81	903.45
344.18	901.81
344.55	909.30
344.93	910.94
345.30	915.62
345.67	916.79
346.04	919.36
346.42	925.21
346.79	935.75
347.16	947.21
347.54	966.64
347.91	978.58
348.28	992.39
348.65	1002.92
349.03	1026.79
349.40	1020.47
349.77	1036.86
350.14	1041.07
350.52	1052.54
350.89	1049.96
351.26	1061.67
351.63	1060.96
352.01	1064.01
352.38	1071.50
352.75	1075.24
353.12	1080.63
353.50	1089.52
353.87	1100.99
354.24	1102.63
354.61	1101.46
354.98	1107.31
355.36	1102.39
355.73	1088.82
356.10	1088.58
356.47	1090.69
356.84	1077.82
357.22	1077.82
357.59	1091.39
357.96	1085.31
358.33	1092.80
358.70	1099.82
359.08	1106.14
359.45	1100.75
359.82	1104.26
360.19	1097.48
360.56	1095.60
360.94	1101.92
361.31	1106.14
361.68	1105.90
362.05	1105.44
362.42	1106.14
362.79	1100.29
363.16	1099.82
363.54	1109.41
363.91	1112.22
364.28	1119.24
364.65	1106.14
365.02	1104.50
365.39	1100.99
365.76	1106.84
366.14	1098.88
366.51	1107.31
366.88	1111.29
367.25	1100.52
367.62	1096.54
367.99	1094.20
368.36	1087.65
368.73	1080.39
369.10	1091.16
369.48	1083.90
369.85	1082.26
370.22	1084.60
370.59	1084.37
370.96	1075.71
371.33	1082.26
371.70	1095.60
372.07	1106.37
372.44	1104.26
372.81	1102.86
373.18	1101.92
373.55	1089.75
373.93	1078.75
374.30	1082.50
374.67	1088.82
375.04	1087.41
375.41	1100.52
375.78	1110.12
376.15	1108.24
376.52	1106.61
376.89	1106.14
377.26	1087.41
377.63	1079.69
378.00	1072.67
378.37	1069.86
378.74	1070.09
379.11	1078.28
379.48	1078.99
379.85	1092.80
380.22	1100.05
380.59	1099.35
380.96	1110.12
381.33	1117.14
381.70	1113.86
382.07	1104.26
382.44	1111.75
382.81	1108.71
383.18	1102.16
383.55	1104.73
383.92	1116.67
384.29	1106.37
384.66	1101.69
385.03	1113.39
385.40	1110.82
385.77	1102.86
386.14	1114.09
386.51	1113.86
386.88	1111.05
387.25	1117.84
387.62	1118.54
387.99	1114.80
388.36	1114.10
388.73	1108.48
389.10	1111.52
389.46	1112.92
389.83	1121.82
390.20	1132.82
390.57	1130.95
390.94	1112.22
391.31	1108.71
391.68	1108.01
392.05	1105.67
392.42	1121.58
392.79	1144.76
393.16	1151.54
393.53	1145.93
393.89	1138.44
394.26	1122.75
394.63	1115.27
395.00	1121.12
395.37	1126.50
395.74	1143.35
396.11	1161.61
396.48	1168.86
396.84	1177.76
397.21	1181.74
397.58	1174.95
397.95	1169.57
398.32	1162.08
398.69	1150.37
399.06	1150.14
399.42	1162.31
399.79	1165.35
400.16	1181.97
400.53	1192.74
400.90	1195.08
401.27	1193.67
401.64	1200.69
402.00	1206.08
402.37	1204.44
402.74	1213.80
403.11	1231.12
403.48	1239.78
403.84	1245.40
404.21	1266.70
404.58	1283.08
404.95	1277.93
405.32	1300.87
405.68	1317.25
406.05	1333.64
406.42	1343.94
406.79	1377.64
407.16	1406.90
407.52	1438.03
407.89	1471.03
408.26	1511.99
408.63	1543.82
408.99	1566.29
409.36	1612.86
409.73	1666.46
410.10	1718.89
410.47	1778.34
410.83	1851.13
411.20	1908.94
411.57	1961.60
411.94	2025.50
412.30	2095.48
412.67	2150.25
413.04	2234.04
413.40	2338.90
413.77	2458.73
414.14	2578.80
414.51	2711.74
414.87	2832.98
415.24	2968.97
415.61	3093.02
415.97	3243.05
416.34	3405.48
416.71	3591.55
417.08	3789.09
417.44	3986.63
417.81	4213.67
418.18	4443.04
418.54	4674.05
418.91	4923.32
419.28	5198.10
419.64	5480.83
420.01	5807.81
420.38	6136.18
420.74	6458.71
421.11	6878.60
421.48	7278.36
421.84	7700.36
422.21	8120.96
422.58	8641.02
422.94	9138.86
423.31	9630.13
423.68	10195.14
424.04	10803.44
424.41	11392.09
424.77	11951.95
425.14	12596.53
425.51	13215.83
425.87	13930.87
426.24	14653.16
426.61	15530.62
426.97	16514.82
427.34	17446.82
427.70	18511.53
428.07	19569.69
428.44	20641.42
428.80	21633.34
429.17	22746.50
429.53	23740.99
429.90	24905.41
430.27	25959.58
430.63	27090.06
431.00	28321.65
431.36	29681.50
431.73	30858.56
432.09	32122.68
432.46	33370.19
432.83	34689.55
433.19	35860.99
433.56	37379.76
433.92	39038.50
434.29	40526.14
434.65	41849.01
435.02	43160.18
435.38	44377.96
435.75	45119.68
436.11	46330.90
436.48	47376.89
436.84	48500.35
437.21	49385.30
437.57	50378.63
437.94	50954.87
438.30	51567.15
438.67	51791.61
439.03	51852.93
439.40	51955.68
439.76	51844.04
440.13	51557.32
440.49	51520.11
440.86	51135.79
441.22	50792.20
441.59	50274.94
441.95	49723.04
442.32	48827.09
442.68	48149.97
443.05	47109.83
443.41	46160.98
443.78	45014.82
444.14	44005.35
444.51	42859.89
444.87	42018.94
445.24	40898.99
445.60	39879.69
445.96	38733.06
446.33	37750.50
446.69	36490.12
447.06	35526.76
447.42	34561.75
447.79	33512.73
448.15	32585.64
448.51	31735.56
448.88	30985.88
449.24	30102.33
449.61	29395.02
449.97	28544.47
450.33	27708.67
450.70	26767.30
451.06	26028.63
451.43	25288.55
451.79	24746.72
452.15	24142.63
452.52	23594.00
452.88	23049.83
453.24	22546.85
453.61	21936.44
453.97	21324.39
454.34	20704.38
454.70	20153.18
455.06	19528.96
455.43	18848.57
455.79	18193.92
456.15	17630.32
456.52	17014.52
456.88	16518.80
457.24	15992.65
457.61	15517.75
457.97	15004.24
458.33	14521.62
458.70	13969.49
459.06	13448.02
459.42	13052.70
459.79	12575.46
460.15	12113.91
460.51	11671.55
460.88	11284.42
461.24	10857.04
461.60	10523.52
461.96	10193.97
462.33	9899.53
462.69	9566.24
463.05	9251.44
463.42	8965.66
463.78	8669.81
464.14	8380.76
464.50	8168.00
464.87	7929.97
465.23	7665.96
465.59	7462.33
465.95	7274.62
466.32	7059.06
466.68	6892.18
467.04	6688.31
467.40	6497.56
467.77	6320.85
468.13	6157.95
468.49	5966.96
468.85	5849.47
469.22	5738.06
469.58	5623.84
469.94	5521.56
470.30	5421.62
470.66	5322.85
471.03	5221.50
471.39	5113.84
471.75	4983.70
472.11	4891.02
472.47	4795.52
472.84	4683.18
473.20	4561.24
473.56	4463.17
473.92	4346.84
474.28	4260.71
474.65	4162.17
475.01	4097.58
475.37	4026.66
475.73	3950.36
476.09	3872.42
476.45	3802.90
476.81	3722.39
477.18	3644.92
477.54	3568.15
477.90	3477.57
478.26	3413.20
478.62	3343.69
478.98	3278.15
479.34	3226.19
479.71	3181.96
480.07	3129.53
480.43	3084.12
480.79	3039.19
481.15	3000.57
481.51	2955.63
481.87	2912.33
482.23	2873.48
482.59	2834.62
482.96	2792.73
483.32	2746.38
483.68	2720.17
484.04	2684.13
484.40	2647.61
484.76	2593.55
485.12	2566.40
485.48	2519.59
485.84	2480.50
486.20	2435.33
486.56	2416.60
486.92	2382.43
487.28	2359.26
487.64	2339.37
488.00	2314.79
488.37	2275.70
488.73	2237.32
489.09	2185.83
489.45	2144.40
489.81	2109.06
490.17	2083.78
490.53	2062.25
490.89	2036.73
491.25	2005.14
491.61	2000.22
491.97	1973.54
492.33	1947.33
492.69	1927.20
493.05	1906.83
493.41	1861.66
493.77	1850.19
494.13	1821.64
494.49	1795.42
494.85	1767.81
495.21	1760.08
495.57	1729.19
495.93	1710.23
496.29	1683.78
496.64	1683.78
497.00	1667.87
497.36	1651.72
497.72	1638.14
498.08	1629.95
498.44	1600.46
498.80	1574.48
499.16	1561.14
499.52	1539.84
499.88	1531.88
500.24	1522.52
500.60	1519.24
500.96	1503.33
501.32	1509.65
501.68	1498.41
502.03	1487.88
502.39	1465.88
502.75	1467.75
503.11	1434.05
503.47	1418.83
503.83	1419.77
504.19	1414.15
504.55	1402.68
504.91	1400.34
505.26	1394.26
505.62	1371.32
505.98	1368.75
506.34	1349.55
506.70	1346.74
507.06	1340.89
507.42	1328.02
507.78	1321.00
508.13	1318.42
508.49	1308.36
508.85	1294.32
509.21	1294.55
509.57	1285.89
509.93	1273.95
510.28	1265.53
510.64	1261.31
511.00	1251.25
511.36	1255.00
511.72	1259.91
512.07	1269.27
512.43	1272.32
512.79	1279.34
513.15	1266.00
513.51	1253.36
513.86	1246.34
514.22	1237.44
514.58	1221.99
514.94	1218.48
515.30	1217.31
515.65	1217.31
516.01	1219.89
516.37	1218.72
516.73	1218.95
517.08	1222.46
517.44	1214.50
517.80	1208.89
518.16	1217.31
518.51	1211.70
518.87	1214.04
519.23	1211.23
519.59	1200.93
519.94	1197.42
520.30	1190.40
520.66	1175.18
521.01	1178.23
521.37	1195.08
521.73	1189.23
522.09	1190.63
522.44	1196.48
522.80	1195.08
523.16	1186.89
523.51	1181.97
523.87	1173.31
524.23	1167.46
524.58	1160.44
524.94	1156.22
525.30	1150.61
525.65	1161.84
526.01	1171.91
526.37	1164.18
526.72	1156.69
527.08	1159.50
527.44	1145.46
527.79	1132.35
528.15	1138.67
528.51	1137.73
528.86	1138.90
529.22	1147.56
529.58	1156.69
529.93	1156.69
530.29	1164.88
530.65	1165.59
531.00	1152.48
531.36	1145.93
531.71	1139.61
532.07	1134.22
532.43	1129.07
532.78	1132.12
533.14	1134.69
533.49	1130.24
533.85	1132.35
534.21	1133.76
534.56	1133.99
534.92	1126.97
535.27	1130.24
535.63	1131.88
535.98	1132.82
536.34	1132.35
536.69	1139.14
537.05	1138.44
537.41	1137.27
537.76	1148.50
538.12	1154.82
538.47	1148.03
538.83	1157.39
539.18	1155.76
539.54	1141.01
539.89	1143.12
540.25	1142.65
540.60	1137.73
540.96	1136.33
541.31	1141.95
541.67	1138.44
542.02	1147.33
542.38	1148.50
542.73	1141.25
543.09	1127.67
543.44	1127.90
543.80	1117.61
544.15	1104.97
544.51	1109.41
544.86	1125.10
545.22	1120.65
545.57	1119.48
545.93	1116.20
546.28	1111.29
546.64	1104.26
546.99	1099.12
547.35	1097.48
547.70	1107.54
548.05	1110.58
548.41	1111.05
548.76	1112.46
549.12	1117.37
549.47	1114.33
549.83	1114.80
550.18	1113.63
550.53	1118.54
550.89	1120.41
551.24	1119.24
551.60	1124.39
551.95	1120.88
552.30	1125.56
552.66	1129.78
553.01	1133.99
553.37	1124.39
553.72	1129.54
554.07	1132.12
554.43	1131.18
554.78	1127.90
555.13	1129.07
555.49	1129.07
555.84	1126.27
556.19	1113.39
556.55	1107.54
556.90	1113.63
557.26	1113.16
557.61	1111.75
557.96	1116.67
558.32	1124.16
558.67	1124.86
559.02	1128.84
559.37	1130.71
559.73	1121.12
560.08	1119.71
560.43	1117.61
560.79	1102.63
561.14	1098.88
561.49	1107.07
561.85	1102.16
562.20	1100.52
562.55	1104.03
562.90	1106.14
563.26	1108.24
563.61	1115.27
563.96	1110.12
564.32	1119.24
564.67	1110.58
565.02	1098.18
565.37	1104.97
565.73	1096.78
566.08	1089.05
566.43	1083.43
566.78	1089.75
567.14	1073.14
567.49	1076.18
567.84	1080.39
568.19	1083.43
568.54	1094.20
568.90	1091.63
569.25	1094.43
569.60	1097.48
569.95	1098.88
570.31	1096.78
570.66	1099.58
571.01	1103.80
571.36	1095.84
571.71	1095.14
572.06	1091.86
572.42	1089.99
572.77	1086.01
573.12	1084.84
573.47	1093.97
573.82	1093.03
574.18	1095.60
574.53	1096.07
574.88	1093.50
575.23	1094.67
575.58	1084.37
575.93	1084.14
576.28	1091.63
576.64	1102.16
576.99	1101.69
577.34	1114.33
577.69	1129.31
578.04	1130.48
578.39	1131.18
578.74	1120.18
579.09	1117.14
579.44	1103.80
579.80	1095.60
580.15	1086.71
580.50	1095.37
580.85	1100.75
581.20	1112.92
581.55	1115.97
581.90	1124.16
582.25	1119.01
582.60	1111.52
582.95	1102.39
583.30	1107.54
583.65	1100.05
584.00	1111.75
584.35	1121.12
584.71	1128.61
585.06	1116.20
585.41	1121.12
585.76	1115.97
586.11	1109.88
586.46	1099.82
586.81	1110.35
587.16	1104.26
587.51	1099.12
587.86	1107.78
588.21	1114.56
588.56	1116.20
588.91	1122.05
589.26	1127.20
589.61	1113.86
589.96	1106.84
590.31	1095.60
590.66	1093.97
591.01	1093.26
591.36	1098.88
591.71	1106.14
592.06	1119.01
592.41	1120.18
592.76	1118.07
593.10	1115.03
593.45	1110.35
593.80	1096.31
594.15	1093.26
594.50	1080.39
594.85	1080.63
595.20	1081.33
595.55	1096.31
595.90	1099.35
596.25	1107.78
596.60	1109.65
596.95	1113.39
597.30	1117.14
597.64	1157.63
597.99	1159.03
598.34	1161.84
598.69	1156.22
599.04	1144.05
599.39	1104.97
599.74	1107.07
600.09	1100.52
600.44	1097.01
600.78	1096.07
601.13	1088.35
601.48	1085.54
601.83	1085.31
602.18	1090.46
602.53	1088.12
602.88	1100.99
603.22	1093.26
603.57	1094.20
603.92	1091.86
604.27	1096.78
604.62	1093.03
604.97	1107.78
605.31	1110.82
605.66	1111.52
606.01	1118.31
606.36	1113.16
606.71	1104.73
607.05	1098.18
607.40	1106.37
607.75	1104.73
608.10	1101.46
608.44	1099.82
608.79	1102.63
609.14	1090.46
609.49	1092.09
609.84	1097.01
610.18	1098.18
610.53	1101.22
610.88	1103.56
611.23	1098.88
611.57	1106.14
611.92	1104.03
612.27	1101.92
612.62	1118.07
612.96	1110.58
613.31	1105.44
613.66	1110.82
614.00	1108.24
614.35	1101.69
614.70	1107.31
615.05	1115.27
615.39	1121.82
615.74	1122.05
616.09	1120.41
616.43	1117.37
616.78	1104.26
617.13	1094.90
617.47	1095.14
617.82	1088.58
618.17	1094.67
618.51	1100.75
618.86	1105.90
619.21	1106.84
619.55	1115.50
619.90	1095.84
620.25	1089.75
620.59	1091.16
620.94	1094.20
621.29	1092.80
621.63	1105.20
621.98	1105.67
622.32	1106.37
622.67	1115.97
623.02	1102.86
623.36	1093.50
623.71	1094.43
624.05	1085.54
624.40	1074.07
624.75	1079.46
625.09	1085.31
625.44	1088.12
625.78	1078.99
626.13	1069.62
626.48	1071.26
626.82	1069.62
627.17	1062.84
627.51	1073.37
627.86	1078.05
628.20	1086.01
628.55	1089.75
628.89	1097.24
629.24	1094.67
629.58	1096.54
629.93	1085.77
630.28	1084.14
630.62	1082.03
630.97	1090.69
631.31	1092.80
631.66	1092.33
632.00	1101.22
632.35	1096.78
632.69	1096.31
633.04	1091.16
633.38	1099.12
633.73	1092.80
634.07	1091.39
634.42	1088.12
634.76	1096.07
635.11	1086.71
635.45	1087.65
635.79	1085.77
636.14	1082.26
636.48	1079.46
636.83	1085.54
637.17	1091.63
637.52	1103.80
637.86	1106.14
638.21	1105.90
638.55	1096.54
638.89	1102.63
639.24	1097.48
639.58	1100.75
639.93	1095.14
640.27	1089.05
640.61	1074.07
640.96	1075.24
641.30	1075.01
641.65	1086.94
641.99	1105.90
642.33	1110.12
642.68	1104.97
643.02	1099.82
643.37	1096.31
643.71	1087.41
644.05	1082.03
644.40	1079.22
644.74	1076.65
645.08	1073.84
645.43	1078.75
645.77	1086.01
646.11	1092.56
646.46	1103.33
646.80	1100.29
647.14	1104.26
647.49	1104.50
647.83	1111.75
648.17	1102.86
648.52	1101.92
648.86	1097.95
649.20	1094.43
649.55	1087.65
649.89	1095.14
650.23	1097.48
650.57	1100.05
650.92	1103.33
651.26	1103.80
651.60	1108.48
651.95	1113.86
652.29	1112.69
652.63	1115.50
652.97	1115.27
653.32	1108.48
653.66	1100.99
654.00	1096.78
654.34	1094.20
654.69	1091.39
655.03	1088.12
655.37	1086.01
655.71	1095.14
656.05	1096.78
656.40	1100.52
656.74	1098.88
657.08	1107.07
657.42	1099.82
657.76	1095.14
658.11	1091.86
658.45	1090.92
658.79	1090.69
659.13	1087.18
659.47	1087.18
659.82	1090.69
660.16	1085.07
660.50	1082.73
660.84	1093.97
661.18	1099.35
661.52	1089.52
661.87	1092.09
662.21	1095.14
662.55	1089.29
662.89	1082.50
663.23	1090.69
663.57	1087.41
663.91	1084.60
664.25	1082.50
664.60	1084.84
664.94	1082.50
665.28	1088.58
665.62	1083.67
665.96	1083.90
666.30	1081.09
666.64	1088.58
666.98	1090.92
667.32	1092.33
667.66	1097.48
668.01	1107.54
668.35	1100.99
668.69	1100.05
669.03	1108.71
669.37	1106.84
669.71	1097.95
670.05	1089.05
670.39	1093.97
670.73	1082.26
671.07	1077.35
671.41	1078.05
671.75	1096.78
672.09	1092.09
672.43	1091.16
672.77	1087.18
673.11	1083.20
673.45	1074.54
673.79	1075.94
674.13	1087.88
674.47	1095.37
674.81	1101.46
675.15	1107.78
675.49	1109.65
675.83	1098.65
676.17	1086.71
676.51	1082.03
676.85	1081.09
677.19	1082.26
677.53	1089.75
677.87	1096.78
678.21	1106.14
678.55	1098.18
678.89	1094.67
679.23	1093.03
679.57	1098.65
679.90	1093.50
680.24	1093.73
680.58	1089.05
680.92	1092.33
681.26	1082.97
681.60	1077.35
681.94	1078.52
682.28	1082.50
682.62	1074.54
682.96	1075.48
683.29	1077.35
683.63	1075.71
683.97	1077.35
684.31	1081.09
684.65	1083.90
684.99	1085.07
685.33	1084.84
685.67	1076.88
686.00	1082.03
686.34	1080.16
686.68	1078.28
687.02	1075.48
687.36	1077.11
687.70	1070.09
688.03	1072.90
688.37	1077.35
688.71	1079.22
689.05	1080.63
689.39	1084.60
689.72	1084.60
690.06	1081.33
690.40	1088.35
690.74	1086.24
691.08	1086.94
691.41	1085.77
691.75	1084.60
692.09	1080.39
692.43	1086.01
692.76	1083.20
693.10	1086.94
693.44	1101.92
693.78	1105.20
694.11	1108.24
694.45	1111.75
694.79	1107.54
695.13	1102.16
695.46	1097.48
695.80	1098.65
696.14	1103.56
696.48	1109.88
696.81	1099.58
697.15	1104.03
697.49	1104.73
697.82	1104.26
698.16	1095.37
698.50	1107.31
698.83	1102.86
699.17	1097.71
699.51	1093.50
699.84	1099.58
700.18	1093.73
700.52	1091.86
700.85	1094.43
701.19	1089.29
701.53	1087.18
701.86	1085.31
702.20	1087.41
702.54	1083.20
702.87	1088.82
703.21	1089.29
703.55	1089.52
703.88	1090.92
704.22	1088.35
704.55	1078.05
704.89	1089.05
705.23	1091.39
705.56	1096.31
705.90	1095.14
706.23	1099.35
706.57	1090.92
706.91	1086.24
707.24	1078.75
707.58	1085.77
707.91	1082.26
708.25	1074.31
708.58	1080.16
708.92	1087.88
709.26	1083.20
709.59	1080.39
709.93	1091.63
710.26	1082.73
710.60	1077.58
710.93	1078.52
711.27	1084.84
711.60	1075.71
711.94	1077.35
712.27	1071.97
712.61	1074.07
712.94	1088.58
713.28	1095.37
713.61	1096.07
713.95	1095.60
714.28	1087.88
714.62	1074.54
714.95	1078.28
715.29	1081.56
715.62	1090.92
715.96	1091.86
716.29	1090.69
716.63	1088.58
716.96	1087.41
717.29	1073.60
717.63	1081.33
717.96	1081.09
718.30	1075.48
718.63	1075.48
718.97	1078.99
719.30	1082.97
719.63	1083.90
719.97	1077.35
720.30	1076.88
720.64	1078.05
720.97	1067.28
721.30	1073.14
721.64	1076.41
721.97	1078.99
722.31	1082.97
722.64	1078.28
722.97	1072.20
723.31	1083.43
723.64	1078.99
723.97	1084.37
724.31	1086.24
724.64	1080.16
724.98	1060.50
725.31	1059.09
725.64	1055.11
725.98	1068.22
726.31	1077.58
726.64	1082.26
726.97	1089.99
727.31	1085.31
727.64	1068.69
727.97	1060.26
728.31	1076.41
728.64	1074.77
728.97	1075.01
729.31	1091.86
729.64	1106.84
729.97	1099.35
730.30	1090.22
730.64	1088.58
730.97	1087.41
731.30	1086.48
731.63	1072.43
731.97	1072.20
732.30	1074.54
732.63	1071.50
732.96	1064.01
733.30	1071.26
733.63	1077.58
733.96	1080.16
734.29	1071.73
734.63	1067.05
734.96	1076.41
735.29	1071.97
735.62	1064.94
735.95	1069.62
736.29	1071.26
736.62	1064.71
736.95	1066.11
737.28	1069.86
737.61	1077.82
737.94	1077.58
738.28	1085.77
738.61	1086.48
738.94	1084.60
739.27	1077.82
739.60	1079.69
739.93	1073.14
740.27	1074.07
740.60	1075.71
740.93	1085.54
741.26	1085.31
741.59	1089.99
741.92	1102.39
742.25	1104.73
742.58	1099.35
742.91	1106.61
743.25	1103.09
743.58	1093.26
743.91	1093.50
744.24	1083.43
744.57	1080.16
744.90	1077.35
745.23	1073.60
745.56	1066.11
745.89	1078.75
746.22	1070.80
746.55	1074.31
746.88	1073.37
747.21	1085.54
747.54	1082.26
747.87	1084.37
748.20	1086.01
748.53	1085.31
748.87	1087.65
749.20	1084.84
749.53	1090.69
749.86	1082.26
750.19	1091.16
750.52	1087.18
750.85	1077.11
751.18	1071.26
751.51	1071.73
751.84	1062.60
752.16	1061.20
752.49	1075.48
752.82	1074.07
753.15	1084.14
753.48	1083.67
753.81	1094.20
754.14	1092.56
754.47	1081.80
754.80	1075.94
755.13	1086.94
755.46	1069.62
755.79	1067.28
756.12	1078.99
756.45	1079.22
756.78	1070.80
757.11	1076.65
757.43	1076.88
757.76	1081.33
758.09	1085.31
758.42	1095.60
758.75	1089.52
759.08	1096.07
759.41	1094.20
759.74	1089.05
760.07	1075.71
760.39	1079.92
760.72	1083.67
761.05	1093.50
761.38	1097.01
761.71	1101.69
762.04	1111.29
762.36	1095.60
762.69	1092.09
763.02	1094.20
763.35	1093.97
763.68	1088.12
764.01	1094.67
