SpectraSuite Data File
++++++++++++++++++++++++++++++++++++
Date: Mon Aug 26 10:24:36 PDT 2019
User: corrico
Dark Spectrum Present: No
Reference Spectrum Present: No
Number of Sampled Component Spectra: 1
Spectrometers: USB2+H06089
Integration Time (usec): 10000 (USB2+H06089)
Spectra Averaged: 2 (USB2+H06089)
Boxcar Smoothing: 2 (USB2+H06089)
Correct for Electrical Dark: No (USB2+H06089)
Strobe/Lamp Enabled: No (USB2+H06089)
Correct for Detector Non-linearity: No (USB2+H06089)
Correct for Stray Light: No (USB2+H06089)
Number of Pixels in Processed Spectrum: 2048
>>>>>Begin Processed Spectral Data<<<<<
339.70	1035.69
340.07	1035.69
340.45	989.11
340.82	975.07
341.19	948.15
341.57	930.83
341.94	932.94
342.31	917.26
342.69	905.09
343.06	902.28
343.43	890.34
343.81	892.45
344.18	909.53
344.55	917.02
344.93	928.26
345.30	933.41
345.67	936.92
346.04	935.51
346.42	938.09
346.79	942.77
347.16	954.70
347.54	964.07
347.91	985.83
348.28	1003.39
348.65	1011.11
349.03	1024.92
349.40	1025.62
349.77	1029.13
350.14	1023.52
350.52	1024.22
350.89	1028.67
351.26	1049.03
351.63	1057.92
352.01	1067.75
352.38	1084.37
352.75	1088.58
353.12	1089.52
353.50	1090.92
353.87	1098.65
354.24	1101.22
354.61	1097.48
354.98	1101.46
355.36	1105.90
355.73	1101.46
356.10	1091.63
356.47	1090.46
356.84	1086.94
357.22	1078.05
357.59	1076.41
357.96	1086.71
358.33	1093.26
358.70	1085.54
359.08	1089.05
359.45	1092.33
359.82	1088.35
360.19	1094.67
360.56	1091.39
360.94	1099.12
361.31	1109.88
361.68	1107.07
362.05	1096.31
362.42	1101.22
362.79	1095.14
363.16	1080.86
363.54	1084.14
363.91	1084.14
364.28	1084.37
364.65	1086.01
365.02	1099.35
365.39	1099.58
365.76	1093.73
366.14	1103.56
366.51	1091.86
366.88	1089.29
367.25	1082.03
367.62	1092.33
367.99	1091.39
368.36	1101.69
368.73	1093.50
369.10	1099.12
369.48	1095.14
369.85	1087.41
370.22	1091.63
370.59	1097.95
370.96	1098.65
371.33	1109.88
371.70	1109.18
372.07	1101.46
372.44	1096.78
372.81	1097.01
373.18	1080.39
373.55	1075.24
373.93	1083.43
374.30	1087.41
374.67	1088.58
375.04	1092.56
375.41	1095.60
375.78	1085.77
376.15	1084.60
376.52	1084.60
376.89	1083.90
377.26	1078.52
377.63	1084.60
378.00	1090.69
378.37	1094.90
378.74	1105.67
379.11	1123.22
379.48	1120.18
379.85	1115.73
380.22	1118.07
380.59	1110.58
380.96	1102.16
381.33	1106.61
381.70	1106.37
382.07	1102.16
382.44	1099.58
382.81	1102.63
383.18	1097.71
383.55	1094.43
383.92	1092.33
384.29	1101.69
384.66	1106.14
385.03	1107.31
385.40	1113.39
385.77	1106.14
386.14	1110.58
386.51	1103.80
386.88	1103.80
387.25	1106.84
387.62	1118.31
387.99	1111.52
388.36	1110.58
388.73	1111.75
389.10	1115.97
389.46	1101.46
389.83	1105.90
390.20	1103.80
390.57	1107.54
390.94	1095.84
391.31	1120.41
391.68	1118.78
392.05	1131.88
392.42	1131.41
392.79	1138.20
393.16	1130.71
393.53	1123.69
393.89	1120.65
394.26	1126.73
394.63	1125.80
395.00	1117.37
395.37	1123.69
395.74	1120.65
396.11	1122.29
396.48	1118.07
396.84	1129.54
397.21	1132.35
397.58	1127.90
397.95	1124.16
398.32	1126.50
398.69	1113.39
399.06	1125.56
399.42	1132.35
399.79	1143.59
400.16	1147.10
400.53	1169.33
400.90	1168.86
401.27	1163.48
401.64	1154.35
402.00	1162.08
402.37	1159.03
402.74	1161.84
403.11	1179.86
403.48	1196.01
403.84	1207.01
404.21	1222.46
404.58	1227.61
404.95	1238.85
405.32	1254.29
405.68	1264.59
406.05	1275.83
406.42	1301.10
406.79	1318.66
407.16	1330.13
407.52	1350.26
407.89	1368.98
408.26	1385.83
408.63	1417.66
408.99	1451.37
409.36	1481.33
409.73	1518.54
410.10	1548.73
410.47	1583.14
410.83	1618.25
411.20	1665.53
411.57	1715.38
411.94	1764.30
412.30	1816.26
412.67	1890.22
413.04	1953.65
413.40	2027.84
413.77	2111.16
414.14	2195.66
414.51	2260.26
414.87	2364.64
415.24	2456.16
415.61	2558.91
415.97	2654.64
416.34	2770.49
416.71	2880.97
417.08	2994.48
417.44	3111.04
417.81	3270.66
418.18	3451.59
418.54	3624.55
418.91	3817.65
419.28	4040.70
419.64	4248.31
420.01	4467.38
420.38	4690.90
420.74	4920.98
421.11	5188.27
421.48	5460.47
421.84	5716.06
422.21	5994.35
422.58	6332.32
422.94	6631.44
423.31	6972.46
423.68	7369.88
424.04	7753.96
424.41	8135.23
424.77	8539.44
425.14	8932.65
425.51	9351.14
425.87	9861.85
426.24	10377.23
426.61	10972.67
426.97	11634.80
427.34	12276.58
427.70	12940.82
428.07	13596.41
428.44	14298.57
428.80	15004.24
429.17	15771.47
429.53	16539.63
429.90	17473.74
430.27	18199.07
430.63	19005.85
431.00	19874.19
431.36	20811.34
431.73	21597.76
432.09	22513.38
432.46	23443.98
432.83	24314.66
433.19	25093.35
433.56	26030.74
433.92	26970.70
434.29	27786.37
434.65	28651.67
435.02	29548.80
435.38	30365.17
435.75	31031.99
436.11	31970.31
436.48	32728.41
436.84	33444.62
437.21	34182.35
437.57	34987.26
437.94	35480.65
438.30	35981.29
438.67	36380.35
439.03	36514.70
439.40	36668.00
439.76	36552.15
440.13	36413.12
440.49	36369.12
440.86	36054.08
441.22	35670.23
441.59	35265.32
441.95	34857.83
442.32	34142.10
442.68	33675.86
443.05	33046.26
443.41	32451.06
443.78	31611.98
444.14	30866.98
444.51	29966.58
444.87	29355.70
445.24	28582.86
445.60	27974.55
445.96	27247.11
446.33	26650.74
446.69	25780.77
447.06	25100.84
447.42	24275.57
447.79	23508.11
448.15	22787.46
448.51	22120.87
448.88	21597.76
449.24	21028.08
449.61	20580.10
449.97	20060.03
450.33	19493.39
450.70	18805.27
451.06	18300.18
451.43	17748.52
451.79	17293.28
452.15	16939.39
452.52	16557.65
452.88	16222.25
453.24	15839.81
453.61	15426.47
453.97	14962.34
454.34	14537.77
454.70	14138.01
455.06	13772.18
455.43	13367.50
455.79	12914.37
456.15	12534.50
456.52	12062.42
456.88	11675.76
457.24	11302.92
457.61	11014.80
457.97	10663.95
458.33	10349.61
458.70	9986.60
459.06	9654.01
459.42	9358.40
459.79	9055.30
460.15	8755.94
460.51	8478.82
460.88	8189.07
461.24	7904.69
461.60	7694.28
461.96	7488.78
462.33	7265.02
462.69	7043.37
463.05	6830.39
463.42	6638.23
463.78	6415.64
464.14	6202.89
464.50	6060.35
464.87	5895.11
465.23	5713.72
465.59	5586.62
465.95	5467.73
466.32	5323.78
466.68	5198.33
467.04	5060.00
467.40	4942.98
467.77	4815.42
468.13	4695.82
468.49	4581.13
468.85	4481.19
469.22	4390.84
469.58	4307.05
469.94	4204.30
470.30	4106.94
470.66	4022.91
471.03	3917.12
471.39	3856.73
471.75	3801.03
472.11	3737.60
472.47	3670.66
472.84	3611.68
473.20	3524.61
473.56	3456.74
473.92	3379.50
474.28	3325.20
474.65	3260.13
475.01	3215.19
475.37	3175.64
475.73	3128.13
476.09	3064.46
476.45	3021.40
476.81	2956.80
477.18	2881.20
477.54	2826.43
477.90	2779.39
478.26	2730.94
478.62	2681.32
478.98	2649.95
479.34	2621.63
479.71	2596.82
480.07	2561.25
480.43	2538.55
480.79	2507.88
481.15	2480.03
481.51	2442.11
481.87	2404.43
482.23	2380.32
482.59	2345.68
482.96	2317.36
483.32	2285.07
483.68	2262.36
484.04	2225.15
484.40	2213.91
484.76	2180.91
485.12	2162.42
485.48	2126.14
485.84	2106.95
486.20	2061.08
486.56	2027.61
486.92	1980.80
487.28	1953.65
487.64	1926.49
488.00	1906.60
488.37	1898.64
488.73	1901.22
489.09	1889.75
489.45	1870.09
489.81	1850.90
490.17	1820.94
490.53	1792.62
490.89	1773.19
491.25	1755.87
491.61	1739.95
491.97	1723.57
492.33	1710.00
492.69	1699.46
493.05	1676.99
493.41	1653.82
493.77	1629.48
494.13	1624.80
494.49	1595.78
494.85	1580.10
495.21	1563.71
495.57	1557.16
495.93	1524.86
496.29	1521.35
496.64	1511.05
497.00	1498.41
497.36	1482.96
497.72	1481.09
498.08	1461.20
498.44	1456.05
498.80	1447.39
499.16	1430.07
499.52	1412.51
499.88	1405.73
500.24	1386.07
500.60	1377.87
500.96	1383.49
501.32	1379.51
501.68	1373.89
502.03	1367.11
502.39	1362.66
502.75	1352.36
503.11	1346.28
503.47	1337.62
503.83	1331.06
504.19	1327.55
504.55	1318.89
504.91	1305.55
505.26	1299.23
505.62	1294.08
505.98	1284.02
506.34	1285.66
506.70	1283.32
507.06	1275.59
507.42	1272.08
507.78	1272.08
508.13	1260.38
508.49	1254.76
508.85	1247.27
509.21	1242.82
509.57	1235.57
509.93	1230.42
510.28	1226.67
510.64	1222.23
511.00	1214.04
511.36	1204.67
511.72	1203.04
512.07	1205.61
512.43	1207.72
512.79	1209.59
513.15	1213.33
513.51	1207.25
513.86	1192.97
514.22	1179.16
514.58	1179.40
514.94	1178.93
515.30	1184.78
515.65	1182.20
516.01	1190.86
516.37	1181.50
516.73	1181.97
517.08	1171.91
517.44	1188.52
517.80	1186.89
518.16	1184.31
518.51	1186.18
518.87	1186.42
519.23	1167.69
519.59	1164.65
519.94	1160.67
520.30	1144.05
520.66	1149.91
521.01	1148.27
521.37	1149.91
521.73	1161.37
522.09	1162.31
522.44	1149.91
522.80	1150.37
523.16	1148.03
523.51	1131.65
523.87	1134.22
524.23	1135.63
524.58	1130.71
524.94	1125.80
525.30	1134.46
525.65	1137.27
526.01	1136.10
526.37	1135.63
526.72	1135.86
527.08	1127.44
527.44	1123.22
527.79	1128.84
528.15	1129.78
528.51	1125.56
528.86	1130.71
529.22	1135.16
529.58	1133.05
529.93	1137.27
530.29	1140.31
530.65	1140.07
531.00	1135.63
531.36	1133.52
531.71	1131.65
532.07	1140.78
532.43	1135.63
532.78	1129.31
533.14	1121.35
533.49	1125.80
533.85	1113.63
534.21	1113.86
534.56	1117.37
534.92	1124.39
535.27	1118.54
535.63	1118.07
535.98	1118.31
536.34	1120.18
536.69	1116.90
537.05	1108.24
537.41	1111.05
537.76	1121.58
538.12	1119.71
538.47	1121.58
538.83	1130.71
539.18	1129.31
539.54	1116.67
539.89	1115.03
540.25	1113.16
540.60	1111.29
540.96	1125.56
541.31	1136.33
541.67	1127.90
542.02	1130.71
542.38	1133.76
542.73	1122.29
543.09	1116.44
543.44	1127.20
543.80	1115.73
544.15	1107.54
544.51	1096.54
544.86	1101.92
545.22	1110.58
545.57	1124.16
545.93	1126.50
546.28	1141.25
546.64	1132.59
546.99	1124.86
547.35	1122.99
547.70	1122.75
548.05	1103.56
548.41	1111.99
548.76	1108.95
549.12	1103.56
549.47	1107.07
549.83	1120.18
550.18	1113.39
550.53	1109.88
550.89	1111.75
551.24	1109.41
551.60	1107.07
551.95	1100.99
552.30	1096.54
552.66	1087.41
553.01	1090.92
553.37	1087.18
553.72	1093.97
554.07	1103.56
554.43	1120.18
554.78	1108.71
555.13	1116.44
555.49	1112.69
555.84	1112.22
556.19	1102.16
556.55	1115.97
556.90	1107.78
557.26	1106.37
557.61	1088.58
557.96	1091.16
558.32	1092.09
558.67	1104.50
559.02	1108.48
559.37	1131.88
559.73	1129.07
560.08	1126.73
560.43	1120.18
560.79	1117.37
561.14	1109.88
561.49	1111.29
561.85	1105.90
562.20	1106.61
562.55	1102.39
562.90	1100.52
563.26	1096.78
563.61	1106.84
563.96	1101.92
564.32	1102.16
564.67	1097.48
565.02	1097.71
565.37	1092.56
565.73	1099.58
566.08	1104.50
566.43	1104.50
566.78	1111.75
567.14	1101.92
567.49	1083.90
567.84	1080.39
568.19	1082.50
568.54	1075.24
568.90	1079.92
569.25	1092.33
569.60	1091.16
569.95	1092.80
570.31	1094.43
570.66	1089.75
571.01	1086.71
571.36	1092.56
571.71	1092.09
572.06	1096.54
572.42	1101.46
572.77	1106.84
573.12	1104.50
573.47	1104.73
573.82	1108.48
574.18	1114.56
574.53	1114.56
574.88	1120.18
575.23	1115.50
575.58	1106.84
575.93	1098.65
576.28	1097.01
576.64	1101.69
576.99	1114.80
577.34	1115.73
577.69	1110.12
578.04	1111.99
578.39	1102.86
578.74	1088.35
579.09	1086.24
579.44	1094.43
579.80	1088.35
580.15	1081.56
580.50	1086.94
580.85	1090.22
581.20	1093.97
581.55	1092.56
581.90	1086.94
582.25	1083.20
582.60	1085.54
582.95	1078.05
583.30	1079.69
583.65	1088.35
584.00	1087.65
584.35	1083.67
584.71	1085.31
585.06	1088.35
585.41	1091.86
585.76	1089.75
586.11	1091.39
586.46	1091.16
586.81	1090.46
587.16	1093.97
587.51	1094.90
587.86	1090.22
588.21	1098.18
588.56	1097.95
588.91	1089.05
589.26	1095.14
589.61	1101.92
589.96	1095.14
590.31	1096.78
590.66	1098.65
591.01	1104.73
591.36	1101.69
591.71	1103.56
592.06	1095.84
592.41	1098.41
592.76	1103.56
593.10	1101.69
593.45	1107.07
593.80	1120.88
594.15	1117.84
594.50	1110.12
594.85	1113.86
595.20	1110.35
595.55	1105.90
595.90	1109.41
596.25	1115.50
596.60	1110.12
596.95	1113.63
597.30	1107.07
597.64	1149.44
597.99	1145.46
598.34	1147.80
598.69	1152.01
599.04	1151.78
599.39	1119.48
599.74	1119.01
600.09	1124.39
600.44	1111.99
600.78	1119.01
601.13	1112.69
601.48	1108.24
601.83	1100.05
602.18	1093.03
602.53	1088.58
602.88	1091.16
603.22	1095.84
603.57	1096.78
603.92	1105.20
604.27	1103.09
604.62	1097.01
604.97	1080.16
605.31	1084.14
605.66	1081.09
606.01	1082.50
606.36	1081.56
606.71	1085.54
607.05	1082.50
607.40	1083.20
607.75	1087.88
608.10	1089.05
608.44	1089.75
608.79	1088.58
609.14	1093.03
609.49	1086.71
609.84	1084.37
610.18	1089.29
610.53	1100.05
610.88	1094.43
611.23	1096.54
611.57	1097.24
611.92	1093.97
612.27	1090.92
612.62	1096.07
612.96	1098.18
613.31	1097.24
613.66	1096.78
614.00	1092.56
614.35	1086.94
614.70	1086.71
615.05	1089.05
615.39	1095.84
615.74	1092.09
616.09	1096.31
616.43	1102.16
616.78	1093.26
617.13	1096.78
617.47	1102.16
617.82	1109.65
618.17	1111.05
618.51	1109.65
618.86	1102.39
619.21	1095.60
619.55	1091.63
619.90	1082.73
620.25	1093.97
620.59	1101.46
620.94	1109.41
621.29	1109.41
621.63	1112.46
621.98	1113.16
622.32	1105.44
622.67	1096.31
623.02	1094.43
623.36	1086.01
623.71	1081.56
624.05	1077.35
624.40	1078.52
624.75	1063.77
625.09	1059.79
625.44	1056.99
625.78	1071.03
626.13	1078.28
626.48	1084.60
626.82	1097.48
627.17	1102.16
627.51	1083.67
627.86	1073.37
628.20	1087.41
628.55	1092.80
628.89	1092.80
629.24	1107.54
629.58	1116.90
629.93	1118.31
630.28	1102.86
630.62	1100.05
630.97	1089.29
631.31	1097.24
631.66	1094.67
632.00	1103.56
632.35	1105.90
632.69	1118.31
633.04	1112.92
633.38	1110.12
633.73	1104.50
634.07	1110.58
634.42	1098.41
634.76	1089.99
635.11	1096.78
635.45	1100.52
635.79	1100.29
636.14	1102.86
636.48	1112.92
636.83	1104.97
637.17	1104.73
637.52	1092.80
637.86	1085.77
638.21	1079.69
638.55	1074.54
638.89	1071.26
639.24	1084.60
639.58	1090.46
639.93	1091.39
640.27	1099.58
640.61	1107.31
640.96	1104.03
641.30	1114.10
641.65	1109.65
641.99	1095.14
642.33	1095.60
642.68	1104.97
643.02	1093.26
643.37	1107.31
643.71	1107.78
644.05	1112.46
644.40	1098.41
644.74	1102.16
645.08	1084.84
645.43	1096.31
645.77	1094.20
646.11	1092.09
646.46	1094.43
646.80	1100.05
647.14	1094.43
647.49	1079.22
647.83	1082.97
648.17	1086.48
648.52	1077.58
648.86	1081.80
649.20	1095.14
649.55	1095.60
649.89	1091.16
650.23	1106.14
650.57	1115.03
650.92	1108.24
651.26	1104.97
651.60	1100.99
651.95	1087.18
652.29	1071.50
652.63	1084.14
652.97	1090.46
653.32	1100.52
653.66	1104.73
654.00	1111.75
654.34	1099.58
654.69	1093.50
655.03	1088.58
655.37	1097.24
655.71	1089.52
656.05	1095.60
656.40	1100.52
656.74	1098.65
657.08	1091.39
657.42	1095.84
657.76	1089.29
658.11	1077.82
658.45	1068.92
658.79	1067.28
659.13	1069.16
659.47	1067.05
659.82	1075.01
660.16	1079.92
660.50	1080.63
660.84	1089.75
661.18	1089.05
661.52	1089.52
661.87	1089.52
662.21	1089.52
662.55	1074.54
662.89	1089.52
663.23	1081.56
663.57	1089.05
663.91	1088.35
664.25	1092.56
664.60	1083.20
664.94	1088.12
665.28	1080.63
665.62	1078.99
665.96	1071.26
666.30	1072.90
666.64	1067.52
666.98	1071.73
667.32	1067.28
667.66	1062.37
668.01	1055.82
668.35	1071.97
668.69	1065.18
669.03	1075.94
669.37	1086.71
669.71	1090.46
670.05	1076.65
670.39	1073.14
670.73	1073.37
671.07	1081.56
671.41	1088.58
671.75	1096.31
672.09	1096.78
672.43	1088.12
672.77	1074.07
673.11	1072.67
673.45	1068.22
673.79	1076.41
674.13	1092.56
674.47	1096.07
674.81	1086.48
675.15	1091.63
675.49	1084.14
675.83	1068.22
676.17	1079.46
676.51	1087.65
676.85	1085.07
677.19	1099.35
677.53	1117.14
677.87	1110.58
678.21	1110.58
678.55	1107.31
678.89	1102.16
679.23	1093.73
679.57	1094.20
679.90	1091.63
680.24	1090.69
680.58	1092.33
680.92	1092.80
681.26	1089.99
681.60	1083.20
681.94	1089.05
682.28	1089.99
682.62	1096.78
682.96	1099.58
683.29	1101.92
683.63	1097.01
683.97	1090.22
684.31	1077.35
684.65	1083.90
684.99	1090.22
685.33	1099.35
685.67	1097.95
686.00	1097.71
686.34	1093.26
686.68	1082.97
687.02	1085.77
687.36	1095.14
687.70	1094.43
688.03	1092.33
688.37	1093.03
688.71	1079.22
689.05	1068.22
689.39	1072.43
689.72	1070.33
690.06	1084.60
690.40	1087.41
690.74	1092.09
691.08	1087.88
691.41	1094.67
691.75	1083.90
692.09	1078.52
692.43	1076.65
692.76	1083.43
693.10	1090.92
693.44	1097.48
693.78	1099.58
694.11	1106.37
694.45	1108.71
694.79	1102.39
695.13	1092.56
695.46	1100.99
695.80	1098.41
696.14	1091.39
696.48	1081.80
696.81	1082.03
697.15	1079.92
697.49	1073.37
697.82	1079.22
698.16	1084.14
698.50	1087.18
698.83	1087.65
699.17	1099.35
699.51	1095.60
699.84	1101.46
700.18	1113.86
700.52	1106.84
700.85	1094.90
701.19	1090.22
701.53	1073.37
701.86	1062.60
702.20	1062.60
702.54	1083.20
702.87	1087.88
703.21	1087.41
703.55	1088.82
703.88	1092.33
704.22	1080.86
704.55	1077.11
704.89	1083.43
705.23	1079.69
705.56	1087.88
705.90	1083.67
706.23	1095.60
706.57	1096.78
706.91	1108.48
707.24	1094.67
707.58	1093.03
707.91	1089.05
708.25	1089.29
708.58	1073.14
708.92	1081.09
709.26	1093.03
709.59	1096.54
709.93	1097.48
710.26	1103.33
710.60	1104.03
710.93	1087.41
711.27	1072.90
711.60	1073.37
711.94	1070.33
712.27	1067.75
712.61	1078.52
712.94	1085.31
713.28	1074.31
713.61	1084.14
713.95	1080.63
714.28	1075.48
714.62	1076.41
714.95	1089.75
715.29	1084.37
715.62	1089.75
715.96	1088.82
716.29	1088.12
716.63	1093.97
716.96	1102.39
717.29	1103.33
717.63	1097.48
717.96	1096.78
718.30	1090.22
718.63	1082.03
718.97	1083.43
719.30	1086.48
719.63	1087.88
719.97	1086.01
720.30	1091.39
720.64	1083.67
720.97	1092.80
721.30	1086.01
721.64	1090.92
721.97	1094.67
722.31	1098.88
722.64	1095.84
722.97	1100.05
723.31	1094.67
723.64	1085.77
723.97	1081.56
724.31	1076.65
724.64	1078.52
724.98	1089.75
725.31	1095.84
725.64	1102.39
725.98	1104.97
726.31	1100.75
726.64	1092.33
726.97	1083.67
727.31	1069.86
727.64	1063.54
727.97	1064.94
728.31	1055.82
728.64	1056.99
728.97	1063.31
729.31	1073.60
729.64	1073.84
729.97	1083.67
730.30	1088.12
730.64	1088.58
730.97	1092.56
731.30	1086.94
731.63	1086.01
731.97	1079.22
732.30	1070.33
732.63	1069.16
732.96	1066.35
733.30	1063.54
733.63	1072.20
733.96	1093.73
734.29	1089.29
734.63	1095.60
734.96	1086.48
735.29	1071.03
735.62	1060.73
735.95	1074.54
736.29	1076.88
736.62	1082.73
736.95	1090.46
737.28	1088.58
737.61	1076.65
737.94	1073.14
738.28	1067.75
738.61	1070.09
738.94	1079.22
739.27	1074.77
739.60	1066.82
739.93	1078.75
740.27	1083.90
740.60	1076.18
740.93	1076.18
741.26	1089.75
741.59	1086.24
741.92	1079.69
742.25	1087.88
742.58	1102.16
742.91	1093.97
743.25	1099.82
743.58	1088.12
743.91	1092.33
744.24	1090.92
744.57	1105.90
744.90	1097.01
745.23	1101.46
745.56	1090.69
745.89	1080.39
746.22	1069.62
746.55	1074.07
746.88	1073.37
747.21	1077.11
747.54	1081.80
747.87	1089.99
748.20	1097.48
748.53	1102.63
748.87	1092.80
749.20	1087.88
749.53	1084.37
749.86	1082.26
750.19	1083.67
750.52	1088.35
750.85	1090.22
751.18	1086.94
751.51	1079.69
751.84	1084.14
752.16	1087.88
752.49	1087.41
752.82	1086.71
753.15	1086.01
753.48	1075.24
753.81	1071.03
754.14	1067.28
754.47	1065.65
754.80	1069.86
755.13	1075.01
755.46	1081.33
755.79	1087.88
756.12	1101.92
756.45	1097.01
756.78	1097.24
757.11	1087.65
757.43	1086.24
757.76	1074.31
758.09	1082.97
758.42	1077.82
758.75	1077.11
759.08	1072.67
759.41	1068.45
759.74	1066.11
760.07	1074.31
760.39	1080.86
760.72	1083.67
761.05	1086.24
761.38	1089.99
761.71	1096.78
762.04	1105.90
762.36	1104.50
762.69	1109.41
763.02	1104.73
763.35	1098.41
763.68	1078.05
764.01	1086.24
764.33	1084.84
