SpectraSuite Data File
++++++++++++++++++++++++++++++++++++
Date: Mon Aug 26 10:24:35 PDT 2019
User: corrico
Dark Spectrum Present: No
Reference Spectrum Present: No
Number of Sampled Component Spectra: 1
Spectrometers: USB2+H06089
Integration Time (usec): 10000 (USB2+H06089)
Spectra Averaged: 2 (USB2+H06089)
Boxcar Smoothing: 2 (USB2+H06089)
Correct for Electrical Dark: No (USB2+H06089)
Strobe/Lamp Enabled: No (USB2+H06089)
Correct for Detector Non-linearity: No (USB2+H06089)
Correct for Stray Light: No (USB2+H06089)
Number of Pixels in Processed Spectrum: 2048
>>>>>Begin Processed Spectral Data<<<<<
339.70	1021.64
340.07	1021.64
340.45	997.30
340.82	981.62
341.19	960.56
341.57	940.43
341.94	929.66
342.31	912.81
342.69	904.38
343.06	899.47
343.43	890.57
343.81	889.64
344.18	895.96
344.55	891.28
344.93	898.53
345.30	906.02
345.67	911.64
346.04	915.38
346.42	924.75
346.79	930.13
347.16	938.79
347.54	952.60
347.91	973.19
348.28	998.71
348.65	1019.54
349.03	1039.90
349.40	1052.77
349.77	1058.86
350.14	1046.22
350.52	1039.67
350.89	1037.56
351.26	1035.92
351.63	1039.43
352.01	1057.22
352.38	1071.73
352.75	1074.54
353.12	1091.86
353.50	1092.56
353.87	1097.48
354.24	1087.88
354.61	1100.52
354.98	1088.58
355.36	1091.86
355.73	1085.77
356.10	1087.65
356.47	1080.16
356.84	1074.54
357.22	1078.28
357.59	1092.09
357.96	1102.39
358.33	1108.71
358.70	1105.44
359.08	1100.05
359.45	1080.86
359.82	1077.35
360.19	1070.09
360.56	1072.43
360.94	1076.18
361.31	1098.41
361.68	1101.69
362.05	1101.69
362.42	1104.26
362.79	1114.33
363.16	1103.56
363.54	1094.43
363.91	1097.01
364.28	1104.97
364.65	1095.84
365.02	1093.26
365.39	1094.20
365.76	1089.99
366.14	1094.43
366.51	1085.07
366.88	1081.80
367.25	1077.58
367.62	1078.99
367.99	1069.86
368.36	1081.80
368.73	1085.07
369.10	1097.01
369.48	1098.88
369.85	1102.39
370.22	1103.09
370.59	1104.97
370.96	1096.07
371.33	1099.12
371.70	1091.63
372.07	1082.73
372.44	1080.63
372.81	1089.29
373.18	1088.12
373.55	1090.22
373.93	1096.07
374.30	1097.24
374.67	1096.78
375.04	1095.37
375.41	1106.37
375.78	1102.39
376.15	1105.20
376.52	1103.56
376.89	1107.07
377.26	1089.52
377.63	1092.33
378.00	1083.67
378.37	1076.88
378.74	1072.90
379.11	1080.63
379.48	1077.11
379.85	1085.07
380.22	1094.67
380.59	1082.73
380.96	1079.69
381.33	1075.01
381.70	1070.56
382.07	1061.43
382.44	1065.18
382.81	1066.82
383.18	1068.92
383.55	1062.14
383.92	1071.73
384.29	1068.69
384.66	1074.31
385.03	1070.80
385.40	1083.90
385.77	1086.71
386.14	1104.03
386.51	1104.26
386.88	1115.27
387.25	1115.50
387.62	1114.80
387.99	1118.54
388.36	1112.69
388.73	1108.24
389.10	1100.99
389.46	1099.82
389.83	1094.90
390.20	1111.05
390.57	1117.84
390.94	1133.29
391.31	1135.63
391.68	1139.14
392.05	1131.65
392.42	1131.65
392.79	1116.67
393.16	1105.90
393.53	1094.90
393.89	1084.14
394.26	1089.29
394.63	1102.39
395.00	1113.39
395.37	1124.16
395.74	1142.42
396.11	1138.44
396.48	1136.10
396.84	1129.54
397.21	1128.61
397.58	1121.12
397.95	1126.50
398.32	1133.05
398.69	1139.61
399.06	1148.27
399.42	1150.37
399.79	1142.65
400.16	1140.07
400.53	1153.42
400.90	1155.52
401.27	1161.61
401.64	1176.82
402.00	1184.55
402.37	1179.40
402.74	1176.82
403.11	1195.55
403.48	1204.91
403.84	1216.84
404.21	1221.76
404.58	1243.76
404.95	1244.46
405.32	1249.14
405.68	1253.12
406.05	1276.53
406.42	1286.12
406.79	1307.42
407.16	1321.00
407.52	1338.55
407.89	1352.13
408.26	1365.70
408.63	1378.58
408.99	1404.79
409.36	1435.92
409.73	1469.62
410.10	1516.43
410.47	1552.48
410.83	1606.08
411.20	1644.23
411.57	1689.40
411.94	1731.76
412.30	1793.79
412.67	1842.70
413.04	1900.75
413.40	1965.11
413.77	2029.24
414.14	2094.78
414.51	2154.46
414.87	2232.64
415.24	2316.19
415.61	2407.94
415.97	2496.18
416.34	2601.74
416.71	2711.74
417.08	2829.71
417.44	2933.16
417.81	3082.72
418.18	3221.75
418.54	3372.71
418.91	3536.78
419.28	3728.01
419.64	3898.86
420.01	4098.04
420.38	4299.80
420.74	4510.21
421.11	4760.18
421.48	5019.04
421.84	5292.65
422.21	5557.13
422.58	5868.66
422.94	6154.44
423.31	6444.43
423.68	6755.02
424.04	7107.27
424.41	7421.84
424.77	7768.00
425.14	8159.34
425.51	8553.02
425.87	8977.59
426.24	9433.76
426.61	9948.92
426.97	10536.86
427.34	11091.80
427.70	11715.08
428.07	12303.73
428.44	12942.46
428.80	13564.11
429.17	14264.16
429.53	14918.34
429.90	15712.72
430.27	16397.56
430.63	17045.89
431.00	17730.03
431.36	18515.28
431.73	19188.18
432.09	19906.72
432.46	20805.49
432.83	21648.79
433.19	22407.59
433.56	23367.91
433.92	24293.59
434.29	24970.94
434.65	25743.79
435.02	26498.14
435.38	27154.90
435.75	27648.28
436.11	28462.08
436.48	29104.09
436.84	29780.27
437.21	30312.04
437.57	30812.22
437.94	31136.15
438.30	31399.22
438.67	31500.33
439.03	31590.68
439.40	31806.48
439.76	31753.81
440.13	31711.68
440.49	31731.81
440.86	31495.18
441.22	31234.45
441.59	30787.64
441.95	30363.30
442.32	29706.08
442.68	29231.89
443.05	28583.79
443.41	27999.83
443.78	27266.07
444.14	26633.42
444.51	25826.41
444.87	25211.08
445.24	24580.54
445.60	23977.85
445.96	23253.69
446.33	22680.26
446.69	21976.46
447.06	21378.69
447.42	20784.43
447.79	20233.70
448.15	19718.08
448.51	19175.54
448.88	18689.41
449.24	18156.47
449.61	17763.73
449.97	17272.92
450.33	16841.56
450.70	16320.09
451.06	15895.75
451.43	15313.19
451.79	14885.34
452.15	14511.09
452.52	14165.62
452.88	13856.21
453.24	13637.13
453.61	13374.76
453.97	12966.10
454.34	12574.06
454.70	12245.68
455.06	11894.60
455.43	11474.48
455.79	11121.52
456.15	10819.36
456.52	10469.68
456.88	10160.27
457.24	9834.23
457.61	9611.88
457.97	9322.82
458.33	8978.53
458.70	8659.75
459.06	8365.78
459.42	8088.19
459.79	7823.47
460.15	7601.59
460.51	7376.20
460.88	7192.00
461.24	6929.86
461.60	6748.70
461.96	6560.99
462.33	6362.28
462.69	6156.08
463.05	6004.88
463.42	5846.19
463.78	5675.57
464.14	5533.49
464.50	5412.96
464.87	5255.67
465.23	5097.45
465.59	4982.53
465.95	4856.85
466.32	4717.35
466.68	4612.73
467.04	4494.53
467.40	4367.67
467.77	4288.33
468.13	4213.90
468.49	4139.47
468.85	4084.23
469.22	4039.06
469.58	3931.16
469.94	3849.25
470.30	3785.82
470.66	3722.62
471.03	3629.23
471.39	3580.79
471.75	3507.06
472.11	3432.63
472.47	3363.82
472.84	3328.24
473.20	3262.94
473.56	3201.38
473.92	3137.96
474.28	3086.23
474.65	3013.67
475.01	2970.37
475.37	2926.14
475.73	2881.43
476.09	2822.22
476.45	2772.60
476.81	2722.51
477.18	2683.89
477.54	2635.21
477.90	2604.55
478.26	2562.18
478.62	2524.74
478.98	2479.10
479.34	2450.77
479.71	2409.82
480.07	2379.15
480.43	2342.88
480.79	2330.00
481.15	2300.51
481.51	2275.70
481.87	2253.00
482.23	2224.21
482.59	2188.17
482.96	2156.34
483.32	2133.87
483.68	2099.46
484.04	2076.29
484.40	2064.35
484.76	2041.88
485.12	2009.35
485.48	1996.95
485.84	1978.45
486.20	1940.07
486.56	1911.05
486.92	1903.32
487.28	1878.98
487.64	1861.66
488.00	1857.22
488.37	1852.30
488.73	1824.21
489.09	1810.40
489.45	1780.68
489.81	1769.91
490.17	1747.68
490.53	1730.36
490.89	1709.06
491.25	1718.19
491.61	1686.59
491.97	1668.80
492.33	1660.84
492.69	1653.35
493.05	1614.74
493.41	1595.08
493.77	1573.31
494.13	1552.71
494.49	1539.60
494.85	1543.12
495.21	1533.52
495.57	1524.16
495.93	1514.09
496.29	1494.90
496.64	1480.39
497.00	1467.05
497.36	1455.81
497.72	1442.47
498.08	1426.56
498.44	1408.30
498.80	1397.77
499.16	1386.30
499.52	1367.11
499.88	1366.17
500.24	1355.17
500.60	1356.34
500.96	1363.36
501.32	1354.94
501.68	1345.11
502.03	1343.23
502.39	1335.98
502.75	1317.49
503.11	1317.72
503.47	1318.89
503.83	1303.68
504.19	1290.81
504.55	1293.85
504.91	1304.85
505.26	1288.23
505.62	1289.17
505.98	1276.76
506.34	1262.72
506.70	1241.89
507.06	1244.70
507.42	1247.04
507.78	1258.97
508.13	1259.91
508.49	1260.85
508.85	1259.91
509.21	1250.31
509.57	1244.70
509.93	1232.53
510.28	1222.23
510.64	1221.76
511.00	1214.97
511.36	1200.46
511.72	1202.57
512.07	1195.08
512.43	1178.46
512.79	1178.93
513.15	1177.06
513.51	1177.76
513.86	1193.44
514.22	1201.63
514.58	1193.44
514.94	1199.52
515.30	1197.65
515.65	1191.10
516.01	1186.65
516.37	1181.97
516.73	1169.10
517.08	1167.93
517.44	1156.69
517.80	1152.25
518.16	1153.65
518.51	1161.61
518.87	1154.59
519.23	1166.05
519.59	1168.40
519.94	1173.08
520.30	1166.99
520.66	1164.88
521.01	1160.20
521.37	1166.52
521.73	1162.31
522.09	1152.95
522.44	1155.99
522.80	1152.25
523.16	1138.67
523.51	1142.88
523.87	1143.12
524.23	1139.14
524.58	1122.29
524.94	1131.18
525.30	1123.69
525.65	1133.52
526.01	1133.29
526.37	1150.14
526.72	1138.90
527.08	1139.84
527.44	1135.16
527.79	1132.59
528.15	1118.54
528.51	1125.56
528.86	1127.90
529.22	1128.37
529.58	1119.95
529.93	1126.50
530.29	1117.14
530.65	1113.39
531.00	1113.86
531.36	1130.71
531.71	1128.14
532.07	1132.59
532.43	1128.14
532.78	1126.50
533.14	1118.31
533.49	1112.92
533.85	1115.27
534.21	1119.48
534.56	1111.05
534.92	1112.92
535.27	1116.44
535.63	1100.75
535.98	1092.09
536.34	1093.26
536.69	1085.54
537.05	1096.78
537.41	1109.88
537.76	1122.05
538.12	1127.90
538.47	1137.27
538.83	1130.24
539.18	1124.39
539.54	1115.97
539.89	1108.71
540.25	1111.05
540.60	1116.44
540.96	1121.12
541.31	1134.93
541.67	1139.84
542.02	1122.52
542.38	1113.16
542.73	1117.37
543.09	1107.31
543.44	1106.61
543.80	1118.07
544.15	1119.71
544.51	1117.84
544.86	1113.86
545.22	1108.01
545.57	1104.26
545.93	1109.18
546.28	1103.33
546.64	1095.14
546.99	1098.88
547.35	1105.44
547.70	1095.14
548.05	1095.84
548.41	1115.73
548.76	1119.95
549.12	1107.54
549.47	1127.44
549.83	1119.95
550.18	1108.48
550.53	1118.07
550.89	1116.90
551.24	1108.71
551.60	1118.54
551.95	1119.48
552.30	1110.82
552.66	1117.14
553.01	1106.84
553.37	1107.78
553.72	1114.56
554.07	1115.03
554.43	1114.56
554.78	1113.39
555.13	1110.82
555.49	1091.39
555.84	1089.52
556.19	1081.33
556.55	1083.43
556.90	1076.41
557.26	1086.48
557.61	1090.92
557.96	1089.99
558.32	1085.54
558.67	1086.24
559.02	1095.60
559.37	1084.60
559.73	1089.29
560.08	1091.39
560.43	1098.18
560.79	1098.88
561.14	1100.52
561.49	1098.88
561.85	1104.03
562.20	1095.37
562.55	1088.58
562.90	1093.50
563.26	1091.16
563.61	1089.05
563.96	1092.33
564.32	1089.75
564.67	1088.35
565.02	1096.78
565.37	1101.69
565.73	1102.39
566.08	1092.56
566.43	1088.82
566.78	1085.07
567.14	1081.33
567.49	1086.01
567.84	1101.46
568.19	1100.75
568.54	1110.35
568.90	1107.07
569.25	1098.88
569.60	1093.97
569.95	1101.92
570.31	1097.71
570.66	1099.35
571.01	1108.48
571.36	1114.80
571.71	1111.75
572.06	1111.05
572.42	1113.63
572.77	1109.41
573.12	1101.22
573.47	1097.71
573.82	1100.29
574.18	1094.67
574.53	1090.69
574.88	1090.92
575.23	1095.60
575.58	1090.69
575.93	1098.65
576.28	1102.39
576.64	1110.35
576.99	1107.78
577.34	1103.33
577.69	1099.58
578.04	1100.99
578.39	1091.63
578.74	1093.03
579.09	1099.12
579.44	1096.54
579.80	1092.80
580.15	1101.92
580.50	1092.80
580.85	1096.31
581.20	1104.26
581.55	1112.22
581.90	1101.46
582.25	1106.37
582.60	1093.03
582.95	1081.33
583.30	1077.82
583.65	1081.33
584.00	1078.75
584.35	1087.88
584.71	1099.82
585.06	1099.12
585.41	1091.86
585.76	1093.03
586.11	1090.22
586.46	1082.50
586.81	1082.97
587.16	1076.88
587.51	1076.65
587.86	1084.60
588.21	1091.16
588.56	1092.80
588.91	1101.92
589.26	1121.12
589.61	1121.58
589.96	1115.73
590.31	1113.63
590.66	1123.22
591.01	1101.46
591.36	1086.01
591.71	1085.07
592.06	1086.71
592.41	1081.33
592.76	1092.56
593.10	1103.09
593.45	1105.20
593.80	1091.16
594.15	1090.92
594.50	1084.14
594.85	1085.77
595.20	1092.56
595.55	1100.99
595.90	1097.48
596.25	1100.29
596.60	1104.03
596.95	1101.22
597.30	1107.31
597.64	1159.74
597.99	1165.59
598.34	1152.01
598.69	1146.63
599.04	1133.99
599.39	1088.82
599.74	1080.39
600.09	1082.73
600.44	1087.18
600.78	1092.80
601.13	1088.58
601.48	1098.41
601.83	1099.82
602.18	1108.24
602.53	1111.05
602.88	1117.37
603.22	1109.41
603.57	1121.58
603.92	1112.22
604.27	1111.29
604.62	1106.61
604.97	1097.48
605.31	1091.86
605.66	1086.94
606.01	1084.84
606.36	1087.18
606.71	1089.05
607.05	1090.92
607.40	1084.84
607.75	1085.54
608.10	1078.75
608.44	1085.77
608.79	1070.33
609.14	1075.94
609.49	1082.03
609.84	1082.50
610.18	1088.82
610.53	1100.05
610.88	1111.52
611.23	1120.88
611.57	1124.16
611.92	1125.10
612.27	1131.41
612.62	1122.99
612.96	1106.14
613.31	1111.29
613.66	1106.14
614.00	1104.73
614.35	1101.22
614.70	1093.97
615.05	1078.52
615.39	1078.05
615.74	1067.05
616.09	1064.71
616.43	1073.37
616.78	1084.60
617.13	1079.69
617.47	1092.33
617.82	1100.52
618.17	1105.90
618.51	1108.01
618.86	1110.58
619.21	1104.73
619.55	1099.58
619.90	1093.03
620.25	1088.58
620.59	1091.39
620.94	1087.41
621.29	1091.86
621.63	1098.18
621.98	1099.12
622.32	1085.77
622.67	1092.33
623.02	1083.43
623.36	1079.92
623.71	1085.31
624.05	1097.24
624.40	1096.31
624.75	1104.50
625.09	1103.56
625.44	1102.39
625.78	1103.09
626.13	1094.67
626.48	1088.12
626.82	1085.07
627.17	1082.50
627.51	1081.33
627.86	1079.92
628.20	1087.65
628.55	1099.58
628.89	1111.99
629.24	1115.50
629.58	1129.07
629.93	1125.10
630.28	1120.18
630.62	1090.92
630.97	1089.29
631.31	1084.37
631.66	1083.90
632.00	1083.43
632.35	1095.37
632.69	1088.58
633.04	1091.39
633.38	1086.94
633.73	1083.20
634.07	1077.58
634.42	1087.18
634.76	1078.05
635.11	1081.80
635.45	1076.88
635.79	1075.48
636.14	1075.48
636.48	1072.43
636.83	1074.77
637.17	1074.31
637.52	1086.71
637.86	1075.94
638.21	1085.07
638.55	1082.26
638.89	1094.20
639.24	1098.18
639.58	1105.20
639.93	1100.75
640.27	1100.99
640.61	1091.39
640.96	1086.01
641.30	1081.09
641.65	1083.67
641.99	1091.63
642.33	1094.90
642.68	1085.07
643.02	1086.71
643.37	1097.71
643.71	1090.92
644.05	1093.26
644.40	1102.16
644.74	1096.54
645.08	1084.14
645.43	1086.01
645.77	1085.31
646.11	1078.28
646.46	1088.35
646.80	1090.46
647.14	1093.50
647.49	1100.29
647.83	1114.33
648.17	1111.29
648.52	1116.90
648.86	1122.52
649.20	1119.01
649.55	1108.01
649.89	1112.69
650.23	1108.24
650.57	1094.90
650.92	1082.73
651.26	1086.71
651.60	1080.16
651.95	1081.56
652.29	1090.69
652.63	1095.84
652.97	1094.20
653.32	1099.58
653.66	1088.82
654.00	1078.05
654.34	1083.43
654.69	1082.97
655.03	1079.92
655.37	1081.33
655.71	1092.56
656.05	1085.31
656.40	1091.16
656.74	1086.24
657.08	1091.63
657.42	1086.01
657.76	1094.67
658.11	1083.90
658.45	1089.29
658.79	1087.18
659.13	1077.82
659.47	1070.09
659.82	1075.24
660.16	1073.14
660.50	1078.75
660.84	1091.16
661.18	1099.58
661.52	1102.63
661.87	1104.97
662.21	1102.16
662.55	1098.88
662.89	1098.88
663.23	1098.41
663.57	1097.95
663.91	1103.80
664.25	1104.97
664.60	1082.97
664.94	1070.56
665.28	1070.56
665.62	1064.24
665.96	1055.82
666.30	1074.07
666.64	1086.71
666.98	1085.31
667.32	1085.54
667.66	1093.73
668.01	1097.24
668.35	1098.65
668.69	1107.31
669.03	1108.95
669.37	1106.84
669.71	1097.95
670.05	1092.56
670.39	1087.65
670.73	1078.28
671.07	1074.07
671.41	1077.11
671.75	1072.43
672.09	1067.99
672.43	1084.37
672.77	1090.92
673.11	1097.95
673.45	1101.92
673.79	1109.18
674.13	1097.95
674.47	1092.80
674.81	1079.92
675.15	1081.80
675.49	1066.82
675.83	1065.88
676.17	1062.14
676.51	1068.69
676.85	1069.16
677.19	1076.41
677.53	1083.43
677.87	1086.94
678.21	1097.95
678.55	1105.67
678.89	1100.05
679.23	1087.41
679.57	1092.80
679.90	1077.82
680.24	1075.24
680.58	1085.31
680.92	1092.56
681.26	1092.09
681.60	1100.52
681.94	1104.97
682.28	1104.03
682.62	1099.82
682.96	1096.07
683.29	1090.22
683.63	1076.88
683.97	1063.54
684.31	1068.69
684.65	1070.33
684.99	1074.54
685.33	1085.31
685.67	1105.20
686.00	1109.41
686.34	1110.12
686.68	1114.56
687.02	1098.65
687.36	1091.16
687.70	1087.88
688.03	1089.99
688.37	1083.90
688.71	1080.86
689.05	1085.31
689.39	1075.94
689.72	1069.86
690.06	1074.07
690.40	1078.52
690.74	1071.03
691.08	1085.31
691.41	1084.60
691.75	1077.35
692.09	1087.88
692.43	1091.39
692.76	1075.94
693.10	1073.14
693.44	1060.50
693.78	1065.41
694.11	1066.11
694.45	1074.54
694.79	1082.50
695.13	1101.92
695.46	1097.01
695.80	1093.26
696.14	1091.86
696.48	1083.43
696.81	1077.35
697.15	1075.71
697.49	1078.28
697.82	1080.16
698.16	1085.07
698.50	1086.01
698.83	1084.84
699.17	1085.07
699.51	1088.12
699.84	1092.56
700.18	1086.94
700.52	1094.20
700.85	1097.71
701.19	1096.07
701.53	1090.92
701.86	1103.80
702.20	1092.33
702.54	1090.92
702.87	1088.35
703.21	1092.09
703.55	1076.88
703.88	1075.94
704.22	1075.71
704.55	1074.77
704.89	1078.05
705.23	1078.75
705.56	1078.75
705.90	1085.54
706.23	1093.26
706.57	1089.99
706.91	1101.46
707.24	1104.26
707.58	1090.46
707.91	1086.48
708.25	1083.67
708.58	1079.22
708.92	1088.82
709.26	1094.20
709.59	1086.48
709.93	1080.86
710.26	1089.29
710.60	1079.46
710.93	1072.90
711.27	1075.94
711.60	1082.73
711.94	1073.84
712.27	1077.82
712.61	1082.50
712.94	1083.67
713.28	1076.41
713.61	1075.94
713.95	1069.39
714.28	1067.99
714.62	1073.37
714.95	1085.31
715.29	1083.90
715.62	1089.29
715.96	1092.80
716.29	1089.99
716.63	1084.14
716.96	1073.84
717.29	1071.26
717.63	1065.88
717.96	1074.31
718.30	1069.16
718.63	1084.60
718.97	1084.60
719.30	1087.18
719.63	1071.73
719.97	1074.54
720.30	1073.14
720.64	1074.77
720.97	1065.18
721.30	1082.97
721.64	1096.54
721.97	1094.20
722.31	1105.90
722.64	1114.56
722.97	1098.65
723.31	1095.84
723.64	1102.39
723.97	1097.95
724.31	1095.84
724.64	1106.37
724.98	1094.90
725.31	1086.48
725.64	1078.28
725.98	1076.18
726.31	1063.07
726.64	1072.90
726.97	1083.90
727.31	1085.31
727.64	1096.31
727.97	1105.20
728.31	1092.09
728.64	1080.86
728.97	1075.71
729.31	1069.39
729.64	1066.35
729.97	1071.97
730.30	1073.37
730.64	1078.05
730.97	1076.88
731.30	1090.22
731.63	1099.82
731.97	1093.97
732.30	1095.84
732.63	1104.03
732.96	1096.07
733.30	1085.77
733.63	1093.26
733.96	1090.22
734.29	1080.39
734.63	1078.28
734.96	1072.90
735.29	1074.54
735.62	1078.99
735.95	1082.50
736.29	1076.88
736.62	1083.90
736.95	1083.67
737.28	1081.09
737.61	1082.03
737.94	1070.33
738.28	1071.03
738.61	1066.82
738.94	1074.31
739.27	1058.86
739.60	1070.09
739.93	1070.33
740.27	1064.01
740.60	1046.69
740.93	1068.22
741.26	1061.90
741.59	1052.77
741.92	1046.45
742.25	1058.86
742.58	1061.43
742.91	1077.58
743.25	1088.58
743.58	1104.97
743.91	1099.35
744.24	1085.77
744.57	1082.26
744.90	1079.92
745.23	1079.46
745.56	1081.80
745.89	1089.75
746.22	1086.01
746.55	1083.90
746.88	1088.12
747.21	1093.73
747.54	1094.43
747.87	1094.43
748.20	1092.09
748.53	1075.01
748.87	1063.07
749.20	1061.43
749.53	1072.43
749.86	1073.14
750.19	1086.48
750.52	1097.24
750.85	1099.58
751.18	1090.22
751.51	1093.73
751.84	1085.31
752.16	1074.31
752.49	1066.82
752.82	1061.90
753.15	1059.79
753.48	1068.69
753.81	1077.82
754.14	1086.71
754.47	1101.92
754.80	1093.73
755.13	1091.16
755.46	1083.43
755.79	1071.73
756.12	1063.31
756.45	1072.43
756.78	1066.35
757.11	1075.24
757.43	1077.82
757.76	1084.37
758.09	1080.16
758.42	1092.33
758.75	1089.05
759.08	1093.03
759.41	1081.80
759.74	1094.67
760.07	1092.09
760.39	1094.67
760.72	1095.60
761.05	1096.31
761.38	1077.35
761.71	1073.84
762.04	1072.43
762.36	1073.84
762.69	1071.03
763.02	1082.97
763.35	1086.01
763.68	1082.73
764.01	1085.07
764.33	1090.69
764.66	1088.35
