SpectraSuite Data File
++++++++++++++++++++++++++++++++++++
Date: Mon Aug 26 10:24:44 PDT 2019
User: corrico
Dark Spectrum Present: No
Reference Spectrum Present: No
Number of Sampled Component Spectra: 1
Spectrometers: USB2+H06089
Integration Time (usec): 10000 (USB2+H06089)
Spectra Averaged: 2 (USB2+H06089)
Boxcar Smoothing: 2 (USB2+H06089)
Correct for Electrical Dark: No (USB2+H06089)
Strobe/Lamp Enabled: No (USB2+H06089)
Correct for Detector Non-linearity: No (USB2+H06089)
Correct for Stray Light: No (USB2+H06089)
Number of Pixels in Processed Spectrum: 2048
>>>>>Begin Processed Spectral Data<<<<<
339.70	1068.45
340.07	1068.45
340.45	1027.73
340.82	999.17
341.19	958.92
341.57	920.77
341.94	902.04
342.31	896.19
342.69	885.42
343.06	884.72
343.43	890.11
343.81	895.25
344.18	896.66
344.55	899.47
344.93	907.89
345.30	914.45
345.67	920.77
346.04	922.41
346.42	921.94
346.79	931.77
347.16	934.58
347.54	948.62
347.91	956.11
348.28	974.13
348.65	989.58
349.03	1008.77
349.40	1014.39
349.77	1031.47
350.14	1045.05
350.52	1057.92
350.89	1067.75
351.26	1073.14
351.63	1075.01
352.01	1083.90
352.38	1083.67
352.75	1077.35
353.12	1086.01
353.50	1095.37
353.87	1098.88
354.24	1099.82
354.61	1102.63
354.98	1108.48
355.36	1108.48
355.73	1114.56
356.10	1115.97
356.47	1128.61
356.84	1113.39
357.22	1102.39
357.59	1108.01
357.96	1111.05
358.33	1099.12
358.70	1099.12
359.08	1105.90
359.45	1101.46
359.82	1099.82
360.19	1108.95
360.56	1111.52
360.94	1099.35
361.31	1091.63
361.68	1083.90
362.05	1071.73
362.42	1073.60
362.79	1094.90
363.16	1101.69
363.54	1105.20
363.91	1107.31
364.28	1106.14
364.65	1095.60
365.02	1081.33
365.39	1082.03
365.76	1078.75
366.14	1085.31
366.51	1073.37
366.88	1085.07
367.25	1087.88
367.62	1102.16
367.99	1100.52
368.36	1112.22
368.73	1111.52
369.10	1111.29
369.48	1102.86
369.85	1101.92
370.22	1098.18
370.59	1092.80
370.96	1085.31
371.33	1084.14
371.70	1089.52
372.07	1092.09
372.44	1087.41
372.81	1084.14
373.18	1088.58
373.55	1071.73
373.93	1085.07
374.30	1083.43
374.67	1092.09
375.04	1081.80
375.41	1096.07
375.78	1088.58
376.15	1104.50
376.52	1097.95
376.89	1105.44
377.26	1104.26
377.63	1094.43
378.00	1090.92
378.37	1094.67
378.74	1093.97
379.11	1092.09
379.48	1098.41
379.85	1093.03
380.22	1103.09
380.59	1104.03
380.96	1105.90
381.33	1104.26
381.70	1105.90
382.07	1108.01
382.44	1111.29
382.81	1111.75
383.18	1118.78
383.55	1124.16
383.92	1119.48
384.29	1124.63
384.66	1119.01
385.03	1128.84
385.40	1127.44
385.77	1123.46
386.14	1111.05
386.51	1109.18
386.88	1099.35
387.25	1103.80
387.62	1111.75
387.99	1119.71
388.36	1125.56
388.73	1134.46
389.10	1121.12
389.46	1113.39
389.83	1114.56
390.20	1125.33
390.57	1115.03
390.94	1114.09
391.31	1114.09
391.68	1109.18
392.05	1108.95
392.42	1103.09
392.79	1111.05
393.16	1105.44
393.53	1119.01
393.89	1110.58
394.26	1119.95
394.63	1124.63
395.00	1150.84
395.37	1141.95
395.74	1151.78
396.11	1154.12
396.48	1158.33
396.84	1144.29
397.21	1159.03
397.58	1150.84
397.95	1154.59
398.32	1158.80
398.69	1165.35
399.06	1158.10
399.42	1165.12
399.79	1164.65
400.16	1169.33
400.53	1169.33
400.90	1191.80
401.27	1194.14
401.64	1204.67
402.00	1207.48
402.37	1220.59
402.74	1219.19
403.11	1239.31
403.48	1245.40
403.84	1261.31
404.21	1267.17
404.58	1276.29
404.95	1287.53
405.32	1309.53
405.68	1317.96
406.05	1333.87
406.42	1356.11
406.79	1380.92
407.16	1409.94
407.52	1434.98
407.89	1467.05
408.26	1499.82
408.63	1533.75
408.99	1557.86
409.36	1607.95
409.73	1662.01
410.10	1698.53
410.47	1738.08
410.83	1792.38
411.20	1853.00
411.57	1914.56
411.94	1984.54
412.30	2058.97
412.67	2131.06
413.04	2200.57
413.40	2290.45
413.77	2393.90
414.14	2504.61
414.51	2615.55
414.87	2748.96
415.24	2870.90
415.61	3001.50
415.97	3131.40
416.34	3310.92
416.71	3451.35
417.08	3632.75
417.44	3817.18
417.81	4034.15
418.18	4229.11
418.54	4474.17
418.91	4723.90
419.28	5005.94
419.64	5288.21
420.01	5577.03
420.38	5896.04
420.74	6207.10
421.11	6563.10
421.48	6939.45
421.84	7335.24
422.21	7732.90
422.58	8160.28
422.94	8587.19
423.31	9042.66
423.68	9603.69
424.04	10163.78
424.41	10759.44
424.77	11369.39
425.14	12017.25
425.51	12609.64
425.87	13275.05
426.24	13956.38
426.61	14739.29
426.97	15624.01
427.34	16453.50
427.70	17406.80
428.07	18322.42
428.44	19245.76
428.80	20125.56
429.17	21212.74
429.53	22236.73
429.90	23447.95
430.27	24522.73
430.63	25650.16
431.00	26850.86
431.36	28121.30
431.73	29237.04
432.09	30513.56
432.46	31765.75
432.83	32960.83
433.19	34036.30
433.56	35297.85
433.92	36609.49
434.29	37856.06
434.65	39127.91
435.02	40312.92
435.38	41477.80
435.75	42248.78
436.11	43420.45
436.48	44324.83
436.84	45325.64
437.21	46246.18
437.57	47242.78
437.94	47919.43
438.30	48669.57
438.67	49096.72
439.03	49359.32
439.40	49606.72
439.76	49460.90
440.13	49116.84
440.49	49031.41
440.86	48576.41
441.22	48176.18
441.59	47673.20
441.95	47228.03
442.32	46376.78
442.68	45729.85
443.05	44794.81
443.41	43931.15
443.78	42916.53
444.14	41955.51
444.51	40751.07
444.87	39871.03
445.24	38816.38
445.60	37718.20
445.96	36684.85
446.33	35871.52
446.69	34743.38
447.06	33780.02
447.42	32767.97
447.79	31656.68
448.15	30753.94
448.51	29825.68
448.88	29126.09
449.24	28338.50
449.61	27766.71
449.97	26987.08
450.33	26304.81
450.70	25456.60
451.06	24947.54
451.43	24288.44
451.79	23810.50
452.15	23322.50
452.52	22793.07
452.88	22158.79
453.24	21659.55
453.61	21076.52
453.97	20511.52
454.34	19911.87
454.70	19379.17
455.06	18774.37
455.43	18116.21
455.79	17390.65
456.15	16835.01
456.52	16209.85
456.88	15663.33
457.24	15129.46
457.61	14760.59
457.97	14312.61
458.33	13840.99
458.70	13344.80
459.06	12817.94
459.42	12362.48
459.79	11884.77
460.15	11511.92
460.51	11144.93
460.88	10813.28
461.24	10440.66
461.60	10137.56
461.96	9788.59
462.33	9506.32
462.69	9193.39
463.05	8894.97
463.42	8625.81
463.78	8349.63
464.14	8067.59
464.50	7870.29
464.87	7647.70
465.23	7408.03
465.59	7238.57
465.95	7057.42
466.32	6850.98
466.68	6654.61
467.04	6450.52
467.40	6284.34
467.77	6124.01
468.13	5993.18
468.49	5871.70
468.85	5786.27
469.22	5666.67
469.58	5530.22
469.94	5395.17
470.30	5264.33
470.66	5137.71
471.03	5023.26
471.39	4911.15
471.75	4795.99
472.11	4711.26
472.47	4610.15
472.84	4517.94
473.20	4432.04
473.56	4353.16
473.92	4241.75
474.28	4148.60
474.65	4033.45
475.01	3952.93
475.37	3861.65
475.73	3784.41
476.09	3724.96
476.45	3666.22
476.81	3598.34
477.18	3515.02
477.54	3455.57
477.90	3375.52
478.26	3316.31
478.62	3246.32
478.98	3225.02
479.34	3185.00
479.71	3155.51
480.07	3110.57
480.43	3072.89
480.79	3001.27
481.15	2944.63
481.51	2887.52
481.87	2844.69
482.23	2798.81
482.59	2768.85
482.96	2731.64
483.32	2682.72
483.68	2635.68
484.04	2601.04
484.40	2570.61
484.76	2524.27
485.12	2504.84
485.48	2467.16
485.84	2432.28
486.20	2383.84
486.56	2353.41
486.92	2315.49
487.28	2281.09
487.64	2244.81
488.00	2218.13
488.37	2186.29
488.73	2157.27
489.09	2147.68
489.45	2127.08
489.81	2106.25
490.17	2082.61
490.53	2058.27
490.89	2008.88
491.25	1975.41
491.61	1937.96
491.97	1911.28
492.33	1893.03
492.69	1890.22
493.05	1874.77
493.41	1860.73
493.77	1842.24
494.13	1819.30
494.49	1796.60
494.85	1781.15
495.21	1750.95
495.57	1737.61
495.93	1710.00
496.29	1688.23
496.64	1671.84
497.00	1658.50
497.36	1637.44
497.72	1627.37
498.08	1609.82
498.44	1579.63
498.80	1571.67
499.16	1560.44
499.52	1544.75
499.88	1537.50
500.24	1535.16
500.60	1519.01
500.96	1495.84
501.32	1486.01
501.68	1472.67
502.03	1452.54
502.39	1449.26
502.75	1440.13
503.11	1434.05
503.47	1416.49
503.83	1404.56
504.19	1390.98
504.55	1383.49
504.91	1361.49
505.26	1364.30
505.62	1363.36
505.98	1354.00
506.34	1342.06
506.70	1344.40
507.06	1333.87
507.42	1326.62
507.78	1323.57
508.13	1328.25
508.49	1317.02
508.85	1303.21
509.21	1304.15
509.57	1299.23
509.93	1290.10
510.28	1285.66
510.64	1287.76
511.00	1284.25
511.36	1274.66
511.72	1267.17
512.07	1260.38
512.43	1253.36
512.79	1240.95
513.15	1242.82
513.51	1232.06
513.86	1230.19
514.22	1217.08
514.58	1221.76
514.94	1209.12
515.30	1219.65
515.65	1218.72
516.01	1225.50
516.37	1210.29
516.73	1210.06
517.08	1212.63
517.44	1214.27
517.80	1214.74
518.16	1222.23
518.51	1224.80
518.87	1214.50
519.23	1214.27
519.59	1205.14
519.94	1200.69
520.30	1196.95
520.66	1189.46
521.01	1180.80
521.37	1173.08
521.73	1163.71
522.09	1168.40
522.44	1179.40
522.80	1166.76
523.16	1168.63
523.51	1169.80
523.87	1155.29
524.23	1144.29
524.58	1150.61
524.94	1158.80
525.30	1152.25
525.65	1165.12
526.01	1168.40
526.37	1170.50
526.72	1167.46
527.08	1181.03
527.44	1178.46
527.79	1175.18
528.15	1178.93
528.51	1174.01
528.86	1170.27
529.22	1163.48
529.58	1153.65
529.93	1143.59
530.29	1141.01
530.65	1136.10
531.00	1132.12
531.36	1127.67
531.71	1131.88
532.07	1137.27
532.43	1141.01
532.78	1130.95
533.14	1143.12
533.49	1148.50
533.85	1147.56
534.21	1135.39
534.56	1139.61
534.92	1143.12
535.27	1130.95
535.63	1140.07
535.98	1144.29
536.34	1150.84
536.69	1140.78
537.05	1141.01
537.41	1124.39
537.76	1127.90
538.12	1120.65
538.47	1119.71
538.83	1109.88
539.18	1117.84
539.54	1108.71
539.89	1119.48
540.25	1122.75
540.60	1130.95
540.96	1127.67
541.31	1132.12
541.67	1126.50
542.02	1129.54
542.38	1132.82
542.73	1126.27
543.09	1130.01
543.44	1134.69
543.80	1133.29
544.15	1130.01
544.51	1125.56
544.86	1121.12
545.22	1120.41
545.57	1117.37
545.93	1118.07
546.28	1138.90
546.64	1142.88
546.99	1143.12
547.35	1155.76
547.70	1157.63
548.05	1143.82
548.41	1143.59
548.76	1136.10
549.12	1117.14
549.47	1111.52
549.83	1104.50
550.18	1104.03
550.53	1104.50
550.89	1121.12
551.24	1119.24
551.60	1122.52
551.95	1119.95
552.30	1113.39
552.66	1091.39
553.01	1094.90
553.37	1099.58
553.72	1097.01
554.07	1098.88
554.43	1105.44
554.78	1104.97
555.13	1100.29
555.49	1108.24
555.84	1111.05
556.19	1118.78
556.55	1121.35
556.90	1130.01
557.26	1125.56
557.61	1119.95
557.96	1116.67
558.32	1118.31
558.67	1122.52
559.02	1120.41
559.37	1126.50
559.73	1127.90
560.08	1126.50
560.43	1117.61
560.79	1116.67
561.14	1120.18
561.49	1109.41
561.85	1104.26
562.20	1105.67
562.55	1111.05
562.90	1111.29
563.26	1112.22
563.61	1113.86
563.96	1122.29
564.32	1113.39
564.67	1110.58
565.02	1110.12
565.37	1108.95
565.73	1095.37
566.08	1112.22
566.43	1111.52
566.78	1121.35
567.14	1130.95
567.49	1136.10
567.84	1130.71
568.19	1128.14
568.54	1129.07
568.90	1120.65
569.25	1125.33
569.60	1121.12
569.95	1125.33
570.31	1117.14
570.66	1117.14
571.01	1109.41
571.36	1105.44
571.71	1101.92
572.06	1098.41
572.42	1101.69
572.77	1092.80
573.12	1082.97
573.47	1085.31
573.82	1089.52
574.18	1082.50
574.53	1093.97
574.88	1099.58
575.23	1100.29
575.58	1100.29
575.93	1102.16
576.28	1102.16
576.64	1097.95
576.99	1089.29
577.34	1096.78
577.69	1098.41
578.04	1102.86
578.39	1118.54
578.74	1121.82
579.09	1120.88
579.44	1111.29
579.80	1097.24
580.15	1082.97
580.50	1080.63
580.85	1082.73
581.20	1092.80
581.55	1107.07
581.90	1118.07
582.25	1126.27
582.60	1117.84
582.95	1112.92
583.30	1100.05
583.65	1100.99
584.00	1097.48
584.35	1090.92
584.71	1090.46
585.06	1100.29
585.41	1093.03
585.76	1094.20
586.11	1101.92
586.46	1102.39
586.81	1093.50
587.16	1097.48
587.51	1100.52
587.86	1098.18
588.21	1096.78
588.56	1103.33
588.91	1098.18
589.26	1092.80
589.61	1090.92
589.96	1089.05
590.31	1083.90
590.66	1084.14
591.01	1086.71
591.36	1087.41
591.71	1092.09
592.06	1083.43
592.41	1076.88
592.76	1082.26
593.10	1089.99
593.45	1100.99
593.80	1112.69
594.15	1126.50
594.50	1115.27
594.85	1117.37
595.20	1111.75
595.55	1103.09
595.90	1102.63
596.25	1104.97
596.60	1103.33
596.95	1099.35
597.30	1100.75
597.64	1146.39
597.99	1152.48
598.34	1146.63
598.69	1147.80
599.04	1152.01
599.39	1105.67
599.74	1102.39
600.09	1105.44
600.44	1111.52
600.78	1103.56
601.13	1092.80
601.48	1090.22
601.83	1078.75
602.18	1084.84
602.53	1100.05
602.88	1101.46
603.22	1100.99
603.57	1105.67
603.92	1093.50
604.27	1092.33
604.62	1092.33
604.97	1097.24
605.31	1100.29
605.66	1096.07
606.01	1092.80
606.36	1097.71
606.71	1097.48
607.05	1106.61
607.40	1104.26
607.75	1106.84
608.10	1106.14
608.44	1095.14
608.79	1088.35
609.14	1093.97
609.49	1092.33
609.84	1089.99
610.18	1102.39
610.53	1098.18
610.88	1097.24
611.23	1099.35
611.57	1100.52
611.92	1098.41
612.27	1106.37
612.62	1110.12
612.96	1115.50
613.31	1121.82
613.66	1124.16
614.00	1123.69
614.35	1128.84
614.70	1119.48
615.05	1114.10
615.39	1115.73
615.74	1108.71
616.09	1111.29
616.43	1110.82
616.78	1105.20
617.13	1091.86
617.47	1091.63
617.82	1084.60
618.17	1079.92
618.51	1093.73
618.86	1110.58
619.21	1116.20
619.55	1117.14
619.90	1119.71
620.25	1109.18
620.59	1091.63
620.94	1093.50
621.29	1091.39
621.63	1089.99
621.98	1087.41
622.32	1099.82
622.67	1092.56
623.02	1095.60
623.36	1098.88
623.71	1093.97
624.05	1081.09
624.40	1079.69
624.75	1071.97
625.09	1071.97
625.44	1080.63
625.78	1097.01
626.13	1102.39
626.48	1112.46
626.82	1112.92
627.17	1111.05
627.51	1107.54
627.86	1110.35
628.20	1102.86
628.55	1092.80
628.89	1096.31
629.24	1086.48
629.58	1087.88
629.93	1093.73
630.28	1097.01
630.62	1104.97
630.97	1106.14
631.31	1103.33
631.66	1097.48
632.00	1107.07
632.35	1096.78
632.69	1095.60
633.04	1099.12
633.38	1096.07
633.73	1091.63
634.07	1101.22
634.42	1100.52
634.76	1095.84
635.11	1101.69
635.45	1102.63
635.79	1101.22
636.14	1097.48
636.48	1096.31
636.83	1096.78
637.17	1099.12
637.52	1094.43
637.86	1102.63
638.21	1106.14
638.55	1105.67
638.89	1101.22
639.24	1099.35
639.58	1097.71
639.93	1090.69
640.27	1096.07
640.61	1097.01
640.96	1082.73
641.30	1092.33
641.65	1086.24
641.99	1079.46
642.33	1080.86
642.68	1093.73
643.02	1086.71
643.37	1096.07
643.71	1096.07
644.05	1095.60
644.40	1102.39
644.74	1099.58
645.08	1100.52
645.43	1093.26
645.77	1083.90
646.11	1069.86
646.46	1072.20
646.80	1072.43
647.14	1075.48
647.49	1081.56
647.83	1086.48
648.17	1091.39
648.52	1089.05
648.86	1090.69
649.20	1097.01
649.55	1103.33
649.89	1091.63
650.23	1089.29
650.57	1086.94
650.92	1080.86
651.26	1079.69
651.60	1085.77
651.95	1089.29
652.29	1086.48
652.63	1085.77
652.97	1081.09
653.32	1079.69
653.66	1065.65
654.00	1071.03
654.34	1072.43
654.69	1073.84
655.03	1074.54
655.37	1093.03
655.71	1091.63
656.05	1089.52
656.40	1084.84
656.74	1086.94
657.08	1078.99
657.42	1079.22
657.76	1084.60
658.11	1088.58
658.45	1092.56
658.79	1098.18
659.13	1096.31
659.47	1091.63
659.82	1097.48
660.16	1096.31
660.50	1094.90
660.84	1093.26
661.18	1093.50
661.52	1090.46
661.87	1082.03
662.21	1091.39
662.55	1092.33
662.89	1091.16
663.23	1093.50
663.57	1094.90
663.91	1089.05
664.25	1095.37
664.60	1097.24
664.94	1100.29
665.28	1100.99
665.62	1092.56
665.96	1085.07
666.30	1088.82
666.64	1079.22
666.98	1076.88
667.32	1078.05
667.66	1075.01
668.01	1069.62
668.35	1077.35
668.69	1083.90
669.03	1094.43
669.37	1100.75
669.71	1095.60
670.05	1088.82
670.39	1091.86
670.73	1086.48
671.07	1086.01
671.41	1090.92
671.75	1089.29
672.09	1080.63
672.43	1067.28
672.77	1063.31
673.11	1067.99
673.45	1070.80
673.79	1081.80
674.13	1089.05
674.47	1086.94
674.81	1077.58
675.15	1085.54
675.49	1082.50
675.83	1083.67
676.17	1097.48
676.51	1099.58
676.85	1088.35
677.19	1074.54
677.53	1068.45
677.87	1063.77
678.21	1065.41
678.55	1065.65
678.89	1075.24
679.23	1089.05
679.57	1087.18
679.90	1085.07
680.24	1086.71
680.58	1083.90
680.92	1080.39
681.26	1071.97
681.60	1073.84
681.94	1080.86
682.28	1074.77
682.62	1071.73
682.96	1086.01
683.29	1087.18
683.63	1077.11
683.97	1082.73
684.31	1080.86
684.65	1069.16
684.99	1073.37
685.33	1082.50
685.67	1089.29
686.00	1090.46
686.34	1097.95
686.68	1096.78
687.02	1093.03
687.36	1094.20
687.70	1093.50
688.03	1096.54
688.37	1097.48
688.71	1088.82
689.05	1089.99
689.39	1093.97
689.72	1090.69
690.06	1088.35
690.40	1099.35
690.74	1100.29
691.08	1099.82
691.41	1098.88
691.75	1102.86
692.09	1097.48
692.43	1089.29
692.76	1093.73
693.10	1089.52
693.44	1082.50
693.78	1081.09
694.11	1084.84
694.45	1081.56
694.79	1086.48
695.13	1087.18
695.46	1087.18
695.80	1079.22
696.14	1076.18
696.48	1073.84
696.81	1069.39
697.15	1074.31
697.49	1082.73
697.82	1075.94
698.16	1075.71
698.50	1086.01
698.83	1082.03
699.17	1075.48
699.51	1078.99
699.84	1066.82
700.18	1069.62
700.52	1075.01
700.85	1076.41
701.19	1082.03
701.53	1097.24
701.86	1085.54
702.20	1080.63
702.54	1079.22
702.87	1082.73
703.21	1077.58
703.55	1085.31
703.88	1086.48
704.22	1093.97
704.55	1084.14
704.89	1083.20
705.23	1076.88
705.56	1078.52
705.90	1079.69
706.23	1082.03
706.57	1090.69
706.91	1095.37
707.24	1103.09
707.58	1097.95
707.91	1098.88
708.25	1094.90
708.58	1100.52
708.92	1086.94
709.26	1083.90
709.59	1078.99
709.93	1082.97
710.26	1076.41
710.60	1078.52
710.93	1075.94
711.27	1082.26
711.60	1075.48
711.94	1080.63
712.27	1081.09
712.61	1083.67
712.94	1079.69
713.28	1086.94
713.61	1080.86
713.95	1086.94
714.28	1091.16
714.62	1093.50
714.95	1087.41
715.29	1087.18
715.62	1089.99
715.96	1092.33
716.29	1104.26
716.63	1107.54
716.96	1104.50
717.29	1094.67
717.63	1094.67
717.96	1077.82
718.30	1070.56
718.63	1077.35
718.97	1082.97
719.30	1077.82
719.63	1080.39
719.97	1082.97
720.30	1078.75
720.64	1076.65
720.97	1068.69
721.30	1072.43
721.64	1077.58
721.97	1078.28
722.31	1078.99
722.64	1081.80
722.97	1073.14
723.31	1072.90
723.64	1082.73
723.97	1077.58
724.31	1084.60
724.64	1085.54
724.98	1082.03
725.31	1081.80
725.64	1088.35
725.98	1092.09
726.31	1099.35
726.64	1101.46
726.97	1099.58
727.31	1099.82
727.64	1096.31
727.97	1095.14
728.31	1105.20
728.64	1103.56
728.97	1093.03
729.31	1095.84
729.64	1097.24
729.97	1078.99
730.30	1070.80
730.64	1080.16
730.97	1075.71
731.30	1073.84
731.63	1083.67
731.97	1090.22
732.30	1080.86
732.63	1081.80
732.96	1080.86
733.30	1076.18
733.63	1075.71
733.96	1094.20
734.29	1095.37
734.63	1087.65
734.96	1093.50
735.29	1092.09
735.62	1085.77
735.95	1087.18
736.29	1093.26
736.62	1088.12
736.95	1086.71
737.28	1077.11
737.61	1080.16
737.94	1074.07
738.28	1077.11
738.61	1069.16
738.94	1080.16
739.27	1063.77
739.60	1064.94
739.93	1055.11
740.27	1061.90
740.60	1057.45
740.93	1057.69
741.26	1060.96
741.59	1071.03
741.92	1070.33
742.25	1056.05
742.58	1067.75
742.91	1071.03
743.25	1069.62
743.58	1071.50
743.91	1082.50
744.24	1082.50
744.57	1086.01
744.90	1083.20
745.23	1078.99
745.56	1074.77
745.89	1071.03
746.22	1062.84
746.55	1054.41
746.88	1060.73
747.21	1066.35
747.54	1075.01
747.87	1089.99
748.20	1102.16
748.53	1104.73
748.87	1100.99
749.20	1087.41
749.53	1087.88
749.86	1089.52
750.19	1076.41
750.52	1080.16
750.85	1082.50
751.18	1071.50
751.51	1075.71
751.84	1089.75
752.16	1082.26
752.49	1087.41
752.82	1090.69
753.15	1082.03
753.48	1081.33
753.81	1088.82
754.14	1085.31
754.47	1076.88
754.80	1079.69
755.13	1072.20
755.46	1071.03
755.79	1076.41
756.12	1083.43
756.45	1085.07
756.78	1085.77
757.11	1086.01
757.43	1084.37
757.76	1086.01
758.09	1080.16
758.42	1083.67
758.75	1077.58
759.08	1079.69
759.41	1074.54
759.74	1077.58
760.07	1076.41
760.39	1092.56
760.72	1092.56
761.05	1096.07
761.38	1101.69
761.71	1100.75
762.04	1089.52
762.36	1067.75
762.69	1070.56
763.02	1072.90
763.35	1078.28
763.68	1084.84
764.01	1103.80
