SpectraSuite Data File
++++++++++++++++++++++++++++++++++++
Date: Mon Aug 26 10:24:44 PDT 2019
User: corrico
Dark Spectrum Present: No
Reference Spectrum Present: No
Number of Sampled Component Spectra: 1
Spectrometers: USB2+H06089
Integration Time (usec): 10000 (USB2+H06089)
Spectra Averaged: 2 (USB2+H06089)
Boxcar Smoothing: 2 (USB2+H06089)
Correct for Electrical Dark: No (USB2+H06089)
Strobe/Lamp Enabled: No (USB2+H06089)
Correct for Detector Non-linearity: No (USB2+H06089)
Correct for Stray Light: No (USB2+H06089)
Number of Pixels in Processed Spectrum: 2048
>>>>>Begin Processed Spectral Data<<<<<
339.70	1049.73
340.07	1049.73
340.45	1011.58
340.82	988.88
341.19	964.77
341.57	935.04
341.94	924.98
342.31	912.11
342.69	900.87
343.06	892.45
343.43	888.94
343.81	891.28
344.18	899.47
344.55	908.60
344.93	923.34
345.30	938.32
345.67	932.47
346.04	941.13
346.42	954.94
346.79	959.15
347.16	966.41
347.54	986.54
347.91	992.15
348.28	994.96
348.65	1006.43
349.03	1004.09
349.40	1009.71
349.77	1024.69
350.14	1028.43
350.52	1037.33
350.89	1053.71
351.26	1066.82
351.63	1071.26
352.01	1085.77
352.38	1082.03
352.75	1090.46
353.12	1085.31
353.50	1084.37
353.87	1088.58
354.24	1099.58
354.61	1101.92
354.98	1112.92
355.36	1115.03
355.73	1108.01
356.10	1100.05
356.47	1101.46
356.84	1083.43
357.22	1085.54
357.59	1093.73
357.96	1103.80
358.33	1096.07
358.70	1110.82
359.08	1111.99
359.45	1108.01
359.82	1102.63
360.19	1108.71
360.56	1111.05
360.94	1115.03
361.31	1111.05
361.68	1107.07
362.05	1108.24
362.42	1095.37
362.79	1093.50
363.16	1096.54
363.54	1100.99
363.91	1102.86
364.28	1114.10
364.65	1107.31
365.02	1106.14
365.39	1095.14
365.76	1094.20
366.14	1095.14
366.51	1098.88
366.88	1093.73
367.25	1102.39
367.62	1093.03
367.99	1091.16
368.36	1091.86
368.73	1101.69
369.10	1108.24
369.48	1105.90
369.85	1100.05
370.22	1091.86
370.59	1089.29
370.96	1084.84
371.33	1094.43
371.70	1092.56
372.07	1093.73
372.44	1087.88
372.81	1084.14
373.18	1078.52
373.55	1081.56
373.93	1078.52
374.30	1082.26
374.67	1088.35
375.04	1093.26
375.41	1096.07
375.78	1112.69
376.15	1112.22
376.52	1112.92
376.89	1116.20
377.26	1115.50
377.63	1108.71
378.00	1115.03
378.37	1108.71
378.74	1108.71
379.11	1113.39
379.48	1111.99
379.85	1111.99
380.22	1108.95
380.59	1108.01
380.96	1103.33
381.33	1108.95
381.70	1109.65
382.07	1116.67
382.44	1106.84
382.81	1115.03
383.18	1115.50
383.55	1113.86
383.92	1113.86
384.29	1128.84
384.66	1122.52
385.03	1116.44
385.40	1114.56
385.77	1116.67
386.14	1107.54
386.51	1100.99
386.88	1105.67
387.25	1102.39
387.62	1107.31
387.99	1106.84
388.36	1117.14
388.73	1121.58
389.10	1128.14
389.46	1119.48
389.83	1116.20
390.20	1119.71
390.57	1116.44
390.94	1104.26
391.31	1114.10
391.68	1119.95
392.05	1121.82
392.42	1120.18
392.79	1134.93
393.16	1120.65
393.53	1111.99
393.89	1112.92
394.26	1120.18
394.63	1120.18
395.00	1124.86
395.37	1137.97
395.74	1134.93
396.11	1140.31
396.48	1146.39
396.84	1150.37
397.21	1146.63
397.58	1155.99
397.95	1155.99
398.32	1150.61
398.69	1153.88
399.06	1160.44
399.42	1156.22
399.79	1150.61
400.16	1155.52
400.53	1174.25
400.90	1189.69
401.27	1203.74
401.64	1216.14
402.00	1233.70
402.37	1226.21
402.74	1222.93
403.11	1225.97
403.48	1233.46
403.84	1241.65
404.21	1255.46
404.58	1269.04
404.95	1284.49
405.32	1299.70
405.68	1317.72
406.05	1340.42
406.42	1367.58
406.79	1388.64
407.16	1413.68
407.52	1425.39
407.89	1456.52
408.26	1494.20
408.63	1530.94
408.99	1569.10
409.36	1609.59
409.73	1648.21
410.10	1684.95
410.47	1728.95
410.83	1778.10
411.20	1843.64
411.57	1886.71
411.94	1945.69
412.30	2018.48
412.67	2098.76
413.04	2164.76
413.40	2281.32
413.77	2372.84
414.14	2484.48
414.51	2586.06
414.87	2708.23
415.24	2819.88
415.61	2967.57
415.97	3085.29
416.34	3248.43
416.71	3412.74
417.08	3593.66
417.44	3779.50
417.81	4006.29
418.18	4204.30
418.54	4443.27
418.91	4686.45
419.28	4942.28
419.64	5191.54
420.01	5504.47
420.38	5805.93
420.74	6114.88
421.11	6460.11
421.48	6832.26
421.84	7183.81
422.21	7551.74
422.58	7969.99
422.94	8395.03
423.31	8861.97
423.68	9388.82
424.04	9958.75
424.41	10517.90
424.77	11073.07
425.14	11647.21
425.51	12219.47
425.87	12866.16
426.24	13567.38
426.61	14354.04
426.97	15288.61
427.34	16116.23
427.70	17036.53
428.07	17909.08
428.44	18783.27
428.80	19662.14
429.17	20701.80
429.53	21668.68
429.90	22857.44
430.27	23916.76
430.63	24922.26
431.00	26078.25
431.36	27383.33
431.73	28474.72
432.09	29749.61
432.46	31013.27
432.83	32200.86
433.19	33197.69
433.56	34477.26
433.92	35794.98
434.29	37011.59
434.65	38283.21
435.02	39500.52
435.38	40594.95
435.75	41366.63
436.11	42531.51
436.48	43492.30
436.84	44428.05
437.21	45321.20
437.57	46301.18
437.94	46964.96
438.30	47623.11
438.67	48155.12
439.03	48392.45
439.40	48626.74
439.76	48506.43
440.13	48196.55
440.49	48055.65
440.86	47622.18
441.22	47229.67
441.59	46733.94
441.95	46300.71
442.32	45431.90
442.68	44786.85
443.05	43826.77
443.41	42920.51
443.78	41866.33
444.14	40941.82
444.51	39799.17
444.87	38961.26
445.24	37888.59
445.60	36911.65
445.96	35839.22
446.33	35068.71
446.69	33978.03
447.06	33178.26
447.42	32198.28
447.79	31198.87
448.15	30262.66
448.51	29366.70
448.88	28627.33
449.24	27724.58
449.61	27123.53
449.97	26411.31
450.33	25720.15
450.70	24839.87
451.06	24338.53
451.43	23677.80
451.79	23171.54
452.15	22649.36
452.52	22180.55
452.88	21645.51
453.24	21115.61
453.61	20520.65
453.97	20011.58
454.34	19417.32
454.70	18911.76
455.06	18389.59
455.43	17794.62
455.79	17069.76
456.15	16521.84
456.52	15857.60
456.88	15340.57
457.24	14799.21
457.61	14411.85
457.97	13952.40
458.33	13517.30
458.70	13031.17
459.06	12555.10
459.42	12142.23
459.79	11682.78
460.15	11321.87
460.51	10940.83
460.88	10584.84
461.24	10199.12
461.60	9916.85
461.96	9566.71
462.33	9262.90
462.69	8986.49
463.05	8708.20
463.42	8464.31
463.78	8205.22
464.14	7943.08
464.50	7723.30
464.87	7498.14
465.23	7270.17
465.59	7078.95
465.95	6909.73
466.32	6702.59
466.68	6545.54
467.04	6319.68
467.40	6159.35
467.77	5995.52
468.13	5831.21
468.49	5687.97
468.85	5601.84
469.22	5492.07
469.58	5359.59
469.94	5259.18
470.30	5139.35
470.66	5039.64
471.03	4902.72
471.39	4826.42
471.75	4746.84
472.11	4650.18
472.47	4531.51
472.84	4457.08
473.20	4338.18
473.56	4233.09
473.92	4146.49
474.28	4075.34
474.65	3998.10
475.01	3935.61
475.37	3846.90
475.73	3767.09
476.09	3683.07
476.45	3599.98
476.81	3505.89
477.18	3439.42
477.54	3375.29
477.90	3328.01
478.26	3281.43
478.62	3253.34
478.98	3214.96
479.34	3170.72
479.71	3124.15
480.07	3083.19
480.43	3033.80
480.79	2972.01
481.15	2909.99
481.51	2854.05
481.87	2808.17
482.23	2764.64
482.59	2726.72
482.96	2709.64
483.32	2671.49
483.68	2614.85
484.04	2581.14
484.40	2556.57
484.76	2506.01
485.12	2471.84
485.48	2454.52
485.84	2443.52
486.20	2399.52
486.56	2357.15
486.92	2328.36
487.28	2292.09
487.64	2227.72
488.00	2194.25
488.37	2179.97
488.73	2149.31
489.09	2121.70
489.45	2091.74
489.81	2062.25
490.17	2032.29
490.53	2012.86
490.89	1989.92
491.25	1973.31
491.61	1963.01
491.97	1941.01
492.33	1915.03
492.69	1893.73
493.05	1864.94
493.41	1832.17
493.77	1806.43
494.13	1796.36
494.49	1769.68
494.85	1750.25
495.21	1722.40
495.57	1708.59
495.93	1676.76
496.29	1652.65
496.64	1653.35
497.00	1648.44
497.36	1632.76
497.72	1614.97
498.08	1614.50
498.44	1589.93
498.80	1579.16
499.16	1562.54
499.52	1548.03
499.88	1528.60
500.24	1508.48
500.60	1487.64
500.96	1478.52
501.32	1473.37
501.68	1456.98
502.03	1456.28
502.39	1454.17
502.75	1442.24
503.11	1419.77
503.47	1414.62
503.83	1404.56
504.19	1404.32
504.55	1392.85
504.91	1390.51
505.26	1374.36
505.62	1357.51
505.98	1332.00
506.34	1320.06
506.70	1309.53
507.06	1314.44
507.42	1308.36
507.78	1304.15
508.13	1308.13
508.49	1307.19
508.85	1306.96
509.21	1312.34
509.57	1310.93
509.93	1300.17
510.28	1297.83
510.64	1284.25
511.00	1273.95
511.36	1272.78
511.72	1268.34
512.07	1262.95
512.43	1263.66
512.79	1261.08
513.15	1256.17
513.51	1245.40
513.86	1230.65
514.22	1220.12
514.58	1218.01
514.94	1213.33
515.30	1210.76
515.65	1214.97
516.01	1212.16
516.37	1205.38
516.73	1192.97
517.08	1186.89
517.44	1189.23
517.80	1189.69
518.16	1183.37
518.51	1189.23
518.87	1188.29
519.23	1184.55
519.59	1175.65
519.94	1182.91
520.30	1176.12
520.66	1184.78
521.01	1176.59
521.37	1178.69
521.73	1172.61
522.09	1179.16
522.44	1171.91
522.80	1175.18
523.16	1173.31
523.51	1173.54
523.87	1168.63
524.23	1167.93
524.58	1171.67
524.94	1175.65
525.30	1183.14
525.65	1180.33
526.01	1176.82
526.37	1165.12
526.72	1158.10
527.08	1154.59
527.44	1155.76
527.79	1161.61
528.15	1168.63
528.51	1159.03
528.86	1147.80
529.22	1145.93
529.58	1133.29
529.93	1142.18
530.29	1146.16
530.65	1146.39
531.00	1144.29
531.36	1151.54
531.71	1137.03
532.07	1139.84
532.43	1138.20
532.78	1138.20
533.14	1133.29
533.49	1127.90
533.85	1126.03
534.21	1120.18
534.56	1114.10
534.92	1123.69
535.27	1123.46
535.63	1123.46
535.98	1126.50
536.34	1131.18
536.69	1118.07
537.05	1124.86
537.41	1122.99
537.76	1118.54
538.12	1116.20
538.47	1117.14
538.83	1120.65
539.18	1121.12
539.54	1126.50
539.89	1121.12
540.25	1121.35
540.60	1106.14
540.96	1111.99
541.31	1108.01
541.67	1119.48
542.02	1120.41
542.38	1131.41
542.73	1129.31
543.09	1141.01
543.44	1139.37
543.80	1151.78
544.15	1147.10
544.51	1137.50
544.86	1124.16
545.22	1127.67
545.57	1120.41
545.93	1132.59
546.28	1133.76
546.64	1148.03
546.99	1132.82
547.35	1131.88
547.70	1116.90
548.05	1115.27
548.41	1097.48
548.76	1105.90
549.12	1100.05
549.47	1106.37
549.83	1104.73
550.18	1113.16
550.53	1109.88
550.89	1106.37
551.24	1107.78
551.60	1119.24
551.95	1110.82
552.30	1110.12
552.66	1117.61
553.01	1107.31
553.37	1112.46
553.72	1118.07
554.07	1112.92
554.43	1109.41
554.78	1114.80
555.13	1098.88
555.49	1103.33
555.84	1115.03
556.19	1119.48
556.55	1117.84
556.90	1118.31
557.26	1113.86
557.61	1095.60
557.96	1099.82
558.32	1103.56
558.67	1109.65
559.02	1107.78
559.37	1127.67
559.73	1124.63
560.08	1125.80
560.43	1134.46
560.79	1132.12
561.14	1131.18
561.49	1137.03
561.85	1127.67
562.20	1121.35
562.55	1128.14
562.90	1120.41
563.26	1109.41
563.61	1112.69
563.96	1123.22
564.32	1116.20
564.67	1116.90
565.02	1108.95
565.37	1102.63
565.73	1087.88
566.08	1092.33
566.43	1090.46
566.78	1106.37
567.14	1116.44
567.49	1116.90
567.84	1107.31
568.19	1105.20
568.54	1094.67
568.90	1092.33
569.25	1091.16
569.60	1104.50
569.95	1112.22
570.31	1112.92
570.66	1108.01
571.01	1108.24
571.36	1114.56
571.71	1110.12
572.06	1118.31
572.42	1113.16
572.77	1111.05
573.12	1109.41
573.47	1112.46
573.82	1113.63
574.18	1128.14
574.53	1126.27
574.88	1122.99
575.23	1110.58
575.58	1099.35
575.93	1101.22
576.28	1109.41
576.64	1107.31
576.99	1111.05
577.34	1111.99
577.69	1115.97
578.04	1113.63
578.39	1110.82
578.74	1108.95
579.09	1108.01
579.44	1098.18
579.80	1098.18
580.15	1089.99
580.50	1103.56
580.85	1112.92
581.20	1108.48
581.55	1102.86
581.90	1113.16
582.25	1116.67
582.60	1113.86
582.95	1107.07
583.30	1108.71
583.65	1101.92
584.00	1093.03
584.35	1084.14
584.71	1087.88
585.06	1089.52
585.41	1086.48
585.76	1083.43
586.11	1085.54
586.46	1098.88
586.81	1106.37
587.16	1109.41
587.51	1110.12
587.86	1109.88
588.21	1100.29
588.56	1093.97
588.91	1104.73
589.26	1093.73
589.61	1090.46
589.96	1099.82
590.31	1098.88
590.66	1096.54
591.01	1118.07
591.36	1123.93
591.71	1114.80
592.06	1115.27
592.41	1109.41
592.76	1104.50
593.10	1111.75
593.45	1111.52
593.80	1110.35
594.15	1110.12
594.50	1108.01
594.85	1106.61
595.20	1110.82
595.55	1109.41
595.90	1110.58
596.25	1107.07
596.60	1095.37
596.95	1089.29
597.30	1100.05
597.64	1133.99
597.99	1140.31
598.34	1150.37
598.69	1144.29
599.04	1131.18
599.39	1097.71
599.74	1097.01
600.09	1099.58
600.44	1109.88
600.78	1116.44
601.13	1116.44
601.48	1109.65
601.83	1099.82
602.18	1108.71
602.53	1115.03
602.88	1114.09
603.22	1113.39
603.57	1118.31
603.92	1111.52
604.27	1108.01
604.62	1116.20
604.97	1122.99
605.31	1128.84
605.66	1125.80
606.01	1115.50
606.36	1109.88
606.71	1115.97
607.05	1109.41
607.40	1114.80
607.75	1115.50
608.10	1112.22
608.44	1098.88
608.79	1109.41
609.14	1100.52
609.49	1103.33
609.84	1112.92
610.18	1115.03
610.53	1104.73
610.88	1116.20
611.23	1118.31
611.57	1116.90
611.92	1115.97
612.27	1118.78
612.62	1106.84
612.96	1109.88
613.31	1107.54
613.66	1111.52
614.00	1109.65
614.35	1116.20
614.70	1116.20
615.05	1110.35
615.39	1101.92
615.74	1109.88
616.09	1106.14
616.43	1100.75
616.78	1111.75
617.13	1116.20
617.47	1098.65
617.82	1096.31
618.17	1094.20
618.51	1086.71
618.86	1086.48
619.21	1096.54
619.55	1101.22
619.90	1111.75
620.25	1106.84
620.59	1106.14
620.94	1102.86
621.29	1103.56
621.63	1090.22
621.98	1082.73
622.32	1077.35
622.67	1075.48
623.02	1074.77
623.36	1088.12
623.71	1101.22
624.05	1116.44
624.40	1120.88
624.75	1120.18
625.09	1117.61
625.44	1101.22
625.78	1090.92
626.13	1085.77
626.48	1083.67
626.82	1081.56
627.17	1082.73
627.51	1093.03
627.86	1085.07
628.20	1085.07
628.55	1076.41
628.89	1091.39
629.24	1073.60
629.58	1083.20
629.93	1087.41
630.28	1095.14
630.62	1087.41
630.97	1097.24
631.31	1093.50
631.66	1092.09
632.00	1087.18
632.35	1096.31
632.69	1100.29
633.04	1108.24
633.38	1118.31
633.73	1124.63
634.07	1112.69
634.42	1107.31
634.76	1102.16
635.11	1084.60
635.45	1082.97
635.79	1080.16
636.14	1085.77
636.48	1086.01
636.83	1095.60
637.17	1088.82
637.52	1090.92
637.86	1084.60
638.21	1088.12
638.55	1092.33
638.89	1094.43
639.24	1106.14
639.58	1104.26
639.93	1098.65
640.27	1093.26
640.61	1097.01
640.96	1088.82
641.30	1083.90
641.65	1082.97
641.99	1076.88
642.33	1072.90
642.68	1076.18
643.02	1083.20
643.37	1087.41
643.71	1085.77
644.05	1078.75
644.40	1068.22
644.74	1067.28
645.08	1068.22
645.43	1066.58
645.77	1068.92
646.11	1079.92
646.46	1089.75
646.80	1092.56
647.14	1092.80
647.49	1100.99
647.83	1100.05
648.17	1088.82
648.52	1079.69
648.86	1088.82
649.20	1080.86
649.55	1081.56
649.89	1084.14
650.23	1094.20
650.57	1092.80
650.92	1098.65
651.26	1102.39
651.60	1102.63
651.95	1093.50
652.29	1094.43
652.63	1092.09
652.97	1087.65
653.32	1083.20
653.66	1082.97
654.00	1075.48
654.34	1079.69
654.69	1085.07
655.03	1094.67
655.37	1100.52
655.71	1095.14
656.05	1088.35
656.40	1085.31
656.74	1082.26
657.08	1072.20
657.42	1078.99
657.76	1089.99
658.11	1086.01
658.45	1083.43
658.79	1091.16
659.13	1088.12
659.47	1082.26
659.82	1092.56
660.16	1099.58
660.50	1102.63
660.84	1114.10
661.18	1112.69
661.52	1098.65
661.87	1090.92
662.21	1083.90
662.55	1068.22
662.89	1075.48
663.23	1084.84
663.57	1083.43
663.91	1081.33
664.25	1091.86
664.60	1093.26
664.94	1089.99
665.28	1094.20
665.62	1097.24
665.96	1097.48
666.30	1087.88
666.64	1094.43
666.98	1087.88
667.32	1089.29
667.66	1090.92
668.01	1098.18
668.35	1090.69
668.69	1091.86
669.03	1092.56
669.37	1089.99
669.71	1085.31
670.05	1083.43
670.39	1090.92
670.73	1096.78
671.07	1108.24
671.41	1108.95
671.75	1114.80
672.09	1105.44
672.43	1102.39
672.77	1083.67
673.11	1089.75
673.45	1083.67
673.79	1091.63
674.13	1091.16
674.47	1099.35
674.81	1104.97
675.15	1097.48
675.49	1089.05
675.83	1089.05
676.17	1088.35
676.51	1078.75
676.85	1094.20
677.19	1095.14
677.53	1092.09
677.87	1105.20
678.21	1109.88
678.55	1107.07
678.89	1113.86
679.23	1119.01
679.57	1102.86
679.90	1092.80
680.24	1089.05
680.58	1089.05
680.92	1086.94
681.26	1095.37
681.60	1096.78
681.94	1096.78
682.28	1094.20
682.62	1090.69
682.96	1080.63
683.29	1084.60
683.63	1084.14
683.97	1086.01
684.31	1090.69
684.65	1089.05
684.99	1081.80
685.33	1079.69
685.67	1076.18
686.00	1077.11
686.34	1082.73
686.68	1083.67
687.02	1093.73
687.36	1096.31
687.70	1093.50
688.03	1095.37
688.37	1095.37
688.71	1085.07
689.05	1084.60
689.39	1082.73
689.72	1082.26
690.06	1093.03
690.40	1087.41
690.74	1077.58
691.08	1077.35
691.41	1076.41
691.75	1062.37
692.09	1064.71
692.43	1079.46
692.76	1086.71
693.10	1087.88
693.44	1088.82
693.78	1086.94
694.11	1082.03
694.45	1073.84
694.79	1066.35
695.13	1083.67
695.46	1097.48
695.80	1097.48
696.14	1098.65
696.48	1106.14
696.81	1097.71
697.15	1094.90
697.49	1094.43
697.82	1092.33
698.16	1087.88
698.50	1088.82
698.83	1087.41
699.17	1083.20
699.51	1081.33
699.84	1089.75
700.18	1088.12
700.52	1085.07
700.85	1089.52
701.19	1099.35
701.53	1093.03
701.86	1087.65
702.20	1086.71
702.54	1089.29
702.87	1091.86
703.21	1096.78
703.55	1099.82
703.88	1099.35
704.22	1079.92
704.55	1063.54
704.89	1050.67
705.23	1049.73
705.56	1047.39
705.90	1065.41
706.23	1075.24
706.57	1079.69
706.91	1082.50
707.24	1095.14
707.58	1098.65
707.91	1103.33
708.25	1107.78
708.58	1097.95
708.92	1097.01
709.26	1098.18
709.59	1086.94
709.93	1093.73
710.26	1095.60
710.60	1088.12
710.93	1086.01
711.27	1084.14
711.60	1072.20
711.94	1083.43
712.27	1082.73
712.61	1073.37
712.94	1079.92
713.28	1089.05
713.61	1078.28
713.95	1086.48
714.28	1097.24
714.62	1099.12
714.95	1098.65
715.29	1109.18
715.62	1099.58
715.96	1098.88
716.29	1097.95
716.63	1089.05
716.96	1081.09
717.29	1082.73
717.63	1075.48
717.96	1080.39
718.30	1093.26
718.63	1090.92
718.97	1104.73
719.30	1104.26
719.63	1097.24
719.97	1086.48
720.30	1098.65
720.64	1085.77
720.97	1089.75
721.30	1100.99
721.64	1104.03
721.97	1091.16
722.31	1088.82
722.64	1083.20
722.97	1081.33
723.31	1082.03
723.64	1077.35
723.97	1087.65
724.31	1095.84
724.64	1093.26
724.98	1088.82
725.31	1103.80
725.64	1089.05
725.98	1084.84
726.31	1086.24
726.64	1089.75
726.97	1079.22
727.31	1080.39
727.64	1077.11
727.97	1072.67
728.31	1075.48
728.64	1072.67
728.97	1081.33
729.31	1079.46
729.64	1075.71
729.97	1074.54
730.30	1081.56
730.64	1076.18
730.97	1075.94
731.30	1080.39
731.63	1086.24
731.97	1088.12
732.30	1087.88
732.63	1093.73
732.96	1090.46
733.30	1082.97
733.63	1085.07
733.96	1094.43
734.29	1087.41
734.63	1087.65
734.96	1085.31
735.29	1082.26
735.62	1076.88
735.95	1089.52
736.29	1093.03
736.62	1086.71
736.95	1084.84
737.28	1089.99
737.61	1079.69
737.94	1079.92
738.28	1080.86
738.61	1076.65
738.94	1070.09
739.27	1076.65
739.60	1067.28
739.93	1067.75
740.27	1076.18
740.60	1071.03
740.93	1074.77
741.26	1083.90
741.59	1086.01
741.92	1087.18
742.25	1103.80
742.58	1095.14
742.91	1093.97
743.25	1097.95
743.58	1088.58
743.91	1070.80
744.24	1080.86
744.57	1074.31
744.90	1081.56
745.23	1083.67
745.56	1091.63
745.89	1085.07
746.22	1086.94
746.55	1078.05
746.88	1081.80
747.21	1090.69
747.54	1096.78
747.87	1099.82
748.20	1100.05
748.53	1104.50
748.87	1091.16
749.20	1078.05
749.53	1076.88
749.86	1079.69
750.19	1073.37
750.52	1069.86
750.85	1079.69
751.18	1091.16
751.51	1089.29
751.84	1094.90
752.16	1098.65
752.49	1093.73
752.82	1076.88
753.15	1077.11
753.48	1074.07
753.81	1077.58
754.14	1075.01
754.47	1080.86
754.80	1080.86
755.13	1086.71
755.46	1088.58
755.79	1093.26
756.12	1094.90
756.45	1091.39
756.78	1083.90
757.11	1085.31
757.43	1084.84
757.76	1086.48
758.09	1090.22
758.42	1091.63
758.75	1088.12
759.08	1094.20
759.41	1084.14
759.74	1081.56
760.07	1080.16
760.39	1082.26
760.72	1073.14
761.05	1082.26
761.38	1084.84
761.71	1091.39
762.04	1082.26
762.36	1086.94
762.69	1092.09
763.02	1093.73
763.35	1090.46
763.68	1090.92
764.01	1089.52
