SpectraSuite Data File
++++++++++++++++++++++++++++++++++++
Date: Mon Aug 26 10:24:40 PDT 2019
User: corrico
Dark Spectrum Present: No
Reference Spectrum Present: No
Number of Sampled Component Spectra: 1
Spectrometers: USB2+H06089
Integration Time (usec): 10000 (USB2+H06089)
Spectra Averaged: 2 (USB2+H06089)
Boxcar Smoothing: 2 (USB2+H06089)
Correct for Electrical Dark: No (USB2+H06089)
Strobe/Lamp Enabled: No (USB2+H06089)
Correct for Detector Non-linearity: No (USB2+H06089)
Correct for Stray Light: No (USB2+H06089)
Number of Pixels in Processed Spectrum: 2048
>>>>>Begin Processed Spectral Data<<<<<
339.70	1053.24
340.07	1053.24
340.45	1002.92
340.82	982.56
341.19	957.05
341.57	925.68
341.94	919.83
342.31	922.41
342.69	915.15
343.06	921.00
343.43	923.11
343.81	919.13
344.18	919.83
344.55	924.04
344.93	913.75
345.30	914.21
345.67	918.89
346.04	923.11
346.42	926.62
346.79	934.11
347.16	943.00
347.54	955.64
347.91	969.68
348.28	972.73
348.65	991.68
349.03	1010.41
349.40	1021.18
349.77	1026.09
350.14	1030.54
350.52	1029.37
350.89	1038.73
351.26	1051.60
351.63	1059.79
352.01	1074.77
352.38	1088.12
352.75	1081.33
353.12	1080.63
353.50	1079.92
353.87	1095.84
354.24	1102.16
354.61	1104.50
354.98	1100.52
355.36	1103.09
355.73	1099.35
356.10	1092.56
356.47	1093.03
356.84	1090.46
357.22	1100.99
357.59	1097.01
357.96	1095.60
358.33	1101.22
358.70	1107.31
359.08	1098.65
359.45	1097.01
359.82	1108.24
360.19	1103.09
360.56	1104.03
360.94	1103.33
361.31	1100.05
361.68	1095.37
362.05	1103.56
362.42	1104.50
362.79	1108.24
363.16	1105.90
363.54	1105.20
363.91	1106.61
364.28	1096.07
364.65	1105.67
365.02	1101.46
365.39	1094.20
365.76	1087.41
366.14	1099.82
366.51	1083.43
366.88	1084.37
367.25	1087.65
367.62	1102.16
367.99	1111.52
368.36	1118.78
368.73	1120.41
369.10	1124.63
369.48	1127.67
369.85	1110.58
370.22	1109.88
370.59	1112.22
370.96	1105.20
371.33	1091.63
371.70	1092.56
372.07	1094.67
372.44	1101.22
372.81	1101.69
373.18	1094.90
373.55	1095.14
373.93	1088.82
374.30	1086.71
374.67	1081.33
375.04	1082.26
375.41	1086.94
375.78	1079.69
376.15	1086.71
376.52	1097.95
376.89	1097.24
377.26	1096.07
377.63	1104.26
378.00	1092.80
378.37	1091.16
378.74	1094.43
379.11	1100.99
379.48	1100.05
379.85	1108.71
380.22	1108.71
380.59	1109.41
380.96	1094.20
381.33	1101.92
381.70	1095.60
382.07	1101.92
382.44	1105.20
382.81	1115.73
383.18	1115.97
383.55	1124.39
383.92	1126.50
384.29	1127.20
384.66	1136.56
385.03	1127.20
385.40	1128.14
385.77	1130.71
386.14	1126.73
386.51	1130.01
386.88	1133.05
387.25	1122.05
387.62	1104.03
387.99	1114.33
388.36	1099.35
388.73	1101.69
389.10	1116.67
389.46	1123.22
389.83	1114.80
390.20	1118.54
390.57	1128.37
390.94	1117.37
391.31	1127.90
391.68	1126.73
392.05	1134.69
392.42	1133.76
392.79	1145.22
393.16	1140.07
393.53	1138.20
393.89	1135.39
394.26	1138.20
394.63	1143.59
395.00	1145.69
395.37	1154.35
395.74	1160.44
396.11	1155.52
396.48	1146.63
396.84	1143.59
397.21	1139.61
397.58	1133.76
397.95	1144.05
398.32	1152.95
398.69	1167.23
399.06	1176.35
399.42	1178.23
399.79	1169.33
400.16	1172.84
400.53	1164.42
400.90	1173.08
401.27	1183.14
401.64	1202.57
402.00	1210.29
402.37	1223.40
402.74	1229.48
403.11	1242.12
403.48	1239.31
403.84	1246.80
404.21	1259.68
404.58	1279.10
404.95	1290.57
405.32	1316.32
405.68	1345.81
406.05	1381.15
406.42	1395.43
406.79	1412.75
407.16	1434.28
407.52	1455.58
407.89	1473.13
408.26	1517.14
408.63	1566.99
408.99	1606.54
409.36	1652.18
409.73	1705.31
410.10	1745.81
410.47	1805.26
410.83	1880.15
411.20	1935.86
411.57	1997.65
411.94	2069.03
412.30	2135.04
412.67	2201.74
413.04	2283.19
413.40	2376.11
413.77	2479.80
414.14	2595.65
414.51	2732.58
414.87	2871.60
415.24	3017.65
415.61	3163.70
415.97	3317.01
416.34	3463.99
416.71	3644.68
417.08	3824.44
417.44	4041.87
417.81	4271.24
418.18	4523.55
418.54	4767.44
418.91	5052.28
419.28	5340.40
419.64	5622.67
420.01	5943.79
420.38	6267.25
420.74	6593.06
421.11	6984.39
421.48	7382.52
421.84	7808.26
422.21	8285.03
422.58	8804.86
422.94	9276.95
423.31	9800.99
423.68	10392.68
424.04	11017.37
424.41	11589.63
424.77	12185.53
425.14	12827.07
425.51	13446.85
425.87	14155.56
426.24	14908.98
426.61	15766.55
426.97	16805.51
427.34	17800.71
427.70	18837.80
428.07	19857.11
428.44	20976.82
428.80	21928.48
429.17	22948.48
429.53	23982.77
429.90	25272.87
430.27	26315.58
430.63	27500.59
431.00	28842.66
431.36	30245.57
431.73	31403.44
432.09	32734.97
432.46	34002.13
432.83	35314.71
433.19	36496.68
433.56	38011.24
433.92	39609.35
434.29	41168.15
434.65	42582.07
435.02	43899.09
435.38	45123.42
435.75	45950.80
436.11	47113.35
436.48	48177.59
436.84	49247.68
437.21	50219.70
437.57	51269.67
437.94	51975.11
438.30	52474.34
438.67	52744.67
439.03	52860.77
439.40	52944.09
439.76	52795.70
440.13	52589.03
440.49	52646.84
440.86	52236.54
441.22	51894.36
441.59	51348.78
441.95	50846.50
442.32	49876.35
442.68	49224.04
443.05	48259.27
443.41	47314.87
443.78	46167.54
444.14	45209.09
444.51	43937.94
444.87	42997.75
445.24	41768.73
445.60	40646.45
445.96	39455.81
446.33	38586.54
446.69	37376.95
447.06	36545.83
447.42	35571.23
447.79	34481.24
448.15	33443.45
448.51	32432.10
448.88	31471.78
449.24	30502.80
449.61	29847.21
449.97	29024.98
450.33	28239.03
450.70	27387.54
451.06	26815.75
451.43	26005.22
451.79	25452.62
452.15	24992.01
452.52	24467.49
452.88	23862.46
453.24	23344.27
453.61	22693.13
453.97	22058.85
454.34	21411.22
454.70	20823.04
455.06	20225.04
455.43	19564.30
455.79	18790.52
456.15	18218.03
456.52	17544.42
456.88	17003.99
457.24	16406.22
457.61	15987.73
457.97	15441.92
458.33	14918.57
458.70	14336.95
459.06	13823.67
459.42	13335.67
459.79	12862.18
460.15	12462.42
460.51	12041.35
460.88	11631.76
461.24	11191.74
461.60	10807.89
461.96	10438.56
462.33	10095.90
462.69	9791.63
463.05	9491.34
463.42	9223.35
463.78	8908.55
464.14	8650.39
464.50	8402.52
464.87	8142.26
465.23	7855.77
465.59	7638.81
465.95	7431.20
466.32	7201.83
466.68	7023.48
467.04	6844.66
467.40	6675.68
467.77	6485.86
468.13	6307.51
468.49	6157.72
468.85	6057.07
469.22	5915.24
469.58	5770.12
469.94	5666.44
470.30	5531.62
470.66	5386.74
471.03	5265.74
471.39	5181.48
471.75	5075.69
472.11	4966.38
472.47	4888.21
472.84	4801.84
473.20	4683.18
473.56	4593.07
473.92	4483.53
474.28	4351.52
474.65	4264.22
475.01	4189.56
475.37	4097.34
475.73	4009.10
476.09	3941.23
476.45	3853.93
476.81	3772.01
477.18	3688.68
477.54	3625.02
477.90	3556.21
478.26	3480.61
478.62	3425.61
478.98	3386.76
479.34	3349.31
479.71	3284.71
480.07	3253.81
480.43	3205.83
480.79	3133.04
481.15	3058.38
481.51	3012.97
481.87	2950.01
482.23	2889.16
482.59	2835.32
482.96	2790.62
483.32	2760.90
483.68	2729.53
484.04	2697.23
484.40	2675.93
484.76	2646.21
485.12	2604.55
485.48	2572.25
485.84	2541.35
486.20	2487.99
486.56	2449.14
486.92	2412.86
487.28	2373.30
487.64	2326.02
488.00	2312.92
488.37	2287.64
488.73	2258.15
489.09	2219.76
489.45	2195.19
489.81	2168.04
490.17	2131.29
490.53	2095.01
490.89	2072.54
491.25	2056.86
491.61	2009.82
491.97	1990.63
492.33	1965.11
492.69	1934.22
493.05	1898.41
493.41	1874.54
493.77	1828.43
494.13	1800.57
494.49	1789.34
494.85	1768.98
495.21	1754.23
495.57	1749.78
495.93	1736.44
496.29	1699.93
496.64	1688.46
497.00	1666.23
497.36	1652.65
497.72	1634.16
498.08	1626.91
498.44	1608.65
498.80	1595.54
499.16	1581.50
499.52	1578.69
499.88	1561.37
500.24	1553.65
500.60	1532.35
500.96	1520.41
501.32	1505.67
501.68	1491.39
502.03	1477.11
502.39	1478.75
502.75	1473.84
503.11	1457.92
503.47	1470.09
503.83	1448.56
504.19	1440.60
504.55	1422.81
504.91	1413.92
505.26	1395.90
505.62	1387.70
505.98	1381.85
506.34	1376.47
506.70	1372.26
507.06	1365.23
507.42	1365.23
507.78	1358.45
508.13	1358.45
508.49	1359.38
508.85	1329.89
509.21	1329.19
509.57	1313.51
509.93	1298.30
510.28	1288.23
510.64	1293.15
511.00	1280.98
511.36	1277.46
511.72	1273.72
512.07	1268.57
512.43	1268.34
512.79	1255.23
513.15	1255.46
513.51	1240.02
513.86	1229.02
514.22	1227.61
514.58	1232.29
514.94	1235.57
515.30	1250.08
515.65	1257.10
516.01	1250.08
516.37	1242.36
516.73	1231.82
517.08	1222.70
517.44	1216.14
517.80	1208.42
518.16	1207.25
518.51	1201.16
518.87	1205.61
519.23	1200.23
519.59	1203.74
519.94	1203.50
520.30	1197.65
520.66	1185.95
521.01	1178.69
521.37	1176.35
521.73	1169.80
522.09	1169.33
522.44	1172.37
522.80	1178.23
523.16	1186.42
523.51	1191.10
523.87	1201.87
524.23	1199.06
524.58	1193.91
524.94	1174.25
525.30	1167.46
525.65	1166.05
526.01	1161.14
526.37	1154.59
526.72	1154.82
527.08	1154.12
527.44	1146.63
527.79	1137.73
528.15	1140.54
528.51	1147.56
528.86	1147.10
529.22	1152.71
529.58	1157.63
529.93	1153.18
530.29	1161.84
530.65	1168.16
531.00	1165.82
531.36	1175.65
531.71	1176.59
532.07	1166.52
532.43	1156.69
532.78	1146.86
533.14	1130.01
533.49	1126.97
533.85	1121.35
534.21	1125.56
534.56	1133.05
534.92	1137.27
535.27	1141.48
535.63	1151.08
535.98	1154.35
536.34	1152.95
536.69	1158.33
537.05	1145.22
537.41	1137.27
537.76	1131.18
538.12	1130.48
538.47	1130.24
538.83	1133.76
539.18	1132.59
539.54	1129.78
539.89	1123.93
540.25	1123.69
540.60	1129.07
540.96	1132.12
541.31	1136.10
541.67	1135.16
542.02	1129.54
542.38	1137.50
542.73	1131.41
543.09	1127.44
543.44	1134.93
543.80	1149.91
544.15	1144.52
544.51	1153.65
544.86	1150.84
545.22	1150.37
545.57	1131.41
545.93	1128.61
546.28	1118.07
546.64	1126.27
546.99	1112.46
547.35	1117.84
547.70	1120.18
548.05	1119.95
548.41	1118.07
548.76	1123.93
549.12	1120.88
549.47	1118.31
549.83	1119.24
550.18	1122.52
550.53	1118.07
550.89	1122.75
551.24	1118.54
551.60	1122.05
551.95	1117.14
552.30	1127.67
552.66	1109.88
553.01	1115.27
553.37	1122.05
553.72	1119.01
554.07	1111.52
554.43	1128.37
554.78	1126.73
555.13	1129.78
555.49	1130.71
555.84	1125.10
556.19	1123.22
556.55	1120.41
556.90	1107.78
557.26	1101.46
557.61	1107.54
557.96	1106.84
558.32	1109.88
558.67	1112.46
559.02	1111.99
559.37	1113.63
559.73	1116.90
560.08	1120.88
560.43	1120.18
560.79	1126.03
561.14	1133.52
561.49	1130.48
561.85	1124.39
562.20	1128.84
562.55	1131.18
562.90	1111.52
563.26	1112.92
563.61	1110.58
563.96	1102.63
564.32	1094.90
564.67	1107.07
565.02	1091.39
565.37	1091.16
565.73	1085.07
566.08	1099.12
566.43	1098.18
566.78	1103.09
567.14	1104.97
567.49	1114.09
567.84	1100.05
568.19	1101.69
568.54	1109.41
568.90	1112.69
569.25	1108.95
569.60	1111.05
569.95	1107.54
570.31	1109.65
570.66	1109.41
571.01	1112.92
571.36	1122.29
571.71	1116.67
572.06	1104.50
572.42	1108.71
572.77	1113.39
573.12	1110.12
573.47	1108.48
573.82	1117.61
574.18	1111.75
574.53	1115.50
574.88	1118.54
575.23	1126.97
575.58	1133.99
575.93	1123.93
576.28	1117.84
576.64	1105.44
576.99	1102.16
577.34	1092.09
577.69	1092.33
578.04	1087.88
578.39	1098.41
578.74	1096.54
579.09	1096.07
579.44	1104.50
579.80	1093.03
580.15	1093.03
580.50	1096.31
580.85	1099.58
581.20	1100.52
581.55	1109.41
581.90	1108.01
582.25	1106.37
582.60	1100.99
582.95	1095.84
583.30	1102.86
583.65	1102.86
584.00	1104.97
584.35	1107.07
584.71	1110.58
585.06	1110.12
585.41	1101.69
585.76	1103.09
586.11	1101.46
586.46	1103.33
586.81	1097.95
587.16	1104.97
587.51	1107.07
587.86	1107.31
588.21	1107.07
588.56	1104.50
588.91	1103.09
589.26	1102.16
589.61	1102.86
589.96	1100.05
590.31	1108.48
590.66	1112.92
591.01	1112.69
591.36	1115.50
591.71	1113.63
592.06	1111.29
592.41	1107.78
592.76	1103.09
593.10	1100.29
593.45	1097.71
593.80	1091.39
594.15	1091.63
594.50	1087.88
594.85	1096.31
595.20	1103.33
595.55	1109.65
595.90	1110.58
596.25	1109.18
596.60	1106.14
596.95	1106.84
597.30	1103.33
597.64	1154.35
597.99	1165.12
598.34	1159.50
598.69	1152.01
599.04	1149.67
599.39	1094.90
599.74	1090.69
600.09	1097.24
600.44	1096.54
600.78	1099.12
601.13	1100.05
601.48	1098.65
601.83	1104.97
602.18	1107.54
602.53	1100.99
602.88	1114.33
603.22	1109.88
603.57	1096.31
603.92	1096.54
604.27	1103.33
604.62	1095.14
604.97	1104.03
605.31	1109.18
605.66	1105.90
606.01	1103.80
606.36	1102.39
606.71	1098.18
607.05	1101.22
607.40	1111.99
607.75	1101.46
608.10	1105.90
608.44	1099.58
608.79	1091.63
609.14	1086.48
609.49	1103.80
609.84	1100.75
610.18	1108.24
610.53	1111.52
610.88	1108.71
611.23	1106.37
611.57	1097.95
611.92	1096.07
612.27	1091.63
612.62	1097.01
612.96	1101.46
613.31	1104.97
613.66	1107.78
614.00	1118.07
614.35	1110.82
614.70	1094.90
615.05	1097.24
615.39	1104.03
615.74	1088.12
616.09	1090.46
616.43	1098.41
616.78	1096.31
617.13	1093.26
617.47	1096.78
617.82	1093.50
618.17	1099.35
618.51	1095.84
618.86	1088.35
619.21	1085.54
619.55	1088.82
619.90	1083.43
620.25	1090.46
620.59	1094.43
620.94	1108.24
621.29	1101.22
621.63	1098.88
621.98	1091.16
622.32	1086.48
622.67	1083.67
623.02	1094.20
623.36	1099.82
623.71	1098.65
624.05	1104.73
624.40	1102.86
624.75	1107.54
625.09	1105.90
625.44	1113.86
625.78	1117.84
626.13	1117.61
626.48	1114.56
626.82	1114.10
627.17	1107.31
627.51	1103.09
627.86	1091.16
628.20	1085.77
628.55	1082.73
628.89	1080.86
629.24	1076.41
629.58	1097.48
629.93	1102.16
630.28	1104.03
630.62	1097.71
630.97	1101.92
631.31	1093.26
631.66	1091.16
632.00	1099.35
632.35	1103.80
632.69	1105.67
633.04	1108.24
633.38	1105.20
633.73	1082.26
634.07	1096.78
634.42	1090.92
634.76	1092.80
635.11	1097.71
635.45	1122.75
635.79	1120.18
636.14	1117.61
636.48	1116.44
636.83	1104.26
637.17	1088.82
637.52	1084.14
637.86	1079.46
638.21	1081.33
638.55	1093.03
638.89	1093.97
639.24	1088.58
639.58	1097.71
639.93	1096.78
640.27	1095.84
640.61	1102.63
640.96	1102.39
641.30	1098.65
641.65	1095.14
641.99	1094.90
642.33	1082.26
642.68	1085.07
643.02	1091.39
643.37	1086.48
643.71	1086.71
644.05	1091.39
644.40	1098.88
644.74	1092.09
645.08	1094.90
645.43	1095.84
645.77	1101.22
646.11	1092.56
646.46	1098.18
646.80	1091.39
647.14	1084.14
647.49	1091.16
647.83	1092.56
648.17	1080.63
648.52	1083.67
648.86	1084.37
649.20	1083.90
649.55	1081.09
649.89	1095.60
650.23	1100.29
650.57	1106.61
650.92	1102.86
651.26	1108.71
651.60	1102.63
651.95	1104.73
652.29	1097.01
652.63	1079.69
652.97	1083.20
653.32	1080.63
653.66	1082.73
654.00	1082.50
654.34	1090.69
654.69	1087.18
655.03	1094.90
655.37	1085.77
655.71	1088.82
656.05	1096.78
656.40	1093.26
656.74	1086.94
657.08	1081.56
657.42	1085.77
657.76	1078.75
658.11	1077.58
658.45	1081.33
658.79	1092.56
659.13	1089.52
659.47	1094.90
659.82	1094.67
660.16	1089.29
660.50	1091.16
660.84	1095.14
661.18	1092.80
661.52	1086.71
661.87	1092.33
662.21	1082.26
662.55	1076.65
662.89	1079.69
663.23	1084.84
663.57	1082.73
663.91	1085.54
664.25	1085.07
664.60	1083.90
664.94	1090.46
665.28	1086.24
665.62	1092.09
665.96	1090.22
666.30	1087.88
666.64	1083.90
666.98	1088.58
667.32	1081.56
667.66	1091.63
668.01	1089.99
668.35	1086.48
668.69	1080.39
669.03	1071.03
669.37	1055.58
669.71	1059.09
670.05	1075.71
670.39	1077.35
670.73	1091.16
671.07	1097.71
671.41	1095.60
671.75	1077.11
672.09	1080.86
672.43	1075.48
672.77	1078.75
673.11	1077.11
673.45	1074.54
673.79	1078.28
674.13	1080.16
674.47	1081.80
674.81	1088.82
675.15	1102.86
675.49	1094.90
675.83	1087.65
676.17	1083.67
676.51	1078.05
676.85	1071.26
677.19	1069.16
677.53	1079.69
677.87	1086.71
678.21	1090.69
678.55	1084.60
678.89	1092.33
679.23	1091.86
679.57	1084.60
679.90	1082.73
680.24	1090.46
680.58	1090.46
680.92	1081.33
681.26	1093.26
681.60	1090.92
681.94	1087.18
682.28	1077.82
682.62	1084.60
682.96	1071.50
683.29	1073.84
683.63	1082.26
683.97	1087.41
684.31	1086.24
684.65	1078.52
684.99	1083.43
685.33	1071.50
685.67	1066.58
686.00	1075.01
686.34	1077.35
686.68	1069.86
687.02	1080.63
687.36	1091.39
687.70	1082.97
688.03	1090.69
688.37	1092.56
688.71	1088.12
689.05	1090.22
689.39	1090.69
689.72	1080.39
690.06	1077.82
690.40	1081.56
690.74	1075.24
691.08	1071.50
691.41	1080.16
691.75	1081.56
692.09	1077.82
692.43	1081.09
692.76	1082.03
693.10	1086.94
693.44	1080.86
693.78	1079.69
694.11	1069.86
694.45	1075.71
694.79	1078.05
695.13	1086.94
695.46	1086.71
695.80	1089.52
696.14	1089.52
696.48	1084.37
696.81	1083.67
697.15	1089.52
697.49	1092.80
697.82	1093.97
698.16	1084.37
698.50	1085.31
698.83	1080.86
699.17	1075.24
699.51	1077.82
699.84	1086.94
700.18	1081.80
700.52	1086.71
700.85	1089.99
701.19	1088.35
701.53	1084.14
701.86	1089.29
702.20	1085.31
702.54	1090.92
702.87	1094.43
703.21	1094.90
703.55	1091.86
703.88	1086.94
704.22	1081.80
704.55	1072.20
704.89	1073.84
705.23	1070.80
705.56	1074.07
705.90	1072.20
706.23	1074.54
706.57	1071.50
706.91	1075.94
707.24	1072.90
707.58	1076.65
707.91	1075.48
708.25	1082.50
708.58	1081.80
708.92	1078.05
709.26	1074.07
709.59	1072.67
709.93	1061.20
710.26	1050.43
710.60	1068.45
710.93	1074.31
711.27	1077.11
711.60	1094.67
711.94	1103.56
712.27	1086.48
712.61	1088.58
712.94	1088.35
713.28	1078.75
713.61	1078.05
713.95	1077.82
714.28	1066.58
714.62	1065.41
714.95	1058.62
715.29	1064.24
715.62	1067.99
715.96	1076.88
716.29	1075.48
716.63	1081.56
716.96	1087.18
717.29	1084.14
717.63	1086.24
717.96	1087.88
718.30	1089.99
718.63	1087.18
718.97	1090.92
719.30	1083.43
719.63	1086.94
719.97	1078.75
720.30	1070.80
720.64	1070.80
720.97	1070.80
721.30	1066.82
721.64	1080.16
721.97	1088.12
722.31	1087.41
722.64	1091.39
722.97	1088.82
723.31	1079.69
723.64	1062.84
723.97	1068.22
724.31	1063.54
724.64	1071.73
724.98	1068.22
725.31	1078.28
725.64	1078.52
725.98	1085.07
726.31	1085.77
726.64	1089.99
726.97	1082.26
727.31	1076.88
727.64	1074.31
727.97	1069.86
728.31	1069.86
728.64	1082.50
728.97	1081.56
729.31	1086.24
729.64	1083.90
729.97	1089.52
730.30	1083.67
730.64	1084.37
730.97	1080.39
731.30	1089.75
731.63	1092.09
731.97	1094.67
732.30	1097.71
732.63	1098.41
732.96	1089.29
733.30	1088.12
733.63	1086.94
733.96	1085.54
734.29	1088.12
734.63	1090.69
734.96	1092.09
735.29	1090.69
735.62	1092.09
735.95	1084.60
736.29	1084.14
736.62	1075.94
736.95	1072.67
737.28	1071.03
737.61	1083.90
737.94	1079.92
738.28	1089.52
738.61	1096.78
738.94	1102.16
739.27	1097.71
739.60	1108.24
739.93	1097.71
740.27	1091.86
740.60	1078.99
740.93	1082.03
741.26	1085.31
741.59	1087.41
741.92	1094.67
742.25	1104.97
742.58	1093.26
742.91	1090.92
743.25	1094.43
743.58	1090.22
743.91	1087.65
744.24	1093.73
744.57	1089.75
744.90	1088.35
745.23	1090.22
745.56	1085.54
745.89	1079.22
746.22	1070.56
746.55	1059.79
746.88	1064.48
747.21	1074.07
747.54	1074.54
747.87	1082.97
748.20	1079.92
748.53	1065.41
748.87	1058.62
749.20	1060.73
749.53	1056.05
749.86	1065.88
750.19	1069.86
750.52	1076.65
750.85	1079.92
751.18	1087.18
751.51	1088.58
751.84	1082.97
752.16	1072.90
752.49	1074.54
752.82	1066.58
753.15	1065.88
753.48	1077.58
753.81	1085.31
754.14	1088.82
754.47	1083.90
754.80	1084.84
755.13	1083.43
755.46	1085.31
755.79	1078.05
756.12	1087.65
756.45	1095.60
756.78	1096.54
757.11	1092.09
757.43	1090.46
757.76	1094.43
758.09	1085.77
758.42	1080.39
758.75	1088.35
759.08	1083.20
759.41	1072.43
759.74	1072.43
760.07	1073.60
760.39	1064.48
760.72	1066.35
761.05	1074.31
761.38	1078.28
761.71	1074.54
762.04	1074.31
762.36	1080.39
762.69	1072.43
763.02	1072.20
763.35	1078.75
763.68	1082.73
764.01	1087.18
