SpectraSuite Data File
++++++++++++++++++++++++++++++++++++
Date: Mon Aug 26 10:24:43 PDT 2019
User: corrico
Dark Spectrum Present: No
Reference Spectrum Present: No
Number of Sampled Component Spectra: 1
Spectrometers: USB2+H06089
Integration Time (usec): 10000 (USB2+H06089)
Spectra Averaged: 2 (USB2+H06089)
Boxcar Smoothing: 2 (USB2+H06089)
Correct for Electrical Dark: No (USB2+H06089)
Strobe/Lamp Enabled: No (USB2+H06089)
Correct for Detector Non-linearity: No (USB2+H06089)
Correct for Stray Light: No (USB2+H06089)
Number of Pixels in Processed Spectrum: 2048
>>>>>Begin Processed Spectral Data<<<<<
339.70	1027.50
340.07	1027.50
340.45	1005.03
340.82	993.56
341.19	975.54
341.57	944.64
341.94	941.13
342.31	922.64
342.69	904.62
343.06	898.53
343.43	914.92
343.81	912.34
344.18	915.85
344.55	920.06
344.93	919.83
345.30	911.87
345.67	913.98
346.04	921.94
346.42	932.00
346.79	942.77
347.16	959.62
347.54	971.56
347.91	981.39
348.28	1000.11
348.65	1017.66
349.03	1025.39
349.40	1038.73
349.77	1048.33
350.14	1057.22
350.52	1065.88
350.89	1073.84
351.26	1082.26
351.63	1085.31
352.01	1079.46
352.38	1076.65
352.75	1080.86
353.12	1084.84
353.50	1083.90
353.87	1101.22
354.24	1097.48
354.61	1100.29
354.98	1098.88
355.36	1102.86
355.73	1087.18
356.10	1101.69
356.47	1105.67
356.84	1099.82
357.22	1105.90
357.59	1117.84
357.96	1109.18
358.33	1098.88
358.70	1103.80
359.08	1102.39
359.45	1095.60
359.82	1104.03
360.19	1109.18
360.56	1107.78
360.94	1102.39
361.31	1104.50
361.68	1099.58
362.05	1104.03
362.42	1107.78
362.79	1115.97
363.16	1111.05
363.54	1113.16
363.91	1108.24
364.28	1099.12
364.65	1087.65
365.02	1082.50
365.39	1083.20
365.76	1074.77
366.14	1071.97
366.51	1078.99
366.88	1093.73
367.25	1092.80
367.62	1102.63
367.99	1113.63
368.36	1103.09
368.73	1091.16
369.10	1083.43
369.48	1087.88
369.85	1085.07
370.22	1095.37
370.59	1101.92
370.96	1109.88
371.33	1104.26
371.70	1100.75
372.07	1105.67
372.44	1100.75
372.81	1094.67
373.18	1101.46
373.55	1107.78
373.93	1111.99
374.30	1118.31
374.67	1124.39
375.04	1117.61
375.41	1103.80
375.78	1097.71
376.15	1095.37
376.52	1095.84
376.89	1100.75
377.26	1113.63
377.63	1112.92
378.00	1120.41
378.37	1127.67
378.74	1125.33
379.11	1116.67
379.48	1118.31
379.85	1119.71
380.22	1110.58
380.59	1103.56
380.96	1111.52
381.33	1115.97
381.70	1110.82
382.07	1107.07
382.44	1115.27
382.81	1111.99
383.18	1104.50
383.55	1111.05
383.92	1120.88
384.29	1118.31
384.66	1118.54
385.03	1119.71
385.40	1119.24
385.77	1114.10
386.14	1110.58
386.51	1115.50
386.88	1118.78
387.25	1114.56
387.62	1119.24
387.99	1123.46
388.36	1132.59
388.73	1130.24
389.10	1131.65
389.46	1127.20
389.83	1125.33
390.20	1126.97
390.57	1133.29
390.94	1132.82
391.31	1133.05
391.68	1130.95
392.05	1113.39
392.42	1114.80
392.79	1118.54
393.16	1123.46
393.53	1132.35
393.89	1141.25
394.26	1140.54
394.63	1142.18
395.00	1146.86
395.37	1148.50
395.74	1146.63
396.11	1145.69
396.48	1148.27
396.84	1147.10
397.21	1148.50
397.58	1162.78
397.95	1174.95
398.32	1174.95
398.69	1181.97
399.06	1179.63
399.42	1185.01
399.79	1187.59
400.16	1193.67
400.53	1191.80
400.90	1207.25
401.27	1208.65
401.64	1208.65
402.00	1209.59
402.37	1222.70
402.74	1225.04
403.11	1240.95
403.48	1261.78
403.84	1276.29
404.21	1280.27
404.58	1299.47
404.95	1304.61
405.32	1305.55
405.68	1324.98
406.05	1356.81
406.42	1376.47
406.79	1405.49
407.16	1428.66
407.52	1463.30
407.89	1497.01
408.26	1541.94
408.63	1574.95
408.99	1623.63
409.36	1659.67
409.73	1692.44
410.10	1737.15
410.47	1788.87
410.83	1843.87
411.20	1898.17
411.57	1972.60
411.94	2043.29
412.30	2118.18
412.67	2192.85
413.04	2295.83
413.40	2385.94
413.77	2480.73
414.14	2605.72
414.51	2741.24
414.87	2863.41
415.24	3016.25
415.61	3183.60
415.97	3332.92
416.34	3491.38
416.71	3680.02
417.08	3860.71
417.44	4042.11
417.81	4271.95
418.18	4502.02
418.54	4738.41
418.91	5008.51
419.28	5303.42
419.64	5596.22
420.01	5950.81
420.38	6301.89
420.74	6664.91
421.11	7050.63
421.48	7445.48
421.84	7867.01
422.21	8308.43
422.58	8784.73
422.94	9261.27
423.31	9778.52
423.68	10340.72
424.04	10945.28
424.41	11555.22
424.77	12230.00
425.14	12910.16
425.51	13574.40
425.87	14333.91
426.24	15119.16
426.61	15992.41
426.97	17015.93
427.34	17920.08
427.70	18937.98
428.07	19939.02
428.44	20894.43
428.80	21850.07
429.17	22991.08
429.53	24084.58
429.90	25369.53
430.27	26584.04
430.63	27703.99
431.00	29040.66
431.36	30407.07
431.73	31643.34
432.09	32963.40
432.46	34379.90
432.83	35674.45
433.19	36845.88
433.56	38285.78
433.92	39785.13
434.29	41117.36
434.65	42426.19
435.02	43772.23
435.38	44886.33
435.75	45748.11
436.11	47072.62
436.48	48146.93
436.84	49093.67
437.21	49974.88
437.57	51011.27
437.94	51591.02
438.30	52169.84
438.67	52593.71
439.03	52896.34
439.40	53047.07
439.76	52883.70
440.13	52697.63
440.49	52679.37
440.86	52351.23
441.22	52003.89
441.59	51582.13
441.95	51079.15
442.32	50258.09
442.68	49552.18
443.05	48608.01
443.41	47733.35
443.78	46635.17
444.14	45504.23
444.51	44145.55
444.87	43127.65
445.24	41908.23
445.60	40755.05
445.96	39655.46
446.33	38837.91
446.69	37645.88
447.06	36701.24
447.42	35739.98
447.79	34598.03
448.15	33529.11
448.51	32490.85
448.88	31638.43
449.24	30620.99
449.61	30030.01
449.97	29274.25
450.33	28612.35
450.70	27711.47
451.06	27161.21
451.43	26327.28
451.79	25767.66
452.15	25221.14
452.52	24681.65
452.88	24086.69
453.24	23565.22
453.61	22898.16
453.97	22230.17
454.34	21526.14
454.70	20931.41
455.06	20316.32
455.43	19669.39
455.79	18908.02
456.15	18340.20
456.52	17623.77
456.88	17072.10
457.24	16467.31
457.61	16032.20
457.97	15483.81
458.33	14978.73
458.70	14403.42
459.06	13856.67
459.42	13347.37
459.79	12856.09
460.15	12427.78
460.51	11959.44
460.88	11572.08
461.24	11165.76
461.60	10842.53
461.96	10500.35
462.33	10223.23
462.69	9886.19
463.05	9554.77
463.42	9242.31
463.78	8962.61
464.14	8679.64
464.50	8473.91
464.87	8237.05
465.23	7992.23
465.59	7749.05
465.95	7533.95
466.32	7288.19
466.68	7126.70
467.04	6930.33
467.40	6751.04
467.77	6564.73
468.13	6411.20
468.49	6239.63
468.85	6105.52
469.22	5973.98
469.58	5844.32
469.94	5711.84
470.30	5566.03
470.66	5445.96
471.03	5326.36
471.39	5225.48
471.75	5099.09
472.11	5001.02
472.47	4905.06
472.84	4790.14
473.20	4662.11
473.56	4561.24
473.92	4438.59
474.28	4339.35
474.65	4260.71
475.01	4173.41
475.37	4092.19
475.73	4022.21
476.09	3946.38
476.45	3849.48
476.81	3788.86
477.18	3724.26
477.54	3648.19
477.90	3569.79
478.26	3499.57
478.62	3412.50
478.98	3356.33
479.34	3319.11
479.71	3271.13
480.07	3236.96
480.43	3202.32
480.79	3137.96
481.15	3090.44
481.51	3049.48
481.87	2991.44
482.23	2927.54
482.59	2900.39
482.96	2830.41
483.32	2772.36
483.68	2723.68
484.04	2695.83
484.40	2639.42
484.76	2617.89
485.12	2591.68
485.48	2573.89
485.84	2543.93
486.20	2501.10
486.56	2451.95
486.92	2406.07
487.28	2366.75
487.64	2319.00
488.00	2301.68
488.37	2268.21
488.73	2244.11
489.09	2211.81
489.45	2198.23
489.81	2167.57
490.17	2150.25
490.53	2105.08
490.89	2068.33
491.25	2038.61
491.61	2030.65
491.97	2006.31
492.33	1996.01
492.69	1970.73
493.05	1954.58
493.41	1920.18
493.77	1896.54
494.13	1875.47
494.49	1872.19
494.85	1842.47
495.21	1816.02
495.57	1791.68
495.93	1774.13
496.29	1736.91
496.64	1715.61
497.00	1685.89
497.36	1667.87
497.72	1637.91
498.08	1622.93
498.44	1615.67
498.80	1598.35
499.16	1582.44
499.52	1565.12
499.88	1550.60
500.24	1531.41
500.60	1524.62
500.96	1513.62
501.32	1516.90
501.68	1507.07
502.03	1489.28
502.39	1486.24
502.75	1474.54
503.11	1448.09
503.47	1431.00
503.83	1424.92
504.19	1408.07
504.55	1395.19
504.91	1388.64
505.26	1394.02
505.62	1381.38
505.98	1369.92
506.34	1366.17
506.70	1362.66
507.06	1341.60
507.42	1343.70
507.78	1338.55
508.13	1333.17
508.49	1327.79
508.85	1332.23
509.21	1320.06
509.57	1320.53
509.93	1319.36
510.28	1312.57
510.64	1302.98
511.00	1298.53
511.36	1284.49
511.72	1276.29
512.07	1273.95
512.43	1265.29
512.79	1259.91
513.15	1253.36
513.51	1254.76
513.86	1247.51
514.22	1253.12
514.58	1254.53
514.94	1263.89
515.30	1253.36
515.65	1247.51
516.01	1244.23
516.37	1245.87
516.73	1234.87
517.08	1230.89
517.44	1222.46
517.80	1218.95
518.16	1198.59
518.51	1192.50
518.87	1184.08
519.23	1193.91
519.59	1187.59
519.94	1193.44
520.30	1199.29
520.66	1211.46
521.01	1220.82
521.37	1219.42
521.73	1223.87
522.09	1218.25
522.44	1209.35
522.80	1188.52
523.16	1179.63
523.51	1174.71
523.87	1175.18
524.23	1172.84
524.58	1168.63
524.94	1166.05
525.30	1166.52
525.65	1154.35
526.01	1154.12
526.37	1157.86
526.72	1152.95
527.08	1147.33
527.44	1156.22
527.79	1151.54
528.15	1149.91
528.51	1154.82
528.86	1156.69
529.22	1154.59
529.58	1156.46
529.93	1159.50
530.29	1156.46
530.65	1152.71
531.00	1150.84
531.36	1152.01
531.71	1152.25
532.07	1155.99
532.43	1155.99
532.78	1154.59
533.14	1153.42
533.49	1150.14
533.85	1157.86
534.21	1148.73
534.56	1139.61
534.92	1129.54
535.27	1124.16
535.63	1115.03
535.98	1119.01
536.34	1135.63
536.69	1135.16
537.05	1142.42
537.41	1137.03
537.76	1145.93
538.12	1134.46
538.47	1139.84
538.83	1135.63
539.18	1143.82
539.54	1133.52
539.89	1140.31
540.25	1133.29
540.60	1127.67
540.96	1128.61
541.31	1133.52
541.67	1130.01
542.02	1137.97
542.38	1138.44
542.73	1134.46
543.09	1128.37
543.44	1125.56
543.80	1128.14
544.15	1129.54
544.51	1131.18
544.86	1126.03
545.22	1125.56
545.57	1115.97
545.93	1120.18
546.28	1117.14
546.64	1126.97
546.99	1126.27
547.35	1136.56
547.70	1129.31
548.05	1133.29
548.41	1128.84
548.76	1122.05
549.12	1129.54
549.47	1137.50
549.83	1137.27
550.18	1135.39
550.53	1144.99
550.89	1138.44
551.24	1140.78
551.60	1137.27
551.95	1146.16
552.30	1135.63
552.66	1128.37
553.01	1125.33
553.37	1117.37
553.72	1112.22
554.07	1116.44
554.43	1117.37
554.78	1112.69
555.13	1128.14
555.49	1123.22
555.84	1112.69
556.19	1118.07
556.55	1107.54
556.90	1098.41
557.26	1103.33
557.61	1123.69
557.96	1105.90
558.32	1116.20
558.67	1117.37
559.02	1123.22
559.37	1108.71
559.73	1119.48
560.08	1118.07
560.43	1118.07
560.79	1111.99
561.14	1115.27
561.49	1114.33
561.85	1117.37
562.20	1111.52
562.55	1102.39
562.90	1097.71
563.26	1110.12
563.61	1109.18
563.96	1111.52
564.32	1115.27
564.67	1126.73
565.02	1121.12
565.37	1126.03
565.73	1127.44
566.08	1123.93
566.43	1124.86
566.78	1117.14
567.14	1109.88
567.49	1111.99
567.84	1111.75
568.19	1115.27
568.54	1122.29
568.90	1126.27
569.25	1120.65
569.60	1121.58
569.95	1113.63
570.31	1107.31
570.66	1111.52
571.01	1121.58
571.36	1129.07
571.71	1131.88
572.06	1130.24
572.42	1119.01
572.77	1113.16
573.12	1109.65
573.47	1106.14
573.82	1103.56
574.18	1095.37
574.53	1088.82
574.88	1085.31
575.23	1089.52
575.58	1089.05
575.93	1100.75
576.28	1103.56
576.64	1108.48
576.99	1103.33
577.34	1117.14
577.69	1122.52
578.04	1124.63
578.39	1126.50
578.74	1129.07
579.09	1126.50
579.44	1121.12
579.80	1111.99
580.15	1104.03
580.50	1109.65
580.85	1105.90
581.20	1116.90
581.55	1129.54
581.90	1134.22
582.25	1125.10
582.60	1118.31
582.95	1114.10
583.30	1115.50
583.65	1115.50
584.00	1116.44
584.35	1118.07
584.71	1109.41
585.06	1103.80
585.41	1103.33
585.76	1093.26
586.11	1095.60
586.46	1098.18
586.81	1100.75
587.16	1097.24
587.51	1105.67
587.86	1100.52
588.21	1106.14
588.56	1105.44
588.91	1113.16
589.26	1109.18
589.61	1122.29
589.96	1125.56
590.31	1131.88
590.66	1134.22
591.01	1128.61
591.36	1121.35
591.71	1110.58
592.06	1106.14
592.41	1098.65
592.76	1106.37
593.10	1110.35
593.45	1111.99
593.80	1103.09
594.15	1104.97
594.50	1109.41
594.85	1099.35
595.20	1093.03
595.55	1097.48
595.90	1091.39
596.25	1088.58
596.60	1090.92
596.95	1097.01
597.30	1097.01
597.64	1148.97
597.99	1165.59
598.34	1172.61
598.69	1170.74
599.04	1174.95
599.39	1128.14
599.74	1115.03
600.09	1117.84
600.44	1123.93
600.78	1118.31
601.13	1121.12
601.48	1122.99
601.83	1121.82
602.18	1116.90
602.53	1111.29
602.88	1111.05
603.22	1101.69
603.57	1083.90
603.92	1081.09
604.27	1090.92
604.62	1083.90
604.97	1090.92
605.31	1103.80
605.66	1108.48
606.01	1105.67
606.36	1106.84
606.71	1102.16
607.05	1100.75
607.40	1100.05
607.75	1096.07
608.10	1092.80
608.44	1095.60
608.79	1097.48
609.14	1092.80
609.49	1096.54
609.84	1100.05
610.18	1098.65
610.53	1092.33
610.88	1091.39
611.23	1094.20
611.57	1092.56
611.92	1101.46
612.27	1105.90
612.62	1105.67
612.96	1104.73
613.31	1098.88
613.66	1097.95
614.00	1100.75
614.35	1108.01
614.70	1100.99
615.05	1106.84
615.39	1095.84
615.74	1091.63
616.09	1089.52
616.43	1091.39
616.78	1093.26
617.13	1089.05
617.47	1089.99
617.82	1094.67
618.17	1100.29
618.51	1106.14
618.86	1114.80
619.21	1121.58
619.55	1117.14
619.90	1115.50
620.25	1108.01
620.59	1109.88
620.94	1104.97
621.29	1105.90
621.63	1107.31
621.98	1110.58
622.32	1103.33
622.67	1103.80
623.02	1101.22
623.36	1094.43
623.71	1094.67
624.05	1098.65
624.40	1095.60
624.75	1098.41
625.09	1097.95
625.44	1092.56
625.78	1097.48
626.13	1108.24
626.48	1110.12
626.82	1112.92
627.17	1116.20
627.51	1114.56
627.86	1103.80
628.20	1101.22
628.55	1106.61
628.89	1106.84
629.24	1100.29
629.58	1100.05
629.93	1091.39
630.28	1086.24
630.62	1080.86
630.97	1085.31
631.31	1082.97
631.66	1087.88
632.00	1082.50
632.35	1077.35
632.69	1071.73
633.04	1073.37
633.38	1072.43
633.73	1070.56
634.07	1081.33
634.42	1084.37
634.76	1083.67
635.11	1088.82
635.45	1097.01
635.79	1095.60
636.14	1086.71
636.48	1087.41
636.83	1077.58
637.17	1083.43
637.52	1079.92
637.86	1088.12
638.21	1098.65
638.55	1104.50
638.89	1098.18
639.24	1109.41
639.58	1109.18
639.93	1099.58
640.27	1098.18
640.61	1100.99
640.96	1089.29
641.30	1093.73
641.65	1097.95
641.99	1098.41
642.33	1100.75
642.68	1106.84
643.02	1109.65
643.37	1097.24
643.71	1097.01
644.05	1088.82
644.40	1089.99
644.74	1086.01
645.08	1096.31
645.43	1100.29
645.77	1109.65
646.11	1103.09
646.46	1099.58
646.80	1097.48
647.14	1087.18
647.49	1077.11
647.83	1078.28
648.17	1082.50
648.52	1079.22
648.86	1095.84
649.20	1101.92
649.55	1109.65
649.89	1114.33
650.23	1111.52
650.57	1101.46
650.92	1094.67
651.26	1089.99
651.60	1082.03
651.95	1093.50
652.29	1100.05
652.63	1109.18
652.97	1096.31
653.32	1095.37
653.66	1089.75
654.00	1085.31
654.34	1078.05
654.69	1095.60
655.03	1104.50
655.37	1091.39
655.71	1089.05
656.05	1090.92
656.40	1088.12
656.74	1081.80
657.08	1091.39
657.42	1090.92
657.76	1090.69
658.11	1088.58
658.45	1080.86
658.79	1082.50
659.13	1087.18
659.47	1088.12
659.82	1089.99
660.16	1094.90
660.50	1107.31
660.84	1107.78
661.18	1107.54
661.52	1099.35
661.87	1105.44
662.21	1099.82
662.55	1093.26
662.89	1096.54
663.23	1108.01
663.57	1094.43
663.91	1076.41
664.25	1082.50
664.60	1069.39
664.94	1068.22
665.28	1088.12
665.62	1097.48
665.96	1104.73
666.30	1121.12
666.64	1112.46
666.98	1096.31
667.32	1097.71
667.66	1088.35
668.01	1086.24
668.35	1090.69
668.69	1100.75
669.03	1101.46
669.37	1095.84
669.71	1076.88
670.05	1075.71
670.39	1068.92
670.73	1067.28
671.07	1075.24
671.41	1090.92
671.75	1090.22
672.09	1082.26
672.43	1077.58
672.77	1081.80
673.11	1076.18
673.45	1084.14
673.79	1087.18
674.13	1091.39
674.47	1087.88
674.81	1087.65
675.15	1085.54
675.49	1088.35
675.83	1092.80
676.17	1089.75
676.51	1093.50
676.85	1089.05
677.19	1088.35
677.53	1087.88
677.87	1093.26
678.21	1086.48
678.55	1086.24
678.89	1081.80
679.23	1078.28
679.57	1068.92
679.90	1075.48
680.24	1078.28
680.58	1083.43
680.92	1085.54
681.26	1084.84
681.60	1088.58
681.94	1085.31
682.28	1089.75
682.62	1082.97
682.96	1089.75
683.29	1082.50
683.63	1082.73
683.97	1078.99
684.31	1077.11
684.65	1066.82
684.99	1062.60
685.33	1064.94
685.67	1058.62
686.00	1076.41
686.34	1093.03
686.68	1097.95
687.02	1103.33
687.36	1114.10
687.70	1104.26
688.03	1096.07
688.37	1095.37
688.71	1082.50
689.05	1077.35
689.39	1080.86
689.72	1078.99
690.06	1078.05
690.40	1085.77
690.74	1084.84
691.08	1079.46
691.41	1080.63
691.75	1079.92
692.09	1076.41
692.43	1079.22
692.76	1082.26
693.10	1074.31
693.44	1078.75
693.78	1076.88
694.11	1072.67
694.45	1063.31
694.79	1071.50
695.13	1071.50
695.46	1070.33
695.80	1069.39
696.14	1074.31
696.48	1071.03
696.81	1072.90
697.15	1080.16
697.49	1076.41
697.82	1080.39
698.16	1077.82
698.50	1078.05
698.83	1079.92
699.17	1085.77
699.51	1096.07
699.84	1100.29
700.18	1102.63
700.52	1102.63
700.85	1105.67
701.19	1079.69
701.53	1073.84
701.86	1075.24
702.20	1071.73
702.54	1069.16
702.87	1077.35
703.21	1071.97
703.55	1063.77
703.88	1063.31
704.22	1065.18
704.55	1072.43
704.89	1082.03
705.23	1086.94
705.56	1089.75
705.90	1101.46
706.23	1104.26
706.57	1102.63
706.91	1096.54
707.24	1082.97
707.58	1071.73
707.91	1072.43
708.25	1081.33
708.58	1082.97
708.92	1103.80
709.26	1101.22
709.59	1095.84
709.93	1098.18
710.26	1098.41
710.60	1084.14
710.93	1087.65
711.27	1094.43
711.60	1086.01
711.94	1088.82
712.27	1084.14
712.61	1087.41
712.94	1080.86
713.28	1081.33
713.61	1077.82
713.95	1089.99
714.28	1087.65
714.62	1086.48
714.95	1081.80
715.29	1101.46
715.62	1098.88
715.96	1103.56
716.29	1111.29
716.63	1114.80
716.96	1096.54
717.29	1090.92
717.63	1086.01
717.96	1089.29
718.30	1087.41
718.63	1078.75
718.97	1089.75
719.30	1088.82
719.63	1072.43
719.97	1072.43
720.30	1073.37
720.64	1081.09
720.97	1080.16
721.30	1085.77
721.64	1092.33
721.97	1102.16
722.31	1086.01
722.64	1078.75
722.97	1082.97
723.31	1078.75
723.64	1079.92
723.97	1071.26
724.31	1079.22
724.64	1066.58
724.98	1065.41
725.31	1068.22
725.64	1073.60
725.98	1068.92
726.31	1068.45
726.64	1074.31
726.97	1064.24
727.31	1070.80
727.64	1073.84
727.97	1089.29
728.31	1088.12
728.64	1094.90
728.97	1092.09
729.31	1091.16
729.64	1083.67
729.97	1082.03
730.30	1071.03
730.64	1078.52
730.97	1082.03
731.30	1084.84
731.63	1079.46
731.97	1086.01
732.30	1079.46
732.63	1076.65
732.96	1073.14
733.30	1072.43
733.63	1069.86
733.96	1066.35
734.29	1070.56
734.63	1075.01
734.96	1086.94
735.29	1099.82
735.62	1099.35
735.95	1093.03
736.29	1097.24
736.62	1089.29
736.95	1081.80
737.28	1083.67
737.61	1084.37
737.94	1078.05
738.28	1087.18
738.61	1087.88
738.94	1081.09
739.27	1084.84
739.60	1078.05
739.93	1067.99
740.27	1067.75
740.60	1075.71
740.93	1064.48
741.26	1069.39
741.59	1075.24
741.92	1073.84
742.25	1072.67
742.58	1085.07
742.91	1081.80
743.25	1075.71
743.58	1070.56
743.91	1061.67
744.24	1056.75
744.57	1054.65
744.90	1051.60
745.23	1057.69
745.56	1072.20
745.89	1075.71
746.22	1080.16
746.55	1084.37
746.88	1075.94
747.21	1074.54
747.54	1073.37
747.87	1075.01
748.20	1068.92
748.53	1075.71
748.87	1074.77
749.20	1074.07
749.53	1075.01
749.86	1083.20
750.19	1081.09
750.52	1073.37
750.85	1070.33
751.18	1067.52
751.51	1065.88
751.84	1064.94
752.16	1064.71
752.49	1064.71
752.82	1067.99
753.15	1063.07
753.48	1071.50
753.81	1081.80
754.14	1091.39
754.47	1083.67
754.80	1084.84
755.13	1089.75
755.46	1089.52
755.79	1078.75
756.12	1099.58
756.45	1098.65
756.78	1081.33
757.11	1081.33
757.43	1087.41
757.76	1072.90
758.09	1075.71
758.42	1082.97
758.75	1077.35
759.08	1073.60
759.41	1078.75
759.74	1083.90
760.07	1082.97
760.39	1083.90
760.72	1093.50
761.05	1093.03
761.38	1089.75
761.71	1094.67
762.04	1101.69
762.36	1095.60
762.69	1094.43
763.02	1096.31
763.35	1100.29
763.68	1090.46
764.01	1092.33
