SpectraSuite Data File
++++++++++++++++++++++++++++++++++++
Date: Mon Aug 26 10:24:40 PDT 2019
User: corrico
Dark Spectrum Present: No
Reference Spectrum Present: No
Number of Sampled Component Spectra: 1
Spectrometers: USB2+H06089
Integration Time (usec): 10000 (USB2+H06089)
Spectra Averaged: 2 (USB2+H06089)
Boxcar Smoothing: 2 (USB2+H06089)
Correct for Electrical Dark: No (USB2+H06089)
Strobe/Lamp Enabled: No (USB2+H06089)
Correct for Detector Non-linearity: No (USB2+H06089)
Correct for Stray Light: No (USB2+H06089)
Number of Pixels in Processed Spectrum: 2048
>>>>>Begin Processed Spectral Data<<<<<
339.70	1015.79
340.07	1015.79
340.45	976.71
340.82	957.98
341.19	932.70
341.57	913.28
341.94	916.79
342.31	913.75
342.69	898.53
343.06	894.55
343.43	888.00
343.81	871.38
344.18	868.10
344.55	880.51
344.93	886.36
345.30	889.40
345.67	910.00
346.04	918.43
346.42	927.32
346.79	939.96
347.16	953.77
347.54	959.15
347.91	969.45
348.28	984.90
348.65	1003.62
349.03	1011.11
349.40	1021.88
349.77	1030.77
350.14	1024.69
350.52	1019.54
350.89	1037.56
351.26	1048.56
351.63	1052.54
352.01	1071.97
352.38	1084.37
352.75	1073.84
353.12	1078.75
353.50	1098.65
353.87	1098.41
354.24	1098.88
354.61	1111.05
354.98	1110.58
355.36	1101.46
355.73	1105.90
356.10	1106.84
356.47	1109.18
356.84	1105.20
357.22	1101.69
357.59	1097.01
357.96	1091.86
358.33	1087.65
358.70	1087.65
359.08	1101.69
359.45	1092.56
359.82	1100.99
360.19	1111.05
360.56	1118.31
360.94	1105.67
361.31	1118.31
361.68	1119.01
362.05	1106.37
362.42	1095.84
362.79	1092.09
363.16	1099.58
363.54	1100.52
363.91	1107.54
364.28	1111.29
364.65	1118.31
365.02	1103.33
365.39	1103.56
365.76	1101.69
366.14	1099.58
366.51	1097.24
366.88	1092.56
367.25	1080.86
367.62	1075.01
367.99	1081.09
368.36	1082.73
368.73	1091.39
369.10	1093.50
369.48	1093.03
369.85	1086.24
370.22	1089.52
370.59	1086.94
370.96	1087.18
371.33	1083.43
371.70	1088.35
372.07	1082.26
372.44	1079.22
372.81	1082.73
373.18	1095.37
373.55	1097.01
373.93	1096.31
374.30	1098.88
374.67	1097.24
375.04	1096.07
375.41	1096.78
375.78	1108.24
376.15	1112.92
376.52	1111.29
376.89	1108.01
377.26	1100.29
377.63	1085.77
378.00	1087.88
378.37	1097.01
378.74	1102.16
379.11	1106.37
379.48	1110.58
379.85	1114.33
380.22	1126.50
380.59	1123.93
380.96	1128.37
381.33	1133.29
381.70	1128.14
382.07	1110.82
382.44	1111.75
382.81	1111.29
383.18	1112.46
383.55	1117.37
383.92	1121.12
384.29	1120.65
384.66	1115.50
385.03	1117.14
385.40	1109.65
385.77	1115.73
386.14	1109.88
386.51	1119.95
386.88	1111.75
387.25	1111.05
387.62	1095.14
387.99	1102.39
388.36	1097.48
388.73	1099.82
389.10	1113.39
389.46	1124.16
389.83	1120.41
390.20	1119.71
390.57	1126.27
390.94	1120.65
391.31	1113.86
391.68	1115.73
392.05	1113.63
392.42	1119.95
392.79	1126.73
393.16	1138.90
393.53	1138.67
393.89	1134.22
394.26	1128.37
394.63	1125.80
395.00	1127.20
395.37	1133.99
395.74	1147.10
396.11	1154.12
396.48	1152.95
396.84	1159.74
397.21	1160.20
397.58	1165.59
397.95	1164.65
398.32	1163.01
398.69	1158.80
399.06	1161.61
399.42	1152.01
399.79	1154.12
400.16	1162.31
400.53	1168.16
400.90	1187.12
401.27	1209.35
401.64	1218.01
402.00	1238.85
402.37	1258.74
402.74	1259.91
403.11	1261.78
403.48	1273.72
403.84	1292.68
404.21	1299.47
404.58	1308.83
404.95	1320.06
405.32	1332.94
405.68	1345.57
406.05	1360.79
406.42	1390.51
406.79	1411.34
407.16	1447.15
407.52	1467.52
407.89	1503.56
408.26	1527.20
408.63	1582.67
408.99	1614.50
409.36	1659.44
409.73	1699.23
410.10	1747.21
410.47	1796.83
410.83	1854.64
411.20	1906.37
411.57	1987.82
411.94	2078.16
412.30	2156.34
412.67	2255.81
413.04	2339.83
413.40	2426.20
413.77	2535.03
414.14	2654.87
414.51	2779.39
414.87	2921.46
415.24	3052.99
415.61	3196.47
415.97	3339.01
416.34	3506.59
416.71	3714.43
417.08	3933.04
417.44	4139.94
417.81	4390.61
418.18	4620.69
418.54	4854.27
418.91	5136.07
419.28	5434.72
419.64	5725.65
420.01	6044.90
420.38	6403.71
420.74	6731.85
421.11	7127.17
421.48	7521.78
421.84	7973.03
422.21	8407.44
422.58	8910.89
422.94	9398.89
423.31	9941.66
423.68	10534.75
424.04	11164.82
424.41	11771.72
424.77	12434.33
425.14	13084.06
425.51	13713.67
425.87	14444.15
426.24	15202.25
426.61	16061.69
426.97	17107.68
427.34	18108.02
427.70	19170.16
428.07	20237.68
428.44	21288.81
428.80	22285.18
429.17	23387.57
429.53	24417.40
429.90	25686.68
430.27	26846.18
430.63	27986.96
431.00	29314.51
431.36	30778.51
431.73	31973.36
432.09	33248.25
432.46	34564.33
432.83	35872.22
433.19	37079.47
433.56	38647.16
433.92	40253.94
434.29	41843.16
434.65	43279.78
435.02	44677.78
435.38	45896.27
435.75	46768.12
436.11	48043.94
436.48	49198.06
436.84	50253.41
437.21	51183.07
437.57	52212.20
437.94	52798.04
438.30	53220.51
438.67	53426.94
439.03	53436.54
439.40	53525.48
439.76	53404.00
440.13	53241.80
440.49	53236.42
440.86	52988.32
441.22	52617.82
441.59	52003.19
441.95	51448.02
442.32	50581.79
442.68	49874.94
443.05	48989.28
443.41	48106.67
443.78	46983.91
444.14	46004.87
444.51	44784.04
444.87	43720.97
445.24	42482.83
445.60	41362.42
445.96	40196.83
446.33	39264.59
446.69	38097.13
447.06	37237.46
447.42	36203.87
447.79	35045.54
448.15	34000.26
448.51	33000.62
448.88	32080.79
449.24	31118.12
449.61	30439.14
449.97	29636.57
450.33	28870.27
450.70	27983.68
451.06	27348.69
451.43	26498.61
451.79	25906.69
452.15	25335.36
452.52	24725.42
452.88	24124.14
453.24	23658.37
453.61	23008.17
453.97	22380.44
454.34	21765.58
454.70	21207.13
455.06	20571.67
455.43	19871.38
455.79	19132.48
456.15	18533.30
456.52	17836.05
456.88	17239.45
457.24	16685.91
457.61	16194.40
457.97	15679.25
458.33	15152.63
458.70	14634.67
459.06	14063.34
459.42	13624.26
459.79	13095.30
460.15	12672.36
460.51	12195.83
460.88	11792.32
461.24	11334.28
461.60	10960.03
461.96	10583.90
462.33	10274.25
462.69	9953.83
463.05	9659.16
463.42	9419.95
463.78	9133.24
464.14	8824.29
464.50	8581.11
464.87	8303.75
465.23	8013.06
465.59	7790.01
465.95	7572.34
466.32	7341.56
466.68	7135.83
467.04	6924.01
467.40	6748.47
467.77	6558.42
468.13	6409.56
468.49	6271.00
468.85	6128.93
469.22	5992.94
469.58	5872.87
469.94	5722.61
470.30	5586.62
470.66	5494.64
471.03	5363.10
471.39	5282.12
471.75	5186.63
472.11	5103.30
472.47	4987.45
472.84	4881.66
473.20	4745.90
473.56	4653.92
473.92	4527.53
474.28	4417.76
474.65	4320.86
475.01	4259.54
475.37	4157.26
475.73	4092.66
476.09	4032.04
476.45	3938.42
476.81	3844.56
477.18	3756.33
477.54	3654.98
477.90	3560.42
478.26	3510.34
478.62	3436.37
478.98	3384.88
479.34	3356.56
479.71	3316.31
480.07	3273.01
480.43	3237.43
480.79	3177.28
481.15	3107.76
481.51	3049.48
481.87	2997.76
482.23	2939.48
482.59	2903.90
482.96	2858.03
483.32	2830.41
483.68	2768.85
484.04	2751.77
484.40	2722.04
484.76	2699.11
485.12	2659.32
485.48	2636.85
485.84	2585.12
486.20	2545.33
486.56	2494.54
486.92	2463.41
487.28	2416.37
487.64	2376.58
488.00	2333.51
488.37	2302.15
488.73	2249.96
489.09	2212.27
489.45	2180.68
489.81	2151.89
490.17	2120.76
490.53	2102.97
490.89	2089.16
491.25	2057.10
491.61	2042.59
491.97	2028.07
492.33	2011.69
492.69	1996.24
493.05	1985.71
493.41	1947.09
493.77	1920.18
494.13	1890.22
494.49	1848.09
494.85	1817.89
495.21	1792.85
495.57	1770.38
495.93	1736.91
496.29	1724.04
496.64	1704.14
497.00	1680.97
497.36	1655.69
497.72	1647.50
498.08	1638.61
498.44	1612.16
498.80	1613.57
499.16	1599.76
499.52	1572.14
499.88	1553.41
500.24	1547.33
500.60	1517.84
500.96	1513.16
501.32	1510.35
501.68	1491.62
502.03	1490.45
502.39	1493.73
502.75	1481.09
503.11	1474.54
503.47	1453.47
503.83	1432.88
504.19	1412.05
504.55	1400.11
504.91	1398.70
505.26	1396.60
505.62	1382.09
505.98	1381.15
506.34	1375.53
506.70	1359.62
507.06	1350.96
507.42	1348.38
507.78	1344.17
508.13	1331.76
508.49	1315.15
508.85	1314.68
509.21	1315.38
509.57	1299.70
509.93	1300.40
510.28	1302.04
510.64	1302.98
511.00	1297.12
511.36	1281.91
511.72	1276.06
512.07	1270.91
512.43	1257.10
512.79	1250.31
513.15	1267.40
513.51	1261.55
513.86	1250.55
514.22	1245.16
514.58	1241.89
514.94	1225.04
515.30	1223.16
515.65	1223.16
516.01	1236.04
516.37	1232.99
516.73	1237.68
517.08	1236.27
517.44	1234.87
517.80	1229.48
518.16	1224.10
518.51	1220.82
518.87	1219.65
519.23	1221.76
519.59	1202.80
519.94	1201.40
520.30	1188.06
520.66	1180.80
521.01	1177.52
521.37	1191.10
521.73	1180.10
522.09	1188.29
522.44	1175.42
522.80	1166.29
523.16	1153.65
523.51	1159.97
523.87	1155.76
524.23	1167.23
524.58	1176.12
524.94	1179.86
525.30	1182.20
525.65	1182.67
526.01	1167.23
526.37	1163.95
526.72	1164.18
527.08	1153.42
527.44	1148.03
527.79	1157.86
528.15	1159.50
528.51	1164.18
528.86	1168.86
529.22	1176.59
529.58	1175.42
529.93	1160.20
530.29	1151.54
530.65	1148.50
531.00	1133.76
531.36	1133.52
531.71	1136.56
532.07	1133.99
532.43	1134.22
532.78	1141.25
533.14	1132.82
533.49	1132.59
533.85	1141.48
534.21	1137.03
534.56	1129.54
534.92	1135.39
535.27	1135.39
535.63	1130.95
535.98	1140.07
536.34	1152.48
536.69	1140.07
537.05	1137.03
537.41	1131.88
537.76	1136.33
538.12	1131.18
538.47	1145.46
538.83	1145.69
539.18	1143.12
539.54	1141.01
539.89	1142.65
540.25	1136.80
540.60	1143.35
540.96	1147.80
541.31	1147.80
541.67	1147.33
542.02	1145.93
542.38	1145.93
542.73	1137.73
543.09	1132.12
543.44	1118.78
543.80	1123.22
544.15	1115.27
544.51	1119.71
544.86	1119.01
545.22	1127.90
545.57	1129.07
545.93	1142.42
546.28	1137.03
546.64	1141.95
546.99	1134.93
547.35	1132.82
547.70	1133.29
548.05	1133.76
548.41	1125.33
548.76	1131.88
549.12	1125.10
549.47	1111.05
549.83	1119.95
550.18	1128.37
550.53	1135.86
550.89	1141.95
551.24	1147.56
551.60	1140.07
551.95	1132.12
552.30	1126.73
552.66	1122.75
553.01	1118.07
553.37	1114.33
553.72	1112.46
554.07	1104.97
554.43	1109.65
554.78	1108.95
555.13	1111.52
555.49	1124.39
555.84	1127.20
556.19	1115.03
556.55	1114.56
556.90	1115.97
557.26	1105.20
557.61	1102.63
557.96	1101.92
558.32	1102.63
558.67	1113.16
559.02	1121.35
559.37	1117.84
559.73	1125.56
560.08	1128.61
560.43	1116.90
560.79	1105.20
561.14	1113.39
561.49	1110.58
561.85	1115.73
562.20	1121.35
562.55	1120.88
562.90	1117.84
563.26	1118.07
563.61	1104.50
563.96	1098.65
564.32	1099.12
564.67	1101.92
565.02	1105.20
565.37	1103.09
565.73	1091.39
566.08	1091.63
566.43	1083.43
566.78	1079.69
567.14	1091.39
567.49	1104.73
567.84	1113.16
568.19	1126.27
568.54	1126.03
568.90	1126.27
569.25	1127.44
569.60	1117.84
569.95	1117.14
570.31	1116.90
570.66	1111.75
571.01	1123.46
571.36	1132.35
571.71	1116.90
572.06	1119.48
572.42	1116.90
572.77	1094.67
573.12	1090.46
573.47	1097.01
573.82	1098.18
574.18	1104.50
574.53	1112.22
574.88	1104.03
575.23	1108.95
575.58	1113.39
575.93	1111.99
576.28	1108.01
576.64	1107.78
576.99	1106.14
577.34	1096.54
577.69	1099.35
578.04	1106.61
578.39	1106.37
578.74	1107.07
579.09	1114.80
579.44	1116.67
579.80	1107.54
580.15	1109.41
580.50	1104.73
580.85	1104.03
581.20	1103.09
581.55	1106.84
581.90	1111.05
582.25	1114.80
582.60	1108.24
582.95	1106.84
583.30	1112.22
583.65	1108.71
584.00	1108.95
584.35	1110.12
584.71	1108.95
585.06	1103.80
585.41	1109.65
585.76	1112.22
586.11	1115.73
586.46	1109.18
586.81	1115.73
587.16	1112.69
587.51	1103.80
587.86	1106.84
588.21	1106.84
588.56	1103.09
588.91	1107.54
589.26	1120.41
589.61	1119.48
589.96	1115.27
590.31	1124.39
590.66	1130.24
591.01	1117.84
591.36	1107.54
591.71	1113.16
592.06	1102.86
592.41	1086.94
592.76	1098.65
593.10	1094.67
593.45	1094.67
593.80	1095.37
594.15	1101.46
594.50	1095.14
594.85	1104.50
595.20	1109.18
595.55	1116.67
595.90	1115.03
596.25	1117.61
596.60	1117.84
596.95	1107.31
597.30	1089.75
597.64	1140.07
597.99	1136.56
598.34	1137.97
598.69	1149.67
599.04	1154.82
599.39	1108.01
599.74	1108.48
600.09	1107.78
600.44	1101.92
600.78	1105.90
601.13	1100.99
601.48	1100.52
601.83	1092.56
602.18	1098.41
602.53	1096.54
602.88	1098.18
603.22	1097.24
603.57	1110.82
603.92	1113.39
604.27	1114.10
604.62	1111.99
604.97	1114.80
605.31	1113.86
605.66	1112.69
606.01	1115.27
606.36	1116.44
606.71	1117.84
607.05	1117.37
607.40	1113.16
607.75	1111.75
608.10	1110.82
608.44	1104.50
608.79	1110.82
609.14	1112.22
609.49	1107.07
609.84	1114.10
610.18	1122.75
610.53	1120.65
610.88	1111.05
611.23	1113.86
611.57	1107.78
611.92	1100.52
612.27	1089.99
612.62	1089.75
612.96	1080.86
613.31	1081.33
613.66	1078.99
614.00	1085.54
614.35	1094.43
614.70	1105.67
615.05	1103.80
615.39	1099.35
615.74	1084.14
616.09	1075.01
616.43	1083.20
616.78	1081.09
617.13	1095.37
617.47	1108.71
617.82	1114.80
618.17	1107.78
618.51	1113.39
618.86	1105.20
619.21	1100.75
619.55	1095.14
619.90	1088.35
620.25	1090.69
620.59	1087.88
620.94	1095.14
621.29	1100.05
621.63	1102.39
621.98	1099.82
622.32	1100.75
622.67	1096.07
623.02	1099.82
623.36	1096.54
623.71	1102.86
624.05	1110.58
624.40	1115.73
624.75	1114.33
625.09	1116.67
625.44	1103.80
625.78	1103.33
626.13	1092.09
626.48	1090.22
626.82	1074.31
627.17	1073.60
627.51	1065.18
627.86	1062.14
628.20	1056.75
628.55	1070.09
628.89	1070.09
629.24	1068.92
629.58	1075.24
629.93	1080.16
630.28	1077.11
630.62	1078.52
630.97	1080.16
631.31	1078.75
631.66	1071.03
632.00	1073.60
632.35	1079.92
632.69	1072.67
633.04	1066.82
633.38	1078.28
633.73	1081.09
634.07	1070.80
634.42	1077.35
634.76	1087.18
635.11	1085.07
635.45	1091.86
635.79	1097.95
636.14	1099.58
636.48	1094.90
636.83	1091.39
637.17	1075.94
637.52	1075.24
637.86	1068.45
638.21	1070.56
638.55	1079.92
638.89	1082.26
639.24	1079.22
639.58	1089.29
639.93	1092.80
640.27	1079.92
640.61	1082.73
640.96	1096.31
641.30	1093.73
641.65	1095.60
641.99	1105.90
642.33	1119.01
642.68	1113.86
643.02	1116.20
643.37	1104.73
643.71	1091.39
644.05	1085.31
644.40	1078.05
644.74	1078.52
645.08	1089.75
645.43	1098.88
645.77	1106.84
646.11	1110.82
646.46	1107.54
646.80	1097.71
647.14	1093.97
647.49	1084.60
647.83	1082.73
648.17	1080.86
648.52	1091.63
648.86	1090.22
649.20	1092.09
649.55	1094.20
649.89	1099.12
650.23	1098.41
650.57	1097.71
650.92	1095.14
651.26	1099.58
651.60	1096.78
651.95	1093.03
652.29	1100.29
652.63	1105.20
652.97	1100.05
653.32	1097.95
653.66	1105.44
654.00	1099.82
654.34	1091.63
654.69	1090.92
655.03	1098.41
655.37	1094.90
655.71	1087.65
656.05	1078.05
656.40	1076.88
656.74	1075.24
657.08	1067.28
657.42	1080.39
657.76	1093.73
658.11	1091.63
658.45	1091.39
658.79	1092.80
659.13	1077.58
659.47	1077.58
659.82	1076.88
660.16	1076.41
660.50	1080.39
660.84	1085.77
661.18	1090.46
661.52	1095.84
661.87	1083.20
662.21	1081.33
662.55	1081.09
662.89	1075.24
663.23	1080.86
663.57	1097.24
663.91	1101.46
664.25	1107.54
664.60	1116.20
664.94	1115.27
665.28	1108.01
665.62	1089.05
665.96	1090.69
666.30	1086.48
666.64	1081.33
666.98	1078.75
667.32	1094.90
667.66	1100.75
668.01	1092.56
668.35	1091.39
668.69	1106.37
669.03	1100.29
669.37	1089.99
669.71	1092.09
670.05	1095.60
670.39	1081.09
670.73	1090.22
671.07	1099.12
671.41	1104.97
671.75	1103.33
672.09	1108.24
672.43	1110.82
672.77	1105.20
673.11	1103.09
673.45	1088.58
673.79	1083.20
674.13	1075.71
674.47	1069.86
674.81	1069.39
675.15	1069.62
675.49	1067.52
675.83	1074.54
676.17	1081.09
676.51	1075.71
676.85	1080.86
677.19	1097.71
677.53	1085.54
677.87	1087.88
678.21	1104.50
678.55	1106.37
678.89	1083.67
679.23	1087.18
679.57	1081.80
679.90	1073.14
680.24	1067.99
680.58	1080.63
680.92	1075.24
681.26	1082.97
681.60	1078.99
681.94	1090.92
682.28	1089.29
682.62	1098.18
682.96	1093.26
683.29	1086.01
683.63	1084.37
683.97	1083.20
684.31	1084.84
684.65	1086.48
684.99	1091.39
685.33	1085.54
685.67	1089.05
686.00	1083.20
686.34	1088.35
686.68	1090.92
687.02	1101.92
687.36	1101.92
687.70	1107.78
688.03	1100.52
688.37	1093.73
688.71	1085.77
689.05	1083.67
689.39	1078.05
689.72	1075.71
690.06	1081.33
690.40	1078.05
690.74	1078.05
691.08	1078.28
691.41	1075.71
691.75	1071.03
692.09	1073.84
692.43	1072.20
692.76	1069.62
693.10	1074.07
693.44	1067.52
693.78	1070.33
694.11	1078.75
694.45	1077.82
694.79	1074.07
695.13	1081.33
695.46	1078.99
695.80	1069.39
696.14	1071.97
696.48	1081.56
696.81	1085.77
697.15	1089.29
697.49	1096.54
697.82	1097.71
698.16	1094.20
698.50	1094.67
698.83	1090.46
699.17	1081.80
699.51	1093.50
699.84	1089.52
700.18	1089.29
700.52	1095.14
700.85	1102.39
701.19	1088.35
701.53	1092.56
701.86	1093.26
702.20	1092.33
702.54	1093.73
702.87	1089.75
703.21	1075.94
703.55	1083.43
703.88	1077.82
704.22	1080.16
704.55	1097.24
704.89	1111.52
705.23	1102.86
705.56	1101.69
705.90	1102.63
706.23	1094.90
706.57	1091.16
706.91	1085.31
707.24	1096.07
707.58	1084.84
707.91	1087.88
708.25	1090.22
708.58	1098.88
708.92	1084.37
709.26	1086.94
709.59	1084.84
709.93	1088.58
710.26	1076.18
710.60	1086.48
710.93	1084.37
711.27	1080.16
711.60	1075.01
711.94	1081.80
712.27	1076.18
712.61	1086.48
712.94	1086.01
713.28	1088.82
713.61	1096.54
713.95	1100.52
714.28	1092.09
714.62	1096.07
714.95	1091.86
715.29	1085.07
715.62	1087.18
715.96	1085.07
716.29	1091.86
716.63	1088.82
716.96	1093.26
717.29	1093.97
717.63	1097.95
717.96	1084.84
718.30	1077.58
718.63	1071.73
718.97	1080.86
719.30	1079.92
719.63	1080.63
719.97	1091.63
720.30	1093.50
720.64	1084.14
720.97	1083.43
721.30	1086.71
721.64	1084.84
721.97	1085.07
722.31	1081.56
722.64	1086.01
722.97	1083.90
723.31	1098.41
723.64	1109.65
723.97	1106.61
724.31	1112.22
724.64	1121.58
724.98	1116.90
725.31	1101.92
725.64	1095.84
725.98	1090.46
726.31	1082.73
726.64	1074.54
726.97	1081.09
727.31	1098.18
727.64	1092.56
727.97	1094.67
728.31	1085.07
728.64	1076.41
728.97	1066.11
729.31	1063.54
729.64	1066.58
729.97	1077.82
730.30	1084.14
730.64	1093.03
730.97	1097.24
731.30	1098.18
731.63	1093.97
731.97	1103.80
732.30	1099.35
732.63	1093.50
732.96	1079.92
733.30	1082.03
733.63	1067.28
733.96	1058.16
734.29	1062.84
734.63	1070.09
734.96	1071.73
735.29	1074.77
735.62	1076.18
735.95	1067.28
736.29	1065.41
736.62	1062.60
736.95	1058.86
737.28	1065.65
737.61	1076.41
737.94	1082.26
738.28	1075.24
738.61	1080.86
738.94	1083.43
739.27	1078.99
739.60	1076.41
739.93	1088.82
740.27	1088.58
740.60	1079.22
740.93	1080.39
741.26	1085.07
741.59	1082.26
741.92	1085.54
742.25	1092.09
742.58	1099.12
742.91	1092.56
743.25	1095.37
743.58	1085.54
743.91	1093.26
744.24	1086.01
744.57	1090.69
744.90	1082.97
745.23	1094.90
745.56	1076.88
745.89	1073.37
746.22	1069.86
746.55	1076.65
746.88	1065.88
747.21	1071.73
747.54	1076.41
747.87	1080.16
748.20	1086.94
748.53	1087.41
748.87	1083.90
749.20	1082.97
749.53	1086.71
749.86	1072.67
750.19	1077.58
750.52	1081.33
750.85	1078.28
751.18	1073.84
751.51	1074.07
751.84	1076.18
752.16	1071.73
752.49	1074.31
752.82	1071.50
753.15	1070.56
753.48	1065.18
753.81	1080.39
754.14	1085.31
754.47	1090.92
754.80	1089.05
755.13	1085.07
755.46	1076.41
755.79	1066.11
756.12	1060.03
756.45	1058.86
756.78	1066.11
757.11	1065.41
757.43	1070.80
757.76	1069.16
758.09	1071.97
758.42	1067.05
758.75	1072.20
759.08	1073.37
759.41	1066.35
759.74	1070.33
760.07	1071.73
760.39	1069.39
760.72	1069.39
761.05	1081.56
761.38	1076.88
761.71	1074.77
762.04	1068.92
762.36	1075.71
762.69	1071.26
763.02	1074.54
763.35	1076.18
763.68	1078.99
764.01	1071.97
