SpectraSuite Data File
++++++++++++++++++++++++++++++++++++
Date: Mon Aug 26 10:24:41 PDT 2019
User: corrico
Dark Spectrum Present: No
Reference Spectrum Present: No
Number of Sampled Component Spectra: 1
Spectrometers: USB2+H06089
Integration Time (usec): 10000 (USB2+H06089)
Spectra Averaged: 2 (USB2+H06089)
Boxcar Smoothing: 2 (USB2+H06089)
Correct for Electrical Dark: No (USB2+H06089)
Strobe/Lamp Enabled: No (USB2+H06089)
Correct for Detector Non-linearity: No (USB2+H06089)
Correct for Stray Light: No (USB2+H06089)
Number of Pixels in Processed Spectrum: 2048
>>>>>Begin Processed Spectral Data<<<<<
339.70	994.73
340.07	994.73
340.45	957.51
340.82	950.49
341.19	932.94
341.57	919.60
341.94	917.72
342.31	929.19
342.69	917.49
343.06	918.66
343.43	909.77
343.81	912.81
344.18	909.06
344.55	914.92
344.93	916.79
345.30	929.43
345.67	934.11
346.04	944.64
346.42	945.34
346.79	959.39
347.16	967.81
347.54	974.60
347.91	975.77
348.28	989.81
348.65	984.66
349.03	991.45
349.40	999.41
349.77	1019.77
350.14	1024.92
350.52	1052.77
350.89	1057.45
351.26	1074.77
351.63	1072.90
352.01	1083.20
352.38	1089.52
352.75	1085.77
353.12	1084.37
353.50	1088.12
353.87	1090.69
354.24	1082.97
354.61	1099.35
354.98	1110.12
355.36	1108.01
355.73	1107.07
356.10	1102.63
356.47	1101.22
356.84	1086.48
357.22	1089.52
357.59	1089.05
357.96	1096.31
358.33	1092.33
358.70	1092.80
359.08	1096.78
359.45	1100.75
359.82	1097.95
360.19	1095.84
360.56	1100.29
360.94	1104.03
361.31	1097.95
361.68	1094.43
362.05	1098.41
362.42	1091.39
362.79	1079.46
363.16	1079.69
363.54	1076.18
363.91	1070.80
364.28	1064.01
364.65	1064.24
365.02	1071.03
365.39	1073.84
365.76	1073.37
366.14	1084.37
366.51	1098.88
366.88	1085.77
367.25	1092.33
367.62	1105.44
367.99	1113.39
368.36	1106.84
368.73	1122.99
369.10	1111.05
369.48	1103.56
369.85	1096.78
370.22	1096.31
370.59	1092.09
370.96	1103.56
371.33	1106.14
371.70	1102.39
372.07	1101.46
372.44	1097.24
372.81	1097.71
373.18	1093.03
373.55	1100.75
373.93	1097.01
374.30	1099.12
374.67	1090.46
375.04	1096.54
375.41	1093.50
375.78	1098.41
376.15	1094.43
376.52	1107.07
376.89	1108.24
377.26	1105.44
377.63	1103.33
378.00	1111.99
378.37	1106.61
378.74	1106.61
379.11	1107.54
379.48	1103.80
379.85	1110.12
380.22	1105.90
380.59	1093.26
380.96	1100.29
381.33	1104.26
381.70	1087.18
382.07	1093.97
382.44	1098.18
382.81	1093.73
383.18	1099.58
383.55	1106.61
383.92	1109.65
384.29	1121.58
384.66	1117.61
385.03	1114.33
385.40	1123.46
385.77	1117.37
386.14	1122.29
386.51	1131.65
386.88	1128.84
387.25	1119.71
387.62	1119.48
387.99	1118.31
388.36	1119.48
388.73	1129.54
389.10	1133.99
389.46	1138.44
389.83	1135.39
390.20	1130.95
390.57	1121.12
390.94	1119.01
391.31	1115.73
391.68	1111.75
392.05	1122.75
392.42	1133.05
392.79	1137.03
393.16	1138.44
393.53	1134.69
393.89	1133.52
394.26	1130.71
394.63	1130.01
395.00	1134.46
395.37	1144.99
395.74	1142.42
396.11	1144.52
396.48	1155.76
396.84	1160.91
397.21	1164.65
397.58	1160.44
397.95	1160.67
398.32	1164.88
398.69	1174.95
399.06	1171.67
399.42	1185.01
399.79	1190.16
400.16	1182.91
400.53	1182.67
400.90	1190.40
401.27	1190.63
401.64	1190.63
402.00	1205.14
402.37	1217.55
402.74	1240.25
403.11	1256.63
403.48	1279.10
403.84	1292.68
404.21	1306.49
404.58	1315.15
404.95	1325.21
405.32	1341.13
405.68	1361.96
406.05	1371.09
406.42	1395.90
406.79	1422.34
407.16	1449.96
407.52	1468.22
407.89	1507.77
408.26	1535.39
408.63	1585.01
408.99	1625.97
409.36	1668.33
409.73	1711.63
410.10	1773.66
410.47	1816.96
410.83	1873.60
411.20	1943.11
411.57	2005.14
411.94	2065.05
412.30	2150.25
412.67	2223.27
413.04	2309.87
413.40	2423.16
413.77	2524.03
414.14	2644.34
414.51	2789.68
414.87	2946.73
415.24	3095.59
415.61	3271.37
415.97	3434.27
416.34	3627.13
416.71	3799.39
417.08	3986.63
417.44	4176.92
417.81	4418.93
418.18	4627.01
418.54	4909.98
418.91	5199.27
419.28	5517.81
419.64	5811.78
420.01	6144.37
420.38	6491.24
420.74	6861.28
421.11	7270.87
421.48	7669.94
421.84	8155.36
422.21	8581.81
422.58	9047.81
422.94	9566.47
423.31	10139.20
423.68	10757.80
424.04	11474.94
424.41	12182.49
424.77	12873.65
425.14	13530.17
425.51	14226.24
425.87	15002.83
426.24	15806.11
426.61	16731.32
426.97	17813.12
427.34	18739.73
427.70	19796.49
428.07	20821.17
428.44	21861.31
428.80	22868.44
429.17	24063.98
429.53	25129.40
429.90	26496.27
430.27	27655.77
430.63	28916.85
431.00	30222.87
431.36	31701.15
431.73	32909.34
432.09	34285.81
432.46	35597.21
432.83	36973.44
433.19	38249.74
433.56	39865.64
433.92	41540.53
434.29	43132.33
434.65	44665.38
435.02	46016.57
435.38	47204.39
435.75	48032.71
436.11	49268.74
436.48	50325.03
436.84	51399.57
437.21	52351.23
437.57	53338.47
437.94	53990.78
438.30	54486.97
438.67	54765.02
439.03	54835.94
439.40	55015.93
439.76	54885.80
440.13	54662.04
440.49	54627.17
440.86	54359.88
441.22	53970.65
441.59	53398.62
441.95	52940.34
442.32	52047.43
442.68	51263.58
443.05	50333.92
443.41	49452.71
443.78	48282.44
444.14	47294.74
444.51	46023.59
444.87	45005.69
445.24	43731.51
445.60	42590.73
445.96	41421.16
446.33	40616.95
446.69	39415.09
447.06	38516.32
447.42	37540.79
447.79	36354.84
448.15	35203.53
448.51	34167.84
448.88	33197.46
449.24	32071.89
449.61	31307.24
449.97	30439.37
450.33	29609.42
450.70	28667.35
451.06	28107.03
451.43	27339.56
451.79	26798.20
452.15	26291.94
452.52	25776.79
452.88	25110.67
453.24	24606.29
453.61	23913.96
453.97	23249.71
454.34	22564.17
454.70	22016.02
455.06	21327.20
455.43	20637.44
455.79	19799.76
456.15	19212.05
456.52	18453.49
456.88	17885.44
457.24	17281.81
457.61	16787.26
457.97	16156.48
458.33	15588.20
458.70	14993.00
459.06	14420.51
459.42	13984.70
459.79	13506.53
460.15	13116.36
460.51	12670.02
460.88	12236.79
461.24	11741.06
461.60	11356.28
461.96	10938.73
462.33	10556.75
462.69	10215.03
463.05	9893.21
463.42	9604.86
463.78	9312.06
464.14	9010.83
464.50	8788.01
464.87	8512.53
465.23	8235.88
465.59	7991.76
465.95	7799.84
466.32	7546.36
466.68	7355.37
467.04	7170.47
467.40	6986.97
467.77	6796.68
468.13	6610.38
468.49	6432.96
468.85	6271.23
469.22	6135.95
469.58	5975.62
469.94	5862.57
470.30	5752.10
470.66	5623.37
471.03	5493.00
471.39	5384.87
471.75	5259.18
472.11	5147.54
472.47	5059.77
472.84	4949.53
473.20	4832.50
473.56	4730.69
473.92	4626.54
474.28	4520.04
474.65	4421.51
475.01	4360.65
475.37	4270.31
475.73	4198.22
476.09	4122.15
476.45	4045.38
476.81	3963.46
477.18	3876.86
477.54	3794.01
477.90	3709.28
478.26	3627.60
478.62	3552.23
478.98	3498.40
479.34	3450.18
479.71	3382.07
480.07	3326.84
480.43	3273.47
480.79	3202.09
481.15	3130.70
481.51	3080.61
481.87	3036.61
482.23	2977.86
482.59	2933.86
482.96	2868.79
483.32	2841.88
483.68	2810.98
484.04	2775.41
484.40	2757.62
484.76	2742.17
485.12	2676.17
485.48	2628.89
485.84	2605.25
486.20	2547.67
486.56	2491.03
486.92	2471.14
487.28	2441.41
487.64	2390.16
488.00	2367.92
488.37	2346.62
488.73	2310.58
489.09	2280.15
489.45	2260.02
489.81	2215.79
490.17	2176.46
490.53	2157.04
490.89	2116.55
491.25	2073.71
491.61	2054.52
491.97	2024.10
492.33	1992.50
492.69	1959.96
493.05	1936.33
493.41	1916.90
493.77	1913.62
494.13	1895.83
494.49	1891.86
494.85	1882.73
495.21	1853.94
495.57	1812.04
495.93	1790.04
496.29	1761.02
496.64	1731.29
497.00	1713.27
497.36	1704.85
497.72	1668.33
498.08	1661.55
498.44	1650.78
498.80	1640.25
499.16	1619.42
499.52	1609.12
499.88	1579.86
500.24	1567.69
500.60	1549.43
500.96	1532.58
501.32	1523.22
501.68	1521.35
502.03	1512.22
502.39	1493.73
502.75	1489.75
503.11	1479.69
503.47	1466.35
503.83	1452.30
504.19	1437.56
504.55	1423.05
504.91	1416.26
505.26	1395.19
505.62	1380.68
505.98	1375.06
506.34	1368.51
506.70	1369.92
507.06	1383.02
507.42	1375.77
507.78	1368.98
508.13	1369.45
508.49	1355.17
508.85	1342.30
509.21	1333.64
509.57	1328.49
509.93	1318.89
510.28	1303.21
510.64	1292.91
511.00	1283.78
511.36	1282.38
511.72	1282.85
512.07	1288.46
512.43	1288.00
512.79	1275.12
513.15	1274.89
513.51	1259.44
513.86	1254.29
514.22	1237.44
514.58	1252.19
514.94	1242.59
515.30	1246.34
515.65	1236.04
516.01	1236.51
516.37	1236.51
516.73	1244.23
517.08	1240.02
517.44	1241.19
517.80	1246.34
518.16	1236.51
518.51	1218.48
518.87	1208.42
519.23	1210.06
519.59	1195.78
519.94	1185.95
520.30	1185.01
520.66	1189.69
521.01	1179.40
521.37	1181.74
521.73	1184.78
522.09	1182.67
522.44	1177.99
522.80	1176.12
523.16	1172.14
523.51	1170.74
523.87	1181.74
524.23	1176.12
524.58	1179.40
524.94	1183.84
525.30	1188.99
525.65	1179.16
526.01	1175.65
526.37	1171.44
526.72	1172.61
527.08	1168.86
527.44	1172.37
527.79	1180.33
528.15	1173.31
528.51	1165.12
528.86	1150.84
529.22	1150.37
529.58	1143.82
529.93	1152.48
530.29	1148.27
530.65	1164.88
531.00	1159.03
531.36	1163.25
531.71	1158.33
532.07	1162.54
532.43	1155.52
532.78	1159.27
533.14	1157.86
533.49	1158.33
533.85	1156.46
534.21	1147.33
534.56	1135.63
534.92	1131.88
535.27	1126.97
535.63	1121.82
535.98	1123.69
536.34	1127.44
536.69	1133.76
537.05	1139.61
537.41	1144.76
537.76	1158.80
538.12	1157.63
538.47	1152.01
538.83	1152.25
539.18	1159.97
539.54	1153.42
539.89	1155.29
540.25	1152.25
540.60	1149.91
540.96	1152.48
541.31	1146.63
541.67	1154.35
542.02	1157.63
542.38	1156.69
542.73	1148.03
543.09	1153.18
543.44	1146.16
543.80	1141.01
544.15	1135.86
544.51	1131.18
544.86	1125.80
545.22	1121.58
545.57	1121.82
545.93	1121.12
546.28	1130.01
546.64	1134.93
546.99	1135.16
547.35	1127.44
547.70	1120.18
548.05	1114.09
548.41	1116.20
548.76	1117.14
549.12	1126.27
549.47	1133.29
549.83	1131.65
550.18	1119.95
550.53	1122.75
550.89	1126.50
551.24	1125.56
551.60	1136.33
551.95	1135.63
552.30	1136.56
552.66	1127.67
553.01	1126.50
553.37	1107.78
553.72	1112.46
554.07	1103.80
554.43	1104.50
554.78	1114.33
555.13	1126.97
555.49	1122.05
555.84	1123.93
556.19	1123.22
556.55	1115.03
556.90	1114.56
557.26	1117.14
557.61	1118.54
557.96	1122.05
558.32	1122.99
558.67	1113.39
559.02	1111.29
559.37	1102.16
559.73	1104.97
560.08	1097.71
560.43	1104.26
560.79	1105.67
561.14	1113.63
561.49	1106.37
561.85	1104.26
562.20	1100.05
562.55	1097.24
562.90	1094.20
563.26	1102.16
563.61	1101.69
563.96	1105.44
564.32	1118.78
564.67	1128.14
565.02	1119.95
565.37	1133.52
565.73	1130.01
566.08	1123.46
566.43	1127.90
566.78	1129.54
567.14	1125.33
567.49	1124.16
567.84	1112.69
568.19	1101.22
568.54	1110.82
568.90	1104.97
569.25	1099.12
569.60	1105.67
569.95	1103.80
570.31	1106.84
570.66	1109.41
571.01	1109.41
571.36	1107.54
571.71	1113.16
572.06	1105.44
572.42	1108.71
572.77	1111.29
573.12	1121.58
573.47	1118.78
573.82	1118.54
574.18	1120.18
574.53	1129.31
574.88	1112.92
575.23	1115.03
575.58	1113.63
575.93	1103.33
576.28	1088.35
576.64	1093.50
576.99	1089.05
577.34	1085.77
577.69	1094.67
578.04	1107.07
578.39	1105.44
578.74	1109.65
579.09	1116.67
579.44	1120.65
579.80	1110.82
580.15	1117.61
580.50	1105.67
580.85	1099.82
581.20	1099.58
581.55	1093.73
581.90	1082.03
582.25	1081.33
582.60	1079.69
582.95	1064.48
583.30	1069.39
583.65	1076.41
584.00	1083.43
584.35	1083.90
584.71	1095.14
585.06	1097.24
585.41	1094.20
585.76	1081.80
586.11	1077.58
586.46	1067.99
586.81	1069.86
587.16	1076.65
587.51	1088.58
587.86	1091.86
588.21	1108.24
588.56	1110.82
588.91	1118.54
589.26	1118.07
589.61	1123.46
589.96	1110.12
590.31	1113.63
590.66	1108.01
591.01	1112.46
591.36	1108.48
591.71	1106.61
592.06	1108.71
592.41	1104.03
592.76	1101.46
593.10	1103.33
593.45	1112.22
593.80	1104.26
594.15	1103.33
594.50	1098.41
594.85	1098.18
595.20	1089.52
595.55	1097.71
595.90	1111.05
596.25	1113.39
596.60	1112.69
596.95	1127.44
597.30	1117.37
597.64	1152.48
597.99	1161.14
598.34	1158.80
598.69	1159.50
599.04	1163.71
599.39	1110.82
599.74	1105.67
600.09	1105.44
600.44	1099.58
600.78	1097.01
601.13	1097.01
601.48	1092.56
601.83	1097.48
602.18	1085.77
602.53	1093.26
602.88	1104.03
603.22	1102.16
603.57	1099.35
603.92	1111.52
604.27	1116.20
604.62	1104.50
604.97	1116.44
605.31	1112.69
605.66	1106.37
606.01	1100.99
606.36	1110.12
606.71	1104.03
607.05	1111.52
607.40	1113.86
607.75	1107.07
608.10	1094.20
608.44	1096.54
608.79	1090.46
609.14	1099.35
609.49	1098.88
609.84	1112.46
610.18	1110.58
610.53	1112.22
610.88	1102.63
611.23	1109.41
611.57	1104.50
611.92	1102.39
612.27	1104.03
612.62	1101.92
612.96	1092.56
613.31	1092.80
613.66	1083.20
614.00	1081.56
614.35	1085.07
614.70	1086.48
615.05	1095.84
615.39	1095.84
615.74	1100.52
616.09	1092.80
616.43	1098.88
616.78	1084.37
617.13	1095.84
617.47	1096.78
617.82	1110.58
618.17	1099.82
618.51	1105.20
618.86	1110.12
619.21	1098.18
619.55	1087.88
619.90	1096.54
620.25	1100.99
620.59	1098.41
620.94	1092.09
621.29	1097.95
621.63	1094.90
621.98	1087.65
622.32	1079.46
622.67	1092.56
623.02	1089.75
623.36	1086.94
623.71	1091.63
624.05	1092.56
624.40	1088.82
624.75	1096.78
625.09	1100.05
625.44	1088.58
625.78	1091.63
626.13	1100.05
626.48	1104.50
626.82	1103.33
627.17	1120.41
627.51	1127.90
627.86	1127.67
628.20	1120.88
628.55	1119.24
628.89	1100.29
629.24	1092.80
629.58	1081.56
629.93	1074.54
630.28	1072.43
630.62	1089.29
630.97	1089.99
631.31	1095.60
631.66	1091.39
632.00	1104.26
632.35	1099.12
632.69	1095.84
633.04	1098.41
633.38	1111.99
633.73	1105.20
634.07	1105.67
634.42	1103.33
634.76	1098.65
635.11	1083.90
635.45	1081.80
635.79	1072.20
636.14	1082.03
636.48	1098.65
636.83	1109.65
637.17	1109.18
637.52	1125.56
637.86	1117.84
638.21	1099.12
638.55	1092.80
638.89	1106.84
639.24	1093.97
639.58	1097.71
639.93	1106.37
640.27	1110.35
640.61	1105.67
640.96	1117.14
641.30	1118.07
641.65	1110.58
641.99	1112.46
642.33	1107.31
642.68	1097.71
643.02	1104.26
643.37	1104.73
643.71	1099.12
644.05	1098.18
644.40	1100.29
644.74	1090.22
645.08	1090.46
645.43	1092.09
645.77	1094.67
646.11	1103.80
646.46	1097.01
646.80	1104.73
647.14	1097.24
647.49	1097.48
647.83	1085.07
648.17	1095.14
648.52	1086.71
648.86	1095.14
649.20	1088.35
649.55	1093.26
649.89	1100.29
650.23	1110.35
650.57	1106.61
650.92	1109.65
651.26	1100.99
651.60	1087.65
651.95	1084.60
652.29	1090.69
652.63	1083.90
652.97	1087.41
653.32	1098.18
653.66	1092.56
654.00	1081.09
654.34	1083.43
654.69	1085.54
655.03	1074.77
655.37	1074.54
655.71	1076.88
656.05	1075.71
656.40	1075.48
656.74	1084.60
657.08	1083.20
657.42	1083.43
657.76	1091.63
658.11	1092.33
658.45	1096.31
658.79	1101.69
659.13	1101.92
659.47	1094.67
659.82	1097.95
660.16	1094.67
660.50	1089.52
660.84	1099.82
661.18	1109.41
661.52	1104.03
661.87	1100.05
662.21	1089.99
662.55	1073.14
662.89	1071.50
663.23	1073.84
663.57	1073.37
663.91	1086.48
664.25	1096.54
664.60	1094.90
664.94	1100.75
665.28	1092.80
665.62	1084.14
665.96	1087.18
666.30	1093.50
666.64	1092.80
666.98	1094.90
667.32	1102.86
667.66	1092.56
668.01	1083.20
668.35	1080.16
668.69	1088.82
669.03	1090.22
669.37	1101.46
669.71	1096.07
670.05	1097.95
670.39	1087.88
670.73	1092.56
671.07	1092.33
671.41	1091.39
671.75	1086.48
672.09	1099.58
672.43	1082.73
672.77	1079.69
673.11	1086.48
673.45	1089.52
673.79	1075.24
674.13	1087.88
674.47	1094.20
674.81	1084.37
675.15	1080.39
675.49	1087.41
675.83	1079.22
676.17	1072.67
676.51	1073.37
676.85	1070.80
677.19	1077.82
677.53	1086.94
677.87	1085.07
678.21	1092.80
678.55	1095.37
678.89	1082.97
679.23	1085.77
679.57	1090.22
679.90	1094.43
680.24	1101.22
680.58	1102.16
680.92	1100.99
681.26	1097.01
681.60	1097.01
681.94	1092.33
682.28	1097.71
682.62	1093.26
682.96	1091.86
683.29	1097.24
683.63	1096.07
683.97	1100.52
684.31	1104.50
684.65	1104.97
684.99	1093.50
685.33	1086.71
685.67	1086.94
686.00	1088.82
686.34	1090.92
686.68	1095.84
687.02	1109.88
687.36	1098.41
687.70	1098.41
688.03	1094.67
688.37	1089.99
688.71	1084.14
689.05	1082.50
689.39	1070.56
689.72	1079.22
690.06	1074.77
690.40	1076.65
690.74	1089.75
691.08	1100.05
691.41	1101.46
691.75	1104.50
692.09	1111.05
692.43	1104.03
692.76	1099.58
693.10	1097.71
693.44	1093.50
693.78	1079.92
694.11	1079.69
694.45	1083.43
694.79	1081.56
695.13	1090.22
695.46	1093.73
695.80	1089.52
696.14	1086.48
696.48	1090.22
696.81	1097.95
697.15	1110.58
697.49	1122.52
697.82	1118.07
698.16	1115.50
698.50	1112.22
698.83	1097.95
699.17	1081.33
699.51	1090.69
699.84	1078.05
700.18	1077.11
700.52	1070.80
700.85	1086.24
701.19	1076.88
701.53	1081.56
701.86	1079.22
702.20	1091.16
702.54	1084.14
702.87	1088.82
703.21	1097.71
703.55	1092.56
703.88	1086.24
704.22	1082.97
704.55	1075.94
704.89	1076.88
705.23	1084.14
705.56	1093.26
705.90	1100.29
706.23	1108.95
706.57	1103.09
706.91	1100.05
707.24	1099.58
707.58	1090.92
707.91	1084.84
708.25	1087.41
708.58	1081.09
708.92	1074.77
709.26	1078.52
709.59	1087.88
709.93	1082.03
710.26	1087.41
710.60	1095.37
710.93	1100.05
711.27	1089.99
711.60	1091.16
711.94	1082.73
712.27	1080.63
712.61	1073.14
712.94	1076.65
713.28	1085.54
713.61	1092.80
713.95	1086.94
714.28	1082.97
714.62	1080.63
714.95	1078.05
715.29	1077.58
715.62	1077.82
715.96	1088.58
716.29	1097.01
716.63	1086.48
716.96	1087.18
717.29	1083.20
717.63	1082.73
717.96	1071.26
718.30	1065.65
718.63	1063.31
718.97	1063.31
719.30	1063.07
719.63	1061.43
719.97	1072.67
720.30	1069.39
720.64	1074.77
720.97	1074.07
721.30	1080.16
721.64	1086.94
721.97	1096.78
722.31	1089.29
722.64	1086.71
722.97	1083.67
723.31	1079.22
723.64	1085.54
723.97	1086.48
724.31	1086.71
724.64	1080.86
724.98	1073.14
725.31	1062.84
725.64	1065.41
725.98	1073.37
726.31	1084.14
726.64	1084.60
726.97	1080.39
727.31	1079.92
727.64	1069.16
727.97	1064.01
728.31	1064.48
728.64	1074.77
728.97	1087.65
729.31	1087.41
729.64	1099.12
729.97	1096.31
730.30	1090.69
730.64	1087.88
730.97	1096.54
731.30	1081.09
731.63	1085.77
731.97	1086.24
732.30	1084.60
732.63	1080.39
732.96	1089.75
733.30	1092.33
733.63	1096.07
733.96	1086.48
734.29	1082.50
734.63	1082.03
734.96	1071.73
735.29	1062.37
735.62	1066.35
735.95	1064.94
736.29	1059.09
736.62	1068.69
736.95	1067.52
737.28	1069.62
737.61	1078.52
737.94	1086.24
738.28	1084.84
738.61	1094.67
738.94	1096.31
739.27	1093.03
739.60	1088.82
739.93	1089.75
740.27	1088.58
740.60	1079.69
740.93	1079.92
741.26	1082.73
741.59	1082.97
741.92	1086.01
742.25	1087.65
742.58	1089.05
742.91	1087.41
743.25	1088.58
743.58	1082.50
743.91	1086.94
744.24	1096.31
744.57	1094.90
744.90	1094.20
745.23	1103.56
745.56	1101.92
745.89	1094.20
746.22	1095.84
746.55	1093.97
746.88	1088.35
747.21	1081.80
747.54	1070.80
747.87	1070.33
748.20	1073.60
748.53	1073.14
748.87	1074.07
749.20	1081.56
749.53	1081.56
749.86	1080.63
750.19	1069.86
750.52	1078.52
750.85	1071.03
751.18	1072.67
751.51	1062.37
751.84	1071.97
752.16	1061.67
752.49	1065.88
752.82	1063.31
753.15	1078.52
753.48	1080.86
753.81	1087.18
754.14	1078.52
754.47	1081.80
754.80	1071.03
755.13	1066.35
755.46	1066.58
755.79	1085.07
756.12	1090.46
756.45	1096.54
756.78	1098.41
757.11	1102.86
757.43	1097.95
757.76	1084.60
758.09	1077.11
758.42	1074.54
758.75	1073.14
759.08	1074.07
759.41	1077.11
759.74	1086.01
760.07	1088.12
760.39	1092.09
760.72	1083.43
761.05	1082.50
761.38	1076.88
761.71	1073.37
762.04	1071.97
762.36	1072.90
762.69	1065.41
763.02	1074.54
763.35	1078.52
763.68	1080.39
764.01	1079.92
