SpectraSuite Data File
++++++++++++++++++++++++++++++++++++
Date: Mon Aug 26 10:24:43 PDT 2019
User: corrico
Dark Spectrum Present: No
Reference Spectrum Present: No
Number of Sampled Component Spectra: 1
Spectrometers: USB2+H06089
Integration Time (usec): 10000 (USB2+H06089)
Spectra Averaged: 2 (USB2+H06089)
Boxcar Smoothing: 2 (USB2+H06089)
Correct for Electrical Dark: No (USB2+H06089)
Strobe/Lamp Enabled: No (USB2+H06089)
Correct for Detector Non-linearity: No (USB2+H06089)
Correct for Stray Light: No (USB2+H06089)
Number of Pixels in Processed Spectrum: 2048
>>>>>Begin Processed Spectral Data<<<<<
339.70	1021.64
340.07	1021.64
340.45	996.13
340.82	971.79
341.19	952.60
341.57	924.98
341.94	914.92
342.31	904.62
342.69	903.91
343.06	889.64
343.43	895.49
343.81	895.72
344.18	900.17
344.55	899.00
344.93	911.87
345.30	915.15
345.67	921.70
346.04	921.00
346.42	939.02
346.79	948.39
347.16	960.32
347.54	969.92
347.91	985.13
348.28	999.64
348.65	1009.00
349.03	1014.15
349.40	1030.07
349.77	1045.75
350.14	1038.50
350.52	1049.03
350.89	1058.86
351.26	1059.33
351.63	1055.82
352.01	1073.37
352.38	1076.65
352.75	1079.92
353.12	1080.86
353.50	1082.50
353.87	1082.97
354.24	1084.60
354.61	1085.77
354.98	1098.41
355.36	1093.26
355.73	1089.52
356.10	1087.18
356.47	1091.86
356.84	1080.86
357.22	1089.05
357.59	1095.14
357.96	1106.37
358.33	1106.14
358.70	1103.09
359.08	1104.03
359.45	1093.50
359.82	1074.31
360.19	1072.67
360.56	1078.75
360.94	1070.80
361.31	1079.69
361.68	1094.20
362.05	1098.18
362.42	1109.65
362.79	1113.16
363.16	1101.92
363.54	1095.60
363.91	1083.43
364.28	1076.88
364.65	1081.33
365.02	1089.99
365.39	1085.54
365.76	1090.46
366.14	1085.07
366.51	1085.07
366.88	1089.99
367.25	1098.41
367.62	1097.01
367.99	1096.78
368.36	1095.37
368.73	1084.14
369.10	1079.92
369.48	1078.52
369.85	1076.88
370.22	1073.60
370.59	1070.56
370.96	1072.43
371.33	1082.26
371.70	1094.20
372.07	1105.44
372.44	1112.92
372.81	1116.67
373.18	1106.61
373.55	1104.03
373.93	1094.90
374.30	1086.24
374.67	1095.14
375.04	1085.07
375.41	1078.75
375.78	1089.29
376.15	1095.84
376.52	1087.88
376.89	1101.46
377.26	1100.29
377.63	1087.41
378.00	1083.67
378.37	1082.03
378.74	1082.26
379.11	1088.12
379.48	1089.99
379.85	1100.05
380.22	1099.35
380.59	1099.58
380.96	1092.56
381.33	1098.41
381.70	1097.48
382.07	1100.29
382.44	1101.46
382.81	1106.61
383.18	1107.31
383.55	1106.84
383.92	1104.73
384.29	1106.61
384.66	1106.61
385.03	1108.48
385.40	1109.65
385.77	1117.37
386.14	1118.54
386.51	1121.82
386.88	1119.71
387.25	1131.18
387.62	1118.07
387.99	1126.03
388.36	1135.63
388.73	1143.82
389.10	1138.44
389.46	1149.67
389.83	1140.07
390.20	1126.50
390.57	1107.07
390.94	1097.24
391.31	1100.52
391.68	1111.29
392.05	1120.88
392.42	1130.24
392.79	1137.97
393.16	1141.71
393.53	1132.12
393.89	1130.01
394.26	1133.76
394.63	1132.12
395.00	1118.78
395.37	1125.56
395.74	1122.52
396.11	1119.24
396.48	1133.52
396.84	1145.93
397.21	1151.78
397.58	1153.18
397.95	1160.91
398.32	1159.74
398.69	1164.88
399.06	1172.61
399.42	1174.48
399.79	1179.63
400.16	1184.55
400.53	1184.08
400.90	1185.95
401.27	1200.23
401.64	1205.84
402.00	1220.36
402.37	1228.55
402.74	1231.36
403.11	1251.25
403.48	1261.08
403.84	1269.04
404.21	1280.04
404.58	1287.53
404.95	1284.95
405.32	1312.81
405.68	1321.93
406.05	1344.40
406.42	1379.75
406.79	1425.39
407.16	1445.28
407.52	1471.26
407.89	1507.07
408.26	1535.86
408.63	1562.78
408.99	1602.80
409.36	1649.61
409.73	1682.61
410.10	1731.06
410.47	1783.72
410.83	1851.83
411.20	1920.41
411.57	1994.60
411.94	2072.78
412.30	2147.21
412.67	2223.04
413.04	2292.79
413.40	2408.41
413.77	2515.84
414.14	2619.06
414.51	2727.66
414.87	2856.16
415.24	2975.29
415.61	3114.08
415.97	3259.66
416.34	3426.78
416.71	3609.11
417.08	3826.31
417.44	4026.66
417.81	4274.52
418.18	4520.51
418.54	4785.23
418.91	5033.09
419.28	5345.32
419.64	5648.65
420.01	6003.01
420.38	6353.15
420.74	6696.04
421.11	7073.10
421.48	7461.16
421.84	7839.39
422.21	8249.45
422.58	8753.84
422.94	9255.41
423.31	9776.18
423.68	10344.00
424.04	10985.54
424.41	11607.42
424.77	12229.77
425.14	12934.50
425.51	13623.32
425.87	14343.97
426.24	15088.50
426.61	15941.15
426.97	16894.92
427.34	17840.97
427.70	18868.93
428.07	19820.12
428.44	20816.96
428.80	21802.79
429.17	22891.14
429.53	23949.06
429.90	25298.85
430.27	26531.84
430.63	27724.11
431.00	28991.98
431.36	30359.79
431.73	31575.70
432.09	32792.31
432.46	34141.86
432.83	35522.08
433.19	36734.94
433.56	38198.01
433.92	39763.60
434.29	41064.00
434.65	42361.12
435.02	43641.16
435.38	44836.24
435.75	45707.39
436.11	47051.56
436.48	48100.82
436.84	49125.27
437.21	49974.88
437.57	50918.59
437.94	51497.64
438.30	52116.24
438.67	52512.96
439.03	52753.57
439.40	52970.54
439.76	52816.06
440.13	52583.18
440.49	52585.75
440.86	52276.10
441.22	51905.59
441.59	51479.38
441.95	51055.98
442.32	50163.53
442.68	49446.16
443.05	48542.94
443.41	47623.58
443.78	46462.91
444.14	45467.48
444.51	44080.25
444.87	43045.73
445.24	41822.80
445.60	40725.32
445.96	39545.69
446.33	38755.06
446.69	37589.71
447.06	36673.39
447.42	35565.61
447.79	34431.39
448.15	33373.70
448.51	32337.78
448.88	31531.93
449.24	30674.83
449.61	30042.88
449.97	29301.87
450.33	28622.65
450.70	27699.30
451.06	27039.27
451.43	26204.87
451.79	25632.61
452.15	25086.56
452.52	24507.98
452.88	23924.49
453.24	23421.04
453.61	22740.18
453.97	22084.36
454.34	21451.01
454.70	20857.45
455.06	20276.29
455.43	19634.05
455.79	18880.17
456.15	18305.56
456.52	17626.11
456.88	17025.29
457.24	16389.37
457.61	15914.94
457.97	15362.81
458.33	14857.25
458.70	14312.61
459.06	13773.82
459.42	13350.65
459.79	12852.12
460.15	12434.80
460.51	11994.31
460.88	11646.74
461.24	11176.99
461.60	10853.53
461.96	10493.32
462.33	10168.69
462.69	9814.10
463.05	9525.75
463.42	9231.78
463.78	8929.61
464.14	8645.94
464.50	8444.89
464.87	8182.04
465.23	7901.88
465.59	7731.96
465.95	7541.44
466.32	7305.51
466.68	7093.70
467.04	6901.54
467.40	6668.42
467.77	6511.14
468.13	6333.49
468.49	6178.55
468.85	6049.58
469.22	5938.17
469.58	5788.14
469.94	5657.31
470.30	5542.15
470.66	5445.72
471.03	5338.76
471.39	5228.52
471.75	5142.39
472.11	5044.56
472.47	4940.40
472.84	4829.70
473.20	4706.12
473.56	4593.30
473.92	4501.08
474.28	4391.78
474.65	4292.54
475.01	4229.11
475.37	4138.07
475.73	4047.96
476.09	3961.82
476.45	3880.84
476.81	3802.20
477.18	3720.05
477.54	3661.30
477.90	3579.62
478.26	3500.51
478.62	3435.20
478.98	3390.50
479.34	3324.97
479.71	3282.37
480.07	3257.32
480.43	3222.68
480.79	3162.53
481.15	3097.70
481.51	3041.76
481.87	2964.76
482.23	2895.01
482.59	2847.73
482.96	2815.66
483.32	2771.90
483.68	2737.02
484.04	2693.49
484.40	2666.10
484.76	2630.53
485.12	2599.87
485.48	2572.72
485.84	2543.23
486.20	2492.44
486.56	2456.16
486.92	2424.09
487.28	2391.09
487.64	2366.52
488.00	2333.28
488.37	2304.73
488.73	2276.41
489.09	2245.51
489.45	2205.25
489.81	2168.04
490.17	2133.63
490.53	2106.72
490.89	2066.93
491.25	2035.80
491.61	2026.44
491.97	2000.69
492.33	1979.39
492.69	1965.11
493.05	1948.50
493.41	1919.24
493.77	1884.13
494.13	1855.11
494.49	1832.41
494.85	1809.00
495.21	1792.62
495.57	1782.08
495.93	1756.57
496.29	1730.59
496.64	1702.51
497.00	1679.57
497.36	1666.93
497.72	1647.03
498.08	1623.40
498.44	1624.80
498.80	1607.01
499.16	1594.37
499.52	1579.63
499.88	1574.95
500.24	1543.82
500.60	1536.09
500.96	1513.86
501.32	1507.77
501.68	1497.94
502.03	1494.20
502.39	1488.81
502.75	1480.86
503.11	1482.73
503.47	1474.77
503.83	1475.71
504.19	1462.37
504.55	1451.37
504.91	1421.88
505.26	1412.75
505.62	1397.30
505.98	1376.24
506.34	1368.98
506.70	1362.66
507.06	1350.26
507.42	1337.38
507.78	1330.13
508.13	1310.00
508.49	1308.36
508.85	1303.44
509.21	1306.96
509.57	1312.81
509.93	1321.00
510.28	1311.17
510.64	1311.17
511.00	1293.85
511.36	1284.72
511.72	1290.10
512.07	1291.74
512.43	1288.93
512.79	1285.89
513.15	1286.12
513.51	1274.89
513.86	1266.70
514.22	1252.19
514.58	1242.82
514.94	1242.59
515.30	1229.48
515.65	1221.53
516.01	1227.85
516.37	1232.06
516.73	1218.25
517.08	1212.63
517.44	1212.40
517.80	1202.57
518.16	1199.76
518.51	1196.48
518.87	1197.65
519.23	1200.46
519.59	1190.86
519.94	1185.25
520.30	1188.29
520.66	1184.78
521.01	1185.95
521.37	1191.57
521.73	1199.06
522.09	1204.21
522.44	1209.12
522.80	1200.46
523.16	1202.57
523.51	1191.57
523.87	1184.08
524.23	1183.14
524.58	1186.18
524.94	1177.99
525.30	1176.12
525.65	1182.44
526.01	1172.14
526.37	1170.74
526.72	1165.82
527.08	1167.93
527.44	1154.82
527.79	1160.20
528.15	1155.05
528.51	1150.84
528.86	1142.18
529.22	1146.39
529.58	1135.63
529.93	1133.52
530.29	1137.27
530.65	1140.78
531.00	1136.33
531.36	1148.27
531.71	1160.67
532.07	1168.63
532.43	1181.97
532.78	1188.99
533.14	1177.29
533.49	1165.12
533.85	1161.37
534.21	1157.39
534.56	1155.05
534.92	1164.18
535.27	1163.25
535.63	1163.25
535.98	1156.93
536.34	1147.56
536.69	1137.97
537.05	1145.46
537.41	1137.73
537.76	1133.52
538.12	1139.37
538.47	1139.37
538.83	1134.22
539.18	1143.35
539.54	1145.93
539.89	1135.86
540.25	1131.41
540.60	1129.78
540.96	1116.90
541.31	1114.33
541.67	1122.99
542.02	1124.86
542.38	1117.84
542.73	1116.44
543.09	1115.97
543.44	1094.67
543.80	1105.20
544.15	1111.75
544.51	1115.03
544.86	1122.05
545.22	1140.07
545.57	1135.63
545.93	1132.35
546.28	1124.86
546.64	1117.61
546.99	1118.31
547.35	1110.12
547.70	1111.75
548.05	1125.33
548.41	1131.88
548.76	1126.73
549.12	1131.18
549.47	1129.78
549.83	1125.56
550.18	1122.29
550.53	1121.82
550.89	1126.27
551.24	1123.69
551.60	1126.97
551.95	1127.90
552.30	1129.31
552.66	1126.03
553.01	1126.73
553.37	1121.35
553.72	1117.37
554.07	1118.07
554.43	1118.31
554.78	1122.99
555.13	1127.67
555.49	1121.12
555.84	1122.52
556.19	1118.07
556.55	1115.27
556.90	1107.31
557.26	1111.75
557.61	1111.05
557.96	1125.10
558.32	1123.69
558.67	1126.97
559.02	1132.82
559.37	1130.48
559.73	1117.14
560.08	1109.65
560.43	1110.58
560.79	1111.75
561.14	1123.69
561.49	1125.10
561.85	1125.80
562.20	1128.37
562.55	1117.84
562.90	1101.92
563.26	1093.26
563.61	1099.82
563.96	1100.29
564.32	1115.27
564.67	1121.58
565.02	1129.54
565.37	1133.52
565.73	1138.44
566.08	1127.67
566.43	1123.46
566.78	1124.86
567.14	1115.73
567.49	1113.63
567.84	1116.67
568.19	1119.01
568.54	1117.37
568.90	1117.37
569.25	1111.52
569.60	1106.84
569.95	1100.05
570.31	1097.48
570.66	1095.14
571.01	1105.67
571.36	1102.63
571.71	1108.01
572.06	1111.29
572.42	1111.52
572.77	1095.84
573.12	1097.95
573.47	1092.09
573.82	1091.63
574.18	1099.82
574.53	1095.60
574.88	1091.86
575.23	1103.80
575.58	1104.97
575.93	1107.54
576.28	1119.24
576.64	1127.20
576.99	1130.71
577.34	1123.22
577.69	1113.86
578.04	1112.22
578.39	1105.67
578.74	1087.88
579.09	1090.22
579.44	1096.31
579.80	1093.97
580.15	1101.46
580.50	1114.80
580.85	1117.37
581.20	1108.01
581.55	1111.29
581.90	1109.65
582.25	1106.14
582.60	1107.78
582.95	1115.50
583.30	1115.27
583.65	1106.61
584.00	1106.37
584.35	1120.41
584.71	1116.44
585.06	1106.37
585.41	1112.46
585.76	1111.29
586.11	1104.97
586.46	1109.18
586.81	1112.92
587.16	1113.16
587.51	1122.52
587.86	1120.41
588.21	1124.86
588.56	1120.41
588.91	1120.18
589.26	1110.35
589.61	1101.92
589.96	1092.09
590.31	1099.35
590.66	1095.14
591.01	1097.95
591.36	1105.90
591.71	1108.95
592.06	1109.41
592.41	1103.80
592.76	1103.09
593.10	1097.24
593.45	1091.86
593.80	1097.24
594.15	1101.22
594.50	1097.01
594.85	1095.60
595.20	1103.80
595.55	1100.99
595.90	1098.65
596.25	1097.48
596.60	1099.58
596.95	1091.16
597.30	1092.09
597.64	1145.69
597.99	1152.95
598.34	1149.91
598.69	1151.08
599.04	1143.82
599.39	1093.97
599.74	1087.18
600.09	1073.60
600.44	1076.65
600.78	1077.35
601.13	1080.16
601.48	1084.60
601.83	1097.01
602.18	1101.92
602.53	1108.95
602.88	1103.33
603.22	1102.63
603.57	1107.07
603.92	1097.48
604.27	1088.82
604.62	1092.09
604.97	1085.77
605.31	1073.84
605.66	1083.43
606.01	1085.54
606.36	1080.86
606.71	1086.24
607.05	1097.01
607.40	1089.75
607.75	1086.01
608.10	1094.67
608.44	1097.01
608.79	1101.46
609.14	1100.75
609.49	1108.71
609.84	1114.33
610.18	1114.80
610.53	1111.05
610.88	1113.63
611.23	1116.20
611.57	1116.20
611.92	1112.69
612.27	1106.84
612.62	1104.26
612.96	1106.37
613.31	1101.22
613.66	1107.31
614.00	1119.71
614.35	1126.97
614.70	1119.48
615.05	1124.16
615.39	1121.82
615.74	1110.58
616.09	1105.20
616.43	1104.50
616.78	1089.99
617.13	1089.05
617.47	1089.52
617.82	1094.43
618.17	1091.86
618.51	1104.26
618.86	1101.22
619.21	1103.33
619.55	1102.16
619.90	1102.16
620.25	1094.67
620.59	1093.26
620.94	1090.46
621.29	1086.01
621.63	1088.82
621.98	1087.18
622.32	1096.78
622.67	1107.31
623.02	1109.18
623.36	1110.35
623.71	1116.44
624.05	1112.46
624.40	1103.56
624.75	1106.61
625.09	1104.73
625.44	1100.99
625.78	1096.54
626.13	1095.84
626.48	1089.99
626.82	1088.58
627.17	1084.60
627.51	1082.26
627.86	1081.09
628.20	1082.50
628.55	1085.77
628.89	1092.09
629.24	1094.67
629.58	1083.67
629.93	1082.97
630.28	1082.50
630.62	1087.88
630.97	1088.82
631.31	1104.50
631.66	1103.09
632.00	1100.05
632.35	1087.18
632.69	1089.75
633.04	1081.33
633.38	1089.29
633.73	1089.99
634.07	1093.26
634.42	1092.80
634.76	1094.20
635.11	1092.09
635.45	1093.03
635.79	1089.52
636.14	1076.88
636.48	1079.92
636.83	1076.41
637.17	1081.80
637.52	1094.90
637.86	1099.82
638.21	1109.41
638.55	1120.41
638.89	1117.14
639.24	1108.95
639.58	1112.22
639.93	1105.20
640.27	1102.39
640.61	1099.35
640.96	1097.24
641.30	1085.54
641.65	1085.77
641.99	1067.75
642.33	1071.50
642.68	1075.71
643.02	1093.50
643.37	1090.92
643.71	1100.29
644.05	1104.97
644.40	1101.46
644.74	1094.90
645.08	1092.09
645.43	1092.09
645.77	1083.67
646.11	1086.24
646.46	1083.43
646.80	1084.84
647.14	1083.43
647.49	1077.58
647.83	1078.99
648.17	1087.65
648.52	1086.24
648.86	1084.37
649.20	1094.67
649.55	1086.01
649.89	1077.35
650.23	1077.11
650.57	1095.60
650.92	1092.56
651.26	1099.35
651.60	1097.95
651.95	1101.46
652.29	1087.88
652.63	1077.82
652.97	1066.82
653.32	1067.75
653.66	1065.41
654.00	1067.75
654.34	1076.65
654.69	1090.46
655.03	1099.58
655.37	1100.05
655.71	1090.22
656.05	1093.26
656.40	1098.88
656.74	1087.18
657.08	1079.22
657.42	1084.60
657.76	1077.82
658.11	1067.99
658.45	1084.14
658.79	1089.29
659.13	1087.88
659.47	1094.43
659.82	1097.24
660.16	1080.86
660.50	1087.41
660.84	1080.16
661.18	1078.52
661.52	1074.77
661.87	1083.20
662.21	1082.50
662.55	1083.90
662.89	1082.03
663.23	1084.84
663.57	1081.09
663.91	1080.39
664.25	1097.95
664.60	1098.65
664.94	1098.65
665.28	1106.84
665.62	1105.67
665.96	1100.99
666.30	1104.26
666.64	1106.14
666.98	1093.50
667.32	1090.69
667.66	1090.22
668.01	1081.80
668.35	1073.60
668.69	1078.05
669.03	1087.88
669.37	1094.43
669.71	1097.24
670.05	1103.56
670.39	1109.41
670.73	1093.03
671.07	1077.82
671.41	1073.37
671.75	1076.65
672.09	1075.01
672.43	1084.60
672.77	1085.77
673.11	1085.54
673.45	1084.84
673.79	1086.94
674.13	1091.16
674.47	1090.92
674.81	1093.26
675.15	1084.37
675.49	1086.24
675.83	1079.22
676.17	1087.65
676.51	1096.07
676.85	1095.84
677.19	1089.05
677.53	1087.65
677.87	1093.26
678.21	1093.50
678.55	1103.33
678.89	1101.69
679.23	1106.37
679.57	1096.54
679.90	1089.99
680.24	1081.09
680.58	1082.50
680.92	1072.20
681.26	1080.63
681.60	1078.28
681.94	1087.88
682.28	1088.58
682.62	1111.05
682.96	1099.82
683.29	1108.24
683.63	1103.80
683.97	1100.52
684.31	1084.14
684.65	1092.56
684.99	1085.77
685.33	1085.77
685.67	1080.16
686.00	1075.71
686.34	1068.69
686.68	1061.20
687.02	1064.71
687.36	1069.16
687.70	1072.67
688.03	1070.33
688.37	1084.84
688.71	1080.86
689.05	1093.73
689.39	1102.16
689.72	1104.26
690.06	1097.01
690.40	1093.73
690.74	1087.88
691.08	1087.88
691.41	1084.60
691.75	1080.16
692.09	1079.69
692.43	1075.24
692.76	1080.39
693.10	1079.92
693.44	1095.60
693.78	1095.37
694.11	1099.82
694.45	1084.84
694.79	1090.22
695.13	1081.33
695.46	1074.31
695.80	1064.24
696.14	1067.28
696.48	1064.01
696.81	1068.22
697.15	1082.03
697.49	1083.20
697.82	1081.80
698.16	1088.12
698.50	1087.41
698.83	1082.73
699.17	1086.24
699.51	1088.12
699.84	1081.80
700.18	1077.82
700.52	1082.26
700.85	1089.29
701.19	1090.69
701.53	1084.37
701.86	1085.07
702.20	1086.48
702.54	1081.33
702.87	1081.09
703.21	1097.95
703.55	1099.12
703.88	1088.82
704.22	1082.73
704.55	1087.41
704.89	1087.18
705.23	1082.50
705.56	1090.46
705.90	1094.20
706.23	1093.50
706.57	1081.56
706.91	1087.18
707.24	1088.12
707.58	1093.26
707.91	1090.22
708.25	1087.18
708.58	1087.65
708.92	1089.99
709.26	1093.26
709.59	1089.99
709.93	1105.20
710.26	1103.56
710.60	1107.78
710.93	1103.09
711.27	1107.78
711.60	1094.20
711.94	1088.82
712.27	1088.12
712.61	1082.73
712.94	1074.31
713.28	1081.80
713.61	1089.05
713.95	1081.56
714.28	1089.99
714.62	1100.29
714.95	1094.43
715.29	1088.82
715.62	1089.52
715.96	1082.50
716.29	1070.80
716.63	1079.69
716.96	1087.18
717.29	1079.22
717.63	1076.88
717.96	1087.88
718.30	1083.67
718.63	1076.65
718.97	1078.05
719.30	1086.01
719.63	1075.24
719.97	1071.26
720.30	1068.45
720.64	1076.41
720.97	1074.07
721.30	1083.67
721.64	1084.14
721.97	1079.46
722.31	1070.33
722.64	1070.80
722.97	1076.65
723.31	1070.09
723.64	1074.54
723.97	1085.77
724.31	1079.22
724.64	1067.05
724.98	1071.50
725.31	1078.99
725.64	1069.16
725.98	1071.97
726.31	1078.05
726.64	1084.37
726.97	1088.82
727.31	1097.01
727.64	1092.33
727.97	1090.22
728.31	1099.35
728.64	1092.09
728.97	1083.90
729.31	1092.80
729.64	1089.29
729.97	1076.65
730.30	1072.90
730.64	1079.22
730.97	1074.54
731.30	1076.41
731.63	1077.35
731.97	1079.22
732.30	1079.46
732.63	1083.43
732.96	1080.39
733.30	1078.28
733.63	1075.71
733.96	1075.94
734.29	1083.90
734.63	1097.01
734.96	1102.63
735.29	1108.71
735.62	1110.35
735.95	1091.16
736.29	1088.58
736.62	1076.65
736.95	1074.54
737.28	1074.07
737.61	1084.14
737.94	1076.65
738.28	1086.71
738.61	1089.29
738.94	1091.16
739.27	1082.97
739.60	1080.39
739.93	1081.09
740.27	1075.71
740.60	1071.73
740.93	1083.43
741.26	1091.39
741.59	1079.46
741.92	1080.39
742.25	1081.56
742.58	1079.46
742.91	1078.75
743.25	1087.18
743.58	1084.37
743.91	1084.37
744.24	1075.01
744.57	1054.88
744.90	1055.35
745.23	1066.35
745.56	1065.88
745.89	1077.58
746.22	1096.54
746.55	1096.07
746.88	1093.03
747.21	1082.97
747.54	1071.26
747.87	1073.14
748.20	1073.14
748.53	1069.16
748.87	1077.35
749.20	1085.07
749.53	1080.16
749.86	1079.92
750.19	1087.41
750.52	1092.56
750.85	1094.67
751.18	1101.46
751.51	1112.69
751.84	1102.86
752.16	1097.95
752.49	1093.03
752.82	1091.39
753.15	1080.86
753.48	1086.48
753.81	1082.03
754.14	1084.60
754.47	1081.80
754.80	1083.43
755.13	1071.97
755.46	1073.14
755.79	1075.01
756.12	1072.43
756.45	1070.33
756.78	1086.01
757.11	1084.84
757.43	1079.69
757.76	1089.99
758.09	1089.05
758.42	1078.75
758.75	1081.80
759.08	1081.56
759.41	1076.65
759.74	1076.65
760.07	1075.24
760.39	1078.52
760.72	1079.46
761.05	1078.75
761.38	1077.35
761.71	1086.94
762.04	1082.26
762.36	1089.99
762.69	1080.63
763.02	1075.24
763.35	1069.86
763.68	1074.07
764.01	1076.41
