SpectraSuite Data File
++++++++++++++++++++++++++++++++++++
Date: Mon Aug 26 10:24:45 PDT 2019
User: corrico
Dark Spectrum Present: No
Reference Spectrum Present: No
Number of Sampled Component Spectra: 1
Spectrometers: USB2+H06089
Integration Time (usec): 10000 (USB2+H06089)
Spectra Averaged: 2 (USB2+H06089)
Boxcar Smoothing: 2 (USB2+H06089)
Correct for Electrical Dark: No (USB2+H06089)
Strobe/Lamp Enabled: No (USB2+H06089)
Correct for Detector Non-linearity: No (USB2+H06089)
Correct for Stray Light: No (USB2+H06089)
Number of Pixels in Processed Spectrum: 2048
>>>>>Begin Processed Spectral Data<<<<<
339.70	1031.01
340.07	1031.01
340.45	1001.52
340.82	985.83
341.19	967.81
341.57	939.26
341.94	929.89
342.31	929.19
342.69	919.60
343.06	914.92
343.43	917.02
343.81	908.36
344.18	918.89
344.55	924.28
344.93	921.23
345.30	928.96
345.67	944.87
346.04	938.79
346.42	944.41
346.79	963.60
347.16	966.88
347.54	979.28
347.91	990.05
348.28	1002.69
348.65	1006.66
349.03	1031.24
349.40	1022.81
349.77	1025.86
350.14	1027.26
350.52	1042.47
350.89	1043.18
351.26	1059.09
351.63	1070.56
352.01	1090.46
352.38	1095.84
352.75	1099.82
353.12	1099.82
353.50	1090.69
353.87	1084.37
354.24	1076.88
354.61	1081.33
354.98	1091.39
355.36	1102.16
355.73	1110.82
356.10	1107.78
356.47	1095.14
356.84	1098.18
357.22	1098.88
357.59	1082.50
357.96	1086.24
358.33	1101.22
358.70	1091.16
359.08	1092.33
359.45	1101.69
359.82	1104.97
360.19	1094.90
360.56	1098.88
360.94	1108.48
361.31	1106.37
361.68	1107.07
362.05	1121.12
362.42	1124.16
362.79	1123.69
363.16	1126.50
363.54	1119.48
363.91	1098.18
364.28	1096.54
364.65	1080.16
365.02	1079.69
365.39	1074.31
365.76	1078.99
366.14	1072.43
366.51	1079.92
366.88	1075.24
367.25	1095.14
367.62	1104.97
367.99	1105.67
368.36	1105.90
368.73	1108.71
369.10	1101.46
369.48	1099.82
369.85	1100.05
370.22	1100.75
370.59	1098.41
370.96	1095.84
371.33	1094.43
371.70	1103.80
372.07	1098.88
372.44	1096.07
372.81	1091.63
373.18	1089.99
373.55	1079.92
373.93	1086.01
374.30	1096.31
374.67	1096.31
375.04	1096.31
375.41	1111.52
375.78	1107.07
376.15	1100.99
376.52	1103.33
376.89	1099.58
377.26	1097.71
377.63	1102.86
378.00	1113.63
378.37	1126.27
378.74	1124.63
379.11	1124.63
379.48	1120.65
379.85	1116.67
380.22	1111.05
380.59	1117.61
380.96	1109.65
381.33	1109.18
381.70	1101.92
382.07	1096.07
382.44	1082.97
382.81	1075.94
383.18	1087.41
383.55	1094.67
383.92	1099.12
384.29	1116.90
384.66	1118.07
385.03	1120.88
385.40	1113.39
385.77	1114.56
386.14	1110.35
386.51	1112.22
386.88	1099.12
387.25	1103.56
387.62	1097.71
387.99	1104.97
388.36	1111.99
388.73	1115.03
389.10	1115.50
389.46	1115.50
389.83	1105.90
390.20	1113.39
390.57	1111.29
390.94	1115.03
391.31	1122.52
391.68	1127.20
392.05	1116.90
392.42	1119.01
392.79	1119.48
393.16	1116.90
393.53	1120.41
393.89	1124.39
394.26	1140.78
394.63	1149.44
395.00	1152.48
395.37	1155.29
395.74	1152.48
396.11	1146.16
396.48	1147.80
396.84	1148.27
397.21	1155.29
397.58	1168.86
397.95	1162.54
398.32	1158.33
398.69	1158.80
399.06	1152.25
399.42	1140.78
399.79	1146.39
400.16	1152.25
400.53	1174.71
400.90	1190.40
401.27	1206.08
401.64	1218.95
402.00	1223.40
402.37	1216.38
402.74	1225.74
403.11	1238.61
403.48	1253.12
403.84	1268.10
404.21	1296.42
404.58	1306.96
404.95	1325.21
405.32	1342.06
405.68	1355.64
406.05	1357.98
406.42	1374.13
406.79	1400.11
407.16	1424.22
407.52	1456.75
407.89	1493.26
408.26	1525.09
408.63	1549.43
408.99	1591.80
409.36	1635.57
409.73	1670.44
410.10	1722.63
410.47	1769.91
410.83	1809.94
411.20	1864.24
411.57	1934.92
411.94	1991.56
412.30	2069.50
412.67	2156.80
413.04	2237.32
413.40	2340.07
413.77	2454.29
414.14	2562.65
414.51	2670.08
414.87	2803.26
415.24	2926.84
415.61	3064.70
415.97	3217.30
416.34	3386.52
416.71	3558.32
417.08	3739.47
417.44	3918.06
417.81	4138.30
418.18	4356.44
418.54	4584.17
418.91	4845.85
419.28	5128.58
419.64	5375.51
420.01	5676.03
420.38	6007.92
420.74	6346.36
421.11	6709.38
421.48	7115.93
421.84	7540.74
422.21	7978.42
422.58	8421.25
422.94	8896.84
423.31	9404.74
423.68	9922.00
424.04	10510.88
424.41	11112.40
424.77	11721.64
425.14	12350.54
425.51	13011.51
425.87	13656.32
426.24	14361.29
426.61	15161.52
426.97	16113.65
427.34	16993.46
427.70	17987.25
428.07	18922.53
428.44	19885.19
428.80	20782.08
429.17	21896.88
429.53	22927.19
429.90	24199.50
430.27	25303.53
430.63	26416.46
431.00	27599.36
431.36	28909.83
431.73	30023.22
432.09	31282.20
432.46	32558.02
432.83	33768.08
433.19	34845.43
433.56	36228.22
433.92	37642.84
434.29	38994.26
434.65	40392.03
435.02	41555.98
435.38	42667.26
435.75	43523.67
436.11	44698.15
436.48	45544.72
436.84	46582.51
437.21	47469.11
437.57	48409.07
437.94	49125.04
438.30	49826.03
438.67	50450.25
439.03	50757.09
439.40	51001.21
439.76	50765.05
440.13	50532.40
440.49	50337.90
440.86	49906.07
441.22	49445.46
441.59	48999.58
441.95	48547.63
442.32	47703.86
442.68	47012.23
443.05	46147.64
443.41	45280.71
443.78	44147.18
444.14	43109.16
444.51	41878.04
444.87	40984.42
445.24	39802.68
445.60	38708.48
445.96	37666.01
446.33	36820.14
446.69	35618.51
447.06	34750.40
447.42	33774.40
447.79	32735.20
448.15	31842.05
448.51	30915.43
448.88	30146.80
449.24	29327.38
449.61	28626.62
449.97	27801.12
450.33	27079.30
450.70	26152.68
451.06	25540.16
451.43	24838.70
451.79	24335.25
452.15	23808.87
452.52	23331.86
452.88	22757.03
453.24	22234.15
453.61	21631.00
453.97	21032.29
454.34	20392.15
454.70	19828.55
455.06	19231.48
455.43	18561.62
455.79	17804.46
456.15	17221.19
456.52	16578.01
456.88	16048.59
457.24	15485.22
457.61	15136.95
457.97	14674.22
458.33	14146.67
458.70	13631.28
459.06	13155.68
459.42	12698.81
459.79	12162.13
460.15	11784.13
460.51	11355.81
460.88	11002.16
461.24	10605.67
461.60	10349.61
461.96	10027.32
462.33	9741.31
462.69	9407.78
463.05	9113.81
463.42	8864.78
463.78	8619.72
464.14	8364.84
464.50	8158.87
464.87	7931.84
465.23	7650.28
465.59	7427.22
465.95	7240.45
466.32	7026.76
466.68	6827.11
467.04	6657.19
467.40	6480.71
467.77	6324.83
468.13	6158.65
468.49	6024.77
468.85	5886.92
469.22	5745.78
469.58	5598.80
469.94	5485.98
470.30	5362.40
470.66	5254.97
471.03	5148.48
471.39	5060.71
471.75	4955.15
472.11	4862.23
472.47	4768.61
472.84	4678.50
473.20	4539.47
473.56	4436.25
473.92	4328.35
474.28	4245.03
474.65	4140.64
475.01	4085.87
475.37	3986.17
475.73	3907.29
476.09	3815.31
476.45	3749.07
476.81	3656.15
477.18	3600.45
477.54	3534.68
477.90	3473.59
478.26	3401.73
478.62	3344.39
478.98	3296.18
479.34	3239.77
479.71	3192.26
480.07	3172.60
480.43	3122.27
480.79	3060.02
481.15	3011.80
481.51	2954.46
481.87	2893.37
482.23	2849.60
482.59	2799.75
482.96	2751.30
483.32	2713.38
483.68	2666.34
484.04	2632.17
484.40	2601.74
484.76	2562.18
485.12	2510.93
485.48	2483.07
485.84	2451.95
486.20	2408.88
486.56	2380.56
486.92	2362.30
487.28	2324.15
487.64	2288.58
488.00	2267.04
488.37	2240.36
488.73	2215.32
489.09	2187.23
489.45	2158.91
489.81	2127.31
490.17	2090.80
490.53	2054.29
490.89	2024.80
491.25	1995.77
491.61	1975.41
491.97	1959.73
492.33	1936.33
492.69	1915.73
493.05	1895.37
493.41	1871.96
493.77	1846.92
494.13	1826.32
494.49	1795.89
494.85	1771.79
495.21	1743.47
495.57	1714.68
495.93	1695.95
496.29	1682.85
496.64	1659.21
497.00	1643.52
497.36	1632.52
497.72	1616.14
498.08	1606.78
498.44	1603.74
498.80	1591.80
499.16	1579.63
499.52	1552.24
499.88	1523.22
500.24	1505.90
500.60	1492.09
500.96	1480.39
501.32	1488.58
501.68	1481.09
502.03	1468.69
502.39	1469.15
502.75	1452.07
503.11	1438.96
503.47	1441.30
503.83	1438.49
504.19	1420.00
504.55	1417.19
504.91	1413.45
505.26	1398.94
505.62	1384.19
505.98	1374.13
506.34	1363.60
506.70	1342.30
507.06	1338.32
507.42	1330.83
507.78	1325.68
508.13	1324.51
508.49	1328.02
508.85	1328.72
509.21	1320.30
509.57	1311.40
509.93	1291.51
510.28	1289.87
510.64	1277.00
511.00	1280.04
511.36	1277.46
511.72	1282.15
512.07	1270.44
512.43	1259.68
512.79	1251.02
513.15	1247.27
513.51	1249.14
513.86	1250.55
514.22	1242.12
514.58	1231.36
514.94	1227.14
515.30	1230.65
515.65	1220.59
516.01	1222.93
516.37	1231.59
516.73	1237.91
517.08	1225.74
517.44	1227.61
517.80	1225.27
518.16	1221.53
518.51	1209.59
518.87	1201.63
519.23	1195.78
519.59	1188.99
519.94	1193.67
520.30	1195.78
520.66	1190.86
521.01	1188.76
521.37	1198.12
521.73	1181.97
522.09	1173.78
522.44	1181.50
522.80	1184.08
523.16	1175.42
523.51	1178.23
523.87	1181.97
524.23	1182.44
524.58	1168.40
524.94	1163.48
525.30	1163.95
525.65	1167.23
526.01	1163.25
526.37	1172.37
526.72	1179.40
527.08	1184.31
527.44	1185.72
527.79	1175.42
528.15	1170.50
528.51	1167.93
528.86	1151.54
529.22	1139.84
529.58	1141.95
529.93	1139.14
530.29	1135.39
530.65	1140.78
531.00	1142.18
531.36	1141.71
531.71	1146.63
532.07	1153.88
532.43	1153.88
532.78	1148.50
533.14	1148.50
533.49	1135.16
533.85	1127.90
534.21	1119.48
534.56	1121.12
534.92	1109.88
535.27	1120.65
535.63	1120.65
535.98	1121.58
536.34	1115.50
536.69	1120.18
537.05	1116.67
537.41	1119.48
537.76	1123.46
538.12	1130.71
538.47	1127.20
538.83	1133.29
539.18	1125.33
539.54	1123.22
539.89	1124.63
540.25	1136.33
540.60	1133.52
540.96	1140.07
541.31	1144.29
541.67	1142.65
542.02	1137.03
542.38	1140.07
542.73	1132.12
543.09	1133.99
543.44	1131.18
543.80	1132.82
544.15	1122.29
544.51	1128.14
544.86	1130.01
545.22	1131.88
545.57	1127.44
545.93	1134.46
546.28	1130.95
546.64	1118.07
546.99	1125.33
547.35	1124.16
547.70	1122.52
548.05	1127.44
548.41	1132.59
548.76	1124.16
549.12	1123.22
549.47	1123.46
549.83	1124.86
550.18	1128.84
550.53	1131.18
550.89	1128.84
551.24	1122.05
551.60	1107.78
551.95	1109.65
552.30	1108.71
552.66	1112.22
553.01	1118.31
553.37	1119.24
553.72	1111.05
554.07	1111.29
554.43	1116.44
554.78	1111.75
555.13	1121.58
555.49	1121.12
555.84	1118.07
556.19	1122.29
556.55	1123.22
556.90	1119.71
557.26	1121.35
557.61	1123.93
557.96	1117.84
558.32	1121.12
558.67	1123.69
559.02	1121.58
559.37	1122.05
559.73	1124.39
560.08	1115.03
560.43	1114.10
560.79	1123.46
561.14	1117.61
561.49	1109.65
561.85	1109.88
562.20	1104.26
562.55	1091.86
562.90	1099.82
563.26	1101.69
563.61	1108.71
563.96	1112.46
564.32	1123.69
564.67	1122.05
565.02	1128.37
565.37	1123.46
565.73	1123.69
566.08	1117.84
566.43	1109.18
566.78	1105.90
567.14	1105.90
567.49	1102.86
567.84	1097.48
568.19	1112.92
568.54	1113.63
568.90	1110.12
569.25	1106.84
569.60	1112.92
569.95	1098.18
570.31	1100.99
570.66	1109.65
571.01	1110.58
571.36	1108.24
571.71	1120.65
572.06	1115.27
572.42	1110.82
572.77	1119.01
573.12	1120.88
573.47	1110.35
573.82	1109.18
574.18	1110.58
574.53	1103.56
574.88	1113.16
575.23	1109.88
575.58	1107.07
575.93	1106.84
576.28	1111.29
576.64	1105.20
576.99	1113.86
577.34	1128.14
577.69	1122.29
578.04	1120.88
578.39	1120.65
578.74	1111.99
579.09	1095.60
579.44	1097.95
579.80	1100.05
580.15	1093.26
580.50	1098.41
580.85	1115.27
581.20	1123.46
581.55	1122.52
581.90	1125.33
582.25	1121.82
582.60	1111.29
582.95	1108.71
583.30	1102.39
583.65	1100.99
584.00	1099.35
584.35	1098.65
584.71	1095.60
585.06	1104.03
585.41	1110.58
585.76	1116.67
586.11	1117.37
586.46	1113.63
586.81	1101.92
587.16	1091.39
587.51	1096.78
587.86	1106.84
588.21	1114.33
588.56	1123.46
588.91	1128.37
589.26	1116.44
589.61	1102.39
589.96	1103.33
590.31	1096.54
590.66	1098.41
591.01	1104.50
591.36	1109.65
591.71	1104.03
592.06	1108.71
592.41	1117.14
592.76	1123.93
593.10	1115.50
593.45	1115.50
593.80	1117.84
594.15	1111.29
594.50	1105.44
594.85	1104.97
595.20	1103.09
595.55	1095.84
595.90	1101.22
596.25	1101.92
596.60	1111.29
596.95	1112.92
597.30	1117.61
597.64	1150.14
597.99	1146.63
598.34	1152.01
598.69	1142.18
599.04	1140.31
599.39	1099.12
599.74	1104.26
600.09	1103.56
600.44	1111.29
600.78	1113.63
601.13	1108.71
601.48	1106.61
601.83	1101.46
602.18	1104.03
602.53	1108.01
602.88	1117.37
603.22	1120.18
603.57	1110.35
603.92	1116.44
604.27	1116.44
604.62	1101.46
604.97	1082.03
605.31	1085.54
605.66	1077.11
606.01	1081.09
606.36	1085.77
606.71	1095.60
607.05	1094.90
607.40	1102.16
607.75	1097.24
608.10	1100.99
608.44	1103.33
608.79	1110.35
609.14	1106.84
609.49	1115.27
609.84	1113.39
610.18	1113.39
610.53	1113.86
610.88	1108.24
611.23	1103.09
611.57	1099.35
611.92	1099.82
612.27	1105.67
612.62	1106.14
612.96	1101.46
613.31	1101.22
613.66	1102.39
614.00	1096.07
614.35	1104.03
614.70	1096.78
615.05	1110.82
615.39	1119.01
615.74	1116.90
616.09	1111.99
616.43	1120.18
616.78	1106.14
617.13	1087.88
617.47	1080.16
617.82	1073.37
618.17	1071.97
618.51	1076.88
618.86	1086.48
619.21	1097.95
619.55	1104.73
619.90	1102.63
620.25	1105.67
620.59	1096.54
620.94	1095.84
621.29	1098.41
621.63	1105.67
621.98	1108.01
622.32	1107.54
622.67	1112.92
623.02	1114.80
623.36	1114.33
623.71	1112.92
624.05	1122.29
624.40	1115.27
624.75	1104.97
625.09	1100.52
625.44	1094.43
625.78	1096.78
626.13	1092.09
626.48	1107.07
626.82	1100.29
627.17	1109.65
627.51	1106.37
627.86	1111.75
628.20	1105.67
628.55	1110.82
628.89	1113.39
629.24	1102.39
629.58	1104.26
629.93	1102.86
630.28	1098.88
630.62	1096.54
630.97	1114.10
631.31	1109.18
631.66	1104.73
632.00	1107.78
632.35	1103.33
632.69	1097.48
633.04	1100.05
633.38	1108.01
633.73	1100.99
634.07	1097.01
634.42	1097.95
634.76	1092.80
635.11	1083.43
635.45	1088.58
635.79	1084.14
636.14	1078.52
636.48	1078.99
636.83	1085.07
637.17	1078.05
637.52	1091.86
637.86	1094.43
638.21	1098.88
638.55	1100.99
638.89	1098.41
639.24	1084.14
639.58	1085.07
639.93	1082.73
640.27	1076.88
640.61	1082.73
640.96	1085.07
641.30	1085.31
641.65	1090.46
641.99	1080.39
642.33	1085.31
642.68	1082.03
643.02	1081.80
643.37	1067.99
643.71	1082.73
644.05	1086.48
644.40	1088.35
644.74	1088.58
645.08	1095.84
645.43	1086.48
645.77	1082.50
646.11	1087.65
646.46	1081.33
646.80	1081.09
647.14	1071.26
647.49	1073.14
647.83	1061.20
648.17	1068.69
648.52	1070.33
648.86	1093.73
649.20	1093.73
649.55	1109.65
649.89	1107.31
650.23	1109.65
650.57	1103.80
650.92	1103.09
651.26	1095.14
651.60	1102.16
651.95	1099.35
652.29	1097.71
652.63	1096.54
652.97	1103.80
653.32	1103.09
653.66	1093.26
654.00	1088.58
654.34	1087.41
654.69	1085.31
655.03	1071.26
655.37	1082.73
655.71	1086.24
656.05	1075.94
656.40	1078.05
656.74	1084.84
657.08	1088.35
657.42	1084.14
657.76	1093.73
658.11	1096.31
658.45	1094.67
658.79	1079.92
659.13	1088.35
659.47	1090.69
659.82	1093.73
660.16	1101.92
660.50	1118.31
660.84	1114.56
661.18	1113.16
661.52	1106.14
661.87	1100.99
662.21	1089.99
662.55	1090.69
662.89	1085.31
663.23	1083.20
663.57	1085.07
663.91	1088.12
664.25	1085.07
664.60	1096.31
664.94	1081.80
665.28	1071.73
665.62	1074.07
665.96	1083.67
666.30	1078.28
666.64	1094.20
666.98	1101.69
667.32	1097.48
667.66	1090.46
668.01	1087.88
668.35	1087.41
668.69	1091.63
669.03	1087.18
669.37	1089.52
669.71	1097.01
670.05	1096.54
670.39	1085.07
670.73	1091.86
671.07	1087.41
671.41	1078.28
671.75	1073.84
672.09	1086.94
672.43	1086.71
672.77	1086.71
673.11	1094.43
673.45	1095.60
673.79	1085.31
674.13	1089.05
674.47	1096.78
674.81	1088.82
675.15	1090.46
675.49	1104.97
675.83	1106.37
676.17	1102.16
676.51	1113.86
676.85	1113.63
677.19	1104.97
677.53	1105.44
677.87	1099.58
678.21	1094.67
678.55	1096.54
678.89	1090.92
679.23	1087.41
679.57	1096.07
679.90	1104.50
680.24	1101.22
680.58	1100.75
680.92	1098.88
681.26	1087.65
681.60	1074.07
681.94	1079.46
682.28	1092.09
682.62	1093.50
682.96	1106.37
683.29	1100.99
683.63	1102.86
683.97	1093.03
684.31	1093.26
684.65	1091.16
684.99	1098.88
685.33	1100.52
685.67	1104.50
686.00	1094.90
686.34	1096.78
686.68	1095.84
687.02	1092.09
687.36	1087.41
687.70	1093.26
688.03	1082.97
688.37	1083.90
688.71	1082.97
689.05	1092.80
689.39	1102.16
689.72	1111.99
690.06	1115.27
690.40	1111.52
690.74	1110.12
691.08	1102.39
691.41	1099.82
691.75	1090.69
692.09	1086.71
692.43	1076.18
692.76	1075.24
693.10	1069.39
693.44	1076.18
693.78	1074.31
694.11	1081.56
694.45	1082.50
694.79	1083.20
695.13	1072.67
695.46	1073.60
695.80	1081.09
696.14	1074.31
696.48	1075.94
696.81	1078.75
697.15	1086.94
697.49	1078.28
697.82	1073.37
698.16	1073.37
698.50	1080.86
698.83	1080.16
699.17	1087.65
699.51	1103.80
699.84	1106.14
700.18	1105.67
700.52	1111.75
700.85	1107.07
701.19	1106.37
701.53	1110.35
701.86	1114.80
702.20	1104.26
702.54	1100.52
702.87	1091.63
703.21	1077.11
703.55	1077.58
703.88	1084.14
704.22	1088.35
704.55	1086.94
704.89	1091.63
705.23	1078.05
705.56	1076.65
705.90	1070.09
706.23	1071.03
706.57	1078.52
706.91	1088.82
707.24	1089.99
707.58	1096.54
707.91	1113.63
708.25	1112.69
708.58	1117.84
708.92	1102.16
709.26	1099.35
709.59	1087.18
709.93	1088.82
710.26	1078.99
710.60	1096.07
710.93	1087.65
711.27	1085.54
711.60	1075.94
711.94	1078.99
712.27	1072.20
712.61	1073.60
712.94	1068.22
713.28	1078.52
713.61	1075.48
713.95	1064.01
714.28	1067.52
714.62	1075.71
714.95	1070.09
715.29	1074.31
715.62	1079.92
715.96	1085.54
716.29	1087.18
716.63	1085.77
716.96	1087.18
717.29	1096.78
717.63	1097.71
717.96	1090.46
718.30	1087.65
718.63	1071.26
718.97	1074.54
719.30	1070.33
719.63	1068.22
719.97	1060.26
720.30	1080.16
720.64	1074.77
720.97	1071.97
721.30	1075.48
721.64	1085.31
721.97	1086.01
722.31	1078.28
722.64	1073.60
722.97	1082.03
723.31	1084.84
723.64	1076.88
723.97	1086.71
724.31	1098.41
724.64	1086.48
724.98	1091.16
725.31	1097.24
725.64	1100.99
725.98	1096.07
726.31	1104.03
726.64	1099.58
726.97	1092.56
727.31	1089.05
727.64	1083.90
727.97	1082.26
728.31	1075.24
728.64	1073.37
728.97	1072.43
729.31	1071.50
729.64	1075.94
729.97	1082.73
730.30	1091.63
730.64	1088.35
730.97	1089.52
731.30	1088.82
731.63	1094.20
731.97	1091.16
732.30	1080.16
732.63	1084.14
732.96	1078.28
733.30	1070.09
733.63	1067.52
733.96	1082.73
734.29	1070.33
734.63	1074.31
734.96	1076.18
735.29	1077.58
735.62	1084.60
735.95	1098.88
736.29	1100.05
736.62	1100.99
736.95	1103.33
737.28	1091.86
737.61	1090.92
737.94	1087.65
738.28	1086.01
738.61	1077.58
738.94	1085.07
739.27	1085.54
739.60	1086.01
739.93	1087.41
740.27	1095.60
740.60	1096.54
740.93	1097.95
741.26	1100.52
741.59	1094.90
741.92	1094.20
742.25	1087.18
742.58	1087.88
742.91	1080.39
743.25	1075.71
743.58	1078.52
743.91	1076.65
744.24	1067.05
744.57	1066.58
744.90	1067.28
745.23	1057.92
745.56	1064.48
745.89	1067.52
746.22	1078.05
746.55	1095.60
746.88	1094.43
747.21	1084.60
747.54	1091.63
747.87	1082.26
748.20	1067.99
748.53	1071.03
748.87	1080.63
749.20	1067.52
749.53	1071.97
749.86	1077.58
750.19	1078.05
750.52	1067.99
750.85	1070.56
751.18	1065.88
751.51	1064.94
751.84	1060.96
752.16	1065.18
752.49	1078.05
752.82	1086.01
753.15	1085.54
753.48	1094.43
753.81	1093.03
754.14	1092.09
754.47	1093.26
754.80	1093.03
755.13	1090.46
755.46	1086.71
755.79	1082.97
756.12	1079.46
756.45	1084.84
756.78	1076.65
757.11	1082.97
757.43	1090.46
757.76	1091.39
758.09	1092.09
758.42	1091.39
758.75	1093.03
759.08	1084.14
759.41	1073.37
759.74	1064.24
760.07	1071.26
760.39	1074.54
760.72	1081.09
761.05	1086.94
761.38	1086.48
761.71	1095.84
762.04	1086.01
762.36	1079.22
762.69	1080.16
763.02	1082.97
763.35	1068.69
763.68	1068.69
764.01	1065.65
