SpectraSuite Data File
++++++++++++++++++++++++++++++++++++
Date: Mon Aug 26 10:24:44 PDT 2019
User: corrico
Dark Spectrum Present: No
Reference Spectrum Present: No
Number of Sampled Component Spectra: 1
Spectrometers: USB2+H06089
Integration Time (usec): 10000 (USB2+H06089)
Spectra Averaged: 2 (USB2+H06089)
Boxcar Smoothing: 2 (USB2+H06089)
Correct for Electrical Dark: No (USB2+H06089)
Strobe/Lamp Enabled: No (USB2+H06089)
Correct for Detector Non-linearity: No (USB2+H06089)
Correct for Stray Light: No (USB2+H06089)
Number of Pixels in Processed Spectrum: 2048
>>>>>Begin Processed Spectral Data<<<<<
339.70	1009.94
340.07	1009.94
340.45	976.94
340.82	953.07
341.19	936.45
341.57	926.38
341.94	928.49
342.31	914.21
342.69	917.49
343.06	905.79
343.43	896.89
343.81	899.23
344.18	902.28
344.55	898.30
344.93	906.49
345.30	910.94
345.67	921.47
346.04	933.17
346.42	947.92
346.79	968.05
347.16	970.62
347.54	977.88
347.91	981.62
348.28	992.39
348.65	992.15
349.03	1001.28
349.40	1012.28
349.77	1029.37
350.14	1038.96
350.52	1054.88
350.89	1075.24
351.26	1081.33
351.63	1076.65
352.01	1084.60
352.38	1089.52
352.75	1084.60
353.12	1087.88
353.50	1102.39
353.87	1098.65
354.24	1097.24
354.61	1101.22
354.98	1104.73
355.36	1102.16
355.73	1098.18
356.10	1091.63
356.47	1093.97
356.84	1095.84
357.22	1093.97
357.59	1094.67
357.96	1100.99
358.33	1099.12
358.70	1094.67
359.08	1106.84
359.45	1120.41
359.82	1117.14
360.19	1119.01
360.56	1123.69
360.94	1104.73
361.31	1100.75
361.68	1106.84
362.05	1105.20
362.42	1096.31
362.79	1096.78
363.16	1094.67
363.54	1092.09
363.91	1075.94
364.28	1077.11
364.65	1079.46
365.02	1074.77
365.39	1073.60
365.76	1086.01
366.14	1091.63
366.51	1100.99
366.88	1109.88
367.25	1100.52
367.62	1095.37
367.99	1095.14
368.36	1089.75
368.73	1073.14
369.10	1083.43
369.48	1089.75
369.85	1082.73
370.22	1077.58
370.59	1089.75
370.96	1086.94
371.33	1092.33
371.70	1100.75
372.07	1117.37
372.44	1114.10
372.81	1108.71
373.18	1105.20
373.55	1103.33
373.93	1089.52
374.30	1090.92
374.67	1101.46
375.04	1104.03
375.41	1102.39
375.78	1109.41
376.15	1115.03
376.52	1119.01
376.89	1101.69
377.26	1094.67
377.63	1094.90
378.00	1093.97
378.37	1082.97
378.74	1106.84
379.11	1109.65
379.48	1106.84
379.85	1104.97
380.22	1107.31
380.59	1103.09
380.96	1110.35
381.33	1118.78
381.70	1120.18
382.07	1123.46
382.44	1127.44
382.81	1118.54
383.18	1129.31
383.55	1127.20
383.92	1128.14
384.29	1124.39
384.66	1137.73
385.03	1117.84
385.40	1126.03
385.77	1127.90
386.14	1124.86
386.51	1129.07
386.88	1129.07
387.25	1135.16
387.62	1143.35
387.99	1137.50
388.36	1126.50
388.73	1124.86
389.10	1107.31
389.46	1100.99
389.83	1110.12
390.20	1114.56
390.57	1114.33
390.94	1115.27
391.31	1114.10
391.68	1108.95
392.05	1115.27
392.42	1122.99
392.79	1133.52
393.16	1137.73
393.53	1132.12
393.89	1129.07
394.26	1127.44
394.63	1117.37
395.00	1102.39
395.37	1119.24
395.74	1119.01
396.11	1119.95
396.48	1124.16
396.84	1142.65
397.21	1146.39
397.58	1155.99
397.95	1161.84
398.32	1176.59
398.69	1175.89
399.06	1174.01
399.42	1165.35
399.79	1166.52
400.16	1158.80
400.53	1173.78
400.90	1186.18
401.27	1199.52
401.64	1201.16
402.00	1214.27
402.37	1215.44
402.74	1220.82
403.11	1214.27
403.48	1224.57
403.84	1237.21
404.21	1246.80
404.58	1260.14
404.95	1286.83
405.32	1310.47
405.68	1330.36
406.05	1352.60
406.42	1368.75
406.79	1400.81
407.16	1418.13
407.52	1441.54
407.89	1457.45
408.26	1492.09
408.63	1518.77
408.99	1564.65
409.36	1589.46
409.73	1646.33
410.10	1681.67
410.47	1739.49
410.83	1792.38
411.20	1867.05
411.57	1922.98
411.94	1997.18
412.30	2049.37
412.67	2115.14
413.04	2185.36
413.40	2275.94
413.77	2365.81
414.14	2468.09
414.51	2600.10
414.87	2725.09
415.24	2857.79
415.61	2999.63
415.97	3163.47
416.34	3321.45
416.71	3505.89
417.08	3689.62
417.44	3884.59
417.81	4105.53
418.18	4293.48
418.54	4517.47
418.91	4759.01
419.28	5030.98
419.64	5285.63
420.01	5590.37
420.38	5895.58
420.74	6209.21
421.11	6582.29
421.48	6974.33
421.84	7367.30
422.21	7766.83
422.58	8230.73
422.94	8666.77
423.31	9107.02
423.68	9650.96
424.04	10250.84
424.41	10808.83
424.77	11365.41
425.14	12002.50
425.51	12600.98
425.87	13233.39
426.24	13907.93
426.61	14684.05
426.97	15611.37
427.34	16458.65
427.70	17463.91
428.07	18382.80
428.44	19367.00
428.80	20282.85
429.17	21364.64
429.53	22317.94
429.90	23513.72
430.27	24579.37
430.63	25600.78
431.00	26812.47
431.36	28118.03
431.73	29249.44
432.09	30468.16
432.46	31756.15
432.83	32943.04
433.19	34029.28
433.56	35381.64
433.92	36726.05
434.29	38000.70
434.65	39311.64
435.02	40493.37
435.38	41556.91
435.75	42366.27
436.11	43512.43
436.48	44362.51
436.84	45283.75
437.21	46174.32
437.57	47135.58
437.94	47787.65
438.30	48502.22
438.67	49013.39
439.03	49314.15
439.40	49606.72
439.76	49535.10
440.13	49254.94
440.49	49169.04
440.86	48702.80
441.22	48261.14
441.59	47756.99
441.95	47282.10
442.32	46454.02
442.68	45784.39
443.05	44825.71
443.41	43985.22
443.78	42937.13
444.14	41945.21
444.51	40820.82
444.87	39998.35
445.24	38811.93
445.60	37716.33
445.96	36643.43
446.33	35793.34
446.69	34637.12
447.06	33802.02
447.42	32886.17
447.79	31835.97
448.15	30902.09
448.51	30009.41
448.88	29251.31
449.24	28372.21
449.61	27768.58
449.97	27050.51
450.33	26320.03
450.70	25394.11
451.06	24874.98
451.43	24162.52
451.79	23604.54
452.15	23154.45
452.52	22663.41
452.88	22134.91
453.24	21647.61
453.61	21116.31
453.97	20563.95
454.34	19944.88
454.70	19386.42
455.06	18778.59
455.43	18093.51
455.79	17333.54
456.15	16809.49
456.52	16148.76
456.88	15681.59
457.24	15162.69
457.61	14802.72
457.97	14365.04
458.33	13922.91
458.70	13421.10
459.06	12904.08
459.42	12444.16
459.79	11959.20
460.15	11564.35
460.51	11148.21
460.88	10804.15
461.24	10420.77
461.60	10144.35
461.96	9829.55
462.33	9541.43
462.69	9261.27
463.05	8968.70
463.42	8694.39
463.78	8377.71
464.14	8116.28
464.50	7891.35
464.87	7668.06
465.23	7419.97
465.59	7227.57
465.95	7027.93
466.32	6821.26
466.68	6632.84
467.04	6445.84
467.40	6283.87
467.77	6129.86
468.13	5969.54
468.49	5835.42
468.85	5751.40
469.22	5648.41
469.58	5504.00
469.94	5379.72
470.30	5239.76
470.66	5095.35
471.03	4982.06
471.39	4904.36
471.75	4824.55
472.11	4738.18
472.47	4650.18
472.84	4535.72
473.20	4412.14
473.56	4312.67
473.92	4210.86
474.28	4127.07
474.65	4054.04
475.01	3989.21
475.37	3908.69
475.73	3839.88
476.09	3772.48
476.45	3713.96
476.81	3644.21
477.18	3567.91
477.54	3511.27
477.90	3439.42
478.26	3335.73
478.62	3264.58
478.98	3223.62
479.34	3173.77
479.71	3123.91
480.07	3097.46
480.43	3063.29
480.79	3018.59
481.15	2959.14
481.51	2904.60
481.87	2862.71
482.23	2807.24
482.59	2752.00
482.96	2713.15
483.32	2667.27
483.68	2627.95
484.04	2589.10
484.40	2577.63
484.76	2531.99
485.12	2502.97
485.48	2443.52
485.84	2416.14
486.20	2364.18
486.56	2328.83
486.92	2299.81
487.28	2294.90
487.64	2260.26
488.00	2228.19
488.37	2212.98
488.73	2176.00
489.09	2144.40
489.45	2118.18
489.81	2081.20
490.17	2050.54
490.53	2019.41
490.89	1998.12
491.25	1973.31
491.61	1956.22
491.97	1927.90
492.33	1908.24
492.69	1878.75
493.05	1851.13
493.41	1832.87
493.77	1809.00
494.13	1794.72
494.49	1775.76
494.85	1766.87
495.21	1734.57
495.57	1720.29
495.93	1702.04
496.29	1690.10
496.64	1662.25
497.00	1657.33
497.36	1639.55
497.72	1620.82
498.08	1610.76
498.44	1598.82
498.80	1581.73
499.16	1571.44
499.52	1553.88
499.88	1536.56
500.24	1529.54
500.60	1521.11
500.96	1516.20
501.32	1498.88
501.68	1487.18
502.03	1481.09
502.39	1474.07
502.75	1454.88
503.11	1455.58
503.47	1434.51
503.83	1424.68
504.19	1403.15
504.55	1393.32
504.91	1392.62
505.26	1390.28
505.62	1375.30
505.98	1380.68
506.34	1361.96
506.70	1338.08
507.06	1333.87
507.42	1337.85
507.78	1327.55
508.13	1335.74
508.49	1341.36
508.85	1327.79
509.21	1319.83
509.57	1313.98
509.93	1303.68
510.28	1288.93
510.64	1292.68
511.00	1273.02
511.36	1266.70
511.72	1261.55
512.07	1257.80
512.43	1248.21
512.79	1259.44
513.15	1251.25
513.51	1247.51
513.86	1244.70
514.22	1242.59
514.58	1230.19
514.94	1230.89
515.30	1233.46
515.65	1230.89
516.01	1228.08
516.37	1230.65
516.73	1218.25
517.08	1212.40
517.44	1217.31
517.80	1205.84
518.16	1193.21
518.51	1203.50
518.87	1193.21
519.23	1187.82
519.59	1184.31
519.94	1186.18
520.30	1174.01
520.66	1181.97
521.01	1179.16
521.37	1186.65
521.73	1188.06
522.09	1196.01
522.44	1200.46
522.80	1199.52
523.16	1182.91
523.51	1183.61
523.87	1170.74
524.23	1157.39
524.58	1148.27
524.94	1153.65
525.30	1148.03
525.65	1146.63
526.01	1143.59
526.37	1148.27
526.72	1155.99
527.08	1159.50
527.44	1167.93
527.79	1170.74
528.15	1168.40
528.51	1163.71
528.86	1162.08
529.22	1153.18
529.58	1153.42
529.93	1141.25
530.29	1144.99
530.65	1136.33
531.00	1136.10
531.36	1126.97
531.71	1133.29
532.07	1129.54
532.43	1135.16
532.78	1140.54
533.14	1145.69
533.49	1144.29
533.85	1139.61
534.21	1135.16
534.56	1130.71
534.92	1130.01
535.27	1138.20
535.63	1138.20
535.98	1135.39
536.34	1130.48
536.69	1131.18
537.05	1128.14
537.41	1130.24
537.76	1138.90
538.12	1134.69
538.47	1132.35
538.83	1130.48
539.18	1127.90
539.54	1122.99
539.89	1130.01
540.25	1126.97
540.60	1123.69
540.96	1117.37
541.31	1116.67
541.67	1119.71
542.02	1118.78
542.38	1125.56
542.73	1127.20
543.09	1129.31
543.44	1124.16
543.80	1130.71
544.15	1131.41
544.51	1127.90
544.86	1124.16
545.22	1129.54
545.57	1124.63
545.93	1125.56
546.28	1129.78
546.64	1134.22
546.99	1129.07
547.35	1128.14
547.70	1115.50
548.05	1124.16
548.41	1113.16
548.76	1115.03
549.12	1116.44
549.47	1123.69
549.83	1115.27
550.18	1125.80
550.53	1117.84
550.89	1121.12
551.24	1117.14
551.60	1109.41
551.95	1109.41
552.30	1115.50
552.66	1115.03
553.01	1106.37
553.37	1115.97
553.72	1108.48
554.07	1106.61
554.43	1102.39
554.78	1115.03
555.13	1108.24
555.49	1117.37
555.84	1118.78
556.19	1121.12
556.55	1117.14
556.90	1119.95
557.26	1109.41
557.61	1103.09
557.96	1093.73
558.32	1091.63
558.67	1098.41
559.02	1099.82
559.37	1108.71
559.73	1115.03
560.08	1121.35
560.43	1117.37
560.79	1118.78
561.14	1121.35
561.49	1121.12
561.85	1113.86
562.20	1114.80
562.55	1114.33
562.90	1108.71
563.26	1104.26
563.61	1103.80
563.96	1102.39
564.32	1109.18
564.67	1111.05
565.02	1117.61
565.37	1122.75
565.73	1125.56
566.08	1116.90
566.43	1112.22
566.78	1105.67
567.14	1110.35
567.49	1109.65
567.84	1106.37
568.19	1102.39
568.54	1102.86
568.90	1091.63
569.25	1086.94
569.60	1092.33
569.95	1098.18
570.31	1110.35
570.66	1114.80
571.01	1117.37
571.36	1117.84
571.71	1114.33
572.06	1112.69
572.42	1107.78
572.77	1107.07
573.12	1101.69
573.47	1109.41
573.82	1111.52
574.18	1125.80
574.53	1126.73
574.88	1127.90
575.23	1129.07
575.58	1124.39
575.93	1119.01
576.28	1119.01
576.64	1114.09
576.99	1101.46
577.34	1095.84
577.69	1082.26
578.04	1083.67
578.39	1093.97
578.74	1095.60
579.09	1094.90
579.44	1106.37
579.80	1110.35
580.15	1101.92
580.50	1106.84
580.85	1098.65
581.20	1091.86
581.55	1094.43
581.90	1091.39
582.25	1092.56
582.60	1097.95
582.95	1101.92
583.30	1088.12
583.65	1093.03
584.00	1094.90
584.35	1105.90
584.71	1112.69
585.06	1120.65
585.41	1128.84
585.76	1127.67
586.11	1120.88
586.46	1105.20
586.81	1108.24
587.16	1107.54
587.51	1091.39
587.86	1096.54
588.21	1097.48
588.56	1091.39
588.91	1095.60
589.26	1109.88
589.61	1104.26
589.96	1112.92
590.31	1110.35
590.66	1100.52
591.01	1108.24
591.36	1110.35
591.71	1101.22
592.06	1103.33
592.41	1103.09
592.76	1103.09
593.10	1101.46
593.45	1112.22
593.80	1118.78
594.15	1124.16
594.50	1116.44
594.85	1109.18
595.20	1105.44
595.55	1093.26
595.90	1089.52
596.25	1084.14
596.60	1076.88
596.95	1081.80
597.30	1084.37
597.64	1134.46
597.99	1141.71
598.34	1151.31
598.69	1146.16
599.04	1144.99
599.39	1092.33
599.74	1085.31
600.09	1092.56
600.44	1089.52
600.78	1091.63
601.13	1091.86
601.48	1092.09
601.83	1085.77
602.18	1089.52
602.53	1086.24
602.88	1094.67
603.22	1101.46
603.57	1106.61
603.92	1100.52
604.27	1113.16
604.62	1105.44
604.97	1101.69
605.31	1098.65
605.66	1103.09
606.01	1099.82
606.36	1099.82
606.71	1107.78
607.05	1115.03
607.40	1122.52
607.75	1119.48
608.10	1119.95
608.44	1112.22
608.79	1113.63
609.14	1119.95
609.49	1129.54
609.84	1125.80
610.18	1122.75
610.53	1127.90
610.88	1127.90
611.23	1117.37
611.57	1128.14
611.92	1136.10
612.27	1133.29
612.62	1121.35
612.96	1115.50
613.31	1110.58
613.66	1104.97
614.00	1088.82
614.35	1091.39
614.70	1093.97
615.05	1089.29
615.39	1085.31
615.74	1092.56
616.09	1084.84
616.43	1077.82
616.78	1077.82
617.13	1081.80
617.47	1076.18
617.82	1084.37
618.17	1095.14
618.51	1092.09
618.86	1088.12
619.21	1090.69
619.55	1090.46
619.90	1084.60
620.25	1092.56
620.59	1099.82
620.94	1099.82
621.29	1095.37
621.63	1104.03
621.98	1107.07
622.32	1100.99
622.67	1098.65
623.02	1097.24
623.36	1101.69
623.71	1097.48
624.05	1099.12
624.40	1100.52
624.75	1106.37
625.09	1098.65
625.44	1099.82
625.78	1104.73
626.13	1107.31
626.48	1105.20
626.82	1094.43
627.17	1098.88
627.51	1088.58
627.86	1085.54
628.20	1093.50
628.55	1098.65
628.89	1093.50
629.24	1101.22
629.58	1104.26
629.93	1091.16
630.28	1095.37
630.62	1091.63
630.97	1088.82
631.31	1088.58
631.66	1093.97
632.00	1090.69
632.35	1095.60
632.69	1097.71
633.04	1097.01
633.38	1094.20
633.73	1100.52
634.07	1097.71
634.42	1099.58
634.76	1101.92
635.11	1098.65
635.45	1101.92
635.79	1108.95
636.14	1098.41
636.48	1093.97
636.83	1089.99
637.17	1080.16
637.52	1071.73
637.86	1076.65
638.21	1079.22
638.55	1084.37
638.89	1085.31
639.24	1086.01
639.58	1088.58
639.93	1095.60
640.27	1099.35
640.61	1108.01
640.96	1106.14
641.30	1110.58
641.65	1100.52
641.99	1098.41
642.33	1093.97
642.68	1103.33
643.02	1101.46
643.37	1103.09
643.71	1100.29
644.05	1089.75
644.40	1073.60
644.74	1071.26
645.08	1073.84
645.43	1076.18
645.77	1083.90
646.11	1093.73
646.46	1094.20
646.80	1085.31
647.14	1085.77
647.49	1082.26
647.83	1062.37
648.17	1056.52
648.52	1069.16
648.86	1069.16
649.20	1073.84
649.55	1097.01
649.89	1109.88
650.23	1101.46
650.57	1098.65
650.92	1096.31
651.26	1089.29
651.60	1079.46
651.95	1089.05
652.29	1095.84
652.63	1095.84
652.97	1096.31
653.32	1101.46
653.66	1095.60
654.00	1094.43
654.34	1092.33
654.69	1082.73
655.03	1073.84
655.37	1078.05
655.71	1071.97
656.05	1074.77
656.40	1080.63
656.74	1088.82
657.08	1085.07
657.42	1080.16
657.76	1079.46
658.11	1081.33
658.45	1086.48
658.79	1081.33
659.13	1087.88
659.47	1090.22
659.82	1094.67
660.16	1085.77
660.50	1084.60
660.84	1077.11
661.18	1074.07
661.52	1069.86
661.87	1072.90
662.21	1080.16
662.55	1087.18
662.89	1089.52
663.23	1098.88
663.57	1090.69
663.91	1089.29
664.25	1096.31
664.60	1099.12
664.94	1086.01
665.28	1088.12
665.62	1086.48
665.96	1092.80
666.30	1091.16
666.64	1102.63
666.98	1100.99
667.32	1104.50
667.66	1091.39
668.01	1084.37
668.35	1071.73
668.69	1075.01
669.03	1073.84
669.37	1078.52
669.71	1084.14
670.05	1093.03
670.39	1091.16
670.73	1082.97
671.07	1078.28
671.41	1072.43
671.75	1064.71
672.09	1071.73
672.43	1079.69
672.77	1083.67
673.11	1093.73
673.45	1100.05
673.79	1107.07
674.13	1104.97
674.47	1103.09
674.81	1097.71
675.15	1097.48
675.49	1094.67
675.83	1103.09
676.17	1096.31
676.51	1085.54
676.85	1084.60
677.19	1078.52
677.53	1067.75
677.87	1066.58
678.21	1077.82
678.55	1080.86
678.89	1081.80
679.23	1083.67
679.57	1101.92
679.90	1099.58
680.24	1101.69
680.58	1101.92
680.92	1095.37
681.26	1084.14
681.60	1077.82
681.94	1075.94
682.28	1078.05
682.62	1081.09
682.96	1078.28
683.29	1093.26
683.63	1089.75
683.97	1091.39
684.31	1098.88
684.65	1096.07
684.99	1092.09
685.33	1087.65
685.67	1081.80
686.00	1079.69
686.34	1090.92
686.68	1084.37
687.02	1085.54
687.36	1089.75
687.70	1087.41
688.03	1082.73
688.37	1088.35
688.71	1090.92
689.05	1086.94
689.39	1084.37
689.72	1081.56
690.06	1077.35
690.40	1083.67
690.74	1079.22
691.08	1086.71
691.41	1086.48
691.75	1084.14
692.09	1085.54
692.43	1091.39
692.76	1078.28
693.10	1076.41
693.44	1076.65
693.78	1066.11
694.11	1070.80
694.45	1077.58
694.79	1075.24
695.13	1080.63
695.46	1093.73
695.80	1091.16
696.14	1089.75
696.48	1095.60
696.81	1090.46
697.15	1080.39
697.49	1080.16
697.82	1082.97
698.16	1088.12
698.50	1100.29
698.83	1093.26
699.17	1091.63
699.51	1086.01
699.84	1085.31
700.18	1085.31
700.52	1083.20
700.85	1089.29
701.19	1096.54
701.53	1082.97
701.86	1078.52
702.20	1084.14
702.54	1069.16
702.87	1064.01
703.21	1072.90
703.55	1067.99
703.88	1074.31
704.22	1084.14
704.55	1088.12
704.89	1091.63
705.23	1092.33
705.56	1095.84
705.90	1088.82
706.23	1096.07
706.57	1093.26
706.91	1095.84
707.24	1091.86
707.58	1097.48
707.91	1087.41
708.25	1084.37
708.58	1082.97
708.92	1087.65
709.26	1087.41
709.59	1085.54
709.93	1080.16
710.26	1083.67
710.60	1080.16
710.93	1077.82
711.27	1075.01
711.60	1082.03
711.94	1080.63
712.27	1080.86
712.61	1077.82
712.94	1084.14
713.28	1086.71
713.61	1080.39
713.95	1077.58
714.28	1084.37
714.62	1089.52
714.95	1089.75
715.29	1091.86
715.62	1088.35
715.96	1085.77
716.29	1080.86
716.63	1076.65
716.96	1079.22
717.29	1088.58
717.63	1085.54
717.96	1083.43
718.30	1088.82
718.63	1084.14
718.97	1078.05
719.30	1077.58
719.63	1077.82
719.97	1074.54
720.30	1076.41
720.64	1069.86
720.97	1073.37
721.30	1080.39
721.64	1068.92
721.97	1067.05
722.31	1064.01
722.64	1061.67
722.97	1053.71
723.31	1067.75
723.64	1071.03
723.97	1077.58
724.31	1078.28
724.64	1083.43
724.98	1077.11
725.31	1080.86
725.64	1086.48
725.98	1091.39
726.31	1097.95
726.64	1089.75
726.97	1086.01
727.31	1084.84
727.64	1073.60
727.97	1069.62
728.31	1071.73
728.64	1062.14
728.97	1063.54
729.31	1063.07
729.64	1047.16
729.97	1057.45
730.30	1068.45
730.64	1059.33
730.97	1072.67
731.30	1086.01
731.63	1089.52
731.97	1095.60
732.30	1103.33
732.63	1098.41
732.96	1097.48
733.30	1090.69
733.63	1088.12
733.96	1092.56
734.29	1098.88
734.63	1093.73
734.96	1097.71
735.29	1088.12
735.62	1083.20
735.95	1072.20
736.29	1078.05
736.62	1073.14
736.95	1082.50
737.28	1079.46
737.61	1081.33
737.94	1082.97
738.28	1094.67
738.61	1094.90
738.94	1093.50
739.27	1099.35
739.60	1096.54
739.93	1094.20
740.27	1093.03
740.60	1102.63
740.93	1084.60
741.26	1086.71
741.59	1082.50
741.92	1078.05
742.25	1071.26
742.58	1094.67
742.91	1093.03
743.25	1090.22
743.58	1088.12
743.91	1092.80
744.24	1081.80
744.57	1077.58
744.90	1079.69
745.23	1080.86
745.56	1071.50
745.89	1077.82
746.22	1073.60
746.55	1081.33
746.88	1083.20
747.21	1087.88
747.54	1085.54
747.87	1091.39
748.20	1071.26
748.53	1075.48
748.87	1073.37
749.20	1069.16
749.53	1073.14
749.86	1077.82
750.19	1083.43
750.52	1077.35
750.85	1080.39
751.18	1081.09
751.51	1091.39
751.84	1078.28
752.16	1092.09
752.49	1094.90
752.82	1082.50
753.15	1093.73
753.48	1098.41
753.81	1097.95
754.14	1095.14
754.47	1096.07
754.80	1082.03
755.13	1076.18
755.46	1070.09
755.79	1069.86
756.12	1084.84
756.45	1083.90
756.78	1095.60
757.11	1094.90
757.43	1093.50
757.76	1089.29
758.09	1088.12
758.42	1074.31
758.75	1073.84
759.08	1071.97
759.41	1065.41
759.74	1071.97
760.07	1076.41
760.39	1073.37
760.72	1074.31
761.05	1068.45
761.38	1058.86
761.71	1056.75
762.04	1067.05
762.36	1064.71
762.69	1072.67
763.02	1080.16
763.35	1077.35
763.68	1069.16
764.01	1061.20
