SpectraSuite Data File
++++++++++++++++++++++++++++++++++++
Date: Mon Aug 26 10:24:41 PDT 2019
User: corrico
Dark Spectrum Present: No
Reference Spectrum Present: No
Number of Sampled Component Spectra: 1
Spectrometers: USB2+H06089
Integration Time (usec): 10000 (USB2+H06089)
Spectra Averaged: 2 (USB2+H06089)
Boxcar Smoothing: 2 (USB2+H06089)
Correct for Electrical Dark: No (USB2+H06089)
Strobe/Lamp Enabled: No (USB2+H06089)
Correct for Detector Non-linearity: No (USB2+H06089)
Correct for Stray Light: No (USB2+H06089)
Number of Pixels in Processed Spectrum: 2048
>>>>>Begin Processed Spectral Data<<<<<
339.70	1019.30
340.07	1019.30
340.45	994.26
340.82	979.75
341.19	960.09
341.57	941.83
341.94	927.79
342.31	910.47
342.69	902.74
343.06	891.51
343.43	889.17
343.81	888.70
344.18	905.32
344.55	911.40
344.93	919.60
345.30	919.83
345.67	922.17
346.04	930.36
346.42	935.28
346.79	952.60
347.16	961.02
347.54	966.41
347.91	973.19
348.28	982.79
348.65	989.34
349.03	999.64
349.40	1018.37
349.77	1030.30
350.14	1040.37
350.52	1049.73
350.89	1052.54
351.26	1049.73
351.63	1056.99
352.01	1057.92
352.38	1062.37
352.75	1076.41
353.12	1086.48
353.50	1086.71
353.87	1085.77
354.24	1075.94
354.61	1068.22
354.98	1073.60
355.36	1072.90
355.73	1083.90
356.10	1089.99
356.47	1093.73
356.84	1089.99
357.22	1096.54
357.59	1102.86
357.96	1121.35
358.33	1127.90
358.70	1134.69
359.08	1132.59
359.45	1123.93
359.82	1120.41
360.19	1116.90
360.56	1111.29
360.94	1111.52
361.31	1109.88
361.68	1104.26
362.05	1106.61
362.42	1109.18
362.79	1100.99
363.16	1091.16
363.54	1088.82
363.91	1097.48
364.28	1090.46
364.65	1090.69
365.02	1102.39
365.39	1104.03
365.76	1091.86
366.14	1100.29
366.51	1103.33
366.88	1097.01
367.25	1105.90
367.62	1101.92
367.99	1100.52
368.36	1100.99
368.73	1098.41
369.10	1088.82
369.48	1096.78
369.85	1101.46
370.22	1100.52
370.59	1108.01
370.96	1100.99
371.33	1097.95
371.70	1100.99
372.07	1109.65
372.44	1104.73
372.81	1107.54
373.18	1115.03
373.55	1110.35
373.93	1097.71
374.30	1108.71
374.67	1108.24
375.04	1099.58
375.41	1097.71
375.78	1095.14
376.15	1095.84
376.52	1092.56
376.89	1091.16
377.26	1094.90
377.63	1103.33
378.00	1101.92
378.37	1106.14
378.74	1111.05
379.11	1104.50
379.48	1111.29
379.85	1102.16
380.22	1097.24
380.59	1095.60
380.96	1102.86
381.33	1096.78
381.70	1099.82
382.07	1111.99
382.44	1115.50
382.81	1115.73
383.18	1124.63
383.55	1125.10
383.92	1116.90
384.29	1106.14
384.66	1091.86
385.03	1092.56
385.40	1097.24
385.77	1104.26
386.14	1109.18
386.51	1115.73
386.88	1098.18
387.25	1100.05
387.62	1109.88
387.99	1122.75
388.36	1130.48
388.73	1152.48
389.10	1149.91
389.46	1143.35
389.83	1140.31
390.20	1137.03
390.57	1125.80
390.94	1120.65
391.31	1117.84
391.68	1113.63
392.05	1119.71
392.42	1122.05
392.79	1125.80
393.16	1130.71
393.53	1140.07
393.89	1129.54
394.26	1139.84
394.63	1152.01
395.00	1138.90
395.37	1134.93
395.74	1147.56
396.11	1141.01
396.48	1136.80
396.84	1148.73
397.21	1148.97
397.58	1151.78
397.95	1156.22
398.32	1161.14
398.69	1164.18
399.06	1176.59
399.42	1173.54
399.79	1177.99
400.16	1179.63
400.53	1179.63
400.90	1183.84
401.27	1194.38
401.64	1192.50
402.00	1199.52
402.37	1218.01
402.74	1223.40
403.11	1238.38
403.48	1248.91
403.84	1263.19
404.21	1270.91
404.58	1284.95
404.95	1289.64
405.32	1321.00
405.68	1330.36
406.05	1349.32
406.42	1372.72
406.79	1403.15
407.16	1420.47
407.52	1460.96
407.89	1490.92
408.26	1530.71
408.63	1563.24
408.99	1606.31
409.36	1639.55
409.73	1684.25
410.10	1718.42
410.47	1764.30
410.83	1823.28
411.20	1872.66
411.57	1924.39
411.94	1986.18
412.30	2053.12
412.67	2122.63
413.04	2221.64
413.40	2335.39
413.77	2452.88
414.14	2581.84
414.51	2708.70
414.87	2845.62
415.24	2988.86
415.61	3130.47
415.97	3275.11
416.34	3452.76
416.71	3630.40
417.08	3832.63
417.44	4008.87
417.81	4255.56
418.18	4466.91
418.54	4699.80
418.91	4953.74
419.28	5270.42
419.64	5532.79
420.01	5844.08
420.38	6187.44
420.74	6531.97
421.11	6905.52
421.48	7313.94
421.84	7740.15
422.21	8172.45
422.58	8646.41
422.94	9114.98
423.31	9617.96
423.68	10206.84
424.04	10816.55
424.41	11430.71
424.77	12086.29
425.14	12721.51
425.51	13344.56
425.87	14066.15
426.24	14781.89
426.61	15630.57
426.97	16658.06
427.34	17649.04
427.70	18661.33
428.07	19685.54
428.44	20729.89
428.80	21697.47
429.17	22689.62
429.53	23704.24
429.90	24880.60
430.27	25964.50
430.63	27088.42
431.00	28394.44
431.36	29789.87
431.73	31006.25
432.09	32294.48
432.46	33504.07
432.83	34761.64
433.19	35913.65
433.56	37429.61
433.92	39037.33
434.29	40597.76
434.65	42035.09
435.02	43424.90
435.38	44646.89
435.75	45389.07
436.11	46659.75
436.48	47774.78
436.84	48865.00
437.21	49800.05
437.57	50871.54
437.94	51453.17
438.30	52018.17
438.67	52235.14
439.03	52291.08
439.40	52424.49
439.76	52241.46
440.13	52003.89
440.49	52014.90
440.86	51699.16
441.22	51314.61
441.59	50797.82
441.95	50239.37
442.32	49266.87
442.68	48604.27
443.05	47595.96
443.41	46722.71
443.78	45580.06
444.14	44577.84
444.51	43302.72
444.87	42348.48
445.24	41054.40
445.60	39918.07
445.96	38780.10
446.33	37937.74
446.69	36800.01
447.06	35981.52
447.42	35029.63
447.79	33949.94
448.15	32840.06
448.51	31848.14
448.88	30969.73
449.24	30001.92
449.61	29397.13
449.97	28704.56
450.33	27953.49
450.70	27074.15
451.06	26496.27
451.43	25711.49
451.79	25072.52
452.15	24566.26
452.52	24062.58
452.88	23425.02
453.24	22888.10
453.61	22294.77
453.97	21647.15
454.34	21003.50
454.70	20522.99
455.06	19939.49
455.43	19281.80
455.79	18570.04
456.15	18030.32
456.52	17339.39
456.88	16780.00
457.24	16181.29
457.61	15723.95
457.97	15173.46
458.33	14635.84
458.70	14084.17
459.06	13561.53
459.42	13100.21
459.79	12603.32
460.15	12230.24
460.51	11809.17
460.88	11447.09
461.24	11027.90
461.60	10671.20
461.96	10306.08
462.33	9969.04
462.69	9651.90
463.05	9378.53
463.42	9116.85
463.78	8845.82
464.14	8594.92
464.50	8343.07
464.87	8059.63
465.23	7814.11
465.59	7574.91
465.95	7375.50
466.32	7170.00
466.68	6999.61
467.04	6804.87
467.40	6631.44
467.77	6428.75
468.13	6252.04
468.49	6081.88
468.85	5940.51
469.22	5796.34
469.58	5685.40
469.94	5573.05
470.30	5462.58
470.66	5362.87
471.03	5245.61
471.39	5134.20
471.75	5013.19
472.11	4901.78
472.47	4788.03
472.84	4703.31
473.20	4593.54
473.56	4502.02
473.92	4403.48
474.28	4318.05
474.65	4215.30
475.01	4145.32
475.37	4086.58
475.73	4019.64
476.09	3921.57
476.45	3847.37
476.81	3752.35
477.18	3644.92
477.54	3566.74
477.90	3507.29
478.26	3424.20
478.62	3377.16
478.98	3338.54
479.34	3282.13
479.71	3246.56
480.07	3226.66
480.43	3192.72
480.79	3126.25
481.15	3086.46
481.51	3021.16
481.87	2965.69
482.23	2906.95
482.59	2859.20
482.96	2822.22
483.32	2795.30
483.68	2757.85
484.04	2730.70
484.40	2705.19
484.76	2643.40
485.12	2608.76
485.48	2568.97
485.84	2508.12
486.20	2469.27
486.56	2443.75
486.92	2386.41
487.28	2354.81
487.64	2320.17
488.00	2283.19
488.37	2248.32
488.73	2233.81
489.09	2172.25
489.45	2159.61
489.81	2129.19
490.17	2088.93
490.53	2056.39
490.89	2055.46
491.25	2023.16
491.61	2011.46
491.97	2000.46
492.33	1977.99
492.69	1946.16
493.05	1922.05
493.41	1876.41
493.77	1854.64
494.13	1831.94
494.49	1818.36
494.85	1794.72
495.21	1788.17
495.57	1759.61
495.93	1745.57
496.29	1721.93
496.64	1699.93
497.00	1680.97
497.36	1663.18
497.72	1636.03
498.08	1625.97
498.44	1618.48
498.80	1599.05
499.16	1589.22
499.52	1576.58
499.88	1558.33
500.24	1541.24
500.60	1532.82
500.96	1520.41
501.32	1505.67
501.68	1495.37
502.03	1478.98
502.39	1467.28
502.75	1456.98
503.11	1443.41
503.47	1432.41
503.83	1434.28
504.19	1420.94
504.55	1416.49
504.91	1413.92
505.26	1400.11
505.62	1390.04
505.98	1365.94
506.34	1350.49
506.70	1345.81
507.06	1331.06
507.42	1316.32
507.78	1319.36
508.13	1313.04
508.49	1302.51
508.85	1301.81
509.21	1299.23
509.57	1312.10
509.93	1302.27
510.28	1291.51
510.64	1296.19
511.00	1301.57
511.36	1277.46
511.72	1271.61
512.07	1275.36
512.43	1271.85
512.79	1249.85
513.15	1260.61
513.51	1263.19
513.86	1267.17
514.22	1261.31
514.58	1253.36
514.94	1248.21
515.30	1245.63
515.65	1232.76
516.01	1230.42
516.37	1233.23
516.73	1225.97
517.08	1219.89
517.44	1214.04
517.80	1211.23
518.16	1216.84
518.51	1214.50
518.87	1207.95
519.23	1210.53
519.59	1207.72
519.94	1203.04
520.30	1200.46
520.66	1213.33
521.01	1206.31
521.37	1209.82
521.73	1201.63
522.09	1199.29
522.44	1182.20
522.80	1182.20
523.16	1166.52
523.51	1175.42
523.87	1170.74
524.23	1171.20
524.58	1165.12
524.94	1173.78
525.30	1176.59
525.65	1179.86
526.01	1174.25
526.37	1167.69
526.72	1155.52
527.08	1145.69
527.44	1142.88
527.79	1131.18
528.15	1136.80
528.51	1138.90
528.86	1136.80
529.22	1138.90
529.58	1148.50
529.93	1147.56
530.29	1147.33
530.65	1144.99
531.00	1134.69
531.36	1128.37
531.71	1130.48
532.07	1126.03
532.43	1122.99
532.78	1132.59
533.14	1135.86
533.49	1134.93
533.85	1143.35
534.21	1145.93
534.56	1141.25
534.92	1148.97
535.27	1150.84
535.63	1141.25
535.98	1135.63
536.34	1141.25
536.69	1155.05
537.05	1155.29
537.41	1163.25
537.76	1168.63
538.12	1159.50
538.47	1141.95
538.83	1135.86
539.18	1133.05
539.54	1132.35
539.89	1135.86
540.25	1139.61
540.60	1132.82
540.96	1138.90
541.31	1137.50
541.67	1129.54
542.02	1134.22
542.38	1139.14
542.73	1131.41
543.09	1130.24
543.44	1135.39
543.80	1128.37
544.15	1135.63
544.51	1132.35
544.86	1138.67
545.22	1137.03
545.57	1136.80
545.93	1130.01
546.28	1130.71
546.64	1129.07
546.99	1125.10
547.35	1122.52
547.70	1122.29
548.05	1133.52
548.41	1121.82
548.76	1122.29
549.12	1114.56
549.47	1122.05
549.83	1115.50
550.18	1117.84
550.53	1127.44
550.89	1130.95
551.24	1122.05
551.60	1113.16
551.95	1122.52
552.30	1120.18
552.66	1130.48
553.01	1131.88
553.37	1137.73
553.72	1131.41
554.07	1121.58
554.43	1118.07
554.78	1113.39
555.13	1111.05
555.49	1107.07
555.84	1113.63
556.19	1107.31
556.55	1104.03
556.90	1094.67
557.26	1097.71
557.61	1093.97
557.96	1099.35
558.32	1114.33
558.67	1124.86
559.02	1122.05
559.37	1123.46
559.73	1124.39
560.08	1112.69
560.43	1108.01
560.79	1106.37
561.14	1113.63
561.49	1100.75
561.85	1102.39
562.20	1103.80
562.55	1100.99
562.90	1097.01
563.26	1103.56
563.61	1105.67
563.96	1106.14
564.32	1117.14
564.67	1120.18
565.02	1125.56
565.37	1119.24
565.73	1117.14
566.08	1119.71
566.43	1110.58
566.78	1104.73
567.14	1104.50
567.49	1110.82
567.84	1104.73
568.19	1108.01
568.54	1105.44
568.90	1116.44
569.25	1114.56
569.60	1122.75
569.95	1122.52
570.31	1133.52
570.66	1126.27
571.01	1124.63
571.36	1119.95
571.71	1114.10
572.06	1101.69
572.42	1106.14
572.77	1101.46
573.12	1100.75
573.47	1107.07
573.82	1109.65
574.18	1107.31
574.53	1109.41
574.88	1103.33
575.23	1098.18
575.58	1101.92
575.93	1099.35
576.28	1102.86
576.64	1113.63
576.99	1121.35
577.34	1117.37
577.69	1130.95
578.04	1131.41
578.39	1121.12
578.74	1113.63
579.09	1113.16
579.44	1102.86
579.80	1098.18
580.15	1096.78
580.50	1100.29
580.85	1108.71
581.20	1100.52
581.55	1098.88
581.90	1102.16
582.25	1095.60
582.60	1087.65
582.95	1092.56
583.30	1101.46
583.65	1106.14
584.00	1113.39
584.35	1122.05
584.71	1116.44
585.06	1102.39
585.41	1098.88
585.76	1098.18
586.11	1088.12
586.46	1093.03
586.81	1099.35
587.16	1091.39
587.51	1089.75
587.86	1094.67
588.21	1094.20
588.56	1097.95
588.91	1101.46
589.26	1097.24
589.61	1097.24
589.96	1098.65
590.31	1096.78
590.66	1098.18
591.01	1106.61
591.36	1102.39
591.71	1107.07
592.06	1102.16
592.41	1097.95
592.76	1097.48
593.10	1097.95
593.45	1091.86
593.80	1096.54
594.15	1092.33
594.50	1088.58
594.85	1087.88
595.20	1090.69
595.55	1088.82
595.90	1100.05
596.25	1100.52
596.60	1106.84
596.95	1106.84
597.30	1109.65
597.64	1145.69
597.99	1147.56
598.34	1142.42
598.69	1138.67
599.04	1136.80
599.39	1098.88
599.74	1097.24
600.09	1105.90
600.44	1111.99
600.78	1107.31
601.13	1108.01
601.48	1100.52
601.83	1093.26
602.18	1092.09
602.53	1103.56
602.88	1101.22
603.22	1116.20
603.57	1115.27
603.92	1114.80
604.27	1104.97
604.62	1106.84
604.97	1105.67
605.31	1100.75
605.66	1102.63
606.01	1107.31
606.36	1102.63
606.71	1092.09
607.05	1097.95
607.40	1088.58
607.75	1092.09
608.10	1096.78
608.44	1098.41
608.79	1102.86
609.14	1114.33
609.49	1119.71
609.84	1118.54
610.18	1121.82
610.53	1111.99
610.88	1109.18
611.23	1100.52
611.57	1101.22
611.92	1102.39
612.27	1110.35
612.62	1103.33
612.96	1097.71
613.31	1099.12
613.66	1099.58
614.00	1096.78
614.35	1104.26
614.70	1107.31
615.05	1100.29
615.39	1097.71
615.74	1100.75
616.09	1095.14
616.43	1108.95
616.78	1115.50
617.13	1109.88
617.47	1105.67
617.82	1108.01
618.17	1096.31
618.51	1087.18
618.86	1097.24
619.21	1105.20
619.55	1107.07
619.90	1108.01
620.25	1110.58
620.59	1108.24
620.94	1107.31
621.29	1110.35
621.63	1109.65
621.98	1116.67
622.32	1108.71
622.67	1101.22
623.02	1098.41
623.36	1109.88
623.71	1107.07
624.05	1111.99
624.40	1115.27
624.75	1106.61
625.09	1092.80
625.44	1082.97
625.78	1076.41
626.13	1078.05
626.48	1086.48
626.82	1083.90
627.17	1096.78
627.51	1105.90
627.86	1099.58
628.20	1108.95
628.55	1107.78
628.89	1116.44
629.24	1114.80
629.58	1108.01
629.93	1091.86
630.28	1098.88
630.62	1081.56
630.97	1084.37
631.31	1087.18
631.66	1083.67
632.00	1084.14
632.35	1090.69
632.69	1083.90
633.04	1100.52
633.38	1106.61
633.73	1103.80
634.07	1098.65
634.42	1098.65
634.76	1092.56
635.11	1098.41
635.45	1095.60
635.79	1098.65
636.14	1093.97
636.48	1086.01
636.83	1082.03
637.17	1088.12
637.52	1095.37
637.86	1110.58
638.21	1107.07
638.55	1108.24
638.89	1098.41
639.24	1100.52
639.58	1089.52
639.93	1100.05
640.27	1103.80
640.61	1115.03
640.96	1114.56
641.30	1116.90
641.65	1119.71
641.99	1111.52
642.33	1109.88
642.68	1101.46
643.02	1105.44
643.37	1105.20
643.71	1111.52
644.05	1109.65
644.40	1108.95
644.74	1101.22
645.08	1103.33
645.43	1103.33
645.77	1103.56
646.11	1103.56
646.46	1112.69
646.80	1100.29
647.14	1099.12
647.49	1097.71
647.83	1092.09
648.17	1092.80
648.52	1091.39
648.86	1091.39
649.20	1091.16
649.55	1100.75
649.89	1093.97
650.23	1100.05
650.57	1097.48
650.92	1100.05
651.26	1104.03
651.60	1102.39
651.95	1098.65
652.29	1097.01
652.63	1095.84
652.97	1081.56
653.32	1082.03
653.66	1083.43
654.00	1076.88
654.34	1078.75
654.69	1082.03
655.03	1078.52
655.37	1074.77
655.71	1083.43
656.05	1081.56
656.40	1093.50
656.74	1096.54
657.08	1104.73
657.42	1106.14
657.76	1101.22
658.11	1097.71
658.45	1102.86
658.79	1103.09
659.13	1114.56
659.47	1124.63
659.82	1123.69
660.16	1109.88
660.50	1103.09
660.84	1096.54
661.18	1095.60
661.52	1097.71
661.87	1101.69
662.21	1106.14
662.55	1095.37
662.89	1085.54
663.23	1071.73
663.57	1071.97
663.91	1066.82
664.25	1071.97
664.60	1074.07
664.94	1079.22
665.28	1086.71
665.62	1097.01
665.96	1094.90
666.30	1103.09
666.64	1100.52
666.98	1101.92
667.32	1089.75
667.66	1085.54
668.01	1081.80
668.35	1085.77
668.69	1082.73
669.03	1090.46
669.37	1091.86
669.71	1079.22
670.05	1084.37
670.39	1091.86
670.73	1089.75
671.07	1094.67
671.41	1105.44
671.75	1093.26
672.09	1088.58
672.43	1093.26
672.77	1094.43
673.11	1100.75
673.45	1104.97
673.79	1102.86
674.13	1097.71
674.47	1101.92
674.81	1094.90
675.15	1095.37
675.49	1096.07
675.83	1104.03
676.17	1086.24
676.51	1078.05
676.85	1092.80
677.19	1093.03
677.53	1081.09
677.87	1088.35
678.21	1091.16
678.55	1083.90
678.89	1091.39
679.23	1091.86
679.57	1088.35
679.90	1085.07
680.24	1086.24
680.58	1078.28
680.92	1081.80
681.26	1089.75
681.60	1103.56
681.94	1097.48
682.28	1104.26
682.62	1094.43
682.96	1087.88
683.29	1085.77
683.63	1089.05
683.97	1079.92
684.31	1089.05
684.65	1100.29
684.99	1089.99
685.33	1088.82
685.67	1086.71
686.00	1097.48
686.34	1090.22
686.68	1099.12
687.02	1092.33
687.36	1102.39
687.70	1089.29
688.03	1082.97
688.37	1082.73
688.71	1082.73
689.05	1079.46
689.39	1080.63
689.72	1086.01
690.06	1084.84
690.40	1088.12
690.74	1097.95
691.08	1099.82
691.41	1097.95
691.75	1101.46
692.09	1101.46
692.43	1090.46
692.76	1080.16
693.10	1084.60
693.44	1079.22
693.78	1081.80
694.11	1089.75
694.45	1101.22
694.79	1108.95
695.13	1116.44
695.46	1120.41
695.80	1112.69
696.14	1104.26
696.48	1093.97
696.81	1089.05
697.15	1080.39
697.49	1073.14
697.82	1088.82
698.16	1086.01
698.50	1081.56
698.83	1076.88
699.17	1081.80
699.51	1075.01
699.84	1080.16
700.18	1093.97
700.52	1100.52
700.85	1104.26
701.19	1101.92
701.53	1104.03
701.86	1098.18
702.20	1093.50
702.54	1088.58
702.87	1088.12
703.21	1078.75
703.55	1074.07
703.88	1081.56
704.22	1086.71
704.55	1084.60
704.89	1094.43
705.23	1091.16
705.56	1092.09
705.90	1080.39
706.23	1085.07
706.57	1080.16
706.91	1069.16
707.24	1067.52
707.58	1085.77
707.91	1085.07
708.25	1089.05
708.58	1103.33
708.92	1104.50
709.26	1087.65
709.59	1081.56
709.93	1070.56
710.26	1069.62
710.60	1061.90
710.93	1068.22
711.27	1065.41
711.60	1072.67
711.94	1074.54
712.27	1079.92
712.61	1078.05
712.94	1078.28
713.28	1074.54
713.61	1072.20
713.95	1070.80
714.28	1075.24
714.62	1071.97
714.95	1073.60
715.29	1070.09
715.62	1078.75
715.96	1066.82
716.29	1080.63
716.63	1080.63
716.96	1081.09
717.29	1069.62
717.63	1069.86
717.96	1066.35
718.30	1069.62
718.63	1077.82
718.97	1079.69
719.30	1090.69
719.63	1086.48
719.97	1086.71
720.30	1079.69
720.64	1078.99
720.97	1071.97
721.30	1077.82
721.64	1076.41
721.97	1078.52
722.31	1082.97
722.64	1084.14
722.97	1087.18
723.31	1084.84
723.64	1077.58
723.97	1081.33
724.31	1094.67
724.64	1097.48
724.98	1100.29
725.31	1111.99
725.64	1095.84
725.98	1098.41
726.31	1093.26
726.64	1088.82
726.97	1081.09
727.31	1096.07
727.64	1085.07
727.97	1085.77
728.31	1092.80
728.64	1101.22
728.97	1104.03
729.31	1105.90
729.64	1097.95
729.97	1099.82
730.30	1090.92
730.64	1086.48
730.97	1078.05
731.30	1080.39
731.63	1074.77
731.97	1080.86
732.30	1077.11
732.63	1076.18
732.96	1079.92
733.30	1074.54
733.63	1075.48
733.96	1068.92
734.29	1070.80
734.63	1069.62
734.96	1068.92
735.29	1069.16
735.62	1079.46
735.95	1088.58
736.29	1084.60
736.62	1086.71
736.95	1076.88
737.28	1073.37
737.61	1070.56
737.94	1073.60
738.28	1080.86
738.61	1088.12
738.94	1083.20
739.27	1091.39
739.60	1089.75
739.93	1089.52
740.27	1094.43
740.60	1107.78
740.93	1100.05
741.26	1092.09
741.59	1084.37
741.92	1080.63
742.25	1080.86
742.58	1067.52
742.91	1082.26
743.25	1087.88
743.58	1085.31
743.91	1064.48
744.24	1063.07
744.57	1060.03
744.90	1053.01
745.23	1050.90
745.56	1057.69
745.89	1074.54
746.22	1077.82
746.55	1077.82
746.88	1081.09
747.21	1095.37
747.54	1092.56
747.87	1093.97
748.20	1102.16
748.53	1101.22
748.87	1090.46
749.20	1082.26
749.53	1086.24
749.86	1082.03
750.19	1078.28
750.52	1083.67
750.85	1094.90
751.18	1090.46
751.51	1094.43
751.84	1093.03
752.16	1076.65
752.49	1055.58
752.82	1060.03
753.15	1058.62
753.48	1067.75
753.81	1075.94
754.14	1087.65
754.47	1079.92
754.80	1075.48
755.13	1069.86
755.46	1081.09
755.79	1078.99
756.12	1082.73
756.45	1091.16
756.78	1090.22
757.11	1077.35
757.43	1088.12
757.76	1084.84
758.09	1080.39
758.42	1082.03
758.75	1082.73
759.08	1075.71
759.41	1074.31
759.74	1068.22
760.07	1070.09
760.39	1078.75
760.72	1086.71
761.05	1086.01
761.38	1097.48
761.71	1103.33
762.04	1099.58
762.36	1099.12
762.69	1094.67
763.02	1082.26
763.35	1071.50
763.68	1067.52
764.01	1064.48
