SpectraSuite Data File
++++++++++++++++++++++++++++++++++++
Date: Mon Aug 26 10:24:40 PDT 2019
User: corrico
Dark Spectrum Present: No
Reference Spectrum Present: No
Number of Sampled Component Spectra: 1
Spectrometers: USB2+H06089
Integration Time (usec): 10000 (USB2+H06089)
Spectra Averaged: 2 (USB2+H06089)
Boxcar Smoothing: 2 (USB2+H06089)
Correct for Electrical Dark: No (USB2+H06089)
Strobe/Lamp Enabled: No (USB2+H06089)
Correct for Detector Non-linearity: No (USB2+H06089)
Correct for Stray Light: No (USB2+H06089)
Number of Pixels in Processed Spectrum: 2048
>>>>>Begin Processed Spectral Data<<<<<
339.70	1015.79
340.07	1015.79
340.45	983.73
340.82	966.64
341.19	940.66
341.57	915.15
341.94	895.96
342.31	893.62
342.69	888.94
343.06	893.38
343.43	905.55
343.81	911.87
344.18	919.13
344.55	921.70
344.93	934.34
345.30	927.32
345.67	933.41
346.04	936.92
346.42	944.87
346.79	945.34
347.16	958.92
347.54	956.58
347.91	970.15
348.28	981.62
348.65	985.37
349.03	992.39
349.40	1010.41
349.77	1016.03
350.14	1028.67
350.52	1043.41
350.89	1041.07
351.26	1046.45
351.63	1052.07
352.01	1051.60
352.38	1051.37
352.75	1072.43
353.12	1079.46
353.50	1083.20
353.87	1090.46
354.24	1097.71
354.61	1097.24
354.98	1106.84
355.36	1108.24
355.73	1111.05
356.10	1111.29
356.47	1114.80
356.84	1112.22
357.22	1120.41
357.59	1113.39
357.96	1120.65
358.33	1110.82
358.70	1108.48
359.08	1108.01
359.45	1112.69
359.82	1097.71
360.19	1104.97
360.56	1095.60
360.94	1093.97
361.31	1080.16
361.68	1084.60
362.05	1085.77
362.42	1089.75
362.79	1095.60
363.16	1114.80
363.54	1120.88
363.91	1119.01
364.28	1108.95
364.65	1103.33
365.02	1097.95
365.39	1096.31
365.76	1089.99
366.14	1101.22
366.51	1102.63
366.88	1103.80
367.25	1100.52
367.62	1108.71
367.99	1110.12
368.36	1094.43
368.73	1090.69
369.10	1088.35
369.48	1084.37
369.85	1079.92
370.22	1098.88
370.59	1094.20
370.96	1096.07
371.33	1107.31
371.70	1112.92
372.07	1106.37
372.44	1108.01
372.81	1114.10
373.18	1101.92
373.55	1097.95
373.93	1099.58
374.30	1109.88
374.67	1103.33
375.04	1101.69
375.41	1098.18
375.78	1095.14
376.15	1089.99
376.52	1100.99
376.89	1109.65
377.26	1116.44
377.63	1116.67
378.00	1106.61
378.37	1100.05
378.74	1098.18
379.11	1101.46
379.48	1094.67
379.85	1101.22
380.22	1105.67
380.59	1107.07
380.96	1108.01
381.33	1127.44
381.70	1135.16
382.07	1133.29
382.44	1130.95
382.81	1122.05
383.18	1103.09
383.55	1091.86
383.92	1094.67
384.29	1099.58
384.66	1100.52
385.03	1109.41
385.40	1116.90
385.77	1118.31
386.14	1102.63
386.51	1107.07
386.88	1115.27
387.25	1111.52
387.62	1104.97
387.99	1135.63
388.36	1137.97
388.73	1125.80
389.10	1128.37
389.46	1127.44
389.83	1100.75
390.20	1099.58
390.57	1108.24
390.94	1111.52
391.31	1115.03
391.68	1126.97
392.05	1130.95
392.42	1130.71
392.79	1128.61
393.16	1144.99
393.53	1143.12
393.89	1145.22
394.26	1148.27
394.63	1155.29
395.00	1138.20
395.37	1152.95
395.74	1153.42
396.11	1152.48
396.48	1157.16
396.84	1165.35
397.21	1152.95
397.58	1155.05
397.95	1165.35
398.32	1162.78
398.69	1166.05
399.06	1170.50
399.42	1178.69
399.79	1177.99
400.16	1181.97
400.53	1180.57
400.90	1185.48
401.27	1193.21
401.64	1201.63
402.00	1221.99
402.37	1238.85
402.74	1247.97
403.11	1255.23
403.48	1256.63
403.84	1253.82
404.21	1272.78
404.58	1292.91
404.95	1302.27
405.32	1321.93
405.68	1341.13
406.05	1353.53
406.42	1370.38
406.79	1403.85
407.16	1438.26
407.52	1473.37
407.89	1499.58
408.26	1535.16
408.63	1553.65
408.99	1581.97
409.36	1619.42
409.73	1674.65
410.10	1726.15
410.47	1794.02
410.83	1851.60
411.20	1919.24
411.57	1983.60
411.94	2044.22
412.30	2115.14
412.67	2207.36
413.04	2292.32
413.40	2387.81
413.77	2501.33
414.14	2599.16
414.51	2720.17
414.87	2853.11
415.24	2997.52
415.61	3149.66
415.97	3319.11
416.34	3509.17
416.71	3685.88
417.08	3898.86
417.44	4121.45
417.81	4365.57
418.18	4602.43
418.54	4851.46
418.91	5095.11
419.28	5373.64
419.64	5634.14
420.01	5929.75
420.38	6289.25
420.74	6645.01
421.11	7028.63
421.48	7477.08
421.84	7938.39
422.21	8360.16
422.58	8880.69
422.94	9366.82
423.31	9875.42
423.68	10413.75
424.04	11060.20
424.41	11628.02
424.77	12287.81
425.14	12932.16
425.51	13607.17
425.87	14332.97
426.24	15091.07
426.61	15928.75
426.97	16939.86
427.34	17882.16
427.70	18918.32
428.07	19996.60
428.44	21073.25
428.80	22097.47
429.17	23187.45
429.53	24203.25
429.90	25429.22
430.27	26586.61
430.63	27758.75
431.00	29125.16
431.36	30562.95
431.73	31816.54
432.09	33039.94
432.46	34264.51
432.83	35505.22
433.19	36687.43
433.56	38156.35
433.92	39801.75
434.29	41348.84
434.65	42844.68
435.02	44231.68
435.38	45496.27
435.75	46372.80
436.11	47650.73
436.48	48711.93
436.84	49775.70
437.21	50708.88
437.57	51716.24
437.94	52343.27
438.30	52868.25
438.67	53139.99
439.03	53194.53
439.40	53229.63
439.76	53131.57
440.13	52923.49
440.49	52922.32
440.86	52584.35
441.22	52287.33
441.59	51688.39
441.95	51122.92
442.32	50155.34
442.68	49459.50
443.05	48453.07
443.41	47469.11
443.78	46373.50
444.14	45493.69
444.51	44225.83
444.87	43320.51
445.24	42113.03
445.60	41003.38
445.96	39747.91
446.33	38890.11
446.69	37666.24
447.06	36826.93
447.42	35775.09
447.79	34657.25
448.15	33604.71
448.51	32616.30
448.88	31688.98
449.24	30674.83
449.61	30068.16
449.97	29202.86
450.33	28403.34
450.70	27591.41
451.06	27010.48
451.43	26122.49
451.79	25560.52
452.15	25058.01
452.52	24438.24
452.88	23902.49
453.24	23491.49
453.61	22865.16
453.97	22196.94
454.34	21628.66
454.70	21060.84
455.06	20396.60
455.43	19756.70
455.79	19031.83
456.15	18408.31
456.52	17733.07
456.88	17164.08
457.24	16553.91
457.61	16121.14
457.97	15599.90
458.33	15040.05
458.70	14477.62
459.06	13958.72
459.42	13491.32
459.79	12950.89
460.15	12527.48
460.51	12092.61
460.88	11690.98
461.24	11224.74
461.60	10856.57
461.96	10505.26
462.33	10177.59
462.69	9836.80
463.05	9547.28
463.42	9330.78
463.78	9054.83
464.14	8784.97
464.50	8566.13
464.87	8265.13
465.23	7961.10
465.59	7689.60
465.95	7454.84
466.32	7218.91
466.68	7045.71
467.04	6851.68
467.40	6684.57
467.77	6503.18
468.13	6333.02
468.49	6189.31
468.85	6042.33
469.22	5912.19
469.58	5780.89
469.94	5689.84
470.30	5553.86
470.66	5447.36
471.03	5318.87
471.39	5231.10
471.75	5103.07
472.11	4982.06
472.47	4872.76
472.84	4789.91
473.20	4665.62
473.56	4570.13
473.92	4481.66
474.28	4403.72
474.65	4313.61
475.01	4235.43
475.37	4143.45
475.73	4068.55
476.09	3977.74
476.45	3880.61
476.81	3806.88
477.18	3733.39
477.54	3660.36
477.90	3591.79
478.26	3517.83
478.62	3454.86
478.98	3379.73
479.34	3337.60
479.71	3290.33
480.07	3265.28
480.43	3216.36
480.79	3161.13
481.15	3094.19
481.51	3049.72
481.87	2989.57
482.23	2933.16
482.59	2901.80
482.96	2857.56
483.32	2805.60
483.68	2786.88
484.04	2752.47
484.40	2723.21
484.76	2698.40
485.12	2664.47
485.48	2603.85
485.84	2543.93
486.20	2486.59
486.56	2437.20
486.92	2410.28
487.28	2384.54
487.64	2370.26
488.00	2334.45
488.37	2307.77
488.73	2258.38
489.09	2210.40
489.45	2172.02
489.81	2154.23
490.17	2116.55
490.53	2093.84
490.89	2083.08
491.25	2062.95
491.61	2039.78
491.97	2032.05
492.33	2016.61
492.69	1978.92
493.05	1960.90
493.41	1934.92
493.77	1895.83
494.13	1870.56
494.49	1857.22
494.85	1826.32
495.21	1805.49
495.57	1798.94
495.93	1767.10
496.29	1744.40
496.64	1721.46
497.00	1687.76
497.36	1663.65
497.72	1640.72
498.08	1629.25
498.44	1624.33
498.80	1632.29
499.16	1614.74
499.52	1594.61
499.88	1581.03
500.24	1558.33
500.60	1538.90
500.96	1522.52
501.32	1533.75
501.68	1508.24
502.03	1500.99
502.39	1486.71
502.75	1477.58
503.11	1453.00
503.47	1443.64
503.83	1438.49
504.19	1425.39
504.55	1405.02
504.91	1401.75
505.26	1397.30
505.62	1381.38
505.98	1372.26
506.34	1375.06
506.70	1357.28
507.06	1359.38
507.42	1351.89
507.78	1346.74
508.13	1340.66
508.49	1343.94
508.85	1350.26
509.21	1339.72
509.57	1331.76
509.93	1313.98
510.28	1301.34
510.64	1269.27
511.00	1264.83
511.36	1259.68
511.72	1252.65
512.07	1251.48
512.43	1254.29
512.79	1245.16
513.15	1237.68
513.51	1234.63
513.86	1241.42
514.22	1235.57
514.58	1231.36
514.94	1228.55
515.30	1227.85
515.65	1217.08
516.01	1212.16
516.37	1220.59
516.73	1222.23
517.08	1223.63
517.44	1224.57
517.80	1232.76
518.16	1228.55
518.51	1223.40
518.87	1229.95
519.23	1212.40
519.59	1198.12
519.94	1202.33
520.30	1202.10
520.66	1196.01
521.01	1194.84
521.37	1196.48
521.73	1187.12
522.09	1183.84
522.44	1174.25
522.80	1182.20
523.16	1180.57
523.51	1177.29
523.87	1183.61
524.23	1184.08
524.58	1183.61
524.94	1179.63
525.30	1181.27
525.65	1172.84
526.01	1174.71
526.37	1166.05
526.72	1168.16
527.08	1175.42
527.44	1181.74
527.79	1183.14
528.15	1182.20
528.51	1187.82
528.86	1176.59
529.22	1171.20
529.58	1165.59
529.93	1173.31
530.29	1163.48
530.65	1159.74
531.00	1145.69
531.36	1151.54
531.71	1143.82
532.07	1135.63
532.43	1136.56
532.78	1139.14
533.14	1127.20
533.49	1122.52
533.85	1129.31
534.21	1130.71
534.56	1134.22
534.92	1142.18
535.27	1147.56
535.63	1151.78
535.98	1149.44
536.34	1153.18
536.69	1141.01
537.05	1139.14
537.41	1137.73
537.76	1137.50
538.12	1130.48
538.47	1144.52
538.83	1144.29
539.18	1137.73
539.54	1133.05
539.89	1143.82
540.25	1141.48
540.60	1144.52
540.96	1144.29
541.31	1153.42
541.67	1151.78
542.02	1151.31
542.38	1143.35
542.73	1136.80
543.09	1137.27
543.44	1137.97
543.80	1130.71
544.15	1132.82
544.51	1149.67
544.86	1145.22
545.22	1135.16
545.57	1143.12
545.93	1145.93
546.28	1134.69
546.64	1126.97
546.99	1129.07
547.35	1125.80
547.70	1119.24
548.05	1121.58
548.41	1134.93
548.76	1140.54
549.12	1136.10
549.47	1137.97
549.83	1134.46
550.18	1118.78
550.53	1112.69
550.89	1109.65
551.24	1115.50
551.60	1130.24
551.95	1144.52
552.30	1144.76
552.66	1146.39
553.01	1147.56
553.37	1133.05
553.72	1124.16
554.07	1123.46
554.43	1115.27
554.78	1115.97
555.13	1107.78
555.49	1104.73
555.84	1109.18
556.19	1108.48
556.55	1100.52
556.90	1110.12
557.26	1111.05
557.61	1104.26
557.96	1121.82
558.32	1126.73
558.67	1124.63
559.02	1131.88
559.37	1133.99
559.73	1119.71
560.08	1108.95
560.43	1110.58
560.79	1109.18
561.14	1100.52
561.49	1106.61
561.85	1116.67
562.20	1105.44
562.55	1094.90
562.90	1099.58
563.26	1103.33
563.61	1101.46
563.96	1115.97
564.32	1117.37
564.67	1120.88
565.02	1121.58
565.37	1118.54
565.73	1118.54
566.08	1123.46
566.43	1127.90
566.78	1124.86
567.14	1124.16
567.49	1114.80
567.84	1102.39
568.19	1099.12
568.54	1088.35
568.90	1088.82
569.25	1091.63
569.60	1103.80
569.95	1103.33
570.31	1114.56
570.66	1109.88
571.01	1115.73
571.36	1121.12
571.71	1122.29
572.06	1123.93
572.42	1133.05
572.77	1130.48
573.12	1128.61
573.47	1128.84
573.82	1128.61
574.18	1119.24
574.53	1108.71
574.88	1104.26
575.23	1097.24
575.58	1093.26
575.93	1097.71
576.28	1104.73
576.64	1099.12
576.99	1103.56
577.34	1101.46
577.69	1103.80
578.04	1100.75
578.39	1106.61
578.74	1106.84
579.09	1111.75
579.44	1111.75
579.80	1099.58
580.15	1100.05
580.50	1100.52
580.85	1106.84
581.20	1104.73
581.55	1123.46
581.90	1122.05
582.25	1119.71
582.60	1110.58
582.95	1104.97
583.30	1092.80
583.65	1088.58
584.00	1089.05
584.35	1084.14
584.71	1092.33
585.06	1092.56
585.41	1086.94
585.76	1081.56
586.11	1089.99
586.46	1086.24
586.81	1093.97
587.16	1105.67
587.51	1108.24
587.86	1104.97
588.21	1103.33
588.56	1099.58
588.91	1093.50
589.26	1100.52
589.61	1095.60
589.96	1090.92
590.31	1086.24
590.66	1100.05
591.01	1097.48
591.36	1097.95
591.71	1108.48
592.06	1118.78
592.41	1107.54
592.76	1098.65
593.10	1093.97
593.45	1080.39
593.80	1074.31
594.15	1078.28
594.50	1080.39
594.85	1077.35
595.20	1088.35
595.55	1091.86
595.90	1091.86
596.25	1097.71
596.60	1106.61
596.95	1107.78
597.30	1103.09
597.64	1148.03
597.99	1153.18
598.34	1155.76
598.69	1152.95
599.04	1159.97
599.39	1119.95
599.74	1118.54
600.09	1119.71
600.44	1116.20
600.78	1119.95
601.13	1111.75
601.48	1104.73
601.83	1104.03
602.18	1103.56
602.53	1088.12
602.88	1089.29
603.22	1086.71
603.57	1080.16
603.92	1090.92
604.27	1099.35
604.62	1092.80
604.97	1089.52
605.31	1092.33
605.66	1081.80
606.01	1093.26
606.36	1107.07
606.71	1116.44
607.05	1119.95
607.40	1122.99
607.75	1108.95
608.10	1099.82
608.44	1093.50
608.79	1090.22
609.14	1090.92
609.49	1088.58
609.84	1086.01
610.18	1083.20
610.53	1089.75
610.88	1086.01
611.23	1095.14
611.57	1098.65
611.92	1114.33
612.27	1107.54
612.62	1120.65
612.96	1124.39
613.31	1118.07
613.66	1100.99
614.00	1094.43
614.35	1085.54
614.70	1083.43
615.05	1086.71
615.39	1093.03
615.74	1100.75
616.09	1095.37
616.43	1080.63
616.78	1082.73
617.13	1087.18
617.47	1092.33
617.82	1099.58
618.17	1112.69
618.51	1112.69
618.86	1099.58
619.21	1086.48
619.55	1084.60
619.90	1075.48
620.25	1064.71
620.59	1070.80
620.94	1075.01
621.29	1080.63
621.63	1092.56
621.98	1102.16
622.32	1105.67
622.67	1106.37
623.02	1105.90
623.36	1098.41
623.71	1103.33
624.05	1097.24
624.40	1102.16
624.75	1103.09
625.09	1109.41
625.44	1098.41
625.78	1099.58
626.13	1097.01
626.48	1094.67
626.82	1090.69
627.17	1099.58
627.51	1102.39
627.86	1095.60
628.20	1081.56
628.55	1078.28
628.89	1075.71
629.24	1086.71
629.58	1087.18
629.93	1094.67
630.28	1098.18
630.62	1098.65
630.97	1090.92
631.31	1096.07
631.66	1095.60
632.00	1094.67
632.35	1088.12
632.69	1082.26
633.04	1086.71
633.38	1091.39
633.73	1091.39
634.07	1095.60
634.42	1099.35
634.76	1094.67
635.11	1092.56
635.45	1090.22
635.79	1091.63
636.14	1094.43
636.48	1093.97
636.83	1090.92
637.17	1096.31
637.52	1098.41
637.86	1098.41
638.21	1095.37
638.55	1100.52
638.89	1095.60
639.24	1097.95
639.58	1088.82
639.93	1089.75
640.27	1088.12
640.61	1087.65
640.96	1081.56
641.30	1084.84
641.65	1083.20
641.99	1081.80
642.33	1086.48
642.68	1091.16
643.02	1095.60
643.37	1092.09
643.71	1089.29
644.05	1083.90
644.40	1076.65
644.74	1070.09
645.08	1073.84
645.43	1074.31
645.77	1079.92
646.11	1093.03
646.46	1103.80
646.80	1108.48
647.14	1108.01
647.49	1107.78
647.83	1098.41
648.17	1093.73
648.52	1091.86
648.86	1094.67
649.20	1087.88
649.55	1098.88
649.89	1100.99
650.23	1099.35
650.57	1099.82
650.92	1097.24
651.26	1086.24
651.60	1081.09
651.95	1086.94
652.29	1083.90
652.63	1082.50
652.97	1077.11
653.32	1086.71
653.66	1081.56
654.00	1087.18
654.34	1091.86
654.69	1097.71
655.03	1087.18
655.37	1092.56
655.71	1089.29
656.05	1081.56
656.40	1088.35
656.74	1087.41
657.08	1086.01
657.42	1083.67
657.76	1087.88
658.11	1081.80
658.45	1092.80
658.79	1079.69
659.13	1077.82
659.47	1075.71
659.82	1076.41
660.16	1058.39
660.50	1067.52
660.84	1067.52
661.18	1071.26
661.52	1072.90
661.87	1083.43
662.21	1089.99
662.55	1091.63
662.89	1088.58
663.23	1093.97
663.57	1094.90
663.91	1097.95
664.25	1105.90
664.60	1109.41
664.94	1089.99
665.28	1098.88
665.62	1088.12
665.96	1080.86
666.30	1085.07
666.64	1101.69
666.98	1088.35
667.32	1086.71
667.66	1089.52
668.01	1090.46
668.35	1080.86
668.69	1085.54
669.03	1084.84
669.37	1081.33
669.71	1083.43
670.05	1094.67
670.39	1093.97
670.73	1099.82
671.07	1099.35
671.41	1099.12
671.75	1093.03
672.09	1092.80
672.43	1092.09
672.77	1094.43
673.11	1101.46
673.45	1088.58
673.79	1088.58
674.13	1091.16
674.47	1097.95
674.81	1092.80
675.15	1102.16
675.49	1102.86
675.83	1101.46
676.17	1094.90
676.51	1090.69
676.85	1088.58
677.19	1082.03
677.53	1091.63
677.87	1084.84
678.21	1084.14
678.55	1086.94
678.89	1104.73
679.23	1085.77
679.57	1086.01
679.90	1090.22
680.24	1090.46
680.58	1076.65
680.92	1089.99
681.26	1097.71
681.60	1088.35
681.94	1078.75
682.28	1077.35
682.62	1070.33
682.96	1072.90
683.29	1075.01
683.63	1083.90
683.97	1081.33
684.31	1081.80
684.65	1079.46
684.99	1075.71
685.33	1078.52
685.67	1086.48
686.00	1096.54
686.34	1091.86
686.68	1093.73
687.02	1090.22
687.36	1086.94
687.70	1080.63
688.03	1083.20
688.37	1089.99
688.71	1102.86
689.05	1106.14
689.39	1100.52
689.72	1099.58
690.06	1100.99
690.40	1098.18
690.74	1086.94
691.08	1093.50
691.41	1090.22
691.75	1090.92
692.09	1090.46
692.43	1091.16
692.76	1084.60
693.10	1079.22
693.44	1071.26
693.78	1066.58
694.11	1072.90
694.45	1070.33
694.79	1079.92
695.13	1076.41
695.46	1072.20
695.80	1074.54
696.14	1079.22
696.48	1082.03
696.81	1090.69
697.15	1085.31
697.49	1085.31
697.82	1094.20
698.16	1088.12
698.50	1086.71
698.83	1086.01
699.17	1085.31
699.51	1069.62
699.84	1065.65
700.18	1065.65
700.52	1079.92
700.85	1085.31
701.19	1102.63
701.53	1097.95
701.86	1099.82
702.20	1092.80
702.54	1091.86
702.87	1088.12
703.21	1100.05
703.55	1095.37
703.88	1088.82
704.22	1086.48
704.55	1082.26
704.89	1076.41
705.23	1080.63
705.56	1088.35
705.90	1098.88
706.23	1093.73
706.57	1100.05
706.91	1099.82
707.24	1107.78
707.58	1097.01
707.91	1100.05
708.25	1092.33
708.58	1088.82
708.92	1078.05
709.26	1079.69
709.59	1079.69
709.93	1087.88
710.26	1088.82
710.60	1079.46
710.93	1071.03
711.27	1073.14
711.60	1070.09
711.94	1071.03
712.27	1078.75
712.61	1075.01
712.94	1073.14
713.28	1070.09
713.61	1063.77
713.95	1068.92
714.28	1082.50
714.62	1084.37
714.95	1092.09
715.29	1096.54
715.62	1095.14
715.96	1076.41
716.29	1075.48
716.63	1080.16
716.96	1076.18
717.29	1075.01
717.63	1092.80
717.96	1095.60
718.30	1096.07
718.63	1103.80
718.97	1102.63
719.30	1098.65
719.63	1092.56
719.97	1092.09
720.30	1089.29
720.64	1090.22
720.97	1093.03
721.30	1093.97
721.64	1086.24
721.97	1084.14
722.31	1091.39
722.64	1076.65
722.97	1078.52
723.31	1089.99
723.64	1091.39
723.97	1080.86
724.31	1098.65
724.64	1102.63
724.98	1088.58
725.31	1084.84
725.64	1088.82
725.98	1078.75
726.31	1071.97
726.64	1080.39
726.97	1085.77
727.31	1085.07
727.64	1090.69
727.97	1093.03
728.31	1085.77
728.64	1072.67
728.97	1063.31
729.31	1063.31
729.64	1066.11
729.97	1071.50
730.30	1083.90
730.64	1089.52
730.97	1081.80
731.30	1087.41
731.63	1083.90
731.97	1087.88
732.30	1087.18
732.63	1087.88
732.96	1077.35
733.30	1073.60
733.63	1066.58
733.96	1077.58
734.29	1086.01
734.63	1077.58
734.96	1085.07
735.29	1089.29
735.62	1091.39
735.95	1094.20
736.29	1096.54
736.62	1095.14
736.95	1097.01
737.28	1085.54
737.61	1077.58
737.94	1090.92
738.28	1090.46
738.61	1091.86
738.94	1092.56
739.27	1097.24
739.60	1095.84
739.93	1095.14
740.27	1088.12
740.60	1088.35
740.93	1094.20
741.26	1087.18
741.59	1077.35
741.92	1084.37
742.25	1086.94
742.58	1074.77
742.91	1073.60
743.25	1086.01
743.58	1083.20
743.91	1075.01
744.24	1075.24
744.57	1076.88
744.90	1069.16
745.23	1063.77
745.56	1067.28
745.89	1074.07
746.22	1072.90
746.55	1081.09
746.88	1086.24
747.21	1090.69
747.54	1080.86
747.87	1085.77
748.20	1070.80
748.53	1064.48
748.87	1062.84
749.20	1070.56
749.53	1065.18
749.86	1067.05
750.19	1070.56
750.52	1060.03
750.85	1056.99
751.18	1059.56
751.51	1071.26
751.84	1072.20
752.16	1088.58
752.49	1087.41
752.82	1081.33
753.15	1086.24
753.48	1085.31
753.81	1072.20
754.14	1074.07
754.47	1089.29
754.80	1079.92
755.13	1081.09
755.46	1091.16
755.79	1094.20
756.12	1089.29
756.45	1095.14
756.78	1100.05
757.11	1097.95
757.43	1094.90
757.76	1091.16
758.09	1092.80
758.42	1084.37
758.75	1082.97
759.08	1083.43
759.41	1082.26
759.74	1081.33
760.07	1081.09
760.39	1076.88
760.72	1072.67
761.05	1069.86
761.38	1055.35
761.71	1045.75
762.04	1044.82
762.36	1045.75
762.69	1051.13
763.02	1065.88
763.35	1087.18
763.68	1090.92
764.01	1087.88
