SpectraSuite Data File
++++++++++++++++++++++++++++++++++++
Date: Mon Aug 26 10:24:43 PDT 2019
User: corrico
Dark Spectrum Present: No
Reference Spectrum Present: No
Number of Sampled Component Spectra: 1
Spectrometers: USB2+H06089
Integration Time (usec): 10000 (USB2+H06089)
Spectra Averaged: 2 (USB2+H06089)
Boxcar Smoothing: 2 (USB2+H06089)
Correct for Electrical Dark: No (USB2+H06089)
Strobe/Lamp Enabled: No (USB2+H06089)
Correct for Detector Non-linearity: No (USB2+H06089)
Correct for Stray Light: No (USB2+H06089)
Number of Pixels in Processed Spectrum: 2048
>>>>>Begin Processed Spectral Data<<<<<
339.70	1053.24
340.07	1053.24
340.45	995.90
340.82	965.00
341.19	931.07
341.57	890.34
341.94	877.70
342.31	874.89
342.69	873.96
343.06	880.04
343.43	884.72
343.81	885.89
344.18	896.66
344.55	909.77
344.93	914.92
345.30	914.92
345.67	926.62
346.04	931.30
346.42	929.19
346.79	933.41
347.16	964.07
347.54	965.94
347.91	974.37
348.28	983.49
348.65	988.64
349.03	990.05
349.40	1006.66
349.77	1019.77
350.14	1028.90
350.52	1049.03
350.89	1058.39
351.26	1070.33
351.63	1074.31
352.01	1086.24
352.38	1095.84
352.75	1095.14
353.12	1084.37
353.50	1093.03
353.87	1093.50
354.24	1096.31
354.61	1105.90
354.98	1119.48
355.36	1119.24
355.73	1110.82
356.10	1100.29
356.47	1087.41
356.84	1077.35
357.22	1085.31
357.59	1088.58
357.96	1097.24
358.33	1100.05
358.70	1112.69
359.08	1100.52
359.45	1103.33
359.82	1090.92
360.19	1092.56
360.56	1077.82
360.94	1074.54
361.31	1082.50
361.68	1089.29
362.05	1099.12
362.42	1104.03
362.79	1112.22
363.16	1102.16
363.54	1093.50
363.91	1082.97
364.28	1078.75
364.65	1071.26
365.02	1077.58
365.39	1082.03
365.76	1085.77
366.14	1098.18
366.51	1106.84
366.88	1111.75
367.25	1112.92
367.62	1110.82
367.99	1101.46
368.36	1092.56
368.73	1081.09
369.10	1079.46
369.48	1074.54
369.85	1084.37
370.22	1085.54
370.59	1090.69
370.96	1087.65
371.33	1102.63
371.70	1103.33
372.07	1098.41
372.44	1094.90
372.81	1089.99
373.18	1082.26
373.55	1081.56
373.93	1087.18
374.30	1089.99
374.67	1106.14
375.04	1104.50
375.41	1089.99
375.78	1093.03
376.15	1097.24
376.52	1099.12
376.89	1094.43
377.26	1106.37
377.63	1112.22
378.00	1108.48
378.37	1104.50
378.74	1115.97
379.11	1115.97
379.48	1109.18
379.85	1111.29
380.22	1110.35
380.59	1118.54
380.96	1116.44
381.33	1115.50
381.70	1119.01
382.07	1114.33
382.44	1099.58
382.81	1102.16
383.18	1100.29
383.55	1091.16
383.92	1096.54
384.29	1108.95
384.66	1112.69
385.03	1113.39
385.40	1114.10
385.77	1111.75
386.14	1096.31
386.51	1100.05
386.88	1110.58
387.25	1121.58
387.62	1122.52
387.99	1127.67
388.36	1113.16
388.73	1109.65
389.10	1104.26
389.46	1111.99
389.83	1111.75
390.20	1124.86
390.57	1134.46
390.94	1135.86
391.31	1138.67
391.68	1143.59
392.05	1139.61
392.42	1125.33
392.79	1137.97
393.16	1122.05
393.53	1125.33
393.89	1127.20
394.26	1138.44
394.63	1127.67
395.00	1148.03
395.37	1144.76
395.74	1143.59
396.11	1147.33
396.48	1151.08
396.84	1146.39
397.21	1150.84
397.58	1159.27
397.95	1163.95
398.32	1164.42
398.69	1157.86
399.06	1152.95
399.42	1154.35
399.79	1152.25
400.16	1157.86
400.53	1172.14
400.90	1191.57
401.27	1203.50
401.64	1210.99
402.00	1211.23
402.37	1214.97
402.74	1215.44
403.11	1231.82
403.48	1241.89
403.84	1258.74
404.21	1272.78
404.58	1298.76
404.95	1302.98
405.32	1314.21
405.68	1324.51
406.05	1339.96
406.42	1353.30
406.79	1373.19
407.16	1405.26
407.52	1447.86
407.89	1486.01
408.26	1521.82
408.63	1572.84
408.99	1612.86
409.36	1649.84
409.73	1703.91
410.10	1755.87
410.47	1794.25
410.83	1851.83
411.20	1918.54
411.57	1970.03
411.94	2032.52
412.30	2098.52
412.67	2178.34
413.04	2255.81
413.40	2359.49
413.77	2474.88
414.14	2614.61
414.51	2726.02
414.87	2851.24
415.24	2976.46
415.61	3113.61
415.97	3251.47
416.34	3437.08
416.71	3646.09
417.08	3855.56
417.44	4052.40
417.81	4278.50
418.18	4522.15
418.54	4761.59
418.91	5018.81
419.28	5305.06
419.64	5589.67
420.01	5914.53
420.38	6239.40
420.74	6580.42
421.11	6973.39
421.48	7361.45
421.84	7752.32
422.21	8184.15
422.58	8644.53
422.94	9129.73
423.31	9661.03
423.68	10250.14
424.04	10835.04
424.41	11474.48
424.77	12128.42
425.14	12832.92
425.51	13483.36
425.87	14273.76
426.24	15019.45
426.61	15843.09
426.97	16775.32
427.34	17685.56
427.70	18639.56
428.07	19611.11
428.44	20610.76
428.80	21577.16
429.17	22643.28
429.53	23742.16
429.90	25033.20
430.27	26223.36
430.63	27356.65
431.00	28609.77
431.36	29905.26
431.73	31087.70
432.09	32373.35
432.46	33666.50
432.83	35026.82
433.19	36289.77
433.56	37741.37
433.92	39200.70
434.29	40652.53
434.65	41962.53
435.02	43229.69
435.38	44373.51
435.75	45206.98
436.11	46474.61
436.48	47581.92
436.84	48607.78
437.21	49591.97
437.57	50608.94
437.94	51236.20
438.30	51810.10
438.67	52239.59
439.03	52436.89
439.40	52646.37
439.76	52411.85
440.13	52155.33
440.49	52096.81
440.86	51778.74
441.22	51461.59
441.59	51105.13
441.95	50646.62
442.32	49721.17
442.68	48988.11
443.05	47977.94
443.41	47015.28
443.78	45911.48
444.14	44899.43
444.51	43549.41
444.87	42587.22
445.24	41343.93
445.60	40210.17
445.96	39132.35
446.33	38316.91
446.69	37188.77
447.06	36362.56
447.42	35384.69
447.79	34204.35
448.15	33176.16
448.51	32136.96
448.88	31232.34
449.24	30269.21
449.61	29633.99
449.97	28869.34
450.33	28181.92
450.70	27300.94
451.06	26711.36
451.43	25976.20
451.79	25417.52
452.15	24872.17
452.52	24375.04
452.88	23792.48
453.24	23251.58
453.61	22611.45
453.97	21990.50
454.34	21332.11
454.70	20774.36
455.06	20152.48
455.43	19450.09
455.79	18659.69
456.15	18068.23
456.52	17376.61
456.88	16790.07
457.24	16237.70
457.61	15785.98
457.97	15263.57
458.33	14757.31
458.70	14239.35
459.06	13669.20
459.42	13217.24
459.79	12690.85
460.15	12245.45
460.51	11784.60
460.88	11420.88
461.24	10978.05
461.60	10664.42
461.96	10289.93
462.33	9998.77
462.69	9704.10
463.05	9411.29
463.42	9131.13
463.78	8910.19
464.14	8645.00
464.50	8413.52
464.87	8184.39
465.23	7918.73
465.59	7688.43
465.95	7463.27
466.32	7239.75
466.68	7016.69
467.04	6839.05
467.40	6631.91
467.77	6468.77
468.13	6284.57
468.49	6122.14
468.85	5978.20
469.22	5859.30
469.58	5716.52
469.94	5607.69
470.30	5497.68
470.66	5363.81
471.03	5228.05
471.39	5145.67
471.75	5032.85
472.11	4932.44
472.47	4853.10
472.84	4765.56
473.20	4634.49
473.56	4538.77
473.92	4426.42
474.28	4321.57
474.65	4239.88
475.01	4174.58
475.37	4080.49
475.73	4013.32
476.09	3948.48
476.45	3853.22
476.81	3763.58
477.18	3685.41
477.54	3604.19
477.90	3517.36
478.26	3434.27
478.62	3374.12
478.98	3336.20
479.34	3297.58
479.71	3247.49
480.07	3221.51
480.43	3166.98
480.79	3108.70
481.15	3031.93
481.51	2991.91
481.87	2942.29
482.23	2903.90
482.59	2851.01
482.96	2813.79
483.32	2780.32
483.68	2736.09
484.04	2695.36
484.40	2662.59
484.76	2634.98
485.12	2593.31
485.48	2549.08
485.84	2500.39
486.20	2455.69
486.56	2402.56
486.92	2359.26
487.28	2334.22
487.64	2313.39
488.00	2282.02
488.37	2263.30
488.73	2230.76
489.09	2198.93
489.45	2168.27
489.81	2144.40
490.17	2111.40
490.53	2102.50
490.89	2068.33
491.25	2041.18
491.61	2013.09
491.97	1987.58
492.33	1940.77
492.69	1911.28
493.05	1884.13
493.41	1855.11
493.77	1836.62
494.13	1822.81
494.49	1809.00
494.85	1787.00
495.21	1770.38
495.57	1750.49
495.93	1732.46
496.29	1713.74
496.64	1686.36
497.00	1659.67
497.36	1636.03
497.72	1620.35
498.08	1604.91
498.44	1603.74
498.80	1594.14
499.16	1582.44
499.52	1566.52
499.88	1560.20
500.24	1541.71
500.60	1532.35
500.96	1526.26
501.32	1502.86
501.68	1475.24
502.03	1464.71
502.39	1454.41
502.75	1433.81
503.11	1433.34
503.47	1433.58
503.83	1427.73
504.19	1423.51
504.55	1418.60
504.91	1403.15
505.26	1389.81
505.62	1374.83
505.98	1346.74
506.34	1334.34
506.70	1340.89
507.06	1331.76
507.42	1329.19
507.78	1335.04
508.13	1341.36
508.49	1335.04
508.85	1326.85
509.21	1316.08
509.57	1316.08
509.93	1307.89
510.28	1296.19
510.64	1297.59
511.00	1292.44
511.36	1280.51
511.72	1272.78
512.07	1268.10
512.43	1269.27
512.79	1266.70
513.15	1261.08
513.51	1247.97
513.86	1248.91
514.22	1239.55
514.58	1235.80
514.94	1238.85
515.30	1241.42
515.65	1227.61
516.01	1220.12
516.37	1216.84
516.73	1217.08
517.08	1215.91
517.44	1224.10
517.80	1229.25
518.16	1236.27
518.51	1230.42
518.87	1221.99
519.23	1201.87
519.59	1191.33
519.94	1181.27
520.30	1172.61
520.66	1174.48
521.01	1181.97
521.37	1189.93
521.73	1193.91
522.09	1207.25
522.44	1213.33
522.80	1208.65
523.16	1203.04
523.51	1196.95
523.87	1185.72
524.23	1177.29
524.58	1163.25
524.94	1167.93
525.30	1173.31
525.65	1181.03
526.01	1185.25
526.37	1194.14
526.72	1179.63
527.08	1174.71
527.44	1166.52
527.79	1156.46
528.15	1162.54
528.51	1161.37
528.86	1159.50
529.22	1154.35
529.58	1151.31
529.93	1144.29
530.29	1142.18
530.65	1132.12
531.00	1119.71
531.36	1123.69
531.71	1128.14
532.07	1134.22
532.43	1135.39
532.78	1151.78
533.14	1152.95
533.49	1144.05
533.85	1138.90
534.21	1135.16
534.56	1123.22
534.92	1128.61
535.27	1137.27
535.63	1143.82
535.98	1150.37
536.34	1160.91
536.69	1140.31
537.05	1141.95
537.41	1139.37
537.76	1134.93
538.12	1131.65
538.47	1144.05
538.83	1127.67
539.18	1131.41
539.54	1134.93
539.89	1131.65
540.25	1129.31
540.60	1140.07
540.96	1137.03
541.31	1137.27
541.67	1130.24
542.02	1130.48
542.38	1133.05
542.73	1129.54
543.09	1129.31
543.44	1133.05
543.80	1129.78
544.15	1126.27
544.51	1130.24
544.86	1127.20
545.22	1130.95
545.57	1126.03
545.93	1129.54
546.28	1119.71
546.64	1121.82
546.99	1118.31
547.35	1117.84
547.70	1121.12
548.05	1132.12
548.41	1126.27
548.76	1126.50
549.12	1136.10
549.47	1123.22
549.83	1118.78
550.18	1125.10
550.53	1130.01
550.89	1122.29
551.24	1122.05
551.60	1119.95
551.95	1104.50
552.30	1096.78
552.66	1098.88
553.01	1100.75
553.37	1097.71
553.72	1109.18
554.07	1105.67
554.43	1105.67
554.78	1112.22
555.13	1119.48
555.49	1118.07
555.84	1128.84
556.19	1127.67
556.55	1124.16
556.90	1116.67
557.26	1125.56
557.61	1118.07
557.96	1116.67
558.32	1110.82
558.67	1114.10
559.02	1102.39
559.37	1111.75
559.73	1117.84
560.08	1116.44
560.43	1120.65
560.79	1122.99
561.14	1123.69
561.49	1117.37
561.85	1121.35
562.20	1123.69
562.55	1132.35
562.90	1136.80
563.26	1144.05
563.61	1149.20
563.96	1133.99
564.32	1130.95
564.67	1111.52
565.02	1116.20
565.37	1106.37
565.73	1109.88
566.08	1104.26
566.43	1102.39
566.78	1092.56
567.14	1097.48
567.49	1098.88
567.84	1097.95
568.19	1107.07
568.54	1109.65
568.90	1109.88
569.25	1101.46
569.60	1097.71
569.95	1104.26
570.31	1106.61
570.66	1111.52
571.01	1131.88
571.36	1138.90
571.71	1132.12
572.06	1125.33
572.42	1121.12
572.77	1119.95
573.12	1109.41
573.47	1111.05
573.82	1103.80
574.18	1113.16
574.53	1108.01
574.88	1113.39
575.23	1115.73
575.58	1126.03
575.93	1117.37
576.28	1104.97
576.64	1104.03
576.99	1092.80
577.34	1094.67
577.69	1095.60
578.04	1108.95
578.39	1115.03
578.74	1124.86
579.09	1122.75
579.44	1122.05
579.80	1110.35
580.15	1102.86
580.50	1095.60
580.85	1097.48
581.20	1096.07
581.55	1099.35
581.90	1097.48
582.25	1102.86
582.60	1104.97
582.95	1099.82
583.30	1113.86
583.65	1115.03
584.00	1114.10
584.35	1112.92
584.71	1119.71
585.06	1110.58
585.41	1108.71
585.76	1110.35
586.11	1111.99
586.46	1111.05
586.81	1109.65
587.16	1118.78
587.51	1118.07
587.86	1114.56
588.21	1105.67
588.56	1106.14
588.91	1099.82
589.26	1097.48
589.61	1101.22
589.96	1116.20
590.31	1111.75
590.66	1116.67
591.01	1116.90
591.36	1104.73
591.71	1088.35
592.06	1091.16
592.41	1093.26
592.76	1095.60
593.10	1101.46
593.45	1106.14
593.80	1103.56
594.15	1097.01
594.50	1090.69
594.85	1097.01
595.20	1104.73
595.55	1101.22
595.90	1110.12
596.25	1113.86
596.60	1105.44
596.95	1107.31
597.30	1108.01
597.64	1152.95
597.99	1157.39
598.34	1156.69
598.69	1149.67
599.04	1155.76
599.39	1105.67
599.74	1100.05
600.09	1101.22
600.44	1101.69
600.78	1101.46
601.13	1106.37
601.48	1107.31
601.83	1103.56
602.18	1104.50
602.53	1094.43
602.88	1091.16
603.22	1094.20
603.57	1099.82
603.92	1107.07
604.27	1115.27
604.62	1122.52
604.97	1112.46
605.31	1108.01
605.66	1097.71
606.01	1101.69
606.36	1087.88
606.71	1094.20
607.05	1099.58
607.40	1100.75
607.75	1098.18
608.10	1091.86
608.44	1088.82
608.79	1097.01
609.14	1090.69
609.49	1094.90
609.84	1113.39
610.18	1122.29
610.53	1109.18
610.88	1110.35
611.23	1104.73
611.57	1091.16
611.92	1086.94
612.27	1094.67
612.62	1105.44
612.96	1100.29
613.31	1106.61
613.66	1108.01
614.00	1107.31
614.35	1101.46
614.70	1102.86
615.05	1096.07
615.39	1095.84
615.74	1090.92
616.09	1086.94
616.43	1085.77
616.78	1088.82
617.13	1093.73
617.47	1089.52
617.82	1089.29
618.17	1090.46
618.51	1102.16
618.86	1086.94
619.21	1099.35
619.55	1098.65
619.90	1098.18
620.25	1094.67
620.59	1096.07
620.94	1083.90
621.29	1087.65
621.63	1100.75
621.98	1088.35
622.32	1092.80
622.67	1105.90
623.02	1107.07
623.36	1099.35
623.71	1107.07
624.05	1111.99
624.40	1101.69
624.75	1102.63
625.09	1104.03
625.44	1106.84
625.78	1095.37
626.13	1088.12
626.48	1091.86
626.82	1094.90
627.17	1082.97
627.51	1099.82
627.86	1104.03
628.20	1097.48
628.55	1089.29
628.89	1089.29
629.24	1078.05
629.58	1073.37
629.93	1065.41
630.28	1071.97
630.62	1077.58
630.97	1074.77
631.31	1077.82
631.66	1096.78
632.00	1091.39
632.35	1090.46
632.69	1088.82
633.04	1099.35
633.38	1090.69
633.73	1091.39
634.07	1092.09
634.42	1092.56
634.76	1088.12
635.11	1083.90
635.45	1084.60
635.79	1089.29
636.14	1092.80
636.48	1092.09
636.83	1095.84
637.17	1093.73
637.52	1092.80
637.86	1098.41
638.21	1092.33
638.55	1101.46
638.89	1106.37
639.24	1101.92
639.58	1097.95
639.93	1105.90
640.27	1098.18
640.61	1097.95
640.96	1095.60
641.30	1093.97
641.65	1097.95
641.99	1105.90
642.33	1098.65
642.68	1092.56
643.02	1093.97
643.37	1082.73
643.71	1066.58
644.05	1075.24
644.40	1078.75
644.74	1081.09
645.08	1086.48
645.43	1090.22
645.77	1087.41
646.11	1095.14
646.46	1096.78
646.80	1089.29
647.14	1093.73
647.49	1097.71
647.83	1097.71
648.17	1092.56
648.52	1105.67
648.86	1108.01
649.20	1093.73
649.55	1097.24
649.89	1105.90
650.23	1098.18
650.57	1095.60
650.92	1104.50
651.26	1100.75
651.60	1094.90
651.95	1109.65
652.29	1108.71
652.63	1111.75
652.97	1112.22
653.32	1103.80
653.66	1088.58
654.00	1093.26
654.34	1086.71
654.69	1081.09
655.03	1095.84
655.37	1096.31
655.71	1087.88
656.05	1093.26
656.40	1096.54
656.74	1093.73
657.08	1089.75
657.42	1093.26
657.76	1093.50
658.11	1095.60
658.45	1085.54
658.79	1087.41
659.13	1082.97
659.47	1081.33
659.82	1078.52
660.16	1082.97
660.50	1078.05
660.84	1082.97
661.18	1081.80
661.52	1082.73
661.87	1083.67
662.21	1093.50
662.55	1087.88
662.89	1079.22
663.23	1076.65
663.57	1072.20
663.91	1073.60
664.25	1078.05
664.60	1082.73
664.94	1087.88
665.28	1084.84
665.62	1082.26
665.96	1094.67
666.30	1092.33
666.64	1085.54
666.98	1094.90
667.32	1102.39
667.66	1095.37
668.01	1103.33
668.35	1116.90
668.69	1115.97
669.03	1108.48
669.37	1106.14
669.71	1105.67
670.05	1093.26
670.39	1091.86
670.73	1097.48
671.07	1098.41
671.41	1097.48
671.75	1104.50
672.09	1105.20
672.43	1100.99
672.77	1100.52
673.11	1095.84
673.45	1088.58
673.79	1092.56
674.13	1093.50
674.47	1086.24
674.81	1090.22
675.15	1090.92
675.49	1083.90
675.83	1073.60
676.17	1074.77
676.51	1070.56
676.85	1068.69
677.19	1074.77
677.53	1082.03
677.87	1077.82
678.21	1071.73
678.55	1081.09
678.89	1075.94
679.23	1074.07
679.57	1086.48
679.90	1099.58
680.24	1096.78
680.58	1097.48
680.92	1086.01
681.26	1074.54
681.60	1075.01
681.94	1067.28
682.28	1073.14
682.62	1094.67
682.96	1099.12
683.29	1100.99
683.63	1105.67
683.97	1098.41
684.31	1084.84
684.65	1087.88
684.99	1080.16
685.33	1076.41
685.67	1062.37
686.00	1066.82
686.34	1057.22
686.68	1056.28
687.02	1053.48
687.36	1076.41
687.70	1086.71
688.03	1097.48
688.37	1109.18
688.71	1120.41
689.05	1111.99
689.39	1104.73
689.72	1096.78
690.06	1097.95
690.40	1098.41
690.74	1101.46
691.08	1095.37
691.41	1099.35
691.75	1088.12
692.09	1081.80
692.43	1072.43
692.76	1070.33
693.10	1069.39
693.44	1073.60
693.78	1077.58
694.11	1087.41
694.45	1091.39
694.79	1094.90
695.13	1087.41
695.46	1087.88
695.80	1082.50
696.14	1085.54
696.48	1091.63
696.81	1099.35
697.15	1105.67
697.49	1100.05
697.82	1093.97
698.16	1081.33
698.50	1078.99
698.83	1071.97
699.17	1079.46
699.51	1088.82
699.84	1085.07
700.18	1077.11
700.52	1079.22
700.85	1086.01
701.19	1083.90
701.53	1103.56
701.86	1111.52
702.20	1110.82
702.54	1103.80
702.87	1097.48
703.21	1096.54
703.55	1105.20
703.88	1107.54
704.22	1110.82
704.55	1115.97
704.89	1100.52
705.23	1081.33
705.56	1073.60
705.90	1071.03
706.23	1081.09
706.57	1086.71
706.91	1095.14
707.24	1108.01
707.58	1110.35
707.91	1096.78
708.25	1102.63
708.58	1112.22
708.92	1105.67
709.26	1101.22
709.59	1109.18
709.93	1101.69
710.26	1103.80
710.60	1094.43
710.93	1093.97
711.27	1091.63
711.60	1083.90
711.94	1067.52
712.27	1073.84
712.61	1081.09
712.94	1077.82
713.28	1092.33
713.61	1099.35
713.95	1094.67
714.28	1094.67
714.62	1097.01
714.95	1092.80
715.29	1091.16
715.62	1093.73
715.96	1084.14
716.29	1083.90
716.63	1085.54
716.96	1091.86
717.29	1096.31
717.63	1109.88
717.96	1102.86
718.30	1107.78
718.63	1109.41
718.97	1103.80
719.30	1090.22
719.63	1101.22
719.97	1097.48
720.30	1092.33
720.64	1093.03
720.97	1091.39
721.30	1077.82
721.64	1057.69
721.97	1054.65
722.31	1054.88
722.64	1058.62
722.97	1063.54
723.31	1078.99
723.64	1087.18
723.97	1088.58
724.31	1090.46
724.64	1087.41
724.98	1091.16
725.31	1082.73
725.64	1081.09
725.98	1080.39
726.31	1084.60
726.64	1084.84
726.97	1087.18
727.31	1081.33
727.64	1081.56
727.97	1083.90
728.31	1080.63
728.64	1080.86
728.97	1082.26
729.31	1087.88
729.64	1086.94
729.97	1075.71
730.30	1078.28
730.64	1089.52
730.97	1093.03
731.30	1092.33
731.63	1100.52
731.97	1095.60
732.30	1082.26
732.63	1076.41
732.96	1073.60
733.30	1074.07
733.63	1076.65
733.96	1087.88
734.29	1083.90
734.63	1095.60
734.96	1100.05
735.29	1110.35
735.62	1101.69
735.95	1120.65
736.29	1106.37
736.62	1099.82
736.95	1087.88
737.28	1085.54
737.61	1070.80
737.94	1069.86
738.28	1068.69
738.61	1066.35
738.94	1078.99
739.27	1073.37
739.60	1088.58
739.93	1090.22
740.27	1093.50
740.60	1082.73
740.93	1088.58
741.26	1081.80
741.59	1082.97
741.92	1086.48
742.25	1102.86
742.58	1098.18
742.91	1088.82
743.25	1078.99
743.58	1074.77
743.91	1056.75
744.24	1056.05
744.57	1067.05
744.90	1069.86
745.23	1076.65
745.56	1076.88
745.89	1078.28
746.22	1074.77
746.55	1084.84
746.88	1075.71
747.21	1084.14
747.54	1088.12
747.87	1083.67
748.20	1080.39
748.53	1082.73
748.87	1076.65
749.20	1074.54
749.53	1084.60
749.86	1090.69
750.19	1099.12
750.52	1105.20
750.85	1106.14
751.18	1089.99
751.51	1078.99
751.84	1074.77
752.16	1073.84
752.49	1073.14
752.82	1089.52
753.15	1105.67
753.48	1100.75
753.81	1097.71
754.14	1092.80
754.47	1090.46
754.80	1085.54
755.13	1086.94
755.46	1092.80
755.79	1090.92
756.12	1089.75
756.45	1086.71
756.78	1087.18
757.11	1085.77
757.43	1089.52
757.76	1091.16
758.09	1092.56
758.42	1079.22
758.75	1070.56
759.08	1073.60
759.41	1062.37
759.74	1063.31
760.07	1075.48
760.39	1084.60
760.72	1084.84
761.05	1091.39
761.38	1080.16
761.71	1075.01
762.04	1074.07
762.36	1069.16
762.69	1074.54
763.02	1085.77
763.35	1083.43
763.68	1078.52
764.01	1082.73
