SpectraSuite Data File
++++++++++++++++++++++++++++++++++++
Date: Mon Aug 26 10:24:41 PDT 2019
User: corrico
Dark Spectrum Present: No
Reference Spectrum Present: No
Number of Sampled Component Spectra: 1
Spectrometers: USB2+H06089
Integration Time (usec): 10000 (USB2+H06089)
Spectra Averaged: 2 (USB2+H06089)
Boxcar Smoothing: 2 (USB2+H06089)
Correct for Electrical Dark: No (USB2+H06089)
Strobe/Lamp Enabled: No (USB2+H06089)
Correct for Detector Non-linearity: No (USB2+H06089)
Correct for Stray Light: No (USB2+H06089)
Number of Pixels in Processed Spectrum: 2048
>>>>>Begin Processed Spectral Data<<<<<
339.70	967.81
340.07	967.81
340.45	941.83
340.82	917.72
341.19	904.15
341.57	892.68
341.94	890.81
342.31	887.77
342.69	889.40
343.06	899.00
343.43	893.62
343.81	892.91
344.18	894.55
344.55	910.00
344.93	906.49
345.30	909.06
345.67	911.17
346.04	926.38
346.42	932.00
346.79	935.75
347.16	948.85
347.54	957.98
347.91	962.90
348.28	966.64
348.65	976.71
349.03	990.05
349.40	1005.96
349.77	1020.71
350.14	1033.81
350.52	1045.99
350.89	1054.18
351.26	1055.11
351.63	1059.79
352.01	1064.24
352.38	1068.22
352.75	1072.67
353.12	1080.16
353.50	1087.88
353.87	1090.46
354.24	1096.78
354.61	1103.33
354.98	1110.12
355.36	1098.41
355.73	1113.86
356.10	1112.22
356.47	1111.52
356.84	1111.75
357.22	1114.33
357.59	1097.24
357.96	1096.31
358.33	1091.63
358.70	1079.46
359.08	1080.63
359.45	1081.33
359.82	1079.69
360.19	1078.28
360.56	1090.92
360.94	1092.80
361.31	1097.95
361.68	1100.29
362.05	1100.05
362.42	1096.31
362.79	1100.29
363.16	1091.39
363.54	1091.86
363.91	1094.90
364.28	1090.46
364.65	1079.92
365.02	1094.20
365.39	1077.35
365.76	1070.80
366.14	1067.75
366.51	1075.24
366.88	1068.45
367.25	1072.90
367.62	1075.01
367.99	1077.82
368.36	1085.77
368.73	1086.71
369.10	1087.88
369.48	1093.50
369.85	1093.03
370.22	1084.37
370.59	1079.69
370.96	1082.73
371.33	1082.03
371.70	1070.56
372.07	1075.01
372.44	1075.48
372.81	1089.75
373.18	1083.20
373.55	1101.46
373.93	1096.54
374.30	1095.84
374.67	1090.69
375.04	1095.84
375.41	1093.50
375.78	1089.75
376.15	1097.24
376.52	1101.46
376.89	1106.84
377.26	1107.54
377.63	1111.75
378.00	1113.63
378.37	1105.90
378.74	1099.58
379.11	1097.48
379.48	1098.41
379.85	1096.07
380.22	1104.03
380.59	1105.90
380.96	1104.50
381.33	1099.35
381.70	1098.65
382.07	1098.88
382.44	1101.46
382.81	1107.78
383.18	1126.27
383.55	1129.07
383.92	1120.88
384.29	1120.41
384.66	1116.44
385.03	1113.86
385.40	1113.16
385.77	1114.10
386.14	1115.03
386.51	1123.93
386.88	1112.92
387.25	1105.90
387.62	1106.14
387.99	1108.48
388.36	1099.82
388.73	1100.52
389.10	1108.48
389.46	1118.78
389.83	1119.48
390.20	1128.14
390.57	1136.10
390.94	1136.80
391.31	1122.99
391.68	1112.46
392.05	1108.24
392.42	1111.52
392.79	1115.03
393.16	1125.80
393.53	1141.71
393.89	1149.91
394.26	1135.86
394.63	1136.80
395.00	1131.41
395.37	1128.37
395.74	1126.27
396.11	1133.76
396.48	1139.61
396.84	1150.37
397.21	1147.56
397.58	1152.71
397.95	1163.25
398.32	1161.37
398.69	1163.48
399.06	1171.67
399.42	1170.50
399.79	1175.89
400.16	1175.18
400.53	1172.84
400.90	1196.72
401.27	1203.04
401.64	1208.65
402.00	1218.72
402.37	1236.97
402.74	1221.53
403.11	1234.63
403.48	1241.42
403.84	1247.51
404.21	1258.04
404.58	1279.57
404.95	1299.70
405.32	1311.87
405.68	1335.51
406.05	1354.00
406.42	1369.45
406.79	1383.49
407.16	1407.13
407.52	1431.47
407.89	1455.35
408.26	1489.99
408.63	1521.58
408.99	1563.48
409.36	1607.25
409.73	1661.08
410.10	1712.34
410.47	1759.15
410.83	1825.62
411.20	1892.56
411.57	1963.71
411.94	2026.20
412.30	2122.63
412.67	2190.04
413.04	2278.98
413.40	2360.20
413.77	2468.33
414.14	2584.42
414.51	2713.38
414.87	2853.58
415.24	3006.18
415.61	3174.00
415.97	3329.18
416.34	3498.40
416.71	3674.88
417.08	3887.86
417.44	4070.19
417.81	4293.48
418.18	4534.09
418.54	4777.50
418.91	5026.53
419.28	5301.08
419.64	5573.99
420.01	5883.87
420.38	6215.06
420.74	6546.24
421.11	6940.16
421.48	7334.77
421.84	7768.00
422.21	8182.04
422.58	8668.88
422.94	9149.86
423.31	9690.99
423.68	10245.23
424.04	10893.09
424.41	11508.18
424.77	12141.06
425.14	12778.86
425.51	13434.68
425.87	14171.71
426.24	14888.85
426.61	15749.70
426.97	16701.36
427.34	17649.51
427.70	18655.47
428.07	19693.50
428.44	20705.78
428.80	21706.60
429.17	22732.92
429.53	23743.56
429.90	24981.71
430.27	26104.23
430.63	27254.13
431.00	28585.20
431.36	29976.65
431.73	31159.08
432.09	32488.74
432.46	33747.01
432.83	35090.48
433.19	36263.56
433.56	37762.44
433.92	39328.26
434.29	40867.39
434.65	42291.84
435.02	43655.20
435.38	44869.01
435.75	45689.60
436.11	46939.91
436.48	47970.22
436.84	49008.24
437.21	49976.29
437.57	51048.02
437.94	51657.50
438.30	52245.91
438.67	52551.81
439.03	52628.58
439.40	52752.40
439.76	52665.80
440.13	52432.68
440.49	52462.64
440.86	52190.20
441.22	51763.05
441.59	51127.36
441.95	50607.06
442.32	49691.45
442.68	48968.45
443.05	48046.52
443.41	47189.88
443.78	46028.04
444.14	44992.82
444.51	43682.59
444.87	42689.97
445.24	41442.70
445.60	40359.96
445.96	39190.63
446.33	38402.34
446.69	37276.31
447.06	36436.06
447.42	35428.69
447.79	34312.49
448.15	33195.12
448.51	32144.68
448.88	31219.70
449.24	30183.78
449.61	29589.05
449.97	28832.59
450.33	28120.13
450.70	27306.33
451.06	26824.41
451.43	26042.44
451.79	25459.18
452.15	24899.79
452.52	24357.96
452.88	23693.01
453.24	23164.98
453.61	22513.14
453.97	21902.27
454.34	21246.21
454.70	20693.38
455.06	20090.46
455.43	19445.17
455.79	18676.77
456.15	18090.94
456.52	17454.31
456.88	16905.69
457.24	16318.92
457.61	15902.54
457.97	15382.23
458.33	14857.25
458.70	14255.03
459.06	13720.92
459.42	13260.31
459.79	12757.32
460.15	12309.58
460.51	11923.63
460.88	11545.63
461.24	11081.27
461.60	10745.63
461.96	10376.53
462.33	10034.81
462.69	9710.65
463.05	9421.59
463.42	9146.11
463.78	8911.82
464.14	8647.34
464.50	8435.52
464.87	8173.38
465.23	7903.99
465.59	7652.62
465.95	7438.92
466.32	7218.45
466.68	7045.25
467.04	6868.77
467.40	6697.68
467.77	6504.11
468.13	6293.00
468.49	6142.74
468.85	5992.01
469.22	5861.64
469.58	5756.78
469.94	5671.12
470.30	5545.20
470.66	5432.85
471.03	5308.34
471.39	5190.84
471.75	5084.58
472.11	4979.49
472.47	4895.23
472.84	4788.97
473.20	4676.39
473.56	4568.02
473.92	4456.61
474.28	4355.50
474.65	4271.95
475.01	4212.73
475.37	4136.19
475.73	4067.62
476.09	3977.51
476.45	3894.42
476.81	3806.18
477.18	3722.86
477.54	3639.06
477.90	3568.38
478.26	3493.48
478.62	3419.52
478.98	3365.92
479.34	3320.52
479.71	3276.05
480.07	3225.26
480.43	3180.55
480.79	3124.15
481.15	3075.93
481.51	3012.04
481.87	2953.99
482.23	2904.60
482.59	2851.24
482.96	2799.28
483.32	2776.34
483.68	2742.41
484.04	2717.36
484.40	2697.70
484.76	2659.55
485.12	2605.72
485.48	2578.57
485.84	2526.14
486.20	2467.39
486.56	2432.75
486.92	2397.18
487.28	2367.45
487.64	2343.81
488.00	2319.94
488.37	2276.17
488.73	2248.79
489.09	2201.51
489.45	2155.17
489.81	2124.97
490.17	2109.06
490.53	2084.25
490.89	2073.95
491.25	2066.69
491.61	2048.20
491.97	2018.01
492.33	1993.90
492.69	1956.45
493.05	1914.09
493.41	1886.24
493.77	1871.02
494.13	1828.89
494.49	1812.98
494.85	1809.70
495.21	1788.87
495.57	1758.91
495.93	1759.38
496.29	1729.89
496.64	1696.19
497.00	1674.19
497.36	1659.91
497.72	1637.67
498.08	1634.63
498.44	1631.82
498.80	1604.20
499.16	1597.42
499.52	1591.33
499.88	1578.46
500.24	1562.78
500.60	1564.41
500.96	1541.48
501.32	1523.92
501.68	1501.22
502.03	1483.67
502.39	1471.96
502.75	1470.56
503.11	1460.49
503.47	1457.45
503.83	1453.47
504.19	1446.45
504.55	1424.92
504.91	1409.94
505.26	1390.98
505.62	1383.49
505.98	1370.15
506.34	1351.19
506.70	1351.89
507.06	1353.77
507.42	1354.70
507.78	1354.23
508.13	1365.23
508.49	1359.38
508.85	1359.85
509.21	1336.21
509.57	1328.96
509.93	1325.45
510.28	1316.32
510.64	1299.70
511.00	1301.81
511.36	1293.85
511.72	1276.29
512.07	1273.49
512.43	1262.02
512.79	1257.34
513.15	1248.44
513.51	1252.42
513.86	1239.78
514.22	1250.08
514.58	1236.97
514.94	1239.31
515.30	1238.14
515.65	1240.95
516.01	1224.33
516.37	1225.97
516.73	1213.57
517.08	1202.80
517.44	1198.59
517.80	1204.67
518.16	1199.76
518.51	1199.76
518.87	1207.01
519.23	1203.74
519.59	1204.91
519.94	1202.33
520.30	1211.23
520.66	1199.76
521.01	1199.76
521.37	1194.84
521.73	1196.95
522.09	1186.42
522.44	1185.01
522.80	1178.23
523.16	1182.67
523.51	1185.95
523.87	1180.57
524.23	1189.93
524.58	1192.50
524.94	1177.29
525.30	1170.97
525.65	1173.08
526.01	1158.80
526.37	1153.42
526.72	1155.52
527.08	1150.61
527.44	1150.37
527.79	1157.16
528.15	1159.50
528.51	1154.82
528.86	1161.84
529.22	1165.59
529.58	1158.33
529.93	1152.25
530.29	1159.27
530.65	1159.27
531.00	1145.46
531.36	1140.54
531.71	1140.54
532.07	1143.82
532.43	1135.86
532.78	1137.97
533.14	1143.12
533.49	1148.50
533.85	1149.44
534.21	1147.80
534.56	1156.69
534.92	1165.59
535.27	1163.48
535.63	1159.03
535.98	1159.74
536.34	1155.52
536.69	1151.54
537.05	1141.48
537.41	1136.80
537.76	1142.42
538.12	1147.33
538.47	1156.69
538.83	1158.57
539.18	1157.63
539.54	1156.22
539.89	1137.50
540.25	1120.41
540.60	1122.52
540.96	1130.01
541.31	1129.07
541.67	1148.97
542.02	1148.03
542.38	1152.48
542.73	1147.80
543.09	1142.88
543.44	1142.65
543.80	1135.63
544.15	1134.69
544.51	1133.29
544.86	1128.61
545.22	1108.48
545.57	1117.37
545.93	1118.31
546.28	1118.07
546.64	1128.14
546.99	1137.97
547.35	1148.27
547.70	1145.69
548.05	1146.16
548.41	1131.18
548.76	1139.84
549.12	1131.65
549.47	1127.90
549.83	1122.52
550.18	1124.86
550.53	1114.80
550.89	1109.65
551.24	1108.48
551.60	1109.65
551.95	1113.86
552.30	1111.99
552.66	1120.88
553.01	1121.58
553.37	1126.03
553.72	1124.16
554.07	1122.99
554.43	1119.71
554.78	1121.12
555.13	1119.71
555.49	1119.24
555.84	1124.86
556.19	1119.01
556.55	1119.48
556.90	1115.03
557.26	1116.67
557.61	1115.27
557.96	1115.50
558.32	1115.73
558.67	1113.63
559.02	1108.24
559.37	1108.71
559.73	1109.65
560.08	1119.71
560.43	1116.44
560.79	1118.07
561.14	1119.48
561.49	1123.22
561.85	1121.58
562.20	1129.31
562.55	1134.22
562.90	1130.95
563.26	1126.97
563.61	1114.80
563.96	1119.95
564.32	1126.50
564.67	1133.99
565.02	1133.76
565.37	1134.22
565.73	1121.12
566.08	1115.50
566.43	1106.37
566.78	1102.39
567.14	1104.97
567.49	1107.31
567.84	1107.07
568.19	1104.50
568.54	1107.31
568.90	1100.75
569.25	1111.05
569.60	1108.24
569.95	1112.69
570.31	1122.29
570.66	1126.73
571.01	1123.46
571.36	1125.56
571.71	1128.61
572.06	1120.65
572.42	1120.65
572.77	1119.24
573.12	1120.41
573.47	1110.82
573.82	1108.95
574.18	1104.97
574.53	1107.78
574.88	1108.48
575.23	1113.63
575.58	1116.67
575.93	1120.41
576.28	1115.73
576.64	1115.27
576.99	1120.18
577.34	1115.27
577.69	1115.50
578.04	1115.73
578.39	1114.56
578.74	1115.03
579.09	1111.75
579.44	1116.44
579.80	1113.39
580.15	1116.90
580.50	1113.39
580.85	1114.33
581.20	1109.65
581.55	1110.35
581.90	1100.99
582.25	1101.22
582.60	1108.71
582.95	1104.50
583.30	1104.73
583.65	1114.33
584.00	1107.54
584.35	1102.39
584.71	1103.56
585.06	1097.71
585.41	1095.84
585.76	1093.26
586.11	1091.86
586.46	1095.14
586.81	1097.95
587.16	1094.90
587.51	1101.92
587.86	1105.20
588.21	1105.90
588.56	1106.37
588.91	1108.48
589.26	1104.26
589.61	1109.65
589.96	1105.20
590.31	1110.82
590.66	1104.50
591.01	1108.48
591.36	1101.22
591.71	1102.63
592.06	1096.78
592.41	1101.92
592.76	1102.39
593.10	1105.67
593.45	1112.92
593.80	1111.75
594.15	1109.41
594.50	1109.18
594.85	1106.37
595.20	1100.99
595.55	1105.67
595.90	1098.65
596.25	1082.50
596.60	1076.41
596.95	1078.99
597.30	1081.33
597.64	1140.54
597.99	1162.54
598.34	1170.27
598.69	1175.18
599.04	1175.42
599.39	1124.86
599.74	1122.29
600.09	1119.95
600.44	1107.54
600.78	1093.26
601.13	1091.63
601.48	1086.94
601.83	1081.33
602.18	1082.97
602.53	1093.03
602.88	1099.82
603.22	1102.63
603.57	1101.46
603.92	1102.16
604.27	1108.01
604.62	1099.82
604.97	1096.78
605.31	1093.50
605.66	1094.67
606.01	1094.20
606.36	1089.99
606.71	1090.92
607.05	1097.24
607.40	1092.56
607.75	1082.03
608.10	1098.18
608.44	1100.52
608.79	1108.24
609.14	1106.14
609.49	1107.78
609.84	1095.84
610.18	1096.54
610.53	1093.03
610.88	1095.14
611.23	1102.63
611.57	1104.73
611.92	1102.39
612.27	1106.14
612.62	1109.41
612.96	1106.37
613.31	1106.37
613.66	1097.24
614.00	1093.50
614.35	1098.65
614.70	1111.75
615.05	1112.22
615.39	1122.52
615.74	1121.35
616.09	1111.99
616.43	1102.16
616.78	1103.80
617.13	1102.16
617.47	1099.58
617.82	1098.41
618.17	1092.56
618.51	1092.80
618.86	1086.71
619.21	1088.12
619.55	1091.86
619.90	1090.22
620.25	1089.05
620.59	1095.37
620.94	1101.46
621.29	1104.73
621.63	1109.18
621.98	1105.44
622.32	1104.50
622.67	1098.41
623.02	1101.69
623.36	1100.52
623.71	1100.05
624.05	1099.35
624.40	1090.22
624.75	1086.24
625.09	1088.82
625.44	1089.29
625.78	1088.58
626.13	1093.97
626.48	1100.99
626.82	1096.07
627.17	1098.88
627.51	1100.05
627.86	1101.46
628.20	1098.18
628.55	1099.35
628.89	1091.39
629.24	1088.12
629.58	1086.94
629.93	1084.84
630.28	1088.58
630.62	1091.39
630.97	1082.26
631.31	1084.14
631.66	1084.84
632.00	1081.56
632.35	1083.20
632.69	1095.84
633.04	1092.56
633.38	1090.22
633.73	1092.56
634.07	1099.12
634.42	1097.24
634.76	1109.65
635.11	1116.20
635.45	1107.31
635.79	1101.46
636.14	1097.01
636.48	1094.67
636.83	1082.50
637.17	1089.75
637.52	1088.58
637.86	1087.88
638.21	1082.26
638.55	1087.41
638.89	1083.43
639.24	1075.94
639.58	1079.22
639.93	1078.05
640.27	1087.18
640.61	1087.18
640.96	1092.09
641.30	1090.69
641.65	1094.20
641.99	1086.94
642.33	1091.63
642.68	1099.82
643.02	1099.35
643.37	1110.12
643.71	1105.44
644.05	1097.01
644.40	1104.73
644.74	1117.14
645.08	1112.22
645.43	1118.54
645.77	1122.75
646.11	1118.07
646.46	1107.78
646.80	1095.84
647.14	1096.54
647.49	1093.03
647.83	1095.84
648.17	1094.67
648.52	1088.82
648.86	1079.92
649.20	1091.63
649.55	1089.05
649.89	1101.69
650.23	1115.50
650.57	1122.99
650.92	1107.31
651.26	1099.35
651.60	1086.71
651.95	1082.97
652.29	1073.37
652.63	1087.88
652.97	1090.69
653.32	1091.63
653.66	1089.75
654.00	1100.05
654.34	1099.58
654.69	1099.58
655.03	1103.56
655.37	1095.14
655.71	1093.97
656.05	1079.22
656.40	1079.69
656.74	1070.56
657.08	1088.12
657.42	1085.07
657.76	1095.14
658.11	1089.29
658.45	1087.18
658.79	1079.69
659.13	1077.82
659.47	1076.18
659.82	1077.11
660.16	1084.84
660.50	1083.90
660.84	1090.46
661.18	1092.09
661.52	1099.82
661.87	1100.75
662.21	1104.73
662.55	1111.05
662.89	1119.01
663.23	1112.46
663.57	1104.26
663.91	1100.52
664.25	1089.99
664.60	1077.35
664.94	1074.07
665.28	1078.28
665.62	1081.09
665.96	1078.28
666.30	1085.54
666.64	1098.41
666.98	1099.35
667.32	1095.37
667.66	1104.50
668.01	1100.29
668.35	1089.99
668.69	1087.88
669.03	1093.97
669.37	1081.56
669.71	1076.18
670.05	1072.43
670.39	1079.46
670.73	1069.39
671.07	1078.05
671.41	1081.33
671.75	1082.50
672.09	1076.65
672.43	1085.54
672.77	1078.05
673.11	1073.84
673.45	1071.97
673.79	1078.52
674.13	1078.05
674.47	1081.56
674.81	1092.33
675.15	1094.90
675.49	1099.12
675.83	1101.69
676.17	1106.37
676.51	1098.88
676.85	1107.07
677.19	1107.31
677.53	1104.03
677.87	1102.63
678.21	1104.03
678.55	1103.56
678.89	1102.39
679.23	1097.95
679.57	1093.03
679.90	1089.99
680.24	1083.20
680.58	1075.94
680.92	1077.11
681.26	1087.18
681.60	1086.71
681.94	1091.39
682.28	1097.24
682.62	1096.07
682.96	1083.43
683.29	1089.75
683.63	1080.39
683.97	1074.31
684.31	1070.09
684.65	1079.22
684.99	1082.26
685.33	1083.90
685.67	1095.14
686.00	1097.48
686.34	1095.60
686.68	1096.78
687.02	1099.12
687.36	1086.24
687.70	1080.16
688.03	1076.18
688.37	1071.03
688.71	1069.62
689.05	1074.77
689.39	1086.24
689.72	1086.24
690.06	1081.80
690.40	1090.46
690.74	1093.26
691.08	1088.35
691.41	1089.29
691.75	1086.24
692.09	1073.60
692.43	1063.77
692.76	1065.65
693.10	1063.54
693.44	1074.54
693.78	1080.86
694.11	1086.01
694.45	1083.20
694.79	1082.97
695.13	1079.46
695.46	1082.26
695.80	1081.09
696.14	1078.99
696.48	1075.71
696.81	1080.63
697.15	1074.07
697.49	1079.22
697.82	1092.80
698.16	1090.22
698.50	1078.28
698.83	1080.16
699.17	1079.92
699.51	1067.52
699.84	1068.92
700.18	1074.31
700.52	1085.07
700.85	1079.46
701.19	1084.14
701.53	1090.69
701.86	1098.88
702.20	1089.99
702.54	1095.14
702.87	1104.26
703.21	1103.09
703.55	1098.18
703.88	1096.54
704.22	1094.43
704.55	1086.01
704.89	1097.24
705.23	1093.73
705.56	1097.95
705.90	1104.73
706.23	1110.58
706.57	1097.24
706.91	1097.48
707.24	1095.14
707.58	1088.12
707.91	1076.88
708.25	1088.58
708.58	1083.20
708.92	1078.99
709.26	1076.65
709.59	1076.18
709.93	1060.50
710.26	1063.77
710.60	1063.77
710.93	1060.96
711.27	1070.33
711.60	1075.24
711.94	1073.60
712.27	1084.37
712.61	1085.54
712.94	1080.63
713.28	1087.88
713.61	1086.94
713.95	1076.41
714.28	1069.86
714.62	1064.48
714.95	1055.58
715.29	1063.07
715.62	1071.26
715.96	1064.71
716.29	1064.94
716.63	1071.03
716.96	1068.45
717.29	1058.16
717.63	1082.73
717.96	1090.69
718.30	1084.60
718.63	1070.33
718.97	1076.88
719.30	1074.54
719.63	1069.16
719.97	1073.84
720.30	1081.80
720.64	1075.24
720.97	1070.80
721.30	1075.94
721.64	1076.41
721.97	1073.84
722.31	1081.33
722.64	1081.56
722.97	1083.67
723.31	1081.09
723.64	1094.90
723.97	1091.16
724.31	1086.01
724.64	1084.60
724.98	1093.03
725.31	1090.92
725.64	1096.78
725.98	1106.84
726.31	1102.16
726.64	1095.84
726.97	1096.78
727.31	1097.71
727.64	1086.48
727.97	1080.16
728.31	1078.28
728.64	1070.33
728.97	1072.90
729.31	1077.35
729.64	1087.18
729.97	1090.46
730.30	1097.01
730.64	1093.03
730.97	1084.37
731.30	1085.77
731.63	1081.80
731.97	1082.50
732.30	1079.22
732.63	1095.14
732.96	1093.26
733.30	1096.54
733.63	1092.80
733.96	1095.60
734.29	1092.56
734.63	1093.03
734.96	1093.26
735.29	1091.39
735.62	1090.69
735.95	1082.97
736.29	1081.56
736.62	1079.22
736.95	1078.99
737.28	1070.09
737.61	1079.92
737.94	1083.43
738.28	1082.26
738.61	1087.65
738.94	1096.78
739.27	1092.80
739.60	1085.54
739.93	1076.88
740.27	1075.94
740.60	1075.01
740.93	1070.33
741.26	1077.82
741.59	1090.69
741.92	1093.03
742.25	1097.01
742.58	1094.43
742.91	1089.99
743.25	1082.50
743.58	1073.14
743.91	1063.77
744.24	1060.50
744.57	1051.84
744.90	1057.92
745.23	1062.37
745.56	1073.14
745.89	1075.24
746.22	1087.18
746.55	1080.16
746.88	1078.75
747.21	1070.33
747.54	1072.90
747.87	1071.97
748.20	1088.12
748.53	1096.31
748.87	1097.48
749.20	1097.48
749.53	1090.69
749.86	1073.14
750.19	1070.33
750.52	1068.22
750.85	1058.86
751.18	1059.33
751.51	1070.56
751.84	1064.48
752.16	1062.60
752.49	1075.71
752.82	1084.84
753.15	1076.18
753.48	1070.33
753.81	1078.99
754.14	1080.39
754.47	1071.50
754.80	1080.63
755.13	1092.56
755.46	1095.60
755.79	1089.75
756.12	1107.54
756.45	1104.97
756.78	1098.41
757.11	1092.09
757.43	1090.46
757.76	1074.31
758.09	1078.52
758.42	1078.05
758.75	1067.75
759.08	1068.22
759.41	1073.14
759.74	1069.62
760.07	1076.41
760.39	1080.63
760.72	1086.71
761.05	1083.43
761.38	1077.35
761.71	1071.03
762.04	1076.41
762.36	1072.90
762.69	1081.56
763.02	1091.16
763.35	1101.92
763.68	1100.29
764.01	1099.35
