SpectraSuite Data File
++++++++++++++++++++++++++++++++++++
Date: Mon Aug 26 10:24:41 PDT 2019
User: corrico
Dark Spectrum Present: No
Reference Spectrum Present: No
Number of Sampled Component Spectra: 1
Spectrometers: USB2+H06089
Integration Time (usec): 10000 (USB2+H06089)
Spectra Averaged: 2 (USB2+H06089)
Boxcar Smoothing: 2 (USB2+H06089)
Correct for Electrical Dark: No (USB2+H06089)
Strobe/Lamp Enabled: No (USB2+H06089)
Correct for Detector Non-linearity: No (USB2+H06089)
Correct for Stray Light: No (USB2+H06089)
Number of Pixels in Processed Spectrum: 2048
>>>>>Begin Processed Spectral Data<<<<<
339.70	1036.86
340.07	1036.86
340.45	998.47
340.82	979.28
341.19	947.45
341.57	919.60
341.94	906.49
342.31	893.15
342.69	888.00
343.06	893.62
343.43	899.23
343.81	909.53
344.18	931.30
344.55	924.75
344.93	927.79
345.30	927.32
345.67	920.30
346.04	925.45
346.42	937.62
346.79	949.56
347.16	966.41
347.54	984.90
347.91	990.98
348.28	1012.52
348.65	1027.50
349.03	1030.54
349.40	1035.69
349.77	1033.81
350.14	1029.84
350.52	1021.41
350.89	1032.41
351.26	1039.67
351.63	1042.01
352.01	1040.60
352.38	1060.96
352.75	1061.20
353.12	1075.71
353.50	1085.31
353.87	1100.05
354.24	1105.67
354.61	1113.16
354.98	1103.56
355.36	1112.69
355.73	1113.86
356.10	1111.75
356.47	1108.01
356.84	1115.03
357.22	1108.01
357.59	1110.35
357.96	1105.67
358.33	1098.18
358.70	1090.22
359.08	1097.48
359.45	1094.90
359.82	1095.37
360.19	1101.46
360.56	1103.56
360.94	1096.54
361.31	1093.26
361.68	1088.82
362.05	1086.48
362.42	1079.22
362.79	1084.84
363.16	1088.58
363.54	1086.48
363.91	1091.16
364.28	1091.16
364.65	1096.78
365.02	1094.20
365.39	1104.50
365.76	1106.61
366.14	1111.75
366.51	1097.95
366.88	1093.97
367.25	1085.31
367.62	1080.39
367.99	1081.56
368.36	1082.50
368.73	1091.39
369.10	1076.65
369.48	1072.90
369.85	1085.77
370.22	1091.63
370.59	1087.88
370.96	1102.63
371.33	1103.56
371.70	1085.31
372.07	1089.29
372.44	1089.52
372.81	1095.84
373.18	1100.29
373.55	1110.82
373.93	1114.10
374.30	1121.58
374.67	1118.54
375.04	1120.18
375.41	1109.88
375.78	1110.12
376.15	1097.95
376.52	1100.99
376.89	1104.50
377.26	1107.54
377.63	1103.56
378.00	1106.37
378.37	1096.78
378.74	1100.05
379.11	1110.82
379.48	1104.50
379.85	1097.24
380.22	1105.20
380.59	1096.07
380.96	1092.09
381.33	1093.97
381.70	1110.58
382.07	1097.48
382.44	1101.22
382.81	1105.67
383.18	1112.22
383.55	1105.44
383.92	1117.14
384.29	1119.24
384.66	1117.84
385.03	1117.61
385.40	1121.82
385.77	1134.46
386.14	1130.71
386.51	1133.99
386.88	1134.93
387.25	1134.93
387.62	1137.03
387.99	1145.69
388.36	1142.65
388.73	1143.35
389.10	1140.78
389.46	1129.31
389.83	1118.54
390.20	1113.86
390.57	1110.12
390.94	1118.54
391.31	1125.56
391.68	1137.03
392.05	1144.29
392.42	1138.20
392.79	1130.95
393.16	1129.07
393.53	1126.03
393.89	1126.97
394.26	1137.73
394.63	1146.86
395.00	1152.95
395.37	1153.65
395.74	1152.71
396.11	1150.61
396.48	1144.76
396.84	1139.61
397.21	1141.95
397.58	1141.71
397.95	1146.86
398.32	1144.05
398.69	1155.52
399.06	1157.39
399.42	1163.95
399.79	1172.84
400.16	1185.72
400.53	1185.25
400.90	1196.25
401.27	1204.44
401.64	1207.95
402.00	1218.48
402.37	1230.42
402.74	1239.55
403.11	1249.85
403.48	1260.14
403.84	1273.95
404.21	1278.63
404.58	1288.00
404.95	1297.83
405.32	1308.36
405.68	1322.17
406.05	1344.87
406.42	1367.34
406.79	1396.36
407.16	1431.24
407.52	1454.88
407.89	1482.03
408.26	1533.05
408.63	1569.80
408.99	1607.71
409.36	1656.87
409.73	1703.91
410.10	1737.38
410.47	1801.98
410.83	1853.00
411.20	1917.37
411.57	1997.18
411.94	2062.95
412.30	2139.25
412.67	2242.94
413.04	2321.81
413.40	2412.16
413.77	2530.82
414.14	2644.10
414.51	2757.85
414.87	2891.03
415.24	3035.67
415.61	3187.34
415.97	3338.31
416.34	3503.08
416.71	3719.11
417.08	3925.78
417.44	4120.05
417.81	4369.08
418.18	4628.88
418.54	4876.74
418.91	5145.67
419.28	5454.38
419.64	5746.02
420.01	6059.65
420.38	6382.64
420.74	6724.13
421.11	7134.42
421.48	7524.82
421.84	7959.46
422.21	8402.06
422.58	8925.87
422.94	9420.19
423.31	9969.04
423.68	10556.05
424.04	11204.38
424.41	11799.81
424.77	12439.95
425.14	13080.55
425.51	13775.22
425.87	14513.43
426.24	15324.42
426.61	16220.85
426.97	17283.22
427.34	18274.90
427.70	19398.83
428.07	20424.22
428.44	21491.27
428.80	22488.80
429.17	23569.90
429.53	24609.80
429.90	25938.28
430.27	27105.04
430.63	28328.21
431.00	29701.63
431.36	31103.61
431.73	32330.29
432.09	33695.29
432.46	35009.50
432.83	36288.37
433.19	37545.47
433.56	39019.54
433.92	40620.00
434.29	42154.45
434.65	43674.86
435.02	45096.04
435.38	46314.29
435.75	47129.26
436.11	48405.32
436.48	49432.82
436.84	50456.33
437.21	51463.47
437.57	52512.49
437.94	53122.91
438.30	53626.12
438.67	53865.32
439.03	53958.24
439.40	54037.82
439.76	53886.62
440.13	53678.31
440.49	53667.55
440.86	53339.17
441.22	52978.26
441.59	52461.94
441.95	52058.20
442.32	51137.66
442.68	50482.55
443.05	49532.29
443.41	48606.61
443.78	47431.42
444.14	46430.85
444.51	45115.23
444.87	44154.91
445.24	42873.70
445.60	41721.45
445.96	40615.78
446.33	39748.85
446.69	38564.77
447.06	37707.67
447.42	36689.30
447.79	35569.36
448.15	34538.82
448.51	33517.88
448.88	32613.26
449.24	31639.36
449.61	30881.26
449.97	29983.90
450.33	29181.10
450.70	28251.44
451.06	27620.66
451.43	26837.28
451.79	26261.28
452.15	25703.30
452.52	25123.31
452.88	24459.30
453.24	23967.79
453.61	23351.29
453.97	22713.03
454.34	22111.74
454.70	21593.08
455.06	20922.75
455.43	20168.86
455.79	19375.42
456.15	18742.78
456.52	17991.70
456.88	17436.52
457.24	16839.22
457.61	16412.30
457.97	15860.64
458.33	15329.10
458.70	14758.95
459.06	14229.99
459.42	13742.69
459.79	13271.54
460.15	12838.54
460.51	12324.79
460.88	11921.75
461.24	11448.50
461.60	11080.80
461.96	10716.61
462.33	10410.94
462.69	10047.22
463.05	9745.99
463.42	9437.27
463.78	9145.88
464.14	8854.71
464.50	8620.66
464.87	8380.52
465.23	8093.10
465.59	7868.41
465.95	7661.51
466.32	7441.27
466.68	7231.09
467.04	7034.01
467.40	6824.30
467.77	6639.40
468.13	6481.18
468.49	6289.25
468.85	6150.93
469.22	6050.52
469.58	5925.77
469.94	5819.27
470.30	5714.89
470.66	5604.65
471.03	5463.28
471.39	5346.49
471.75	5214.01
472.11	5105.18
472.47	5005.47
472.84	4889.61
473.20	4770.48
473.56	4668.43
473.92	4555.85
474.28	4451.46
474.65	4376.10
475.01	4303.31
475.37	4207.35
475.73	4127.77
476.09	4050.77
476.45	3956.91
476.81	3867.74
477.18	3782.31
477.54	3721.45
477.90	3659.90
478.26	3585.93
478.62	3519.70
478.98	3472.18
479.34	3400.80
479.71	3328.48
480.07	3274.64
480.43	3228.53
480.79	3180.32
481.15	3120.64
481.51	3076.63
481.87	3042.70
482.23	2996.59
482.59	2929.88
482.96	2891.03
483.32	2819.18
483.68	2764.64
484.04	2732.58
484.40	2707.53
484.76	2689.28
485.12	2679.45
485.48	2632.17
485.84	2591.44
486.20	2551.18
486.56	2496.65
486.92	2453.35
487.28	2440.01
487.64	2414.03
488.00	2373.07
488.37	2344.51
488.73	2311.51
489.09	2267.75
489.45	2216.02
489.81	2178.57
490.17	2139.02
490.53	2122.87
490.89	2082.14
491.25	2062.95
491.61	2063.18
491.97	2043.99
492.33	2001.16
492.69	1980.33
493.05	1955.75
493.41	1911.05
493.77	1881.09
494.13	1856.28
494.49	1825.15
494.85	1797.06
495.21	1779.98
495.57	1750.95
495.93	1739.02
496.29	1718.66
496.64	1701.80
497.00	1682.61
497.36	1672.31
497.72	1654.06
498.08	1659.21
498.44	1636.97
498.80	1612.40
499.16	1604.20
499.52	1589.46
499.88	1566.29
500.24	1552.71
500.60	1546.63
500.96	1528.14
501.32	1517.37
501.68	1497.01
502.03	1498.18
502.39	1486.47
502.75	1475.71
503.11	1451.13
503.47	1449.26
503.83	1426.32
504.19	1423.05
504.55	1407.36
504.91	1409.00
505.26	1398.94
505.62	1393.55
505.98	1383.96
506.34	1380.68
506.70	1376.00
507.06	1371.32
507.42	1362.89
507.78	1351.66
508.13	1347.45
508.49	1339.49
508.85	1331.06
509.21	1323.57
509.57	1314.91
509.93	1299.47
510.28	1296.66
510.64	1281.91
511.00	1280.04
511.36	1279.10
511.72	1276.06
512.07	1257.10
512.43	1261.31
512.79	1259.68
513.15	1256.40
513.51	1252.42
513.86	1258.74
514.22	1257.34
514.58	1253.59
514.94	1242.36
515.30	1253.59
515.65	1248.68
516.01	1245.87
516.37	1236.51
516.73	1238.38
517.08	1224.57
517.44	1218.72
517.80	1205.61
518.16	1208.42
518.51	1208.89
518.87	1207.72
519.23	1204.91
519.59	1204.67
519.94	1191.57
520.30	1178.69
520.66	1173.78
521.01	1171.44
521.37	1171.44
521.73	1172.14
522.09	1174.71
522.44	1174.95
522.80	1174.48
523.16	1172.14
523.51	1172.61
523.87	1174.95
524.23	1184.31
524.58	1179.63
524.94	1178.69
525.30	1177.06
525.65	1171.91
526.01	1163.48
526.37	1166.29
526.72	1160.67
527.08	1159.03
527.44	1157.63
527.79	1152.95
528.15	1145.46
528.51	1144.05
528.86	1143.59
529.22	1150.61
529.58	1150.84
529.93	1149.20
530.29	1153.18
530.65	1148.27
531.00	1140.07
531.36	1136.33
531.71	1149.44
532.07	1156.69
532.43	1157.86
532.78	1151.54
533.14	1155.52
533.49	1147.33
533.85	1148.73
534.21	1152.01
534.56	1160.20
534.92	1168.40
535.27	1169.33
535.63	1167.69
535.98	1175.18
536.34	1162.31
536.69	1159.27
537.05	1153.65
537.41	1143.12
537.76	1135.86
538.12	1137.97
538.47	1128.61
538.83	1130.48
539.18	1127.20
539.54	1125.10
539.89	1125.33
540.25	1126.97
540.60	1137.97
540.96	1144.99
541.31	1151.31
541.67	1153.65
542.02	1148.27
542.38	1143.35
542.73	1143.59
543.09	1147.80
543.44	1147.10
543.80	1144.76
544.15	1130.01
544.51	1131.88
544.86	1123.46
545.22	1115.97
545.57	1117.14
545.93	1121.58
546.28	1117.84
546.64	1121.82
546.99	1124.86
547.35	1132.82
547.70	1138.67
548.05	1142.18
548.41	1136.10
548.76	1142.42
549.12	1136.56
549.47	1133.76
549.83	1123.69
550.18	1114.09
550.53	1114.80
550.89	1114.56
551.24	1107.07
551.60	1108.01
551.95	1115.03
552.30	1115.97
552.66	1116.90
553.01	1117.84
553.37	1119.24
553.72	1121.35
554.07	1117.84
554.43	1120.41
554.78	1120.18
555.13	1117.84
555.49	1112.69
555.84	1112.69
556.19	1107.78
556.55	1110.82
556.90	1112.46
557.26	1113.39
557.61	1113.16
557.96	1108.01
558.32	1107.54
558.67	1116.90
559.02	1118.07
559.37	1116.90
559.73	1120.65
560.08	1115.27
560.43	1110.82
560.79	1117.84
561.14	1118.07
561.49	1123.46
561.85	1132.59
562.20	1125.56
562.55	1117.84
562.90	1116.67
563.26	1108.95
563.61	1105.20
563.96	1120.18
564.32	1116.44
564.67	1126.97
565.02	1123.46
565.37	1122.75
565.73	1103.56
566.08	1098.65
566.43	1093.50
566.78	1103.56
567.14	1107.31
567.49	1119.71
567.84	1125.33
568.19	1127.90
568.54	1124.16
568.90	1108.95
569.25	1096.78
569.60	1106.37
569.95	1093.50
570.31	1101.92
570.66	1116.90
571.01	1128.14
571.36	1119.01
571.71	1125.80
572.06	1117.61
572.42	1111.52
572.77	1107.31
573.12	1109.41
573.47	1099.82
573.82	1099.58
574.18	1099.12
574.53	1093.03
574.88	1088.58
575.23	1098.41
575.58	1093.97
575.93	1097.01
576.28	1100.99
576.64	1113.16
576.99	1111.29
577.34	1115.97
577.69	1110.58
578.04	1108.48
578.39	1091.63
578.74	1091.16
579.09	1087.88
579.44	1089.05
579.80	1092.09
580.15	1100.52
580.50	1098.88
580.85	1102.39
581.20	1107.07
581.55	1102.86
581.90	1106.14
582.25	1114.56
582.60	1118.07
582.95	1114.33
583.30	1115.73
583.65	1112.22
584.00	1099.12
584.35	1094.90
584.71	1099.82
585.06	1097.01
585.41	1092.80
585.76	1104.97
586.11	1097.95
586.46	1093.03
586.81	1092.80
587.16	1091.39
587.51	1087.18
587.86	1093.97
588.21	1097.95
588.56	1109.65
588.91	1113.63
589.26	1115.73
589.61	1121.82
589.96	1118.07
590.31	1111.29
590.66	1116.44
591.01	1116.90
591.36	1113.86
591.71	1113.39
592.06	1116.67
592.41	1114.33
592.76	1104.73
593.10	1098.65
593.45	1096.31
593.80	1094.90
594.15	1088.58
594.50	1091.39
594.85	1080.39
595.20	1089.29
595.55	1091.16
595.90	1091.39
596.25	1099.35
596.60	1111.75
596.95	1105.67
597.30	1093.97
597.64	1142.65
597.99	1139.84
598.34	1139.84
598.69	1143.35
599.04	1152.01
599.39	1103.56
599.74	1095.37
600.09	1105.44
600.44	1104.50
600.78	1109.65
601.13	1105.67
601.48	1112.92
601.83	1104.26
602.18	1111.29
602.53	1104.03
602.88	1111.29
603.22	1110.82
603.57	1106.61
603.92	1098.41
604.27	1099.82
604.62	1102.63
604.97	1093.97
605.31	1105.44
605.66	1104.26
606.01	1104.73
606.36	1094.67
606.71	1097.48
607.05	1093.26
607.40	1085.54
607.75	1087.18
608.10	1100.75
608.44	1105.90
608.79	1104.97
609.14	1115.97
609.49	1116.20
609.84	1100.52
610.18	1094.90
610.53	1100.99
610.88	1098.41
611.23	1096.54
611.57	1102.63
611.92	1105.44
612.27	1098.65
612.62	1104.26
612.96	1100.99
613.31	1101.69
613.66	1097.01
614.00	1083.43
614.35	1074.54
614.70	1077.58
615.05	1084.37
615.39	1098.18
615.74	1112.22
616.09	1121.82
616.43	1120.65
616.78	1121.58
617.13	1111.05
617.47	1112.22
617.82	1109.65
618.17	1116.44
618.51	1105.67
618.86	1103.33
619.21	1097.01
619.55	1095.60
619.90	1091.16
620.25	1098.65
620.59	1106.37
620.94	1110.35
621.29	1107.78
621.63	1102.39
621.98	1103.09
622.32	1098.41
622.67	1101.69
623.02	1097.71
623.36	1099.58
623.71	1093.73
624.05	1098.88
624.40	1091.86
624.75	1097.24
625.09	1101.46
625.44	1096.78
625.78	1090.46
626.13	1090.69
626.48	1081.33
626.82	1074.07
627.17	1079.69
627.51	1081.80
627.86	1079.92
628.20	1077.82
628.55	1083.20
628.89	1087.65
629.24	1092.33
629.58	1100.05
629.93	1116.44
630.28	1122.75
630.62	1126.27
630.97	1128.37
631.31	1122.99
631.66	1109.41
632.00	1095.60
632.35	1085.31
632.69	1084.84
633.04	1081.56
633.38	1085.54
633.73	1095.84
634.07	1104.50
634.42	1096.54
634.76	1107.31
635.11	1113.86
635.45	1102.86
635.79	1092.80
636.14	1092.09
636.48	1090.22
636.83	1093.03
637.17	1096.54
637.52	1099.12
637.86	1106.14
638.21	1102.86
638.55	1088.82
638.89	1095.37
639.24	1096.54
639.58	1093.03
639.93	1083.67
640.27	1085.07
640.61	1080.39
640.96	1079.92
641.30	1079.46
641.65	1081.33
641.99	1093.50
642.33	1094.67
642.68	1092.80
643.02	1097.48
643.37	1102.16
643.71	1093.26
644.05	1078.99
644.40	1073.60
644.74	1070.33
645.08	1080.86
645.43	1081.33
645.77	1092.56
646.11	1098.65
646.46	1102.16
646.80	1086.48
647.14	1094.67
647.49	1091.39
647.83	1091.86
648.17	1086.71
648.52	1095.84
648.86	1093.26
649.20	1096.07
649.55	1098.18
649.89	1102.86
650.23	1092.09
650.57	1083.67
650.92	1084.37
651.26	1084.14
651.60	1072.43
651.95	1081.33
652.29	1076.65
652.63	1071.97
652.97	1069.16
653.32	1078.52
653.66	1079.92
654.00	1090.22
654.34	1104.26
654.69	1112.46
655.03	1110.58
655.37	1112.92
655.71	1111.52
656.05	1107.54
656.40	1105.90
656.74	1105.90
657.08	1105.67
657.42	1106.37
657.76	1110.35
658.11	1115.27
658.45	1111.52
658.79	1115.27
659.13	1111.05
659.47	1100.75
659.82	1088.82
660.16	1091.63
660.50	1077.82
660.84	1074.31
661.18	1072.43
661.52	1075.01
661.87	1078.52
662.21	1085.54
662.55	1096.07
662.89	1105.44
663.23	1099.82
663.57	1090.92
663.91	1083.20
664.25	1081.33
664.60	1085.54
664.94	1094.20
665.28	1097.01
665.62	1098.18
665.96	1105.67
666.30	1091.16
666.64	1079.92
666.98	1079.92
667.32	1086.01
667.66	1078.28
668.01	1074.77
668.35	1083.20
668.69	1082.73
669.03	1084.84
669.37	1078.28
669.71	1093.26
670.05	1095.60
670.39	1091.16
670.73	1085.54
671.07	1088.12
671.41	1081.80
671.75	1078.75
672.09	1076.88
672.43	1083.20
672.77	1090.92
673.11	1096.54
673.45	1098.41
673.79	1110.35
674.13	1102.63
674.47	1101.69
674.81	1106.14
675.15	1097.71
675.49	1093.03
675.83	1090.22
676.17	1084.14
676.51	1071.97
676.85	1082.97
677.19	1084.60
677.53	1090.92
677.87	1098.65
678.21	1099.82
678.55	1098.65
678.89	1091.63
679.23	1095.60
679.57	1090.92
679.90	1085.54
680.24	1086.94
680.58	1091.16
680.92	1090.46
681.26	1092.56
681.60	1096.31
681.94	1093.03
682.28	1092.56
682.62	1092.80
682.96	1099.58
683.29	1099.12
683.63	1092.33
683.97	1094.67
684.31	1089.75
684.65	1083.43
684.99	1083.90
685.33	1100.05
685.67	1100.05
686.00	1107.31
686.34	1100.05
686.68	1099.35
687.02	1083.20
687.36	1081.33
687.70	1067.99
688.03	1061.20
688.37	1064.48
688.71	1059.79
689.05	1051.37
689.39	1059.79
689.72	1066.82
690.06	1061.67
690.40	1079.92
690.74	1092.33
691.08	1079.69
691.41	1083.43
691.75	1075.01
692.09	1070.56
692.43	1064.24
692.76	1070.56
693.10	1067.52
693.44	1082.73
693.78	1074.31
694.11	1085.77
694.45	1092.56
694.79	1086.94
695.13	1086.94
695.46	1099.82
695.80	1098.88
696.14	1092.33
696.48	1103.80
696.81	1097.95
697.15	1084.84
697.49	1078.52
697.82	1075.01
698.16	1074.07
698.50	1082.50
698.83	1091.63
699.17	1088.12
699.51	1100.75
699.84	1096.78
700.18	1102.16
700.52	1097.24
700.85	1096.78
701.19	1093.26
701.53	1093.97
701.86	1082.26
702.20	1083.43
702.54	1090.22
702.87	1085.77
703.21	1088.35
703.55	1088.58
703.88	1094.20
704.22	1082.73
704.55	1079.46
704.89	1072.20
705.23	1068.45
705.56	1056.52
705.90	1063.31
706.23	1066.82
706.57	1073.84
706.91	1081.09
707.24	1080.63
707.58	1085.31
707.91	1099.82
708.25	1091.39
708.58	1086.48
708.92	1094.20
709.26	1090.69
709.59	1072.43
709.93	1084.37
710.26	1081.56
710.60	1075.24
710.93	1072.67
711.27	1073.14
711.60	1055.11
711.94	1057.92
712.27	1056.05
712.61	1055.82
712.94	1060.96
713.28	1071.73
713.61	1075.48
713.95	1084.60
714.28	1084.14
714.62	1075.01
714.95	1076.18
715.29	1078.99
715.62	1070.56
715.96	1080.16
716.29	1096.07
716.63	1101.92
716.96	1096.54
717.29	1105.20
717.63	1104.73
717.96	1104.03
718.30	1095.14
718.63	1100.75
718.97	1094.43
719.30	1084.37
719.63	1075.24
719.97	1078.28
720.30	1078.05
720.64	1079.46
720.97	1082.50
721.30	1081.33
721.64	1081.80
721.97	1074.31
722.31	1074.77
722.64	1065.41
722.97	1064.24
723.31	1064.24
723.64	1060.73
723.97	1066.58
724.31	1086.71
724.64	1095.37
724.98	1097.24
725.31	1106.37
725.64	1096.78
725.98	1088.58
726.31	1079.22
726.64	1078.05
726.97	1078.99
727.31	1089.29
727.64	1089.52
727.97	1089.52
728.31	1087.65
728.64	1082.03
728.97	1074.77
729.31	1076.18
729.64	1082.97
729.97	1086.71
730.30	1090.92
730.64	1087.41
730.97	1086.24
731.30	1085.77
731.63	1082.97
731.97	1073.37
732.30	1073.84
732.63	1072.20
732.96	1063.31
733.30	1072.90
733.63	1075.01
733.96	1079.69
734.29	1080.63
734.63	1087.18
734.96	1079.22
735.29	1084.84
735.62	1079.46
735.95	1071.50
736.29	1077.58
736.62	1075.01
736.95	1070.56
737.28	1069.86
737.61	1072.43
737.94	1068.92
738.28	1072.43
738.61	1079.69
738.94	1090.69
739.27	1095.84
739.60	1097.01
739.93	1092.56
740.27	1089.52
740.60	1084.60
740.93	1089.05
741.26	1088.58
741.59	1089.29
741.92	1082.50
742.25	1079.69
742.58	1079.92
742.91	1085.31
743.25	1082.50
743.58	1085.54
743.91	1086.24
744.24	1076.65
744.57	1071.97
744.90	1069.39
745.23	1078.05
745.56	1080.16
745.89	1090.92
746.22	1089.75
746.55	1093.26
746.88	1089.75
747.21	1092.80
747.54	1082.50
747.87	1082.03
748.20	1079.69
748.53	1077.82
748.87	1068.92
749.20	1064.01
749.53	1057.69
749.86	1063.07
750.19	1060.96
750.52	1079.46
750.85	1081.09
751.18	1090.92
751.51	1078.75
751.84	1070.09
752.16	1060.50
752.49	1068.69
752.82	1067.99
753.15	1082.97
753.48	1091.86
753.81	1098.65
754.14	1106.37
754.47	1102.63
754.80	1097.01
755.13	1099.82
755.46	1090.92
755.79	1082.03
756.12	1077.58
756.45	1076.65
756.78	1067.75
757.11	1067.99
757.43	1064.24
757.76	1073.14
758.09	1071.03
758.42	1081.33
758.75	1076.18
759.08	1069.62
759.41	1059.09
759.74	1073.84
760.07	1068.22
760.39	1065.18
760.72	1072.90
761.05	1087.18
761.38	1078.28
761.71	1078.52
762.04	1087.18
762.36	1093.03
762.69	1085.31
763.02	1080.39
763.35	1085.07
763.68	1078.05
764.01	1070.33
