SpectraSuite Data File
++++++++++++++++++++++++++++++++++++
Date: Mon Aug 26 10:24:44 PDT 2019
User: corrico
Dark Spectrum Present: No
Reference Spectrum Present: No
Number of Sampled Component Spectra: 1
Spectrometers: USB2+H06089
Integration Time (usec): 10000 (USB2+H06089)
Spectra Averaged: 2 (USB2+H06089)
Boxcar Smoothing: 2 (USB2+H06089)
Correct for Electrical Dark: No (USB2+H06089)
Strobe/Lamp Enabled: No (USB2+H06089)
Correct for Detector Non-linearity: No (USB2+H06089)
Correct for Stray Light: No (USB2+H06089)
Number of Pixels in Processed Spectrum: 2048
>>>>>Begin Processed Spectral Data<<<<<
339.70	1020.47
340.07	1020.47
340.45	998.24
340.82	989.81
341.19	969.92
341.57	949.56
341.94	930.13
342.31	928.26
342.69	900.87
343.06	890.57
343.43	877.23
343.81	874.66
344.18	877.47
344.55	889.87
344.93	900.87
345.30	925.21
345.67	933.41
346.04	941.60
346.42	964.30
346.79	973.66
347.16	970.15
347.54	978.58
347.91	978.81
348.28	975.07
348.65	980.92
349.03	998.00
349.40	1016.73
349.77	1031.24
350.14	1043.18
350.52	1056.52
350.89	1064.01
351.26	1067.75
351.63	1063.07
352.01	1058.16
352.38	1055.58
352.75	1057.45
353.12	1065.41
353.50	1075.71
353.87	1089.52
354.24	1090.22
354.61	1093.73
354.98	1089.75
355.36	1095.60
355.73	1093.26
356.10	1101.22
356.47	1104.97
356.84	1098.18
357.22	1096.78
357.59	1104.73
357.96	1109.65
358.33	1107.31
358.70	1117.14
359.08	1105.90
359.45	1097.24
359.82	1087.88
360.19	1087.41
360.56	1082.03
360.94	1093.97
361.31	1101.22
361.68	1103.09
362.05	1100.29
362.42	1099.35
362.79	1100.29
363.16	1099.12
363.54	1097.71
363.91	1108.01
364.28	1109.41
364.65	1106.84
365.02	1108.01
365.39	1116.20
365.76	1110.12
366.14	1113.86
366.51	1112.69
366.88	1104.50
367.25	1092.33
367.62	1084.84
367.99	1086.71
368.36	1089.75
368.73	1086.24
369.10	1098.18
369.48	1107.31
369.85	1117.37
370.22	1110.12
370.59	1115.97
370.96	1110.35
371.33	1105.20
371.70	1092.09
372.07	1089.52
372.44	1084.84
372.81	1086.48
373.18	1079.92
373.55	1078.99
373.93	1085.54
374.30	1094.90
374.67	1094.20
375.04	1097.01
375.41	1101.22
375.78	1093.50
376.15	1089.75
376.52	1089.05
376.89	1090.92
377.26	1085.54
377.63	1091.63
378.00	1091.63
378.37	1092.09
378.74	1096.31
379.11	1096.07
379.48	1106.37
379.85	1110.58
380.22	1118.07
380.59	1113.63
380.96	1111.52
381.33	1108.71
381.70	1104.97
382.07	1100.05
382.44	1104.03
382.81	1108.01
383.18	1107.31
383.55	1106.84
383.92	1121.35
384.29	1125.33
384.66	1124.63
385.03	1125.33
385.40	1135.86
385.77	1128.61
386.14	1116.90
386.51	1116.44
386.88	1124.16
387.25	1117.37
387.62	1108.01
387.99	1121.82
388.36	1113.16
388.73	1099.58
389.10	1084.14
389.46	1092.56
389.83	1092.80
390.20	1108.48
390.57	1117.14
390.94	1130.48
391.31	1126.27
391.68	1120.88
392.05	1109.65
392.42	1108.24
392.79	1108.71
393.16	1109.88
393.53	1110.58
393.89	1119.01
394.26	1124.63
394.63	1131.41
395.00	1125.33
395.37	1127.44
395.74	1139.84
396.11	1151.08
396.48	1147.10
396.84	1170.50
397.21	1184.55
397.58	1181.74
397.95	1164.65
398.32	1176.12
398.69	1168.16
399.06	1163.25
399.42	1158.57
399.79	1176.59
400.16	1176.59
400.53	1178.93
400.90	1181.50
401.27	1193.21
401.64	1190.86
402.00	1202.80
402.37	1216.84
402.74	1225.74
403.11	1236.74
403.48	1242.59
403.84	1243.99
404.21	1254.06
404.58	1263.19
404.95	1274.66
405.32	1298.53
405.68	1324.04
406.05	1340.89
406.42	1372.96
406.79	1401.04
407.16	1417.43
407.52	1430.30
407.89	1458.39
408.26	1485.30
408.63	1505.90
408.99	1531.18
409.36	1585.48
409.73	1630.18
410.10	1682.61
410.47	1741.36
410.83	1801.98
411.20	1846.21
411.57	1910.11
411.94	1951.07
412.30	2008.18
412.67	2084.95
413.04	2172.02
413.40	2266.81
413.77	2365.11
414.14	2473.01
414.51	2590.74
414.87	2689.51
415.24	2801.86
415.61	2942.29
415.97	3082.95
416.34	3233.45
416.71	3415.08
417.08	3575.40
417.44	3749.30
417.81	3935.14
418.18	4138.30
418.54	4334.44
418.91	4574.11
419.28	4861.29
419.64	5136.07
420.01	5429.81
420.38	5775.74
420.74	6089.61
421.11	6441.39
421.48	6807.68
421.84	7201.36
422.21	7581.00
422.58	8016.80
422.94	8413.06
423.31	8862.67
423.68	9381.10
424.04	9933.23
424.41	10495.90
424.77	11068.63
425.14	11669.91
425.51	12243.34
425.87	12880.67
426.24	13571.60
426.61	14375.10
426.97	15269.42
427.34	16074.10
427.70	17011.48
428.07	17877.25
428.44	18739.50
428.80	19637.09
429.17	20649.84
429.53	21607.83
429.90	22754.69
430.27	23794.59
430.63	24845.02
431.00	26063.50
431.36	27328.80
431.73	28443.59
432.09	29667.93
432.46	30787.87
432.83	31893.31
433.19	32886.17
433.56	34207.40
433.92	35513.42
434.29	36837.93
434.65	38118.67
435.02	39368.04
435.38	40412.16
435.75	41222.69
436.11	42343.33
436.48	43269.95
436.84	44153.97
437.21	44956.31
437.57	45848.99
437.94	46482.10
438.30	47188.94
438.67	47698.01
439.03	48063.37
439.40	48335.57
439.76	48241.72
440.13	47929.02
440.49	47795.61
440.86	47335.46
441.22	46876.95
441.59	46359.69
441.95	45825.58
442.32	44985.10
442.68	44356.66
443.05	43523.43
443.41	42720.63
443.78	41698.28
444.14	40771.66
444.51	39612.16
444.87	38761.38
445.24	37607.03
445.60	36642.02
445.96	35581.06
446.33	34755.32
446.69	33639.58
447.06	32802.84
447.42	31887.69
447.79	30942.82
448.15	30046.39
448.51	29197.95
448.88	28487.13
449.24	27601.24
449.61	26925.29
449.97	26176.32
450.33	25495.22
450.70	24692.65
451.06	24215.88
451.43	23557.96
451.79	23057.32
452.15	22565.34
452.52	22033.57
452.88	21437.20
453.24	20954.82
453.61	20453.71
453.97	19819.19
454.34	19286.48
454.70	18760.80
455.06	18198.37
455.43	17499.95
455.79	16844.60
456.15	16292.94
456.52	15652.33
456.88	15138.82
457.24	14685.93
457.61	14299.97
457.97	13822.03
458.33	13400.97
458.70	12909.93
459.06	12391.03
459.42	11977.93
459.79	11523.16
460.15	11158.04
460.51	10800.87
460.88	10445.81
461.24	10095.67
461.60	9839.14
461.96	9530.90
462.33	9241.37
462.69	8956.29
463.05	8661.62
463.42	8376.08
463.78	8117.21
464.14	7883.86
464.50	7708.09
464.87	7498.14
465.23	7251.45
465.59	7066.08
465.95	6872.52
466.32	6661.16
466.68	6467.84
467.04	6329.28
467.40	6171.06
467.77	6010.03
468.13	5864.68
468.49	5757.95
468.85	5630.16
469.22	5489.96
469.58	5376.91
469.94	5246.31
470.30	5104.71
470.66	4969.66
471.03	4874.87
471.39	4787.57
471.75	4706.58
472.11	4624.66
472.47	4549.77
472.84	4445.15
473.20	4324.14
473.56	4226.54
473.92	4107.64
474.28	4033.45
474.65	3949.19
475.01	3874.52
475.37	3805.24
475.73	3751.18
476.09	3681.19
476.45	3609.11
476.81	3524.14
477.18	3445.03
477.54	3372.71
477.90	3301.79
478.26	3240.71
478.62	3199.51
478.98	3144.04
479.34	3106.59
479.71	3058.85
480.07	3035.91
480.43	2998.46
480.79	2961.01
481.15	2918.88
481.51	2877.22
481.87	2821.98
482.23	2775.41
482.59	2736.55
482.96	2690.21
483.32	2654.40
483.68	2600.80
484.04	2564.52
484.40	2534.33
484.76	2492.44
485.12	2447.97
485.48	2415.20
485.84	2390.62
486.20	2340.07
486.56	2304.26
486.92	2272.66
487.28	2250.89
487.64	2215.32
488.00	2185.83
488.37	2158.68
488.73	2124.04
489.09	2086.35
489.45	2069.97
489.81	2042.59
490.17	2020.35
490.53	2005.37
490.89	1993.43
491.25	1958.56
491.61	1944.05
491.97	1922.98
492.33	1909.64
492.69	1888.58
493.05	1874.07
493.41	1841.07
493.77	1818.60
494.13	1788.17
494.49	1773.19
494.85	1737.61
495.21	1728.72
495.57	1705.78
495.93	1680.74
496.29	1646.10
496.64	1639.08
497.00	1619.18
497.36	1599.99
497.72	1580.10
498.08	1556.69
498.44	1542.41
498.80	1531.41
499.16	1528.37
499.52	1528.60
499.88	1527.43
500.24	1512.45
500.60	1504.50
500.96	1490.69
501.32	1467.52
501.68	1454.17
502.03	1446.92
502.39	1433.34
502.75	1434.05
503.11	1434.98
503.47	1423.28
503.83	1405.26
504.19	1396.83
504.55	1380.68
504.91	1374.60
505.26	1376.47
505.62	1370.85
505.98	1362.66
506.34	1356.81
506.70	1349.55
507.06	1339.72
507.42	1335.04
507.78	1334.34
508.13	1323.57
508.49	1304.61
508.85	1304.61
509.21	1302.04
509.57	1301.10
509.93	1295.72
510.28	1294.78
510.64	1281.68
511.00	1279.34
511.36	1265.29
511.72	1251.72
512.07	1255.93
512.43	1252.89
512.79	1242.82
513.15	1239.08
513.51	1236.51
513.86	1228.08
514.22	1230.42
514.58	1234.16
514.94	1233.70
515.30	1235.33
515.65	1235.57
516.01	1221.06
516.37	1216.38
516.73	1209.35
517.08	1218.25
517.44	1214.04
517.80	1217.55
518.16	1214.97
518.51	1217.55
518.87	1205.61
519.23	1203.97
519.59	1200.69
519.94	1201.63
520.30	1195.31
520.66	1196.01
521.01	1189.46
521.37	1195.08
521.73	1183.14
522.09	1174.01
522.44	1169.10
522.80	1159.74
523.16	1151.78
523.51	1150.14
523.87	1159.03
524.23	1160.67
524.58	1172.84
524.94	1171.67
525.30	1183.14
525.65	1186.65
526.01	1179.40
526.37	1174.95
526.72	1178.23
527.08	1171.91
527.44	1168.63
527.79	1168.63
528.15	1159.03
528.51	1150.37
528.86	1137.50
529.22	1138.67
529.58	1145.46
529.93	1145.93
530.29	1150.37
530.65	1163.25
531.00	1156.22
531.36	1150.37
531.71	1160.67
532.07	1156.93
532.43	1147.56
532.78	1146.39
533.14	1147.80
533.49	1133.05
533.85	1136.33
534.21	1140.07
534.56	1148.50
534.92	1150.14
535.27	1149.20
535.63	1155.76
535.98	1149.44
536.34	1135.16
536.69	1122.05
537.05	1132.35
537.41	1123.46
537.76	1129.07
538.12	1137.73
538.47	1141.48
538.83	1135.39
539.18	1132.59
539.54	1121.82
539.89	1114.80
540.25	1122.05
540.60	1122.75
540.96	1122.52
541.31	1131.88
541.67	1136.33
542.02	1135.39
542.38	1136.56
542.73	1142.18
543.09	1136.80
543.44	1132.59
543.80	1128.14
544.15	1130.71
544.51	1124.86
544.86	1127.44
545.22	1123.46
545.57	1122.99
545.93	1114.56
546.28	1114.80
546.64	1115.50
546.99	1115.73
547.35	1107.07
547.70	1105.90
548.05	1091.63
548.41	1085.31
548.76	1098.41
549.12	1103.33
549.47	1104.73
549.83	1123.93
550.18	1126.03
550.53	1117.84
550.89	1118.78
551.24	1116.44
551.60	1101.92
551.95	1108.24
552.30	1100.52
552.66	1105.20
553.01	1116.67
553.37	1123.69
553.72	1125.56
554.07	1130.01
554.43	1126.03
554.78	1126.27
555.13	1130.01
555.49	1126.03
555.84	1125.33
556.19	1133.76
556.55	1128.84
556.90	1126.97
557.26	1120.65
557.61	1126.03
557.96	1113.39
558.32	1121.82
558.67	1122.52
559.02	1124.86
559.37	1116.67
559.73	1121.82
560.08	1110.35
560.43	1107.54
560.79	1109.65
561.14	1119.95
561.49	1129.78
561.85	1125.80
562.20	1124.16
562.55	1129.31
562.90	1121.58
563.26	1113.16
563.61	1117.84
563.96	1120.41
564.32	1112.46
564.67	1110.35
565.02	1118.31
565.37	1113.39
565.73	1103.56
566.08	1115.50
566.43	1117.84
566.78	1106.84
567.14	1108.95
567.49	1116.90
567.84	1103.09
568.19	1097.48
568.54	1096.31
568.90	1094.90
569.25	1096.54
569.60	1098.88
569.95	1108.01
570.31	1108.71
570.66	1114.33
571.01	1111.75
571.36	1106.14
571.71	1103.09
572.06	1098.18
572.42	1099.58
572.77	1095.60
573.12	1093.26
573.47	1082.03
573.82	1083.20
574.18	1081.56
574.53	1083.43
574.88	1094.90
575.23	1100.99
575.58	1102.86
575.93	1101.22
576.28	1096.78
576.64	1096.31
576.99	1097.71
577.34	1110.35
577.69	1107.07
578.04	1114.56
578.39	1109.18
578.74	1100.99
579.09	1084.14
579.44	1099.82
579.80	1104.26
580.15	1105.20
580.50	1109.65
580.85	1114.33
581.20	1093.73
581.55	1089.52
581.90	1098.88
582.25	1102.16
582.60	1111.99
582.95	1120.65
583.30	1122.05
583.65	1112.46
584.00	1114.33
584.35	1116.20
584.71	1117.37
585.06	1120.41
585.41	1122.75
585.76	1130.71
586.11	1130.48
586.46	1120.88
586.81	1114.10
587.16	1109.18
587.51	1100.52
587.86	1095.14
588.21	1099.58
588.56	1097.71
588.91	1099.82
589.26	1104.97
589.61	1095.14
589.96	1102.16
590.31	1099.82
590.66	1099.35
591.01	1100.05
591.36	1104.03
591.71	1091.39
592.06	1097.24
592.41	1099.35
592.76	1097.48
593.10	1095.84
593.45	1108.24
593.80	1114.33
594.15	1113.63
594.50	1100.75
594.85	1101.22
595.20	1093.26
595.55	1083.43
595.90	1090.69
596.25	1097.01
596.60	1094.43
596.95	1104.03
597.30	1114.33
597.64	1164.18
597.99	1161.14
598.34	1172.37
598.69	1170.03
599.04	1158.57
599.39	1104.26
599.74	1107.07
600.09	1102.86
600.44	1106.84
600.78	1109.41
601.13	1103.09
601.48	1098.18
601.83	1094.67
602.18	1083.90
602.53	1087.18
602.88	1096.31
603.22	1103.56
603.57	1105.44
603.92	1108.95
604.27	1104.73
604.62	1095.60
604.97	1089.99
605.31	1092.09
605.66	1090.92
606.01	1090.46
606.36	1085.77
606.71	1090.92
607.05	1080.16
607.40	1086.24
607.75	1086.01
608.10	1089.05
608.44	1090.22
608.79	1094.67
609.14	1090.92
609.49	1090.92
609.84	1097.95
610.18	1106.37
610.53	1118.54
610.88	1110.82
611.23	1110.58
611.57	1108.95
611.92	1097.48
612.27	1088.58
612.62	1105.44
612.96	1126.27
613.31	1126.27
613.66	1133.52
614.00	1136.33
614.35	1124.63
614.70	1112.69
615.05	1111.29
615.39	1103.56
615.74	1105.44
616.09	1097.24
616.43	1084.84
616.78	1096.78
617.13	1097.24
617.47	1094.43
617.82	1098.18
618.17	1103.56
618.51	1101.92
618.86	1094.20
619.21	1093.97
619.55	1100.99
619.90	1104.03
620.25	1094.90
620.59	1108.95
620.94	1111.75
621.29	1118.54
621.63	1121.35
621.98	1118.54
622.32	1111.29
622.67	1118.31
623.02	1102.16
623.36	1101.69
623.71	1109.18
624.05	1116.20
624.40	1107.78
624.75	1109.18
625.09	1109.18
625.44	1097.01
625.78	1082.50
626.13	1082.03
626.48	1078.28
626.82	1074.07
627.17	1081.56
627.51	1089.05
627.86	1083.67
628.20	1101.46
628.55	1101.22
628.89	1098.88
629.24	1096.78
629.58	1105.67
629.93	1098.88
630.28	1100.52
630.62	1101.22
630.97	1110.35
631.31	1111.05
631.66	1103.33
632.00	1104.03
632.35	1104.03
632.69	1104.03
633.04	1102.86
633.38	1117.61
633.73	1112.92
634.07	1119.95
634.42	1117.14
634.76	1113.16
635.11	1100.75
635.45	1095.37
635.79	1087.88
636.14	1082.73
636.48	1074.54
636.83	1080.16
637.17	1075.24
637.52	1078.75
637.86	1086.94
638.21	1093.03
638.55	1090.69
638.89	1114.80
639.24	1113.16
639.58	1110.12
639.93	1106.61
640.27	1109.65
640.61	1097.71
640.96	1097.01
641.30	1099.58
641.65	1108.24
641.99	1101.92
642.33	1103.33
642.68	1112.22
643.02	1109.41
643.37	1098.41
643.71	1097.95
644.05	1092.80
644.40	1082.97
644.74	1078.52
645.08	1078.52
645.43	1081.56
645.77	1085.54
646.11	1082.50
646.46	1079.46
646.80	1079.69
647.14	1075.94
647.49	1083.90
647.83	1089.99
648.17	1092.80
648.52	1093.50
648.86	1100.99
649.20	1094.20
649.55	1094.43
649.89	1098.88
650.23	1098.18
650.57	1096.31
650.92	1095.14
651.26	1089.52
651.60	1089.99
651.95	1095.37
652.29	1098.65
652.63	1094.43
652.97	1090.69
653.32	1086.48
653.66	1081.56
654.00	1075.71
654.34	1080.63
654.69	1086.24
655.03	1083.20
655.37	1088.58
655.71	1084.14
656.05	1089.29
656.40	1085.07
656.74	1085.77
657.08	1085.54
657.42	1084.37
657.76	1082.26
658.11	1086.48
658.45	1081.33
658.79	1076.41
659.13	1083.43
659.47	1069.86
659.82	1068.92
660.16	1081.33
660.50	1081.09
660.84	1079.92
661.18	1090.92
661.52	1090.92
661.87	1083.20
662.21	1094.43
662.55	1097.01
662.89	1102.63
663.23	1104.03
663.57	1102.86
663.91	1108.48
664.25	1108.24
664.60	1098.88
664.94	1100.99
665.28	1102.63
665.62	1082.50
665.96	1074.77
666.30	1072.43
666.64	1072.43
666.98	1076.65
667.32	1088.58
667.66	1094.43
668.01	1100.29
668.35	1093.03
668.69	1084.84
669.03	1073.60
669.37	1078.99
669.71	1079.92
670.05	1086.71
670.39	1099.58
670.73	1111.75
671.07	1111.05
671.41	1105.44
671.75	1104.50
672.09	1111.29
672.43	1112.22
672.77	1102.39
673.11	1104.26
673.45	1098.18
673.79	1077.58
674.13	1071.50
674.47	1083.90
674.81	1087.65
675.15	1090.69
675.49	1100.05
675.83	1105.67
676.17	1099.12
676.51	1096.54
676.85	1094.90
677.19	1087.65
677.53	1084.60
677.87	1086.48
678.21	1086.48
678.55	1082.03
678.89	1084.14
679.23	1080.16
679.57	1081.33
679.90	1071.50
680.24	1076.65
680.58	1082.73
680.92	1076.41
681.26	1056.75
681.60	1068.22
681.94	1071.50
682.28	1064.48
682.62	1071.50
682.96	1093.26
683.29	1094.20
683.63	1094.20
683.97	1099.82
684.31	1103.09
684.65	1096.31
684.99	1094.90
685.33	1101.22
685.67	1095.60
686.00	1097.48
686.34	1089.52
686.68	1091.16
687.02	1083.43
687.36	1083.67
687.70	1081.33
688.03	1088.35
688.37	1084.84
688.71	1082.26
689.05	1093.73
689.39	1090.46
689.72	1081.33
690.06	1078.52
690.40	1089.99
690.74	1081.56
691.08	1084.37
691.41	1093.26
691.75	1100.05
692.09	1103.09
692.43	1100.75
692.76	1097.24
693.10	1095.84
693.44	1092.80
693.78	1081.80
694.11	1083.67
694.45	1084.60
694.79	1084.14
695.13	1097.48
695.46	1097.01
695.80	1098.41
696.14	1096.78
696.48	1102.63
696.81	1091.39
697.15	1101.69
697.49	1097.48
697.82	1098.88
698.16	1099.12
698.50	1094.67
698.83	1087.41
699.17	1094.90
699.51	1089.99
699.84	1082.73
700.18	1080.39
700.52	1070.09
700.85	1060.03
701.19	1071.50
701.53	1081.56
701.86	1081.33
702.20	1090.92
702.54	1095.37
702.87	1077.58
703.21	1068.92
703.55	1064.71
703.88	1059.79
704.22	1056.99
704.55	1065.18
704.89	1064.24
705.23	1073.37
705.56	1076.18
705.90	1078.52
706.23	1071.03
706.57	1077.82
706.91	1077.58
707.24	1080.39
707.58	1080.39
707.91	1095.84
708.25	1090.46
708.58	1081.80
708.92	1071.26
709.26	1067.52
709.59	1062.60
709.93	1068.69
710.26	1072.67
710.60	1075.71
710.93	1076.88
711.27	1077.35
711.60	1072.67
711.94	1075.48
712.27	1083.67
712.61	1081.80
712.94	1080.16
713.28	1071.50
713.61	1076.18
713.95	1082.50
714.28	1090.92
714.62	1090.69
714.95	1101.46
715.29	1092.56
715.62	1082.03
715.96	1075.48
716.29	1078.28
716.63	1073.37
716.96	1078.75
717.29	1079.92
717.63	1083.67
717.96	1088.82
718.30	1095.84
718.63	1101.92
718.97	1100.99
719.30	1115.97
719.63	1102.86
719.97	1102.16
720.30	1094.43
720.64	1093.03
720.97	1084.14
721.30	1083.20
721.64	1077.82
721.97	1071.26
722.31	1070.33
722.64	1067.75
722.97	1079.92
723.31	1074.31
723.64	1082.50
723.97	1083.90
724.31	1086.71
724.64	1086.01
724.98	1097.01
725.31	1097.71
725.64	1095.60
725.98	1097.95
726.31	1094.43
726.64	1100.29
726.97	1103.09
727.31	1105.20
727.64	1095.84
727.97	1097.24
728.31	1095.37
728.64	1093.73
728.97	1097.95
729.31	1100.75
729.64	1111.05
729.97	1101.22
730.30	1100.52
730.64	1096.07
730.97	1097.24
731.30	1088.12
731.63	1101.22
731.97	1098.88
732.30	1095.60
732.63	1087.41
732.96	1080.86
733.30	1065.41
733.63	1067.99
733.96	1066.35
734.29	1077.11
734.63	1094.20
734.96	1106.61
735.29	1103.80
735.62	1109.41
735.95	1100.29
736.29	1089.99
736.62	1082.50
736.95	1079.92
737.28	1082.03
737.61	1086.94
737.94	1085.54
738.28	1083.20
738.61	1093.73
738.94	1091.63
739.27	1094.90
739.60	1088.82
739.93	1087.65
740.27	1078.52
740.60	1076.88
740.93	1064.01
741.26	1067.99
741.59	1067.52
741.92	1065.18
742.25	1068.69
742.58	1070.33
742.91	1069.86
743.25	1062.60
743.58	1062.14
743.91	1063.77
744.24	1067.28
744.57	1062.60
744.90	1071.73
745.23	1080.86
745.56	1080.39
745.89	1077.11
746.22	1093.26
746.55	1093.50
746.88	1095.37
747.21	1085.07
747.54	1095.84
747.87	1083.20
748.20	1078.52
748.53	1076.88
748.87	1083.43
749.20	1082.26
749.53	1082.73
749.86	1098.88
750.19	1093.03
750.52	1085.77
750.85	1082.03
751.18	1076.88
751.51	1068.45
751.84	1062.14
752.16	1069.39
752.49	1066.82
752.82	1071.50
753.15	1072.67
753.48	1077.11
753.81	1088.35
754.14	1089.52
754.47	1091.63
754.80	1088.82
755.13	1093.26
755.46	1080.39
755.79	1086.71
756.12	1089.52
756.45	1092.80
756.78	1087.41
757.11	1093.03
757.43	1089.99
757.76	1089.75
758.09	1085.07
758.42	1091.63
758.75	1093.03
759.08	1093.26
759.41	1094.43
759.74	1095.37
760.07	1091.39
760.39	1085.54
760.72	1076.88
761.05	1077.58
761.38	1074.31
761.71	1084.14
762.04	1081.80
762.36	1094.43
762.69	1087.88
763.02	1099.12
763.35	1088.82
763.68	1096.31
764.01	1092.33
764.33	1088.82
