SpectraSuite Data File
++++++++++++++++++++++++++++++++++++
Date: Mon Aug 26 10:24:44 PDT 2019
User: corrico
Dark Spectrum Present: No
Reference Spectrum Present: No
Number of Sampled Component Spectra: 1
Spectrometers: USB2+H06089
Integration Time (usec): 10000 (USB2+H06089)
Spectra Averaged: 2 (USB2+H06089)
Boxcar Smoothing: 2 (USB2+H06089)
Correct for Electrical Dark: No (USB2+H06089)
Strobe/Lamp Enabled: No (USB2+H06089)
Correct for Detector Non-linearity: No (USB2+H06089)
Correct for Stray Light: No (USB2+H06089)
Number of Pixels in Processed Spectrum: 2048
>>>>>Begin Processed Spectral Data<<<<<
339.70	970.15
340.07	970.15
340.45	950.73
340.82	934.11
341.19	921.00
341.57	914.45
341.94	911.40
342.31	909.53
342.69	907.43
343.06	900.64
343.43	889.64
343.81	892.91
344.18	892.21
344.55	899.70
344.93	903.21
345.30	915.85
345.67	913.28
346.04	915.62
346.42	928.26
346.79	937.62
347.16	940.43
347.54	967.11
347.91	981.15
348.28	990.28
348.65	1011.11
349.03	1019.77
349.40	1026.56
349.77	1039.67
350.14	1050.43
350.52	1053.71
350.89	1064.01
351.26	1056.05
351.63	1053.24
352.01	1061.20
352.38	1073.84
352.75	1077.58
353.12	1093.73
353.50	1110.58
353.87	1112.22
354.24	1102.39
354.61	1104.03
354.98	1104.73
355.36	1095.14
355.73	1088.35
356.10	1094.67
356.47	1098.88
356.84	1094.20
357.22	1104.26
357.59	1108.24
357.96	1109.18
358.33	1105.44
358.70	1098.41
359.08	1100.99
359.45	1104.73
359.82	1107.54
360.19	1106.37
360.56	1099.35
360.94	1100.29
361.31	1093.50
361.68	1084.60
362.05	1094.90
362.42	1109.65
362.79	1100.52
363.16	1097.71
363.54	1093.26
363.91	1083.43
364.28	1085.31
364.65	1082.50
365.02	1090.69
365.39	1096.31
365.76	1098.65
366.14	1096.78
366.51	1094.20
366.88	1089.99
367.25	1093.97
367.62	1100.29
367.99	1095.60
368.36	1106.84
368.73	1105.44
369.10	1099.82
369.48	1093.50
369.85	1082.50
370.22	1073.84
370.59	1075.01
370.96	1074.31
371.33	1077.11
371.70	1086.71
372.07	1093.50
372.44	1090.69
372.81	1089.52
373.18	1091.16
373.55	1093.97
373.93	1082.50
374.30	1085.77
374.67	1092.80
375.04	1097.01
375.41	1099.12
375.78	1112.46
376.15	1102.39
376.52	1101.22
376.89	1098.18
377.26	1101.69
377.63	1088.12
378.00	1095.37
378.37	1106.61
378.74	1104.03
379.11	1100.05
379.48	1095.84
379.85	1098.41
380.22	1094.20
380.59	1098.88
380.96	1105.67
381.33	1115.50
381.70	1117.37
382.07	1110.35
382.44	1107.54
382.81	1094.20
383.18	1095.14
383.55	1100.52
383.92	1108.48
384.29	1114.80
384.66	1125.80
385.03	1132.82
385.40	1126.27
385.77	1129.07
386.14	1121.82
386.51	1132.59
386.88	1122.75
387.25	1126.50
387.62	1116.20
387.99	1108.95
388.36	1106.37
388.73	1114.33
389.10	1115.03
389.46	1120.41
389.83	1121.12
390.20	1115.97
390.57	1124.86
390.94	1127.90
391.31	1124.16
391.68	1140.78
392.05	1146.16
392.42	1143.82
392.79	1144.29
393.16	1133.52
393.53	1123.46
393.89	1120.65
394.26	1121.12
394.63	1118.31
395.00	1137.73
395.37	1140.78
395.74	1140.78
396.11	1133.52
396.48	1125.80
396.84	1128.84
397.21	1131.65
397.58	1138.20
397.95	1144.76
398.32	1167.93
398.69	1169.80
399.06	1174.71
399.42	1172.37
399.79	1169.57
400.16	1161.61
400.53	1164.18
400.90	1171.91
401.27	1176.59
401.64	1192.50
402.00	1208.65
402.37	1216.14
402.74	1221.53
403.11	1219.89
403.48	1236.27
403.84	1249.38
404.21	1260.38
404.58	1273.02
404.95	1304.15
405.32	1318.42
405.68	1325.21
406.05	1348.62
406.42	1373.19
406.79	1395.19
407.16	1410.17
407.52	1444.34
407.89	1472.67
408.26	1499.82
408.63	1528.14
408.99	1578.69
409.36	1617.54
409.73	1661.31
410.10	1685.65
410.47	1736.68
410.83	1779.74
411.20	1830.77
411.57	1875.00
411.94	1966.99
412.30	2039.78
412.67	2132.93
413.04	2215.32
413.40	2320.41
413.77	2407.24
414.14	2512.33
414.51	2621.40
414.87	2738.89
415.24	2862.94
415.61	2994.48
415.97	3126.72
416.34	3261.30
416.71	3430.06
417.08	3614.26
417.44	3801.50
417.81	4019.64
418.18	4242.46
418.54	4468.55
418.91	4715.48
419.28	4989.79
419.64	5246.78
420.01	5530.22
420.38	5827.23
420.74	6139.69
421.11	6526.35
421.48	6895.45
421.84	7291.94
422.21	7708.09
422.58	8164.02
422.94	8581.11
423.31	9066.07
423.68	9606.49
424.04	10204.03
424.41	10765.06
424.77	11334.04
425.14	11906.77
425.51	12455.86
425.87	13096.47
426.24	13766.80
426.61	14564.92
426.97	15513.07
427.34	16388.43
427.70	17328.39
428.07	18281.92
428.44	19166.88
428.80	20079.46
429.17	21146.04
429.53	22115.02
429.90	23263.99
430.27	24299.21
430.63	25348.24
431.00	26514.99
431.36	27791.52
431.73	28870.98
432.09	30194.32
432.46	31504.55
432.83	32726.54
433.19	33772.53
433.56	35106.16
433.92	36478.42
434.29	37714.69
434.65	38951.43
435.02	40181.15
435.38	41290.56
435.75	42087.28
436.11	43159.71
436.48	44077.20
436.84	45003.82
437.21	45858.58
437.57	46838.80
437.94	47588.01
438.30	48274.72
438.67	48760.85
439.03	49037.73
439.40	49197.59
439.76	48959.56
440.13	48739.55
440.49	48648.74
440.86	48344.94
441.22	47962.26
441.59	47541.90
441.95	47019.02
442.32	46204.75
442.68	45442.44
443.05	44575.50
443.41	43708.80
443.78	42674.52
444.14	41748.37
444.51	40573.89
444.87	39644.46
445.24	38514.92
445.60	37490.47
445.96	36355.54
446.33	35596.04
446.69	34448.47
447.06	33589.03
447.42	32626.60
447.79	31614.79
448.15	30653.76
448.51	29785.19
448.88	29033.64
449.24	28151.03
449.61	27586.49
449.97	26848.29
450.33	26165.08
450.70	25357.83
451.06	24794.23
451.43	24068.90
451.79	23533.15
452.15	23022.45
452.52	22503.55
452.88	22004.55
453.24	21487.29
453.61	20906.37
453.97	20318.89
454.34	19718.31
454.70	19182.80
455.06	18668.82
455.43	18058.64
455.79	17391.35
456.15	16825.88
456.52	16187.61
456.88	15641.33
457.24	15120.80
457.61	14665.80
457.97	14193.71
458.33	13718.82
458.70	13194.30
459.06	12686.87
459.42	12286.17
459.79	11839.13
460.15	11462.31
460.51	11057.39
460.88	10679.16
461.24	10287.12
461.60	9991.51
461.96	9657.05
462.33	9387.42
462.69	9076.13
463.05	8803.22
463.42	8539.44
463.78	8275.20
464.14	8024.29
464.50	7873.56
464.87	7651.45
465.23	7416.22
465.59	7205.81
465.95	6989.07
466.32	6769.77
466.68	6582.76
467.04	6432.49
467.40	6271.47
467.77	6150.93
468.13	5988.49
468.49	5855.08
468.85	5701.78
469.22	5602.07
469.58	5466.32
469.94	5353.27
470.30	5222.91
470.66	5135.37
471.03	4991.89
471.39	4899.68
471.75	4788.74
472.11	4718.05
472.47	4604.54
472.84	4526.83
473.20	4404.19
473.56	4318.99
473.92	4195.88
474.28	4107.87
474.65	4014.72
475.01	3937.02
475.37	3855.56
475.73	3776.45
476.09	3698.28
476.45	3656.85
476.81	3584.30
477.18	3526.72
477.54	3473.82
477.90	3410.63
478.26	3339.24
478.62	3278.39
478.98	3234.62
479.34	3196.24
479.71	3149.89
480.07	3105.19
480.43	3064.46
480.79	2991.44
481.15	2916.07
481.51	2867.39
481.87	2814.26
482.23	2770.73
482.59	2737.26
482.96	2712.91
483.32	2666.57
483.68	2626.55
484.04	2593.31
484.40	2572.72
484.76	2530.59
485.12	2505.08
485.48	2472.54
485.84	2451.24
486.20	2403.03
486.56	2367.22
486.92	2331.41
487.28	2284.36
487.64	2229.59
488.00	2194.95
488.37	2182.78
488.73	2149.08
489.09	2133.63
489.45	2116.31
489.81	2087.52
490.17	2058.03
490.53	2030.41
490.89	2006.78
491.25	1980.33
491.61	1952.24
491.97	1922.98
492.33	1904.49
492.69	1876.17
493.05	1866.81
493.41	1844.34
493.77	1815.79
494.13	1790.04
494.49	1771.32
494.85	1748.85
495.21	1727.78
495.57	1711.40
495.93	1699.23
496.29	1681.21
496.64	1659.67
497.00	1638.38
497.36	1624.10
497.72	1609.12
498.08	1600.22
498.44	1587.35
498.80	1585.48
499.16	1563.71
499.52	1546.63
499.88	1527.43
500.24	1520.41
500.60	1497.47
500.96	1485.07
501.32	1477.58
501.68	1461.66
502.03	1444.11
502.39	1452.07
502.75	1443.17
503.11	1434.98
503.47	1422.11
503.83	1406.90
504.19	1380.21
504.55	1367.81
504.91	1359.38
505.26	1368.28
505.62	1361.26
505.98	1363.83
506.34	1364.77
506.70	1363.60
507.06	1350.26
507.42	1335.28
507.78	1327.32
508.13	1317.02
508.49	1302.27
508.85	1295.02
509.21	1294.78
509.57	1289.40
509.93	1288.23
510.28	1284.02
510.64	1274.19
511.00	1275.12
511.36	1260.38
511.72	1253.82
512.07	1235.57
512.43	1230.89
512.79	1229.72
513.15	1233.70
513.51	1235.33
513.86	1247.51
514.22	1235.33
514.58	1225.04
514.94	1221.53
515.30	1211.46
515.65	1209.59
516.01	1216.84
516.37	1219.89
516.73	1222.46
517.08	1208.89
517.44	1201.16
517.80	1199.29
518.16	1187.82
518.51	1181.74
518.87	1197.42
519.23	1198.35
519.59	1194.61
519.94	1199.06
520.30	1199.99
520.66	1196.95
521.01	1189.23
521.37	1192.74
521.73	1193.91
522.09	1184.55
522.44	1182.44
522.80	1185.95
523.16	1184.08
523.51	1172.37
523.87	1177.76
524.23	1164.42
524.58	1148.73
524.94	1150.37
525.30	1155.99
525.65	1159.27
526.01	1163.71
526.37	1172.37
526.72	1163.95
527.08	1157.86
527.44	1147.10
527.79	1157.86
528.15	1159.97
528.51	1157.63
528.86	1165.82
529.22	1168.63
529.58	1157.86
529.93	1150.61
530.29	1145.69
530.65	1141.95
531.00	1143.35
531.36	1144.99
531.71	1143.12
532.07	1152.95
532.43	1145.22
532.78	1134.46
533.14	1135.86
533.49	1130.01
533.85	1122.75
534.21	1130.95
534.56	1145.22
534.92	1138.67
535.27	1149.91
535.63	1151.78
535.98	1144.99
536.34	1133.29
536.69	1134.69
537.05	1130.24
537.41	1126.97
537.76	1132.12
538.12	1141.25
538.47	1143.82
538.83	1137.73
539.18	1135.39
539.54	1112.69
539.89	1104.73
540.25	1106.37
540.60	1112.22
540.96	1125.10
541.31	1143.59
541.67	1141.95
542.02	1134.46
542.38	1129.31
542.73	1123.93
543.09	1111.75
543.44	1110.35
543.80	1125.80
544.15	1133.05
544.51	1131.88
544.86	1141.25
545.22	1137.73
545.57	1121.12
545.93	1129.07
546.28	1126.03
546.64	1115.97
546.99	1119.01
547.35	1117.61
547.70	1100.52
548.05	1094.43
548.41	1099.58
548.76	1103.80
549.12	1112.69
549.47	1121.82
549.83	1130.71
550.18	1136.10
550.53	1132.59
550.89	1130.95
551.24	1120.88
551.60	1119.71
551.95	1119.01
552.30	1113.16
552.66	1114.56
553.01	1118.07
553.37	1118.54
553.72	1115.03
554.07	1119.95
554.43	1110.35
554.78	1106.14
555.13	1103.09
555.49	1104.03
555.84	1099.35
556.19	1097.01
556.55	1100.05
556.90	1089.05
557.26	1090.22
557.61	1097.24
557.96	1105.20
558.32	1116.44
558.67	1133.76
559.02	1135.86
559.37	1127.20
559.73	1126.97
560.08	1117.14
560.43	1119.95
560.79	1125.56
561.14	1135.16
561.49	1129.78
561.85	1125.10
562.20	1115.50
562.55	1115.27
562.90	1113.16
563.26	1114.33
563.61	1120.88
563.96	1117.37
564.32	1107.31
564.67	1110.58
565.02	1115.97
565.37	1107.54
565.73	1104.73
566.08	1109.65
566.43	1104.97
566.78	1101.69
567.14	1115.97
567.49	1115.50
567.84	1100.75
568.19	1102.16
568.54	1099.35
568.90	1086.24
569.25	1083.20
569.60	1099.12
569.95	1102.63
570.31	1108.48
570.66	1116.90
571.01	1131.88
571.36	1132.82
571.71	1129.54
572.06	1124.39
572.42	1118.31
572.77	1104.26
573.12	1100.05
573.47	1099.12
573.82	1100.52
574.18	1104.03
574.53	1112.22
574.88	1113.86
575.23	1107.07
575.58	1113.86
575.93	1111.52
576.28	1117.37
576.64	1117.14
576.99	1124.39
577.34	1111.75
577.69	1107.31
578.04	1090.46
578.39	1085.31
578.74	1081.09
579.09	1083.67
579.44	1087.18
579.80	1103.80
580.15	1108.95
580.50	1108.71
580.85	1113.39
581.20	1119.71
581.55	1105.44
581.90	1103.80
582.25	1098.65
582.60	1099.58
582.95	1098.65
583.30	1103.09
583.65	1098.41
584.00	1106.14
584.35	1108.71
584.71	1105.67
585.06	1108.48
585.41	1108.71
585.76	1119.71
586.11	1116.44
586.46	1111.99
586.81	1104.73
587.16	1110.12
587.51	1099.35
587.86	1096.31
588.21	1093.50
588.56	1087.65
588.91	1083.90
589.26	1083.20
589.61	1085.07
589.96	1090.69
590.31	1098.41
590.66	1098.41
591.01	1098.88
591.36	1095.84
591.71	1106.37
592.06	1112.69
592.41	1113.39
592.76	1111.99
593.10	1115.27
593.45	1115.73
593.80	1118.78
594.15	1111.52
594.50	1109.65
594.85	1102.39
595.20	1094.43
595.55	1085.77
595.90	1089.99
596.25	1089.29
596.60	1090.92
596.95	1088.35
597.30	1091.86
597.64	1137.50
597.99	1141.71
598.34	1151.31
598.69	1154.59
599.04	1158.57
599.39	1112.22
599.74	1111.99
600.09	1102.39
600.44	1097.01
600.78	1089.29
601.13	1085.31
601.48	1089.29
601.83	1096.31
602.18	1104.50
602.53	1116.67
602.88	1124.86
603.22	1121.82
603.57	1126.50
603.92	1114.33
604.27	1107.31
604.62	1102.86
604.97	1103.56
605.31	1090.22
605.66	1095.14
606.01	1089.75
606.36	1090.92
606.71	1083.43
607.05	1084.37
607.40	1090.46
607.75	1094.43
608.10	1092.80
608.44	1095.60
608.79	1100.99
609.14	1093.50
609.49	1097.71
609.84	1105.90
610.18	1106.14
610.53	1102.63
610.88	1103.80
611.23	1101.46
611.57	1101.46
611.92	1114.56
612.27	1110.58
612.62	1111.29
612.96	1103.33
613.31	1102.39
613.66	1087.88
614.00	1094.67
614.35	1088.58
614.70	1087.18
615.05	1084.60
615.39	1088.12
615.74	1089.05
616.09	1095.37
616.43	1102.63
616.78	1092.33
617.13	1086.94
617.47	1083.90
617.82	1090.46
618.17	1095.37
618.51	1108.24
618.86	1116.67
619.21	1126.27
619.55	1122.99
619.90	1112.69
620.25	1112.92
620.59	1111.29
620.94	1107.78
621.29	1111.52
621.63	1120.41
621.98	1120.65
622.32	1106.37
622.67	1097.95
623.02	1097.24
623.36	1100.29
623.71	1093.03
624.05	1111.05
624.40	1113.86
624.75	1107.54
625.09	1106.14
625.44	1105.44
625.78	1086.01
626.13	1075.71
626.48	1072.20
626.82	1067.75
627.17	1076.18
627.51	1078.52
627.86	1090.46
628.20	1098.18
628.55	1093.03
628.89	1092.09
629.24	1098.18
629.58	1093.50
629.93	1089.29
630.28	1100.52
630.62	1097.71
630.97	1103.80
631.31	1115.73
631.66	1117.84
632.00	1107.31
632.35	1110.12
632.69	1104.97
633.04	1098.65
633.38	1097.24
633.73	1103.56
634.07	1104.50
634.42	1094.67
634.76	1090.92
635.11	1083.43
635.45	1084.60
635.79	1088.58
636.14	1099.12
636.48	1089.05
636.83	1090.69
637.17	1084.37
637.52	1072.90
637.86	1069.39
638.21	1075.01
638.55	1082.73
638.89	1088.12
639.24	1089.99
639.58	1093.50
639.93	1100.99
640.27	1096.78
640.61	1093.50
640.96	1090.92
641.30	1092.80
641.65	1090.69
641.99	1092.80
642.33	1097.24
642.68	1110.58
643.02	1113.16
643.37	1122.99
643.71	1125.10
644.05	1126.03
644.40	1123.22
644.74	1125.10
645.08	1119.95
645.43	1117.84
645.77	1108.95
646.11	1100.29
646.46	1089.52
646.80	1080.16
647.14	1078.75
647.49	1084.37
647.83	1082.97
648.17	1089.29
648.52	1100.05
648.86	1100.05
649.20	1100.52
649.55	1094.43
649.89	1089.99
650.23	1082.73
650.57	1088.35
650.92	1087.18
651.26	1094.90
651.60	1100.75
651.95	1102.16
652.29	1105.67
652.63	1103.56
652.97	1100.05
653.32	1090.69
653.66	1086.01
654.00	1078.28
654.34	1074.54
654.69	1072.90
655.03	1089.75
655.37	1098.88
655.71	1096.07
656.05	1106.37
656.40	1108.71
656.74	1105.90
657.08	1105.90
657.42	1102.86
657.76	1098.41
658.11	1096.78
658.45	1091.86
658.79	1084.60
659.13	1089.29
659.47	1088.12
659.82	1086.94
660.16	1083.67
660.50	1088.35
660.84	1089.75
661.18	1084.60
661.52	1086.48
661.87	1088.12
662.21	1078.75
662.55	1071.50
662.89	1082.26
663.23	1091.86
663.57	1092.09
663.91	1097.48
664.25	1100.29
664.60	1089.99
664.94	1084.14
665.28	1080.86
665.62	1085.54
665.96	1091.63
666.30	1093.50
666.64	1089.75
666.98	1100.99
667.32	1101.69
667.66	1104.26
668.01	1100.29
668.35	1101.92
668.69	1088.58
669.03	1082.97
669.37	1075.24
669.71	1086.71
670.05	1089.75
670.39	1092.80
670.73	1093.97
671.07	1095.84
671.41	1090.92
671.75	1096.78
672.09	1092.09
672.43	1104.97
672.77	1116.67
673.11	1126.27
673.45	1113.63
673.79	1125.33
674.13	1105.44
674.47	1089.52
674.81	1069.62
675.15	1069.16
675.49	1070.09
675.83	1078.52
676.17	1089.52
676.51	1089.75
676.85	1099.82
677.19	1097.95
677.53	1094.90
677.87	1089.05
678.21	1089.99
678.55	1088.58
678.89	1091.63
679.23	1100.05
679.57	1095.37
679.90	1102.39
680.24	1091.16
680.58	1073.37
680.92	1058.86
681.26	1066.58
681.60	1073.14
681.94	1080.39
682.28	1087.88
682.62	1092.80
682.96	1093.03
683.29	1091.39
683.63	1093.73
683.97	1092.56
684.31	1104.73
684.65	1099.35
684.99	1097.48
685.33	1091.86
685.67	1089.29
686.00	1079.22
686.34	1076.65
686.68	1078.28
687.02	1082.97
687.36	1090.69
687.70	1101.46
688.03	1105.67
688.37	1101.22
688.71	1099.12
689.05	1089.05
689.39	1073.84
689.72	1073.14
690.06	1077.35
690.40	1070.56
690.74	1070.56
691.08	1072.43
691.41	1064.71
691.75	1060.96
692.09	1069.62
692.43	1086.94
692.76	1079.46
693.10	1081.33
693.44	1079.22
693.78	1081.09
694.11	1071.03
694.45	1077.58
694.79	1079.22
695.13	1082.97
695.46	1086.24
695.80	1084.60
696.14	1087.65
696.48	1088.35
696.81	1085.31
697.15	1078.28
697.49	1078.28
697.82	1086.71
698.16	1091.63
698.50	1096.07
698.83	1101.69
699.17	1100.75
699.51	1100.05
699.84	1092.56
700.18	1088.58
700.52	1078.75
700.85	1081.33
701.19	1072.43
701.53	1076.65
701.86	1071.26
702.20	1071.26
702.54	1075.48
702.87	1077.82
703.21	1075.01
703.55	1074.07
703.88	1075.01
704.22	1069.39
704.55	1066.58
704.89	1074.31
705.23	1079.46
705.56	1085.54
705.90	1089.05
706.23	1096.78
706.57	1105.67
706.91	1106.61
707.24	1108.71
707.58	1104.97
707.91	1091.86
708.25	1082.50
708.58	1082.97
708.92	1078.28
709.26	1076.65
709.59	1078.28
709.93	1075.94
710.26	1065.88
710.60	1065.65
710.93	1068.92
711.27	1075.48
711.60	1070.33
711.94	1079.69
712.27	1080.63
712.61	1075.24
712.94	1077.58
713.28	1075.94
713.61	1068.69
713.95	1065.41
714.28	1079.69
714.62	1080.86
714.95	1092.80
715.29	1100.75
715.62	1109.18
715.96	1099.35
716.29	1096.78
716.63	1094.43
716.96	1090.22
717.29	1090.92
717.63	1093.50
717.96	1095.14
718.30	1091.86
718.63	1093.03
718.97	1086.48
719.30	1081.80
719.63	1079.22
719.97	1082.26
720.30	1078.28
720.64	1082.97
720.97	1090.22
721.30	1089.05
721.64	1081.09
721.97	1090.22
722.31	1095.14
722.64	1091.63
722.97	1095.84
723.31	1092.09
723.64	1089.29
723.97	1068.45
724.31	1070.33
724.64	1069.62
724.98	1073.14
725.31	1063.77
725.64	1072.90
725.98	1063.54
726.31	1056.75
726.64	1062.37
726.97	1081.80
727.31	1082.50
727.64	1083.67
727.97	1085.54
728.31	1079.92
728.64	1073.84
728.97	1079.46
729.31	1077.11
729.64	1076.41
729.97	1077.82
730.30	1076.41
730.64	1076.41
730.97	1082.26
731.30	1087.65
731.63	1083.90
731.97	1079.22
732.30	1068.69
732.63	1064.71
732.96	1056.75
733.30	1060.03
733.63	1058.39
733.96	1064.71
734.29	1075.94
734.63	1071.03
734.96	1082.73
735.29	1093.03
735.62	1083.90
735.95	1081.33
736.29	1091.86
736.62	1093.26
736.95	1094.90
737.28	1108.01
737.61	1103.80
737.94	1107.54
738.28	1096.07
738.61	1076.65
738.94	1066.35
739.27	1070.33
739.60	1070.09
739.93	1064.71
740.27	1079.92
740.60	1083.20
740.93	1087.65
741.26	1081.80
741.59	1092.33
741.92	1090.46
742.25	1095.14
742.58	1096.07
742.91	1099.35
743.25	1095.37
743.58	1093.50
743.91	1092.80
744.24	1085.07
744.57	1082.73
744.90	1085.77
745.23	1086.01
745.56	1085.07
745.89	1087.65
746.22	1087.88
746.55	1086.48
746.88	1078.52
747.21	1076.88
747.54	1074.54
747.87	1075.24
748.20	1069.39
748.53	1072.20
748.87	1071.03
749.20	1074.77
749.53	1075.94
749.86	1079.46
750.19	1078.75
750.52	1072.90
750.85	1067.28
751.18	1056.99
751.51	1052.30
751.84	1059.79
752.16	1068.45
752.49	1067.05
752.82	1075.71
753.15	1083.90
753.48	1077.58
753.81	1075.48
754.14	1077.35
754.47	1079.69
754.80	1077.58
755.13	1083.43
755.46	1083.90
755.79	1085.31
756.12	1082.97
756.45	1080.63
756.78	1066.58
757.11	1070.56
757.43	1069.16
757.76	1064.48
758.09	1060.50
758.42	1080.39
758.75	1080.63
759.08	1081.33
759.41	1085.31
759.74	1099.12
760.07	1087.88
760.39	1093.50
760.72	1090.69
761.05	1087.41
761.38	1083.43
761.71	1089.75
762.04	1075.71
762.36	1080.39
762.69	1082.97
763.02	1081.09
763.35	1082.73
763.68	1080.86
764.01	1077.82
