SpectraSuite Data File
++++++++++++++++++++++++++++++++++++
Date: Mon Aug 26 10:24:42 PDT 2019
User: corrico
Dark Spectrum Present: No
Reference Spectrum Present: No
Number of Sampled Component Spectra: 1
Spectrometers: USB2+H06089
Integration Time (usec): 10000 (USB2+H06089)
Spectra Averaged: 2 (USB2+H06089)
Boxcar Smoothing: 2 (USB2+H06089)
Correct for Electrical Dark: No (USB2+H06089)
Strobe/Lamp Enabled: No (USB2+H06089)
Correct for Detector Non-linearity: No (USB2+H06089)
Correct for Stray Light: No (USB2+H06089)
Number of Pixels in Processed Spectrum: 2048
>>>>>Begin Processed Spectral Data<<<<<
339.70	977.17
340.07	977.17
340.45	952.60
340.82	935.04
341.19	931.07
341.57	917.26
341.94	913.98
342.31	914.21
342.69	917.02
343.06	908.13
343.43	909.30
343.81	905.55
344.18	909.30
344.55	910.47
344.93	915.38
345.30	913.75
345.67	909.30
346.04	926.62
346.42	931.07
346.79	935.51
347.16	953.77
347.54	975.54
347.91	976.24
348.28	990.51
348.65	1014.15
349.03	1017.43
349.40	1029.60
349.77	1040.84
350.14	1049.26
350.52	1048.33
350.89	1055.82
351.26	1056.75
351.63	1054.18
352.01	1055.11
352.38	1044.11
352.75	1047.62
353.12	1053.94
353.50	1056.99
353.87	1070.56
354.24	1093.26
354.61	1096.31
354.98	1104.97
355.36	1114.56
355.73	1107.54
356.10	1103.56
356.47	1099.12
356.84	1082.97
357.22	1076.18
357.59	1078.75
357.96	1072.90
358.33	1083.43
358.70	1087.18
359.08	1090.22
359.45	1088.12
359.82	1086.24
360.19	1089.52
360.56	1096.31
360.94	1095.60
361.31	1098.88
361.68	1106.84
362.05	1094.67
362.42	1092.80
362.79	1091.86
363.16	1094.43
363.54	1097.95
363.91	1114.56
364.28	1118.07
364.65	1124.16
365.02	1117.84
365.39	1119.48
365.76	1110.35
366.14	1108.24
366.51	1099.12
366.88	1103.56
367.25	1101.22
367.62	1095.84
367.99	1091.39
368.36	1093.73
368.73	1086.48
369.10	1069.16
369.48	1075.71
369.85	1075.71
370.22	1070.80
370.59	1076.88
370.96	1088.58
371.33	1086.24
371.70	1097.95
372.07	1106.37
372.44	1119.01
372.81	1112.69
373.18	1111.52
373.55	1107.78
373.93	1106.84
374.30	1094.43
374.67	1099.12
375.04	1104.73
375.41	1102.63
375.78	1103.09
376.15	1107.07
376.52	1105.90
376.89	1101.69
377.26	1090.92
377.63	1094.20
378.00	1093.03
378.37	1105.44
378.74	1107.54
379.11	1123.69
379.48	1119.01
379.85	1116.20
380.22	1104.97
380.59	1107.31
380.96	1100.52
381.33	1109.18
381.70	1112.22
382.07	1117.84
382.44	1114.56
382.81	1121.58
383.18	1120.18
383.55	1120.88
383.92	1120.65
384.29	1126.03
384.66	1122.75
385.03	1118.78
385.40	1121.82
385.77	1119.24
386.14	1117.14
386.51	1109.41
386.88	1118.31
387.25	1111.29
387.62	1120.88
387.99	1115.03
388.36	1119.01
388.73	1113.63
389.10	1121.58
389.46	1111.99
389.83	1115.27
390.20	1122.99
390.57	1118.78
390.94	1113.86
391.31	1122.99
391.68	1135.39
392.05	1133.05
392.42	1149.44
392.79	1155.52
393.16	1151.08
393.53	1143.35
393.89	1142.88
394.26	1128.14
394.63	1130.95
395.00	1132.59
395.37	1130.71
395.74	1125.33
396.11	1137.97
396.48	1137.03
396.84	1143.35
397.21	1151.54
397.58	1166.76
397.95	1165.82
398.32	1164.18
398.69	1168.86
399.06	1166.99
399.42	1169.80
399.79	1182.67
400.16	1187.12
400.53	1188.06
400.90	1188.29
401.27	1186.18
401.64	1194.38
402.00	1208.89
402.37	1210.76
402.74	1221.29
403.11	1240.02
403.48	1237.91
403.84	1247.51
404.21	1266.46
404.58	1283.32
404.95	1291.51
405.32	1317.02
405.68	1334.11
406.05	1360.55
406.42	1383.49
406.79	1410.17
407.16	1435.22
407.52	1460.49
407.89	1487.41
408.26	1527.67
408.63	1562.07
408.99	1599.99
409.36	1642.35
409.73	1684.95
410.10	1732.46
410.47	1784.89
410.83	1842.24
411.20	1912.45
411.57	1969.33
411.94	2044.93
412.30	2129.65
412.67	2207.36
413.04	2285.07
413.40	2380.32
413.77	2476.29
414.14	2580.91
414.51	2710.57
414.87	2836.03
415.24	2981.61
415.61	3129.53
415.97	3291.26
416.34	3456.97
416.71	3638.83
417.08	3845.97
417.44	4037.89
417.81	4272.41
418.18	4503.89
418.54	4776.57
418.91	5060.71
419.28	5404.53
419.64	5696.86
420.01	6052.86
420.38	6370.94
420.74	6694.87
421.11	7064.44
421.48	7454.84
421.84	7848.75
422.21	8319.67
422.58	8825.93
422.94	9290.52
423.31	9854.36
423.68	10437.15
424.04	11047.33
424.41	11682.55
424.77	12339.30
425.14	12962.35
425.51	13605.30
425.87	14353.80
426.24	15039.58
426.61	15938.11
426.97	16938.69
427.34	17939.50
427.70	18989.70
428.07	20043.18
428.44	21072.31
428.80	22055.34
429.17	23110.92
429.53	24094.18
429.90	25368.36
430.27	26491.35
430.63	27670.98
431.00	28987.53
431.36	30427.20
431.73	31582.49
432.09	32869.08
432.46	34183.76
432.83	35505.22
433.19	36710.37
433.56	38359.74
433.92	39980.56
434.29	41536.32
434.65	43039.88
435.02	44372.81
435.38	45517.10
435.75	46355.25
436.11	47612.82
436.48	48606.61
436.84	49694.49
437.21	50689.22
437.57	51763.52
437.94	52328.53
438.30	52885.57
438.67	53201.78
439.03	53281.59
439.40	53379.19
439.76	53267.78
440.13	53092.48
440.49	53117.76
440.86	52772.29
441.22	52424.72
441.59	51881.72
441.95	51320.46
442.32	50340.71
442.68	49630.59
443.05	48629.31
443.41	47722.12
443.78	46593.28
444.14	45625.94
444.51	44316.64
444.87	43304.12
445.24	42045.38
445.60	40906.95
445.96	39777.17
446.33	38946.51
446.69	37798.48
447.06	36969.46
447.42	35999.78
447.79	34807.28
448.15	33779.31
448.51	32779.90
448.88	31860.78
449.24	30827.20
449.61	30196.19
449.97	29325.51
450.33	28553.60
450.70	27709.13
451.06	27149.04
451.43	26332.90
451.79	25824.07
452.15	25297.21
452.52	24632.97
452.88	23978.55
453.24	23475.81
453.61	22776.22
453.97	22171.89
454.34	21622.57
454.70	21109.29
455.06	20479.92
455.43	19808.19
455.79	19048.92
456.15	18477.83
456.52	17770.05
456.88	17203.17
457.24	16611.72
457.61	16124.89
457.97	15525.94
458.33	14965.85
458.70	14382.83
459.06	13856.44
459.42	13375.93
459.79	12885.59
460.15	12519.53
460.51	12092.85
460.88	11701.04
461.24	11299.87
461.60	10923.05
461.96	10527.73
462.33	10209.18
462.69	9901.17
463.05	9553.60
463.42	9295.44
463.78	9059.04
464.14	8768.35
464.50	8551.62
464.87	8303.99
465.23	8008.85
465.59	7763.32
465.95	7565.55
466.32	7349.28
466.68	7165.78
467.04	6977.84
467.40	6778.43
467.77	6596.10
468.13	6385.22
468.49	6219.51
468.85	6108.80
469.22	5979.37
469.58	5829.57
469.94	5712.55
470.30	5561.58
470.66	5440.58
471.03	5307.87
471.39	5231.57
471.75	5142.16
472.11	5051.34
472.47	4953.04
472.84	4859.19
473.20	4708.46
473.56	4599.15
473.92	4481.42
474.28	4375.63
474.65	4287.63
475.01	4244.56
475.37	4159.83
475.73	4114.43
476.09	4018.00
476.45	3923.67
476.81	3815.07
477.18	3720.75
477.54	3622.21
477.90	3556.44
478.26	3484.82
478.62	3444.80
478.98	3375.75
479.34	3326.37
479.71	3289.15
480.07	3241.41
480.43	3193.19
480.79	3162.77
481.15	3113.38
481.51	3046.68
481.87	2997.29
482.23	2946.03
482.59	2888.46
482.96	2832.28
483.32	2788.51
483.68	2751.30
484.04	2709.40
484.40	2674.30
484.76	2650.42
485.12	2612.97
485.48	2575.76
485.84	2529.89
486.20	2486.82
486.56	2444.92
486.92	2415.43
487.28	2384.77
487.64	2362.30
488.00	2336.09
488.37	2314.56
488.73	2290.92
489.09	2248.79
489.45	2215.08
489.81	2175.29
490.17	2140.65
490.53	2114.21
490.89	2094.78
491.25	2073.95
491.61	2068.33
491.97	2042.12
492.33	2009.35
492.69	1981.73
493.05	1942.41
493.41	1899.58
493.77	1871.26
494.13	1844.58
494.49	1821.40
494.85	1809.23
495.21	1787.70
495.57	1768.98
495.93	1751.89
496.29	1736.91
496.64	1709.29
497.00	1692.91
497.36	1665.06
497.72	1647.50
498.08	1622.46
498.44	1611.93
498.80	1595.78
499.16	1591.33
499.52	1577.76
499.88	1560.90
500.24	1545.92
500.60	1534.46
500.96	1520.65
501.32	1504.96
501.68	1500.99
502.03	1490.92
502.39	1480.39
502.75	1460.49
503.11	1445.28
503.47	1426.09
503.83	1412.98
504.19	1407.13
504.55	1402.21
504.91	1400.58
505.26	1403.39
505.62	1392.15
505.98	1373.66
506.34	1366.87
506.70	1360.32
507.06	1351.89
507.42	1349.08
507.78	1348.85
508.13	1348.38
508.49	1342.77
508.85	1335.74
509.21	1331.06
509.57	1319.59
509.93	1321.23
510.28	1310.00
510.64	1305.78
511.00	1305.55
511.36	1321.23
511.72	1309.53
512.07	1307.42
512.43	1298.06
512.79	1280.98
513.15	1262.02
513.51	1255.00
513.86	1249.61
514.22	1240.95
514.58	1232.99
514.94	1237.68
515.30	1235.80
515.65	1234.40
516.01	1237.44
516.37	1241.42
516.73	1226.21
517.08	1213.10
517.44	1210.76
517.80	1205.14
518.16	1207.95
518.51	1203.50
518.87	1214.04
519.23	1218.72
519.59	1223.63
519.94	1221.06
520.30	1225.97
520.66	1212.87
521.01	1209.82
521.37	1200.46
521.73	1194.61
522.09	1185.48
522.44	1181.50
522.80	1165.35
523.16	1163.01
523.51	1159.74
523.87	1165.35
524.23	1177.29
524.58	1182.44
524.94	1180.33
525.30	1187.59
525.65	1185.72
526.01	1171.20
526.37	1167.46
526.72	1173.31
527.08	1159.74
527.44	1155.99
527.79	1158.57
528.15	1160.91
528.51	1164.42
528.86	1168.40
529.22	1176.82
529.58	1183.37
529.93	1181.74
530.29	1161.14
530.65	1157.16
531.00	1146.86
531.36	1139.61
531.71	1129.31
532.07	1132.59
532.43	1135.86
532.78	1137.97
533.14	1135.63
533.49	1135.86
533.85	1138.90
534.21	1140.54
534.56	1139.84
534.92	1138.90
535.27	1140.78
535.63	1146.16
535.98	1141.25
536.34	1134.22
536.69	1131.65
537.05	1136.80
537.41	1128.14
537.76	1130.01
538.12	1128.14
538.47	1134.46
538.83	1124.39
539.18	1134.93
539.54	1133.76
539.89	1146.63
540.25	1146.16
540.60	1156.22
540.96	1155.29
541.31	1155.76
541.67	1144.05
542.02	1135.39
542.38	1126.73
542.73	1123.93
543.09	1112.92
543.44	1108.95
543.80	1117.61
544.15	1130.95
544.51	1126.27
544.86	1133.05
545.22	1138.67
545.57	1138.90
545.93	1128.37
546.28	1130.95
546.64	1135.63
546.99	1133.29
547.35	1126.27
547.70	1132.35
548.05	1128.14
548.41	1128.61
548.76	1128.14
549.12	1130.01
549.47	1121.82
549.83	1118.54
550.18	1114.10
550.53	1111.75
550.89	1111.29
551.24	1121.58
551.60	1125.10
551.95	1125.33
552.30	1131.88
552.66	1127.44
553.01	1118.07
553.37	1114.10
553.72	1103.33
554.07	1094.90
554.43	1093.50
554.78	1091.86
555.13	1093.50
555.49	1095.84
555.84	1112.69
556.19	1116.20
556.55	1117.14
556.90	1122.52
557.26	1120.88
557.61	1114.56
557.96	1122.05
558.32	1128.14
558.67	1126.50
559.02	1132.82
559.37	1128.61
559.73	1119.01
560.08	1110.35
560.43	1115.97
560.79	1107.78
561.14	1110.58
561.49	1122.99
561.85	1121.12
562.20	1108.48
562.55	1106.84
562.90	1100.99
563.26	1093.50
563.61	1099.82
563.96	1110.82
564.32	1132.82
564.67	1123.22
565.02	1121.12
565.37	1122.29
565.73	1110.82
566.08	1096.54
566.43	1099.58
566.78	1098.41
567.14	1099.12
567.49	1100.99
567.84	1105.67
568.19	1111.29
568.54	1118.07
568.90	1119.71
569.25	1119.71
569.60	1111.99
569.95	1116.44
570.31	1114.33
570.66	1101.22
571.01	1105.44
571.36	1113.86
571.71	1099.58
572.06	1098.18
572.42	1100.99
572.77	1101.46
573.12	1089.75
573.47	1104.03
573.82	1104.26
574.18	1111.99
574.53	1116.20
574.88	1121.82
575.23	1117.61
575.58	1110.35
575.93	1110.35
576.28	1111.05
576.64	1113.16
576.99	1113.86
577.34	1120.65
577.69	1122.52
578.04	1115.27
578.39	1121.82
578.74	1120.65
579.09	1112.22
579.44	1108.48
579.80	1110.35
580.15	1101.22
580.50	1109.65
580.85	1111.29
581.20	1110.82
581.55	1110.35
581.90	1115.97
582.25	1100.75
582.60	1100.52
582.95	1095.37
583.30	1085.77
583.65	1077.35
584.00	1095.14
584.35	1095.84
584.71	1098.88
585.06	1119.01
585.41	1126.50
585.76	1121.82
586.11	1130.71
586.46	1126.73
586.81	1116.90
587.16	1121.58
587.51	1115.03
587.86	1109.65
588.21	1113.39
588.56	1109.65
588.91	1101.46
589.26	1104.50
589.61	1099.82
589.96	1094.43
590.31	1101.69
590.66	1091.39
591.01	1090.46
591.36	1097.71
591.71	1104.03
592.06	1084.37
592.41	1090.46
592.76	1090.22
593.10	1093.50
593.45	1097.01
593.80	1101.92
594.15	1103.80
594.50	1104.73
594.85	1107.31
595.20	1103.56
595.55	1112.46
595.90	1109.18
596.25	1108.95
596.60	1102.63
596.95	1099.82
597.30	1087.41
597.64	1143.82
597.99	1147.80
598.34	1143.12
598.69	1148.27
599.04	1156.46
599.39	1098.18
599.74	1081.56
600.09	1076.41
600.44	1078.99
600.78	1085.07
601.13	1100.75
601.48	1116.44
601.83	1129.31
602.18	1122.05
602.53	1125.33
602.88	1114.56
603.22	1109.18
603.57	1105.44
603.92	1113.86
604.27	1113.16
604.62	1110.35
604.97	1107.78
605.31	1100.75
605.66	1090.46
606.01	1086.48
606.36	1098.65
606.71	1099.35
607.05	1104.03
607.40	1101.69
607.75	1098.88
608.10	1093.73
608.44	1099.82
608.79	1089.75
609.14	1100.52
609.49	1104.97
609.84	1098.65
610.18	1095.60
610.53	1107.54
610.88	1110.82
611.23	1115.97
611.57	1121.35
611.92	1118.54
612.27	1109.41
612.62	1096.07
612.96	1091.86
613.31	1083.90
613.66	1081.56
614.00	1092.80
614.35	1098.18
614.70	1093.73
615.05	1101.92
615.39	1092.56
615.74	1088.58
616.09	1093.26
616.43	1098.65
616.78	1094.20
617.13	1108.01
617.47	1101.92
617.82	1096.78
618.17	1105.67
618.51	1110.58
618.86	1108.24
619.21	1112.69
619.55	1108.01
619.90	1087.88
620.25	1076.88
620.59	1081.56
620.94	1077.82
621.29	1073.60
621.63	1077.35
621.98	1081.09
622.32	1073.60
622.67	1074.07
623.02	1086.48
623.36	1081.56
623.71	1083.43
624.05	1089.29
624.40	1089.75
624.75	1087.18
625.09	1097.48
625.44	1105.44
625.78	1104.73
626.13	1109.65
626.48	1110.12
626.82	1102.39
627.17	1098.88
627.51	1097.48
627.86	1094.90
628.20	1094.43
628.55	1105.20
628.89	1108.24
629.24	1105.67
629.58	1094.90
629.93	1087.18
630.28	1073.37
630.62	1071.26
630.97	1074.31
631.31	1080.86
631.66	1092.33
632.00	1095.84
632.35	1086.01
632.69	1083.20
633.04	1086.94
633.38	1075.71
633.73	1074.07
634.07	1089.52
634.42	1091.16
634.76	1094.67
635.11	1101.46
635.45	1110.58
635.79	1097.48
636.14	1092.80
636.48	1094.90
636.83	1091.86
637.17	1085.07
637.52	1095.14
637.86	1106.84
638.21	1103.33
638.55	1100.99
638.89	1098.65
639.24	1096.07
639.58	1092.33
639.93	1098.88
640.27	1098.41
640.61	1094.67
640.96	1094.67
641.30	1084.37
641.65	1082.03
641.99	1082.97
642.33	1090.22
642.68	1083.20
643.02	1080.39
643.37	1068.45
643.71	1072.20
644.05	1073.14
644.40	1091.86
644.74	1095.60
645.08	1112.69
645.43	1109.18
645.77	1104.50
646.11	1085.31
646.46	1086.48
646.80	1078.75
647.14	1081.80
647.49	1082.97
647.83	1087.65
648.17	1098.65
648.52	1092.09
648.86	1092.09
649.20	1103.33
649.55	1107.07
649.89	1102.16
650.23	1095.37
650.57	1097.24
650.92	1093.03
651.26	1083.67
651.60	1079.69
651.95	1091.39
652.29	1081.33
652.63	1078.05
652.97	1075.48
653.32	1064.94
653.66	1069.62
654.00	1074.54
654.34	1069.39
654.69	1076.88
655.03	1083.67
655.37	1077.35
655.71	1077.35
656.05	1082.03
656.40	1078.05
656.74	1074.31
657.08	1081.09
657.42	1087.65
657.76	1093.26
658.11	1104.50
658.45	1118.31
658.79	1112.22
659.13	1107.07
659.47	1102.16
659.82	1093.03
660.16	1084.84
660.50	1076.41
660.84	1076.88
661.18	1075.94
661.52	1088.35
661.87	1083.67
662.21	1100.75
662.55	1108.95
662.89	1110.82
663.23	1108.95
663.57	1118.07
663.91	1108.71
664.25	1106.37
664.60	1101.22
664.94	1086.24
665.28	1086.24
665.62	1089.52
665.96	1085.31
666.30	1080.16
666.64	1088.12
666.98	1079.22
667.32	1077.58
667.66	1082.03
668.01	1097.71
668.35	1100.52
668.69	1112.92
669.03	1107.31
669.37	1111.05
669.71	1101.46
670.05	1093.26
670.39	1089.75
670.73	1092.09
671.07	1082.50
671.41	1085.31
671.75	1094.67
672.09	1093.50
672.43	1096.78
672.77	1105.67
673.11	1112.46
673.45	1103.33
673.79	1107.07
674.13	1105.20
674.47	1095.60
674.81	1088.35
675.15	1084.60
675.49	1075.94
675.83	1078.28
676.17	1073.14
676.51	1080.63
676.85	1082.73
677.19	1094.43
677.53	1093.97
677.87	1095.84
678.21	1087.88
678.55	1089.75
678.89	1086.48
679.23	1084.14
679.57	1097.71
679.90	1104.26
680.24	1102.39
680.58	1096.54
680.92	1097.48
681.26	1094.90
681.60	1078.99
681.94	1088.82
682.28	1098.18
682.62	1098.88
682.96	1105.20
683.29	1109.41
683.63	1110.58
683.97	1109.65
684.31	1101.22
684.65	1086.24
684.99	1083.90
685.33	1078.99
685.67	1079.46
686.00	1087.65
686.34	1094.67
686.68	1102.86
687.02	1107.31
687.36	1098.88
687.70	1096.78
688.03	1080.63
688.37	1089.05
688.71	1085.77
689.05	1095.84
689.39	1088.12
689.72	1107.31
690.06	1095.60
690.40	1100.75
690.74	1098.65
691.08	1101.46
691.41	1092.33
691.75	1093.97
692.09	1085.77
692.43	1086.48
692.76	1096.31
693.10	1100.75
693.44	1101.69
693.78	1104.73
694.11	1089.75
694.45	1081.56
694.79	1072.43
695.13	1067.99
695.46	1065.65
695.80	1073.37
696.14	1077.82
696.48	1081.09
696.81	1081.56
697.15	1075.48
697.49	1075.24
697.82	1070.80
698.16	1070.33
698.50	1075.71
698.83	1086.71
699.17	1088.35
699.51	1096.07
699.84	1097.71
700.18	1098.88
700.52	1103.80
700.85	1093.73
701.19	1090.92
701.53	1087.88
701.86	1079.46
702.20	1061.90
702.54	1069.39
702.87	1069.86
703.21	1070.80
703.55	1079.22
703.88	1086.94
704.22	1089.52
704.55	1084.14
704.89	1082.97
705.23	1080.16
705.56	1071.97
705.90	1073.84
706.23	1082.50
706.57	1089.52
706.91	1094.90
707.24	1107.78
707.58	1101.69
707.91	1096.07
708.25	1100.29
708.58	1095.37
708.92	1089.05
709.26	1101.69
709.59	1102.16
709.93	1090.22
710.26	1093.73
710.60	1093.97
710.93	1082.97
711.27	1072.67
711.60	1081.09
711.94	1081.56
712.27	1076.41
712.61	1074.07
712.94	1082.50
713.28	1082.97
713.61	1072.90
713.95	1089.29
714.28	1093.03
714.62	1092.56
714.95	1093.26
715.29	1095.14
715.62	1079.69
715.96	1070.56
716.29	1074.54
716.63	1072.20
716.96	1084.37
717.29	1096.78
717.63	1098.88
717.96	1107.78
718.30	1103.80
718.63	1099.12
718.97	1090.69
719.30	1082.03
719.63	1073.60
719.97	1075.71
720.30	1067.52
720.64	1069.16
720.97	1079.22
721.30	1084.37
721.64	1089.75
721.97	1101.46
722.31	1098.88
722.64	1105.20
722.97	1103.33
723.31	1094.90
723.64	1092.56
723.97	1089.75
724.31	1089.05
724.64	1082.73
724.98	1083.43
725.31	1081.09
725.64	1089.05
725.98	1089.75
726.31	1094.67
726.64	1104.26
726.97	1099.82
727.31	1091.39
727.64	1084.14
727.97	1078.75
728.31	1078.28
728.64	1074.54
728.97	1082.03
729.31	1086.71
729.64	1082.97
729.97	1076.41
730.30	1087.18
730.64	1089.52
730.97	1093.73
731.30	1097.01
731.63	1100.05
731.97	1091.39
732.30	1085.77
732.63	1085.07
732.96	1087.65
733.30	1075.48
733.63	1076.88
733.96	1074.77
734.29	1073.14
734.63	1065.18
734.96	1063.31
735.29	1068.92
735.62	1065.88
735.95	1057.92
736.29	1068.92
736.62	1067.52
736.95	1059.56
737.28	1067.05
737.61	1079.22
737.94	1080.39
738.28	1090.22
738.61	1096.07
738.94	1091.39
739.27	1082.03
739.60	1081.33
739.93	1084.84
740.27	1085.31
740.60	1080.86
740.93	1098.65
741.26	1099.35
741.59	1093.50
741.92	1089.05
742.25	1087.88
742.58	1072.20
742.91	1068.69
743.25	1079.92
743.58	1082.73
743.91	1082.26
744.24	1084.37
744.57	1088.35
744.90	1089.52
745.23	1087.41
745.56	1104.97
745.89	1110.58
746.22	1100.29
746.55	1094.43
746.88	1102.39
747.21	1093.97
747.54	1091.39
747.87	1101.22
748.20	1099.35
748.53	1099.58
748.87	1100.75
749.20	1094.67
749.53	1096.78
749.86	1094.43
750.19	1089.52
750.52	1088.82
750.85	1096.07
751.18	1093.73
751.51	1088.82
751.84	1086.71
752.16	1086.01
752.49	1078.99
752.82	1070.09
753.15	1069.62
753.48	1080.16
753.81	1078.52
754.14	1093.26
754.47	1097.95
754.80	1098.18
755.13	1088.12
755.46	1090.69
755.79	1071.97
756.12	1078.05
756.45	1079.22
756.78	1080.39
757.11	1077.35
757.43	1078.28
757.76	1071.50
758.09	1078.75
758.42	1076.65
758.75	1078.28
759.08	1083.67
759.41	1077.35
759.74	1079.22
760.07	1087.65
760.39	1089.99
760.72	1092.33
761.05	1110.58
761.38	1111.52
761.71	1106.84
762.04	1108.95
762.36	1105.44
762.69	1085.54
763.02	1085.31
763.35	1081.56
763.68	1073.37
764.01	1084.84
