SpectraSuite Data File
++++++++++++++++++++++++++++++++++++
Date: Mon Aug 26 10:24:43 PDT 2019
User: corrico
Dark Spectrum Present: No
Reference Spectrum Present: No
Number of Sampled Component Spectra: 1
Spectrometers: USB2+H06089
Integration Time (usec): 10000 (USB2+H06089)
Spectra Averaged: 2 (USB2+H06089)
Boxcar Smoothing: 2 (USB2+H06089)
Correct for Electrical Dark: No (USB2+H06089)
Strobe/Lamp Enabled: No (USB2+H06089)
Correct for Detector Non-linearity: No (USB2+H06089)
Correct for Stray Light: No (USB2+H06089)
Number of Pixels in Processed Spectrum: 2048
>>>>>Begin Processed Spectral Data<<<<<
339.70	1060.26
340.07	1060.26
340.45	1027.26
340.82	997.30
341.19	966.41
341.57	935.75
341.94	917.02
342.31	899.94
342.69	898.53
343.06	900.64
343.43	897.60
343.81	897.83
344.18	902.28
344.55	910.23
344.93	919.36
345.30	921.47
345.67	926.38
346.04	938.09
346.42	941.13
346.79	934.34
347.16	937.62
347.54	945.11
347.91	951.19
348.28	966.64
348.65	980.68
349.03	1009.00
349.40	1027.73
349.77	1032.64
350.14	1040.84
350.52	1056.52
350.89	1064.24
351.26	1068.69
351.63	1084.37
352.01	1083.67
352.38	1078.75
352.75	1072.90
353.12	1075.94
353.50	1070.33
353.87	1071.03
354.24	1068.69
354.61	1066.82
354.98	1078.99
355.36	1093.26
355.73	1104.03
356.10	1116.20
356.47	1123.93
356.84	1119.24
357.22	1106.14
357.59	1109.18
357.96	1103.09
358.33	1102.16
358.70	1094.67
359.08	1105.90
359.45	1099.12
359.82	1098.65
360.19	1102.63
360.56	1103.09
360.94	1104.73
361.31	1110.82
361.68	1112.22
362.05	1109.18
362.42	1110.58
362.79	1099.12
363.16	1093.26
363.54	1099.58
363.91	1102.63
364.28	1098.88
364.65	1095.60
365.02	1092.56
365.39	1079.92
365.76	1074.77
366.14	1084.84
366.51	1087.18
366.88	1084.37
367.25	1094.43
367.62	1094.43
367.99	1086.94
368.36	1083.20
368.73	1077.82
369.10	1074.07
369.48	1075.01
369.85	1077.58
370.22	1086.24
370.59	1089.29
370.96	1090.22
371.33	1102.39
371.70	1112.92
372.07	1116.67
372.44	1115.50
372.81	1125.33
373.18	1124.63
373.55	1111.05
373.93	1112.46
374.30	1118.78
374.67	1118.54
375.04	1117.61
375.41	1121.35
375.78	1119.48
376.15	1120.88
376.52	1111.29
376.89	1099.12
377.26	1099.35
377.63	1096.07
378.00	1094.43
378.37	1102.39
378.74	1108.71
379.11	1107.54
379.48	1109.65
379.85	1120.41
380.22	1122.05
380.59	1125.56
380.96	1131.41
381.33	1128.14
381.70	1127.67
382.07	1126.97
382.44	1116.67
382.81	1108.01
383.18	1108.71
383.55	1097.48
383.92	1099.35
384.29	1109.88
384.66	1115.03
385.03	1115.27
385.40	1117.84
385.77	1109.65
386.14	1097.95
386.51	1093.50
386.88	1098.18
387.25	1093.97
387.62	1096.54
387.99	1108.01
388.36	1113.39
388.73	1115.97
389.10	1120.41
389.46	1115.50
389.83	1119.71
390.20	1113.16
390.57	1109.65
390.94	1111.29
391.31	1124.16
391.68	1116.90
392.05	1122.29
392.42	1131.41
392.79	1130.24
393.16	1131.41
393.53	1129.78
393.89	1144.99
394.26	1145.22
394.63	1154.35
395.00	1157.39
395.37	1163.71
395.74	1154.12
396.11	1156.69
396.48	1150.61
396.84	1148.73
397.21	1153.65
397.58	1155.29
397.95	1151.31
398.32	1165.59
398.69	1156.46
399.06	1153.18
399.42	1168.63
399.79	1167.46
400.16	1170.97
400.53	1192.27
400.90	1195.08
401.27	1188.99
401.64	1203.74
402.00	1221.06
402.37	1227.38
402.74	1249.38
403.11	1259.21
403.48	1269.74
403.84	1274.42
404.21	1282.38
404.58	1286.36
404.95	1295.25
405.32	1317.25
405.68	1328.49
406.05	1347.91
406.42	1383.26
406.79	1413.22
407.16	1427.26
407.52	1446.22
407.89	1479.22
408.26	1498.41
408.63	1543.35
408.99	1579.16
409.36	1624.10
409.73	1683.31
410.10	1737.61
410.47	1788.17
410.83	1848.09
411.20	1915.96
411.57	1972.14
411.94	2052.42
412.30	2117.25
412.67	2198.93
413.04	2289.75
413.40	2387.35
413.77	2480.73
414.14	2606.89
414.51	2737.72
414.87	2859.67
415.24	3000.33
415.61	3154.34
415.97	3289.62
416.34	3434.74
416.71	3612.15
417.08	3804.77
417.44	3989.91
417.81	4234.03
418.18	4472.06
418.54	4740.05
418.91	4996.58
419.28	5291.95
419.64	5598.33
420.01	5940.05
420.38	6277.32
420.74	6615.99
421.11	7050.16
421.48	7447.12
421.84	7875.43
422.21	8293.69
422.58	8773.03
422.94	9244.41
423.31	9726.80
423.68	10306.55
424.04	10952.77
424.41	11576.06
424.77	12191.62
425.14	12874.12
425.51	13550.06
425.87	14265.33
426.24	15013.13
426.61	15862.04
426.97	16869.18
427.34	17752.96
427.70	18726.16
428.07	19727.91
428.44	20783.49
428.80	21748.26
429.17	22856.03
429.53	23966.15
429.90	25275.91
430.27	26366.37
430.63	27516.27
431.00	28785.78
431.36	30136.74
431.73	31274.24
432.09	32560.83
432.46	33872.47
432.83	35199.55
433.19	36458.52
433.56	37984.32
433.92	39580.80
434.29	41037.78
434.65	42377.97
435.02	43641.39
435.38	44765.55
435.75	45602.06
436.11	46836.93
436.48	47906.79
436.84	48927.03
437.21	49875.65
437.57	50812.09
437.94	51430.46
438.30	52050.47
438.67	52414.42
439.03	52609.16
439.40	52838.30
439.76	52732.50
440.13	52532.39
440.49	52572.18
440.86	52264.40
441.22	51959.66
441.59	51504.19
441.95	51009.87
442.32	50050.95
442.68	49370.79
443.05	48364.60
443.41	47489.47
443.78	46290.41
444.14	45273.68
444.51	43902.83
444.87	42869.95
445.24	41540.76
445.60	40465.52
445.96	39310.23
446.33	38542.07
446.69	37411.12
447.06	36570.40
447.42	35540.33
447.79	34415.94
448.15	33283.82
448.51	32319.76
448.88	31368.80
449.24	30467.46
449.61	29803.91
449.97	29062.43
450.33	28287.95
450.70	27453.08
451.06	26787.20
451.43	26055.08
451.79	25447.71
452.15	24887.85
452.52	24310.91
452.88	23731.86
453.24	23218.82
453.61	22608.17
453.97	21983.25
454.34	21366.98
454.70	20826.09
455.06	20237.68
455.43	19595.67
455.79	18885.55
456.15	18313.52
456.52	17606.21
456.88	17023.18
457.24	16425.41
457.61	15926.41
457.97	15397.45
458.33	14897.98
458.70	14337.19
459.06	13784.35
459.42	13332.39
459.79	12830.82
460.15	12400.39
460.51	11961.78
460.88	11586.59
461.24	11164.59
461.60	10827.32
461.96	10461.49
462.33	10101.75
462.69	9790.23
463.05	9472.62
463.42	9174.67
463.78	8891.23
464.14	8630.26
464.50	8391.76
464.87	8165.90
465.23	7908.67
465.59	7712.30
465.95	7513.59
466.32	7290.77
466.68	7092.53
467.04	6881.18
467.40	6695.34
467.77	6543.90
468.13	6344.96
468.49	6146.48
468.85	6026.18
469.22	5890.43
469.58	5735.95
469.94	5633.44
470.30	5561.82
470.66	5461.87
471.03	5340.87
471.39	5240.46
471.75	5150.11
472.11	5028.64
472.47	4921.44
472.84	4818.93
473.20	4703.54
473.56	4586.98
473.92	4480.25
474.28	4363.46
474.65	4286.22
475.01	4206.88
475.37	4129.64
475.73	4044.45
476.09	3968.14
476.45	3871.95
476.81	3794.01
477.18	3710.45
477.54	3637.89
477.90	3574.23
478.26	3493.02
478.62	3422.80
478.98	3380.67
479.34	3336.43
479.71	3281.43
480.07	3258.73
480.43	3207.94
480.79	3143.57
481.15	3096.53
481.51	3043.16
481.87	2979.27
482.23	2938.54
482.59	2878.86
482.96	2815.43
483.32	2778.22
483.68	2735.85
484.04	2691.38
484.40	2670.32
484.76	2632.63
485.12	2571.08
485.48	2529.65
485.84	2492.44
486.20	2450.31
486.56	2423.62
486.92	2414.50
487.28	2380.32
487.64	2346.86
488.00	2307.77
488.37	2277.58
488.73	2238.25
489.09	2213.44
489.45	2185.36
489.81	2146.51
490.17	2111.63
490.53	2093.61
490.89	2071.14
491.25	2040.95
491.61	2026.67
491.97	2009.82
492.33	1971.20
492.69	1946.62
493.05	1923.45
493.41	1903.32
493.77	1867.75
494.13	1848.56
494.49	1827.02
494.85	1803.62
495.21	1785.36
495.57	1776.70
495.93	1756.34
496.29	1725.68
496.64	1720.76
497.00	1689.63
497.36	1662.48
497.72	1642.35
498.08	1634.40
498.44	1607.95
498.80	1590.39
499.16	1577.99
499.52	1570.73
499.88	1565.58
500.24	1554.35
500.60	1549.67
500.96	1533.05
501.32	1515.96
501.68	1493.50
502.03	1482.26
502.39	1472.67
502.75	1462.60
503.11	1453.47
503.47	1448.32
503.83	1441.77
504.19	1425.39
504.55	1407.36
504.91	1404.09
505.26	1392.85
505.62	1379.75
505.98	1380.21
506.34	1386.07
506.70	1380.92
507.06	1363.13
507.42	1357.74
507.78	1339.25
508.13	1322.64
508.49	1318.66
508.85	1324.51
509.21	1318.89
509.57	1318.66
509.93	1321.93
510.28	1305.08
510.64	1289.64
511.00	1280.27
511.36	1273.02
511.72	1269.97
512.07	1265.53
512.43	1269.51
512.79	1260.85
513.15	1257.34
513.51	1254.06
513.86	1258.04
514.22	1253.59
514.58	1261.78
514.94	1262.02
515.30	1252.19
515.65	1241.19
516.01	1232.06
516.37	1214.50
516.73	1207.01
517.08	1206.78
517.44	1209.82
517.80	1209.59
518.16	1208.18
518.51	1201.87
518.87	1208.42
519.23	1196.72
519.59	1190.86
519.94	1190.63
520.30	1194.38
520.66	1174.71
521.01	1177.76
521.37	1181.27
521.73	1182.44
522.09	1181.27
522.44	1189.23
522.80	1188.06
523.16	1181.27
523.51	1178.69
523.87	1175.18
524.23	1164.65
524.58	1163.25
524.94	1171.20
525.30	1164.18
525.65	1161.14
526.01	1164.42
526.37	1163.01
526.72	1150.61
527.08	1151.08
527.44	1153.88
527.79	1140.78
528.15	1133.29
528.51	1144.99
528.86	1151.08
529.22	1156.93
529.58	1168.16
529.93	1166.05
530.29	1150.84
530.65	1156.93
531.00	1146.86
531.36	1153.18
531.71	1165.82
532.07	1156.22
532.43	1147.80
532.78	1148.27
533.14	1141.95
533.49	1129.31
533.85	1140.54
534.21	1137.97
534.56	1142.18
534.92	1144.52
535.27	1161.37
535.63	1155.29
535.98	1145.46
536.34	1144.52
536.69	1138.90
537.05	1137.03
537.41	1145.46
537.76	1146.63
538.12	1148.50
538.47	1144.05
538.83	1115.27
539.18	1112.69
539.54	1115.73
539.89	1110.58
540.25	1114.56
540.60	1130.95
540.96	1134.22
541.31	1142.42
541.67	1138.67
542.02	1136.56
542.38	1134.46
542.73	1130.01
543.09	1129.31
543.44	1130.71
543.80	1132.35
544.15	1130.95
544.51	1136.56
544.86	1134.22
545.22	1126.03
545.57	1128.14
545.93	1133.99
546.28	1136.56
546.64	1137.27
546.99	1143.12
547.35	1129.54
547.70	1120.65
548.05	1113.86
548.41	1113.39
548.76	1118.54
549.12	1124.16
549.47	1133.05
549.83	1128.61
550.18	1130.24
550.53	1128.37
550.89	1126.97
551.24	1122.29
551.60	1122.75
551.95	1108.95
552.30	1110.82
552.66	1111.05
553.01	1110.35
553.37	1114.33
553.72	1117.37
554.07	1114.10
554.43	1116.90
554.78	1119.71
555.13	1112.92
555.49	1119.71
555.84	1117.37
556.19	1114.33
556.55	1112.69
556.90	1117.84
557.26	1115.03
557.61	1111.29
557.96	1119.95
558.32	1127.90
558.67	1123.22
559.02	1118.78
559.37	1123.22
559.73	1115.50
560.08	1109.18
560.43	1104.50
560.79	1105.67
561.14	1109.88
561.49	1103.80
561.85	1099.35
562.20	1100.99
562.55	1098.88
562.90	1093.03
563.26	1100.29
563.61	1100.05
563.96	1107.31
564.32	1112.92
564.67	1121.82
565.02	1126.03
565.37	1124.39
565.73	1123.22
566.08	1132.82
566.43	1129.54
566.78	1122.75
567.14	1124.16
567.49	1125.56
567.84	1118.07
568.19	1113.86
568.54	1115.97
568.90	1118.54
569.25	1115.97
569.60	1120.65
569.95	1117.14
570.31	1115.97
570.66	1109.41
571.01	1097.95
571.36	1096.31
571.71	1097.71
572.06	1104.03
572.42	1103.56
572.77	1113.39
573.12	1104.50
573.47	1107.54
573.82	1104.50
574.18	1107.54
574.53	1109.41
574.88	1101.46
575.23	1100.99
575.58	1093.26
575.93	1100.05
576.28	1098.65
576.64	1110.35
576.99	1105.44
577.34	1118.07
577.69	1118.31
578.04	1111.75
578.39	1111.05
578.74	1110.82
579.09	1103.80
579.44	1097.48
579.80	1105.20
580.15	1101.92
580.50	1097.95
580.85	1096.31
581.20	1096.07
581.55	1098.18
581.90	1104.26
582.25	1114.09
582.60	1116.44
582.95	1116.90
583.30	1113.39
583.65	1102.16
584.00	1105.20
584.35	1105.67
584.71	1104.26
585.06	1103.09
585.41	1125.10
585.76	1119.01
586.11	1116.20
586.46	1122.99
586.81	1121.82
587.16	1109.18
587.51	1095.60
587.86	1093.03
588.21	1084.37
588.56	1082.03
588.91	1077.82
589.26	1083.90
589.61	1091.16
589.96	1096.31
590.31	1096.54
590.66	1095.14
591.01	1101.92
591.36	1090.92
591.71	1092.56
592.06	1095.37
592.41	1103.33
592.76	1100.75
593.10	1114.33
593.45	1106.37
593.80	1106.61
594.15	1098.65
594.50	1100.05
594.85	1089.05
595.20	1091.86
595.55	1098.18
595.90	1097.01
596.25	1101.22
596.60	1110.35
596.95	1110.58
597.30	1103.33
597.64	1153.88
597.99	1152.25
598.34	1154.12
598.69	1151.54
599.04	1151.31
599.39	1109.88
599.74	1100.52
600.09	1097.95
600.44	1106.14
600.78	1111.99
601.13	1103.33
601.48	1111.29
601.83	1107.54
602.18	1096.31
602.53	1092.56
602.88	1086.71
603.22	1090.92
603.57	1084.14
603.92	1098.18
604.27	1104.50
604.62	1121.82
604.97	1112.69
605.31	1118.78
605.66	1113.16
606.01	1104.73
606.36	1096.78
606.71	1097.01
607.05	1092.80
607.40	1100.05
607.75	1102.39
608.10	1097.71
608.44	1102.16
608.79	1107.07
609.14	1090.69
609.49	1092.80
609.84	1099.82
610.18	1097.95
610.53	1100.75
610.88	1120.18
611.23	1119.48
611.57	1121.58
611.92	1120.18
612.27	1116.20
612.62	1103.09
612.96	1096.54
613.31	1088.82
613.66	1086.24
614.00	1090.22
614.35	1095.60
614.70	1104.50
615.05	1104.73
615.39	1109.65
615.74	1109.88
616.09	1112.46
616.43	1108.48
616.78	1116.20
617.13	1119.01
617.47	1115.73
617.82	1104.03
618.17	1109.88
618.51	1106.37
618.86	1108.48
619.21	1110.12
619.55	1111.05
619.90	1105.44
620.25	1104.50
620.59	1096.78
620.94	1094.20
621.29	1101.46
621.63	1112.69
621.98	1121.58
622.32	1118.78
622.67	1113.86
623.02	1112.46
623.36	1096.31
623.71	1086.01
624.05	1080.86
624.40	1094.43
624.75	1095.14
625.09	1104.73
625.44	1108.95
625.78	1121.58
626.13	1112.92
626.48	1109.18
626.82	1105.20
627.17	1101.46
627.51	1100.75
627.86	1100.75
628.20	1102.63
628.55	1108.71
628.89	1110.58
629.24	1100.99
629.58	1104.73
629.93	1115.73
630.28	1108.95
630.62	1121.58
630.97	1127.20
631.31	1123.93
631.66	1113.16
632.00	1106.84
632.35	1094.67
632.69	1098.65
633.04	1100.05
633.38	1104.97
633.73	1113.86
634.07	1113.16
634.42	1103.33
634.76	1108.24
635.11	1095.60
635.45	1093.73
635.79	1093.26
636.14	1102.39
636.48	1101.46
636.83	1120.18
637.17	1124.63
637.52	1127.44
637.86	1136.33
638.21	1131.65
638.55	1118.07
638.89	1109.41
639.24	1093.97
639.58	1085.07
639.93	1082.26
640.27	1075.71
640.61	1074.54
640.96	1080.63
641.30	1081.80
641.65	1088.82
641.99	1103.80
642.33	1109.65
642.68	1124.16
643.02	1127.90
643.37	1124.86
643.71	1116.90
644.05	1116.20
644.40	1104.26
644.74	1103.56
645.08	1094.43
645.43	1103.56
645.77	1101.22
646.11	1101.69
646.46	1093.73
646.80	1099.82
647.14	1093.50
647.49	1092.56
647.83	1083.67
648.17	1084.60
648.52	1088.58
648.86	1089.99
649.20	1094.67
649.55	1103.80
649.89	1100.29
650.23	1094.43
650.57	1083.20
650.92	1073.60
651.26	1080.86
651.60	1076.65
651.95	1091.39
652.29	1096.07
652.63	1106.61
652.97	1098.65
653.32	1107.31
653.66	1094.67
654.00	1099.12
654.34	1090.69
654.69	1090.46
655.03	1081.56
655.37	1079.69
655.71	1072.67
656.05	1077.58
656.40	1078.05
656.74	1086.01
657.08	1088.82
657.42	1090.92
657.76	1092.09
658.11	1097.48
658.45	1088.35
658.79	1086.71
659.13	1088.58
659.47	1078.99
659.82	1074.07
660.16	1089.05
660.50	1087.41
660.84	1089.52
661.18	1092.56
661.52	1091.16
661.87	1084.84
662.21	1081.09
662.55	1073.84
662.89	1074.07
663.23	1076.65
663.57	1074.77
663.91	1073.84
664.25	1072.90
664.60	1082.03
664.94	1075.48
665.28	1071.97
665.62	1083.43
665.96	1091.63
666.30	1089.05
666.64	1093.03
666.98	1094.43
667.32	1087.41
667.66	1085.77
668.01	1086.01
668.35	1089.05
668.69	1092.09
669.03	1102.39
669.37	1096.31
669.71	1088.58
670.05	1084.37
670.39	1079.46
670.73	1069.16
671.07	1069.39
671.41	1070.80
671.75	1072.67
672.09	1083.90
672.43	1094.20
672.77	1102.39
673.11	1106.37
673.45	1118.54
673.79	1105.67
674.13	1093.50
674.47	1089.52
674.81	1086.24
675.15	1073.14
675.49	1084.14
675.83	1095.37
676.17	1096.54
676.51	1105.44
676.85	1106.84
677.19	1100.05
677.53	1103.33
677.87	1100.52
678.21	1088.35
678.55	1086.01
678.89	1087.41
679.23	1076.88
679.57	1090.22
679.90	1083.43
680.24	1085.07
680.58	1093.50
680.92	1102.16
681.26	1085.54
681.60	1092.33
681.94	1099.35
682.28	1093.03
682.62	1085.31
682.96	1086.71
683.29	1086.94
683.63	1078.99
683.97	1074.54
684.31	1076.18
684.65	1078.99
684.99	1084.37
685.33	1081.33
685.67	1075.94
686.00	1064.48
686.34	1063.54
686.68	1064.01
687.02	1071.73
687.36	1074.54
687.70	1089.29
688.03	1092.56
688.37	1091.86
688.71	1097.48
689.05	1104.73
689.39	1092.56
689.72	1087.41
690.06	1091.63
690.40	1080.16
690.74	1075.24
691.08	1071.73
691.41	1079.69
691.75	1075.48
692.09	1078.28
692.43	1085.54
692.76	1091.39
693.10	1085.31
693.44	1084.14
693.78	1084.37
694.11	1080.39
694.45	1084.37
694.79	1085.07
695.13	1085.31
695.46	1093.97
695.80	1102.39
696.14	1099.82
696.48	1105.44
696.81	1113.16
697.15	1105.44
697.49	1103.56
697.82	1112.92
698.16	1114.56
698.50	1106.84
698.83	1105.67
699.17	1104.73
699.51	1096.78
699.84	1091.39
700.18	1089.52
700.52	1084.14
700.85	1069.62
701.19	1067.05
701.53	1067.28
701.86	1069.86
702.20	1081.80
702.54	1091.63
702.87	1093.73
703.21	1093.97
703.55	1088.12
703.88	1081.09
704.22	1078.28
704.55	1075.24
704.89	1075.94
705.23	1073.60
705.56	1086.48
705.90	1096.07
706.23	1108.24
706.57	1110.35
706.91	1127.67
707.24	1117.14
707.58	1116.44
707.91	1108.95
708.25	1109.65
708.58	1095.14
708.92	1094.20
709.26	1096.07
709.59	1087.18
709.93	1079.22
710.26	1085.07
710.60	1077.35
710.93	1064.94
711.27	1080.16
711.60	1078.28
711.94	1084.37
712.27	1088.58
712.61	1093.73
712.94	1087.18
713.28	1088.35
713.61	1075.48
713.95	1083.67
714.28	1082.73
714.62	1078.52
714.95	1088.82
715.29	1099.35
715.62	1086.71
715.96	1087.88
716.29	1095.84
716.63	1088.82
716.96	1081.80
717.29	1089.75
717.63	1085.07
717.96	1082.50
718.30	1081.56
718.63	1087.41
718.97	1087.41
719.30	1091.39
719.63	1079.46
719.97	1089.29
720.30	1076.41
720.64	1080.16
720.97	1067.99
721.30	1076.41
721.64	1074.54
721.97	1082.73
722.31	1073.37
722.64	1079.46
722.97	1085.77
723.31	1080.39
723.64	1077.82
723.97	1081.56
724.31	1086.71
724.64	1086.71
724.98	1086.01
725.31	1078.52
725.64	1069.39
725.98	1063.07
726.31	1053.71
726.64	1053.94
726.97	1067.28
727.31	1079.46
727.64	1080.39
727.97	1087.41
728.31	1085.77
728.64	1084.37
728.97	1077.58
729.31	1083.20
729.64	1086.48
729.97	1081.80
730.30	1080.39
730.64	1084.60
730.97	1083.20
731.30	1068.22
731.63	1075.94
731.97	1075.24
732.30	1077.82
732.63	1081.80
732.96	1092.09
733.30	1097.01
733.63	1095.84
733.96	1085.54
734.29	1083.43
734.63	1084.60
734.96	1083.67
735.29	1075.94
735.62	1095.84
735.95	1101.22
736.29	1102.39
736.62	1093.50
736.95	1109.18
737.28	1102.63
737.61	1098.18
737.94	1091.39
738.28	1090.46
738.61	1078.28
738.94	1080.39
739.27	1078.28
739.60	1084.37
739.93	1097.95
740.27	1103.33
740.60	1096.54
740.93	1095.60
741.26	1096.07
741.59	1085.54
741.92	1090.92
742.25	1092.33
742.58	1099.58
742.91	1096.78
743.25	1093.50
743.58	1083.43
743.91	1083.20
744.24	1081.33
744.57	1072.67
744.90	1075.48
745.23	1081.56
745.56	1072.67
745.89	1063.77
746.22	1075.94
746.55	1075.71
746.88	1073.60
747.21	1085.31
747.54	1089.99
747.87	1088.12
748.20	1083.90
748.53	1077.82
748.87	1074.07
749.20	1073.37
749.53	1072.67
749.86	1078.75
750.19	1092.56
750.52	1090.46
750.85	1094.67
751.18	1089.52
751.51	1102.63
751.84	1091.39
752.16	1087.18
752.49	1077.82
752.82	1072.20
753.15	1066.11
753.48	1065.88
753.81	1078.99
754.14	1082.97
754.47	1091.16
754.80	1088.35
755.13	1095.14
755.46	1079.22
755.79	1076.65
756.12	1076.18
756.45	1068.45
756.78	1066.58
757.11	1076.41
757.43	1078.99
757.76	1080.86
758.09	1089.99
758.42	1084.60
758.75	1086.24
759.08	1077.11
759.41	1089.99
759.74	1077.35
760.07	1082.97
760.39	1079.46
760.72	1091.39
761.05	1062.60
761.38	1077.35
761.71	1083.20
762.04	1075.01
762.36	1069.39
762.69	1082.50
763.02	1078.05
763.35	1066.82
763.68	1073.14
764.01	1078.75
