SpectraSuite Data File
++++++++++++++++++++++++++++++++++++
Date: Mon Aug 26 10:24:41 PDT 2019
User: corrico
Dark Spectrum Present: No
Reference Spectrum Present: No
Number of Sampled Component Spectra: 1
Spectrometers: USB2+H06089
Integration Time (usec): 10000 (USB2+H06089)
Spectra Averaged: 2 (USB2+H06089)
Boxcar Smoothing: 2 (USB2+H06089)
Correct for Electrical Dark: No (USB2+H06089)
Strobe/Lamp Enabled: No (USB2+H06089)
Correct for Detector Non-linearity: No (USB2+H06089)
Correct for Stray Light: No (USB2+H06089)
Number of Pixels in Processed Spectrum: 2048
>>>>>Begin Processed Spectral Data<<<<<
339.70	1025.15
340.07	1025.15
340.45	997.07
340.82	979.05
341.19	958.22
341.57	934.11
341.94	924.98
342.31	928.49
342.69	928.02
343.06	920.77
343.43	917.72
343.81	907.89
344.18	899.70
344.55	893.62
344.93	899.94
345.30	912.34
345.67	928.02
346.04	937.38
346.42	951.66
346.79	962.66
347.16	964.53
347.54	979.05
347.91	978.34
348.28	980.92
348.65	997.07
349.03	1004.56
349.40	997.07
349.77	1009.00
350.14	1015.32
350.52	1027.50
350.89	1050.43
351.26	1066.11
351.63	1078.75
352.01	1092.56
352.38	1083.20
352.75	1078.28
353.12	1074.54
353.50	1077.11
353.87	1074.31
354.24	1079.92
354.61	1082.50
354.98	1088.58
355.36	1092.80
355.73	1104.97
356.10	1106.84
356.47	1102.86
356.84	1104.97
357.22	1095.60
357.59	1098.88
357.96	1108.48
358.33	1121.35
358.70	1116.20
359.08	1134.93
359.45	1132.35
359.82	1124.16
360.19	1111.99
360.56	1112.92
360.94	1097.01
361.31	1089.29
361.68	1082.97
362.05	1085.07
362.42	1084.14
362.79	1088.35
363.16	1087.41
363.54	1088.58
363.91	1097.24
364.28	1096.07
364.65	1102.63
365.02	1111.75
365.39	1109.88
365.76	1097.71
366.14	1093.50
366.51	1085.31
366.88	1080.16
367.25	1083.67
367.62	1086.71
367.99	1099.82
368.36	1102.86
368.73	1103.33
369.10	1103.09
369.48	1104.97
369.85	1106.61
370.22	1097.01
370.59	1104.26
370.96	1111.99
371.33	1120.18
371.70	1110.12
372.07	1114.56
372.44	1103.80
372.81	1104.03
373.18	1086.94
373.55	1097.95
373.93	1099.35
374.30	1097.24
374.67	1094.43
375.04	1101.69
375.41	1096.31
375.78	1098.88
376.15	1101.46
376.52	1101.22
376.89	1109.65
377.26	1115.03
377.63	1111.52
378.00	1111.52
378.37	1113.39
378.74	1103.56
379.11	1099.82
379.48	1099.35
379.85	1101.92
380.22	1099.12
380.59	1106.14
380.96	1110.58
381.33	1120.88
381.70	1118.54
382.07	1118.54
382.44	1119.95
382.81	1119.24
383.18	1115.97
383.55	1122.05
383.92	1127.90
384.29	1121.35
384.66	1125.33
385.03	1121.12
385.40	1115.97
385.77	1105.67
386.14	1100.05
386.51	1096.07
386.88	1092.09
387.25	1092.56
387.62	1100.75
387.99	1117.84
388.36	1122.05
388.73	1137.50
389.10	1139.14
389.46	1133.99
389.83	1134.69
390.20	1137.97
390.57	1125.10
390.94	1132.12
391.31	1137.73
391.68	1125.33
392.05	1113.63
392.42	1127.90
392.79	1117.14
393.16	1119.71
393.53	1134.93
393.89	1145.93
394.26	1131.18
394.63	1133.99
395.00	1134.22
395.37	1123.69
395.74	1122.05
396.11	1137.27
396.48	1139.84
396.84	1143.12
397.21	1148.97
397.58	1150.61
397.95	1151.78
398.32	1160.67
398.69	1167.23
399.06	1169.10
399.42	1173.08
399.79	1179.40
400.16	1185.95
400.53	1183.61
400.90	1192.74
401.27	1202.33
401.64	1209.59
402.00	1224.33
402.37	1237.68
402.74	1253.59
403.11	1258.74
403.48	1259.21
403.84	1262.02
404.21	1268.57
404.58	1271.38
404.95	1298.06
405.32	1319.36
405.68	1338.79
406.05	1372.72
406.42	1397.07
406.79	1415.32
407.16	1454.64
407.52	1483.20
407.89	1502.16
408.26	1541.01
408.63	1575.41
408.99	1602.10
409.36	1638.84
409.73	1681.21
410.10	1717.49
410.47	1773.19
410.83	1839.66
411.20	1927.20
411.57	2008.41
411.94	2087.06
412.30	2144.87
412.67	2218.83
413.04	2292.32
413.40	2390.86
413.77	2501.80
414.14	2628.19
414.51	2741.00
414.87	2865.05
415.24	2993.08
415.61	3146.15
415.97	3292.90
416.34	3490.91
416.71	3677.22
417.08	3888.57
417.44	4091.96
417.81	4351.52
418.18	4595.41
418.54	4847.02
418.91	5090.90
419.28	5376.68
419.64	5658.25
420.01	5966.73
420.38	6308.21
420.74	6654.14
421.11	7094.87
421.48	7484.10
421.84	7886.67
422.21	8283.16
422.58	8821.01
422.94	9285.37
423.31	9815.97
423.68	10415.62
424.04	11109.59
424.41	11703.85
424.77	12330.88
425.14	13025.78
425.51	13692.84
425.87	14423.55
426.24	15181.18
426.61	16061.46
426.97	17067.65
427.34	18048.81
427.70	19094.79
428.07	20125.10
428.44	21169.44
428.80	22159.96
429.17	23190.50
429.53	24189.44
429.90	25436.47
430.27	26602.53
430.63	27760.39
431.00	29107.14
431.36	30542.35
431.73	31720.34
432.09	32957.08
432.46	34254.91
432.83	35637.93
433.19	36847.99
433.56	38390.87
433.92	39994.37
434.29	41515.95
434.65	42934.08
435.02	44300.26
435.38	45511.72
435.75	46434.36
436.11	47712.52
436.48	48731.59
436.84	49774.30
437.21	50792.20
437.57	51798.86
437.94	52436.66
438.30	53014.77
438.67	53266.61
439.03	53316.23
439.40	53444.96
439.76	53295.64
440.13	53111.67
440.49	53126.65
440.86	52857.02
441.22	52433.62
441.59	51806.35
441.95	51202.50
442.32	50308.88
442.68	49592.44
443.05	48637.50
443.41	47755.12
443.78	46703.75
444.14	45695.21
444.51	44399.73
444.87	43386.28
445.24	42165.45
445.60	41044.57
445.96	39921.11
446.33	39044.35
446.69	37917.38
447.06	37048.34
447.42	35996.50
447.79	34883.11
448.15	33835.72
448.51	32807.06
448.88	31906.18
449.24	30909.35
449.61	30227.08
449.97	29425.45
450.33	28684.90
450.70	27831.31
451.06	27233.54
451.43	26426.75
451.79	25806.98
452.15	25303.53
452.52	24709.74
452.88	24087.39
453.24	23553.98
453.61	22936.78
453.97	22253.35
454.34	21613.68
454.70	21065.76
455.06	20447.62
455.43	19759.04
455.79	19015.21
456.15	18421.19
456.52	17726.52
456.88	17189.36
457.24	16608.21
457.61	16173.34
457.97	15606.22
458.33	15063.45
458.70	14475.98
459.06	13920.57
459.42	13431.40
459.79	12974.06
460.15	12576.87
460.51	12142.47
460.88	11765.87
461.24	11296.13
461.60	10954.64
461.96	10548.09
462.33	10205.44
462.69	9860.21
463.05	9531.83
463.42	9232.01
463.78	8989.53
464.14	8700.47
464.50	8489.12
464.87	8256.01
465.23	7980.52
465.59	7731.96
465.95	7529.27
466.32	7297.79
466.68	7098.14
467.04	6918.86
467.40	6745.19
467.77	6556.31
468.13	6352.68
468.49	6226.29
468.85	6073.69
469.22	5943.09
469.58	5818.57
469.94	5718.40
470.30	5568.84
470.66	5462.58
471.03	5327.06
471.39	5227.82
471.75	5119.22
472.11	5018.11
472.47	4913.72
472.84	4826.89
473.20	4712.43
473.56	4618.35
473.92	4513.02
474.28	4407.93
474.65	4293.71
475.01	4210.16
475.37	4131.05
475.73	4048.66
476.09	3971.66
476.45	3914.08
476.81	3822.33
477.18	3741.58
477.54	3687.05
477.90	3620.11
478.26	3528.12
478.62	3468.21
478.98	3395.42
479.34	3331.75
479.71	3286.81
480.07	3269.03
480.43	3221.51
480.79	3164.64
481.15	3113.61
481.51	3048.08
481.87	2987.46
482.23	2936.20
482.59	2906.48
482.96	2858.03
483.32	2817.07
483.68	2770.49
484.04	2743.11
484.40	2702.38
484.76	2670.08
485.12	2630.53
485.48	2579.04
485.84	2532.69
486.20	2490.80
486.56	2443.52
486.92	2418.24
487.28	2407.24
487.64	2394.37
488.00	2359.03
488.37	2322.05
488.73	2285.07
489.09	2250.89
489.45	2194.25
489.81	2170.85
490.17	2142.29
490.53	2109.29
490.89	2067.86
491.25	2054.52
491.61	2027.37
491.97	2003.97
492.33	1983.84
492.69	1947.79
493.05	1921.81
493.41	1888.11
493.77	1868.68
494.13	1852.77
494.49	1847.38
494.85	1819.30
495.21	1794.96
495.57	1774.83
495.93	1745.81
496.29	1720.06
496.64	1703.68
497.00	1702.97
497.36	1681.91
497.72	1670.21
498.08	1652.65
498.44	1637.44
498.80	1621.99
499.16	1614.74
499.52	1598.82
499.88	1601.39
500.24	1574.48
500.60	1554.58
500.96	1534.92
501.32	1513.16
501.68	1490.45
502.03	1496.07
502.39	1480.15
502.75	1473.84
503.11	1468.22
503.47	1452.54
503.83	1436.39
504.19	1428.90
504.55	1423.98
504.91	1406.90
505.26	1403.39
505.62	1396.60
505.98	1383.26
506.34	1367.58
506.70	1364.30
507.06	1355.17
507.42	1356.57
507.78	1359.62
508.13	1364.06
508.49	1352.83
508.85	1350.72
509.21	1331.76
509.57	1319.59
509.93	1302.27
510.28	1309.53
510.64	1295.95
511.00	1304.61
511.36	1298.76
511.72	1282.38
512.07	1272.08
512.43	1277.93
512.79	1258.27
513.15	1252.89
513.51	1258.97
513.86	1246.10
514.22	1229.48
514.58	1237.44
514.94	1237.21
515.30	1237.44
515.65	1230.19
516.01	1229.25
516.37	1221.76
516.73	1217.31
517.08	1207.95
517.44	1206.55
517.80	1208.65
518.16	1210.76
518.51	1212.87
518.87	1213.80
519.23	1221.99
519.59	1215.44
519.94	1216.84
520.30	1210.53
520.66	1199.29
521.01	1184.31
521.37	1187.12
521.73	1179.86
522.09	1168.40
522.44	1168.16
522.80	1173.54
523.16	1174.48
523.51	1163.01
523.87	1167.23
524.23	1172.61
524.58	1173.31
524.94	1149.91
525.30	1158.57
525.65	1166.05
526.01	1165.12
526.37	1167.93
526.72	1187.35
527.08	1178.46
527.44	1173.31
527.79	1169.10
528.15	1161.37
528.51	1151.78
528.86	1137.73
529.22	1131.88
529.58	1139.84
529.93	1135.63
530.29	1140.07
530.65	1154.12
531.00	1151.08
531.36	1142.65
531.71	1150.37
532.07	1152.01
532.43	1151.54
532.78	1159.97
533.14	1154.82
533.49	1149.20
533.85	1138.90
534.21	1147.10
534.56	1144.99
534.92	1150.37
535.27	1148.73
535.63	1157.39
535.98	1145.93
536.34	1133.76
536.69	1137.03
537.05	1141.25
537.41	1137.73
537.76	1139.84
538.12	1151.08
538.47	1144.05
538.83	1133.52
539.18	1132.35
539.54	1137.27
539.89	1137.97
540.25	1140.31
540.60	1156.22
540.96	1157.86
541.31	1164.42
541.67	1156.69
542.02	1152.25
542.38	1135.16
542.73	1122.99
543.09	1108.24
543.44	1115.73
543.80	1112.69
544.15	1125.80
544.51	1126.73
544.86	1124.63
545.22	1118.78
545.57	1120.88
545.93	1121.82
546.28	1132.12
546.64	1133.99
546.99	1132.12
547.35	1131.41
547.70	1130.71
548.05	1124.63
548.41	1124.16
548.76	1122.75
549.12	1122.29
549.47	1118.07
549.83	1111.29
550.18	1112.92
550.53	1113.63
550.89	1112.46
551.24	1112.69
551.60	1130.24
551.95	1130.95
552.30	1129.31
552.66	1137.27
553.01	1131.88
553.37	1126.03
553.72	1122.99
554.07	1124.39
554.43	1120.65
554.78	1117.61
555.13	1117.14
555.49	1111.05
555.84	1111.52
556.19	1106.84
556.55	1112.69
556.90	1112.92
557.26	1122.52
557.61	1124.86
557.96	1135.86
558.32	1137.03
558.67	1133.05
559.02	1126.03
559.37	1127.90
559.73	1118.54
560.08	1122.99
560.43	1127.20
560.79	1123.93
561.14	1119.01
561.49	1119.48
561.85	1114.56
562.20	1116.44
562.55	1132.12
562.90	1129.78
563.26	1125.10
563.61	1114.56
563.96	1103.80
564.32	1089.52
564.67	1086.71
565.02	1092.33
565.37	1094.90
565.73	1101.92
566.08	1108.01
566.43	1118.31
566.78	1110.82
567.14	1118.54
567.49	1122.05
567.84	1121.58
568.19	1123.22
568.54	1129.78
568.90	1132.82
569.25	1125.33
569.60	1115.03
569.95	1111.29
570.31	1107.31
570.66	1104.97
571.01	1108.71
571.36	1108.48
571.71	1102.63
572.06	1105.90
572.42	1099.58
572.77	1093.26
573.12	1109.88
573.47	1107.31
573.82	1115.97
574.18	1114.56
574.53	1119.95
574.88	1111.75
575.23	1114.56
575.58	1113.16
575.93	1114.10
576.28	1108.71
576.64	1120.88
576.99	1127.44
577.34	1122.99
577.69	1126.50
578.04	1124.63
578.39	1113.86
578.74	1105.90
579.09	1104.26
579.44	1103.33
579.80	1105.20
580.15	1106.61
580.50	1110.58
580.85	1101.69
581.20	1098.18
581.55	1102.39
581.90	1099.35
582.25	1095.60
582.60	1104.26
582.95	1112.69
583.30	1113.86
583.65	1110.35
584.00	1123.46
584.35	1119.01
584.71	1114.80
585.06	1115.73
585.41	1118.54
585.76	1106.14
586.11	1108.24
586.46	1115.03
586.81	1118.78
587.16	1112.92
587.51	1116.20
587.86	1112.69
588.21	1097.95
588.56	1089.29
588.91	1093.97
589.26	1095.14
589.61	1095.84
589.96	1107.07
590.31	1106.37
590.66	1111.52
591.01	1118.07
591.36	1112.22
591.71	1113.86
592.06	1111.75
592.41	1114.33
592.76	1094.90
593.10	1102.86
593.45	1105.20
593.80	1099.82
594.15	1089.29
594.50	1101.46
594.85	1108.71
595.20	1101.22
595.55	1118.78
595.90	1121.35
596.25	1108.01
596.60	1112.46
596.95	1116.20
597.30	1105.67
597.64	1159.97
597.99	1174.95
598.34	1169.33
598.69	1165.12
599.04	1165.35
599.39	1108.48
599.74	1104.26
600.09	1089.29
600.44	1075.48
600.78	1082.50
601.13	1087.41
601.48	1092.33
601.83	1092.33
602.18	1098.65
602.53	1095.37
602.88	1088.82
603.22	1079.92
603.57	1086.94
603.92	1093.26
604.27	1090.22
604.62	1089.75
604.97	1097.48
605.31	1093.97
605.66	1101.46
606.01	1099.35
606.36	1110.12
606.71	1102.86
607.05	1111.52
607.40	1098.41
607.75	1103.33
608.10	1096.54
608.44	1100.75
608.79	1102.16
609.14	1109.65
609.49	1110.58
609.84	1120.18
610.18	1122.75
610.53	1117.37
610.88	1110.12
611.23	1112.22
611.57	1102.63
611.92	1103.09
612.27	1110.35
612.62	1111.75
612.96	1108.95
613.31	1116.90
613.66	1117.14
614.00	1111.99
614.35	1116.44
614.70	1111.75
615.05	1107.54
615.39	1095.14
615.74	1094.90
616.09	1090.92
616.43	1099.58
616.78	1087.88
617.13	1087.41
617.47	1078.05
617.82	1078.75
618.17	1070.80
618.51	1076.41
618.86	1086.24
619.21	1088.82
619.55	1091.86
619.90	1087.41
620.25	1089.05
620.59	1091.86
620.94	1101.69
621.29	1106.84
621.63	1106.37
621.98	1107.78
622.32	1115.27
622.67	1107.78
623.02	1095.60
623.36	1099.12
623.71	1098.88
624.05	1086.94
624.40	1092.56
624.75	1100.52
625.09	1096.54
625.44	1098.88
625.78	1098.41
626.13	1095.14
626.48	1093.50
626.82	1094.20
627.17	1089.05
627.51	1085.54
627.86	1084.60
628.20	1086.71
628.55	1078.05
628.89	1075.48
629.24	1076.41
629.58	1078.28
629.93	1069.86
630.28	1087.41
630.62	1089.29
630.97	1091.16
631.31	1078.99
631.66	1089.99
632.00	1086.94
632.35	1081.56
632.69	1080.16
633.04	1088.35
633.38	1078.75
633.73	1068.22
634.07	1075.94
634.42	1077.11
634.76	1085.77
635.11	1087.18
635.45	1093.26
635.79	1088.82
636.14	1094.43
636.48	1093.03
636.83	1091.39
637.17	1090.69
637.52	1101.69
637.86	1092.09
638.21	1081.09
638.55	1084.60
638.89	1086.94
639.24	1080.86
639.58	1087.18
639.93	1097.24
640.27	1092.33
640.61	1096.54
640.96	1097.71
641.30	1092.80
641.65	1100.75
641.99	1105.20
642.33	1104.26
642.68	1103.80
643.02	1105.44
643.37	1089.75
643.71	1090.92
644.05	1081.09
644.40	1081.09
644.74	1085.07
645.08	1090.69
645.43	1097.48
645.77	1105.44
646.11	1104.97
646.46	1098.41
646.80	1092.33
647.14	1085.31
647.49	1088.12
647.83	1078.05
648.17	1081.80
648.52	1082.50
648.86	1083.67
649.20	1079.22
649.55	1086.71
649.89	1095.37
650.23	1099.82
650.57	1100.75
650.92	1101.46
651.26	1103.80
651.60	1087.18
651.95	1087.41
652.29	1090.22
652.63	1085.54
652.97	1080.16
653.32	1080.86
653.66	1078.75
654.00	1072.90
654.34	1087.65
654.69	1082.26
655.03	1090.22
655.37	1086.48
655.71	1090.46
656.05	1078.52
656.40	1089.75
656.74	1091.86
657.08	1093.97
657.42	1091.39
657.76	1098.65
658.11	1100.05
658.45	1093.97
658.79	1091.86
659.13	1092.09
659.47	1085.54
659.82	1077.58
660.16	1081.09
660.50	1088.58
660.84	1082.97
661.18	1080.63
661.52	1086.48
661.87	1097.71
662.21	1096.31
662.55	1106.61
662.89	1112.46
663.23	1115.97
663.57	1097.24
663.91	1101.22
664.25	1092.33
664.60	1089.75
664.94	1088.35
665.28	1101.22
665.62	1096.78
665.96	1096.31
666.30	1098.18
666.64	1104.26
666.98	1099.35
667.32	1095.84
667.66	1097.71
668.01	1099.12
668.35	1095.60
668.69	1087.65
669.03	1085.54
669.37	1086.71
669.71	1087.65
670.05	1080.39
670.39	1081.80
670.73	1086.48
671.07	1080.39
671.41	1074.07
671.75	1077.11
672.09	1090.92
672.43	1094.90
672.77	1093.50
673.11	1092.33
673.45	1082.50
673.79	1065.41
674.13	1064.01
674.47	1071.73
674.81	1065.41
675.15	1069.86
675.49	1070.80
675.83	1071.73
676.17	1065.88
676.51	1072.67
676.85	1083.43
677.19	1092.80
677.53	1095.60
677.87	1094.90
678.21	1091.86
678.55	1090.22
678.89	1082.73
679.23	1081.56
679.57	1095.60
679.90	1100.29
680.24	1087.88
680.58	1100.05
680.92	1095.37
681.26	1086.94
681.60	1087.18
681.94	1089.05
682.28	1090.46
682.62	1082.03
682.96	1084.37
683.29	1088.12
683.63	1086.94
683.97	1079.46
684.31	1090.22
684.65	1089.29
684.99	1092.56
685.33	1101.22
685.67	1097.95
686.00	1098.65
686.34	1100.52
686.68	1086.01
687.02	1073.37
687.36	1083.90
687.70	1082.97
688.03	1075.48
688.37	1082.73
688.71	1089.05
689.05	1077.58
689.39	1066.11
689.72	1069.62
690.06	1071.26
690.40	1074.31
690.74	1077.11
691.08	1089.99
691.41	1091.86
691.75	1088.12
692.09	1087.88
692.43	1089.52
692.76	1085.54
693.10	1088.12
693.44	1083.20
693.78	1077.35
694.11	1068.22
694.45	1062.60
694.79	1062.60
695.13	1070.56
695.46	1072.20
695.80	1071.73
696.14	1079.46
696.48	1070.80
696.81	1068.45
697.15	1071.50
697.49	1084.14
697.82	1085.77
698.16	1094.43
698.50	1095.14
698.83	1093.73
699.17	1081.80
699.51	1071.73
699.84	1069.39
700.18	1077.82
700.52	1081.56
700.85	1085.54
701.19	1091.63
701.53	1090.22
701.86	1089.05
702.20	1080.16
702.54	1093.50
702.87	1090.46
703.21	1093.26
703.55	1092.80
703.88	1093.97
704.22	1077.11
704.55	1077.82
704.89	1073.14
705.23	1068.92
705.56	1084.84
705.90	1093.97
706.23	1095.84
706.57	1098.18
706.91	1097.71
707.24	1089.75
707.58	1089.29
707.91	1090.69
708.25	1092.33
708.58	1093.26
708.92	1082.50
709.26	1073.60
709.59	1068.22
709.93	1067.28
710.26	1065.65
710.60	1075.71
710.93	1082.26
711.27	1088.35
711.60	1085.77
711.94	1080.86
712.27	1071.26
712.61	1070.09
712.94	1070.80
713.28	1072.67
713.61	1084.60
713.95	1101.46
714.28	1105.44
714.62	1101.92
714.95	1098.65
715.29	1089.52
715.62	1065.41
715.96	1068.92
716.29	1071.50
716.63	1070.80
716.96	1078.52
717.29	1100.75
717.63	1089.29
717.96	1086.71
718.30	1096.07
718.63	1094.20
718.97	1095.14
719.30	1091.63
719.63	1093.26
719.97	1098.65
720.30	1098.65
720.64	1099.58
720.97	1115.50
721.30	1108.48
721.64	1093.97
721.97	1086.01
722.31	1071.50
722.64	1075.94
722.97	1089.99
723.31	1085.54
723.64	1080.39
723.97	1079.46
724.31	1061.43
724.64	1056.28
724.98	1057.45
725.31	1054.18
725.64	1051.84
725.98	1053.94
726.31	1050.67
726.64	1056.99
726.97	1072.90
727.31	1081.80
727.64	1079.22
727.97	1092.33
728.31	1089.29
728.64	1078.99
728.97	1078.28
729.31	1084.84
729.64	1077.58
729.97	1086.48
730.30	1096.07
730.64	1099.58
730.97	1109.41
731.30	1109.65
731.63	1102.63
731.97	1093.97
732.30	1095.14
732.63	1091.86
732.96	1084.60
733.30	1087.41
733.63	1092.09
733.96	1085.54
734.29	1079.46
734.63	1078.52
734.96	1076.18
735.29	1070.80
735.62	1078.05
735.95	1080.86
736.29	1078.05
736.62	1076.18
736.95	1079.46
737.28	1082.26
737.61	1071.50
737.94	1076.18
738.28	1078.75
738.61	1080.63
738.94	1067.99
739.27	1080.39
739.60	1075.24
739.93	1072.43
740.27	1071.26
740.60	1081.80
740.93	1076.88
741.26	1081.80
741.59	1088.82
741.92	1091.86
742.25	1093.50
742.58	1091.39
742.91	1084.84
743.25	1087.41
743.58	1084.37
743.91	1080.86
744.24	1076.65
744.57	1087.41
744.90	1076.18
745.23	1075.24
745.56	1079.69
745.89	1087.65
746.22	1081.33
746.55	1079.92
746.88	1095.84
747.21	1092.33
747.54	1090.46
747.87	1093.97
748.20	1104.26
748.53	1084.60
748.87	1079.22
749.20	1077.11
749.53	1067.28
749.86	1059.56
750.19	1057.69
750.52	1057.92
750.85	1048.33
751.18	1051.37
751.51	1051.60
751.84	1062.84
752.16	1071.03
752.49	1084.37
752.82	1089.05
753.15	1088.58
753.48	1090.69
753.81	1080.16
754.14	1075.24
754.47	1074.07
754.80	1076.18
755.13	1076.41
755.46	1085.54
755.79	1086.24
756.12	1090.46
756.45	1091.39
756.78	1089.99
757.11	1089.29
757.43	1096.54
757.76	1103.80
758.09	1097.95
758.42	1090.92
758.75	1088.35
759.08	1088.12
759.41	1073.37
759.74	1074.31
760.07	1079.92
760.39	1080.63
760.72	1078.28
761.05	1072.43
761.38	1079.92
761.71	1076.18
762.04	1067.28
762.36	1064.01
762.69	1075.71
763.02	1075.01
763.35	1082.73
763.68	1082.50
764.01	1082.26
