SpectraSuite Data File
++++++++++++++++++++++++++++++++++++
Date: Mon Aug 26 10:24:41 PDT 2019
User: corrico
Dark Spectrum Present: No
Reference Spectrum Present: No
Number of Sampled Component Spectra: 1
Spectrometers: USB2+H06089
Integration Time (usec): 10000 (USB2+H06089)
Spectra Averaged: 2 (USB2+H06089)
Boxcar Smoothing: 2 (USB2+H06089)
Correct for Electrical Dark: No (USB2+H06089)
Strobe/Lamp Enabled: No (USB2+H06089)
Correct for Detector Non-linearity: No (USB2+H06089)
Correct for Stray Light: No (USB2+H06089)
Number of Pixels in Processed Spectrum: 2048
>>>>>Begin Processed Spectral Data<<<<<
339.70	1052.07
340.07	1052.07
340.45	1013.45
340.82	988.64
341.19	959.39
341.57	933.41
341.94	917.72
342.31	914.45
342.69	903.21
343.06	902.98
343.43	885.42
343.81	887.77
344.18	888.23
344.55	894.55
344.93	899.94
345.30	922.64
345.67	929.19
346.04	939.73
346.42	949.79
346.79	959.15
347.16	963.36
347.54	968.51
347.91	973.90
348.28	988.64
348.65	994.96
349.03	1013.69
349.40	1036.86
349.77	1046.22
350.14	1057.45
350.52	1075.71
350.89	1075.94
351.26	1070.09
351.63	1077.82
352.01	1079.22
352.38	1083.90
352.75	1090.92
353.12	1094.67
353.50	1097.95
353.87	1097.71
354.24	1088.82
354.61	1085.07
354.98	1095.14
355.36	1087.18
355.73	1092.80
356.10	1103.09
356.47	1108.48
356.84	1099.35
357.22	1106.61
357.59	1105.20
357.96	1097.71
358.33	1104.73
358.70	1112.92
359.08	1116.44
359.45	1122.29
359.82	1126.97
360.19	1114.80
360.56	1114.80
360.94	1112.69
361.31	1098.18
361.68	1097.48
362.05	1102.39
362.42	1099.58
362.79	1089.52
363.16	1088.82
363.54	1082.97
363.91	1077.11
364.28	1066.58
364.65	1073.37
365.02	1077.58
365.39	1076.18
365.76	1084.14
366.14	1091.86
366.51	1092.56
366.88	1099.35
367.25	1101.69
367.62	1102.39
367.99	1097.01
368.36	1098.41
368.73	1085.31
369.10	1087.41
369.48	1085.31
369.85	1097.48
370.22	1090.22
370.59	1092.80
370.96	1090.92
371.33	1094.67
371.70	1082.50
372.07	1088.82
372.44	1095.84
372.81	1092.09
373.18	1082.03
373.55	1084.60
373.93	1085.07
374.30	1086.24
374.67	1096.54
375.04	1103.80
375.41	1110.58
375.78	1108.95
376.15	1100.52
376.52	1099.12
376.89	1094.67
377.26	1093.97
377.63	1099.82
378.00	1111.75
378.37	1112.69
378.74	1115.97
379.11	1119.95
379.48	1111.99
379.85	1106.61
380.22	1102.39
380.59	1097.95
380.96	1091.63
381.33	1094.43
381.70	1104.97
382.07	1105.44
382.44	1109.65
382.81	1116.20
383.18	1119.71
383.55	1123.46
383.92	1130.95
384.29	1135.86
384.66	1135.63
385.03	1128.37
385.40	1117.84
385.77	1120.88
386.14	1119.48
386.51	1108.48
386.88	1112.69
387.25	1114.80
387.62	1111.52
387.99	1100.75
388.36	1102.16
388.73	1104.50
389.10	1100.75
389.46	1092.56
389.83	1104.73
390.20	1115.03
390.57	1120.88
390.94	1122.99
391.31	1134.22
391.68	1123.69
392.05	1130.24
392.42	1127.90
392.79	1127.44
393.16	1130.95
393.53	1144.52
393.89	1146.39
394.26	1149.91
394.63	1154.59
395.00	1142.18
395.37	1146.16
395.74	1146.63
396.11	1154.12
396.48	1158.10
396.84	1157.86
397.21	1166.76
397.58	1166.76
397.95	1160.91
398.32	1168.16
398.69	1174.71
399.06	1152.25
399.42	1152.25
399.79	1159.74
400.16	1157.39
400.53	1167.46
400.90	1191.33
401.27	1196.95
401.64	1200.93
402.00	1218.01
402.37	1230.65
402.74	1230.89
403.11	1249.14
403.48	1269.04
403.84	1279.57
404.21	1287.06
404.58	1315.38
404.95	1333.17
405.32	1340.19
405.68	1345.57
406.05	1368.04
406.42	1381.38
406.79	1388.64
407.16	1413.68
407.52	1449.26
407.89	1472.20
408.26	1512.92
408.63	1561.37
408.99	1611.69
409.36	1654.52
409.73	1708.12
410.10	1743.93
410.47	1790.51
410.83	1835.21
411.20	1892.09
411.57	1958.09
411.94	2021.99
412.30	2101.10
412.67	2195.42
413.04	2286.70
413.40	2378.22
413.77	2515.61
414.14	2619.53
414.51	2737.96
414.87	2876.28
415.24	3017.18
415.61	3145.68
415.97	3304.84
416.34	3475.70
416.71	3655.92
417.08	3876.16
417.44	4075.34
417.81	4338.18
418.18	4578.09
418.54	4835.31
418.91	5094.88
419.28	5398.45
419.64	5672.99
420.01	5993.18
420.38	6325.77
420.74	6674.51
421.11	7054.37
421.48	7465.14
421.84	7891.12
422.21	8325.29
422.58	8795.50
422.94	9321.42
423.31	9847.80
423.68	10443.47
424.04	11094.37
424.41	11733.34
424.77	12343.28
425.14	12966.57
425.51	13628.71
425.87	14336.25
426.24	15105.12
426.61	15973.22
426.97	16990.18
427.34	17931.55
427.70	18995.79
428.07	19991.22
428.44	21052.65
428.80	22035.44
429.17	23099.22
429.53	24108.22
429.90	25420.79
430.27	26546.59
430.63	27706.09
431.00	29060.09
431.36	30503.50
431.73	31653.87
432.09	32931.10
432.46	34207.40
432.83	35501.48
433.19	36694.68
433.56	38271.50
433.92	39912.22
434.29	41490.44
434.65	42965.21
435.02	44323.19
435.38	45488.31
435.75	46359.46
436.11	47615.16
436.48	48682.67
436.84	49766.34
437.21	50716.37
437.57	51693.07
437.94	52300.91
438.30	52824.95
438.67	53068.37
439.03	53159.42
439.40	53311.55
439.76	53202.48
440.13	52989.49
440.49	53017.58
440.86	52768.08
441.22	52377.68
441.59	51799.57
441.95	51226.37
442.32	50304.20
442.68	49617.95
443.05	48648.03
443.41	47779.46
443.78	46698.60
444.14	45705.28
444.51	44368.60
444.87	43373.17
445.24	42084.00
445.60	40919.59
445.96	39752.13
446.33	38820.83
446.69	37655.01
447.06	36835.59
447.42	35826.81
447.79	34706.17
448.15	33725.48
448.51	32731.46
448.88	31776.75
449.24	30795.36
449.61	30107.72
449.97	29333.93
450.33	28610.71
450.70	27777.24
451.06	27220.43
451.43	26507.97
451.79	25896.62
452.15	25318.04
452.52	24701.08
452.88	24085.98
453.24	23487.28
453.61	22777.63
453.97	22134.91
454.34	21578.80
454.70	21041.65
455.06	20447.62
455.43	19816.15
455.79	19100.18
456.15	18455.59
456.52	17705.68
456.88	17115.87
457.24	16502.42
457.61	16011.60
457.97	15461.81
458.33	14965.85
458.70	14415.83
459.06	13919.40
459.42	13460.19
459.79	12941.99
460.15	12526.08
460.51	12076.93
460.88	11684.89
461.24	11216.55
461.60	10901.05
461.96	10535.92
462.33	10212.23
462.69	9866.06
463.05	9599.71
463.42	9319.31
463.78	9032.13
464.14	8774.90
464.50	8536.17
464.87	8259.52
465.23	7977.48
465.59	7754.43
465.95	7519.21
466.32	7296.15
466.68	7104.70
467.04	6905.28
467.40	6708.91
467.77	6531.26
468.13	6377.49
468.49	6217.63
468.85	6089.61
469.22	5955.26
469.58	5821.38
469.94	5712.78
470.30	5575.62
470.66	5474.51
471.03	5373.40
471.39	5284.23
471.75	5149.88
472.11	5051.34
472.47	4953.28
472.84	4854.27
473.20	4729.75
473.56	4627.24
473.92	4512.79
474.28	4413.78
474.65	4302.14
475.01	4221.62
475.37	4124.73
475.73	4074.64
476.09	3995.06
476.45	3922.04
476.81	3838.95
477.18	3773.65
477.54	3683.30
477.90	3589.21
478.26	3493.48
478.62	3428.88
478.98	3390.50
479.34	3336.67
479.71	3312.56
480.07	3294.77
480.43	3254.05
480.79	3171.19
481.15	3120.17
481.51	3058.61
481.87	2989.10
482.23	2921.22
482.59	2869.73
482.96	2816.83
483.32	2770.49
483.68	2740.77
484.04	2719.00
484.40	2694.66
484.76	2666.34
485.12	2627.72
485.48	2575.76
485.84	2535.27
486.20	2499.46
486.56	2451.71
486.92	2422.22
487.28	2416.37
487.64	2383.37
488.00	2350.83
488.37	2327.66
488.73	2284.36
489.09	2242.23
489.45	2199.40
489.81	2159.61
490.17	2137.38
490.53	2113.74
490.89	2076.29
491.25	2055.93
491.61	2026.67
491.97	1997.41
492.33	1970.97
492.69	1942.41
493.05	1919.47
493.41	1895.37
493.77	1858.85
494.13	1839.90
494.49	1828.66
494.85	1801.98
495.21	1778.81
495.57	1765.23
495.93	1734.57
496.29	1707.42
496.64	1697.59
497.00	1687.29
497.36	1675.36
497.72	1669.04
498.08	1654.06
498.44	1635.10
498.80	1617.08
499.16	1595.08
499.52	1573.54
499.88	1568.86
500.24	1562.31
500.60	1556.22
500.96	1546.39
501.32	1533.05
501.68	1524.39
502.03	1493.03
502.39	1471.96
502.75	1450.90
503.11	1443.41
503.47	1417.66
503.83	1424.68
504.19	1421.17
504.55	1413.92
504.91	1401.04
505.26	1397.30
505.62	1378.81
505.98	1370.38
506.34	1374.60
506.70	1360.55
507.06	1347.68
507.42	1343.70
507.78	1341.36
508.13	1328.02
508.49	1327.55
508.85	1333.87
509.21	1333.64
509.57	1319.83
509.93	1323.81
510.28	1314.21
510.64	1295.02
511.00	1288.46
511.36	1289.64
511.72	1277.00
512.07	1272.08
512.43	1263.89
512.79	1255.46
513.15	1251.02
513.51	1244.93
513.86	1250.55
514.22	1258.97
514.58	1249.61
514.94	1240.95
515.30	1237.91
515.65	1233.46
516.01	1227.38
516.37	1221.99
516.73	1229.02
517.08	1223.87
517.44	1221.29
517.80	1219.42
518.16	1221.53
518.51	1207.01
518.87	1208.42
519.23	1201.40
519.59	1192.50
519.94	1190.40
520.30	1196.01
520.66	1195.55
521.01	1190.16
521.37	1194.14
521.73	1195.08
522.09	1187.35
522.44	1174.25
522.80	1183.14
523.16	1186.42
523.51	1177.76
523.87	1181.74
524.23	1182.20
524.58	1177.29
524.94	1167.23
525.30	1158.33
525.65	1149.91
526.01	1147.80
526.37	1148.27
526.72	1155.29
527.08	1168.16
527.44	1169.33
527.79	1169.80
528.15	1164.88
528.51	1159.50
528.86	1148.50
529.22	1152.48
529.58	1146.16
529.93	1135.86
530.29	1132.82
530.65	1138.44
531.00	1126.27
531.36	1125.10
531.71	1130.01
532.07	1124.63
532.43	1126.73
532.78	1137.97
533.14	1151.08
533.49	1159.97
533.85	1172.84
534.21	1171.91
534.56	1170.27
534.92	1161.61
535.27	1152.01
535.63	1135.16
535.98	1134.22
536.34	1130.01
536.69	1130.24
537.05	1130.01
537.41	1139.37
537.76	1131.41
538.12	1127.90
538.47	1126.50
538.83	1118.31
539.18	1115.27
539.54	1124.63
539.89	1122.52
540.25	1120.65
540.60	1130.01
540.96	1135.39
541.31	1132.82
541.67	1140.54
542.02	1155.52
542.38	1165.82
542.73	1160.44
543.09	1167.69
543.44	1170.97
543.80	1153.18
544.15	1135.39
544.51	1132.82
544.86	1121.82
545.22	1113.39
545.57	1123.93
545.93	1131.18
546.28	1124.16
546.64	1129.31
546.99	1129.78
547.35	1128.61
547.70	1125.33
548.05	1132.59
548.41	1130.01
548.76	1119.48
549.12	1118.54
549.47	1120.65
549.83	1109.65
550.18	1105.67
550.53	1115.50
550.89	1107.78
551.24	1111.52
551.60	1121.58
551.95	1120.18
552.30	1117.37
552.66	1123.46
553.01	1126.03
553.37	1133.76
553.72	1139.84
554.07	1138.90
554.43	1136.33
554.78	1119.71
555.13	1106.84
555.49	1104.26
555.84	1107.78
556.19	1108.24
556.55	1116.67
556.90	1121.35
557.26	1128.37
557.61	1129.78
557.96	1121.82
558.32	1126.03
558.67	1128.37
559.02	1125.33
559.37	1121.82
559.73	1124.63
560.08	1106.61
560.43	1101.46
560.79	1091.86
561.14	1092.33
561.49	1091.63
561.85	1107.54
562.20	1104.03
562.55	1111.29
562.90	1115.03
563.26	1127.20
563.61	1117.84
563.96	1118.78
564.32	1115.97
564.67	1108.71
565.02	1096.54
565.37	1099.35
565.73	1097.48
566.08	1101.22
566.43	1104.03
566.78	1110.58
567.14	1117.14
567.49	1124.86
567.84	1127.44
568.19	1131.88
568.54	1133.05
568.90	1130.24
569.25	1133.99
569.60	1130.24
569.95	1127.67
570.31	1127.90
570.66	1129.07
571.01	1124.39
571.36	1122.99
571.71	1119.95
572.06	1123.22
572.42	1124.63
572.77	1121.12
573.12	1120.41
573.47	1111.99
573.82	1105.67
574.18	1102.39
574.53	1105.20
574.88	1104.97
575.23	1108.01
575.58	1110.35
575.93	1108.71
576.28	1108.48
576.64	1103.33
576.99	1106.14
577.34	1108.24
577.69	1115.97
578.04	1111.05
578.39	1110.82
578.74	1106.84
579.09	1099.58
579.44	1090.22
579.80	1097.48
580.15	1106.84
580.50	1125.10
580.85	1124.16
581.20	1118.78
581.55	1115.50
581.90	1107.31
582.25	1088.58
582.60	1085.07
582.95	1100.05
583.30	1100.52
583.65	1104.03
584.00	1109.65
584.35	1117.14
584.71	1104.03
585.06	1097.01
585.41	1094.67
585.76	1103.80
586.11	1104.73
586.46	1102.86
586.81	1107.54
587.16	1106.61
587.51	1096.07
587.86	1088.12
588.21	1094.43
588.56	1102.39
588.91	1104.73
589.26	1108.71
589.61	1113.86
589.96	1127.44
590.31	1122.29
590.66	1118.54
591.01	1120.18
591.36	1117.61
591.71	1107.07
592.06	1113.16
592.41	1114.10
592.76	1116.20
593.10	1116.90
593.45	1116.90
593.80	1110.12
594.15	1116.67
594.50	1119.24
594.85	1126.50
595.20	1128.37
595.55	1132.12
595.90	1132.35
596.25	1119.01
596.60	1115.27
596.95	1104.73
597.30	1097.71
597.64	1144.29
597.99	1144.99
598.34	1144.05
598.69	1143.12
599.04	1141.71
599.39	1084.84
599.74	1092.09
600.09	1087.41
600.44	1087.18
600.78	1083.90
601.13	1092.80
601.48	1091.63
601.83	1102.16
602.18	1114.10
602.53	1126.73
602.88	1133.76
603.22	1127.44
603.57	1122.05
603.92	1119.71
604.27	1111.75
604.62	1101.92
604.97	1108.95
605.31	1104.50
605.66	1095.84
606.01	1096.07
606.36	1094.20
606.71	1090.46
607.05	1084.14
607.40	1097.01
607.75	1093.26
608.10	1092.80
608.44	1096.54
608.79	1094.90
609.14	1092.56
609.49	1110.58
609.84	1105.90
610.18	1108.71
610.53	1119.24
610.88	1112.46
611.23	1100.75
611.57	1115.73
611.92	1114.09
612.27	1109.65
612.62	1115.97
612.96	1114.10
613.31	1109.65
613.66	1105.90
614.00	1111.05
614.35	1100.29
614.70	1104.73
615.05	1104.73
615.39	1103.09
615.74	1109.41
616.09	1103.80
616.43	1100.29
616.78	1100.29
617.13	1097.48
617.47	1101.92
617.82	1113.86
618.17	1107.78
618.51	1108.48
618.86	1114.56
619.21	1102.39
619.55	1103.33
619.90	1099.12
620.25	1089.75
620.59	1092.56
620.94	1086.94
621.29	1087.41
621.63	1101.46
621.98	1107.07
622.32	1104.26
622.67	1102.63
623.02	1097.24
623.36	1093.03
623.71	1089.52
624.05	1079.22
624.40	1076.41
624.75	1085.77
625.09	1090.92
625.44	1093.26
625.78	1101.46
626.13	1109.18
626.48	1108.71
626.82	1104.73
627.17	1102.16
627.51	1098.18
627.86	1093.26
628.20	1091.86
628.55	1087.88
628.89	1085.54
629.24	1089.99
629.58	1099.58
629.93	1082.97
630.28	1088.12
630.62	1096.31
630.97	1088.12
631.31	1075.71
631.66	1092.80
632.00	1092.33
632.35	1090.69
632.69	1098.41
633.04	1111.99
633.38	1104.97
633.73	1101.46
634.07	1100.29
634.42	1097.24
634.76	1092.80
635.11	1087.41
635.45	1090.69
635.79	1086.94
636.14	1085.07
636.48	1082.50
636.83	1088.12
637.17	1084.37
637.52	1086.01
637.86	1082.97
638.21	1076.65
638.55	1080.86
638.89	1083.43
639.24	1086.48
639.58	1081.09
639.93	1088.82
640.27	1079.46
640.61	1073.37
640.96	1069.39
641.30	1077.58
641.65	1078.99
641.99	1089.75
642.33	1090.69
642.68	1092.09
643.02	1092.09
643.37	1078.99
643.71	1071.26
644.05	1068.45
644.40	1076.88
644.74	1078.05
645.08	1092.33
645.43	1091.86
645.77	1093.03
646.11	1078.75
646.46	1082.03
646.80	1079.92
647.14	1081.33
647.49	1083.90
647.83	1085.77
648.17	1095.14
648.52	1099.35
648.86	1103.33
649.20	1108.48
649.55	1115.97
649.89	1117.37
650.23	1114.80
650.57	1111.05
650.92	1108.95
651.26	1109.88
651.60	1102.86
651.95	1113.16
652.29	1114.80
652.63	1111.75
652.97	1106.84
653.32	1104.50
653.66	1092.33
654.00	1086.24
654.34	1091.16
654.69	1084.60
655.03	1088.82
655.37	1087.41
655.71	1102.86
656.05	1100.75
656.40	1103.80
656.74	1095.37
657.08	1094.43
657.42	1077.11
657.76	1062.37
658.11	1069.16
658.45	1068.92
658.79	1075.94
659.13	1082.26
659.47	1094.90
659.82	1091.86
660.16	1097.24
660.50	1093.97
660.84	1098.41
661.18	1099.35
661.52	1090.46
661.87	1097.71
662.21	1093.73
662.55	1089.05
662.89	1082.50
663.23	1087.41
663.57	1074.31
663.91	1086.24
664.25	1085.31
664.60	1089.29
664.94	1087.88
665.28	1082.97
665.62	1079.69
665.96	1085.07
666.30	1088.12
666.64	1092.09
666.98	1103.80
667.32	1103.09
667.66	1105.67
668.01	1105.90
668.35	1114.80
668.69	1103.56
669.03	1099.58
669.37	1094.67
669.71	1105.67
670.05	1092.33
670.39	1100.29
670.73	1099.82
671.07	1095.84
671.41	1081.33
671.75	1083.90
672.09	1089.05
672.43	1090.22
672.77	1091.63
673.11	1099.58
673.45	1095.60
673.79	1084.14
674.13	1064.01
674.47	1066.11
674.81	1057.45
675.15	1069.39
675.49	1080.16
675.83	1104.26
676.17	1106.37
676.51	1108.48
676.85	1110.35
677.19	1105.44
677.53	1094.90
677.87	1089.05
678.21	1098.65
678.55	1090.46
678.89	1090.69
679.23	1094.20
679.57	1092.56
679.90	1082.97
680.24	1089.05
680.58	1091.39
680.92	1092.80
681.26	1105.20
681.60	1109.41
681.94	1102.86
682.28	1100.75
682.62	1093.97
682.96	1078.52
683.29	1075.94
683.63	1073.37
683.97	1073.37
684.31	1082.03
684.65	1090.46
684.99	1077.35
685.33	1089.05
685.67	1093.03
686.00	1089.05
686.34	1092.09
686.68	1106.14
687.02	1100.52
687.36	1098.41
687.70	1090.69
688.03	1086.48
688.37	1082.03
688.71	1079.22
689.05	1071.03
689.39	1074.77
689.72	1074.77
690.06	1074.54
690.40	1073.37
690.74	1078.52
691.08	1083.67
691.41	1078.05
691.75	1079.22
692.09	1089.52
692.43	1091.39
692.76	1086.24
693.10	1089.99
693.44	1099.35
693.78	1096.31
694.11	1086.24
694.45	1095.60
694.79	1091.39
695.13	1086.94
695.46	1088.12
695.80	1097.95
696.14	1090.69
696.48	1098.88
696.81	1084.60
697.15	1076.18
697.49	1069.16
697.82	1075.71
698.16	1078.05
698.50	1090.22
698.83	1098.41
699.17	1097.48
699.51	1091.63
699.84	1085.07
700.18	1086.24
700.52	1075.71
700.85	1081.56
701.19	1080.39
701.53	1086.48
701.86	1077.58
702.20	1087.88
702.54	1077.58
702.87	1077.58
703.21	1070.09
703.55	1075.71
703.88	1072.43
704.22	1084.14
704.55	1090.92
704.89	1097.24
705.23	1088.35
705.56	1086.48
705.90	1079.92
706.23	1080.16
706.57	1083.67
706.91	1093.26
707.24	1085.77
707.58	1084.60
707.91	1077.11
708.25	1065.18
708.58	1060.03
708.92	1063.31
709.26	1066.58
709.59	1067.05
709.93	1079.22
710.26	1079.69
710.60	1084.84
710.93	1085.54
711.27	1098.65
711.60	1088.12
711.94	1089.05
712.27	1088.35
712.61	1092.56
712.94	1077.58
713.28	1082.73
713.61	1083.20
713.95	1088.35
714.28	1088.58
714.62	1100.75
714.95	1093.73
715.29	1096.31
715.62	1087.18
715.96	1071.73
716.29	1064.48
716.63	1085.07
716.96	1079.92
717.29	1079.46
717.63	1095.60
717.96	1092.56
718.30	1075.94
718.63	1064.01
718.97	1056.05
719.30	1047.62
719.63	1053.94
719.97	1057.22
720.30	1066.58
720.64	1075.71
720.97	1083.43
721.30	1082.50
721.64	1079.22
721.97	1087.65
722.31	1089.29
722.64	1088.35
722.97	1081.80
723.31	1088.12
723.64	1085.07
723.97	1079.92
724.31	1072.90
724.64	1085.54
724.98	1086.71
725.31	1092.33
725.64	1091.86
725.98	1098.41
726.31	1088.12
726.64	1085.54
726.97	1080.39
727.31	1086.24
727.64	1080.39
727.97	1076.18
728.31	1074.31
728.64	1069.62
728.97	1069.62
729.31	1073.37
729.64	1083.67
729.97	1080.63
730.30	1078.05
730.64	1081.09
730.97	1082.03
731.30	1082.26
731.63	1085.07
731.97	1086.94
732.30	1086.48
732.63	1082.03
732.96	1078.05
733.30	1079.92
733.63	1083.90
733.96	1076.18
734.29	1076.18
734.63	1081.09
734.96	1073.37
735.29	1076.88
735.62	1077.82
735.95	1081.33
736.29	1071.03
736.62	1071.26
736.95	1078.28
737.28	1083.20
737.61	1082.50
737.94	1089.52
738.28	1090.92
738.61	1086.24
738.94	1076.65
739.27	1074.31
739.60	1071.26
739.93	1077.82
740.27	1072.67
740.60	1079.46
740.93	1090.69
741.26	1086.94
741.59	1086.01
741.92	1092.33
742.25	1097.71
742.58	1091.16
742.91	1094.90
743.25	1087.88
743.58	1081.80
743.91	1072.90
744.24	1067.52
744.57	1067.52
744.90	1084.60
745.23	1087.41
745.56	1090.46
745.89	1095.60
746.22	1099.35
746.55	1084.60
746.88	1085.54
747.21	1095.60
747.54	1098.18
747.87	1094.67
748.20	1097.24
748.53	1096.54
748.87	1085.07
749.20	1089.75
749.53	1089.05
749.86	1087.41
750.19	1077.11
750.52	1082.73
750.85	1075.94
751.18	1078.05
751.51	1081.09
751.84	1084.84
752.16	1097.95
752.49	1099.58
752.82	1107.31
753.15	1102.16
753.48	1106.14
753.81	1094.90
754.14	1088.58
754.47	1077.58
754.80	1090.46
755.13	1092.09
755.46	1093.26
755.79	1097.24
756.12	1096.54
756.45	1088.12
756.78	1088.35
757.11	1078.28
757.43	1078.75
757.76	1082.03
758.09	1079.69
758.42	1079.69
758.75	1081.56
759.08	1078.75
759.41	1085.54
759.74	1099.58
760.07	1099.58
760.39	1100.52
760.72	1107.78
761.05	1102.16
761.38	1101.22
761.71	1104.26
762.04	1101.69
762.36	1094.43
762.69	1088.35
763.02	1067.99
763.35	1063.77
763.68	1064.48
764.01	1069.62
