SpectraSuite Data File
++++++++++++++++++++++++++++++++++++
Date: Mon Aug 26 10:24:42 PDT 2019
User: corrico
Dark Spectrum Present: No
Reference Spectrum Present: No
Number of Sampled Component Spectra: 1
Spectrometers: USB2+H06089
Integration Time (usec): 10000 (USB2+H06089)
Spectra Averaged: 2 (USB2+H06089)
Boxcar Smoothing: 2 (USB2+H06089)
Correct for Electrical Dark: No (USB2+H06089)
Strobe/Lamp Enabled: No (USB2+H06089)
Correct for Detector Non-linearity: No (USB2+H06089)
Correct for Stray Light: No (USB2+H06089)
Number of Pixels in Processed Spectrum: 2048
>>>>>Begin Processed Spectral Data<<<<<
339.70	1031.01
340.07	1031.01
340.45	999.88
340.82	975.77
341.19	953.53
341.57	924.75
341.94	918.43
342.31	906.49
342.69	904.85
343.06	903.91
343.43	910.23
343.81	913.98
344.18	923.11
344.55	919.36
344.93	917.26
345.30	921.00
345.67	926.85
346.04	921.94
346.42	932.24
346.79	941.83
347.16	945.58
347.54	950.49
347.91	974.37
348.28	987.47
348.65	991.45
349.03	1003.86
349.40	1011.81
349.77	1009.47
350.14	1024.22
350.52	1041.54
350.89	1045.75
351.26	1056.28
351.63	1070.56
352.01	1077.35
352.38	1076.65
352.75	1088.82
353.12	1091.63
353.50	1093.97
353.87	1091.16
354.24	1101.92
354.61	1097.95
354.98	1095.60
355.36	1102.63
355.73	1108.71
356.10	1111.99
356.47	1120.18
356.84	1120.65
357.22	1108.24
357.59	1106.84
357.96	1096.78
358.33	1090.46
358.70	1096.07
359.08	1095.37
359.45	1086.71
359.82	1093.26
360.19	1093.97
360.56	1091.86
360.94	1104.50
361.31	1108.95
361.68	1100.29
362.05	1102.16
362.42	1096.31
362.79	1083.20
363.16	1082.03
363.54	1088.58
363.91	1086.48
364.28	1088.12
364.65	1092.09
365.02	1091.39
365.39	1084.84
365.76	1083.43
366.14	1085.54
366.51	1089.05
366.88	1096.31
367.25	1100.52
367.62	1097.95
367.99	1092.09
368.36	1095.37
368.73	1097.95
369.10	1106.61
369.48	1118.54
369.85	1121.82
370.22	1117.84
370.59	1112.46
370.96	1101.22
371.33	1095.14
371.70	1103.56
372.07	1108.95
372.44	1105.90
372.81	1117.14
373.18	1115.50
373.55	1105.67
373.93	1097.24
374.30	1097.01
374.67	1085.54
375.04	1091.16
375.41	1100.05
375.78	1105.20
376.15	1110.82
376.52	1112.22
376.89	1100.05
377.26	1101.22
377.63	1103.56
378.00	1093.97
378.37	1090.46
378.74	1095.14
379.11	1083.90
379.48	1087.18
379.85	1092.80
380.22	1103.56
380.59	1108.01
380.96	1118.78
381.33	1124.16
381.70	1119.24
382.07	1115.50
382.44	1115.73
382.81	1112.46
383.18	1109.18
383.55	1111.52
383.92	1108.95
384.29	1107.31
384.66	1103.80
385.03	1096.07
385.40	1096.31
385.77	1108.71
386.14	1112.22
386.51	1119.24
386.88	1113.63
387.25	1117.14
387.62	1115.27
387.99	1117.84
388.36	1111.52
388.73	1118.78
389.10	1129.07
389.46	1132.82
389.83	1134.93
390.20	1147.80
390.57	1150.14
390.94	1139.37
391.31	1129.54
391.68	1127.20
392.05	1122.29
392.42	1121.58
392.79	1129.07
393.16	1137.97
393.53	1137.50
393.89	1134.69
394.26	1149.44
394.63	1152.48
395.00	1151.54
395.37	1155.76
395.74	1152.01
396.11	1140.54
396.48	1143.35
396.84	1149.91
397.21	1149.44
397.58	1154.82
397.95	1156.22
398.32	1148.03
398.69	1145.46
399.06	1144.76
399.42	1151.08
399.79	1157.86
400.16	1169.10
400.53	1177.06
400.90	1197.65
401.27	1206.55
401.64	1207.95
402.00	1213.10
402.37	1219.19
402.74	1236.04
403.11	1246.57
403.48	1260.14
403.84	1277.00
404.21	1292.44
404.58	1294.78
404.95	1313.27
405.32	1328.02
405.68	1349.55
406.05	1363.60
406.42	1385.60
406.79	1410.64
407.16	1442.00
407.52	1465.88
407.89	1500.99
408.26	1541.24
408.63	1580.33
408.99	1623.40
409.36	1676.76
409.73	1731.76
410.10	1773.19
410.47	1823.04
410.83	1870.79
411.20	1922.52
411.57	1976.35
411.94	2039.54
412.30	2111.16
412.67	2198.70
413.04	2287.41
413.40	2392.50
413.77	2505.78
414.14	2633.57
414.51	2752.94
414.87	2875.58
415.24	3017.89
415.61	3163.94
415.97	3293.13
416.34	3463.76
416.71	3645.85
417.08	3854.63
417.44	4032.51
417.81	4278.27
418.18	4511.85
418.54	4783.59
418.91	5044.32
419.28	5381.83
419.64	5669.01
420.01	6009.56
420.38	6362.04
420.74	6720.61
421.11	7092.99
421.48	7504.69
421.84	7912.65
422.21	8310.31
422.58	8788.24
422.94	9270.16
423.31	9772.20
423.68	10382.85
424.04	11027.90
424.41	11601.33
424.77	12257.15
425.14	12919.99
425.51	13572.06
425.87	14301.38
426.24	15069.77
426.61	15941.15
426.97	16970.05
427.34	17906.03
427.70	18937.51
428.07	19994.03
428.44	20975.18
428.80	21936.91
429.17	22973.76
429.53	24029.34
429.90	25304.23
430.27	26496.50
430.63	27677.07
431.00	29002.75
431.36	30376.41
431.73	31508.06
432.09	32780.61
432.46	34090.84
432.83	35406.92
433.19	36614.87
433.56	38153.31
433.92	39807.60
434.29	41254.05
434.65	42719.46
435.02	44025.71
435.38	45235.30
435.75	46054.25
436.11	47342.72
436.48	48398.53
436.84	49508.42
437.21	50478.57
437.57	51462.29
437.94	52092.84
438.30	52604.24
438.67	52885.34
439.03	53001.20
439.40	53175.33
439.76	53099.50
440.13	52876.21
440.49	52898.68
440.86	52545.26
441.22	52174.29
441.59	51575.58
441.95	51110.51
442.32	50229.53
442.68	49547.97
443.05	48630.71
443.41	47715.80
443.78	46582.75
444.14	45527.16
444.51	44234.95
444.87	43167.44
445.24	41980.08
445.60	40825.96
445.96	39662.48
446.33	38824.81
446.69	37714.46
447.06	36715.75
447.42	35721.26
447.79	34631.27
448.15	33549.24
448.51	32533.21
448.88	31687.58
449.24	30676.93
449.61	29965.64
449.97	29220.18
450.33	28413.17
450.70	27606.85
451.06	27022.42
451.43	26279.77
451.79	25705.40
452.15	25216.46
452.52	24623.84
452.88	24056.73
453.24	23568.02
453.61	22867.50
453.97	22262.24
454.34	21635.68
454.70	21110.23
455.06	20466.35
455.43	19763.95
455.79	18948.74
456.15	18350.03
456.52	17653.49
456.88	17069.29
457.24	16506.86
457.61	16049.29
457.97	15487.32
458.33	14924.43
458.70	14376.97
459.06	13867.44
459.42	13433.97
459.79	12929.59
460.15	12546.68
460.51	12084.89
460.88	11686.29
461.24	11195.02
461.60	10889.58
461.96	10484.90
462.33	10191.16
462.69	9852.72
463.05	9568.34
463.42	9278.35
463.78	9028.38
464.14	8753.14
464.50	8538.04
464.87	8298.14
465.23	8018.44
465.59	7803.81
465.95	7576.08
466.32	7341.79
466.68	7129.04
467.04	6948.35
467.40	6748.00
467.77	6573.86
468.13	6403.00
468.49	6260.93
468.85	6099.20
469.22	5970.47
469.58	5840.10
469.94	5711.14
470.30	5559.01
470.66	5459.07
471.03	5338.53
471.39	5229.46
471.75	5142.39
472.11	5058.60
472.47	4982.77
472.84	4847.72
473.20	4725.07
473.56	4598.92
473.92	4485.87
474.28	4370.25
474.65	4304.01
475.01	4234.50
475.37	4177.15
475.73	4109.98
476.09	4014.72
476.45	3930.46
476.81	3829.12
477.18	3727.54
477.54	3634.38
477.90	3574.00
478.26	3484.82
478.62	3434.97
478.98	3394.24
479.34	3352.82
479.71	3297.11
480.07	3254.51
480.43	3215.43
480.79	3153.87
481.15	3087.40
481.51	3046.68
481.87	3000.80
482.23	2933.16
482.59	2887.99
482.96	2848.43
483.32	2788.75
483.68	2744.28
484.04	2727.89
484.40	2688.81
484.76	2659.32
485.12	2623.04
485.48	2581.38
485.84	2526.84
486.20	2487.52
486.56	2437.67
486.92	2403.50
487.28	2382.90
487.64	2359.26
488.00	2326.96
488.37	2301.68
488.73	2283.43
489.09	2236.85
489.45	2198.00
489.81	2169.21
490.17	2150.72
490.53	2117.95
490.89	2097.59
491.25	2054.76
491.61	2023.86
491.97	1984.54
492.33	1959.26
492.69	1933.98
493.05	1915.73
493.41	1888.81
493.77	1866.81
494.13	1832.64
494.49	1811.11
494.85	1812.98
495.21	1807.36
495.57	1779.51
495.93	1764.76
496.29	1746.27
496.64	1710.93
497.00	1676.76
497.36	1665.29
497.72	1635.57
498.08	1618.95
498.44	1607.95
498.80	1596.48
499.16	1583.61
499.52	1579.16
499.88	1574.95
500.24	1560.20
500.60	1550.14
500.96	1535.16
501.32	1533.52
501.68	1517.60
502.03	1503.33
502.39	1489.75
502.75	1479.92
503.11	1464.24
503.47	1462.37
503.83	1457.92
504.19	1453.00
504.55	1440.60
504.91	1425.15
505.26	1407.36
505.62	1391.92
505.98	1380.92
506.34	1371.79
506.70	1375.77
507.06	1365.94
507.42	1366.40
507.78	1357.74
508.13	1353.77
508.49	1335.98
508.85	1321.47
509.21	1319.13
509.57	1302.98
509.93	1298.76
510.28	1293.15
510.64	1286.83
511.00	1272.78
511.36	1271.85
511.72	1264.12
512.07	1257.34
512.43	1255.23
512.79	1252.89
513.15	1247.97
513.51	1241.89
513.86	1244.93
514.22	1250.31
514.58	1253.36
514.94	1254.76
515.30	1251.25
515.65	1247.51
516.01	1234.63
516.37	1232.06
516.73	1230.89
517.08	1238.38
517.44	1225.97
517.80	1221.99
518.16	1203.04
518.51	1202.10
518.87	1198.12
519.23	1208.18
519.59	1206.31
519.94	1214.04
520.30	1213.80
520.66	1213.33
521.01	1208.65
521.37	1210.53
521.73	1212.40
522.09	1203.27
522.44	1197.42
522.80	1196.01
523.16	1184.31
523.51	1174.25
523.87	1175.18
524.23	1174.95
524.58	1168.16
524.94	1174.48
525.30	1169.57
525.65	1176.59
526.01	1176.12
526.37	1181.74
526.72	1185.95
527.08	1194.61
527.44	1181.50
527.79	1170.50
528.15	1160.91
528.51	1159.50
528.86	1144.76
529.22	1139.37
529.58	1141.95
529.93	1138.90
530.29	1127.90
530.65	1136.56
531.00	1137.73
531.36	1131.88
531.71	1128.84
532.07	1136.10
532.43	1134.46
532.78	1133.52
533.14	1128.14
533.49	1127.67
533.85	1131.88
534.21	1132.35
534.56	1135.16
534.92	1151.08
535.27	1152.95
535.63	1150.84
535.98	1151.08
536.34	1140.31
536.69	1140.31
537.05	1143.82
537.41	1135.63
537.76	1131.18
538.12	1140.07
538.47	1127.67
538.83	1120.18
539.18	1113.39
539.54	1118.07
539.89	1111.99
540.25	1111.29
540.60	1119.48
540.96	1122.75
541.31	1118.07
541.67	1125.80
542.02	1124.16
542.38	1127.90
542.73	1132.35
543.09	1133.29
543.44	1130.01
543.80	1134.22
544.15	1136.33
544.51	1135.16
544.86	1135.39
545.22	1137.03
545.57	1142.18
545.93	1133.29
546.28	1147.33
546.64	1152.01
546.99	1149.44
547.35	1143.12
547.70	1137.03
548.05	1130.01
548.41	1127.20
548.76	1134.46
549.12	1125.10
549.47	1132.82
549.83	1125.10
550.18	1125.10
550.53	1123.46
550.89	1130.48
551.24	1133.99
551.60	1138.44
551.95	1134.93
552.30	1133.29
552.66	1129.78
553.01	1123.22
553.37	1122.05
553.72	1120.88
554.07	1128.61
554.43	1136.33
554.78	1131.65
555.13	1128.37
555.49	1126.27
555.84	1113.39
556.19	1104.03
556.55	1108.48
556.90	1116.44
557.26	1112.69
557.61	1112.46
557.96	1119.01
558.32	1114.56
558.67	1097.24
559.02	1101.46
559.37	1104.50
559.73	1099.35
560.08	1104.50
560.43	1111.52
560.79	1115.03
561.14	1112.69
561.49	1118.07
561.85	1113.16
562.20	1107.78
562.55	1105.20
562.90	1099.35
563.26	1103.09
563.61	1100.05
563.96	1104.50
564.32	1097.95
564.67	1104.26
565.02	1100.99
565.37	1104.26
565.73	1108.48
566.08	1111.29
566.43	1113.63
566.78	1105.44
567.14	1100.99
567.49	1098.18
567.84	1097.95
568.19	1089.75
568.54	1100.05
568.90	1106.84
569.25	1105.67
569.60	1112.69
569.95	1119.48
570.31	1112.92
570.66	1119.01
571.01	1117.61
571.36	1104.50
571.71	1096.07
572.06	1094.20
572.42	1082.73
572.77	1088.82
573.12	1092.80
573.47	1093.97
573.82	1100.29
574.18	1102.16
574.53	1100.99
574.88	1108.71
575.23	1108.48
575.58	1090.92
575.93	1092.80
576.28	1090.22
576.64	1084.84
576.99	1093.26
577.34	1111.99
577.69	1112.22
578.04	1108.24
578.39	1108.48
578.74	1103.56
579.09	1085.54
579.44	1085.77
579.80	1089.99
580.15	1102.16
580.50	1096.31
580.85	1116.90
581.20	1114.80
581.55	1118.31
581.90	1108.01
582.25	1112.22
582.60	1100.99
582.95	1108.01
583.30	1097.71
583.65	1097.24
584.00	1097.24
584.35	1104.97
584.71	1105.20
585.06	1119.71
585.41	1122.05
585.76	1131.18
586.11	1124.86
586.46	1114.80
586.81	1103.56
587.16	1104.50
587.51	1094.67
587.86	1108.95
588.21	1111.75
588.56	1115.27
588.91	1105.44
589.26	1106.84
589.61	1096.54
589.96	1106.61
590.31	1098.65
590.66	1105.20
591.01	1100.05
591.36	1097.71
591.71	1092.56
592.06	1093.97
592.41	1096.78
592.76	1102.63
593.10	1105.44
593.45	1105.67
593.80	1120.41
594.15	1114.33
594.50	1109.65
594.85	1104.03
595.20	1092.80
595.55	1084.37
595.90	1094.20
596.25	1100.05
596.60	1112.22
596.95	1115.97
597.30	1120.65
597.64	1153.88
597.99	1158.80
598.34	1153.65
598.69	1152.71
599.04	1149.44
599.39	1107.54
599.74	1109.18
600.09	1105.20
600.44	1112.46
600.78	1118.07
601.13	1122.99
601.48	1106.84
601.83	1113.16
602.18	1100.52
602.53	1097.24
602.88	1103.56
603.22	1109.18
603.57	1103.09
603.92	1110.58
604.27	1107.54
604.62	1097.24
604.97	1100.29
605.31	1087.41
605.66	1080.39
606.01	1084.37
606.36	1085.07
606.71	1090.69
607.05	1107.07
607.40	1112.69
607.75	1102.39
608.10	1110.82
608.44	1105.67
608.79	1110.35
609.14	1116.44
609.49	1126.97
609.84	1120.65
610.18	1124.16
610.53	1120.18
610.88	1114.80
611.23	1113.63
611.57	1110.12
611.92	1102.86
612.27	1097.71
612.62	1099.35
612.96	1097.48
613.31	1103.56
613.66	1099.58
614.00	1107.78
614.35	1111.75
614.70	1108.71
615.05	1106.61
615.39	1107.78
615.74	1107.07
616.09	1104.73
616.43	1101.92
616.78	1101.22
617.13	1110.12
617.47	1104.26
617.82	1101.92
618.17	1116.20
618.51	1118.31
618.86	1115.27
619.21	1114.10
619.55	1117.84
619.90	1109.88
620.25	1113.63
620.59	1115.50
620.94	1119.24
621.29	1108.48
621.63	1113.16
621.98	1119.48
622.32	1121.35
622.67	1118.31
623.02	1125.56
623.36	1121.58
623.71	1104.26
624.05	1100.05
624.40	1104.97
624.75	1109.41
625.09	1095.37
625.44	1109.18
625.78	1107.31
626.13	1101.69
626.48	1096.78
626.82	1110.58
627.17	1105.67
627.51	1104.03
627.86	1111.75
628.20	1121.12
628.55	1110.82
628.89	1113.63
629.24	1111.52
629.58	1112.46
629.93	1105.67
630.28	1111.75
630.62	1107.78
630.97	1108.24
631.31	1100.29
631.66	1098.41
632.00	1093.50
632.35	1092.80
632.69	1102.86
633.04	1103.09
633.38	1099.58
633.73	1098.88
634.07	1097.71
634.42	1087.41
634.76	1091.39
635.11	1100.29
635.45	1111.29
635.79	1108.24
636.14	1104.26
636.48	1095.14
636.83	1089.75
637.17	1087.88
637.52	1087.65
637.86	1098.65
638.21	1101.46
638.55	1111.75
638.89	1108.95
639.24	1108.01
639.58	1108.71
639.93	1104.03
640.27	1082.26
640.61	1083.20
640.96	1084.60
641.30	1082.73
641.65	1086.71
641.99	1097.71
642.33	1099.12
642.68	1102.16
643.02	1104.73
643.37	1102.86
643.71	1100.75
644.05	1098.88
644.40	1094.90
644.74	1085.07
645.08	1087.18
645.43	1084.37
645.77	1079.22
646.11	1072.90
646.46	1075.71
646.80	1078.05
647.14	1080.16
647.49	1085.54
647.83	1093.26
648.17	1096.31
648.52	1103.80
648.86	1104.50
649.20	1099.35
649.55	1101.69
649.89	1102.86
650.23	1104.26
650.57	1102.16
650.92	1106.14
651.26	1104.26
651.60	1097.71
651.95	1084.60
652.29	1084.14
652.63	1083.20
652.97	1078.75
653.32	1088.82
653.66	1093.97
654.00	1094.90
654.34	1103.33
654.69	1101.69
655.03	1093.50
655.37	1089.52
655.71	1099.82
656.05	1091.86
656.40	1094.43
656.74	1098.65
657.08	1092.56
657.42	1087.65
657.76	1088.12
658.11	1086.01
658.45	1092.33
658.79	1111.75
659.13	1102.16
659.47	1100.29
659.82	1100.29
660.16	1092.56
660.50	1079.46
660.84	1085.31
661.18	1082.26
661.52	1085.77
661.87	1086.01
662.21	1102.86
662.55	1096.31
662.89	1101.46
663.23	1100.52
663.57	1091.16
663.91	1073.37
664.25	1077.35
664.60	1074.07
664.94	1074.31
665.28	1086.71
665.62	1084.84
665.96	1082.50
666.30	1081.56
666.64	1082.26
666.98	1076.41
667.32	1073.14
667.66	1072.20
668.01	1072.90
668.35	1078.52
668.69	1083.20
669.03	1093.26
669.37	1097.71
669.71	1108.24
670.05	1101.69
670.39	1108.71
670.73	1101.69
671.07	1113.16
671.41	1105.44
671.75	1107.07
672.09	1093.97
672.43	1099.35
672.77	1086.48
673.11	1092.09
673.45	1088.82
673.79	1101.46
674.13	1101.92
674.47	1107.54
674.81	1101.46
675.15	1103.80
675.49	1095.84
675.83	1089.52
676.17	1092.56
676.51	1095.37
676.85	1091.16
677.19	1087.41
677.53	1096.07
677.87	1090.92
678.21	1088.82
678.55	1092.09
678.89	1099.82
679.23	1097.24
679.57	1101.92
679.90	1091.86
680.24	1083.20
680.58	1075.48
680.92	1072.67
681.26	1075.94
681.60	1082.26
681.94	1090.92
682.28	1087.88
682.62	1087.18
682.96	1083.43
683.29	1078.99
683.63	1079.92
683.97	1084.60
684.31	1088.82
684.65	1085.31
684.99	1094.90
685.33	1095.84
685.67	1088.58
686.00	1088.82
686.34	1085.54
686.68	1082.50
687.02	1088.35
687.36	1103.33
687.70	1101.22
688.03	1104.03
688.37	1100.99
688.71	1093.97
689.05	1088.82
689.39	1086.71
689.72	1090.92
690.06	1087.88
690.40	1089.29
690.74	1087.88
691.08	1086.48
691.41	1078.75
691.75	1079.69
692.09	1078.28
692.43	1077.35
692.76	1077.11
693.10	1078.05
693.44	1083.90
693.78	1084.60
694.11	1084.37
694.45	1082.73
694.79	1093.03
695.13	1091.86
695.46	1090.92
695.80	1085.31
696.14	1087.41
696.48	1083.67
696.81	1084.14
697.15	1084.84
697.49	1087.88
697.82	1081.80
698.16	1069.62
698.50	1068.45
698.83	1067.75
699.17	1067.05
699.51	1079.22
699.84	1087.88
700.18	1100.99
700.52	1100.99
700.85	1102.63
701.19	1101.22
701.53	1105.44
701.86	1093.26
702.20	1097.48
702.54	1096.54
702.87	1100.05
703.21	1098.18
703.55	1099.12
703.88	1095.14
704.22	1092.33
704.55	1089.05
704.89	1083.20
705.23	1084.60
705.56	1088.82
705.90	1093.97
706.23	1089.99
706.57	1093.97
706.91	1090.46
707.24	1088.35
707.58	1086.24
707.91	1088.82
708.25	1087.65
708.58	1090.92
708.92	1086.01
709.26	1077.35
709.59	1070.80
709.93	1071.50
710.26	1070.09
710.60	1081.33
710.93	1087.41
711.27	1089.05
711.60	1099.12
711.94	1093.73
712.27	1082.03
712.61	1085.31
712.94	1085.77
713.28	1080.86
713.61	1083.90
713.95	1081.33
714.28	1086.01
714.62	1086.48
714.95	1076.65
715.29	1088.35
715.62	1091.63
715.96	1087.41
716.29	1096.07
716.63	1105.67
716.96	1094.20
717.29	1093.26
717.63	1092.09
717.96	1078.52
718.30	1079.92
718.63	1077.58
718.97	1087.65
719.30	1087.88
719.63	1103.33
719.97	1090.92
720.30	1097.24
720.64	1090.69
720.97	1091.16
721.30	1079.69
721.64	1088.12
721.97	1079.22
722.31	1065.41
722.64	1066.58
722.97	1076.65
723.31	1068.92
723.64	1074.77
723.97	1086.71
724.31	1090.46
724.64	1089.05
724.98	1093.03
725.31	1095.60
725.64	1098.65
725.98	1096.31
726.31	1086.48
726.64	1081.09
726.97	1078.52
727.31	1076.88
727.64	1072.20
727.97	1069.16
728.31	1079.69
728.64	1084.37
728.97	1083.43
729.31	1091.86
729.64	1093.26
729.97	1089.05
730.30	1079.92
730.64	1078.52
730.97	1073.37
731.30	1081.09
731.63	1080.16
731.97	1078.75
732.30	1078.99
732.63	1078.99
732.96	1081.80
733.30	1080.16
733.63	1084.60
733.96	1078.75
734.29	1078.75
734.63	1074.31
734.96	1071.03
735.29	1070.56
735.62	1069.16
735.95	1076.41
736.29	1073.60
736.62	1080.39
736.95	1074.31
737.28	1084.84
737.61	1075.71
737.94	1078.75
738.28	1082.73
738.61	1087.88
738.94	1092.56
739.27	1095.37
739.60	1092.56
739.93	1085.31
740.27	1086.94
740.60	1078.75
740.93	1090.22
741.26	1086.71
741.59	1084.60
741.92	1089.29
742.25	1092.56
742.58	1079.22
742.91	1086.48
743.25	1094.67
743.58	1082.73
743.91	1079.69
744.24	1085.31
744.57	1087.88
744.90	1086.48
745.23	1089.75
745.56	1090.46
745.89	1088.82
746.22	1087.65
746.55	1084.60
746.88	1091.16
747.21	1093.26
747.54	1096.54
747.87	1091.86
748.20	1089.75
748.53	1085.31
748.87	1082.97
749.20	1075.48
749.53	1088.58
749.86	1086.71
750.19	1087.65
750.52	1084.84
750.85	1085.31
751.18	1070.56
751.51	1085.07
751.84	1084.84
752.16	1096.54
752.49	1101.69
752.82	1109.18
753.15	1094.90
753.48	1102.63
753.81	1098.88
754.14	1089.52
754.47	1089.29
754.80	1097.48
755.13	1094.20
755.46	1090.22
755.79	1093.50
756.12	1089.52
756.45	1089.29
756.78	1089.05
757.11	1093.73
757.43	1088.82
757.76	1082.73
758.09	1087.18
758.42	1089.29
758.75	1080.86
759.08	1089.99
759.41	1085.54
759.74	1074.54
760.07	1072.67
760.39	1082.73
760.72	1082.03
761.05	1093.03
761.38	1096.31
761.71	1090.22
762.04	1090.22
762.36	1086.24
762.69	1088.58
763.02	1086.71
763.35	1092.80
763.68	1076.65
764.01	1087.41
