SpectraSuite Data File
++++++++++++++++++++++++++++++++++++
Date: Mon Aug 26 10:24:45 PDT 2019
User: corrico
Dark Spectrum Present: No
Reference Spectrum Present: No
Number of Sampled Component Spectra: 1
Spectrometers: USB2+H06089
Integration Time (usec): 10000 (USB2+H06089)
Spectra Averaged: 2 (USB2+H06089)
Boxcar Smoothing: 2 (USB2+H06089)
Correct for Electrical Dark: No (USB2+H06089)
Strobe/Lamp Enabled: No (USB2+H06089)
Correct for Detector Non-linearity: No (USB2+H06089)
Correct for Stray Light: No (USB2+H06089)
Number of Pixels in Processed Spectrum: 2048
>>>>>Begin Processed Spectral Data<<<<<
339.70	1020.47
340.07	1020.47
340.45	989.81
340.82	964.30
341.19	941.83
341.57	920.06
341.94	913.51
342.31	896.19
342.69	890.81
343.06	889.17
343.43	886.83
343.81	884.72
344.18	895.02
344.55	912.81
344.93	917.72
345.30	930.60
345.67	952.83
346.04	957.98
346.42	954.70
346.79	961.26
347.16	972.73
347.54	972.49
347.91	984.43
348.28	1000.58
348.65	1013.92
349.03	1016.26
349.40	1027.03
349.77	1031.71
350.14	1036.16
350.52	1046.45
350.89	1058.86
351.26	1061.90
351.63	1067.05
352.01	1077.35
352.38	1079.22
352.75	1074.31
353.12	1081.80
353.50	1092.33
353.87	1101.69
354.24	1116.44
354.61	1126.73
354.98	1119.48
355.36	1119.01
355.73	1117.14
356.10	1110.58
356.47	1108.95
356.84	1110.58
357.22	1103.33
357.59	1097.95
357.96	1094.43
358.33	1094.67
358.70	1107.07
359.08	1111.75
359.45	1107.07
359.82	1106.84
360.19	1099.58
360.56	1098.88
360.94	1097.48
361.31	1094.90
361.68	1092.33
362.05	1096.54
362.42	1086.94
362.79	1090.46
363.16	1100.52
363.54	1097.01
363.91	1095.37
364.28	1091.86
364.65	1090.69
365.02	1086.94
365.39	1086.48
365.76	1081.56
366.14	1088.35
366.51	1086.48
366.88	1082.73
367.25	1084.60
367.62	1092.80
367.99	1100.29
368.36	1099.58
368.73	1101.22
369.10	1102.16
369.48	1103.80
369.85	1093.73
370.22	1094.43
370.59	1103.33
370.96	1120.65
371.33	1113.63
371.70	1111.75
372.07	1111.99
372.44	1105.44
372.81	1090.22
373.18	1097.24
373.55	1101.22
373.93	1106.37
374.30	1115.50
374.67	1120.65
375.04	1115.03
375.41	1112.69
375.78	1118.78
376.15	1105.90
376.52	1104.97
376.89	1108.24
377.26	1111.75
377.63	1102.39
378.00	1108.71
378.37	1103.56
378.74	1101.46
379.11	1097.95
379.48	1099.82
379.85	1090.92
380.22	1092.09
380.59	1096.54
380.96	1105.67
381.33	1107.54
381.70	1120.41
382.07	1125.80
382.44	1135.86
382.81	1146.16
383.18	1131.18
383.55	1131.88
383.92	1126.27
384.29	1119.95
384.66	1105.20
385.03	1122.52
385.40	1119.01
385.77	1114.56
386.14	1108.01
386.51	1102.63
386.88	1092.80
387.25	1087.65
387.62	1096.78
387.99	1100.75
388.36	1108.01
388.73	1112.46
389.10	1120.41
389.46	1127.44
389.83	1115.50
390.20	1119.48
390.57	1126.27
390.94	1129.78
391.31	1124.86
391.68	1133.52
392.05	1128.37
392.42	1128.37
392.79	1120.65
393.16	1113.16
393.53	1117.14
393.89	1126.03
394.26	1124.86
394.63	1132.12
395.00	1143.35
395.37	1152.48
395.74	1148.27
396.11	1154.12
396.48	1150.84
396.84	1155.29
397.21	1148.50
397.58	1146.39
397.95	1143.82
398.32	1143.82
398.69	1142.42
399.06	1144.76
399.42	1157.63
399.79	1158.80
400.16	1162.78
400.53	1164.42
400.90	1179.63
401.27	1187.82
401.64	1197.89
402.00	1211.46
402.37	1221.53
402.74	1225.74
403.11	1229.72
403.48	1242.82
403.84	1251.25
404.21	1260.14
404.58	1274.66
404.95	1281.91
405.32	1296.89
405.68	1313.74
406.05	1341.83
406.42	1363.60
406.79	1392.62
407.16	1426.56
407.52	1456.98
407.89	1478.28
408.26	1513.16
408.63	1556.92
408.99	1595.31
409.36	1633.23
409.73	1678.87
410.10	1714.91
410.47	1762.89
410.83	1805.96
411.20	1865.17
411.57	1915.73
411.94	1988.99
412.30	2058.97
412.67	2148.38
413.04	2231.23
413.40	2328.83
413.77	2410.99
414.14	2521.46
414.51	2629.59
414.87	2747.09
415.24	2887.52
415.61	3041.06
415.97	3184.06
416.34	3336.67
416.71	3525.78
417.08	3694.77
417.44	3871.25
417.81	4103.19
418.18	4336.78
418.54	4559.83
418.91	4837.65
419.28	5124.60
419.64	5369.42
420.01	5671.12
420.38	5987.79
420.74	6289.72
421.11	6658.12
421.48	7037.05
421.84	7432.14
422.21	7857.88
422.58	8334.41
422.94	8776.77
423.31	9265.01
423.68	9778.99
424.04	10371.62
424.41	10935.45
424.77	11522.69
425.14	12136.61
425.51	12719.41
425.87	13380.37
426.24	14090.96
426.61	14919.51
426.97	15851.51
427.34	16783.51
427.70	17719.96
428.07	18651.50
428.44	19581.16
428.80	20504.73
429.17	21574.59
429.53	22638.36
429.90	23818.23
430.27	24881.06
430.63	26010.84
431.00	27258.11
431.36	28554.54
431.73	29748.68
432.09	31000.86
432.46	32220.05
432.83	33358.95
433.19	34448.47
433.56	35702.30
433.92	37126.28
434.29	38446.81
434.65	39783.96
435.02	41022.10
435.38	42117.94
435.75	42975.75
436.11	44136.65
436.48	45075.44
436.84	46018.44
437.21	46979.23
437.57	47959.92
437.94	48572.90
438.30	49224.98
438.67	49700.57
439.03	50014.67
439.40	50184.60
439.76	50145.28
440.13	49896.24
440.49	49748.09
440.86	49276.70
441.22	48920.94
441.59	48397.36
441.95	47910.77
442.32	47103.28
442.68	46434.82
443.05	45428.39
443.41	44520.50
443.78	43488.32
444.14	42446.08
444.51	41265.75
444.87	40458.73
445.24	39357.75
445.60	38296.08
445.96	37273.27
446.33	36444.48
446.69	35257.36
447.06	34313.19
447.42	33315.89
447.79	32281.14
448.15	31288.98
448.51	30352.30
448.88	29587.18
449.24	28681.39
449.61	28051.09
449.97	27332.78
450.33	26652.85
450.70	25854.49
451.06	25368.36
451.43	24658.01
451.79	24097.45
452.15	23568.49
452.52	23043.98
452.88	22409.69
453.24	21895.71
453.61	21341.24
453.97	20741.59
454.34	20139.37
454.70	19621.88
455.06	19001.87
455.43	18332.71
455.79	17629.15
456.15	17029.27
456.52	16329.22
456.88	15841.21
457.24	15329.57
457.61	14938.47
457.97	14480.89
458.33	14067.56
458.70	13560.83
459.06	13043.81
459.42	12565.17
459.79	12104.31
460.15	11699.87
460.51	11259.15
460.88	10920.94
461.24	10564.01
461.60	10258.10
461.96	9911.00
462.33	9622.41
462.69	9312.52
463.05	9017.15
463.42	8729.73
463.78	8482.80
464.14	8229.09
464.50	7979.12
464.87	7751.39
465.23	7524.12
465.59	7306.92
465.95	7120.85
466.32	6944.14
466.68	6747.76
467.04	6574.80
467.40	6389.43
467.77	6230.97
468.13	6059.88
468.49	5918.98
468.85	5783.93
469.22	5697.57
469.58	5566.50
469.94	5446.66
470.30	5320.97
470.66	5202.78
471.03	5079.43
471.39	4992.13
471.75	4897.10
472.11	4813.31
472.47	4714.31
472.84	4619.52
473.20	4506.23
473.56	4412.14
473.92	4294.41
474.28	4218.35
474.65	4108.81
475.01	4032.04
475.37	3966.74
475.73	3897.93
476.09	3814.14
476.45	3740.18
476.81	3657.79
477.18	3563.23
477.54	3492.08
477.90	3432.63
478.26	3368.97
478.62	3283.77
478.98	3226.66
479.34	3185.47
479.71	3133.28
480.07	3096.29
480.43	3071.95
480.79	3031.70
481.15	2981.37
481.51	2933.86
481.87	2882.84
482.23	2836.26
482.59	2783.13
482.96	2734.68
483.32	2697.23
483.68	2667.04
484.04	2622.80
484.40	2593.55
484.76	2563.59
485.12	2523.80
485.48	2497.59
485.84	2473.71
486.20	2433.45
486.56	2374.94
486.92	2331.17
487.28	2282.26
487.64	2241.06
488.00	2230.06
488.37	2219.76
488.73	2205.02
489.09	2173.89
489.45	2156.10
489.81	2119.82
490.17	2085.18
490.53	2051.95
490.89	2028.07
491.25	1986.65
491.61	1947.09
491.97	1932.11
492.33	1909.64
492.69	1895.83
493.05	1883.43
493.41	1881.32
493.77	1859.56
494.13	1845.51
494.49	1816.72
494.85	1798.94
495.21	1779.51
495.57	1758.21
495.93	1737.85
496.29	1725.21
496.64	1711.40
497.00	1687.53
497.36	1676.99
497.72	1658.50
498.08	1634.16
498.44	1604.91
498.80	1586.65
499.16	1555.52
499.52	1530.71
499.88	1516.90
500.24	1507.07
500.60	1488.35
500.96	1478.75
501.32	1471.03
501.68	1460.73
502.03	1450.66
502.39	1452.07
502.75	1464.71
503.11	1457.69
503.47	1444.58
503.83	1434.51
504.19	1411.34
504.55	1374.60
504.91	1363.36
505.26	1358.68
505.62	1354.47
505.98	1353.53
506.34	1364.53
506.70	1365.94
507.06	1354.94
507.42	1344.17
507.78	1336.21
508.13	1315.62
508.49	1308.36
508.85	1309.30
509.21	1298.30
509.57	1300.64
509.93	1300.87
510.28	1291.27
510.64	1281.21
511.00	1283.32
511.36	1287.29
511.72	1286.59
512.07	1285.42
512.43	1279.57
512.79	1273.02
513.15	1260.61
513.51	1261.55
513.86	1258.74
514.22	1259.21
514.58	1254.76
514.94	1255.00
515.30	1246.34
515.65	1238.14
516.01	1243.29
516.37	1253.82
516.73	1244.70
517.08	1233.70
517.44	1231.59
517.80	1220.12
518.16	1212.40
518.51	1207.01
518.87	1206.78
519.23	1209.12
519.59	1212.40
519.94	1204.21
520.30	1196.95
520.66	1199.29
521.01	1191.33
521.37	1181.27
521.73	1181.97
522.09	1182.91
522.44	1185.25
522.80	1173.54
523.16	1180.57
523.51	1185.72
523.87	1181.27
524.23	1175.89
524.58	1181.74
524.94	1171.44
525.30	1158.80
525.65	1171.20
526.01	1165.82
526.37	1175.42
526.72	1162.54
527.08	1156.46
527.44	1133.29
527.79	1132.59
528.15	1112.46
528.51	1121.12
528.86	1134.93
529.22	1151.31
529.58	1147.56
529.93	1148.97
530.29	1152.71
530.65	1151.31
531.00	1141.95
531.36	1148.27
531.71	1155.52
532.07	1157.63
532.43	1149.20
532.78	1150.61
533.14	1142.88
533.49	1135.63
533.85	1136.56
534.21	1120.18
534.56	1114.09
534.92	1122.52
535.27	1123.22
535.63	1110.58
535.98	1118.31
536.34	1123.69
536.69	1116.20
537.05	1126.50
537.41	1135.86
537.76	1137.97
538.12	1136.10
538.47	1138.44
538.83	1131.65
539.18	1122.29
539.54	1127.20
539.89	1129.78
540.25	1130.71
540.60	1124.16
540.96	1133.05
541.31	1132.12
541.67	1132.82
542.02	1126.97
542.38	1132.59
542.73	1132.12
543.09	1125.10
543.44	1123.93
543.80	1126.03
544.15	1122.52
544.51	1118.07
544.86	1121.82
545.22	1119.24
545.57	1122.05
545.93	1123.22
546.28	1118.78
546.64	1127.67
546.99	1134.22
547.35	1129.07
547.70	1135.16
548.05	1149.91
548.41	1142.65
548.76	1133.99
549.12	1135.86
549.47	1125.10
549.83	1107.54
550.18	1101.46
550.53	1099.58
550.89	1102.86
551.24	1110.82
551.60	1125.10
551.95	1132.35
552.30	1128.37
552.66	1127.20
553.01	1127.44
553.37	1122.75
553.72	1122.05
554.07	1129.54
554.43	1129.31
554.78	1128.84
555.13	1124.86
555.49	1121.35
555.84	1120.88
556.19	1120.18
556.55	1111.05
556.90	1114.10
557.26	1119.95
557.61	1124.16
557.96	1112.22
558.32	1118.31
558.67	1120.41
559.02	1104.26
559.37	1099.12
559.73	1103.80
560.08	1100.05
560.43	1096.31
560.79	1109.18
561.14	1107.31
561.49	1115.97
561.85	1112.69
562.20	1116.44
562.55	1117.84
562.90	1125.56
563.26	1115.03
563.61	1118.31
563.96	1120.65
564.32	1131.41
564.67	1122.29
565.02	1126.50
565.37	1131.18
565.73	1124.16
566.08	1109.18
566.43	1115.97
566.78	1117.84
567.14	1121.35
567.49	1115.97
567.84	1108.24
568.19	1104.26
568.54	1103.80
568.90	1098.65
569.25	1103.09
569.60	1114.10
569.95	1117.84
570.31	1105.90
570.66	1106.37
571.01	1103.80
571.36	1097.48
571.71	1097.95
572.06	1104.50
572.42	1109.65
572.77	1111.75
573.12	1113.39
573.47	1114.10
573.82	1132.12
574.18	1115.97
574.53	1120.65
574.88	1124.63
575.23	1120.88
575.58	1112.46
575.93	1125.80
576.28	1115.73
576.64	1110.35
576.99	1110.35
577.34	1108.24
577.69	1092.56
578.04	1100.99
578.39	1109.18
578.74	1105.67
579.09	1102.39
579.44	1115.27
579.80	1110.58
580.15	1101.46
580.50	1098.65
580.85	1104.50
581.20	1099.35
581.55	1104.03
581.90	1111.29
582.25	1129.07
582.60	1122.52
582.95	1133.52
583.30	1132.12
583.65	1133.76
584.00	1122.05
584.35	1121.12
584.71	1105.20
585.06	1107.07
585.41	1110.35
585.76	1100.99
586.11	1101.69
586.46	1113.39
586.81	1108.01
587.16	1097.48
587.51	1114.56
587.86	1118.78
588.21	1102.63
588.56	1108.95
588.91	1118.54
589.26	1105.44
589.61	1099.58
589.96	1110.82
590.31	1102.86
590.66	1082.50
591.01	1079.46
591.36	1080.16
591.71	1080.16
592.06	1086.48
592.41	1101.69
592.76	1106.84
593.10	1103.80
593.45	1110.58
593.80	1107.78
594.15	1101.22
594.50	1106.37
594.85	1106.84
595.20	1094.43
595.55	1089.75
595.90	1096.54
596.25	1091.63
596.60	1086.94
596.95	1096.78
597.30	1109.41
597.64	1160.44
597.99	1168.16
598.34	1178.93
598.69	1177.52
599.04	1161.37
599.39	1106.37
599.74	1096.31
600.09	1083.90
600.44	1084.14
600.78	1091.16
601.13	1097.95
601.48	1098.88
601.83	1108.95
602.18	1102.63
602.53	1106.84
602.88	1100.75
603.22	1113.39
603.57	1116.90
603.92	1122.75
604.27	1121.58
604.62	1123.46
604.97	1109.18
605.31	1097.24
605.66	1087.65
606.01	1090.22
606.36	1097.71
606.71	1100.29
607.05	1107.78
607.40	1112.92
607.75	1108.48
608.10	1097.01
608.44	1098.65
608.79	1091.16
609.14	1085.77
609.49	1075.24
609.84	1072.67
610.18	1080.39
610.53	1095.14
610.88	1103.33
611.23	1112.46
611.57	1116.90
611.92	1117.14
612.27	1109.18
612.62	1096.31
612.96	1101.69
613.31	1097.24
613.66	1089.99
614.00	1088.82
614.35	1103.80
614.70	1103.09
615.05	1101.69
615.39	1099.58
615.74	1097.71
616.09	1087.88
616.43	1078.05
616.78	1075.94
617.13	1079.92
617.47	1087.41
617.82	1093.50
618.17	1109.41
618.51	1117.84
618.86	1110.35
619.21	1100.52
619.55	1102.39
619.90	1090.46
620.25	1095.14
620.59	1096.78
620.94	1106.14
621.29	1103.33
621.63	1107.31
621.98	1100.52
622.32	1093.73
622.67	1096.54
623.02	1094.20
623.36	1097.48
623.71	1092.09
624.05	1095.84
624.40	1091.63
624.75	1093.97
625.09	1090.22
625.44	1102.39
625.78	1103.33
626.13	1104.26
626.48	1103.33
626.82	1096.78
627.17	1090.22
627.51	1095.84
627.86	1100.05
628.20	1102.16
628.55	1102.63
628.89	1097.71
629.24	1096.07
629.58	1083.67
629.93	1075.71
630.28	1075.71
630.62	1088.12
630.97	1084.37
631.31	1092.09
631.66	1098.18
632.00	1097.24
632.35	1084.14
632.69	1086.94
633.04	1084.84
633.38	1097.95
633.73	1103.80
634.07	1111.99
634.42	1113.16
634.76	1106.14
635.11	1089.52
635.45	1095.60
635.79	1095.60
636.14	1097.71
636.48	1101.69
636.83	1105.20
637.17	1095.84
637.52	1087.18
637.86	1091.86
638.21	1087.65
638.55	1088.35
638.89	1088.12
639.24	1089.99
639.58	1079.22
639.93	1080.16
640.27	1076.88
640.61	1073.14
640.96	1075.71
641.30	1085.77
641.65	1087.41
641.99	1091.86
642.33	1089.29
642.68	1101.46
643.02	1103.33
643.37	1119.24
643.71	1126.73
644.05	1124.63
644.40	1120.41
644.74	1111.52
645.08	1092.80
645.43	1090.69
645.77	1101.22
646.11	1090.22
646.46	1090.69
646.80	1101.69
647.14	1098.41
647.49	1096.31
647.83	1093.03
648.17	1089.75
648.52	1085.77
648.86	1079.46
649.20	1079.69
649.55	1088.58
649.89	1095.84
650.23	1094.20
650.57	1096.31
650.92	1095.60
651.26	1087.88
651.60	1080.39
651.95	1078.52
652.29	1072.43
652.63	1070.80
652.97	1073.14
653.32	1075.01
653.66	1070.80
654.00	1070.80
654.34	1061.90
654.69	1059.09
655.03	1053.48
655.37	1053.94
655.71	1057.45
656.05	1062.37
656.40	1063.54
656.74	1070.56
657.08	1078.52
657.42	1078.05
657.76	1085.54
658.11	1093.26
658.45	1092.33
658.79	1092.09
659.13	1090.69
659.47	1098.65
659.82	1095.60
660.16	1088.35
660.50	1091.63
660.84	1100.05
661.18	1092.33
661.52	1100.99
661.87	1104.50
662.21	1097.71
662.55	1104.03
662.89	1105.20
663.23	1094.67
663.57	1098.41
663.91	1089.29
664.25	1069.86
664.60	1056.28
664.94	1052.07
665.28	1042.47
665.62	1056.28
665.96	1072.90
666.30	1089.29
666.64	1094.43
666.98	1100.52
667.32	1107.31
667.66	1104.97
668.01	1103.09
668.35	1106.37
668.69	1104.50
669.03	1096.07
669.37	1084.14
669.71	1082.50
670.05	1085.07
670.39	1094.67
670.73	1089.99
671.07	1097.48
671.41	1089.05
671.75	1076.18
672.09	1073.14
672.43	1072.90
672.77	1068.92
673.11	1072.90
673.45	1086.24
673.79	1087.65
674.13	1091.39
674.47	1090.22
674.81	1097.01
675.15	1096.54
675.49	1086.94
675.83	1079.69
676.17	1080.39
676.51	1078.28
676.85	1074.54
677.19	1087.41
677.53	1089.05
677.87	1101.69
678.21	1108.71
678.55	1109.88
678.89	1097.71
679.23	1092.09
679.57	1077.11
679.90	1069.86
680.24	1070.80
680.58	1076.41
680.92	1079.92
681.26	1084.14
681.60	1079.22
681.94	1075.71
682.28	1076.18
682.62	1071.50
682.96	1075.71
683.29	1078.28
683.63	1077.58
683.97	1076.65
684.31	1087.18
684.65	1089.05
684.99	1089.05
685.33	1086.48
685.67	1097.71
686.00	1094.20
686.34	1092.56
686.68	1087.88
687.02	1093.97
687.36	1080.16
687.70	1086.48
688.03	1092.56
688.37	1097.24
688.71	1089.29
689.05	1093.26
689.39	1091.86
689.72	1078.99
690.06	1074.31
690.40	1080.16
690.74	1083.67
691.08	1087.65
691.41	1092.80
691.75	1092.09
692.09	1098.65
692.43	1093.03
692.76	1089.05
693.10	1080.16
693.44	1077.11
693.78	1077.82
694.11	1081.56
694.45	1080.16
694.79	1083.67
695.13	1093.03
695.46	1082.26
695.80	1075.24
696.14	1080.39
696.48	1089.52
696.81	1092.80
697.15	1095.84
697.49	1102.63
697.82	1099.82
698.16	1094.43
698.50	1079.46
698.83	1077.35
699.17	1082.97
699.51	1074.31
699.84	1078.28
700.18	1084.84
700.52	1085.31
700.85	1078.52
701.19	1089.05
701.53	1082.50
701.86	1081.09
702.20	1073.37
702.54	1075.01
702.87	1072.43
703.21	1076.41
703.55	1079.22
703.88	1097.01
704.22	1095.37
704.55	1100.52
704.89	1098.88
705.23	1102.86
705.56	1094.90
705.90	1101.92
706.23	1087.18
706.57	1090.46
706.91	1088.35
707.24	1086.24
707.58	1079.22
707.91	1095.37
708.25	1093.73
708.58	1084.37
708.92	1088.12
709.26	1088.58
709.59	1084.37
709.93	1073.37
710.26	1081.09
710.60	1080.63
710.93	1081.80
711.27	1074.54
711.60	1079.69
711.94	1092.09
712.27	1087.18
712.61	1078.75
712.94	1082.03
713.28	1080.16
713.61	1065.18
713.95	1064.01
714.28	1067.52
714.62	1062.37
714.95	1064.48
715.29	1071.73
715.62	1076.18
715.96	1088.58
716.29	1093.50
716.63	1089.05
716.96	1079.69
717.29	1075.24
717.63	1066.58
717.96	1074.31
718.30	1080.63
718.63	1081.80
718.97	1094.90
719.30	1085.31
719.63	1075.71
719.97	1075.01
720.30	1083.43
720.64	1075.24
720.97	1086.71
721.30	1095.60
721.64	1096.54
721.97	1091.39
722.31	1095.60
722.64	1096.54
722.97	1092.56
723.31	1096.78
723.64	1097.24
723.97	1097.24
724.31	1092.33
724.64	1090.22
724.98	1082.03
725.31	1085.54
725.64	1077.35
725.98	1074.07
726.31	1073.37
726.64	1081.09
726.97	1080.39
727.31	1083.20
727.64	1086.24
727.97	1087.88
728.31	1083.43
728.64	1089.05
728.97	1095.60
729.31	1104.03
729.64	1100.52
729.97	1105.67
730.30	1099.12
730.64	1089.29
730.97	1079.92
731.30	1086.71
731.63	1084.84
731.97	1082.50
732.30	1082.26
732.63	1082.97
732.96	1084.60
733.30	1081.09
733.63	1087.88
733.96	1094.90
734.29	1092.56
734.63	1095.60
734.96	1089.29
735.29	1091.63
735.62	1089.75
735.95	1087.88
736.29	1078.05
736.62	1084.84
736.95	1076.41
737.28	1074.31
737.61	1080.16
737.94	1086.01
738.28	1085.77
738.61	1087.18
738.94	1084.60
739.27	1084.84
739.60	1081.80
739.93	1089.05
740.27	1082.50
740.60	1093.03
740.93	1098.18
741.26	1092.33
741.59	1084.60
741.92	1090.69
742.25	1092.80
742.58	1082.26
742.91	1085.31
743.25	1090.69
743.58	1105.20
743.91	1100.29
744.24	1096.31
744.57	1101.22
744.90	1101.92
745.23	1092.56
745.56	1091.63
745.89	1100.05
746.22	1092.33
746.55	1090.69
746.88	1085.54
747.21	1080.63
747.54	1081.09
747.87	1088.35
748.20	1091.39
748.53	1091.63
748.87	1097.01
749.20	1087.88
749.53	1083.43
749.86	1088.12
750.19	1089.75
750.52	1078.28
750.85	1079.69
751.18	1083.67
751.51	1074.54
751.84	1074.77
752.16	1077.82
752.49	1076.18
752.82	1077.58
753.15	1085.31
753.48	1080.63
753.81	1082.26
754.14	1090.46
754.47	1072.67
754.80	1068.45
755.13	1075.24
755.46	1082.97
755.79	1082.03
756.12	1094.67
756.45	1098.18
756.78	1100.05
757.11	1092.33
757.43	1095.37
757.76	1087.18
758.09	1082.73
758.42	1087.88
758.75	1089.75
759.08	1087.88
759.41	1100.52
759.74	1102.63
760.07	1088.35
760.39	1091.86
760.72	1089.52
761.05	1084.84
761.38	1081.33
761.71	1088.58
762.04	1088.35
762.36	1079.69
762.69	1067.99
763.02	1058.62
763.35	1059.79
763.68	1048.09
764.01	1057.45
