SpectraSuite Data File
++++++++++++++++++++++++++++++++++++
Date: Mon Aug 26 10:24:40 PDT 2019
User: corrico
Dark Spectrum Present: No
Reference Spectrum Present: No
Number of Sampled Component Spectra: 1
Spectrometers: USB2+H06089
Integration Time (usec): 10000 (USB2+H06089)
Spectra Averaged: 2 (USB2+H06089)
Boxcar Smoothing: 2 (USB2+H06089)
Correct for Electrical Dark: No (USB2+H06089)
Strobe/Lamp Enabled: No (USB2+H06089)
Correct for Detector Non-linearity: No (USB2+H06089)
Correct for Stray Light: No (USB2+H06089)
Number of Pixels in Processed Spectrum: 2048
>>>>>Begin Processed Spectral Data<<<<<
339.70	1012.28
340.07	1012.28
340.45	981.39
340.82	967.34
341.19	945.11
341.57	917.72
341.94	907.43
342.31	889.40
342.69	888.47
343.06	886.36
343.43	895.02
343.81	911.64
344.18	926.62
344.55	919.36
344.93	925.45
345.30	927.55
345.67	924.28
346.04	930.36
346.42	944.17
346.79	951.43
347.16	967.58
347.54	970.62
347.91	980.68
348.28	992.39
348.65	1007.37
349.03	1009.00
349.40	1022.11
349.77	1028.20
350.14	1034.05
350.52	1036.16
350.89	1034.05
351.26	1041.77
351.63	1051.37
352.01	1066.35
352.38	1078.52
352.75	1093.03
353.12	1101.22
353.50	1103.56
353.87	1094.90
354.24	1085.07
354.61	1092.80
354.98	1093.03
355.36	1092.80
355.73	1090.69
356.10	1097.24
356.47	1086.71
356.84	1093.97
357.22	1097.24
357.59	1102.16
357.96	1101.69
358.33	1105.90
358.70	1111.29
359.08	1112.46
359.45	1112.22
359.82	1101.69
360.19	1109.18
360.56	1093.97
360.94	1086.71
361.31	1088.58
361.68	1100.99
362.05	1089.05
362.42	1092.56
362.79	1089.75
363.16	1088.35
363.54	1089.29
363.91	1093.73
364.28	1087.65
364.65	1097.48
365.02	1098.41
365.39	1096.31
365.76	1089.75
366.14	1088.58
366.51	1084.37
366.88	1087.41
367.25	1089.05
367.62	1105.67
367.99	1104.73
368.36	1104.26
368.73	1093.73
369.10	1096.07
369.48	1090.69
369.85	1097.95
370.22	1098.18
370.59	1108.01
370.96	1109.41
371.33	1112.69
371.70	1111.05
372.07	1107.31
372.44	1097.95
372.81	1099.35
373.18	1095.60
373.55	1093.73
373.93	1095.37
374.30	1086.24
374.67	1079.46
375.04	1075.48
375.41	1082.03
375.78	1082.50
376.15	1096.31
376.52	1097.48
376.89	1100.99
377.26	1093.26
377.63	1096.78
378.00	1096.07
378.37	1096.54
378.74	1094.43
379.11	1103.80
379.48	1108.95
379.85	1117.84
380.22	1123.69
380.59	1129.54
380.96	1122.99
381.33	1129.31
381.70	1128.84
382.07	1129.54
382.44	1136.33
382.81	1141.71
383.18	1138.20
383.55	1134.22
383.92	1131.88
384.29	1119.48
384.66	1114.56
385.03	1112.69
385.40	1117.61
385.77	1119.24
386.14	1127.44
386.51	1131.41
386.88	1135.16
387.25	1133.76
387.62	1122.99
387.99	1115.73
388.36	1112.22
388.73	1099.35
389.10	1103.56
389.46	1115.03
389.83	1121.12
390.20	1114.56
390.57	1120.18
390.94	1118.07
391.31	1116.67
391.68	1117.14
392.05	1123.93
392.42	1130.01
392.79	1125.33
393.16	1120.41
393.53	1122.99
393.89	1137.27
394.26	1139.14
394.63	1147.80
395.00	1153.18
395.37	1159.03
395.74	1156.46
396.11	1163.01
396.48	1161.14
396.84	1156.93
397.21	1144.99
397.58	1148.27
397.95	1141.71
398.32	1149.67
398.69	1152.25
399.06	1164.42
399.42	1169.33
399.79	1175.65
400.16	1177.99
400.53	1194.61
400.90	1201.63
401.27	1201.63
401.64	1212.63
402.00	1222.93
402.37	1229.48
402.74	1238.14
403.11	1248.91
403.48	1266.70
403.84	1269.97
404.21	1288.00
404.58	1301.81
404.95	1317.25
405.32	1321.23
405.68	1334.11
406.05	1348.15
406.42	1380.21
406.79	1405.49
407.16	1437.09
407.52	1466.58
407.89	1486.47
408.26	1512.69
408.63	1549.90
408.99	1575.88
409.36	1618.48
409.73	1685.42
410.10	1723.80
410.47	1766.17
410.83	1843.64
411.20	1910.35
411.57	1963.94
411.94	2044.22
412.30	2124.97
412.67	2188.17
413.04	2267.28
413.40	2366.05
413.77	2476.29
414.14	2592.14
414.51	2729.30
414.87	2877.22
415.24	3016.25
415.61	3162.77
415.97	3309.52
416.34	3464.93
416.71	3649.83
417.08	3852.05
417.44	4069.72
417.81	4317.35
418.18	4569.19
418.54	4820.33
418.91	5061.64
419.28	5330.57
419.64	5619.86
420.01	5946.13
420.38	6297.45
420.74	6673.10
421.11	7067.72
421.48	7456.95
421.84	7852.26
422.21	8258.35
422.58	8759.22
422.94	9247.46
423.31	9754.42
423.68	10356.87
424.04	10965.41
424.41	11586.82
424.77	12234.68
425.14	12889.33
425.51	13556.38
425.87	14344.21
426.24	15038.18
426.61	15924.30
426.97	16928.86
427.34	17836.99
427.70	18841.31
428.07	19875.60
428.44	20865.64
428.80	21899.69
429.17	23025.72
429.53	24027.00
429.90	25317.34
430.27	26478.48
430.63	27614.81
431.00	28905.85
431.36	30374.54
431.73	31532.63
432.09	32797.46
432.46	34104.41
432.83	35405.28
433.19	36575.79
433.56	38096.20
433.92	39696.66
434.29	41167.92
434.65	42711.03
435.02	44178.08
435.38	45373.16
435.75	46213.88
436.11	47506.09
436.48	48505.73
436.84	49456.46
437.21	50462.65
437.57	51473.30
437.94	52105.47
438.30	52641.22
438.67	52883.47
439.03	52889.32
439.40	52994.88
439.76	52825.19
440.13	52563.05
440.49	52550.18
440.86	52259.95
441.22	51845.21
441.59	51299.39
441.95	50707.47
442.32	49756.75
442.68	49125.74
443.05	48222.29
443.41	47272.27
443.78	46190.24
444.14	45250.28
444.51	43909.15
444.87	42977.38
445.24	41693.84
445.60	40643.17
445.96	39521.12
446.33	38632.88
446.69	37374.14
447.06	36617.68
447.42	35644.25
447.79	34468.13
448.15	33405.30
448.51	32502.32
448.88	31615.25
449.24	30557.57
449.61	29938.49
449.97	29203.10
450.33	28434.93
450.70	27514.87
451.06	26912.18
451.43	26104.23
451.79	25539.22
452.15	24946.83
452.52	24427.94
452.88	23806.29
453.24	23299.10
453.61	22605.83
453.97	22016.48
454.34	21411.92
454.70	20871.03
455.06	20240.25
455.43	19581.62
455.79	18834.52
456.15	18246.11
456.52	17566.66
456.88	17071.87
457.24	16509.90
457.61	16040.39
457.97	15455.03
458.33	14922.55
458.70	14314.48
459.06	13780.61
459.42	13290.50
459.79	12802.03
460.15	12416.78
460.51	11971.84
460.88	11595.48
461.24	11192.44
461.60	10848.15
461.96	10479.28
462.33	10167.52
462.69	9851.78
463.05	9506.32
463.42	9228.50
463.78	8952.08
464.14	8677.07
464.50	8445.36
464.87	8184.39
465.23	7899.31
465.59	7664.32
465.95	7437.52
466.32	7196.45
466.68	7033.31
467.04	6834.83
467.40	6664.21
467.77	6504.58
468.13	6318.28
468.49	6165.21
468.85	6048.41
469.22	5889.26
469.58	5743.21
469.94	5658.48
470.30	5544.73
470.66	5440.34
471.03	5325.42
471.39	5239.76
471.75	5084.81
472.11	4967.32
472.47	4854.04
472.84	4763.93
473.20	4648.54
473.56	4583.47
473.92	4474.87
474.28	4373.29
474.65	4286.69
475.01	4192.60
475.37	4115.13
475.73	4061.30
476.09	3988.27
476.45	3910.10
476.81	3839.88
477.18	3741.11
477.54	3655.45
477.90	3568.61
478.26	3479.91
478.62	3415.08
478.98	3362.88
479.34	3304.60
479.71	3255.45
480.07	3239.30
480.43	3183.83
480.79	3127.66
481.15	3078.04
481.51	3027.25
481.87	2947.67
482.23	2880.50
482.59	2832.75
482.96	2781.73
483.32	2750.13
483.68	2707.53
484.04	2701.45
484.40	2681.55
484.76	2655.81
485.12	2609.70
485.48	2577.87
485.84	2520.76
486.20	2459.90
486.56	2406.77
486.92	2357.15
487.28	2327.90
487.64	2306.60
488.00	2285.30
488.37	2270.09
488.73	2262.83
489.09	2235.68
489.45	2193.55
489.81	2158.68
490.17	2125.91
490.53	2100.63
490.89	2065.76
491.25	2053.35
491.61	2027.84
491.97	2002.09
492.33	1971.20
492.69	1945.45
493.05	1913.39
493.41	1885.30
493.77	1853.47
494.13	1822.58
494.49	1805.96
494.85	1787.70
495.21	1764.53
495.57	1746.04
495.93	1733.87
496.29	1721.70
496.64	1707.19
497.00	1708.36
497.36	1695.72
497.72	1677.93
498.08	1645.40
498.44	1624.57
498.80	1595.78
499.16	1583.61
499.52	1567.22
499.88	1557.39
500.24	1547.56
500.60	1536.80
500.96	1515.03
501.32	1507.07
501.68	1501.69
502.03	1487.88
502.39	1482.73
502.75	1481.09
503.11	1461.20
503.47	1459.79
503.83	1452.30
504.19	1429.83
504.55	1417.19
504.91	1415.32
505.26	1399.17
505.62	1397.30
505.98	1402.21
506.34	1388.87
506.70	1365.23
507.06	1356.57
507.42	1337.38
507.78	1330.36
508.13	1327.08
508.49	1324.28
508.85	1318.89
509.21	1316.55
509.57	1308.13
509.93	1311.64
510.28	1314.21
510.64	1306.72
511.00	1293.61
511.36	1280.74
511.72	1266.46
512.07	1264.83
512.43	1263.89
512.79	1259.21
513.15	1264.12
513.51	1258.74
513.86	1252.42
514.22	1242.59
514.58	1238.38
514.94	1234.63
515.30	1232.99
515.65	1225.97
516.01	1225.27
516.37	1227.38
516.73	1219.89
517.08	1219.42
517.44	1213.10
517.80	1208.89
518.16	1211.23
518.51	1202.80
518.87	1200.69
519.23	1201.87
519.59	1195.31
519.94	1189.93
520.30	1190.40
520.66	1178.69
521.01	1179.63
521.37	1179.63
521.73	1181.97
522.09	1177.52
522.44	1183.14
522.80	1178.46
523.16	1178.23
523.51	1172.37
523.87	1172.84
524.23	1164.65
524.58	1162.08
524.94	1161.61
525.30	1152.48
525.65	1148.73
526.01	1153.65
526.37	1156.46
526.72	1157.86
527.08	1163.71
527.44	1166.99
527.79	1169.80
528.15	1159.74
528.51	1163.25
528.86	1166.99
529.22	1165.59
529.58	1166.76
529.93	1172.37
530.29	1160.44
530.65	1158.10
531.00	1155.76
531.36	1144.29
531.71	1143.12
532.07	1144.76
532.43	1146.63
532.78	1152.25
533.14	1167.23
533.49	1170.74
533.85	1170.74
534.21	1166.29
534.56	1170.03
534.92	1156.69
535.27	1150.37
535.63	1143.82
535.98	1133.76
536.34	1120.18
536.69	1119.01
537.05	1112.69
537.41	1114.33
537.76	1111.99
538.12	1114.56
538.47	1108.48
538.83	1103.56
539.18	1108.95
539.54	1119.71
539.89	1116.90
540.25	1123.46
540.60	1144.76
540.96	1150.14
541.31	1140.07
541.67	1139.61
542.02	1138.20
542.38	1131.18
542.73	1122.05
543.09	1129.78
543.44	1132.59
543.80	1128.37
544.15	1116.20
544.51	1116.90
544.86	1115.50
545.22	1123.46
545.57	1133.99
545.93	1149.44
546.28	1151.54
546.64	1141.01
546.99	1137.97
547.35	1131.88
547.70	1130.01
548.05	1127.20
548.41	1134.46
548.76	1123.46
549.12	1117.84
549.47	1104.73
549.83	1099.12
550.18	1106.84
550.53	1117.61
550.89	1118.78
551.24	1127.20
551.60	1126.03
551.95	1124.39
552.30	1114.56
552.66	1115.27
553.01	1113.39
553.37	1122.99
553.72	1121.12
554.07	1127.44
554.43	1131.88
554.78	1133.52
555.13	1130.95
555.49	1127.90
555.84	1125.80
556.19	1121.35
556.55	1117.61
556.90	1111.99
557.26	1108.48
557.61	1108.48
557.96	1101.92
558.32	1096.54
558.67	1092.33
559.02	1086.71
559.37	1087.18
559.73	1092.33
560.08	1087.88
560.43	1087.88
560.79	1099.35
561.14	1097.71
561.49	1102.63
561.85	1113.39
562.20	1132.35
562.55	1129.78
562.90	1127.20
563.26	1130.01
563.61	1133.52
563.96	1121.82
564.32	1124.86
564.67	1133.76
565.02	1137.03
565.37	1131.65
565.73	1129.78
566.08	1133.29
566.43	1130.95
566.78	1115.50
567.14	1115.03
567.49	1111.75
567.84	1105.20
568.19	1101.92
568.54	1111.52
568.90	1110.12
569.25	1114.80
569.60	1113.86
569.95	1107.78
570.31	1113.39
570.66	1125.80
571.01	1124.39
571.36	1118.31
571.71	1129.78
572.06	1119.48
572.42	1117.14
572.77	1114.56
573.12	1119.48
573.47	1106.37
573.82	1102.63
574.18	1093.03
574.53	1100.75
574.88	1102.63
575.23	1106.14
575.58	1097.48
575.93	1095.84
576.28	1095.60
576.64	1098.18
576.99	1099.82
577.34	1115.97
577.69	1110.35
578.04	1108.95
578.39	1099.58
578.74	1101.69
579.09	1098.88
579.44	1113.86
579.80	1110.82
580.15	1111.99
580.50	1109.65
580.85	1121.58
581.20	1123.69
581.55	1120.88
581.90	1123.46
582.25	1119.01
582.60	1101.69
582.95	1089.99
583.30	1091.39
583.65	1086.71
584.00	1099.35
584.35	1100.99
584.71	1107.78
585.06	1104.73
585.41	1110.58
585.76	1099.58
586.11	1106.84
586.46	1095.37
586.81	1088.35
587.16	1091.16
587.51	1092.56
587.86	1088.82
588.21	1101.22
588.56	1112.46
588.91	1120.18
589.26	1120.88
589.61	1123.93
589.96	1111.05
590.31	1101.46
590.66	1084.84
591.01	1072.67
591.36	1055.35
591.71	1065.65
592.06	1082.26
592.41	1077.58
592.76	1087.88
593.10	1109.65
593.45	1102.39
593.80	1097.01
594.15	1112.46
594.50	1111.29
594.85	1104.26
595.20	1107.31
595.55	1105.90
595.90	1109.65
596.25	1114.80
596.60	1106.37
596.95	1109.88
597.30	1108.48
597.64	1140.54
597.99	1137.97
598.34	1147.33
598.69	1155.05
599.04	1144.99
599.39	1115.27
599.74	1110.35
600.09	1106.61
600.44	1099.82
600.78	1116.44
601.13	1106.61
601.48	1106.37
601.83	1107.07
602.18	1102.39
602.53	1098.88
602.88	1096.78
603.22	1105.44
603.57	1105.20
603.92	1109.18
604.27	1107.31
604.62	1103.80
604.97	1099.35
605.31	1104.03
605.66	1097.71
606.01	1098.18
606.36	1102.63
606.71	1098.65
607.05	1096.31
607.40	1104.26
607.75	1104.03
608.10	1089.75
608.44	1101.69
608.79	1100.75
609.14	1099.35
609.49	1101.92
609.84	1127.20
610.18	1115.27
610.53	1120.41
610.88	1119.71
611.23	1109.65
611.57	1107.31
611.92	1118.78
612.27	1112.46
612.62	1110.12
612.96	1114.80
613.31	1111.29
613.66	1104.26
614.00	1104.73
614.35	1107.31
614.70	1111.99
615.05	1109.65
615.39	1111.52
615.74	1111.75
616.09	1112.69
616.43	1109.65
616.78	1099.12
617.13	1086.48
617.47	1091.39
617.82	1085.31
618.17	1080.63
618.51	1092.80
618.86	1101.69
619.21	1092.80
619.55	1089.52
619.90	1095.37
620.25	1087.65
620.59	1092.33
620.94	1095.84
621.29	1102.63
621.63	1093.26
621.98	1095.37
622.32	1091.86
622.67	1092.80
623.02	1093.50
623.36	1103.56
623.71	1113.39
624.05	1106.14
624.40	1111.52
624.75	1115.97
625.09	1108.01
625.44	1103.09
625.78	1118.78
626.13	1111.52
626.48	1108.24
626.82	1110.58
627.17	1108.95
627.51	1092.09
627.86	1093.26
628.20	1093.97
628.55	1094.90
628.89	1086.94
629.24	1092.33
629.58	1096.07
629.93	1087.88
630.28	1086.71
630.62	1081.09
630.97	1080.16
631.31	1076.18
631.66	1078.75
632.00	1088.82
632.35	1093.26
632.69	1104.50
633.04	1100.05
633.38	1108.71
633.73	1099.12
634.07	1098.88
634.42	1090.46
634.76	1087.65
635.11	1077.35
635.45	1078.52
635.79	1069.39
636.14	1072.20
636.48	1078.75
636.83	1070.09
637.17	1073.60
637.52	1094.20
637.86	1091.39
638.21	1085.31
638.55	1093.03
638.89	1101.46
639.24	1097.24
639.58	1097.24
639.93	1102.63
640.27	1108.24
640.61	1104.97
640.96	1101.22
641.30	1107.31
641.65	1105.44
641.99	1099.35
642.33	1091.16
642.68	1093.97
643.02	1095.14
643.37	1094.43
643.71	1097.95
644.05	1101.92
644.40	1101.92
644.74	1102.39
645.08	1110.12
645.43	1111.05
645.77	1108.48
646.11	1112.46
646.46	1109.65
646.80	1104.50
647.14	1100.52
647.49	1098.65
647.83	1098.18
648.17	1089.29
648.52	1094.90
648.86	1100.99
649.20	1104.73
649.55	1090.46
649.89	1092.80
650.23	1096.78
650.57	1094.43
650.92	1103.09
651.26	1121.82
651.60	1138.67
651.95	1131.18
652.29	1121.58
652.63	1116.44
652.97	1101.22
653.32	1088.82
653.66	1090.92
654.00	1105.20
654.34	1097.95
654.69	1101.46
655.03	1095.84
655.37	1095.14
655.71	1090.92
656.05	1080.63
656.40	1088.58
656.74	1090.22
657.08	1082.97
657.42	1080.86
657.76	1097.48
658.11	1096.78
658.45	1102.39
658.79	1104.50
659.13	1099.12
659.47	1094.90
659.82	1094.20
660.16	1089.05
660.50	1090.69
660.84	1101.92
661.18	1106.84
661.52	1102.63
661.87	1107.54
662.21	1108.95
662.55	1100.99
662.89	1101.22
663.23	1099.58
663.57	1095.14
663.91	1093.73
664.25	1090.22
664.60	1088.58
664.94	1083.43
665.28	1083.67
665.62	1082.03
665.96	1093.03
666.30	1086.01
666.64	1093.97
666.98	1091.63
667.32	1091.39
667.66	1085.31
668.01	1082.97
668.35	1078.75
668.69	1085.54
669.03	1080.63
669.37	1081.80
669.71	1096.54
670.05	1100.05
670.39	1100.05
670.73	1111.05
671.07	1114.33
671.41	1114.56
671.75	1111.52
672.09	1108.48
672.43	1102.86
672.77	1102.86
673.11	1088.82
673.45	1093.26
673.79	1090.46
674.13	1091.16
674.47	1083.90
674.81	1096.31
675.15	1095.84
675.49	1096.78
675.83	1097.48
676.17	1106.84
676.51	1095.84
676.85	1091.39
677.19	1098.88
677.53	1096.07
677.87	1097.71
678.21	1104.97
678.55	1116.67
678.89	1105.67
679.23	1109.18
679.57	1093.50
679.90	1093.97
680.24	1090.92
680.58	1091.86
680.92	1089.99
681.26	1099.12
681.60	1096.07
681.94	1088.58
682.28	1088.82
682.62	1093.50
682.96	1103.33
683.29	1094.90
683.63	1104.03
683.97	1104.26
684.31	1097.71
684.65	1082.50
684.99	1090.22
685.33	1076.18
685.67	1072.20
686.00	1081.09
686.34	1081.33
686.68	1078.28
687.02	1077.58
687.36	1089.29
687.70	1079.92
688.03	1089.99
688.37	1096.07
688.71	1096.07
689.05	1086.71
689.39	1078.99
689.72	1071.73
690.06	1067.52
690.40	1080.39
690.74	1093.03
691.08	1100.29
691.41	1109.65
691.75	1112.69
692.09	1100.29
692.43	1096.07
692.76	1095.37
693.10	1089.05
693.44	1086.71
693.78	1093.97
694.11	1085.54
694.45	1093.73
694.79	1082.97
695.13	1079.69
695.46	1073.84
695.80	1086.01
696.14	1087.65
696.48	1092.80
696.81	1096.31
697.15	1096.31
697.49	1087.18
697.82	1080.16
698.16	1087.18
698.50	1097.95
698.83	1099.58
699.17	1093.73
699.51	1097.48
699.84	1086.48
700.18	1079.46
700.52	1079.46
700.85	1093.26
701.19	1089.75
701.53	1100.05
701.86	1090.46
702.20	1084.60
702.54	1077.82
702.87	1071.97
703.21	1074.77
703.55	1082.03
703.88	1094.20
704.22	1095.60
704.55	1110.82
704.89	1106.84
705.23	1110.12
705.56	1117.84
705.90	1120.88
706.23	1113.39
706.57	1116.67
706.91	1103.80
707.24	1092.56
707.58	1095.37
707.91	1094.90
708.25	1086.01
708.58	1090.22
708.92	1091.86
709.26	1087.88
709.59	1087.41
709.93	1091.63
710.26	1091.39
710.60	1088.58
710.93	1081.09
711.27	1086.71
711.60	1096.78
711.94	1106.84
712.27	1108.95
712.61	1118.31
712.94	1111.75
713.28	1102.86
713.61	1094.67
713.95	1101.92
714.28	1100.05
714.62	1098.88
714.95	1097.24
715.29	1108.95
715.62	1106.61
715.96	1100.52
716.29	1113.63
716.63	1108.71
716.96	1091.63
717.29	1078.28
717.63	1083.20
717.96	1067.28
718.30	1075.48
718.63	1084.84
718.97	1085.77
719.30	1084.60
719.63	1089.29
719.97	1072.90
720.30	1058.39
720.64	1063.31
720.97	1074.07
721.30	1070.56
721.64	1087.88
721.97	1102.86
722.31	1103.56
722.64	1091.86
722.97	1092.33
723.31	1088.35
723.64	1086.94
723.97	1095.14
724.31	1102.39
724.64	1109.41
724.98	1105.67
725.31	1101.46
725.64	1094.67
725.98	1087.18
726.31	1081.09
726.64	1083.67
726.97	1075.24
727.31	1076.18
727.64	1075.24
727.97	1075.24
728.31	1074.54
728.64	1087.88
728.97	1080.39
729.31	1084.37
729.64	1092.56
729.97	1099.35
730.30	1097.95
730.64	1108.24
730.97	1101.69
731.30	1095.84
731.63	1095.14
731.97	1085.54
732.30	1080.86
732.63	1085.54
732.96	1078.28
733.30	1067.99
733.63	1071.97
733.96	1068.22
734.29	1064.94
734.63	1062.84
734.96	1066.35
735.29	1067.75
735.62	1073.37
735.95	1076.88
736.29	1081.33
736.62	1097.24
736.95	1098.65
737.28	1099.82
737.61	1102.63
737.94	1101.69
738.28	1088.82
738.61	1087.18
738.94	1081.56
739.27	1087.18
739.60	1086.01
739.93	1081.80
740.27	1087.18
740.60	1089.52
740.93	1077.11
741.26	1076.41
741.59	1080.63
741.92	1075.71
742.25	1070.80
742.58	1079.92
742.91	1079.69
743.25	1076.41
743.58	1077.35
743.91	1082.26
744.24	1070.56
744.57	1066.35
744.90	1071.97
745.23	1065.88
745.56	1063.54
745.89	1077.11
746.22	1089.05
746.55	1080.16
746.88	1084.84
747.21	1075.01
747.54	1072.90
747.87	1076.18
748.20	1086.48
748.53	1080.16
748.87	1099.35
749.20	1084.84
749.53	1075.01
749.86	1078.05
750.19	1094.20
750.52	1092.56
750.85	1099.12
751.18	1105.44
751.51	1093.50
751.84	1087.88
752.16	1082.26
752.49	1089.05
752.82	1081.80
753.15	1089.75
753.48	1086.24
753.81	1087.41
754.14	1077.35
754.47	1083.20
754.80	1073.14
755.13	1077.35
755.46	1087.18
755.79	1093.97
756.12	1090.22
756.45	1087.41
756.78	1077.58
757.11	1075.24
757.43	1072.90
757.76	1077.11
758.09	1088.35
758.42	1092.33
758.75	1081.56
759.08	1089.75
759.41	1086.01
759.74	1085.77
760.07	1095.14
760.39	1096.54
760.72	1081.33
761.05	1093.50
761.38	1088.58
761.71	1076.88
762.04	1082.97
762.36	1090.46
762.69	1085.07
763.02	1083.90
763.35	1088.58
763.68	1086.48
764.01	1083.67
