SpectraSuite Data File
++++++++++++++++++++++++++++++++++++
Date: Mon Aug 26 10:24:45 PDT 2019
User: corrico
Dark Spectrum Present: No
Reference Spectrum Present: No
Number of Sampled Component Spectra: 1
Spectrometers: USB2+H06089
Integration Time (usec): 10000 (USB2+H06089)
Spectra Averaged: 2 (USB2+H06089)
Boxcar Smoothing: 2 (USB2+H06089)
Correct for Electrical Dark: No (USB2+H06089)
Strobe/Lamp Enabled: No (USB2+H06089)
Correct for Detector Non-linearity: No (USB2+H06089)
Correct for Stray Light: No (USB2+H06089)
Number of Pixels in Processed Spectrum: 2048
>>>>>Begin Processed Spectral Data<<<<<
339.70	1035.69
340.07	1035.69
340.45	998.24
340.82	982.56
341.19	957.28
341.57	918.89
341.94	900.40
342.31	894.08
342.69	875.13
343.06	874.89
343.43	884.72
343.81	890.34
344.18	901.57
344.55	912.11
344.93	914.68
345.30	924.28
345.67	938.55
346.04	936.45
346.42	943.94
346.79	941.60
347.16	945.11
347.54	949.09
347.91	963.60
348.28	977.64
348.65	993.32
349.03	1000.81
349.40	1014.39
349.77	1031.47
350.14	1044.82
350.52	1055.82
350.89	1064.48
351.26	1069.39
351.63	1062.37
352.01	1069.86
352.38	1081.33
352.75	1084.14
353.12	1083.90
353.50	1093.50
353.87	1093.97
354.24	1096.07
354.61	1100.99
354.98	1093.97
355.36	1091.86
355.73	1084.84
356.10	1082.73
356.47	1092.80
356.84	1112.92
357.22	1112.22
357.59	1110.12
357.96	1114.33
358.33	1106.37
358.70	1097.24
359.08	1100.05
359.45	1102.39
359.82	1088.82
360.19	1085.54
360.56	1083.67
360.94	1082.73
361.31	1077.82
361.68	1087.88
362.05	1086.01
362.42	1084.14
362.79	1093.03
363.16	1091.63
363.54	1097.71
363.91	1108.24
364.28	1117.37
364.65	1099.82
365.02	1103.80
365.39	1100.29
365.76	1096.31
366.14	1091.39
366.51	1097.95
366.88	1099.58
367.25	1093.97
367.62	1093.97
367.99	1089.52
368.36	1086.24
368.73	1082.50
369.10	1079.22
369.48	1087.18
369.85	1093.73
370.22	1101.92
370.59	1102.16
370.96	1097.01
371.33	1086.94
371.70	1085.31
372.07	1076.18
372.44	1083.67
372.81	1100.75
373.18	1098.88
373.55	1097.24
373.93	1101.22
374.30	1097.71
374.67	1075.24
375.04	1085.07
375.41	1089.29
375.78	1093.26
376.15	1092.80
376.52	1106.61
376.89	1096.31
377.26	1101.46
377.63	1101.92
378.00	1105.90
378.37	1109.65
378.74	1119.48
379.11	1113.86
379.48	1101.22
379.85	1095.14
380.22	1097.24
380.59	1097.01
380.96	1102.63
381.33	1118.78
381.70	1117.14
382.07	1106.14
382.44	1106.37
382.81	1097.01
383.18	1098.65
383.55	1099.58
383.92	1103.80
384.29	1109.18
384.66	1122.05
385.03	1115.27
385.40	1126.50
385.77	1129.54
386.14	1127.67
386.51	1122.29
386.88	1119.48
387.25	1105.20
387.62	1109.18
387.99	1106.84
388.36	1105.90
388.73	1111.99
389.10	1124.63
389.46	1130.71
389.83	1127.44
390.20	1131.88
390.57	1127.90
390.94	1125.56
391.31	1115.27
391.68	1125.10
392.05	1119.71
392.42	1122.05
392.79	1128.61
393.16	1131.41
393.53	1128.61
393.89	1128.84
394.26	1130.95
394.63	1128.37
395.00	1132.35
395.37	1131.18
395.74	1132.82
396.11	1134.46
396.48	1135.63
396.84	1153.18
397.21	1161.37
397.58	1163.01
397.95	1174.95
398.32	1190.63
398.69	1187.35
399.06	1181.03
399.42	1188.52
399.79	1180.80
400.16	1177.76
400.53	1183.84
400.90	1205.14
401.27	1207.01
401.64	1218.01
402.00	1226.67
402.37	1221.99
402.74	1220.36
403.11	1239.31
403.48	1255.93
403.84	1262.02
404.21	1276.29
404.58	1290.57
404.95	1302.98
405.32	1306.96
405.68	1322.17
406.05	1351.66
406.42	1378.34
406.79	1399.17
407.16	1426.56
407.52	1455.81
407.89	1475.47
408.26	1487.88
408.63	1518.31
408.99	1557.86
409.36	1590.39
409.73	1626.20
410.10	1676.76
410.47	1721.70
410.83	1772.96
411.20	1844.81
411.57	1926.96
411.94	2000.92
412.30	2084.95
412.67	2155.17
413.04	2228.66
413.40	2303.09
413.77	2396.94
414.14	2483.78
414.51	2614.38
414.87	2737.72
415.24	2867.62
415.61	3012.50
415.97	3160.19
416.34	3300.62
416.71	3467.97
417.08	3671.60
417.44	3836.37
417.81	4066.91
418.18	4295.12
418.54	4526.83
418.91	4750.12
419.28	5035.66
419.64	5285.40
420.01	5584.05
420.38	5888.55
420.74	6209.21
421.11	6581.59
421.48	6931.03
421.84	7294.51
422.21	7688.43
422.58	8130.08
422.94	8582.28
423.31	9085.26
423.68	9612.11
424.04	10186.48
424.41	10741.19
424.77	11290.28
425.14	11915.67
425.51	12521.16
425.87	13204.60
426.24	13895.53
426.61	14675.16
426.97	15585.63
427.34	16455.60
427.70	17378.95
428.07	18301.82
428.44	19228.67
428.80	20085.07
429.17	21162.66
429.53	22180.55
429.90	23350.12
430.27	24383.00
430.63	25462.22
431.00	26635.76
431.36	27931.72
431.73	29049.32
432.09	30351.13
432.46	31595.83
432.83	32762.82
433.19	33797.57
433.56	35090.95
433.92	36448.93
434.29	37754.71
434.65	39049.03
435.02	40194.96
435.38	41349.31
435.75	42139.47
436.11	43287.97
436.48	44182.06
436.84	45202.77
437.21	46057.76
437.57	46953.02
437.94	47625.69
438.30	48372.09
438.67	48872.02
439.03	49190.10
439.40	49522.22
439.76	49317.43
440.13	48980.39
440.49	48895.90
440.86	48441.60
441.22	48001.58
441.59	47631.54
441.95	47171.62
442.32	46263.03
442.68	45604.17
443.05	44670.29
443.41	43702.48
443.78	42566.85
444.14	41665.05
444.51	40480.50
444.87	39594.84
445.24	38523.35
445.60	37536.34
445.96	36381.05
446.33	35552.50
446.69	34433.73
447.06	33608.69
447.42	32676.22
447.79	31670.96
448.15	30733.81
448.51	29858.21
448.88	29081.39
449.24	28254.48
449.61	27641.49
449.97	26960.40
450.33	26249.34
450.70	25388.49
451.06	24766.38
451.43	24081.54
451.79	23487.04
452.15	22927.42
452.52	22446.21
452.88	21938.08
453.24	21447.03
453.61	20928.37
453.97	20397.77
454.34	19795.55
454.70	19253.25
455.06	18637.92
455.43	18009.95
455.79	17373.80
456.15	16791.00
456.52	16146.42
456.88	15673.87
457.24	15125.48
457.61	14681.01
457.97	14226.71
458.33	13775.93
458.70	13283.24
459.06	12783.77
459.42	12344.22
459.79	11882.67
460.15	11502.09
460.51	11105.37
460.88	10721.29
461.24	10364.59
461.60	10030.37
461.96	9698.01
462.33	9389.76
462.69	9096.96
463.05	8792.46
463.42	8542.72
463.78	8276.60
464.14	8012.82
464.50	7837.05
464.87	7632.02
465.23	7392.35
465.59	7222.66
465.95	7054.14
466.32	6849.58
466.68	6649.46
467.04	6484.69
467.40	6283.87
467.77	6103.88
468.13	5941.22
468.49	5793.29
468.85	5686.57
469.22	5585.92
469.58	5466.79
469.94	5355.61
470.30	5238.82
470.66	5104.01
471.03	4985.81
471.39	4903.42
471.75	4811.44
472.11	4723.20
472.47	4631.92
472.84	4531.98
473.20	4408.40
473.56	4303.54
473.92	4199.62
474.28	4119.81
474.65	4039.30
475.01	3971.42
475.37	3892.78
475.73	3800.09
476.09	3704.13
476.45	3641.87
476.81	3566.27
477.18	3483.19
477.54	3433.10
477.90	3393.78
478.26	3323.09
478.62	3273.94
478.98	3232.05
479.34	3182.66
479.71	3124.38
480.07	3079.91
480.43	3046.21
480.79	2986.99
481.15	2935.73
481.51	2899.92
481.87	2863.41
482.23	2799.75
482.59	2753.17
482.96	2717.13
483.32	2666.34
483.68	2631.46
484.04	2589.33
484.40	2562.18
484.76	2518.42
485.12	2482.61
485.48	2428.77
485.84	2408.41
486.20	2369.32
486.56	2345.45
486.92	2311.98
487.28	2299.58
487.64	2260.96
488.00	2256.04
488.37	2240.59
488.73	2199.17
489.09	2168.04
489.45	2138.55
489.81	2086.59
490.17	2032.52
490.53	2020.58
490.89	1969.79
491.25	1943.81
491.61	1930.94
491.97	1910.11
492.33	1883.43
492.69	1875.24
493.05	1856.98
493.41	1823.04
493.77	1811.81
494.13	1804.08
494.49	1784.19
494.85	1752.83
495.21	1739.95
495.57	1717.95
495.93	1688.70
496.29	1672.31
496.64	1671.84
497.00	1650.55
497.36	1632.76
497.72	1611.69
498.08	1593.20
498.44	1573.31
498.80	1572.84
499.16	1573.31
499.52	1555.52
499.88	1548.97
500.24	1532.82
500.60	1505.67
500.96	1487.88
501.32	1482.73
501.68	1471.96
502.03	1472.20
502.39	1471.49
502.75	1455.81
503.11	1454.41
503.47	1435.68
503.83	1424.45
504.19	1416.26
504.55	1401.51
504.91	1382.55
505.26	1376.94
505.62	1370.85
505.98	1354.23
506.34	1346.74
506.70	1344.87
507.06	1348.38
507.42	1339.02
507.78	1338.55
508.13	1346.04
508.49	1353.06
508.85	1344.64
509.21	1328.72
509.57	1321.93
509.93	1296.19
510.28	1287.06
510.64	1276.29
511.00	1278.63
511.36	1276.76
511.72	1287.29
512.07	1272.08
512.43	1268.80
512.79	1268.57
513.15	1263.19
513.51	1263.66
513.86	1251.48
514.22	1241.65
514.58	1238.14
514.94	1230.42
515.30	1218.01
515.65	1224.10
516.01	1222.93
516.37	1214.27
516.73	1213.10
517.08	1213.10
517.44	1212.63
517.80	1213.33
518.16	1219.65
518.51	1218.72
518.87	1214.04
519.23	1215.21
519.59	1213.57
519.94	1210.06
520.30	1204.91
520.66	1202.10
521.01	1192.03
521.37	1191.10
521.73	1190.16
522.09	1187.12
522.44	1182.67
522.80	1182.91
523.16	1175.42
523.51	1170.50
523.87	1180.10
524.23	1180.10
524.58	1183.14
524.94	1184.08
525.30	1172.84
525.65	1161.14
526.01	1155.52
526.37	1144.76
526.72	1141.71
527.08	1143.82
527.44	1138.90
527.79	1131.18
528.15	1137.27
528.51	1143.82
528.86	1136.10
529.22	1132.12
529.58	1136.56
529.93	1143.12
530.29	1142.88
530.65	1154.12
531.00	1165.59
531.36	1175.42
531.71	1157.16
532.07	1150.61
532.43	1140.31
532.78	1132.35
533.14	1131.41
533.49	1130.71
533.85	1137.03
534.21	1137.97
534.56	1146.39
534.92	1143.35
535.27	1156.46
535.63	1145.69
535.98	1144.99
536.34	1144.52
536.69	1152.95
537.05	1149.91
537.41	1151.31
537.76	1151.08
538.12	1143.59
538.47	1132.35
538.83	1132.82
539.18	1138.90
539.54	1142.88
539.89	1144.05
540.25	1139.37
540.60	1142.88
540.96	1137.50
541.31	1135.39
541.67	1134.46
542.02	1152.25
542.38	1146.63
542.73	1135.16
543.09	1129.78
543.44	1137.03
543.80	1116.90
544.15	1115.73
544.51	1134.93
544.86	1135.39
545.22	1136.56
545.57	1140.54
545.93	1140.31
546.28	1131.41
546.64	1131.65
546.99	1123.93
547.35	1128.14
547.70	1135.16
548.05	1127.67
548.41	1136.80
548.76	1124.63
549.12	1120.88
549.47	1112.46
549.83	1123.46
550.18	1124.39
550.53	1131.65
550.89	1123.46
551.24	1112.22
551.60	1105.90
551.95	1109.41
552.30	1115.50
552.66	1122.05
553.01	1132.59
553.37	1134.22
553.72	1126.27
554.07	1113.39
554.43	1105.90
554.78	1103.33
555.13	1100.75
555.49	1096.78
555.84	1100.52
556.19	1106.84
556.55	1111.52
556.90	1115.97
557.26	1111.75
557.61	1111.05
557.96	1112.22
558.32	1108.95
558.67	1105.67
559.02	1108.48
559.37	1104.73
559.73	1100.75
560.08	1102.16
560.43	1098.41
560.79	1100.29
561.14	1099.82
561.49	1104.03
561.85	1107.78
562.20	1118.54
562.55	1122.52
562.90	1132.12
563.26	1126.97
563.61	1118.78
563.96	1109.18
564.32	1101.22
564.67	1099.82
565.02	1104.50
565.37	1102.63
565.73	1116.67
566.08	1119.48
566.43	1118.78
566.78	1122.52
567.14	1126.27
567.49	1114.10
567.84	1114.33
568.19	1116.90
568.54	1115.03
568.90	1125.10
569.25	1135.16
569.60	1137.97
569.95	1135.39
570.31	1136.33
570.66	1130.95
571.01	1123.93
571.36	1118.31
571.71	1109.18
572.06	1118.07
572.42	1108.71
572.77	1095.14
573.12	1090.69
573.47	1097.71
573.82	1089.52
574.18	1090.22
574.53	1101.69
574.88	1108.71
575.23	1112.22
575.58	1115.50
575.93	1124.86
576.28	1137.73
576.64	1132.59
576.99	1128.14
577.34	1107.78
577.69	1099.82
578.04	1093.26
578.39	1096.07
578.74	1095.60
579.09	1114.09
579.44	1112.92
579.80	1103.09
580.15	1108.95
580.50	1114.33
580.85	1109.41
581.20	1111.99
581.55	1122.52
581.90	1120.18
582.25	1128.14
582.60	1138.44
582.95	1141.71
583.30	1124.63
583.65	1122.05
584.00	1121.82
584.35	1115.97
584.71	1110.82
585.06	1116.90
585.41	1109.65
585.76	1099.12
586.11	1086.71
586.46	1102.16
586.81	1103.80
587.16	1103.80
587.51	1106.61
587.86	1106.37
588.21	1085.77
588.56	1091.86
588.91	1094.90
589.26	1090.22
589.61	1096.78
589.96	1105.67
590.31	1098.18
590.66	1105.67
591.01	1114.56
591.36	1126.73
591.71	1125.33
592.06	1121.58
592.41	1122.29
592.76	1110.12
593.10	1102.16
593.45	1100.29
593.80	1105.20
594.15	1109.18
594.50	1108.95
594.85	1109.18
595.20	1108.48
595.55	1100.75
595.90	1093.03
596.25	1097.71
596.60	1089.05
596.95	1092.33
597.30	1099.12
597.64	1143.35
597.99	1136.33
598.34	1137.50
598.69	1137.97
599.04	1138.67
599.39	1090.92
599.74	1091.86
600.09	1104.97
600.44	1105.90
600.78	1110.12
601.13	1118.07
601.48	1122.75
601.83	1115.50
602.18	1106.37
602.53	1097.24
602.88	1088.82
603.22	1096.54
603.57	1098.41
603.92	1099.12
604.27	1101.46
604.62	1105.20
604.97	1088.35
605.31	1087.41
605.66	1093.50
606.01	1094.20
606.36	1101.22
606.71	1111.99
607.05	1103.09
607.40	1095.60
607.75	1097.01
608.10	1089.52
608.44	1082.97
608.79	1093.26
609.14	1101.46
609.49	1098.41
609.84	1103.80
610.18	1111.99
610.53	1096.54
610.88	1096.31
611.23	1090.92
611.57	1089.52
611.92	1085.54
612.27	1093.26
612.62	1087.88
612.96	1100.99
613.31	1097.24
613.66	1100.05
614.00	1096.54
614.35	1100.75
614.70	1096.07
615.05	1100.99
615.39	1102.63
615.74	1113.16
616.09	1111.99
616.43	1108.01
616.78	1104.73
617.13	1110.12
617.47	1103.80
617.82	1098.18
618.17	1089.75
618.51	1088.82
618.86	1076.88
619.21	1077.11
619.55	1075.71
619.90	1085.07
620.25	1092.80
620.59	1100.75
620.94	1099.82
621.29	1110.35
621.63	1108.48
621.98	1086.71
622.32	1080.86
622.67	1083.67
623.02	1078.28
623.36	1080.86
623.71	1095.14
624.05	1098.18
624.40	1092.80
624.75	1101.46
625.09	1107.78
625.44	1109.18
625.78	1105.44
626.13	1100.75
626.48	1091.63
626.82	1086.01
627.17	1087.18
627.51	1094.43
627.86	1114.56
628.20	1118.78
628.55	1124.63
628.89	1119.95
629.24	1106.61
629.58	1097.48
629.93	1103.56
630.28	1095.14
630.62	1088.35
630.97	1097.48
631.31	1098.65
631.66	1092.09
632.00	1090.46
632.35	1095.84
632.69	1101.22
633.04	1096.07
633.38	1105.44
633.73	1102.86
634.07	1111.75
634.42	1097.24
634.76	1101.69
635.11	1093.50
635.45	1098.18
635.79	1090.46
636.14	1094.43
636.48	1092.33
636.83	1094.43
637.17	1102.63
637.52	1107.54
637.86	1112.46
638.21	1108.95
638.55	1110.58
638.89	1104.26
639.24	1100.75
639.58	1095.14
639.93	1105.20
640.27	1105.20
640.61	1090.92
640.96	1086.94
641.30	1092.80
641.65	1084.14
641.99	1071.03
642.33	1082.97
642.68	1085.07
643.02	1080.16
643.37	1085.54
643.71	1098.41
644.05	1105.90
644.40	1098.41
644.74	1103.33
645.08	1099.12
645.43	1093.73
645.77	1096.31
646.11	1104.50
646.46	1104.03
646.80	1093.03
647.14	1092.56
647.49	1082.50
647.83	1078.75
648.17	1079.69
648.52	1091.39
648.86	1093.97
649.20	1089.75
649.55	1100.99
649.89	1093.03
650.23	1100.99
650.57	1105.44
650.92	1110.12
651.26	1105.67
651.60	1113.63
651.95	1106.84
652.29	1097.01
652.63	1097.24
652.97	1092.33
653.32	1090.69
653.66	1094.20
654.00	1096.31
654.34	1097.71
654.69	1091.16
655.03	1100.05
655.37	1095.84
655.71	1092.33
656.05	1096.31
656.40	1107.54
656.74	1102.39
657.08	1096.07
657.42	1106.14
657.76	1111.05
658.11	1107.54
658.45	1105.67
658.79	1114.33
659.13	1108.71
659.47	1094.20
659.82	1097.24
660.16	1099.58
660.50	1093.50
660.84	1092.09
661.18	1100.52
661.52	1097.95
661.87	1093.26
662.21	1111.99
662.55	1108.24
662.89	1110.58
663.23	1111.75
663.57	1115.73
663.91	1098.88
664.25	1100.99
664.60	1099.35
664.94	1099.12
665.28	1098.18
665.62	1092.09
665.96	1096.54
666.30	1088.58
666.64	1084.14
666.98	1080.16
667.32	1082.73
667.66	1075.71
668.01	1075.94
668.35	1074.07
668.69	1064.48
669.03	1064.71
669.37	1064.01
669.71	1068.69
670.05	1070.56
670.39	1074.77
670.73	1082.03
671.07	1089.75
671.41	1088.12
671.75	1094.20
672.09	1094.90
672.43	1094.90
672.77	1102.16
673.11	1101.22
673.45	1101.69
673.79	1113.39
674.13	1111.05
674.47	1102.16
674.81	1103.56
675.15	1100.52
675.49	1093.26
675.83	1094.90
676.17	1095.14
676.51	1095.60
676.85	1096.07
677.19	1095.60
677.53	1087.65
677.87	1082.03
678.21	1081.80
678.55	1082.73
678.89	1073.84
679.23	1076.18
679.57	1089.29
679.90	1087.41
680.24	1087.18
680.58	1097.48
680.92	1087.41
681.26	1082.03
681.60	1084.37
681.94	1088.58
682.28	1092.33
682.62	1106.14
682.96	1097.95
683.29	1095.37
683.63	1087.65
683.97	1078.28
684.31	1067.52
684.65	1074.31
684.99	1071.50
685.33	1067.99
685.67	1072.90
686.00	1079.92
686.34	1069.86
686.68	1072.67
687.02	1076.65
687.36	1073.60
687.70	1073.84
688.03	1078.05
688.37	1085.54
688.71	1084.60
689.05	1092.33
689.39	1096.07
689.72	1093.73
690.06	1090.69
690.40	1095.14
690.74	1096.78
691.08	1083.90
691.41	1084.60
691.75	1079.69
692.09	1077.58
692.43	1077.11
692.76	1086.94
693.10	1084.14
693.44	1089.99
693.78	1093.73
694.11	1095.14
694.45	1093.03
694.79	1095.14
695.13	1092.33
695.46	1086.01
695.80	1078.99
696.14	1084.37
696.48	1088.12
696.81	1081.56
697.15	1079.92
697.49	1077.58
697.82	1077.11
698.16	1074.31
698.50	1078.99
698.83	1080.86
699.17	1088.58
699.51	1077.35
699.84	1078.28
700.18	1086.01
700.52	1091.63
700.85	1082.26
701.19	1089.99
701.53	1097.24
701.86	1092.09
702.20	1087.18
702.54	1085.54
702.87	1085.77
703.21	1079.92
703.55	1077.11
703.88	1070.56
704.22	1075.24
704.55	1070.33
704.89	1076.88
705.23	1087.88
705.56	1088.12
705.90	1092.33
706.23	1090.69
706.57	1093.73
706.91	1086.71
707.24	1085.77
707.58	1075.01
707.91	1082.97
708.25	1073.60
708.58	1079.22
708.92	1082.50
709.26	1093.50
709.59	1090.22
709.93	1091.86
710.26	1079.92
710.60	1088.35
710.93	1087.41
711.27	1094.43
711.60	1094.90
711.94	1087.41
712.27	1081.80
712.61	1074.77
712.94	1078.75
713.28	1081.09
713.61	1097.71
713.95	1100.52
714.28	1106.14
714.62	1103.09
714.95	1103.56
715.29	1100.05
715.62	1101.92
715.96	1106.14
716.29	1093.50
716.63	1085.07
716.96	1079.69
717.29	1067.05
717.63	1060.96
717.96	1072.90
718.30	1086.24
718.63	1081.80
718.97	1086.48
719.30	1087.65
719.63	1082.26
719.97	1070.09
720.30	1069.39
720.64	1081.33
720.97	1087.88
721.30	1092.56
721.64	1100.99
721.97	1114.80
722.31	1110.82
722.64	1100.05
722.97	1090.92
723.31	1091.63
723.64	1090.92
723.97	1087.41
724.31	1084.37
724.64	1085.31
724.98	1079.22
725.31	1074.31
725.64	1079.46
725.98	1086.01
726.31	1083.67
726.64	1083.90
726.97	1081.33
727.31	1080.39
727.64	1077.82
727.97	1089.75
728.31	1092.56
728.64	1096.31
728.97	1087.18
729.31	1092.80
729.64	1095.14
729.97	1090.22
730.30	1087.88
730.64	1095.84
730.97	1087.18
731.30	1066.82
731.63	1067.05
731.97	1068.69
732.30	1064.71
732.63	1065.65
732.96	1068.22
733.30	1071.97
733.63	1070.80
733.96	1068.92
734.29	1078.99
734.63	1091.63
734.96	1084.84
735.29	1087.41
735.62	1090.46
735.95	1084.84
736.29	1079.46
736.62	1086.48
736.95	1095.14
737.28	1092.56
737.61	1096.78
737.94	1100.75
738.28	1098.41
738.61	1088.35
738.94	1093.50
739.27	1082.97
739.60	1077.11
739.93	1081.09
740.27	1084.84
740.60	1086.71
740.93	1107.07
741.26	1108.48
741.59	1098.65
741.92	1093.73
742.25	1087.65
742.58	1071.26
742.91	1071.26
743.25	1076.88
743.58	1081.33
743.91	1077.58
744.24	1077.58
744.57	1081.33
744.90	1076.65
745.23	1065.65
745.56	1078.75
745.89	1083.43
746.22	1078.28
746.55	1087.41
746.88	1097.48
747.21	1085.77
747.54	1077.58
747.87	1071.50
748.20	1065.18
748.53	1068.69
748.87	1069.16
749.20	1073.37
749.53	1076.88
749.86	1077.58
750.19	1075.48
750.52	1074.54
750.85	1075.01
751.18	1082.50
751.51	1084.14
751.84	1075.01
752.16	1082.26
752.49	1082.97
752.82	1084.60
753.15	1082.50
753.48	1084.84
753.81	1084.60
754.14	1081.80
754.47	1075.94
754.80	1070.56
755.13	1073.37
755.46	1084.37
755.79	1091.39
756.12	1097.48
756.45	1097.95
756.78	1094.43
757.11	1078.99
757.43	1066.35
757.76	1060.03
758.09	1072.43
758.42	1075.01
758.75	1077.58
759.08	1089.29
759.41	1088.35
759.74	1082.26
760.07	1084.14
760.39	1092.09
760.72	1088.82
761.05	1097.24
761.38	1098.65
761.71	1097.71
762.04	1093.73
762.36	1093.50
762.69	1081.09
763.02	1082.50
763.35	1083.20
763.68	1083.90
764.01	1080.86
