SpectraSuite Data File
++++++++++++++++++++++++++++++++++++
Date: Mon Aug 26 10:24:40 PDT 2019
User: corrico
Dark Spectrum Present: No
Reference Spectrum Present: No
Number of Sampled Component Spectra: 1
Spectrometers: USB2+H06089
Integration Time (usec): 10000 (USB2+H06089)
Spectra Averaged: 2 (USB2+H06089)
Boxcar Smoothing: 2 (USB2+H06089)
Correct for Electrical Dark: No (USB2+H06089)
Strobe/Lamp Enabled: No (USB2+H06089)
Correct for Detector Non-linearity: No (USB2+H06089)
Correct for Stray Light: No (USB2+H06089)
Number of Pixels in Processed Spectrum: 2048
>>>>>Begin Processed Spectral Data<<<<<
339.70	1026.32
340.07	1026.32
340.45	995.90
340.82	977.64
341.19	953.07
341.57	923.81
341.94	918.19
342.31	902.98
342.69	896.89
343.06	896.19
343.43	897.60
343.81	883.79
344.18	884.49
344.55	889.64
344.93	893.38
345.30	903.45
345.67	913.98
346.04	931.30
346.42	933.41
346.79	945.11
347.16	950.26
347.54	965.71
347.91	968.98
348.28	981.62
348.65	987.94
349.03	1003.39
349.40	1013.92
349.77	1027.50
350.14	1031.47
350.52	1038.26
350.89	1037.79
351.26	1039.20
351.63	1042.24
352.01	1049.26
352.38	1058.16
352.75	1065.65
353.12	1071.26
353.50	1071.26
353.87	1072.67
354.24	1066.11
354.61	1072.67
354.98	1077.82
355.36	1094.90
355.73	1101.92
356.10	1114.56
356.47	1104.97
356.84	1104.26
357.22	1091.39
357.59	1088.58
357.96	1086.01
358.33	1104.73
358.70	1108.71
359.08	1105.67
359.45	1111.52
359.82	1112.92
360.19	1100.99
360.56	1101.46
360.94	1103.80
361.31	1102.63
361.68	1087.18
362.05	1091.16
362.42	1093.97
362.79	1088.82
363.16	1080.16
363.54	1091.39
363.91	1093.73
364.28	1085.54
364.65	1096.07
365.02	1102.86
365.39	1112.69
365.76	1105.90
366.14	1108.01
366.51	1100.29
366.88	1105.44
367.25	1101.69
367.62	1099.12
367.99	1090.22
368.36	1089.05
368.73	1086.94
369.10	1077.82
369.48	1078.05
369.85	1082.97
370.22	1085.54
370.59	1078.75
370.96	1083.20
371.33	1085.07
371.70	1087.41
372.07	1089.99
372.44	1098.41
372.81	1099.12
373.18	1104.03
373.55	1102.86
373.93	1105.20
374.30	1087.88
374.67	1088.35
375.04	1077.82
375.41	1077.11
375.78	1069.39
376.15	1077.58
376.52	1071.26
376.89	1077.58
377.26	1078.99
377.63	1084.14
378.00	1081.56
378.37	1084.60
378.74	1093.97
379.11	1101.92
379.48	1090.92
379.85	1107.54
380.22	1105.67
380.59	1100.99
380.96	1091.63
381.33	1100.05
381.70	1096.54
382.07	1103.33
382.44	1094.20
382.81	1103.80
383.18	1108.95
383.55	1103.33
383.92	1094.90
384.29	1108.71
384.66	1112.69
385.03	1122.52
385.40	1127.20
385.77	1142.88
386.14	1131.65
386.51	1123.22
386.88	1112.22
387.25	1103.56
387.62	1095.84
387.99	1102.39
388.36	1101.69
388.73	1113.86
389.10	1121.12
389.46	1120.65
389.83	1122.29
390.20	1122.29
390.57	1113.86
390.94	1109.65
391.31	1111.05
391.68	1114.56
392.05	1120.41
392.42	1113.16
392.79	1108.01
393.16	1119.48
393.53	1118.31
393.89	1126.97
394.26	1142.18
394.63	1158.10
395.00	1152.71
395.37	1152.71
395.74	1144.05
396.11	1142.65
396.48	1140.07
396.84	1136.80
397.21	1145.46
397.58	1156.22
397.95	1158.33
398.32	1170.74
398.69	1176.12
399.06	1178.93
399.42	1182.44
399.79	1186.65
400.16	1182.44
400.53	1183.14
400.90	1185.01
401.27	1182.44
401.64	1197.89
402.00	1212.63
402.37	1228.31
402.74	1234.63
403.11	1240.72
403.48	1238.61
403.84	1248.21
404.21	1262.48
404.58	1280.27
404.95	1295.49
405.32	1314.91
405.68	1336.21
406.05	1341.60
406.42	1363.13
406.79	1391.21
407.16	1406.66
407.52	1425.15
407.89	1471.49
408.26	1505.67
408.63	1544.05
408.99	1603.74
409.36	1644.46
409.73	1688.46
410.10	1734.34
410.47	1794.72
410.83	1845.04
411.20	1911.28
411.57	1974.71
411.94	2036.03
412.30	2102.97
412.67	2175.29
413.04	2258.15
413.40	2350.83
413.77	2464.58
414.14	2572.48
414.51	2700.74
414.87	2825.26
415.24	2971.31
415.61	3127.66
415.97	3277.22
416.34	3454.86
416.71	3630.87
417.08	3819.75
417.44	4008.40
417.81	4234.50
418.18	4451.70
418.54	4701.20
418.91	4942.98
419.28	5258.48
419.64	5553.16
420.01	5860.94
420.38	6175.97
420.74	6558.42
421.11	6938.28
421.48	7329.39
421.84	7747.17
422.21	8195.15
422.58	8673.09
422.94	9155.71
423.31	9685.14
423.68	10280.57
424.04	10894.49
424.41	11490.63
424.77	12113.91
425.14	12741.64
425.51	13373.12
425.87	14098.68
426.24	14814.19
426.61	15669.42
426.97	16679.36
427.34	17611.13
427.70	18666.94
428.07	19716.20
428.44	20731.06
428.80	21708.00
429.17	22807.58
429.53	23776.33
429.90	24974.92
430.27	26024.88
430.63	27138.51
431.00	28411.76
431.36	29853.53
431.73	31061.95
432.09	32413.61
432.46	33702.08
432.83	34956.60
433.19	36066.72
433.56	37529.79
433.92	39050.90
434.29	40597.29
434.65	42090.56
435.02	43450.88
435.38	44697.91
435.75	45554.31
436.11	46757.35
436.48	47858.81
436.84	48906.20
437.21	49909.82
437.57	50949.02
437.94	51580.96
438.30	52046.49
438.67	52360.59
439.03	52367.85
439.40	52462.87
439.76	52334.14
440.13	52094.94
440.49	51988.21
440.86	51627.54
441.22	51267.33
441.59	50632.34
441.95	50071.31
442.32	49187.29
442.68	48493.56
443.05	47532.30
443.41	46679.88
443.78	45636.23
444.14	44755.02
444.51	43529.28
444.87	42525.19
445.24	41337.61
445.60	40193.32
445.96	38983.96
446.33	38103.45
446.69	36974.85
447.06	36088.49
447.42	35126.76
447.79	34030.92
448.15	32991.96
448.51	32003.32
448.88	31090.97
449.24	30117.08
449.61	29449.32
449.97	28630.37
450.33	27848.40
450.70	26989.42
451.06	26373.39
451.43	25616.70
451.79	25089.14
452.15	24592.48
452.52	24069.37
452.88	23516.77
453.24	22981.49
453.61	22366.16
453.97	21719.70
454.34	21079.10
454.70	20477.35
455.06	19870.21
455.43	19189.58
455.79	18464.49
456.15	17910.95
456.52	17251.39
456.88	16731.09
457.24	16177.08
457.61	15764.68
457.97	15222.14
458.33	14714.48
458.70	14151.58
459.06	13610.92
459.42	13152.17
459.79	12697.64
460.15	12306.30
460.51	11872.13
460.88	11467.22
461.24	11026.97
461.60	10620.41
461.96	10232.82
462.33	9916.38
462.69	9638.56
463.05	9327.27
463.42	9101.41
463.78	8809.07
464.14	8531.25
464.50	8287.37
464.87	8014.23
465.23	7720.73
465.59	7518.74
465.95	7323.07
466.32	7101.19
466.68	6937.35
467.04	6760.87
467.40	6588.37
467.77	6408.85
468.13	6215.53
468.49	6061.75
468.85	5943.32
469.22	5819.51
469.58	5715.12
469.94	5626.65
470.30	5522.26
470.66	5378.79
471.03	5258.48
471.39	5150.58
471.75	5048.77
472.11	4957.02
472.47	4868.31
472.84	4764.86
473.20	4640.11
473.56	4544.85
473.92	4407.93
474.28	4325.54
474.65	4235.20
475.01	4169.20
475.37	4071.36
475.73	4012.38
476.09	3909.40
476.45	3831.46
476.81	3737.13
477.18	3676.51
477.54	3595.30
477.90	3543.57
478.26	3455.10
478.62	3390.27
478.98	3327.31
479.34	3273.71
479.71	3209.58
480.07	3165.11
480.43	3141.47
480.79	3089.27
481.15	3031.70
481.51	2982.54
481.87	2945.80
482.23	2883.54
482.59	2818.00
482.96	2786.17
483.32	2758.32
483.68	2721.57
484.04	2682.25
484.40	2666.10
484.76	2634.51
485.12	2593.08
485.48	2557.50
485.84	2514.91
486.20	2482.61
486.56	2435.09
486.92	2414.50
487.28	2375.18
487.64	2351.07
488.00	2310.11
488.37	2282.02
488.73	2220.00
489.09	2193.55
489.45	2159.61
489.81	2113.74
490.17	2073.01
490.53	2054.52
490.89	2032.99
491.25	2003.97
491.61	1987.11
491.97	1966.75
492.33	1946.39
492.69	1920.88
493.05	1899.81
493.41	1884.37
493.77	1855.81
494.13	1842.47
494.49	1825.62
494.85	1807.60
495.21	1776.47
495.57	1769.45
495.93	1744.64
496.29	1712.57
496.64	1690.80
497.00	1676.53
497.36	1656.16
497.72	1644.69
498.08	1634.86
498.44	1620.12
498.80	1610.52
499.16	1608.42
499.52	1591.80
499.88	1565.12
500.24	1550.84
500.60	1546.39
500.96	1521.82
501.32	1506.37
501.68	1493.03
502.03	1475.24
502.39	1446.92
502.75	1439.43
503.11	1437.56
503.47	1445.05
503.83	1448.09
504.19	1442.71
504.55	1419.53
504.91	1396.60
505.26	1376.47
505.62	1364.30
505.98	1353.30
506.34	1361.96
506.70	1354.47
507.06	1348.62
507.42	1342.30
507.78	1345.57
508.13	1328.96
508.49	1328.25
508.85	1318.89
509.21	1306.25
509.57	1297.83
509.93	1296.42
510.28	1290.10
510.64	1283.08
511.00	1272.08
511.36	1254.06
511.72	1249.85
512.07	1249.38
512.43	1251.72
512.79	1250.55
513.15	1249.85
513.51	1253.82
513.86	1254.53
514.22	1241.42
514.58	1240.25
514.94	1247.51
515.30	1235.80
515.65	1227.38
516.01	1225.27
516.37	1234.16
516.73	1225.04
517.08	1230.42
517.44	1234.63
517.80	1237.44
518.16	1221.76
518.51	1231.82
518.87	1218.25
519.23	1202.33
519.59	1197.65
519.94	1197.89
520.30	1182.20
520.66	1181.27
521.01	1175.42
521.37	1185.25
521.73	1175.42
522.09	1179.63
522.44	1183.61
522.80	1185.72
523.16	1174.48
523.51	1178.46
523.87	1181.74
524.23	1171.67
524.58	1166.52
524.94	1168.16
525.30	1163.48
525.65	1156.69
526.01	1157.63
526.37	1158.10
526.72	1153.88
527.08	1163.95
527.44	1158.33
527.79	1158.57
528.15	1164.42
528.51	1155.76
528.86	1148.50
529.22	1151.78
529.58	1152.01
529.93	1141.01
530.29	1148.97
530.65	1148.97
531.00	1143.82
531.36	1140.54
531.71	1156.22
532.07	1153.88
532.43	1160.44
532.78	1156.93
533.14	1156.22
533.49	1138.67
533.85	1134.46
534.21	1132.82
534.56	1138.67
534.92	1142.88
535.27	1147.33
535.63	1153.65
535.98	1145.22
536.34	1144.76
536.69	1139.84
537.05	1139.37
537.41	1138.90
537.76	1133.05
538.12	1135.86
538.47	1136.80
538.83	1128.84
539.18	1124.63
539.54	1134.22
539.89	1126.03
540.25	1124.86
540.60	1126.03
540.96	1124.63
541.31	1109.88
541.67	1117.61
542.02	1119.71
542.38	1126.27
542.73	1125.80
543.09	1134.93
543.44	1116.44
543.80	1102.86
544.15	1097.24
544.51	1102.16
544.86	1098.65
545.22	1108.24
545.57	1117.37
545.93	1124.86
546.28	1121.58
546.64	1122.99
546.99	1133.76
547.35	1139.61
547.70	1135.39
548.05	1129.31
548.41	1142.42
548.76	1133.29
549.12	1132.82
549.47	1123.22
549.83	1128.14
550.18	1118.78
550.53	1113.16
550.89	1109.88
551.24	1124.86
551.60	1119.01
551.95	1113.39
552.30	1112.69
552.66	1114.33
553.01	1102.86
553.37	1102.39
553.72	1108.01
554.07	1115.73
554.43	1110.35
554.78	1118.31
555.13	1121.58
555.49	1117.14
555.84	1108.24
556.19	1110.58
556.55	1110.58
556.90	1116.67
557.26	1116.44
557.61	1128.61
557.96	1130.71
558.32	1140.07
558.67	1134.22
559.02	1137.97
559.37	1130.95
559.73	1125.33
560.08	1116.44
560.43	1123.46
560.79	1125.33
561.14	1124.16
561.49	1123.46
561.85	1111.99
562.20	1105.67
562.55	1094.90
562.90	1105.67
563.26	1118.07
563.61	1129.78
563.96	1131.65
564.32	1141.01
564.67	1138.90
565.02	1128.61
565.37	1124.16
565.73	1124.63
566.08	1121.12
566.43	1115.50
566.78	1111.29
567.14	1112.22
567.49	1111.52
567.84	1109.18
568.19	1112.92
568.54	1111.29
568.90	1103.56
569.25	1109.65
569.60	1114.80
569.95	1115.50
570.31	1116.90
570.66	1125.80
571.01	1120.41
571.36	1111.29
571.71	1108.95
572.06	1108.48
572.42	1095.84
572.77	1086.01
573.12	1089.52
573.47	1090.69
573.82	1086.94
574.18	1103.33
574.53	1109.88
574.88	1107.31
575.23	1107.07
575.58	1115.73
575.93	1108.24
576.28	1110.35
576.64	1123.46
576.99	1111.99
577.34	1105.90
577.69	1103.56
578.04	1091.39
578.39	1078.52
578.74	1085.31
579.09	1092.33
579.44	1093.73
579.80	1108.95
580.15	1116.90
580.50	1108.95
580.85	1102.63
581.20	1100.99
581.55	1100.99
581.90	1099.58
582.25	1106.14
582.60	1110.82
582.95	1118.78
583.30	1120.65
583.65	1119.95
584.00	1130.01
584.35	1125.80
584.71	1117.14
585.06	1106.84
585.41	1103.09
585.76	1097.24
586.11	1103.56
586.46	1107.54
586.81	1105.90
587.16	1110.12
587.51	1112.46
587.86	1115.03
588.21	1115.50
588.56	1111.99
588.91	1110.12
589.26	1105.20
589.61	1102.63
589.96	1093.97
590.31	1109.18
590.66	1107.78
591.01	1104.26
591.36	1097.71
591.71	1104.73
592.06	1108.95
592.41	1104.03
592.76	1108.71
593.10	1113.16
593.45	1111.05
593.80	1108.01
594.15	1107.78
594.50	1102.86
594.85	1095.84
595.20	1097.71
595.55	1083.90
595.90	1090.22
596.25	1092.80
596.60	1102.16
596.95	1109.41
597.30	1107.78
597.64	1160.67
597.99	1157.86
598.34	1150.84
598.69	1141.95
599.04	1141.95
599.39	1094.90
599.74	1101.22
600.09	1102.39
600.44	1105.90
600.78	1115.97
601.13	1108.24
601.48	1109.18
601.83	1121.35
602.18	1119.95
602.53	1116.20
602.88	1118.07
603.22	1116.67
603.57	1111.52
603.92	1110.35
604.27	1108.95
604.62	1108.48
604.97	1104.97
605.31	1089.99
605.66	1081.80
606.01	1080.63
606.36	1074.31
606.71	1073.84
607.05	1082.97
607.40	1096.54
607.75	1104.97
608.10	1109.88
608.44	1110.82
608.79	1114.33
609.14	1110.82
609.49	1098.65
609.84	1093.03
610.18	1096.07
610.53	1096.31
610.88	1090.46
611.23	1095.84
611.57	1106.37
611.92	1103.33
612.27	1104.73
612.62	1099.35
612.96	1093.97
613.31	1088.35
613.66	1090.69
614.00	1081.09
614.35	1090.22
614.70	1101.22
615.05	1103.80
615.39	1104.03
615.74	1113.16
616.09	1108.71
616.43	1095.60
616.78	1097.48
617.13	1095.14
617.47	1087.41
617.82	1088.82
618.17	1096.54
618.51	1085.31
618.86	1086.71
619.21	1088.82
619.55	1093.73
619.90	1093.03
620.25	1104.03
620.59	1105.20
620.94	1107.31
621.29	1107.31
621.63	1111.29
621.98	1100.99
622.32	1100.29
622.67	1094.20
623.02	1091.39
623.36	1090.92
623.71	1100.52
624.05	1104.03
624.40	1102.63
624.75	1097.95
625.09	1083.90
625.44	1088.82
625.78	1082.50
626.13	1091.63
626.48	1094.67
626.82	1105.44
627.17	1098.41
627.51	1106.14
627.86	1100.29
628.20	1103.56
628.55	1103.56
628.89	1098.65
629.24	1089.75
629.58	1082.97
629.93	1079.69
630.28	1082.50
630.62	1082.03
630.97	1086.24
631.31	1103.80
631.66	1100.05
632.00	1102.39
632.35	1106.37
632.69	1102.39
633.04	1093.73
633.38	1107.54
633.73	1090.69
634.07	1097.48
634.42	1087.65
634.76	1084.37
635.11	1069.62
635.45	1078.05
635.79	1067.52
636.14	1080.86
636.48	1087.18
636.83	1099.35
637.17	1100.29
637.52	1102.63
637.86	1101.69
638.21	1092.09
638.55	1093.50
638.89	1097.24
639.24	1095.14
639.58	1089.99
639.93	1093.50
640.27	1084.37
640.61	1082.03
640.96	1082.26
641.30	1088.35
641.65	1089.52
641.99	1096.54
642.33	1093.03
642.68	1087.88
643.02	1082.50
643.37	1086.24
643.71	1075.94
644.05	1077.35
644.40	1086.24
644.74	1088.12
645.08	1085.77
645.43	1097.24
645.77	1096.78
646.11	1093.97
646.46	1096.07
646.80	1108.48
647.14	1100.52
647.49	1103.33
647.83	1111.99
648.17	1114.56
648.52	1095.37
648.86	1099.58
649.20	1097.01
649.55	1091.86
649.89	1089.52
650.23	1098.65
650.57	1094.20
650.92	1097.48
651.26	1086.71
651.60	1078.05
651.95	1076.41
652.29	1076.65
652.63	1085.77
652.97	1094.90
653.32	1108.71
653.66	1098.65
654.00	1103.80
654.34	1100.52
654.69	1099.58
655.03	1084.84
655.37	1090.46
655.71	1083.67
656.05	1078.28
656.40	1078.52
656.74	1087.41
657.08	1089.05
657.42	1094.20
657.76	1088.82
658.11	1091.63
658.45	1081.09
658.79	1089.75
659.13	1093.97
659.47	1096.07
659.82	1101.69
660.16	1114.80
660.50	1116.90
660.84	1108.71
661.18	1106.84
661.52	1092.33
661.87	1089.99
662.21	1071.26
662.55	1070.09
662.89	1070.09
663.23	1076.88
663.57	1072.67
663.91	1085.54
664.25	1091.86
664.60	1098.18
664.94	1089.29
665.28	1086.24
665.62	1083.90
665.96	1075.24
666.30	1067.75
666.64	1075.71
666.98	1079.46
667.32	1080.86
667.66	1085.07
668.01	1084.37
668.35	1096.07
668.69	1098.88
669.03	1090.92
669.37	1091.39
669.71	1095.60
670.05	1085.31
670.39	1081.56
670.73	1082.97
671.07	1083.43
671.41	1087.41
671.75	1085.77
672.09	1084.60
672.43	1083.67
672.77	1079.69
673.11	1077.58
673.45	1079.92
673.79	1084.84
674.13	1090.69
674.47	1091.39
674.81	1094.90
675.15	1099.82
675.49	1088.35
675.83	1092.80
676.17	1106.14
676.51	1103.56
676.85	1098.41
677.19	1105.44
677.53	1094.20
677.87	1084.60
678.21	1092.33
678.55	1100.52
678.89	1115.50
679.23	1129.07
679.57	1128.61
679.90	1111.05
680.24	1102.16
680.58	1094.67
680.92	1085.77
681.26	1081.80
681.60	1091.63
681.94	1086.24
682.28	1078.75
682.62	1076.65
682.96	1078.28
683.29	1071.73
683.63	1072.43
683.97	1071.50
684.31	1066.35
684.65	1066.82
684.99	1069.39
685.33	1072.90
685.67	1080.86
686.00	1095.60
686.34	1101.46
686.68	1104.73
687.02	1104.26
687.36	1106.14
687.70	1097.95
688.03	1093.73
688.37	1082.97
688.71	1089.99
689.05	1084.84
689.39	1070.56
689.72	1068.92
690.06	1071.97
690.40	1065.88
690.74	1055.11
691.08	1068.22
691.41	1066.58
691.75	1070.80
692.09	1071.03
692.43	1091.63
692.76	1092.33
693.10	1095.14
693.44	1104.73
693.78	1102.86
694.11	1094.20
694.45	1090.69
694.79	1090.46
695.13	1086.24
695.46	1094.43
695.80	1094.43
696.14	1103.09
696.48	1104.97
696.81	1097.95
697.15	1094.67
697.49	1095.84
697.82	1092.80
698.16	1095.84
698.50	1100.29
698.83	1098.41
699.17	1088.58
699.51	1092.56
699.84	1089.29
700.18	1096.54
700.52	1100.29
700.85	1113.86
701.19	1105.67
701.53	1103.56
701.86	1095.37
702.20	1087.41
702.54	1081.80
702.87	1086.48
703.21	1090.46
703.55	1088.82
703.88	1093.26
704.22	1083.43
704.55	1072.20
704.89	1058.86
705.23	1066.82
705.56	1063.07
705.90	1074.54
706.23	1080.39
706.57	1091.63
706.91	1085.31
707.24	1081.56
707.58	1076.18
707.91	1072.67
708.25	1068.69
708.58	1069.16
708.92	1073.14
709.26	1075.71
709.59	1076.65
709.93	1086.24
710.26	1090.46
710.60	1083.20
710.93	1079.22
711.27	1086.24
711.60	1080.63
711.94	1075.94
712.27	1080.86
712.61	1079.46
712.94	1078.05
713.28	1078.75
713.61	1077.35
713.95	1082.03
714.28	1085.31
714.62	1087.65
714.95	1083.43
715.29	1080.86
715.62	1079.92
715.96	1076.41
716.29	1068.92
716.63	1075.01
716.96	1085.07
717.29	1081.80
717.63	1083.20
717.96	1086.48
718.30	1073.14
718.63	1064.01
718.97	1073.60
719.30	1078.52
719.63	1079.92
719.97	1090.69
720.30	1089.99
720.64	1086.71
720.97	1088.82
721.30	1091.63
721.64	1082.73
721.97	1088.82
722.31	1092.09
722.64	1082.97
722.97	1087.18
723.31	1102.39
723.64	1096.54
723.97	1091.63
724.31	1098.88
724.64	1101.46
724.98	1086.94
725.31	1089.75
725.64	1094.20
725.98	1092.09
726.31	1090.92
726.64	1092.56
726.97	1096.07
727.31	1087.88
727.64	1089.29
727.97	1086.01
728.31	1090.92
728.64	1079.69
728.97	1081.56
729.31	1083.90
729.64	1079.69
729.97	1081.33
730.30	1091.39
730.64	1104.50
730.97	1095.60
731.30	1105.20
731.63	1101.69
731.97	1109.18
732.30	1099.35
732.63	1100.52
732.96	1099.35
733.30	1096.31
733.63	1082.50
733.96	1079.22
734.29	1086.24
734.63	1065.88
734.96	1062.37
735.29	1063.07
735.62	1068.45
735.95	1077.82
736.29	1083.67
736.62	1086.94
736.95	1094.67
737.28	1092.33
737.61	1077.82
737.94	1081.56
738.28	1086.01
738.61	1080.86
738.94	1085.07
739.27	1090.46
739.60	1096.54
739.93	1095.60
740.27	1093.97
740.60	1080.86
740.93	1073.84
741.26	1061.67
741.59	1062.37
741.92	1060.50
742.25	1074.31
742.58	1076.41
742.91	1082.03
743.25	1083.90
743.58	1085.07
743.91	1076.65
744.24	1075.24
744.57	1076.18
744.90	1084.14
745.23	1089.05
745.56	1086.01
745.89	1078.05
746.22	1076.41
746.55	1064.01
746.88	1060.03
747.21	1064.24
747.54	1078.05
747.87	1079.69
748.20	1087.65
748.53	1090.92
748.87	1093.73
749.20	1096.78
749.53	1098.65
749.86	1086.01
750.19	1079.46
750.52	1067.75
750.85	1062.14
751.18	1064.01
751.51	1070.56
751.84	1071.26
752.16	1075.24
752.49	1077.58
752.82	1073.37
753.15	1073.14
753.48	1071.50
753.81	1081.80
754.14	1078.05
754.47	1073.60
754.80	1081.56
755.13	1093.03
755.46	1107.07
755.79	1110.58
756.12	1121.35
756.45	1113.86
756.78	1102.39
757.11	1089.75
757.43	1091.16
757.76	1081.56
758.09	1082.73
758.42	1091.63
758.75	1087.18
759.08	1078.99
759.41	1085.54
759.74	1091.16
760.07	1090.46
760.39	1087.88
760.72	1099.35
761.05	1095.14
761.38	1085.54
761.71	1081.80
762.04	1081.09
762.36	1074.54
762.69	1086.94
763.02	1093.97
763.35	1094.67
763.68	1100.99
764.01	1107.78
