SpectraSuite Data File
++++++++++++++++++++++++++++++++++++
Date: Mon Aug 26 10:24:43 PDT 2019
User: corrico
Dark Spectrum Present: No
Reference Spectrum Present: No
Number of Sampled Component Spectra: 1
Spectrometers: USB2+H06089
Integration Time (usec): 10000 (USB2+H06089)
Spectra Averaged: 2 (USB2+H06089)
Boxcar Smoothing: 2 (USB2+H06089)
Correct for Electrical Dark: No (USB2+H06089)
Strobe/Lamp Enabled: No (USB2+H06089)
Correct for Detector Non-linearity: No (USB2+H06089)
Correct for Stray Light: No (USB2+H06089)
Number of Pixels in Processed Spectrum: 2048
>>>>>Begin Processed Spectral Data<<<<<
339.70	1004.09
340.07	1004.09
340.45	985.83
340.82	972.02
341.19	958.45
341.57	941.36
341.94	933.17
342.31	915.85
342.69	913.28
343.06	913.04
343.43	908.83
343.81	915.15
344.18	928.49
344.55	925.21
344.93	927.32
345.30	939.02
345.67	932.94
346.04	931.07
346.42	950.96
346.79	953.53
347.16	964.07
347.54	980.68
347.91	993.79
348.28	991.22
348.65	1005.03
349.03	1000.11
349.40	1009.94
349.77	1009.94
350.14	1013.69
350.52	1017.90
350.89	1035.45
351.26	1045.05
351.63	1052.07
352.01	1066.82
352.38	1072.43
352.75	1075.24
353.12	1070.80
353.50	1079.92
353.87	1078.05
354.24	1082.73
354.61	1072.20
354.98	1082.97
355.36	1083.20
355.73	1085.77
356.10	1084.60
356.47	1089.29
356.84	1086.48
357.22	1086.24
357.59	1091.86
357.96	1092.80
358.33	1100.75
358.70	1090.22
359.08	1094.20
359.45	1092.33
359.82	1095.14
360.19	1092.56
360.56	1097.71
360.94	1101.46
361.31	1107.31
361.68	1101.69
362.05	1100.52
362.42	1103.33
362.79	1091.63
363.16	1088.12
363.54	1085.77
363.91	1087.41
364.28	1090.92
364.65	1103.33
365.02	1108.95
365.39	1119.01
365.76	1120.41
366.14	1120.88
366.51	1105.44
366.88	1101.92
367.25	1083.67
367.62	1075.24
367.99	1071.97
368.36	1068.92
368.73	1054.18
369.10	1068.22
369.48	1076.65
369.85	1080.16
370.22	1095.60
370.59	1090.92
370.96	1090.46
371.33	1094.90
371.70	1085.07
372.07	1083.20
372.44	1091.16
372.81	1091.16
373.18	1089.99
373.55	1097.24
373.93	1099.35
374.30	1103.09
374.67	1110.12
375.04	1105.90
375.41	1106.84
375.78	1105.90
376.15	1111.99
376.52	1104.73
376.89	1111.52
377.26	1112.69
377.63	1104.03
378.00	1102.39
378.37	1102.63
378.74	1098.65
379.11	1100.52
379.48	1100.52
379.85	1098.65
380.22	1101.69
380.59	1104.26
380.96	1107.54
381.33	1108.71
381.70	1116.67
382.07	1119.95
382.44	1115.97
382.81	1101.46
383.18	1108.95
383.55	1111.05
383.92	1099.58
384.29	1101.92
384.66	1109.65
385.03	1105.90
385.40	1110.58
385.77	1119.48
386.14	1115.27
386.51	1121.35
386.88	1122.52
387.25	1114.10
387.62	1109.41
387.99	1119.71
388.36	1115.50
388.73	1121.82
389.10	1115.73
389.46	1122.99
389.83	1125.33
390.20	1126.27
390.57	1125.33
390.94	1128.37
391.31	1127.67
391.68	1124.63
392.05	1127.90
392.42	1134.69
392.79	1130.01
393.16	1128.14
393.53	1122.75
393.89	1125.56
394.26	1126.27
394.63	1129.07
395.00	1137.97
395.37	1144.52
395.74	1137.03
396.11	1131.41
396.48	1139.84
396.84	1138.90
397.21	1138.67
397.58	1146.16
397.95	1157.39
398.32	1159.50
398.69	1160.20
399.06	1152.25
399.42	1161.14
399.79	1160.91
400.16	1168.86
400.53	1177.29
400.90	1199.99
401.27	1208.42
401.64	1218.48
402.00	1225.04
402.37	1235.10
402.74	1242.36
403.11	1251.72
403.48	1269.74
403.84	1277.70
404.21	1280.27
404.58	1286.59
404.95	1303.91
405.32	1303.91
405.68	1328.02
406.05	1353.30
406.42	1381.85
406.79	1415.79
407.16	1453.24
407.52	1475.01
407.89	1508.94
408.26	1549.43
408.63	1569.56
408.99	1610.52
409.36	1651.95
409.73	1689.40
410.10	1733.17
410.47	1789.34
410.83	1842.00
411.20	1907.30
411.57	1985.24
411.94	2048.90
412.30	2125.67
412.67	2214.15
413.04	2320.41
413.40	2426.20
413.77	2549.55
414.14	2653.70
414.51	2744.98
414.87	2856.86
415.24	2983.48
415.61	3101.44
415.97	3248.66
416.34	3437.54
416.71	3620.34
417.08	3811.33
417.44	4019.87
417.81	4269.84
418.18	4511.15
418.54	4759.25
418.91	5038.24
419.28	5358.42
419.64	5642.10
420.01	5966.73
420.38	6320.62
420.74	6682.46
421.11	7063.27
421.48	7481.52
421.84	7915.93
422.21	8326.69
422.58	8770.69
422.94	9247.46
423.31	9738.27
423.68	10292.97
424.04	10942.00
424.41	11581.67
424.77	12203.32
425.14	12894.25
425.51	13540.70
425.87	14248.48
426.24	15000.26
426.61	15868.36
426.97	16839.45
427.34	17788.77
427.70	18813.69
428.07	19792.97
428.44	20771.55
428.80	21733.75
429.17	22842.46
429.53	23914.42
429.90	25241.74
430.27	26457.42
430.63	27660.92
431.00	28972.09
431.36	30368.68
431.73	31461.48
432.09	32728.18
432.46	33966.56
432.83	35228.57
433.19	36404.22
433.56	37921.83
433.92	39458.39
434.29	40883.31
434.65	42259.54
435.02	43544.96
435.38	44686.91
435.75	45585.21
436.11	46838.80
436.48	47863.96
436.84	48826.38
437.21	49783.19
437.57	50735.09
437.94	51416.19
438.30	52001.79
438.67	52442.98
439.03	52695.06
439.40	52873.17
439.76	52716.82
440.13	52511.09
440.49	52475.28
440.86	52080.66
441.22	51735.90
441.59	51318.35
441.95	50846.27
442.32	49952.88
442.68	49236.21
443.05	48261.61
443.41	47259.86
443.78	46118.85
444.14	45161.34
444.51	43873.11
444.87	42875.57
445.24	41694.07
445.60	40592.14
445.96	39374.60
446.33	38559.39
446.69	37370.16
447.06	36434.89
447.42	35414.88
447.79	34326.53
448.15	33268.14
448.51	32313.44
448.88	31501.04
449.24	30561.78
449.61	29893.56
449.97	29142.71
450.33	28429.32
450.70	27484.21
451.06	26861.16
451.43	26095.33
451.79	25559.59
452.15	25014.48
452.52	24498.86
452.88	23910.21
453.24	23381.95
453.61	22646.79
453.97	21977.16
454.34	21366.75
454.70	20794.26
455.06	20204.91
455.43	19549.32
455.79	18794.03
456.15	18142.66
456.52	17435.35
456.88	16863.56
457.24	16304.41
457.61	15861.11
457.97	15403.53
458.33	14907.11
458.70	14343.04
459.06	13791.37
459.42	13322.56
459.79	12792.90
460.15	12394.07
460.51	11942.82
460.88	11562.71
461.24	11129.48
461.60	10806.49
461.96	10443.94
462.33	10106.20
462.69	9781.10
463.05	9473.08
463.42	9188.48
463.78	8894.97
464.14	8642.90
464.50	8424.06
464.87	8176.66
465.23	7894.86
465.59	7668.77
465.95	7473.33
466.32	7241.38
466.68	7053.20
467.04	6849.58
467.40	6674.04
467.77	6487.96
468.13	6289.49
468.49	6118.63
468.85	5990.84
469.22	5860.00
469.58	5704.12
469.94	5606.05
470.30	5489.73
470.66	5373.17
471.03	5256.84
471.39	5180.07
471.75	5063.75
472.11	4968.72
472.47	4880.72
472.84	4791.08
473.20	4691.84
473.56	4600.56
473.92	4479.32
474.28	4389.44
474.65	4283.65
475.01	4191.20
475.37	4111.85
475.73	4064.57
476.09	3988.74
476.45	3914.08
476.81	3839.65
477.18	3753.05
477.54	3659.66
477.90	3564.87
478.26	3481.55
478.62	3410.63
478.98	3370.14
479.34	3319.35
479.71	3272.77
480.07	3238.60
480.43	3187.81
480.79	3121.81
481.15	3069.85
481.51	3023.97
481.87	2969.44
482.23	2911.63
482.59	2864.82
482.96	2811.22
483.32	2763.24
483.68	2716.66
484.04	2687.87
484.40	2648.32
484.76	2611.10
485.12	2576.93
485.48	2551.89
485.84	2506.95
486.20	2475.35
486.56	2454.05
486.92	2414.73
487.28	2376.58
487.64	2354.34
488.00	2323.68
488.37	2297.94
488.73	2258.62
489.09	2236.15
489.45	2199.17
489.81	2165.46
490.17	2115.14
490.53	2107.42
490.89	2069.50
491.25	2049.61
491.61	2029.48
491.97	2012.16
492.33	1978.69
492.69	1957.16
493.05	1926.73
493.41	1890.22
493.77	1854.41
494.13	1834.51
494.49	1808.30
494.85	1797.53
495.21	1786.30
495.57	1777.64
495.93	1748.15
496.29	1724.51
496.64	1693.38
497.00	1659.21
497.36	1642.59
497.72	1628.54
498.08	1611.46
498.44	1599.52
498.80	1603.97
499.16	1591.80
499.52	1576.82
499.88	1571.67
500.24	1555.99
500.60	1541.48
500.96	1518.07
501.32	1507.77
501.68	1485.77
502.03	1470.79
502.39	1453.47
502.75	1452.54
503.11	1449.49
503.47	1451.60
503.83	1442.94
504.19	1432.41
504.55	1407.83
504.91	1393.32
505.26	1379.98
505.62	1379.04
505.98	1367.34
506.34	1375.77
506.70	1375.06
507.06	1363.36
507.42	1348.38
507.78	1350.26
508.13	1340.89
508.49	1322.64
508.85	1327.08
509.21	1326.15
509.57	1321.47
509.93	1308.59
510.28	1310.93
510.64	1299.00
511.00	1284.49
511.36	1266.70
511.72	1268.80
512.07	1262.48
512.43	1259.91
512.79	1275.83
513.15	1293.15
513.51	1282.38
513.86	1276.29
514.22	1255.93
514.58	1240.48
514.94	1218.48
515.30	1219.89
515.65	1223.63
516.01	1233.46
516.37	1231.82
516.73	1239.78
517.08	1227.85
517.44	1212.63
517.80	1213.80
518.16	1213.80
518.51	1213.33
518.87	1211.93
519.23	1219.89
519.59	1218.01
519.94	1218.72
520.30	1218.25
520.66	1225.97
521.01	1213.33
521.37	1214.50
521.73	1224.80
522.09	1216.84
522.44	1213.33
522.80	1212.40
523.16	1198.35
523.51	1172.14
523.87	1156.93
524.23	1149.67
524.58	1157.86
524.94	1156.69
525.30	1161.14
525.65	1163.71
526.01	1171.20
526.37	1171.67
526.72	1176.12
527.08	1170.74
527.44	1168.16
527.79	1165.59
528.15	1160.44
528.51	1165.82
528.86	1170.74
529.22	1183.61
529.58	1172.84
529.93	1173.08
530.29	1172.61
530.65	1164.42
531.00	1142.65
531.36	1141.95
531.71	1139.84
532.07	1129.31
532.43	1128.61
532.78	1140.07
533.14	1140.07
533.49	1129.07
533.85	1127.67
534.21	1129.54
534.56	1126.73
534.92	1141.48
535.27	1142.42
535.63	1152.25
535.98	1159.74
536.34	1154.59
536.69	1147.33
537.05	1146.39
537.41	1139.37
537.76	1127.20
538.12	1133.52
538.47	1132.12
538.83	1141.95
539.18	1148.03
539.54	1155.05
539.89	1158.33
540.25	1159.27
540.60	1162.78
540.96	1157.86
541.31	1148.50
541.67	1144.52
542.02	1133.52
542.38	1129.54
542.73	1121.12
543.09	1138.20
543.44	1138.20
543.80	1144.05
544.15	1141.95
544.51	1139.84
544.86	1130.95
545.22	1131.18
545.57	1131.41
545.93	1131.18
546.28	1151.54
546.64	1149.44
546.99	1149.67
547.35	1144.29
547.70	1148.97
548.05	1131.88
548.41	1125.80
548.76	1127.44
549.12	1126.03
549.47	1112.69
549.83	1117.84
550.18	1123.93
550.53	1120.18
550.89	1130.71
551.24	1140.31
551.60	1132.35
551.95	1133.29
552.30	1126.97
552.66	1118.54
553.01	1114.33
553.37	1114.80
553.72	1112.22
554.07	1124.16
554.43	1127.44
554.78	1139.37
555.13	1145.46
555.49	1139.37
555.84	1130.24
556.19	1124.63
556.55	1106.61
556.90	1104.50
557.26	1107.78
557.61	1110.58
557.96	1111.75
558.32	1111.05
558.67	1111.05
559.02	1111.52
559.37	1104.26
559.73	1108.71
560.08	1116.44
560.43	1116.67
560.79	1111.29
561.14	1118.54
561.49	1118.54
561.85	1117.37
562.20	1115.50
562.55	1120.41
562.90	1111.75
563.26	1105.67
563.61	1099.58
563.96	1095.60
564.32	1098.88
564.67	1105.90
565.02	1105.44
565.37	1099.35
565.73	1115.27
566.08	1126.73
566.43	1126.50
566.78	1126.73
567.14	1137.50
567.49	1125.33
567.84	1102.86
568.19	1102.16
568.54	1112.69
568.90	1109.18
569.25	1110.35
569.60	1113.86
569.95	1107.78
570.31	1108.24
570.66	1115.97
571.01	1112.69
571.36	1116.67
571.71	1115.03
572.06	1115.03
572.42	1106.14
572.77	1109.88
573.12	1106.61
573.47	1114.33
573.82	1106.14
574.18	1112.92
574.53	1107.54
574.88	1111.29
575.23	1111.99
575.58	1112.22
575.93	1107.31
576.28	1110.82
576.64	1108.24
576.99	1104.03
577.34	1097.95
577.69	1096.07
578.04	1096.07
578.39	1091.63
578.74	1091.39
579.09	1097.24
579.44	1099.35
579.80	1102.39
580.15	1111.52
580.50	1114.10
580.85	1114.56
581.20	1110.12
581.55	1104.97
581.90	1100.29
582.25	1094.43
582.60	1095.14
582.95	1103.09
583.30	1104.50
583.65	1101.22
584.00	1105.67
584.35	1105.90
584.71	1104.97
585.06	1105.20
585.41	1115.97
585.76	1121.58
586.11	1130.01
586.46	1133.99
586.81	1128.84
587.16	1129.07
587.51	1130.95
587.86	1131.41
588.21	1129.07
588.56	1136.80
588.91	1131.41
589.26	1118.78
589.61	1105.44
589.96	1098.18
590.31	1090.69
590.66	1085.54
591.01	1095.84
591.36	1096.31
591.71	1100.29
592.06	1105.44
592.41	1109.88
592.76	1109.65
593.10	1115.97
593.45	1110.12
593.80	1107.07
594.15	1107.31
594.50	1103.80
594.85	1093.26
595.20	1090.22
595.55	1094.43
595.90	1098.41
596.25	1093.97
596.60	1108.24
596.95	1112.22
597.30	1113.39
597.64	1146.86
597.99	1152.25
598.34	1152.01
598.69	1152.25
599.04	1147.10
599.39	1102.16
599.74	1104.26
600.09	1097.24
600.44	1107.78
600.78	1106.14
601.13	1108.01
601.48	1111.99
601.83	1110.58
602.18	1103.09
602.53	1108.95
602.88	1113.39
603.22	1118.07
603.57	1116.20
603.92	1111.29
604.27	1110.82
604.62	1100.52
604.97	1086.24
605.31	1088.82
605.66	1083.90
606.01	1080.16
606.36	1076.88
606.71	1076.88
607.05	1075.01
607.40	1087.41
607.75	1086.01
608.10	1097.71
608.44	1103.33
608.79	1104.50
609.14	1097.48
609.49	1098.41
609.84	1099.58
610.18	1104.73
610.53	1107.07
610.88	1111.75
611.23	1114.33
611.57	1117.61
611.92	1118.07
612.27	1115.03
612.62	1113.86
612.96	1114.33
613.31	1115.50
613.66	1108.48
614.00	1105.67
614.35	1102.39
614.70	1099.35
615.05	1099.35
615.39	1092.56
615.74	1093.50
616.09	1097.95
616.43	1108.71
616.78	1107.54
617.13	1113.16
617.47	1122.05
617.82	1132.82
618.17	1125.56
618.51	1128.14
618.86	1125.10
619.21	1115.50
619.55	1115.27
619.90	1108.71
620.25	1102.63
620.59	1109.41
620.94	1112.46
621.29	1098.88
621.63	1108.24
621.98	1104.73
622.32	1098.65
622.67	1088.35
623.02	1086.71
623.36	1079.92
623.71	1073.84
624.05	1078.05
624.40	1090.69
624.75	1086.48
625.09	1087.41
625.44	1088.12
625.78	1085.54
626.13	1081.56
626.48	1095.60
626.82	1090.22
627.17	1097.71
627.51	1097.71
627.86	1089.05
628.20	1086.24
628.55	1088.35
628.89	1088.35
629.24	1088.35
629.58	1102.86
629.93	1096.31
630.28	1097.71
630.62	1093.97
630.97	1088.58
631.31	1082.03
631.66	1085.07
632.00	1078.52
632.35	1075.48
632.69	1082.73
633.04	1092.80
633.38	1091.86
633.73	1102.86
634.07	1105.44
634.42	1107.07
634.76	1103.33
635.11	1086.71
635.45	1084.60
635.79	1076.88
636.14	1071.03
636.48	1059.56
636.83	1082.26
637.17	1089.52
637.52	1106.61
637.86	1111.99
638.21	1118.31
638.55	1113.63
638.89	1105.67
639.24	1099.58
639.58	1096.31
639.93	1094.90
640.27	1091.39
640.61	1093.73
640.96	1089.99
641.30	1078.28
641.65	1078.28
641.99	1079.46
642.33	1072.43
642.68	1085.54
643.02	1092.56
643.37	1100.05
643.71	1108.48
644.05	1100.75
644.40	1092.80
644.74	1097.95
645.08	1093.50
645.43	1086.94
645.77	1096.78
646.11	1091.39
646.46	1089.05
646.80	1083.90
647.14	1086.71
647.49	1088.82
647.83	1091.39
648.17	1090.69
648.52	1093.97
648.86	1089.99
649.20	1086.71
649.55	1085.54
649.89	1083.67
650.23	1072.67
650.57	1066.11
650.92	1066.11
651.26	1061.67
651.60	1065.41
651.95	1070.09
652.29	1078.28
652.63	1086.01
652.97	1088.12
653.32	1086.48
653.66	1096.31
654.00	1095.84
654.34	1082.50
654.69	1087.88
655.03	1092.56
655.37	1081.33
655.71	1074.54
656.05	1080.63
656.40	1078.28
656.74	1075.48
657.08	1071.73
657.42	1076.88
657.76	1084.37
658.11	1082.50
658.45	1089.75
658.79	1096.07
659.13	1088.12
659.47	1085.31
659.82	1096.07
660.16	1084.14
660.50	1079.22
660.84	1082.50
661.18	1086.71
661.52	1075.01
661.87	1082.03
662.21	1091.63
662.55	1106.14
662.89	1093.26
663.23	1099.35
663.57	1097.48
663.91	1101.22
664.25	1091.63
664.60	1091.39
664.94	1085.31
665.28	1084.60
665.62	1081.80
665.96	1090.92
666.30	1093.50
666.64	1099.58
666.98	1102.86
667.32	1103.33
667.66	1089.75
668.01	1094.67
668.35	1089.75
668.69	1087.88
669.03	1081.56
669.37	1087.18
669.71	1082.50
670.05	1083.90
670.39	1073.84
670.73	1082.97
671.07	1088.35
671.41	1100.75
671.75	1106.61
672.09	1122.52
672.43	1130.01
672.77	1122.99
673.11	1108.48
673.45	1101.69
673.79	1097.24
674.13	1085.77
674.47	1084.84
674.81	1088.82
675.15	1087.65
675.49	1093.26
675.83	1083.67
676.17	1080.16
676.51	1087.41
676.85	1094.90
677.19	1083.90
677.53	1092.80
677.87	1100.75
678.21	1091.16
678.55	1086.71
678.89	1093.73
679.23	1097.48
679.57	1091.86
679.90	1090.69
680.24	1082.97
680.58	1078.05
680.92	1081.80
681.26	1089.52
681.60	1082.73
681.94	1090.22
682.28	1090.69
682.62	1092.33
682.96	1074.77
683.29	1085.31
683.63	1088.58
683.97	1083.43
684.31	1072.90
684.65	1085.54
684.99	1092.56
685.33	1088.58
685.67	1092.09
686.00	1093.26
686.34	1094.20
686.68	1093.97
687.02	1089.52
687.36	1086.01
687.70	1093.03
688.03	1085.54
688.37	1077.82
688.71	1092.80
689.05	1103.09
689.39	1098.41
689.72	1109.18
690.06	1110.58
690.40	1098.41
690.74	1083.67
691.08	1090.92
691.41	1083.90
691.75	1083.90
692.09	1085.77
692.43	1095.60
692.76	1087.88
693.10	1080.86
693.44	1078.99
693.78	1078.05
694.11	1069.86
694.45	1062.60
694.79	1071.03
695.13	1074.77
695.46	1078.52
695.80	1077.82
696.14	1074.77
696.48	1073.14
696.81	1072.43
697.15	1067.75
697.49	1076.65
697.82	1086.94
698.16	1094.20
698.50	1091.63
698.83	1096.78
699.17	1095.37
699.51	1095.84
699.84	1085.77
700.18	1096.07
700.52	1090.69
700.85	1092.80
701.19	1092.80
701.53	1101.92
701.86	1090.22
702.20	1090.22
702.54	1084.14
702.87	1081.56
703.21	1073.84
703.55	1075.48
703.88	1078.52
704.22	1077.58
704.55	1076.88
704.89	1081.33
705.23	1081.33
705.56	1087.88
705.90	1099.35
706.23	1094.67
706.57	1097.95
706.91	1097.95
707.24	1092.56
707.58	1082.50
707.91	1089.52
708.25	1079.46
708.58	1081.80
708.92	1078.52
709.26	1079.92
709.59	1075.94
709.93	1081.09
710.26	1070.09
710.60	1070.33
710.93	1074.54
711.27	1076.41
711.60	1076.65
711.94	1098.88
712.27	1094.90
712.61	1090.69
712.94	1087.65
713.28	1089.29
713.61	1075.01
713.95	1081.09
714.28	1089.52
714.62	1089.05
714.95	1084.14
715.29	1088.35
715.62	1086.94
715.96	1074.07
716.29	1070.09
716.63	1076.41
716.96	1074.07
717.29	1078.99
717.63	1082.03
717.96	1093.73
718.30	1093.73
718.63	1094.67
718.97	1083.90
719.30	1074.77
719.63	1075.48
719.97	1073.84
720.30	1071.26
720.64	1075.01
720.97	1080.16
721.30	1071.03
721.64	1064.94
721.97	1057.69
722.31	1052.30
722.64	1058.86
722.97	1065.65
723.31	1075.24
723.64	1085.77
723.97	1102.86
724.31	1095.37
724.64	1088.58
724.98	1079.22
725.31	1074.07
725.64	1072.90
725.98	1083.67
726.31	1082.73
726.64	1083.67
726.97	1094.90
727.31	1085.77
727.64	1085.54
727.97	1092.80
728.31	1092.56
728.64	1080.86
728.97	1075.71
729.31	1073.37
729.64	1071.50
729.97	1073.60
730.30	1073.60
730.64	1083.43
730.97	1085.54
731.30	1090.69
731.63	1094.43
731.97	1101.92
732.30	1107.31
732.63	1105.90
732.96	1103.80
733.30	1101.92
733.63	1106.61
733.96	1108.71
734.29	1105.67
734.63	1100.05
734.96	1105.90
735.29	1091.39
735.62	1071.50
735.95	1071.73
736.29	1071.50
736.62	1072.20
736.95	1069.16
737.28	1078.28
737.61	1081.56
737.94	1085.77
738.28	1073.37
738.61	1083.43
738.94	1078.05
739.27	1082.73
739.60	1069.16
739.93	1075.94
740.27	1080.63
740.60	1084.60
740.93	1075.71
741.26	1080.63
741.59	1074.31
741.92	1068.22
742.25	1063.07
742.58	1062.84
742.91	1059.09
743.25	1063.77
743.58	1068.22
743.91	1075.94
744.24	1074.07
744.57	1078.05
744.90	1085.31
745.23	1089.29
745.56	1084.60
745.89	1095.37
746.22	1100.99
746.55	1094.67
746.88	1084.37
747.21	1093.26
747.54	1084.14
747.87	1091.16
748.20	1092.09
748.53	1098.41
748.87	1086.01
749.20	1090.46
749.53	1079.69
749.86	1075.24
750.19	1074.07
750.52	1078.75
750.85	1074.54
751.18	1072.90
751.51	1076.88
751.84	1073.14
752.16	1079.69
752.49	1084.14
752.82	1088.12
753.15	1087.18
753.48	1089.29
753.81	1084.14
754.14	1081.09
754.47	1080.63
754.80	1078.28
755.13	1075.48
755.46	1069.39
755.79	1069.86
756.12	1069.62
756.45	1075.48
756.78	1077.11
757.11	1089.05
757.43	1082.97
757.76	1087.88
758.09	1081.33
758.42	1083.67
758.75	1082.26
759.08	1084.60
759.41	1084.60
759.74	1085.54
760.07	1080.63
760.39	1073.37
760.72	1081.33
761.05	1088.82
761.38	1095.14
761.71	1088.82
762.04	1093.26
762.36	1091.39
762.69	1081.80
763.02	1078.05
763.35	1088.82
763.68	1088.58
764.01	1086.71
