SpectraSuite Data File
++++++++++++++++++++++++++++++++++++
Date: Mon Aug 26 10:24:40 PDT 2019
User: corrico
Dark Spectrum Present: No
Reference Spectrum Present: No
Number of Sampled Component Spectra: 1
Spectrometers: USB2+H06089
Integration Time (usec): 10000 (USB2+H06089)
Spectra Averaged: 2 (USB2+H06089)
Boxcar Smoothing: 2 (USB2+H06089)
Correct for Electrical Dark: No (USB2+H06089)
Strobe/Lamp Enabled: No (USB2+H06089)
Correct for Detector Non-linearity: No (USB2+H06089)
Correct for Stray Light: No (USB2+H06089)
Number of Pixels in Processed Spectrum: 2048
>>>>>Begin Processed Spectral Data<<<<<
339.70	1053.24
340.07	1053.24
340.45	1013.92
340.82	988.88
341.19	957.51
341.57	919.83
341.94	897.36
342.31	893.38
342.69	886.59
343.06	891.98
343.43	898.30
343.81	903.91
344.18	900.87
344.55	909.30
344.93	909.53
345.30	923.81
345.67	931.07
346.04	939.96
346.42	943.94
346.79	950.02
347.16	950.02
347.54	967.34
347.91	972.73
348.28	980.45
348.65	985.60
349.03	998.71
349.40	1012.75
349.77	1029.60
350.14	1043.18
350.52	1064.71
350.89	1070.09
351.26	1060.96
351.63	1070.33
352.01	1075.48
352.38	1070.33
352.75	1073.60
353.12	1081.09
353.50	1076.65
353.87	1069.16
354.24	1075.01
354.61	1080.16
354.98	1086.94
355.36	1094.20
355.73	1102.16
356.10	1105.90
356.47	1113.86
356.84	1113.63
357.22	1110.35
357.59	1110.58
357.96	1104.03
358.33	1101.46
358.70	1105.90
359.08	1106.37
359.45	1115.27
359.82	1122.29
360.19	1108.48
360.56	1101.92
360.94	1111.29
361.31	1108.95
361.68	1099.58
362.05	1108.48
362.42	1099.82
362.79	1093.26
363.16	1097.01
363.54	1104.50
363.91	1098.18
364.28	1112.22
364.65	1093.73
365.02	1082.03
365.39	1083.67
365.76	1080.63
366.14	1075.94
366.51	1097.95
366.88	1097.48
367.25	1092.09
367.62	1097.95
367.99	1095.14
368.36	1083.43
368.73	1084.37
369.10	1085.07
369.48	1085.77
369.85	1086.48
370.22	1089.05
370.59	1083.90
370.96	1093.97
371.33	1099.82
371.70	1101.69
372.07	1095.84
372.44	1111.05
372.81	1107.31
373.18	1104.03
373.55	1111.52
373.93	1118.78
374.30	1105.90
374.67	1108.01
375.04	1111.75
375.41	1104.50
375.78	1110.12
376.15	1119.71
376.52	1105.20
376.89	1095.60
377.26	1096.31
377.63	1084.84
378.00	1087.41
378.37	1092.09
378.74	1100.29
379.11	1099.82
379.48	1101.92
379.85	1095.37
380.22	1098.41
380.59	1108.01
380.96	1111.29
381.33	1115.97
381.70	1115.50
382.07	1121.58
382.44	1106.37
382.81	1112.22
383.18	1111.99
383.55	1121.58
383.92	1120.18
384.29	1116.90
384.66	1111.75
385.03	1114.10
385.40	1105.20
385.77	1102.16
386.14	1110.35
386.51	1108.01
386.88	1107.31
387.25	1112.22
387.62	1121.58
387.99	1112.92
388.36	1115.03
388.73	1113.86
389.10	1115.73
389.46	1112.92
389.83	1120.41
390.20	1119.48
390.57	1126.73
390.94	1125.10
391.31	1118.31
391.68	1122.75
392.05	1132.12
392.42	1129.54
392.79	1135.16
393.16	1143.59
393.53	1141.48
393.89	1141.25
394.26	1140.31
394.63	1144.76
395.00	1147.10
395.37	1152.01
395.74	1147.80
396.11	1159.97
396.48	1154.59
396.84	1150.84
397.21	1153.88
397.58	1160.91
397.95	1157.86
398.32	1160.44
398.69	1170.27
399.06	1171.20
399.42	1169.10
399.79	1173.08
400.16	1172.84
400.53	1171.91
400.90	1180.80
401.27	1182.20
401.64	1202.57
402.00	1221.53
402.37	1230.19
402.74	1230.65
403.11	1245.40
403.48	1237.21
403.84	1238.14
404.21	1254.06
404.58	1281.91
404.95	1297.12
405.32	1312.57
405.68	1342.30
406.05	1359.15
406.42	1372.49
406.79	1399.17
407.16	1427.49
407.52	1449.96
407.89	1486.01
408.26	1521.82
408.63	1563.24
408.99	1609.12
409.36	1659.44
409.73	1702.97
410.10	1748.85
410.47	1791.45
410.83	1840.13
411.20	1894.43
411.57	1956.69
411.94	2030.88
412.30	2110.93
412.67	2193.78
413.04	2284.60
413.40	2380.56
413.77	2495.01
414.14	2613.44
414.51	2732.34
414.87	2851.94
415.24	2993.78
415.61	3144.98
415.97	3310.45
416.34	3510.34
416.71	3716.77
417.08	3906.59
417.44	4101.32
417.81	4327.18
418.18	4557.26
418.54	4789.20
418.91	5051.11
419.28	5351.40
419.64	5630.63
420.01	5918.51
420.38	6271.00
420.74	6637.99
421.11	7029.10
421.48	7434.71
421.84	7886.20
422.21	8340.97
422.58	8823.35
422.94	9334.76
423.31	9860.44
423.68	10454.24
424.04	11050.84
424.41	11684.66
424.77	12265.11
425.14	12925.61
425.51	13582.60
425.87	14317.53
426.24	15082.65
426.61	15968.54
426.97	17019.21
427.34	18008.78
427.70	19092.69
428.07	20135.16
428.44	21214.85
428.80	22205.13
429.17	23304.01
429.53	24261.29
429.90	25474.62
430.27	26585.44
430.63	27762.97
431.00	29055.88
431.36	30564.82
431.73	31847.20
432.09	33193.71
432.46	34437.94
432.83	35754.26
433.19	36962.21
433.56	38463.90
433.92	40084.01
434.29	41628.77
434.65	43129.52
435.02	44529.86
435.38	45768.71
435.75	46585.32
436.11	47850.85
436.48	48877.64
436.84	49876.35
437.21	50791.97
437.57	51800.97
437.94	52412.32
438.30	52980.37
438.67	53261.70
439.03	53364.45
439.40	53503.01
439.76	53370.07
440.13	53094.35
440.49	53037.24
440.86	52671.88
441.22	52294.12
441.59	51723.26
441.95	51063.23
442.32	50178.98
442.68	49494.37
443.05	48504.79
443.41	47561.32
443.78	46495.21
444.14	45492.06
444.51	44179.95
444.87	43234.38
445.24	42037.43
445.60	40886.58
445.96	39717.25
446.33	38889.87
446.69	37634.18
447.06	36728.15
447.42	35855.37
447.79	34754.61
448.15	33703.71
448.51	32750.18
448.88	31859.14
449.24	30792.56
449.61	30081.27
449.97	29268.87
450.33	28528.79
450.70	27615.98
451.06	27056.59
451.43	26280.47
451.79	25654.38
452.15	25077.44
452.52	24540.99
452.88	23869.95
453.24	23376.33
453.61	22804.54
453.97	22195.07
454.34	21577.87
454.70	21094.78
455.06	20456.52
455.43	19751.08
455.79	18983.38
456.15	18427.74
456.52	17701.00
456.88	17132.96
457.24	16556.25
457.61	16098.20
457.97	15534.37
458.33	15027.41
458.70	14480.43
459.06	13896.70
459.42	13427.19
459.79	12914.84
460.15	12513.44
460.51	12086.06
460.88	11721.17
461.24	11281.62
461.60	10927.26
461.96	10528.20
462.33	10180.16
462.69	9859.04
463.05	9553.36
463.42	9291.22
463.78	9003.81
464.14	8722.94
464.50	8473.68
464.87	8214.58
465.23	7926.46
465.59	7718.15
465.95	7501.18
466.32	7286.79
466.68	7110.08
467.04	6938.28
467.40	6748.00
467.77	6580.42
468.13	6397.39
468.49	6218.57
468.85	6081.88
469.22	5953.15
469.58	5841.27
469.94	5736.89
470.30	5625.95
470.66	5496.75
471.03	5382.06
471.39	5245.14
471.75	5143.56
472.11	5045.73
472.47	4970.13
472.84	4875.10
473.20	4772.12
473.56	4659.77
473.92	4514.43
474.28	4399.74
474.65	4299.56
475.01	4241.52
475.37	4159.13
475.73	4119.81
476.09	4045.38
476.45	3950.82
476.81	3835.90
477.18	3743.45
477.54	3653.58
477.90	3568.38
478.26	3474.06
478.62	3407.12
478.98	3357.50
479.34	3305.77
479.71	3260.13
480.07	3239.54
480.43	3218.00
480.79	3146.15
481.15	3094.19
481.51	3039.65
481.87	2989.10
482.23	2920.29
482.59	2880.50
482.96	2847.96
483.32	2804.20
483.68	2765.11
484.04	2740.77
484.40	2718.06
484.76	2665.17
485.12	2626.32
485.48	2584.19
485.84	2545.80
486.20	2504.84
486.56	2455.46
486.92	2432.52
487.28	2405.37
487.64	2363.94
488.00	2323.68
488.37	2313.85
488.73	2274.30
489.09	2236.15
489.45	2201.74
489.81	2166.63
490.17	2124.74
490.53	2092.67
490.89	2062.71
491.25	2030.88
491.61	2006.54
491.97	1984.31
492.33	1971.43
492.69	1945.22
493.05	1934.22
493.41	1918.77
493.77	1901.22
494.13	1877.34
494.49	1853.70
494.85	1820.23
495.21	1797.53
495.57	1768.98
495.93	1743.23
496.29	1720.76
496.64	1703.91
497.00	1679.80
497.36	1660.14
497.72	1641.42
498.08	1622.93
498.44	1606.08
498.80	1585.01
499.16	1574.01
499.52	1549.20
499.88	1543.35
500.24	1528.14
500.60	1523.45
500.96	1511.99
501.32	1508.01
501.68	1507.30
502.03	1502.86
502.39	1495.84
502.75	1479.22
503.11	1470.09
503.47	1439.43
503.83	1424.92
504.19	1411.11
504.55	1408.30
504.91	1397.30
505.26	1403.15
505.62	1398.00
505.98	1390.98
506.34	1382.32
506.70	1368.28
507.06	1348.38
507.42	1346.98
507.78	1344.40
508.13	1334.81
508.49	1333.17
508.85	1339.49
509.21	1320.06
509.57	1311.87
509.93	1306.49
510.28	1305.55
510.64	1292.21
511.00	1293.38
511.36	1284.95
511.72	1288.00
512.07	1283.32
512.43	1278.17
512.79	1273.25
513.15	1280.27
513.51	1270.91
513.86	1264.12
514.22	1262.25
514.58	1257.10
514.94	1243.76
515.30	1230.89
515.65	1219.65
516.01	1214.27
516.37	1207.25
516.73	1212.63
517.08	1219.42
517.44	1234.16
517.80	1231.12
518.16	1229.72
518.51	1228.31
518.87	1224.57
519.23	1207.25
519.59	1211.93
519.94	1216.84
520.30	1210.06
520.66	1203.74
521.01	1205.84
521.37	1190.86
521.73	1191.80
522.09	1190.86
522.44	1192.97
522.80	1185.25
523.16	1193.44
523.51	1181.27
523.87	1176.82
524.23	1171.67
524.58	1175.18
524.94	1178.69
525.30	1184.08
525.65	1179.86
526.01	1183.37
526.37	1178.23
526.72	1167.23
527.08	1163.95
527.44	1157.86
527.79	1151.54
528.15	1140.78
528.51	1141.48
528.86	1138.44
529.22	1137.27
529.58	1135.39
529.93	1134.46
530.29	1132.59
530.65	1130.71
531.00	1131.41
531.36	1135.39
531.71	1144.05
532.07	1137.27
532.43	1140.54
532.78	1142.65
533.14	1137.27
533.49	1135.39
533.85	1145.69
534.21	1139.84
534.56	1132.35
534.92	1137.97
535.27	1131.18
535.63	1130.24
535.98	1137.73
536.34	1139.61
536.69	1136.56
537.05	1147.33
537.41	1152.01
537.76	1149.67
538.12	1155.29
538.47	1155.29
538.83	1156.93
539.18	1145.69
539.54	1142.65
539.89	1149.20
540.25	1141.25
540.60	1135.39
540.96	1130.71
541.31	1129.78
541.67	1123.46
542.02	1133.99
542.38	1139.37
542.73	1133.05
543.09	1131.88
543.44	1120.41
543.80	1118.54
544.15	1112.92
544.51	1130.01
544.86	1133.05
545.22	1138.90
545.57	1124.16
545.93	1127.67
546.28	1125.10
546.64	1129.78
546.99	1127.44
547.35	1136.10
547.70	1144.52
548.05	1140.07
548.41	1130.24
548.76	1141.71
549.12	1134.69
549.47	1128.61
549.83	1123.69
550.18	1123.93
550.53	1110.12
550.89	1113.39
551.24	1103.80
551.60	1108.24
551.95	1102.39
552.30	1109.65
552.66	1110.82
553.01	1110.58
553.37	1105.90
553.72	1104.26
554.07	1102.16
554.43	1104.97
554.78	1110.58
555.13	1119.48
555.49	1125.56
555.84	1127.20
556.19	1112.69
556.55	1117.61
556.90	1120.65
557.26	1119.24
557.61	1114.33
557.96	1128.14
558.32	1122.75
558.67	1121.58
559.02	1126.97
559.37	1130.95
559.73	1130.48
560.08	1123.22
560.43	1115.73
560.79	1122.52
561.14	1117.14
561.49	1116.20
561.85	1115.97
562.20	1114.33
562.55	1102.39
562.90	1105.44
563.26	1106.37
563.61	1106.14
563.96	1108.01
564.32	1108.24
564.67	1102.86
565.02	1096.54
565.37	1106.14
565.73	1105.67
566.08	1101.46
566.43	1109.88
566.78	1110.82
567.14	1105.67
567.49	1102.39
567.84	1097.95
568.19	1092.80
568.54	1091.39
568.90	1096.07
569.25	1097.71
569.60	1106.37
569.95	1108.48
570.31	1115.50
570.66	1112.92
571.01	1103.56
571.36	1092.56
571.71	1087.65
572.06	1086.01
572.42	1076.18
572.77	1085.77
573.12	1103.09
573.47	1106.61
573.82	1108.71
574.18	1106.14
574.53	1100.52
574.88	1096.07
575.23	1098.65
575.58	1093.03
575.93	1099.35
576.28	1104.50
576.64	1098.65
576.99	1099.82
577.34	1092.80
577.69	1100.75
578.04	1105.67
578.39	1105.67
578.74	1102.39
579.09	1113.16
579.44	1117.61
579.80	1123.46
580.15	1131.88
580.50	1138.20
580.85	1143.82
581.20	1136.56
581.55	1135.39
581.90	1117.37
582.25	1104.50
582.60	1097.24
582.95	1094.20
583.30	1086.71
583.65	1102.39
584.00	1110.12
584.35	1111.75
584.71	1115.97
585.06	1117.84
585.41	1111.75
585.76	1098.18
586.11	1100.75
586.46	1093.03
586.81	1101.92
587.16	1105.90
587.51	1118.78
587.86	1113.16
588.21	1121.12
588.56	1116.67
588.91	1118.78
589.26	1108.71
589.61	1109.41
589.96	1104.03
590.31	1097.95
590.66	1092.56
591.01	1104.73
591.36	1108.71
591.71	1109.18
592.06	1112.46
592.41	1117.61
592.76	1113.16
593.10	1104.03
593.45	1108.24
593.80	1118.54
594.15	1120.18
594.50	1121.12
594.85	1129.07
595.20	1124.86
595.55	1103.56
595.90	1094.90
596.25	1092.33
596.60	1087.41
596.95	1083.90
597.30	1099.58
597.64	1156.22
597.99	1167.23
598.34	1167.93
598.69	1166.99
599.04	1152.48
599.39	1106.61
599.74	1099.82
600.09	1095.37
600.44	1100.05
600.78	1093.97
601.13	1080.86
601.48	1078.99
601.83	1096.54
602.18	1096.54
602.53	1107.78
602.88	1107.07
603.22	1110.58
603.57	1099.35
603.92	1100.29
604.27	1110.82
604.62	1122.75
604.97	1126.97
605.31	1116.90
605.66	1110.82
606.01	1103.09
606.36	1104.73
606.71	1096.54
607.05	1104.97
607.40	1110.12
607.75	1105.90
608.10	1097.95
608.44	1101.22
608.79	1100.99
609.14	1102.86
609.49	1113.86
609.84	1115.73
610.18	1111.52
610.53	1106.37
610.88	1097.95
611.23	1084.37
611.57	1086.94
611.92	1083.90
612.27	1090.46
612.62	1096.54
612.96	1099.82
613.31	1094.90
613.66	1090.69
614.00	1085.54
614.35	1086.94
614.70	1092.33
615.05	1101.69
615.39	1103.33
615.74	1108.71
616.09	1109.18
616.43	1107.78
616.78	1102.39
617.13	1114.10
617.47	1111.05
617.82	1098.41
618.17	1087.18
618.51	1081.33
618.86	1072.90
619.21	1082.03
619.55	1092.33
619.90	1108.24
620.25	1112.92
620.59	1116.20
620.94	1112.22
621.29	1112.69
621.63	1095.37
621.98	1090.92
622.32	1089.05
622.67	1078.99
623.02	1068.45
623.36	1072.20
623.71	1073.60
624.05	1065.65
624.40	1075.01
624.75	1084.84
625.09	1076.41
625.44	1078.05
625.78	1093.26
626.13	1087.41
626.48	1093.97
626.82	1114.80
627.17	1115.97
627.51	1114.10
627.86	1112.92
628.20	1111.29
628.55	1105.20
628.89	1098.65
629.24	1093.50
629.58	1096.07
629.93	1091.63
630.28	1097.95
630.62	1098.41
630.97	1105.67
631.31	1110.35
631.66	1107.54
632.00	1100.29
632.35	1108.24
632.69	1104.50
633.04	1105.90
633.38	1098.18
633.73	1096.31
634.07	1102.39
634.42	1099.12
634.76	1087.18
635.11	1096.31
635.45	1103.09
635.79	1094.67
636.14	1097.71
636.48	1105.44
636.83	1098.88
637.17	1098.65
637.52	1103.33
637.86	1100.99
638.21	1094.90
638.55	1104.50
638.89	1088.35
639.24	1082.73
639.58	1077.35
639.93	1086.48
640.27	1084.14
640.61	1084.14
640.96	1084.60
641.30	1092.80
641.65	1087.65
641.99	1085.07
642.33	1095.37
642.68	1097.24
643.02	1102.86
643.37	1102.39
643.71	1112.46
644.05	1109.65
644.40	1107.78
644.74	1100.99
645.08	1108.01
645.43	1104.03
645.77	1112.46
646.11	1110.82
646.46	1106.84
646.80	1104.26
647.14	1101.46
647.49	1092.09
647.83	1097.01
648.17	1098.18
648.52	1086.71
648.86	1079.92
649.20	1078.52
649.55	1068.22
649.89	1071.50
650.23	1075.48
650.57	1080.39
650.92	1083.67
651.26	1086.48
651.60	1079.46
651.95	1083.43
652.29	1087.65
652.63	1082.97
652.97	1077.58
653.32	1075.24
653.66	1086.01
654.00	1077.58
654.34	1084.84
654.69	1100.29
655.03	1099.58
655.37	1083.20
655.71	1085.07
656.05	1087.18
656.40	1084.37
656.74	1085.31
657.08	1087.88
657.42	1088.58
657.76	1082.50
658.11	1072.43
658.45	1074.07
658.79	1074.54
659.13	1074.07
659.47	1075.48
659.82	1080.16
660.16	1082.73
660.50	1082.50
660.84	1085.54
661.18	1086.94
661.52	1098.88
661.87	1097.71
662.21	1094.90
662.55	1090.69
662.89	1103.56
663.23	1093.97
663.57	1103.09
663.91	1100.29
664.25	1092.09
664.60	1075.48
664.94	1079.22
665.28	1082.97
665.62	1093.50
665.96	1104.26
666.30	1113.39
666.64	1113.16
666.98	1099.58
667.32	1105.67
667.66	1107.78
668.01	1098.41
668.35	1091.86
668.69	1087.88
669.03	1076.18
669.37	1076.88
669.71	1075.48
670.05	1086.94
670.39	1093.97
670.73	1096.31
671.07	1088.12
671.41	1093.97
671.75	1080.63
672.09	1075.48
672.43	1079.92
672.77	1086.48
673.11	1077.11
673.45	1078.99
673.79	1084.14
674.13	1078.99
674.47	1063.54
674.81	1082.97
675.15	1080.39
675.49	1079.46
675.83	1078.05
676.17	1087.88
676.51	1079.92
676.85	1089.05
677.19	1087.18
677.53	1091.16
677.87	1093.73
678.21	1093.50
678.55	1093.03
678.89	1091.86
679.23	1092.56
679.57	1084.14
679.90	1081.33
680.24	1083.90
680.58	1093.26
680.92	1088.12
681.26	1101.69
681.60	1108.48
681.94	1105.20
682.28	1109.88
682.62	1118.54
682.96	1115.03
683.29	1104.73
683.63	1105.20
683.97	1092.56
684.31	1086.01
684.65	1081.56
684.99	1082.97
685.33	1075.01
685.67	1069.39
686.00	1069.16
686.34	1071.97
686.68	1078.99
687.02	1083.20
687.36	1099.12
687.70	1100.05
688.03	1103.33
688.37	1101.22
688.71	1095.60
689.05	1086.94
689.39	1085.31
689.72	1092.56
690.06	1089.52
690.40	1086.01
690.74	1079.92
691.08	1082.26
691.41	1069.16
691.75	1066.35
692.09	1070.80
692.43	1083.90
692.76	1081.56
693.10	1085.07
693.44	1087.65
693.78	1090.46
694.11	1081.09
694.45	1088.58
694.79	1088.35
695.13	1095.14
695.46	1095.37
695.80	1090.22
696.14	1078.52
696.48	1072.20
696.81	1057.92
697.15	1056.52
697.49	1059.56
697.82	1068.45
698.16	1081.56
698.50	1095.84
698.83	1095.60
699.17	1099.12
699.51	1094.43
699.84	1085.07
700.18	1077.82
700.52	1072.90
700.85	1068.22
701.19	1072.90
701.53	1069.16
701.86	1078.05
702.20	1085.31
702.54	1090.46
702.87	1091.39
703.21	1095.37
703.55	1088.82
703.88	1088.35
704.22	1094.20
704.55	1089.52
704.89	1094.20
705.23	1089.52
705.56	1088.12
705.90	1075.94
706.23	1076.65
706.57	1067.28
706.91	1073.14
707.24	1078.75
707.58	1083.43
707.91	1085.77
708.25	1089.52
708.58	1086.94
708.92	1079.46
709.26	1069.16
709.59	1072.20
709.93	1081.09
710.26	1081.80
710.60	1084.37
710.93	1095.84
711.27	1098.88
711.60	1082.73
711.94	1072.90
712.27	1067.75
712.61	1067.99
712.94	1056.99
713.28	1068.45
713.61	1074.54
713.95	1073.60
714.28	1075.48
714.62	1082.26
714.95	1084.14
715.29	1086.71
715.62	1093.26
715.96	1089.99
716.29	1084.84
716.63	1081.09
716.96	1088.82
717.29	1084.60
717.63	1080.86
717.96	1085.54
718.30	1090.92
718.63	1087.88
718.97	1090.46
719.30	1098.18
719.63	1094.67
719.97	1086.71
720.30	1078.52
720.64	1077.82
720.97	1078.05
721.30	1084.60
721.64	1073.84
721.97	1079.22
722.31	1075.01
722.64	1073.84
722.97	1066.82
723.31	1074.31
723.64	1073.84
723.97	1078.05
724.31	1067.75
724.64	1062.14
724.98	1071.03
725.31	1068.69
725.64	1065.18
725.98	1076.18
726.31	1080.63
726.64	1067.99
726.97	1067.75
727.31	1062.14
727.64	1048.79
727.97	1043.18
728.31	1048.56
728.64	1044.35
728.97	1051.84
729.31	1066.82
729.64	1071.73
729.97	1077.82
730.30	1088.82
730.64	1096.78
730.97	1091.63
731.30	1098.41
731.63	1110.35
731.97	1099.35
732.30	1084.37
732.63	1087.65
732.96	1085.77
733.30	1068.45
733.63	1072.43
733.96	1082.50
734.29	1076.65
734.63	1070.33
734.96	1071.73
735.29	1067.05
735.62	1067.05
735.95	1073.37
736.29	1075.01
736.62	1073.84
736.95	1084.60
737.28	1089.75
737.61	1093.50
737.94	1096.78
738.28	1100.52
738.61	1094.90
738.94	1086.01
739.27	1081.33
739.60	1081.56
739.93	1085.77
740.27	1087.18
740.60	1084.60
740.93	1087.88
741.26	1082.03
741.59	1072.67
741.92	1074.77
742.25	1080.86
742.58	1071.03
742.91	1068.92
743.25	1074.07
743.58	1066.11
743.91	1059.33
744.24	1066.11
744.57	1070.33
744.90	1071.50
745.23	1079.46
745.56	1081.33
745.89	1083.43
746.22	1080.39
746.55	1081.09
746.88	1079.92
747.21	1081.80
747.54	1078.75
747.87	1082.97
748.20	1081.80
748.53	1086.01
748.87	1075.24
749.20	1073.60
749.53	1075.94
749.86	1080.39
750.19	1074.54
750.52	1091.63
750.85	1085.07
751.18	1084.60
751.51	1078.75
751.84	1078.99
752.16	1073.14
752.49	1084.14
752.82	1086.48
753.15	1088.58
753.48	1085.31
753.81	1090.22
754.14	1087.18
754.47	1075.71
754.80	1073.60
755.13	1086.24
755.46	1080.39
755.79	1082.73
756.12	1099.12
756.45	1104.03
756.78	1086.24
757.11	1084.37
757.43	1075.01
757.76	1063.77
758.09	1063.07
758.42	1068.22
758.75	1073.37
759.08	1076.65
759.41	1080.63
759.74	1083.67
760.07	1085.54
760.39	1092.33
760.72	1100.29
761.05	1097.71
761.38	1089.75
761.71	1092.33
762.04	1086.01
762.36	1089.75
762.69	1084.84
763.02	1079.69
763.35	1075.71
763.68	1078.52
764.01	1068.69
