SpectraSuite Data File
++++++++++++++++++++++++++++++++++++
Date: Mon Aug 26 10:24:45 PDT 2019
User: corrico
Dark Spectrum Present: No
Reference Spectrum Present: No
Number of Sampled Component Spectra: 1
Spectrometers: USB2+H06089
Integration Time (usec): 10000 (USB2+H06089)
Spectra Averaged: 2 (USB2+H06089)
Boxcar Smoothing: 2 (USB2+H06089)
Correct for Electrical Dark: No (USB2+H06089)
Strobe/Lamp Enabled: No (USB2+H06089)
Correct for Detector Non-linearity: No (USB2+H06089)
Correct for Stray Light: No (USB2+H06089)
Number of Pixels in Processed Spectrum: 2048
>>>>>Begin Processed Spectral Data<<<<<
339.70	1071.97
340.07	1071.97
340.45	1014.62
340.82	990.75
341.19	958.68
341.57	927.55
341.94	922.64
342.31	917.02
342.69	903.68
343.06	902.98
343.43	906.26
343.81	903.21
344.18	905.55
344.55	918.43
344.93	921.70
345.30	921.94
345.67	919.36
346.04	924.28
346.42	918.89
346.79	928.26
347.16	933.41
347.54	950.96
347.91	966.88
348.28	991.68
348.65	1004.79
349.03	1011.58
349.40	1024.69
349.77	1039.67
350.14	1038.96
350.52	1036.86
350.89	1051.84
351.26	1064.24
351.63	1064.24
352.01	1077.11
352.38	1096.07
352.75	1098.65
353.12	1097.24
353.50	1100.99
353.87	1102.63
354.24	1101.22
354.61	1098.18
354.98	1101.22
355.36	1102.39
355.73	1097.71
356.10	1094.43
356.47	1098.88
356.84	1096.31
357.22	1095.37
357.59	1098.65
357.96	1093.97
358.33	1095.60
358.70	1087.88
359.08	1083.43
359.45	1079.46
359.82	1086.48
360.19	1091.16
360.56	1101.46
360.94	1112.92
361.31	1113.39
361.68	1108.48
362.05	1094.67
362.42	1093.26
362.79	1087.65
363.16	1085.77
363.54	1087.41
363.91	1094.43
364.28	1088.58
364.65	1081.09
365.02	1077.82
365.39	1081.80
365.76	1096.31
366.14	1097.48
366.51	1104.50
366.88	1110.35
367.25	1104.50
367.62	1084.60
367.99	1082.50
368.36	1081.80
368.73	1089.52
369.10	1087.41
369.48	1091.16
369.85	1094.67
370.22	1099.82
370.59	1092.09
370.96	1100.99
371.33	1093.73
371.70	1092.09
372.07	1087.18
372.44	1080.86
372.81	1063.77
373.18	1074.07
373.55	1074.54
373.93	1075.24
374.30	1083.67
374.67	1092.56
375.04	1102.39
375.41	1105.44
375.78	1106.84
376.15	1111.29
376.52	1115.97
376.89	1116.67
377.26	1119.24
377.63	1118.54
378.00	1109.88
378.37	1107.78
378.74	1098.65
379.11	1097.01
379.48	1093.26
379.85	1099.58
380.22	1102.63
380.59	1098.88
380.96	1111.99
381.33	1113.63
381.70	1109.65
382.07	1108.95
382.44	1108.95
382.81	1093.03
383.18	1089.99
383.55	1088.35
383.92	1092.56
384.29	1105.90
384.66	1114.80
385.03	1123.93
385.40	1126.73
385.77	1132.59
386.14	1131.88
386.51	1128.61
386.88	1127.67
387.25	1133.52
387.62	1123.69
387.99	1115.27
388.36	1108.71
388.73	1099.12
389.10	1099.12
389.46	1107.07
389.83	1116.20
390.20	1133.29
390.57	1148.27
390.94	1146.39
391.31	1137.73
391.68	1136.80
392.05	1130.24
392.42	1131.65
392.79	1135.86
393.16	1143.12
393.53	1140.31
393.89	1144.29
394.26	1142.65
394.63	1140.78
395.00	1141.95
395.37	1154.82
395.74	1148.73
396.11	1153.65
396.48	1156.69
396.84	1163.71
397.21	1152.01
397.58	1164.18
397.95	1150.37
398.32	1152.01
398.69	1143.82
399.06	1153.18
399.42	1159.50
399.79	1188.76
400.16	1188.52
400.53	1197.18
400.90	1196.95
401.27	1188.29
401.64	1179.40
402.00	1194.14
402.37	1213.57
402.74	1238.38
403.11	1244.23
403.48	1254.76
403.84	1276.76
404.21	1288.23
404.58	1291.04
404.95	1315.85
405.32	1332.00
405.68	1344.64
406.05	1361.72
406.42	1388.17
406.79	1412.75
407.16	1439.43
407.52	1460.96
407.89	1482.50
408.26	1500.99
408.63	1543.12
408.99	1581.50
409.36	1625.50
409.73	1661.31
410.10	1724.27
410.47	1753.76
410.83	1803.15
411.20	1866.11
411.57	1944.75
411.94	2010.05
412.30	2106.25
412.67	2196.83
413.04	2278.98
413.40	2376.81
413.77	2476.99
414.14	2571.78
414.51	2705.43
414.87	2823.39
415.24	2956.10
415.61	3103.32
415.97	3261.54
416.34	3410.16
416.71	3606.77
417.08	3792.60
417.44	3981.49
417.81	4213.67
418.18	4442.57
418.54	4665.86
418.91	4917.93
419.28	5181.71
419.64	5467.73
420.01	5787.21
420.38	6104.12
420.74	6449.58
421.11	6859.41
421.48	7231.79
421.84	7648.87
422.21	8089.36
422.58	8532.66
422.94	9002.40
423.31	9543.07
423.68	10091.22
424.04	10719.65
424.41	11327.49
424.77	11911.92
425.14	12510.16
425.51	13140.94
425.87	13812.44
426.24	14554.86
426.61	15405.87
426.97	16372.28
427.34	17271.05
427.70	18265.07
428.07	19217.90
428.44	20126.27
428.80	21069.27
429.17	22180.55
429.53	23207.35
429.90	24453.92
430.27	25636.59
430.63	26799.60
431.00	27992.81
431.36	29350.79
431.73	30554.76
432.09	31881.14
432.46	33123.96
432.83	34437.71
433.19	35612.66
433.56	36934.82
433.92	38280.87
434.29	39595.78
434.65	40907.42
435.02	42070.90
435.38	43209.57
435.75	44088.91
436.11	45264.56
436.48	46215.98
436.84	47178.88
437.21	48046.99
437.57	48980.86
437.94	49692.38
438.30	50428.71
438.67	50974.76
439.03	51341.52
439.40	51657.26
439.76	51490.85
440.13	51172.30
440.49	51062.53
440.86	50684.77
441.22	50206.60
441.59	49745.75
441.95	49244.17
442.32	48351.25
442.68	47605.79
443.05	46643.60
443.41	45769.88
443.78	44662.34
444.14	43682.35
444.51	42441.64
444.87	41578.91
445.24	40473.25
445.60	39432.88
445.96	38280.87
446.33	37479.93
446.69	36293.52
447.06	35348.64
447.42	34330.98
447.79	33280.31
448.15	32312.03
448.51	31422.16
448.88	30637.14
449.24	29702.57
449.61	29101.99
449.97	28236.69
450.33	27425.23
450.70	26523.65
451.06	26010.14
451.43	25229.10
451.79	24769.66
452.15	24261.29
452.52	23672.18
452.88	23056.85
453.24	22509.63
453.61	21853.35
453.97	21246.68
454.34	20647.97
454.70	20081.33
455.06	19537.39
455.43	18877.36
455.79	18169.81
456.15	17612.77
456.52	16946.65
456.88	16394.75
457.24	15848.24
457.61	15434.66
457.97	14980.60
458.33	14492.60
458.70	13940.70
459.06	13383.42
459.42	12915.78
459.79	12369.50
460.15	11962.95
460.51	11551.25
460.88	11180.27
461.24	10791.04
461.60	10454.00
461.96	10132.88
462.33	9838.68
462.69	9529.96
463.05	9224.99
463.42	8976.42
463.78	8674.49
464.14	8419.84
464.50	8212.71
464.87	7956.18
465.23	7739.45
465.59	7537.46
465.95	7338.05
466.32	7151.97
466.68	6957.71
467.04	6747.30
467.40	6564.03
467.77	6402.07
468.13	6200.55
468.49	6054.03
468.85	5917.81
469.22	5808.98
469.58	5663.86
469.94	5549.18
470.30	5426.77
470.66	5318.63
471.03	5194.12
471.39	5100.50
471.75	4990.49
472.11	4886.57
472.47	4797.63
472.84	4702.14
473.20	4586.51
473.56	4499.45
473.92	4387.80
474.28	4293.24
474.65	4198.69
475.01	4100.85
475.37	4015.19
475.73	3962.76
476.09	3876.86
476.45	3819.29
476.81	3746.50
477.18	3664.11
477.54	3571.66
477.90	3497.70
478.26	3391.20
478.62	3335.50
478.98	3306.94
479.34	3269.96
479.71	3232.98
480.07	3214.73
480.43	3183.13
480.79	3102.61
481.15	3046.21
481.51	2989.57
481.87	2926.37
482.23	2860.37
482.59	2817.54
482.96	2775.41
483.32	2734.92
483.68	2696.06
484.04	2675.00
484.40	2646.44
484.76	2620.93
485.12	2585.82
485.48	2541.59
485.84	2491.73
486.20	2459.43
486.56	2402.79
486.92	2367.69
487.28	2346.15
487.64	2322.51
488.00	2285.77
488.37	2280.15
488.73	2243.64
489.09	2206.66
489.45	2167.34
489.81	2134.33
490.17	2092.20
490.53	2061.08
490.89	2039.54
491.25	2025.27
491.61	2000.46
491.97	1978.69
492.33	1961.60
492.69	1939.13
493.05	1904.96
493.41	1889.28
493.77	1856.98
494.13	1822.11
494.49	1805.02
494.85	1790.98
495.21	1765.00
495.57	1756.57
495.93	1746.98
496.29	1726.61
496.64	1710.23
497.00	1688.93
497.36	1664.82
497.72	1646.33
498.08	1623.86
498.44	1596.71
498.80	1582.90
499.16	1566.52
499.52	1539.60
499.88	1537.03
500.24	1520.88
500.60	1508.71
500.96	1506.60
501.32	1505.67
501.68	1485.30
502.03	1483.67
502.39	1477.35
502.75	1467.75
503.11	1456.98
503.47	1454.41
503.83	1443.64
504.19	1431.71
504.55	1410.41
504.91	1402.68
505.26	1392.15
505.62	1379.98
505.98	1366.40
506.34	1356.57
506.70	1352.83
507.06	1341.60
507.42	1337.85
507.78	1347.68
508.13	1346.51
508.49	1339.72
508.85	1324.28
509.21	1317.02
509.57	1310.00
509.93	1295.72
510.28	1287.76
510.64	1288.93
511.00	1287.53
511.36	1266.70
511.72	1264.12
512.07	1251.25
512.43	1246.34
512.79	1225.97
513.15	1225.50
513.51	1228.31
513.86	1236.51
514.22	1236.27
514.58	1250.08
514.94	1232.99
515.30	1230.65
515.65	1226.21
516.01	1226.91
516.37	1213.57
516.73	1226.44
517.08	1227.38
517.44	1227.85
517.80	1214.50
518.16	1214.97
518.51	1209.82
518.87	1201.16
519.23	1187.82
519.59	1190.16
519.94	1195.08
520.30	1196.48
520.66	1197.89
521.01	1195.78
521.37	1193.21
521.73	1186.65
522.09	1176.12
522.44	1171.67
522.80	1180.80
523.16	1180.10
523.51	1171.20
523.87	1177.06
524.23	1170.03
524.58	1165.35
524.94	1169.57
525.30	1179.63
525.65	1192.97
526.01	1193.67
526.37	1177.52
526.72	1168.63
527.08	1161.61
527.44	1152.01
527.79	1152.48
528.15	1160.44
528.51	1164.42
528.86	1167.23
529.22	1165.82
529.58	1161.84
529.93	1169.57
530.29	1160.20
530.65	1156.93
531.00	1152.25
531.36	1155.05
531.71	1143.59
532.07	1143.82
532.43	1150.84
532.78	1150.37
533.14	1159.50
533.49	1155.05
533.85	1164.65
534.21	1148.50
534.56	1147.33
534.92	1129.31
535.27	1139.14
535.63	1137.50
535.98	1142.88
536.34	1141.01
536.69	1155.76
537.05	1143.82
537.41	1134.46
537.76	1132.59
538.12	1133.76
538.47	1127.20
538.83	1131.18
539.18	1133.29
539.54	1136.56
539.89	1132.82
540.25	1124.16
540.60	1130.48
540.96	1132.35
541.31	1122.52
541.67	1123.46
542.02	1129.54
542.38	1120.88
542.73	1112.69
543.09	1123.69
543.44	1119.95
543.80	1120.41
544.15	1122.05
544.51	1133.76
544.86	1128.14
545.22	1126.27
545.57	1135.39
545.93	1139.61
546.28	1139.61
546.64	1145.46
546.99	1147.56
547.35	1137.50
547.70	1133.52
548.05	1123.22
548.41	1119.71
548.76	1123.22
549.12	1114.56
549.47	1109.18
549.83	1111.52
550.18	1110.82
550.53	1104.50
550.89	1106.61
551.24	1108.01
551.60	1104.97
551.95	1106.84
552.30	1112.69
552.66	1120.18
553.01	1125.56
553.37	1135.86
553.72	1132.35
554.07	1119.24
554.43	1122.52
554.78	1124.39
555.13	1115.73
555.49	1111.52
555.84	1123.46
556.19	1109.88
556.55	1112.69
556.90	1124.39
557.26	1122.75
557.61	1111.52
557.96	1114.33
558.32	1100.75
558.67	1081.33
559.02	1088.35
559.37	1093.50
559.73	1107.07
560.08	1114.33
560.43	1116.67
560.79	1102.86
561.14	1109.18
561.49	1105.67
561.85	1110.58
562.20	1118.07
562.55	1139.14
562.90	1134.46
563.26	1124.86
563.61	1119.95
563.96	1101.22
564.32	1086.01
564.67	1088.82
565.02	1094.20
565.37	1097.95
565.73	1109.88
566.08	1112.92
566.43	1115.50
566.78	1111.52
567.14	1102.63
567.49	1099.58
567.84	1098.18
568.19	1085.77
568.54	1086.48
568.90	1082.97
569.25	1088.12
569.60	1088.35
569.95	1092.80
570.31	1098.41
570.66	1106.14
571.01	1102.63
571.36	1109.41
571.71	1107.54
572.06	1094.90
572.42	1097.95
572.77	1114.09
573.12	1103.09
573.47	1106.14
573.82	1127.90
574.18	1122.75
574.53	1109.88
574.88	1117.61
575.23	1123.46
575.58	1114.10
575.93	1112.69
576.28	1104.50
576.64	1105.44
576.99	1097.95
577.34	1089.75
577.69	1096.78
578.04	1110.35
578.39	1111.99
578.74	1110.12
579.09	1105.44
579.44	1103.56
579.80	1102.63
580.15	1102.63
580.50	1103.80
580.85	1107.78
581.20	1104.73
581.55	1101.69
581.90	1093.97
582.25	1105.20
582.60	1112.22
582.95	1115.03
583.30	1114.80
583.65	1127.67
584.00	1119.24
584.35	1114.80
584.71	1113.16
585.06	1113.39
585.41	1096.07
585.76	1098.41
586.11	1092.56
586.46	1094.20
586.81	1089.29
587.16	1103.80
587.51	1103.56
587.86	1111.29
588.21	1111.52
588.56	1107.07
588.91	1104.03
589.26	1096.54
589.61	1094.43
589.96	1092.80
590.31	1104.03
590.66	1094.67
591.01	1093.26
591.36	1094.67
591.71	1092.09
592.06	1083.67
592.41	1097.24
592.76	1101.92
593.10	1099.58
593.45	1096.78
593.80	1103.33
594.15	1097.71
594.50	1102.16
594.85	1107.31
595.20	1111.52
595.55	1108.24
595.90	1103.09
596.25	1094.43
596.60	1088.58
596.95	1073.84
597.30	1076.41
597.64	1120.65
597.99	1126.03
598.34	1130.95
598.69	1144.76
599.04	1139.61
599.39	1099.12
599.74	1099.12
600.09	1094.43
600.44	1092.33
600.78	1104.50
601.13	1096.31
601.48	1092.56
601.83	1097.95
602.18	1100.05
602.53	1093.73
602.88	1103.33
603.22	1110.82
603.57	1104.97
603.92	1097.48
604.27	1100.75
604.62	1107.31
604.97	1106.84
605.31	1104.26
605.66	1116.67
606.01	1108.01
606.36	1097.95
606.71	1104.26
607.05	1113.63
607.40	1103.33
607.75	1108.71
608.10	1104.97
608.44	1087.88
608.79	1077.11
609.14	1084.14
609.49	1091.39
609.84	1094.90
610.18	1102.86
610.53	1110.82
610.88	1107.07
611.23	1108.01
611.57	1114.56
611.92	1111.52
612.27	1118.78
612.62	1114.80
612.96	1113.39
613.31	1109.88
613.66	1111.99
614.00	1110.35
614.35	1112.69
614.70	1113.16
615.05	1119.24
615.39	1126.03
615.74	1126.97
616.09	1131.88
616.43	1130.48
616.78	1122.29
617.13	1111.99
617.47	1096.07
617.82	1096.54
618.17	1087.41
618.51	1088.35
618.86	1097.95
619.21	1101.46
619.55	1100.29
619.90	1093.73
620.25	1089.52
620.59	1084.37
620.94	1083.43
621.29	1079.92
621.63	1089.75
621.98	1088.35
622.32	1087.41
622.67	1092.56
623.02	1095.84
623.36	1081.56
623.71	1079.92
624.05	1087.18
624.40	1085.77
624.75	1091.16
625.09	1108.71
625.44	1108.95
625.78	1091.63
626.13	1096.78
626.48	1090.69
626.82	1082.73
627.17	1078.05
627.51	1081.56
627.86	1072.67
628.20	1062.60
628.55	1061.43
628.89	1078.52
629.24	1079.22
629.58	1090.22
629.93	1104.03
630.28	1103.09
630.62	1094.43
630.97	1100.52
631.31	1096.31
631.66	1092.33
632.00	1094.20
632.35	1092.80
632.69	1095.37
633.04	1095.14
633.38	1090.46
633.73	1093.03
634.07	1104.26
634.42	1102.39
634.76	1093.50
635.11	1097.01
635.45	1092.80
635.79	1087.65
636.14	1092.56
636.48	1095.84
636.83	1096.31
637.17	1097.95
637.52	1091.63
637.86	1078.52
638.21	1078.05
638.55	1082.73
638.89	1075.48
639.24	1088.58
639.58	1088.58
639.93	1091.16
640.27	1082.97
640.61	1084.84
640.96	1069.39
641.30	1068.45
641.65	1078.75
641.99	1083.43
642.33	1084.84
642.68	1091.39
643.02	1104.26
643.37	1100.05
643.71	1103.33
644.05	1117.14
644.40	1114.80
644.74	1105.20
645.08	1095.60
645.43	1092.80
645.77	1081.80
646.11	1083.90
646.46	1083.67
646.80	1082.50
647.14	1079.92
647.49	1086.01
647.83	1081.09
648.17	1086.48
648.52	1090.92
648.86	1085.31
649.20	1086.01
649.55	1096.54
649.89	1099.82
650.23	1102.39
650.57	1106.61
650.92	1099.58
651.26	1089.52
651.60	1075.01
651.95	1077.35
652.29	1082.73
652.63	1086.01
652.97	1097.95
653.32	1114.33
653.66	1115.73
654.00	1107.31
654.34	1106.61
654.69	1103.09
655.03	1100.52
655.37	1097.95
655.71	1108.24
656.05	1113.39
656.40	1109.18
656.74	1112.69
657.08	1112.92
657.42	1113.39
657.76	1111.75
658.11	1101.92
658.45	1093.26
658.79	1091.63
659.13	1089.05
659.47	1086.71
659.82	1093.26
660.16	1094.90
660.50	1090.46
660.84	1093.03
661.18	1086.94
661.52	1082.26
661.87	1077.35
662.21	1072.67
662.55	1065.65
662.89	1068.92
663.23	1082.26
663.57	1093.73
663.91	1091.39
664.25	1083.67
664.60	1080.86
664.94	1074.54
665.28	1071.26
665.62	1081.56
665.96	1082.50
666.30	1090.69
666.64	1088.35
666.98	1082.50
667.32	1083.67
667.66	1079.22
668.01	1074.77
668.35	1076.88
668.69	1073.84
669.03	1068.45
669.37	1081.80
669.71	1078.28
670.05	1074.54
670.39	1081.56
670.73	1083.67
671.07	1088.12
671.41	1094.43
671.75	1095.37
672.09	1094.90
672.43	1092.80
672.77	1086.24
673.11	1077.58
673.45	1078.99
673.79	1074.31
674.13	1080.86
674.47	1081.56
674.81	1087.18
675.15	1094.20
675.49	1104.03
675.83	1100.29
676.17	1094.20
676.51	1090.22
676.85	1083.43
677.19	1081.56
677.53	1082.73
677.87	1092.56
678.21	1099.82
678.55	1097.95
678.89	1087.65
679.23	1079.69
679.57	1070.56
679.90	1061.67
680.24	1056.28
680.58	1059.56
680.92	1063.07
681.26	1064.71
681.60	1071.97
681.94	1074.31
682.28	1077.58
682.62	1082.26
682.96	1087.65
683.29	1089.52
683.63	1094.43
683.97	1100.99
684.31	1098.88
684.65	1094.43
684.99	1098.41
685.33	1112.92
685.67	1109.18
686.00	1110.82
686.34	1115.50
686.68	1103.56
687.02	1097.71
687.36	1094.20
687.70	1093.26
688.03	1094.20
688.37	1112.46
688.71	1103.80
689.05	1101.92
689.39	1099.58
689.72	1103.33
690.06	1097.48
690.40	1091.86
690.74	1096.78
691.08	1098.88
691.41	1091.63
691.75	1082.03
692.09	1089.75
692.43	1086.01
692.76	1086.71
693.10	1087.18
693.44	1088.82
693.78	1084.60
694.11	1093.26
694.45	1092.80
694.79	1092.33
695.13	1096.31
695.46	1092.56
695.80	1086.01
696.14	1086.48
696.48	1085.31
696.81	1080.86
697.15	1088.82
697.49	1091.63
697.82	1092.56
698.16	1086.48
698.50	1090.69
698.83	1093.26
699.17	1086.71
699.51	1087.18
699.84	1078.99
700.18	1072.43
700.52	1072.20
700.85	1071.97
701.19	1066.58
701.53	1079.46
701.86	1082.50
702.20	1077.58
702.54	1079.46
702.87	1087.65
703.21	1093.03
703.55	1089.29
703.88	1089.29
704.22	1085.77
704.55	1086.48
704.89	1085.54
705.23	1093.03
705.56	1093.26
705.90	1098.18
706.23	1092.56
706.57	1091.39
706.91	1088.12
707.24	1096.78
707.58	1098.88
707.91	1094.20
708.25	1102.39
708.58	1104.26
708.92	1096.54
709.26	1092.33
709.59	1097.48
709.93	1084.14
710.26	1081.09
710.60	1077.58
710.93	1078.05
711.27	1075.94
711.60	1077.11
711.94	1082.97
712.27	1092.09
712.61	1095.60
712.94	1094.43
713.28	1101.22
713.61	1109.88
713.95	1105.20
714.28	1108.24
714.62	1107.78
714.95	1105.67
715.29	1082.03
715.62	1074.54
715.96	1068.69
716.29	1067.05
716.63	1051.84
716.96	1063.77
717.29	1067.28
717.63	1072.43
717.96	1077.35
718.30	1089.75
718.63	1082.97
718.97	1089.29
719.30	1081.80
719.63	1084.84
719.97	1086.01
720.30	1100.05
720.64	1092.56
720.97	1094.43
721.30	1090.22
721.64	1083.67
721.97	1075.94
722.31	1081.80
722.64	1088.58
722.97	1085.31
723.31	1089.99
723.64	1087.65
723.97	1096.78
724.31	1091.63
724.64	1100.99
724.98	1099.12
725.31	1101.69
725.64	1090.46
725.98	1096.31
726.31	1080.16
726.64	1078.05
726.97	1074.07
727.31	1072.90
727.64	1067.75
727.97	1082.26
728.31	1096.07
728.64	1096.31
728.97	1104.73
729.31	1106.14
729.64	1102.86
729.97	1093.03
730.30	1102.16
730.64	1088.35
730.97	1079.46
731.30	1082.26
731.63	1078.05
731.97	1076.65
732.30	1075.94
732.63	1072.43
732.96	1070.80
733.30	1076.65
733.63	1064.01
733.96	1075.01
734.29	1088.35
734.63	1085.54
734.96	1076.41
735.29	1083.20
735.62	1077.82
735.95	1074.31
736.29	1078.05
736.62	1085.07
736.95	1082.50
737.28	1077.11
737.61	1070.33
737.94	1067.28
738.28	1067.99
738.61	1071.73
738.94	1077.58
739.27	1088.35
739.60	1089.52
739.93	1086.48
740.27	1083.20
740.60	1085.31
740.93	1080.16
741.26	1076.65
741.59	1089.99
741.92	1092.33
742.25	1098.41
742.58	1099.58
742.91	1100.29
743.25	1096.78
743.58	1100.05
743.91	1097.01
744.24	1094.20
744.57	1095.14
744.90	1091.86
745.23	1083.67
745.56	1075.24
745.89	1074.07
746.22	1073.60
746.55	1075.01
746.88	1084.14
747.21	1077.82
747.54	1079.22
747.87	1074.54
748.20	1065.18
748.53	1058.86
748.87	1071.26
749.20	1070.33
749.53	1074.54
749.86	1083.67
750.19	1081.56
750.52	1079.22
750.85	1086.01
751.18	1081.33
751.51	1075.01
751.84	1076.18
752.16	1078.75
752.49	1070.09
752.82	1071.03
753.15	1076.41
753.48	1076.18
753.81	1075.24
754.14	1081.80
754.47	1085.54
754.80	1075.01
755.13	1072.67
755.46	1068.92
755.79	1066.11
756.12	1073.84
756.45	1083.20
756.78	1101.69
757.11	1096.78
757.43	1087.41
757.76	1077.82
758.09	1081.80
758.42	1072.90
758.75	1080.86
759.08	1091.39
759.41	1098.18
759.74	1094.43
760.07	1094.67
760.39	1092.33
760.72	1086.48
761.05	1083.20
761.38	1084.60
761.71	1082.50
762.04	1078.28
762.36	1088.35
762.69	1084.60
763.02	1085.07
763.35	1083.20
763.68	1086.94
764.01	1083.67
