SpectraSuite Data File
++++++++++++++++++++++++++++++++++++
Date: Mon Aug 26 10:24:40 PDT 2019
User: corrico
Dark Spectrum Present: No
Reference Spectrum Present: No
Number of Sampled Component Spectra: 1
Spectrometers: USB2+H06089
Integration Time (usec): 10000 (USB2+H06089)
Spectra Averaged: 2 (USB2+H06089)
Boxcar Smoothing: 2 (USB2+H06089)
Correct for Electrical Dark: No (USB2+H06089)
Strobe/Lamp Enabled: No (USB2+H06089)
Correct for Detector Non-linearity: No (USB2+H06089)
Correct for Stray Light: No (USB2+H06089)
Number of Pixels in Processed Spectrum: 2048
>>>>>Begin Processed Spectral Data<<<<<
339.70	1032.18
340.07	1032.18
340.45	993.32
340.82	971.32
341.19	951.90
341.57	921.70
341.94	919.60
342.31	899.23
342.69	890.57
343.06	884.49
343.43	888.47
343.81	891.74
344.18	897.60
344.55	902.98
344.93	915.15
345.30	924.98
345.67	929.19
346.04	940.66
346.42	955.64
346.79	948.85
347.16	952.36
347.54	963.83
347.91	974.83
348.28	977.41
348.65	998.24
349.03	1012.98
349.40	1016.03
349.77	1033.11
350.14	1050.90
350.52	1059.09
350.89	1067.75
351.26	1075.94
351.63	1077.58
352.01	1079.92
352.38	1082.26
352.75	1075.94
353.12	1090.69
353.50	1095.37
353.87	1093.97
354.24	1097.24
354.61	1095.37
354.98	1081.80
355.36	1082.73
355.73	1083.67
356.10	1083.67
356.47	1089.29
356.84	1089.75
357.22	1089.05
357.59	1084.37
357.96	1089.52
358.33	1096.54
358.70	1115.97
359.08	1111.75
359.45	1122.05
359.82	1116.90
360.19	1109.65
360.56	1094.90
360.94	1103.56
361.31	1102.63
361.68	1104.50
362.05	1095.37
362.42	1096.54
362.79	1092.56
363.16	1095.14
363.54	1096.78
363.91	1111.75
364.28	1119.24
364.65	1116.20
365.02	1121.12
365.39	1112.46
365.76	1109.88
366.14	1097.71
366.51	1094.90
366.88	1078.99
367.25	1078.75
367.62	1079.92
367.99	1082.97
368.36	1082.73
368.73	1086.01
369.10	1090.92
369.48	1087.41
369.85	1090.22
370.22	1101.46
370.59	1095.60
370.96	1101.69
371.33	1104.03
371.70	1107.31
372.07	1095.60
372.44	1098.41
372.81	1089.29
373.18	1092.09
373.55	1084.37
373.93	1081.56
374.30	1082.26
374.67	1078.99
375.04	1080.39
375.41	1072.43
375.78	1086.94
376.15	1091.16
376.52	1098.65
376.89	1091.86
377.26	1103.33
377.63	1089.75
378.00	1090.46
378.37	1095.37
378.74	1107.31
379.11	1108.24
379.48	1118.31
379.85	1126.73
380.22	1121.58
380.59	1121.82
380.96	1124.86
381.33	1128.61
381.70	1117.61
382.07	1119.48
382.44	1112.22
382.81	1104.26
383.18	1087.18
383.55	1097.71
383.92	1101.92
384.29	1095.14
384.66	1095.14
385.03	1111.05
385.40	1106.84
385.77	1099.58
386.14	1104.50
386.51	1114.56
386.88	1111.05
387.25	1109.65
387.62	1117.14
387.99	1118.54
388.36	1113.86
388.73	1112.22
389.10	1107.78
389.46	1106.37
389.83	1114.80
390.20	1124.86
390.57	1129.54
390.94	1132.82
391.31	1130.48
391.68	1123.69
392.05	1117.84
392.42	1114.09
392.79	1116.90
393.16	1111.52
393.53	1109.88
393.89	1113.63
394.26	1112.46
394.63	1107.54
395.00	1111.52
395.37	1130.24
395.74	1130.95
396.11	1142.18
396.48	1146.63
396.84	1147.33
397.21	1142.18
397.58	1140.78
397.95	1132.82
398.32	1143.82
398.69	1157.16
399.06	1155.76
399.42	1159.97
399.79	1185.48
400.16	1185.25
400.53	1184.55
400.90	1192.74
401.27	1209.12
401.64	1204.91
402.00	1218.48
402.37	1221.53
402.74	1231.82
403.11	1232.99
403.48	1248.21
403.84	1250.78
404.21	1267.87
404.58	1284.25
404.95	1312.10
405.32	1321.47
405.68	1347.91
406.05	1368.51
406.42	1384.19
406.79	1389.58
407.16	1413.92
407.52	1448.09
407.89	1474.54
408.26	1512.69
408.63	1567.69
408.99	1615.67
409.36	1642.12
409.73	1694.31
410.10	1741.12
410.47	1781.85
410.83	1831.70
411.20	1902.62
411.57	1965.11
411.94	2038.37
412.30	2120.99
412.67	2198.23
413.04	2274.53
413.40	2375.64
413.77	2460.61
414.14	2552.35
414.51	2671.49
414.87	2805.37
415.24	2937.37
415.61	3095.83
415.97	3267.39
416.34	3423.50
416.71	3593.89
417.08	3782.31
417.44	3969.31
417.81	4178.32
418.18	4418.46
418.54	4674.05
418.91	4934.55
419.28	5229.22
419.64	5507.05
420.01	5816.47
420.38	6152.57
420.74	6468.54
421.11	6846.30
421.48	7248.17
421.84	7673.45
422.21	8072.74
422.58	8593.98
422.94	9097.90
423.31	9645.58
423.68	10212.93
424.04	10837.15
424.41	11414.56
424.77	12003.91
425.14	12574.53
425.51	13201.56
425.87	13898.34
426.24	14618.75
426.61	15492.71
426.97	16512.25
427.34	17458.06
427.70	18495.38
428.07	19513.51
428.44	20523.92
428.80	21469.03
429.17	22558.55
429.53	23539.47
429.90	24743.44
430.27	25765.55
430.63	26930.67
431.00	28170.45
431.36	29632.12
431.73	30882.90
432.09	32171.37
432.46	33442.28
432.83	34726.76
433.19	35864.73
433.56	37314.46
433.92	38953.07
434.29	40453.35
434.65	41898.63
435.02	43214.48
435.38	44421.03
435.75	45260.58
436.11	46503.87
436.48	47569.28
436.84	48626.27
437.21	49546.57
437.57	50520.00
437.94	51136.73
438.30	51755.10
438.67	51961.77
439.03	52052.58
439.40	52222.03
439.76	52086.28
440.13	51851.29
440.49	51906.29
440.86	51580.49
441.22	51180.03
441.59	50593.25
441.95	49908.18
442.32	48963.07
442.68	48291.34
443.05	47349.74
443.41	46455.19
443.78	45439.39
444.14	44522.37
444.51	43238.35
444.87	42218.35
445.24	40932.22
445.60	39860.49
445.96	38668.93
446.33	37820.72
446.69	36694.68
447.06	35924.18
447.42	34868.13
447.79	33774.63
448.15	32722.56
448.51	31713.32
448.88	30786.70
449.24	29842.30
449.61	29226.74
449.97	28474.49
450.33	27791.05
450.70	26906.10
451.06	26308.79
451.43	25492.41
451.79	24930.68
452.15	24390.02
452.52	23912.32
452.88	23328.82
453.24	22885.99
453.61	22251.94
453.97	21611.80
454.34	21032.05
454.70	20506.14
455.06	19859.68
455.43	19212.05
455.79	18472.68
456.15	17892.46
456.52	17198.49
456.88	16703.23
457.24	16119.97
457.61	15695.87
457.97	15146.78
458.33	14654.56
458.70	14043.21
459.06	13517.30
459.42	13070.49
459.79	12595.12
460.15	12154.17
460.51	11778.28
460.88	11415.49
461.24	10990.22
461.60	10615.50
461.96	10280.10
462.33	9942.36
462.69	9610.94
463.05	9326.33
463.42	9075.43
463.78	8803.22
464.14	8510.89
464.50	8271.45
464.87	8005.57
465.23	7746.71
465.59	7520.14
465.95	7322.60
466.32	7102.12
466.68	6904.11
467.04	6699.32
467.40	6525.41
467.77	6369.30
468.13	6217.63
468.49	6087.27
468.85	5963.45
469.22	5824.89
469.58	5697.33
469.94	5596.69
470.30	5468.43
470.66	5341.57
471.03	5224.31
471.39	5119.69
471.75	4999.15
472.11	4913.95
472.47	4840.70
472.84	4735.61
473.20	4623.26
473.56	4530.34
473.92	4419.17
474.28	4313.61
474.65	4254.86
475.01	4179.03
475.37	4091.02
475.73	4019.87
476.09	3944.27
476.45	3840.59
476.81	3740.64
477.18	3673.70
477.54	3595.53
477.90	3531.40
478.26	3448.31
478.62	3391.90
478.98	3329.88
479.34	3267.62
479.71	3210.98
480.07	3172.13
480.43	3141.70
480.79	3082.02
481.15	3015.08
481.51	2951.88
481.87	2924.03
482.23	2871.37
482.59	2819.18
482.96	2800.45
483.32	2776.81
483.68	2726.49
484.04	2691.62
484.40	2666.81
484.76	2628.19
485.12	2581.84
485.48	2548.84
485.84	2509.52
486.20	2477.22
486.56	2421.99
486.92	2385.71
487.28	2353.64
487.64	2329.30
488.00	2286.94
488.37	2267.28
488.73	2241.30
489.09	2209.23
489.45	2153.53
489.81	2126.84
490.17	2092.67
490.53	2076.99
490.89	2045.39
491.25	2040.48
491.61	2012.63
491.97	2000.46
492.33	1978.92
492.69	1957.39
493.05	1922.28
493.41	1905.90
493.77	1887.64
494.13	1849.96
494.49	1831.00
494.85	1815.55
495.21	1791.91
495.57	1766.17
495.93	1743.93
496.29	1707.42
496.64	1691.74
497.00	1671.84
497.36	1636.97
497.72	1618.01
498.08	1603.03
498.44	1589.22
498.80	1575.65
499.16	1576.35
499.52	1566.05
499.88	1573.07
500.24	1553.65
500.60	1535.39
500.96	1517.60
501.32	1502.39
501.68	1481.33
502.03	1464.24
502.39	1450.43
502.75	1438.03
503.11	1430.77
503.47	1412.75
503.83	1403.15
504.19	1398.70
504.55	1398.00
504.91	1391.68
505.26	1387.47
505.62	1382.32
505.98	1382.79
506.34	1361.72
506.70	1350.96
507.06	1348.38
507.42	1346.74
507.78	1334.11
508.13	1334.34
508.49	1325.68
508.85	1311.87
509.21	1302.74
509.57	1300.64
509.93	1303.44
510.28	1292.21
510.64	1290.10
511.00	1291.51
511.36	1296.66
511.72	1278.17
512.07	1273.25
512.43	1281.21
512.79	1273.95
513.15	1253.12
513.51	1253.36
513.86	1255.70
514.22	1238.38
514.58	1232.06
514.94	1232.29
515.30	1222.70
515.65	1214.97
516.01	1220.36
516.37	1221.06
516.73	1219.65
517.08	1211.93
517.44	1216.61
517.80	1207.01
518.16	1201.63
518.51	1199.29
518.87	1210.53
519.23	1212.40
519.59	1203.27
519.94	1202.33
520.30	1203.74
520.66	1204.44
521.01	1197.42
521.37	1200.93
521.73	1193.91
522.09	1185.72
522.44	1178.93
522.80	1180.10
523.16	1178.23
523.51	1184.78
523.87	1185.01
524.23	1187.82
524.58	1178.69
524.94	1183.61
525.30	1186.65
525.65	1188.99
526.01	1179.86
526.37	1178.93
526.72	1177.99
527.08	1168.40
527.44	1172.84
527.79	1179.40
528.15	1188.99
528.51	1178.23
528.86	1182.67
529.22	1163.71
529.58	1154.82
529.93	1147.80
530.29	1155.05
530.65	1139.14
531.00	1152.25
531.36	1165.35
531.71	1167.93
532.07	1173.54
532.43	1176.82
532.78	1166.52
533.14	1155.76
533.49	1150.61
533.85	1137.50
534.21	1135.63
534.56	1145.69
534.92	1149.44
535.27	1151.78
535.63	1157.16
535.98	1168.63
536.34	1164.65
536.69	1152.71
537.05	1151.31
537.41	1145.22
537.76	1131.65
538.12	1128.61
538.47	1129.54
538.83	1129.78
539.18	1134.69
539.54	1143.35
539.89	1137.50
540.25	1140.54
540.60	1129.07
540.96	1114.80
541.31	1108.95
541.67	1107.07
542.02	1109.88
542.38	1119.01
542.73	1126.73
543.09	1129.07
543.44	1129.54
543.80	1129.07
544.15	1133.52
544.51	1134.69
544.86	1137.97
545.22	1136.10
545.57	1137.27
545.93	1132.12
546.28	1126.27
546.64	1120.18
546.99	1129.07
547.35	1118.78
547.70	1123.69
548.05	1130.24
548.41	1135.16
548.76	1133.99
549.12	1143.35
549.47	1130.48
549.83	1125.80
550.18	1117.14
550.53	1111.52
550.89	1105.67
551.24	1114.80
551.60	1112.46
551.95	1119.71
552.30	1124.63
552.66	1131.41
553.01	1123.22
553.37	1128.37
553.72	1116.67
554.07	1117.14
554.43	1110.58
554.78	1099.58
555.13	1096.07
555.49	1106.84
555.84	1103.09
556.19	1106.61
556.55	1116.44
556.90	1119.48
557.26	1114.80
557.61	1114.80
557.96	1114.09
558.32	1122.29
558.67	1109.18
559.02	1104.97
559.37	1111.99
559.73	1118.31
560.08	1118.31
560.43	1133.05
560.79	1133.29
561.14	1118.54
561.49	1119.71
561.85	1114.80
562.20	1112.69
562.55	1118.54
562.90	1122.05
563.26	1111.99
563.61	1101.92
563.96	1102.63
564.32	1099.58
564.67	1094.67
565.02	1085.07
565.37	1087.88
565.73	1089.29
566.08	1083.20
566.43	1097.24
566.78	1110.82
567.14	1109.41
567.49	1105.20
567.84	1117.84
568.19	1107.54
568.54	1095.84
568.90	1106.61
569.25	1103.80
569.60	1101.69
569.95	1104.73
570.31	1108.95
570.66	1105.67
571.01	1114.33
571.36	1112.92
571.71	1110.12
572.06	1114.80
572.42	1116.67
572.77	1112.46
573.12	1113.16
573.47	1110.35
573.82	1109.88
574.18	1112.46
574.53	1108.71
574.88	1111.99
575.23	1115.27
575.58	1113.86
575.93	1106.61
576.28	1105.20
576.64	1093.50
576.99	1095.37
577.34	1091.86
577.69	1100.75
578.04	1100.29
578.39	1110.82
578.74	1108.24
579.09	1110.35
579.44	1100.75
579.80	1097.95
580.15	1091.39
580.50	1091.39
580.85	1097.24
581.20	1111.99
581.55	1123.22
581.90	1121.82
582.25	1126.50
582.60	1116.67
582.95	1104.50
583.30	1102.86
583.65	1102.16
584.00	1097.71
584.35	1106.37
584.71	1107.31
585.06	1099.58
585.41	1094.43
585.76	1098.18
586.11	1087.18
586.46	1088.82
586.81	1095.84
587.16	1106.84
587.51	1109.18
587.86	1115.50
588.21	1116.20
588.56	1110.12
588.91	1109.65
589.26	1099.58
589.61	1101.92
589.96	1102.16
590.31	1100.29
590.66	1104.73
591.01	1105.67
591.36	1098.18
591.71	1091.86
592.06	1098.88
592.41	1089.99
592.76	1100.29
593.10	1093.26
593.45	1099.82
593.80	1092.80
594.15	1093.03
594.50	1089.29
594.85	1102.86
595.20	1089.99
595.55	1098.41
595.90	1090.22
596.25	1088.58
596.60	1094.90
596.95	1100.29
597.30	1087.88
597.64	1151.08
597.99	1154.59
598.34	1144.29
598.69	1148.50
599.04	1160.67
599.39	1097.01
599.74	1094.20
600.09	1093.97
600.44	1103.09
600.78	1096.07
601.13	1103.56
601.48	1095.84
601.83	1094.20
602.18	1083.90
602.53	1088.12
602.88	1088.12
603.22	1094.90
603.57	1097.95
603.92	1097.71
604.27	1102.39
604.62	1107.31
604.97	1096.31
605.31	1103.33
605.66	1105.67
606.01	1099.35
606.36	1099.58
606.71	1106.37
607.05	1097.01
607.40	1078.52
607.75	1075.71
608.10	1078.75
608.44	1086.01
608.79	1087.41
609.14	1102.39
609.49	1097.71
609.84	1087.65
610.18	1084.84
610.53	1091.63
610.88	1093.97
611.23	1107.54
611.57	1102.63
611.92	1100.99
612.27	1100.05
612.62	1098.65
612.96	1090.92
613.31	1098.41
613.66	1101.69
614.00	1096.31
614.35	1102.86
614.70	1101.22
615.05	1104.26
615.39	1099.12
615.74	1099.12
616.09	1102.86
616.43	1104.26
616.78	1100.99
617.13	1100.75
617.47	1096.07
617.82	1080.63
618.17	1082.50
618.51	1088.82
618.86	1088.82
619.21	1100.99
619.55	1106.61
619.90	1105.90
620.25	1103.33
620.59	1111.05
620.94	1107.78
621.29	1102.63
621.63	1099.12
621.98	1090.46
622.32	1085.31
622.67	1085.54
623.02	1082.03
623.36	1086.71
623.71	1089.29
624.05	1080.63
624.40	1079.92
624.75	1094.90
625.09	1094.43
625.44	1097.48
625.78	1099.12
626.13	1091.86
626.48	1088.35
626.82	1093.73
627.17	1091.16
627.51	1098.65
627.86	1096.54
628.20	1103.56
628.55	1094.43
628.89	1100.05
629.24	1102.86
629.58	1110.35
629.93	1102.39
630.28	1102.86
630.62	1108.95
630.97	1112.69
631.31	1108.24
631.66	1100.75
632.00	1097.95
632.35	1086.71
632.69	1079.92
633.04	1094.90
633.38	1107.07
633.73	1118.07
634.07	1116.90
634.42	1112.46
634.76	1100.99
635.11	1093.26
635.45	1092.56
635.79	1113.39
636.14	1123.22
636.48	1117.84
636.83	1123.22
637.17	1114.10
637.52	1092.33
637.86	1093.50
638.21	1095.14
638.55	1098.41
638.89	1096.78
639.24	1098.88
639.58	1088.82
639.93	1090.46
640.27	1071.50
640.61	1078.75
640.96	1072.90
641.30	1073.14
641.65	1069.62
641.99	1087.65
642.33	1083.20
642.68	1089.52
643.02	1087.65
643.37	1093.03
643.71	1084.60
644.05	1089.52
644.40	1088.58
644.74	1092.80
645.08	1085.31
645.43	1080.63
645.77	1081.80
646.11	1079.22
646.46	1074.07
646.80	1076.41
647.14	1080.39
647.49	1073.84
647.83	1076.41
648.17	1076.18
648.52	1075.71
648.86	1085.31
649.20	1082.50
649.55	1088.12
649.89	1092.56
650.23	1098.88
650.57	1083.20
650.92	1089.75
651.26	1092.09
651.60	1087.88
651.95	1088.58
652.29	1091.63
652.63	1093.03
652.97	1082.97
653.32	1074.31
653.66	1070.09
654.00	1076.88
654.34	1080.16
654.69	1087.18
655.03	1107.07
655.37	1097.95
655.71	1097.71
656.05	1089.52
656.40	1090.22
656.74	1079.92
657.08	1088.12
657.42	1084.14
657.76	1083.20
658.11	1079.46
658.45	1078.99
658.79	1078.28
659.13	1076.41
659.47	1083.20
659.82	1084.60
660.16	1089.75
660.50	1097.48
660.84	1101.92
661.18	1101.46
661.52	1104.03
661.87	1104.03
662.21	1095.37
662.55	1086.24
662.89	1089.05
663.23	1090.22
663.57	1085.77
663.91	1087.41
664.25	1101.22
664.60	1094.20
664.94	1091.63
665.28	1095.60
665.62	1102.39
665.96	1100.52
666.30	1109.88
666.64	1106.61
666.98	1106.37
667.32	1100.52
667.66	1108.24
668.01	1097.48
668.35	1105.20
668.69	1103.80
669.03	1118.07
669.37	1106.14
669.71	1105.44
670.05	1097.71
670.39	1099.82
670.73	1090.46
671.07	1090.69
671.41	1096.78
671.75	1098.18
672.09	1088.82
672.43	1088.35
672.77	1088.12
673.11	1086.48
673.45	1076.41
673.79	1077.82
674.13	1080.86
674.47	1076.65
674.81	1076.65
675.15	1077.11
675.49	1075.71
675.83	1064.94
676.17	1068.22
676.51	1073.60
676.85	1077.11
677.19	1085.07
677.53	1090.69
677.87	1093.26
678.21	1092.09
678.55	1105.20
678.89	1106.37
679.23	1100.29
679.57	1100.75
679.90	1094.20
680.24	1082.26
680.58	1084.14
680.92	1088.12
681.26	1087.65
681.60	1091.16
681.94	1088.35
682.28	1085.07
682.62	1085.77
682.96	1091.63
683.29	1093.73
683.63	1094.20
683.97	1097.01
684.31	1099.58
684.65	1098.88
684.99	1087.88
685.33	1098.88
685.67	1094.20
686.00	1098.41
686.34	1093.03
686.68	1096.07
687.02	1093.50
687.36	1104.03
687.70	1111.75
688.03	1118.54
688.37	1124.16
688.71	1126.50
689.05	1120.18
689.39	1107.07
689.72	1104.97
690.06	1102.86
690.40	1100.05
690.74	1093.03
691.08	1095.37
691.41	1088.35
691.75	1096.07
692.09	1089.99
692.43	1100.05
692.76	1098.41
693.10	1094.67
693.44	1089.75
693.78	1092.33
694.11	1082.03
694.45	1080.86
694.79	1086.71
695.13	1082.50
695.46	1085.54
695.80	1088.82
696.14	1090.69
696.48	1092.80
696.81	1092.80
697.15	1099.58
697.49	1098.88
697.82	1096.78
698.16	1091.39
698.50	1091.16
698.83	1080.63
699.17	1084.37
699.51	1076.41
699.84	1082.26
700.18	1088.58
700.52	1089.75
700.85	1085.54
701.19	1093.50
701.53	1094.20
701.86	1096.31
702.20	1117.61
702.54	1123.93
702.87	1117.61
703.21	1109.41
703.55	1100.29
703.88	1087.88
704.22	1088.35
704.55	1099.35
704.89	1104.26
705.23	1107.78
705.56	1103.09
705.90	1109.65
706.23	1108.95
706.57	1109.41
706.91	1111.29
707.24	1103.33
707.58	1092.09
707.91	1076.65
708.25	1074.54
708.58	1066.35
708.92	1066.11
709.26	1066.11
709.59	1076.88
709.93	1077.11
710.26	1071.73
710.60	1073.14
710.93	1078.05
711.27	1084.37
711.60	1085.07
711.94	1099.82
712.27	1106.14
712.61	1095.60
712.94	1089.99
713.28	1092.80
713.61	1087.41
713.95	1082.97
714.28	1091.86
714.62	1091.63
714.95	1088.35
715.29	1097.71
715.62	1097.48
715.96	1100.29
716.29	1097.71
716.63	1095.14
716.96	1088.12
717.29	1090.46
717.63	1091.39
717.96	1092.80
718.30	1087.41
718.63	1085.31
718.97	1077.35
719.30	1065.88
719.63	1061.43
719.97	1066.11
720.30	1060.50
720.64	1079.92
720.97	1081.56
721.30	1085.77
721.64	1087.41
721.97	1085.07
722.31	1075.24
722.64	1089.52
722.97	1096.54
723.31	1093.73
723.64	1103.33
723.97	1104.50
724.31	1095.37
724.64	1092.09
724.98	1099.82
725.31	1103.80
725.64	1095.84
725.98	1095.84
726.31	1084.14
726.64	1084.84
726.97	1078.28
727.31	1088.58
727.64	1084.14
727.97	1098.65
728.31	1081.80
728.64	1082.97
728.97	1072.67
729.31	1079.69
729.64	1074.31
729.97	1087.41
730.30	1083.67
730.64	1083.90
730.97	1082.97
731.30	1075.01
731.63	1070.33
731.97	1066.58
732.30	1069.16
732.63	1059.33
732.96	1062.14
733.30	1067.99
733.63	1078.28
733.96	1082.26
734.29	1087.18
734.63	1088.82
734.96	1087.18
735.29	1090.22
735.62	1088.35
735.95	1082.50
736.29	1078.05
736.62	1069.16
736.95	1063.07
737.28	1061.20
737.61	1071.03
737.94	1077.35
738.28	1082.73
738.61	1081.56
738.94	1074.54
739.27	1069.39
739.60	1074.31
739.93	1078.75
740.27	1075.94
740.60	1074.77
740.93	1075.01
741.26	1070.80
741.59	1069.86
741.92	1073.37
742.25	1086.48
742.58	1089.99
742.91	1085.77
743.25	1089.52
743.58	1098.88
743.91	1099.12
744.24	1095.37
744.57	1099.35
744.90	1094.20
745.23	1092.33
745.56	1091.39
745.89	1100.75
746.22	1094.43
746.55	1094.20
746.88	1093.03
747.21	1087.88
747.54	1081.33
747.87	1091.39
748.20	1096.31
748.53	1102.16
748.87	1102.63
749.20	1102.86
749.53	1096.78
749.86	1100.99
750.19	1100.29
750.52	1105.20
750.85	1100.05
751.18	1097.95
751.51	1093.26
751.84	1087.41
752.16	1087.65
752.49	1088.35
752.82	1087.88
753.15	1085.77
753.48	1082.03
753.81	1074.77
754.14	1086.94
754.47	1095.37
754.80	1096.31
755.13	1093.97
755.46	1107.31
755.79	1099.82
756.12	1101.22
756.45	1085.77
756.78	1083.90
757.11	1074.77
757.43	1078.75
757.76	1072.43
758.09	1085.77
758.42	1092.09
758.75	1091.39
759.08	1080.86
759.41	1076.65
759.74	1075.01
760.07	1068.45
760.39	1061.67
760.72	1068.45
761.05	1076.18
761.38	1073.84
761.71	1074.77
762.04	1076.41
762.36	1077.11
762.69	1071.97
763.02	1079.92
763.35	1071.26
763.68	1081.80
764.01	1083.43
