SpectraSuite Data File
++++++++++++++++++++++++++++++++++++
Date: Mon Aug 26 10:24:43 PDT 2019
User: corrico
Dark Spectrum Present: No
Reference Spectrum Present: No
Number of Sampled Component Spectra: 1
Spectrometers: USB2+H06089
Integration Time (usec): 10000 (USB2+H06089)
Spectra Averaged: 2 (USB2+H06089)
Boxcar Smoothing: 2 (USB2+H06089)
Correct for Electrical Dark: No (USB2+H06089)
Strobe/Lamp Enabled: No (USB2+H06089)
Correct for Detector Non-linearity: No (USB2+H06089)
Correct for Stray Light: No (USB2+H06089)
Number of Pixels in Processed Spectrum: 2048
>>>>>Begin Processed Spectral Data<<<<<
339.70	1053.24
340.07	1053.24
340.45	1016.26
340.82	993.56
341.19	957.75
341.57	935.28
341.94	927.09
342.31	907.89
342.69	901.34
343.06	906.72
343.43	902.28
343.81	900.17
344.18	905.55
344.55	904.85
344.93	909.30
345.30	916.55
345.67	923.34
346.04	937.38
346.42	953.77
346.79	976.47
347.16	976.00
347.54	989.34
347.91	993.32
348.28	998.24
348.65	1001.05
349.03	1011.35
349.40	1014.39
349.77	1023.28
350.14	1035.45
350.52	1031.01
350.89	1048.33
351.26	1066.82
351.63	1070.80
352.01	1066.58
352.38	1070.33
352.75	1067.99
353.12	1067.05
353.50	1076.41
353.87	1081.33
354.24	1086.94
354.61	1093.50
354.98	1089.29
355.36	1090.92
355.73	1098.65
356.10	1102.39
356.47	1102.39
356.84	1104.50
357.22	1104.26
357.59	1100.52
357.96	1106.61
358.33	1103.80
358.70	1104.26
359.08	1111.99
359.45	1112.46
359.82	1109.18
360.19	1109.41
360.56	1120.65
360.94	1115.97
361.31	1110.58
361.68	1108.95
362.05	1107.31
362.42	1099.82
362.79	1090.46
363.16	1086.94
363.54	1090.46
363.91	1086.71
364.28	1075.71
364.65	1084.14
365.02	1099.35
365.39	1094.20
365.76	1097.01
366.14	1097.01
366.51	1088.58
366.88	1074.54
367.25	1072.43
367.62	1070.80
367.99	1064.48
368.36	1068.69
368.73	1075.01
369.10	1067.75
369.48	1067.05
369.85	1086.94
370.22	1081.33
370.59	1084.84
370.96	1094.43
371.33	1104.50
371.70	1100.99
372.07	1100.05
372.44	1106.14
372.81	1108.95
373.18	1104.03
373.55	1094.20
373.93	1100.99
374.30	1093.03
374.67	1092.09
375.04	1092.33
375.41	1107.07
375.78	1098.41
376.15	1105.90
376.52	1101.46
376.89	1110.58
377.26	1102.16
377.63	1111.29
378.00	1102.63
378.37	1094.90
378.74	1090.69
379.11	1096.07
379.48	1096.78
379.85	1102.63
380.22	1117.14
380.59	1110.58
380.96	1108.71
381.33	1108.71
381.70	1093.97
382.07	1091.86
382.44	1093.50
382.81	1094.67
383.18	1098.41
383.55	1109.65
383.92	1112.69
384.29	1116.44
384.66	1117.84
385.03	1111.05
385.40	1114.09
385.77	1115.50
386.14	1115.50
386.51	1115.50
386.88	1117.61
387.25	1126.03
387.62	1124.86
387.99	1125.56
388.36	1133.99
388.73	1140.31
389.10	1131.18
389.46	1137.27
389.83	1139.37
390.20	1125.33
390.57	1127.44
390.94	1137.50
391.31	1128.61
391.68	1130.95
392.05	1126.73
392.42	1127.90
392.79	1124.39
393.16	1125.80
393.53	1118.54
393.89	1127.44
394.26	1129.31
394.63	1126.97
395.00	1131.65
395.37	1138.67
395.74	1137.97
396.11	1139.84
396.48	1151.54
396.84	1157.86
397.21	1155.29
397.58	1153.65
397.95	1159.50
398.32	1163.01
398.69	1162.08
399.06	1166.99
399.42	1186.18
399.79	1186.18
400.16	1183.84
400.53	1189.46
400.90	1193.21
401.27	1198.59
401.64	1204.91
402.00	1201.40
402.37	1198.82
402.74	1210.53
403.11	1221.76
403.48	1232.99
403.84	1246.34
404.21	1273.95
404.58	1282.15
404.95	1299.00
405.32	1315.15
405.68	1340.89
406.05	1357.74
406.42	1383.02
406.79	1405.96
407.16	1438.03
407.52	1458.39
407.89	1491.62
408.26	1530.48
408.63	1563.48
408.99	1595.31
409.36	1644.69
409.73	1688.93
410.10	1738.78
410.47	1782.08
410.83	1842.00
411.20	1908.00
411.57	1972.60
411.94	2055.22
412.30	2124.04
412.67	2198.93
413.04	2285.07
413.40	2378.22
413.77	2473.71
414.14	2600.80
414.51	2736.79
414.87	2857.33
415.24	2990.27
415.61	3140.06
415.97	3293.37
416.34	3457.91
416.71	3641.87
417.08	3830.05
417.44	4011.68
417.81	4230.28
418.18	4450.53
418.54	4731.86
418.91	5005.47
419.28	5293.82
419.64	5605.82
420.01	5926.24
420.38	6233.31
420.74	6587.91
421.11	6978.31
421.48	7339.92
421.84	7755.83
422.21	8177.60
422.58	8659.98
422.94	9150.09
423.31	9705.97
423.68	10312.87
424.04	10920.24
424.41	11541.88
424.77	12210.34
425.14	12856.33
425.51	13509.34
425.87	14251.52
426.24	15005.88
426.61	15807.04
426.97	16746.30
427.34	17655.83
427.70	18699.01
428.07	19684.14
428.44	20716.55
428.80	21749.90
429.17	22834.50
429.53	23874.63
429.90	25100.61
430.27	26217.51
430.63	27293.92
431.00	28577.94
431.36	29913.68
431.73	31068.97
432.09	32370.08
432.46	33682.65
432.83	35088.38
433.19	36327.69
433.56	37854.42
433.92	39356.11
434.29	40838.84
434.65	42075.11
435.02	43331.98
435.38	44488.43
435.75	45355.14
436.11	46608.49
436.48	47636.92
436.84	48713.80
437.21	49676.00
437.57	50679.62
437.94	51267.33
438.30	51910.27
438.67	52257.37
439.03	52438.06
439.40	52638.65
439.76	52503.37
440.13	52316.59
440.49	52310.97
440.86	51989.85
441.22	51623.79
441.59	51204.13
441.95	50620.40
442.32	49696.13
442.68	48986.48
443.05	48019.13
443.41	47044.53
443.78	45944.95
444.14	44939.92
444.51	43577.03
444.87	42557.49
445.24	41336.44
445.60	40220.00
445.96	39065.41
446.33	38303.57
446.69	37168.41
447.06	36280.88
447.42	35293.87
447.79	34144.91
448.15	33102.43
448.51	32127.36
448.88	31279.86
449.24	30325.85
449.61	29733.23
449.97	28935.34
450.33	28219.84
450.70	27340.27
451.06	26738.28
451.43	25925.41
451.79	25383.34
452.15	24818.34
452.52	24263.63
452.88	23688.80
453.24	23152.81
453.61	22431.69
453.97	21811.22
454.34	21191.21
454.70	20629.95
455.06	20027.96
455.43	19401.64
455.79	18650.09
456.15	18099.13
456.52	17444.95
456.88	16909.20
457.24	16323.36
457.61	15856.90
457.97	15267.78
458.33	14719.16
458.70	14190.67
459.06	13684.18
459.42	13233.39
459.79	12746.56
460.15	12336.50
460.51	11866.28
460.88	11460.67
461.24	11053.41
461.60	10740.48
461.96	10387.53
462.33	10092.39
462.69	9790.46
463.05	9488.06
463.42	9200.18
463.78	8927.27
464.14	8639.39
464.50	8398.54
464.87	8169.41
465.23	7908.90
465.59	7680.00
465.95	7457.65
466.32	7253.32
466.68	7025.59
467.04	6839.98
467.40	6646.19
467.77	6489.37
468.13	6287.85
468.49	6128.46
468.85	5985.22
469.22	5854.85
469.58	5721.67
469.94	5619.16
470.30	5480.83
470.66	5359.36
471.03	5245.14
471.39	5147.77
471.75	5049.47
472.11	4951.64
472.47	4875.80
472.84	4766.50
473.20	4654.39
473.56	4537.83
473.92	4409.34
474.28	4303.31
474.65	4227.48
475.01	4165.45
475.37	4096.41
475.73	4047.25
476.09	3957.38
476.45	3897.93
476.81	3790.03
477.18	3701.09
477.54	3620.11
477.90	3555.98
478.26	3453.46
478.62	3397.29
478.98	3340.18
479.34	3296.18
479.71	3249.60
480.07	3222.22
480.43	3179.38
480.79	3128.59
481.15	3076.63
481.51	3021.63
481.87	2964.29
482.23	2921.22
482.59	2875.35
482.96	2834.86
483.32	2794.60
483.68	2757.85
484.04	2702.15
484.40	2669.38
484.76	2636.85
485.12	2596.12
485.48	2543.23
485.84	2521.46
486.20	2469.97
486.56	2425.73
486.92	2400.92
487.28	2370.49
487.64	2335.85
488.00	2317.36
488.37	2284.13
488.73	2240.13
489.09	2220.23
489.45	2172.95
489.81	2135.04
490.17	2106.48
490.53	2077.93
490.89	2039.54
491.25	2034.39
491.61	2014.97
491.97	1988.05
492.33	1969.33
492.69	1949.43
493.05	1910.11
493.41	1877.11
493.77	1857.68
494.13	1829.13
494.49	1803.15
494.85	1798.00
495.21	1783.02
495.57	1770.15
495.93	1754.23
496.29	1728.72
496.64	1710.23
497.00	1691.04
497.36	1662.95
497.72	1643.29
498.08	1634.86
498.44	1607.95
498.80	1593.90
499.16	1582.90
499.52	1568.39
499.88	1571.20
500.24	1559.03
500.60	1538.20
500.96	1519.71
501.32	1499.35
501.68	1481.79
502.03	1470.56
502.39	1468.22
502.75	1457.45
503.11	1453.94
503.47	1437.32
503.83	1424.68
504.19	1417.19
504.55	1409.70
504.91	1391.21
505.26	1375.53
505.62	1365.00
505.98	1353.77
506.34	1343.70
506.70	1345.34
507.06	1345.57
507.42	1344.17
507.78	1340.89
508.13	1343.94
508.49	1332.70
508.85	1325.45
509.21	1329.42
509.57	1325.68
509.93	1317.25
510.28	1320.06
510.64	1310.23
511.00	1294.08
511.36	1285.89
511.72	1280.27
512.07	1267.87
512.43	1265.29
512.79	1266.00
513.15	1258.97
513.51	1242.12
513.86	1238.85
514.22	1231.59
514.58	1222.93
514.94	1216.38
515.30	1219.42
515.65	1224.80
516.01	1225.27
516.37	1227.85
516.73	1226.67
517.08	1224.57
517.44	1212.40
517.80	1209.35
518.16	1203.74
518.51	1202.57
518.87	1204.67
519.23	1208.18
519.59	1206.55
519.94	1208.42
520.30	1216.14
520.66	1207.48
521.01	1201.87
521.37	1200.46
521.73	1192.97
522.09	1180.10
522.44	1194.14
522.80	1195.31
523.16	1193.91
523.51	1189.69
523.87	1190.63
524.23	1176.35
524.58	1169.33
524.94	1148.97
525.30	1152.01
525.65	1148.97
526.01	1158.57
526.37	1157.39
526.72	1169.33
527.08	1170.97
527.44	1168.16
527.79	1161.84
528.15	1164.65
528.51	1162.54
528.86	1150.84
529.22	1156.22
529.58	1159.27
529.93	1159.97
530.29	1170.27
530.65	1175.89
531.00	1168.86
531.36	1162.08
531.71	1163.25
532.07	1160.67
532.43	1158.80
532.78	1159.74
533.14	1152.01
533.49	1140.07
533.85	1133.76
534.21	1134.22
534.56	1142.65
534.92	1140.54
535.27	1153.18
535.63	1163.48
535.98	1159.97
536.34	1139.37
536.69	1136.10
537.05	1131.18
537.41	1119.71
537.76	1113.86
538.12	1124.86
538.47	1138.44
538.83	1129.78
539.18	1128.84
539.54	1126.50
539.89	1123.46
540.25	1120.41
540.60	1132.12
540.96	1124.16
541.31	1139.84
541.67	1142.88
542.02	1140.54
542.38	1138.44
542.73	1147.10
543.09	1137.27
543.44	1140.78
543.80	1140.31
544.15	1133.29
544.51	1127.44
544.86	1129.31
545.22	1124.63
545.57	1129.31
545.93	1138.67
546.28	1144.29
546.64	1149.67
546.99	1146.63
547.35	1147.80
547.70	1141.71
548.05	1134.93
548.41	1124.63
548.76	1128.61
549.12	1125.10
549.47	1125.10
549.83	1133.29
550.18	1135.63
550.53	1137.50
550.89	1131.65
551.24	1126.73
551.60	1122.29
551.95	1122.05
552.30	1125.56
552.66	1122.52
553.01	1115.03
553.37	1114.10
553.72	1122.05
554.07	1109.65
554.43	1122.75
554.78	1130.95
555.13	1136.80
555.49	1128.37
555.84	1129.54
556.19	1122.05
556.55	1128.37
556.90	1128.37
557.26	1127.44
557.61	1135.63
557.96	1135.16
558.32	1125.80
558.67	1117.37
559.02	1121.58
559.37	1116.67
559.73	1113.86
560.08	1116.90
560.43	1121.82
560.79	1115.97
561.14	1114.33
561.49	1112.46
561.85	1108.48
562.20	1108.48
562.55	1107.31
562.90	1100.75
563.26	1100.75
563.61	1102.16
563.96	1104.03
564.32	1111.99
564.67	1119.48
565.02	1124.16
565.37	1121.58
565.73	1119.24
566.08	1121.82
566.43	1127.67
566.78	1127.44
567.14	1137.50
567.49	1139.37
567.84	1135.39
568.19	1131.65
568.54	1130.48
568.90	1137.97
569.25	1138.44
569.60	1149.44
569.95	1145.93
570.31	1146.16
570.66	1132.59
571.01	1123.69
571.36	1111.99
571.71	1106.61
572.06	1097.24
572.42	1094.67
572.77	1103.33
573.12	1097.71
573.47	1106.84
573.82	1113.16
574.18	1113.86
574.53	1105.20
574.88	1114.33
575.23	1116.67
575.58	1119.95
575.93	1111.52
576.28	1106.14
576.64	1097.01
576.99	1081.33
577.34	1085.31
577.69	1099.58
578.04	1101.46
578.39	1104.03
578.74	1120.88
579.09	1117.14
579.44	1118.31
579.80	1122.52
580.15	1123.69
580.50	1117.61
580.85	1123.22
581.20	1119.48
581.55	1116.20
581.90	1117.37
582.25	1124.63
582.60	1119.95
582.95	1111.52
583.30	1114.33
583.65	1110.35
584.00	1109.18
584.35	1105.90
584.71	1109.65
585.06	1115.50
585.41	1127.44
585.76	1124.16
586.11	1120.65
586.46	1127.67
586.81	1117.84
587.16	1112.69
587.51	1105.20
587.86	1106.84
588.21	1101.22
588.56	1101.92
588.91	1099.12
589.26	1086.94
589.61	1084.14
589.96	1074.07
590.31	1075.71
590.66	1073.14
591.01	1089.05
591.36	1083.67
591.71	1093.50
592.06	1103.56
592.41	1109.88
592.76	1108.01
593.10	1116.90
593.45	1116.90
593.80	1114.80
594.15	1110.35
594.50	1110.35
594.85	1113.86
595.20	1116.44
595.55	1115.97
595.90	1111.29
596.25	1106.14
596.60	1097.95
596.95	1096.31
597.30	1093.73
597.64	1143.82
597.99	1151.54
598.34	1157.16
598.69	1158.33
599.04	1158.80
599.39	1108.95
599.74	1110.82
600.09	1111.29
600.44	1108.01
600.78	1106.61
601.13	1112.22
601.48	1104.50
601.83	1099.12
602.18	1104.50
602.53	1104.73
602.88	1100.99
603.22	1096.31
603.57	1100.52
603.92	1096.07
604.27	1091.39
604.62	1088.12
604.97	1092.56
605.31	1087.88
605.66	1089.29
606.01	1093.03
606.36	1093.03
606.71	1101.69
607.05	1113.86
607.40	1111.05
607.75	1103.80
608.10	1109.88
608.44	1095.37
608.79	1084.14
609.14	1081.80
609.49	1091.86
609.84	1089.29
610.18	1099.35
610.53	1098.65
610.88	1095.14
611.23	1088.82
611.57	1077.58
611.92	1070.56
612.27	1070.80
612.62	1087.18
612.96	1096.07
613.31	1105.20
613.66	1115.03
614.00	1117.37
614.35	1112.69
614.70	1108.24
615.05	1114.80
615.39	1104.73
615.74	1095.60
616.09	1089.05
616.43	1081.56
616.78	1080.16
617.13	1092.56
617.47	1103.56
617.82	1103.56
618.17	1107.31
618.51	1092.80
618.86	1085.54
619.21	1082.73
619.55	1096.07
619.90	1095.84
620.25	1110.12
620.59	1104.50
620.94	1099.12
621.29	1089.75
621.63	1086.94
621.98	1080.86
622.32	1083.43
622.67	1093.50
623.02	1086.94
623.36	1086.71
623.71	1088.82
624.05	1090.46
624.40	1087.88
624.75	1106.37
625.09	1110.35
625.44	1100.75
625.78	1098.41
626.13	1093.50
626.48	1073.84
626.82	1079.69
627.17	1091.16
627.51	1096.78
627.86	1105.20
628.20	1111.05
628.55	1097.95
628.89	1100.52
629.24	1093.73
629.58	1089.52
629.93	1087.41
630.28	1094.67
630.62	1083.20
630.97	1089.05
631.31	1085.77
631.66	1089.75
632.00	1096.78
632.35	1108.48
632.69	1103.80
633.04	1115.73
633.38	1108.95
633.73	1100.99
634.07	1104.26
634.42	1100.05
634.76	1079.22
635.11	1072.90
635.45	1081.80
635.79	1070.33
636.14	1080.39
636.48	1095.37
636.83	1105.67
637.17	1103.09
637.52	1105.20
637.86	1100.99
638.21	1101.22
638.55	1099.58
638.89	1101.22
639.24	1096.07
639.58	1090.69
639.93	1082.26
640.27	1078.52
640.61	1073.37
640.96	1078.75
641.30	1085.07
641.65	1087.41
641.99	1098.41
642.33	1095.14
642.68	1093.26
643.02	1088.12
643.37	1102.39
643.71	1102.63
644.05	1109.41
644.40	1114.80
644.74	1116.67
645.08	1096.31
645.43	1089.99
645.77	1088.58
646.11	1081.09
646.46	1083.90
646.80	1100.05
647.14	1096.07
647.49	1100.75
647.83	1110.35
648.17	1100.05
648.52	1089.52
648.86	1081.80
649.20	1073.14
649.55	1060.50
649.89	1075.94
650.23	1080.63
650.57	1103.09
650.92	1098.65
651.26	1111.29
651.60	1116.67
651.95	1115.73
652.29	1108.71
652.63	1116.67
652.97	1115.50
653.32	1105.44
653.66	1109.18
654.00	1102.39
654.34	1100.05
654.69	1095.60
655.03	1092.56
655.37	1086.24
655.71	1092.80
656.05	1094.20
656.40	1089.75
656.74	1089.99
657.08	1091.63
657.42	1085.31
657.76	1085.07
658.11	1082.26
658.45	1083.20
658.79	1083.43
659.13	1093.73
659.47	1095.84
659.82	1105.67
660.16	1097.95
660.50	1100.75
660.84	1102.86
661.18	1105.90
661.52	1107.78
661.87	1119.01
662.21	1118.07
662.55	1112.46
662.89	1108.95
663.23	1096.31
663.57	1099.12
663.91	1097.71
664.25	1097.71
664.60	1098.65
664.94	1104.97
665.28	1097.71
665.62	1088.58
665.96	1083.67
666.30	1082.73
666.64	1089.52
666.98	1089.75
667.32	1096.78
667.66	1104.50
668.01	1094.90
668.35	1095.37
668.69	1104.03
669.03	1101.46
669.37	1096.07
669.71	1103.09
670.05	1098.65
670.39	1095.37
670.73	1096.78
671.07	1099.58
671.41	1097.71
671.75	1093.03
672.09	1096.54
672.43	1096.54
672.77	1098.18
673.11	1102.39
673.45	1104.97
673.79	1087.88
674.13	1082.26
674.47	1075.01
674.81	1074.77
675.15	1076.41
675.49	1083.67
675.83	1097.95
676.17	1103.09
676.51	1103.33
676.85	1109.65
677.19	1117.37
677.53	1113.86
677.87	1104.97
678.21	1101.92
678.55	1096.07
678.89	1088.58
679.23	1083.43
679.57	1094.90
679.90	1097.24
680.24	1083.90
680.58	1085.77
680.92	1087.41
681.26	1078.05
681.60	1082.26
681.94	1087.88
682.28	1087.18
682.62	1085.77
682.96	1084.84
683.29	1080.63
683.63	1097.71
683.97	1105.44
684.31	1109.88
684.65	1113.39
684.99	1110.58
685.33	1101.92
685.67	1088.82
686.00	1087.65
686.34	1080.63
686.68	1082.26
687.02	1085.07
687.36	1091.16
687.70	1086.71
688.03	1095.60
688.37	1087.88
688.71	1091.86
689.05	1088.12
689.39	1092.09
689.72	1097.01
690.06	1101.92
690.40	1090.69
690.74	1090.69
691.08	1089.52
691.41	1082.03
691.75	1085.31
692.09	1088.82
692.43	1093.73
692.76	1089.29
693.10	1088.35
693.44	1096.78
693.78	1093.26
694.11	1092.33
694.45	1100.05
694.79	1099.35
695.13	1087.18
695.46	1086.94
695.80	1086.71
696.14	1079.46
696.48	1078.99
696.81	1082.97
697.15	1095.37
697.49	1105.20
697.82	1114.56
698.16	1118.07
698.50	1120.65
698.83	1108.24
699.17	1100.52
699.51	1098.41
699.84	1097.24
700.18	1087.88
700.52	1085.31
700.85	1080.39
701.19	1075.71
701.53	1082.97
701.86	1079.22
702.20	1084.60
702.54	1092.56
702.87	1091.63
703.21	1088.58
703.55	1101.69
703.88	1097.01
704.22	1099.35
704.55	1102.16
704.89	1093.26
705.23	1089.75
705.56	1092.80
705.90	1087.18
706.23	1080.63
706.57	1087.88
706.91	1093.03
707.24	1095.37
707.58	1094.67
707.91	1097.71
708.25	1088.58
708.58	1084.60
708.92	1085.31
709.26	1087.88
709.59	1086.71
709.93	1089.05
710.26	1085.07
710.60	1073.14
710.93	1067.28
711.27	1067.75
711.60	1064.94
711.94	1068.22
712.27	1082.97
712.61	1088.58
712.94	1081.09
713.28	1083.43
713.61	1076.88
713.95	1078.05
714.28	1079.92
714.62	1090.46
714.95	1095.60
715.29	1093.73
715.62	1093.03
715.96	1086.48
716.29	1088.82
716.63	1088.12
716.96	1099.35
717.29	1099.82
717.63	1099.58
717.96	1095.14
718.30	1087.41
718.63	1079.69
718.97	1074.54
719.30	1086.94
719.63	1086.48
719.97	1093.26
720.30	1101.22
720.64	1097.24
720.97	1089.99
721.30	1097.48
721.64	1093.97
721.97	1086.94
722.31	1082.03
722.64	1080.63
722.97	1076.65
723.31	1072.67
723.64	1071.97
723.97	1088.12
724.31	1086.48
724.64	1089.52
724.98	1087.18
725.31	1082.73
725.64	1068.69
725.98	1068.22
726.31	1055.35
726.64	1062.60
726.97	1067.99
727.31	1068.45
727.64	1072.20
727.97	1068.45
728.31	1076.41
728.64	1084.60
728.97	1090.92
729.31	1088.35
729.64	1097.95
729.97	1089.75
730.30	1071.50
730.64	1076.41
730.97	1066.58
731.30	1073.84
731.63	1087.88
731.97	1100.52
732.30	1085.54
732.63	1101.22
732.96	1088.12
733.30	1074.31
733.63	1063.54
733.96	1071.03
734.29	1057.22
734.63	1069.16
734.96	1080.39
735.29	1087.88
735.62	1097.48
735.95	1110.82
736.29	1108.48
736.62	1089.75
736.95	1091.39
737.28	1081.09
737.61	1072.67
737.94	1072.90
738.28	1084.60
738.61	1083.67
738.94	1091.39
739.27	1103.33
739.60	1101.46
739.93	1096.78
740.27	1106.14
740.60	1108.95
740.93	1091.16
741.26	1104.97
741.59	1108.24
741.92	1098.41
742.25	1093.03
742.58	1107.31
742.91	1093.03
743.25	1093.50
743.58	1093.03
743.91	1095.60
744.24	1076.41
744.57	1072.90
744.90	1079.46
745.23	1085.07
745.56	1072.90
745.89	1080.39
746.22	1075.94
746.55	1066.58
746.88	1051.60
747.21	1055.82
747.54	1056.28
747.87	1067.75
748.20	1069.86
748.53	1081.33
748.87	1079.46
749.20	1084.14
749.53	1080.16
749.86	1075.01
750.19	1077.35
750.52	1085.31
750.85	1078.52
751.18	1068.69
751.51	1067.28
751.84	1064.94
752.16	1052.54
752.49	1052.54
752.82	1065.88
753.15	1066.11
753.48	1063.07
753.81	1064.48
754.14	1073.60
754.47	1069.39
754.80	1063.77
755.13	1071.97
755.46	1077.35
755.79	1073.60
756.12	1088.35
756.45	1100.52
756.78	1097.01
757.11	1098.65
757.43	1093.03
757.76	1066.58
758.09	1065.88
758.42	1066.58
758.75	1067.28
759.08	1069.86
759.41	1082.03
759.74	1078.28
760.07	1067.28
760.39	1065.88
760.72	1068.45
761.05	1076.18
761.38	1076.18
761.71	1082.03
762.04	1084.37
762.36	1083.90
762.69	1079.69
763.02	1080.39
763.35	1087.18
763.68	1086.71
764.01	1088.35
