SpectraSuite Data File
++++++++++++++++++++++++++++++++++++
Date: Mon Aug 26 10:24:42 PDT 2019
User: corrico
Dark Spectrum Present: No
Reference Spectrum Present: No
Number of Sampled Component Spectra: 1
Spectrometers: USB2+H06089
Integration Time (usec): 10000 (USB2+H06089)
Spectra Averaged: 2 (USB2+H06089)
Boxcar Smoothing: 2 (USB2+H06089)
Correct for Electrical Dark: No (USB2+H06089)
Strobe/Lamp Enabled: No (USB2+H06089)
Correct for Detector Non-linearity: No (USB2+H06089)
Correct for Stray Light: No (USB2+H06089)
Number of Pixels in Processed Spectrum: 2048
>>>>>Begin Processed Spectral Data<<<<<
339.70	1014.62
340.07	1014.62
340.45	981.62
340.82	957.75
341.19	934.11
341.57	917.02
341.94	912.34
342.31	919.13
342.69	923.81
343.06	924.75
343.43	919.60
343.81	913.04
344.18	907.66
344.55	902.98
344.93	906.49
345.30	912.34
345.67	918.89
346.04	931.07
346.42	943.94
346.79	950.49
347.16	959.62
347.54	977.88
347.91	978.58
348.28	985.60
348.65	994.26
349.03	1005.73
349.40	1017.66
349.77	1031.71
350.14	1048.33
350.52	1056.05
350.89	1061.20
351.26	1063.54
351.63	1067.05
352.01	1067.75
352.38	1084.37
352.75	1086.01
353.12	1088.82
353.50	1091.16
353.87	1087.18
354.24	1078.99
354.61	1094.67
354.98	1103.80
355.36	1109.18
355.73	1115.97
356.10	1114.10
356.47	1111.05
356.84	1103.56
357.22	1098.88
357.59	1096.78
357.96	1110.58
358.33	1098.88
358.70	1096.54
359.08	1100.52
359.45	1100.99
359.82	1098.65
360.19	1106.37
360.56	1102.86
360.94	1098.41
361.31	1106.61
361.68	1098.18
362.05	1094.43
362.42	1089.75
362.79	1097.95
363.16	1097.01
363.54	1090.46
363.91	1092.56
364.28	1098.18
364.65	1096.07
365.02	1088.58
365.39	1101.46
365.76	1106.14
366.14	1103.80
366.51	1097.95
366.88	1103.56
367.25	1094.90
367.62	1092.09
367.99	1093.97
368.36	1096.54
368.73	1089.99
369.10	1086.01
369.48	1082.26
369.85	1087.18
370.22	1087.18
370.59	1091.86
370.96	1103.33
371.33	1110.35
371.70	1115.03
372.07	1118.31
372.44	1125.56
372.81	1125.10
373.18	1126.50
373.55	1121.35
373.93	1112.22
374.30	1102.63
374.67	1103.33
375.04	1096.07
375.41	1093.03
375.78	1100.05
376.15	1099.82
376.52	1102.63
376.89	1105.44
377.26	1114.33
377.63	1112.22
378.00	1113.63
378.37	1109.88
378.74	1114.56
379.11	1108.95
379.48	1108.71
379.85	1112.22
380.22	1121.12
380.59	1109.18
380.96	1111.99
381.33	1119.71
381.70	1118.07
382.07	1112.46
382.44	1121.12
382.81	1116.44
383.18	1106.14
383.55	1108.95
383.92	1108.01
384.29	1101.46
384.66	1106.37
385.03	1111.05
385.40	1112.92
385.77	1116.20
386.14	1122.05
386.51	1120.41
386.88	1116.44
387.25	1111.29
387.62	1113.63
387.99	1114.56
388.36	1111.75
388.73	1121.35
389.10	1120.88
389.46	1108.24
389.83	1105.90
390.20	1110.35
390.57	1103.33
390.94	1108.48
391.31	1122.52
391.68	1120.65
392.05	1118.54
392.42	1136.56
392.79	1141.71
393.16	1139.37
393.53	1149.20
393.89	1168.63
394.26	1157.39
394.63	1156.22
395.00	1163.48
395.37	1162.31
395.74	1157.39
396.11	1163.01
396.48	1169.57
396.84	1159.74
397.21	1164.88
397.58	1157.39
397.95	1158.10
398.32	1158.10
398.69	1154.12
399.06	1152.01
399.42	1158.80
399.79	1160.67
400.16	1166.76
400.53	1178.93
400.90	1196.01
401.27	1204.21
401.64	1212.87
402.00	1222.70
402.37	1247.74
402.74	1249.38
403.11	1263.89
403.48	1266.23
403.84	1273.49
404.21	1290.57
404.58	1309.30
404.95	1320.06
405.32	1352.13
405.68	1374.60
406.05	1370.38
406.42	1386.53
406.79	1413.68
407.16	1434.05
407.52	1460.49
407.89	1493.96
408.26	1532.11
408.63	1566.05
408.99	1597.88
409.36	1632.76
409.73	1671.61
410.10	1715.61
410.47	1767.57
410.83	1830.06
411.20	1896.30
411.57	1974.01
411.94	2051.95
412.30	2121.93
412.67	2212.98
413.04	2303.79
413.40	2407.94
413.77	2499.93
414.14	2616.72
414.51	2716.19
414.87	2840.94
415.24	2969.91
415.61	3137.25
415.97	3306.94
416.34	3493.25
416.71	3676.98
417.08	3889.27
417.44	4072.77
417.81	4291.84
418.18	4517.00
418.54	4782.42
418.91	5020.68
419.28	5303.89
419.64	5602.31
420.01	5943.79
420.38	6260.93
420.74	6597.27
421.11	7018.56
421.48	7407.33
421.84	7825.35
422.21	8257.41
422.58	8736.99
422.94	9188.01
423.31	9712.52
423.68	10280.57
424.04	10917.43
424.41	11566.69
424.77	12214.55
425.14	12875.99
425.51	13549.13
425.87	14286.40
426.24	15062.05
426.61	15967.60
426.97	17011.25
427.34	17942.55
427.70	18952.72
428.07	19924.28
428.44	20896.54
428.80	21807.01
429.17	22873.59
429.53	24001.02
429.90	25353.62
430.27	26484.10
430.63	27691.58
431.00	28985.43
431.36	30291.92
431.73	31413.27
432.09	32756.50
432.46	34027.18
432.83	35371.35
433.19	36607.85
433.56	38137.86
433.92	39712.81
434.29	41208.64
434.65	42625.37
435.02	43940.28
435.38	45084.10
435.75	45881.05
436.11	47110.30
436.48	48128.90
436.84	49140.72
437.21	50123.04
437.57	51109.58
437.94	51760.25
438.30	52328.29
438.67	52637.71
439.03	52773.23
439.40	52944.56
439.76	52774.17
440.13	52590.20
440.49	52636.54
440.86	52342.57
441.22	52062.41
441.59	51637.13
441.95	51114.73
442.32	50175.70
442.68	49498.12
443.05	48532.65
443.41	47604.39
443.78	46527.98
444.14	45562.27
444.51	44187.68
444.87	43087.39
445.24	41815.54
445.60	40647.38
445.96	39534.92
446.33	38713.87
446.69	37605.62
447.06	36752.96
447.42	35714.94
447.79	34483.81
448.15	33427.53
448.51	32426.02
448.88	31537.55
449.24	30575.59
449.61	29965.18
449.97	29207.31
450.33	28491.34
450.70	27597.49
451.06	27014.23
451.43	26238.58
451.79	25649.23
452.15	25051.92
452.52	24472.17
452.88	23915.59
453.24	23386.63
453.61	22709.98
453.97	22133.28
454.34	21523.57
454.70	20940.77
455.06	20348.15
455.43	19691.40
455.79	18929.55
456.15	18352.37
456.52	17638.04
456.88	17050.80
457.24	16448.35
457.61	15999.90
457.97	15434.90
458.33	14916.94
458.70	14348.19
459.06	13820.63
459.42	13337.31
459.79	12834.09
460.15	12431.99
460.51	12006.71
460.88	11605.31
461.24	11168.10
461.60	10828.25
461.96	10475.77
462.33	10164.71
462.69	9870.27
463.05	9547.75
463.42	9250.73
463.78	8955.36
464.14	8668.88
464.50	8413.52
464.87	8185.56
465.23	7941.67
465.59	7716.51
465.95	7508.20
466.32	7300.60
466.68	7086.21
467.04	6885.39
467.40	6735.13
467.77	6566.14
468.13	6386.15
468.49	6238.70
468.85	6087.73
469.22	5926.47
469.58	5772.93
469.94	5667.61
470.30	5555.03
470.66	5433.55
471.03	5299.44
471.39	5184.99
471.75	5048.77
472.11	4951.17
472.47	4878.85
472.84	4797.63
473.20	4684.11
473.56	4594.24
473.92	4466.21
474.28	4373.99
474.65	4285.52
475.01	4234.03
475.37	4148.83
475.73	4095.70
476.09	3999.27
476.45	3916.18
476.81	3822.33
477.18	3742.28
477.54	3649.83
477.90	3594.59
478.26	3508.23
478.62	3448.78
478.98	3384.65
479.34	3331.99
479.71	3277.92
480.07	3229.94
480.43	3190.38
480.79	3144.04
481.15	3081.55
481.51	3018.82
481.87	2977.86
482.23	2916.78
482.59	2871.14
482.96	2851.24
483.32	2800.69
483.68	2752.47
484.04	2725.09
484.40	2684.59
484.76	2636.38
485.12	2593.55
485.48	2557.27
485.84	2515.61
486.20	2479.10
486.56	2436.73
486.92	2424.09
487.28	2381.73
487.64	2340.30
488.00	2317.83
488.37	2288.34
488.73	2250.89
489.09	2232.87
489.45	2209.93
489.81	2173.42
490.17	2139.48
490.53	2109.52
490.89	2068.10
491.25	2044.93
491.61	2023.86
491.97	1997.65
492.33	1968.16
492.69	1950.13
493.05	1926.73
493.41	1905.43
493.77	1876.41
494.13	1860.73
494.49	1836.15
494.85	1815.32
495.21	1784.42
495.57	1768.27
495.93	1735.27
496.29	1724.04
496.64	1698.06
497.00	1671.14
497.36	1653.12
497.72	1642.59
498.08	1617.08
498.44	1604.67
498.80	1609.35
499.16	1603.50
499.52	1593.44
499.88	1577.76
500.24	1554.12
500.60	1535.39
500.96	1531.65
501.32	1511.05
501.68	1503.33
502.03	1490.22
502.39	1474.54
502.75	1445.98
503.11	1431.00
503.47	1421.41
503.83	1427.96
504.19	1415.09
504.55	1413.68
504.91	1412.98
505.26	1414.39
505.62	1401.28
505.98	1391.21
506.34	1379.28
506.70	1365.47
507.06	1349.32
507.42	1335.28
507.78	1329.42
508.13	1338.79
508.49	1340.66
508.85	1340.19
509.21	1335.98
509.57	1346.28
509.93	1327.55
510.28	1326.62
510.64	1321.70
511.00	1312.81
511.36	1298.53
511.72	1290.34
512.07	1283.55
512.43	1275.59
512.79	1279.57
513.15	1270.44
513.51	1265.06
513.86	1254.29
514.22	1243.53
514.58	1231.12
514.94	1239.08
515.30	1231.12
515.65	1235.33
516.01	1227.38
516.37	1232.99
516.73	1212.16
517.08	1220.12
517.44	1201.87
517.80	1208.18
518.16	1201.87
518.51	1199.29
518.87	1190.16
519.23	1190.63
519.59	1194.14
519.94	1184.78
520.30	1194.84
520.66	1197.42
521.01	1203.04
521.37	1199.06
521.73	1198.12
522.09	1198.35
522.44	1199.52
522.80	1190.86
523.16	1193.67
523.51	1195.55
523.87	1181.97
524.23	1168.16
524.58	1168.40
524.94	1160.44
525.30	1160.20
525.65	1163.48
526.01	1166.99
526.37	1163.01
526.72	1169.80
527.08	1170.74
527.44	1162.31
527.79	1158.33
528.15	1162.78
528.51	1152.48
528.86	1151.08
529.22	1161.84
529.58	1160.91
529.93	1160.44
530.29	1151.31
530.65	1144.05
531.00	1138.20
531.36	1150.61
531.71	1150.14
532.07	1145.69
532.43	1141.95
532.78	1142.65
533.14	1125.56
533.49	1122.52
533.85	1142.42
534.21	1147.80
534.56	1137.03
534.92	1147.56
535.27	1149.67
535.63	1139.61
535.98	1129.54
536.34	1131.41
536.69	1117.84
537.05	1114.10
537.41	1119.71
537.76	1132.12
538.12	1135.63
538.47	1147.33
538.83	1150.37
539.18	1145.93
539.54	1135.86
539.89	1131.41
540.25	1128.37
540.60	1124.63
540.96	1122.75
541.31	1124.63
541.67	1133.29
542.02	1129.07
542.38	1128.84
542.73	1137.73
543.09	1144.76
543.44	1139.61
543.80	1147.56
544.15	1145.69
544.51	1136.33
544.86	1133.52
545.22	1140.54
545.57	1130.48
545.93	1135.16
546.28	1122.05
546.64	1118.31
546.99	1116.20
547.35	1119.01
547.70	1108.48
548.05	1109.18
548.41	1106.61
548.76	1103.56
549.12	1116.20
549.47	1128.61
549.83	1139.14
550.18	1143.59
550.53	1132.35
550.89	1113.16
551.24	1101.92
551.60	1097.24
551.95	1091.86
552.30	1108.01
552.66	1113.86
553.01	1111.99
553.37	1110.12
553.72	1126.27
554.07	1109.88
554.43	1115.73
554.78	1127.67
555.13	1125.33
555.49	1121.12
555.84	1129.07
556.19	1123.22
556.55	1123.93
556.90	1134.93
557.26	1127.90
557.61	1126.73
557.96	1129.31
558.32	1120.65
558.67	1109.88
559.02	1102.39
559.37	1102.39
559.73	1106.61
560.08	1107.78
560.43	1126.03
560.79	1130.71
561.14	1132.82
561.49	1125.10
561.85	1125.80
562.20	1116.67
562.55	1112.69
562.90	1111.29
563.26	1108.48
563.61	1105.67
563.96	1102.16
564.32	1106.37
564.67	1107.07
565.02	1107.07
565.37	1106.14
565.73	1106.14
566.08	1106.61
566.43	1109.88
566.78	1113.39
567.14	1120.18
567.49	1126.27
567.84	1126.27
568.19	1119.71
568.54	1113.39
568.90	1107.07
569.25	1098.65
569.60	1100.29
569.95	1098.18
570.31	1107.31
570.66	1095.14
571.01	1104.50
571.36	1107.31
571.71	1122.99
572.06	1125.80
572.42	1136.80
572.77	1126.73
573.12	1119.71
573.47	1112.46
573.82	1098.88
574.18	1103.09
574.53	1106.61
574.88	1106.61
575.23	1101.46
575.58	1103.09
575.93	1108.95
576.28	1108.71
576.64	1115.73
576.99	1111.99
577.34	1113.63
577.69	1101.22
578.04	1098.18
578.39	1088.12
578.74	1090.22
579.09	1100.75
579.44	1103.33
579.80	1113.86
580.15	1120.65
580.50	1135.39
580.85	1124.16
581.20	1123.93
581.55	1115.27
581.90	1105.67
582.25	1091.16
582.60	1103.56
582.95	1102.16
583.30	1101.69
583.65	1110.58
584.00	1108.01
584.35	1096.54
584.71	1097.71
585.06	1102.16
585.41	1101.69
585.76	1109.88
586.11	1115.73
586.46	1125.56
586.81	1119.71
587.16	1117.61
587.51	1113.63
587.86	1115.97
588.21	1102.86
588.56	1098.18
588.91	1098.18
589.26	1098.65
589.61	1098.88
589.96	1102.86
590.31	1115.03
590.66	1118.78
591.01	1115.73
591.36	1106.14
591.71	1114.80
592.06	1113.39
592.41	1111.75
592.76	1108.95
593.10	1115.73
593.45	1102.63
593.80	1096.54
594.15	1105.44
594.50	1108.24
594.85	1111.52
595.20	1123.46
595.55	1130.95
595.90	1125.80
596.25	1133.76
596.60	1126.97
596.95	1126.03
597.30	1121.58
597.64	1170.50
597.99	1172.37
598.34	1177.52
598.69	1177.99
599.04	1177.29
599.39	1121.58
599.74	1118.54
600.09	1111.52
600.44	1108.01
600.78	1116.67
601.13	1117.14
601.48	1120.65
601.83	1129.78
602.18	1122.29
602.53	1111.99
602.88	1112.92
603.22	1100.99
603.57	1090.46
603.92	1099.58
604.27	1104.73
604.62	1103.33
604.97	1104.50
605.31	1111.99
605.66	1109.41
606.01	1102.16
606.36	1111.99
606.71	1120.65
607.05	1120.41
607.40	1115.03
607.75	1121.12
608.10	1104.26
608.44	1097.24
608.79	1084.84
609.14	1091.39
609.49	1082.73
609.84	1081.80
610.18	1085.77
610.53	1093.97
610.88	1091.86
611.23	1103.80
611.57	1108.01
611.92	1101.46
612.27	1103.80
612.62	1108.48
612.96	1101.69
613.31	1110.58
613.66	1107.54
614.00	1103.80
614.35	1098.88
614.70	1100.52
615.05	1097.71
615.39	1099.82
615.74	1098.18
616.09	1104.97
616.43	1100.29
616.78	1093.73
617.13	1100.29
617.47	1100.52
617.82	1098.18
618.17	1094.20
618.51	1094.90
618.86	1090.69
619.21	1085.54
619.55	1084.60
619.90	1091.16
620.25	1085.07
620.59	1086.94
620.94	1093.50
621.29	1098.18
621.63	1095.60
621.98	1108.24
622.32	1106.37
622.67	1101.46
623.02	1088.82
623.36	1090.92
623.71	1087.18
624.05	1089.05
624.40	1100.05
624.75	1102.63
625.09	1105.67
625.44	1100.99
625.78	1100.99
626.13	1093.50
626.48	1094.20
626.82	1095.60
627.17	1090.46
627.51	1089.29
627.86	1078.99
628.20	1079.22
628.55	1075.01
628.89	1080.16
629.24	1085.07
629.58	1093.73
629.93	1102.86
630.28	1103.80
630.62	1102.39
630.97	1102.39
631.31	1103.33
631.66	1103.09
632.00	1102.16
632.35	1109.88
632.69	1105.20
633.04	1104.73
633.38	1101.92
633.73	1102.39
634.07	1107.31
634.42	1100.99
634.76	1103.09
635.11	1100.52
635.45	1093.26
635.79	1078.28
636.14	1085.07
636.48	1086.48
636.83	1081.09
637.17	1085.54
637.52	1095.84
637.86	1095.14
638.21	1088.35
638.55	1093.26
638.89	1098.65
639.24	1091.86
639.58	1089.29
639.93	1095.37
640.27	1094.43
640.61	1091.39
640.96	1104.50
641.30	1109.65
641.65	1107.31
641.99	1109.65
642.33	1116.44
642.68	1104.97
643.02	1103.56
643.37	1104.50
643.71	1092.33
644.05	1080.39
644.40	1092.80
644.74	1096.07
645.08	1106.37
645.43	1121.58
645.77	1118.07
646.11	1108.71
646.46	1100.05
646.80	1086.71
647.14	1072.43
647.49	1079.92
647.83	1085.31
648.17	1079.69
648.52	1084.14
648.86	1090.92
649.20	1092.56
649.55	1083.67
649.89	1095.84
650.23	1095.14
650.57	1097.24
650.92	1092.80
651.26	1091.86
651.60	1089.99
651.95	1083.43
652.29	1086.01
652.63	1093.97
652.97	1097.95
653.32	1101.92
653.66	1110.82
654.00	1108.95
654.34	1104.26
654.69	1105.20
655.03	1104.26
655.37	1101.92
655.71	1094.20
656.05	1090.22
656.40	1084.60
656.74	1087.41
657.08	1090.92
657.42	1092.80
657.76	1095.37
658.11	1102.39
658.45	1093.97
658.79	1092.09
659.13	1090.22
659.47	1091.86
659.82	1094.90
660.16	1100.75
660.50	1102.39
660.84	1100.75
661.18	1103.33
661.52	1098.88
661.87	1083.67
662.21	1079.69
662.55	1084.60
662.89	1078.75
663.23	1083.43
663.57	1097.01
663.91	1103.56
664.25	1104.50
664.60	1103.09
664.94	1093.97
665.28	1089.05
665.62	1078.99
665.96	1076.88
666.30	1078.05
666.64	1085.07
666.98	1083.67
667.32	1082.03
667.66	1084.84
668.01	1085.31
668.35	1075.24
668.69	1076.65
669.03	1076.88
669.37	1065.88
669.71	1075.01
670.05	1079.46
670.39	1088.82
670.73	1093.97
671.07	1109.18
671.41	1101.92
671.75	1105.20
672.09	1100.05
672.43	1104.26
672.77	1096.54
673.11	1097.01
673.45	1098.41
673.79	1090.69
674.13	1084.60
674.47	1086.24
674.81	1088.58
675.15	1087.18
675.49	1097.01
675.83	1102.86
676.17	1099.12
676.51	1088.82
676.85	1087.65
677.19	1079.69
677.53	1076.41
677.87	1080.63
678.21	1089.29
678.55	1094.90
678.89	1096.07
679.23	1098.41
679.57	1103.56
679.90	1097.48
680.24	1092.09
680.58	1099.12
680.92	1095.37
681.26	1094.43
681.60	1100.75
681.94	1097.01
682.28	1091.16
682.62	1093.73
682.96	1083.67
683.29	1081.09
683.63	1085.07
683.97	1087.88
684.31	1077.11
684.65	1075.48
684.99	1071.03
685.33	1067.75
685.67	1058.39
686.00	1067.75
686.34	1071.26
686.68	1081.09
687.02	1078.75
687.36	1081.80
687.70	1085.77
688.03	1075.94
688.37	1072.20
688.71	1082.03
689.05	1092.80
689.39	1078.52
689.72	1093.50
690.06	1098.41
690.40	1095.14
690.74	1089.52
691.08	1108.01
691.41	1113.63
691.75	1105.90
692.09	1106.37
692.43	1112.22
692.76	1107.54
693.10	1098.88
693.44	1102.86
693.78	1104.73
694.11	1095.14
694.45	1083.90
694.79	1084.14
695.13	1071.73
695.46	1067.28
695.80	1066.58
696.14	1072.67
696.48	1067.99
696.81	1078.52
697.15	1076.65
697.49	1083.90
697.82	1082.73
698.16	1083.67
698.50	1087.41
698.83	1090.22
699.17	1086.01
699.51	1091.86
699.84	1096.07
700.18	1083.67
700.52	1089.05
700.85	1090.46
701.19	1079.22
701.53	1071.26
701.86	1083.90
702.20	1083.43
702.54	1076.41
702.87	1087.18
703.21	1094.67
703.55	1089.75
703.88	1081.80
704.22	1085.31
704.55	1074.31
704.89	1081.33
705.23	1083.67
705.56	1085.54
705.90	1088.58
706.23	1087.41
706.57	1081.33
706.91	1078.28
707.24	1086.24
707.58	1087.41
707.91	1097.48
708.25	1100.05
708.58	1094.20
708.92	1088.82
709.26	1084.14
709.59	1086.01
709.93	1093.73
710.26	1091.63
710.60	1087.88
710.93	1095.60
711.27	1093.50
711.60	1087.65
711.94	1091.63
712.27	1093.26
712.61	1077.58
712.94	1076.88
713.28	1074.07
713.61	1070.80
713.95	1059.33
714.28	1069.16
714.62	1067.99
714.95	1066.11
715.29	1060.03
715.62	1072.67
715.96	1071.97
716.29	1064.24
716.63	1056.05
716.96	1066.11
717.29	1068.45
717.63	1068.22
717.96	1068.69
718.30	1072.20
718.63	1071.26
718.97	1068.69
719.30	1075.01
719.63	1081.09
719.97	1093.03
720.30	1093.73
720.64	1092.56
720.97	1101.69
721.30	1097.71
721.64	1085.07
721.97	1089.05
722.31	1096.78
722.64	1086.48
722.97	1089.29
723.31	1102.63
723.64	1100.75
723.97	1098.41
724.31	1099.35
724.64	1105.44
724.98	1098.41
725.31	1094.90
725.64	1085.54
725.98	1077.82
726.31	1072.43
726.64	1081.56
726.97	1086.01
727.31	1086.24
727.64	1087.65
727.97	1093.03
728.31	1083.90
728.64	1077.58
728.97	1089.75
729.31	1087.88
729.64	1078.52
729.97	1074.54
730.30	1080.16
730.64	1073.14
730.97	1078.75
731.30	1082.50
731.63	1080.39
731.97	1085.31
732.30	1083.90
732.63	1079.22
732.96	1072.43
733.30	1077.35
733.63	1071.97
733.96	1069.62
734.29	1068.92
734.63	1075.24
734.96	1073.60
735.29	1069.39
735.62	1065.18
735.95	1067.05
736.29	1067.28
736.62	1060.03
736.95	1064.71
737.28	1072.20
737.61	1075.94
737.94	1075.48
738.28	1082.50
738.61	1086.24
738.94	1093.97
739.27	1094.43
739.60	1101.92
739.93	1103.80
740.27	1091.16
740.60	1081.33
740.93	1074.31
741.26	1065.18
741.59	1060.96
741.92	1067.52
742.25	1068.45
742.58	1071.50
742.91	1077.11
743.25	1085.77
743.58	1091.39
743.91	1088.35
744.24	1093.50
744.57	1093.97
744.90	1097.01
745.23	1087.88
745.56	1087.18
745.89	1073.37
746.22	1070.09
746.55	1064.48
746.88	1071.73
747.21	1084.84
747.54	1100.75
747.87	1107.54
748.20	1105.67
748.53	1117.14
748.87	1097.48
749.20	1092.80
749.53	1088.12
749.86	1093.97
750.19	1075.94
750.52	1089.52
750.85	1088.12
751.18	1082.97
751.51	1082.97
751.84	1080.86
752.16	1075.48
752.49	1072.67
752.82	1086.01
753.15	1080.16
753.48	1090.92
753.81	1095.60
754.14	1100.05
754.47	1089.29
754.80	1095.84
755.13	1108.01
755.46	1108.24
755.79	1104.03
756.12	1103.56
756.45	1097.95
756.78	1083.90
757.11	1080.86
757.43	1086.48
757.76	1093.03
758.09	1096.07
758.42	1092.33
758.75	1089.05
759.08	1081.33
759.41	1071.73
759.74	1061.90
760.07	1058.86
760.39	1075.01
760.72	1077.35
761.05	1082.03
761.38	1096.54
761.71	1116.90
762.04	1104.97
762.36	1099.35
762.69	1096.54
763.02	1089.29
763.35	1064.01
763.68	1066.35
764.01	1068.22
