SpectraSuite Data File
++++++++++++++++++++++++++++++++++++
Date: Mon Aug 26 10:24:43 PDT 2019
User: corrico
Dark Spectrum Present: No
Reference Spectrum Present: No
Number of Sampled Component Spectra: 1
Spectrometers: USB2+H06089
Integration Time (usec): 10000 (USB2+H06089)
Spectra Averaged: 2 (USB2+H06089)
Boxcar Smoothing: 2 (USB2+H06089)
Correct for Electrical Dark: No (USB2+H06089)
Strobe/Lamp Enabled: No (USB2+H06089)
Correct for Detector Non-linearity: No (USB2+H06089)
Correct for Stray Light: No (USB2+H06089)
Number of Pixels in Processed Spectrum: 2048
>>>>>Begin Processed Spectral Data<<<<<
339.70	1055.58
340.07	1055.58
340.45	1026.79
340.82	995.20
341.19	961.26
341.57	937.38
341.94	923.11
342.31	898.53
342.69	891.98
343.06	894.55
343.43	891.74
343.81	894.32
344.18	892.21
344.55	896.43
344.93	907.89
345.30	911.64
345.67	921.94
346.04	936.68
346.42	948.39
346.79	951.90
347.16	955.64
347.54	958.45
347.91	963.36
348.28	972.96
348.65	980.68
349.03	1003.39
349.40	1023.28
349.77	1036.62
350.14	1048.79
350.52	1062.14
350.89	1063.31
351.26	1069.16
351.63	1086.24
352.01	1091.39
352.38	1087.18
352.75	1088.82
353.12	1083.20
353.50	1080.39
353.87	1081.33
354.24	1086.01
354.61	1081.33
354.98	1082.73
355.36	1087.88
355.73	1089.05
356.10	1084.60
356.47	1092.80
356.84	1095.37
357.22	1088.58
357.59	1093.03
357.96	1108.95
358.33	1109.88
358.70	1112.46
359.08	1106.37
359.45	1101.46
359.82	1081.56
360.19	1073.84
360.56	1081.56
360.94	1089.75
361.31	1102.63
361.68	1104.26
362.05	1107.54
362.42	1104.26
362.79	1101.69
363.16	1088.12
363.54	1099.82
363.91	1104.73
364.28	1094.43
364.65	1098.18
365.02	1095.14
365.39	1090.69
365.76	1091.39
366.14	1095.60
366.51	1094.20
366.88	1100.99
367.25	1108.48
367.62	1108.71
367.99	1114.10
368.36	1109.65
368.73	1113.86
369.10	1107.78
369.48	1094.90
369.85	1091.39
370.22	1096.78
370.59	1082.50
370.96	1083.67
371.33	1093.97
371.70	1095.84
372.07	1088.82
372.44	1098.65
372.81	1102.39
373.18	1105.90
373.55	1111.05
373.93	1123.69
374.30	1130.01
374.67	1123.46
375.04	1125.56
375.41	1122.52
375.78	1117.84
376.15	1116.44
376.52	1119.48
376.89	1118.54
377.26	1118.54
377.63	1116.90
378.00	1115.97
378.37	1108.95
378.74	1101.92
379.11	1102.39
379.48	1104.97
379.85	1100.99
380.22	1112.46
380.59	1119.01
380.96	1118.54
381.33	1116.90
381.70	1119.48
382.07	1113.16
382.44	1104.03
382.81	1100.99
383.18	1098.41
383.55	1096.78
383.92	1103.09
384.29	1108.01
384.66	1102.86
385.03	1093.73
385.40	1095.84
385.77	1090.46
386.14	1094.90
386.51	1100.52
386.88	1111.05
387.25	1112.22
387.62	1116.44
387.99	1113.16
388.36	1114.56
388.73	1119.71
389.10	1126.97
389.46	1132.12
389.83	1133.76
390.20	1135.86
390.57	1130.01
390.94	1120.88
391.31	1118.78
391.68	1125.33
392.05	1124.63
392.42	1121.82
392.79	1124.39
393.16	1123.93
393.53	1120.88
393.89	1128.84
394.26	1135.63
394.63	1144.99
395.00	1152.95
395.37	1152.71
395.74	1155.76
396.11	1155.29
396.48	1146.16
396.84	1151.54
397.21	1152.71
397.58	1155.29
397.95	1163.25
398.32	1169.57
398.69	1170.74
399.06	1177.29
399.42	1179.40
399.79	1186.89
400.16	1191.33
400.53	1192.03
400.90	1198.35
401.27	1214.04
401.64	1216.14
402.00	1223.63
402.37	1235.80
402.74	1243.99
403.11	1243.29
403.48	1255.46
403.84	1277.23
404.21	1280.74
404.58	1297.12
404.95	1305.78
405.32	1309.76
405.68	1322.64
406.05	1341.83
406.42	1355.64
406.79	1382.79
407.16	1419.07
407.52	1455.35
407.89	1498.65
408.26	1543.58
408.63	1586.65
408.99	1638.61
409.36	1667.16
409.73	1695.25
410.10	1728.02
410.47	1770.15
410.83	1817.19
411.20	1867.75
411.57	1938.67
411.94	2008.65
412.30	2073.01
412.67	2144.16
413.04	2225.85
413.40	2313.15
413.77	2430.65
414.14	2553.06
414.51	2671.25
414.87	2812.15
415.24	2960.31
415.61	3101.68
415.97	3257.09
416.34	3439.89
416.71	3621.28
417.08	3828.18
417.44	4010.51
417.81	4239.41
418.18	4468.78
418.54	4720.16
418.91	4942.04
419.28	5229.46
419.64	5512.43
420.01	5812.25
420.38	6142.50
420.74	6501.54
421.11	6886.09
421.48	7252.38
421.84	7685.85
422.21	8101.06
422.58	8552.55
422.94	9009.89
423.31	9532.53
423.68	10101.99
424.04	10729.25
424.41	11311.34
424.77	11987.29
425.14	12648.02
425.51	13264.28
425.87	13979.32
426.24	14771.35
426.61	15592.18
426.97	16565.38
427.34	17460.86
427.70	18450.68
428.07	19401.40
428.44	20358.92
428.80	21276.17
429.17	22337.37
429.53	23367.67
429.90	24609.09
430.27	25794.34
430.63	26978.65
431.00	28269.22
431.36	29604.73
431.73	30746.45
432.09	31962.36
432.46	33242.16
432.83	34530.86
433.19	35777.19
433.56	37309.54
433.92	38846.11
434.29	40248.55
434.65	41611.92
435.02	42773.99
435.38	43903.07
435.75	44736.06
436.11	45966.95
436.48	46958.64
436.84	48000.64
437.21	48973.84
437.57	49940.48
437.94	50557.91
438.30	51173.47
438.67	51588.92
439.03	51748.07
439.40	51976.04
439.76	51838.65
440.13	51662.18
440.49	51640.88
440.86	51298.22
441.22	50930.99
441.59	50482.08
441.95	49954.76
442.32	49051.31
442.68	48340.96
443.05	47369.87
443.41	46466.66
443.78	45338.05
444.14	44323.43
444.51	42975.75
444.87	41999.98
445.24	40728.36
445.60	39694.08
445.96	38665.88
446.33	37909.89
446.69	36716.45
447.06	35864.50
447.42	34821.55
447.79	33617.35
448.15	32583.53
448.51	31700.22
448.88	30852.71
449.24	29927.26
449.61	29337.21
449.97	28573.26
450.33	27809.54
450.70	26952.20
451.06	26390.71
451.43	25604.99
451.79	25025.71
452.15	24531.62
452.52	24019.05
452.88	23431.81
453.24	22887.86
453.61	22237.90
453.97	21624.91
454.34	21009.35
454.70	20457.22
455.06	19903.68
455.43	19267.52
455.79	18475.02
456.15	17863.67
456.52	17151.45
456.88	16556.01
457.24	15995.69
457.61	15573.22
457.97	15037.94
458.33	14555.32
458.70	14058.19
459.06	13532.51
459.42	13036.55
459.79	12575.23
460.15	12189.98
460.51	11750.89
460.88	11386.47
461.24	10976.64
461.60	10645.93
461.96	10261.61
462.33	9938.62
462.69	9612.35
463.05	9313.93
463.42	8997.96
463.78	8713.35
464.14	8465.72
464.50	8265.60
464.87	8046.53
465.23	7801.24
465.59	7591.53
465.95	7359.58
466.32	7097.21
466.68	6896.86
467.04	6719.91
467.40	6554.67
467.77	6393.41
468.13	6234.95
468.49	6066.43
468.85	5924.36
469.22	5759.59
469.58	5614.48
469.94	5501.90
470.30	5411.08
470.66	5306.46
471.03	5206.52
471.39	5130.69
471.75	5038.94
472.11	4913.72
472.47	4812.14
472.84	4714.78
473.20	4579.49
473.56	4466.44
473.92	4358.55
474.28	4275.46
474.65	4187.22
475.01	4101.55
475.37	4008.64
475.73	3959.02
476.09	3867.27
476.45	3793.31
476.81	3732.69
477.18	3672.07
477.54	3608.87
477.90	3550.36
478.26	3453.46
478.62	3393.31
478.98	3333.63
479.34	3258.73
479.71	3209.11
480.07	3191.09
480.43	3147.08
480.79	3113.38
481.15	3059.31
481.51	2997.99
481.87	2953.99
482.23	2884.71
482.59	2832.52
482.96	2784.30
483.32	2744.75
483.68	2687.17
484.04	2661.42
484.40	2616.25
484.76	2577.87
485.12	2547.44
485.48	2517.71
485.84	2489.39
486.20	2456.63
486.56	2439.77
486.92	2408.65
487.28	2374.47
487.64	2341.94
488.00	2294.66
488.37	2265.87
488.73	2222.57
489.09	2195.89
489.45	2161.72
489.81	2133.87
490.17	2093.84
490.53	2076.99
490.89	2045.39
491.25	2014.03
491.61	2003.73
491.97	1977.52
492.33	1946.16
492.69	1916.20
493.05	1901.45
493.41	1868.22
493.77	1838.49
494.13	1820.94
494.49	1815.09
494.85	1782.32
495.21	1768.74
495.57	1756.34
495.93	1726.38
496.29	1684.25
496.64	1681.21
497.00	1665.99
497.36	1652.65
497.72	1644.46
498.08	1641.65
498.44	1613.80
498.80	1585.48
499.16	1565.58
499.52	1557.16
499.88	1542.65
500.24	1539.37
500.60	1514.09
500.96	1500.52
501.32	1487.88
501.68	1479.69
502.03	1461.43
502.39	1475.71
502.75	1470.56
503.11	1464.71
503.47	1452.54
503.83	1454.64
504.19	1426.09
504.55	1419.53
504.91	1405.73
505.26	1393.32
505.62	1380.68
505.98	1381.85
506.34	1365.47
506.70	1358.21
507.06	1347.68
507.42	1330.83
507.78	1320.76
508.13	1323.81
508.49	1314.44
508.85	1317.02
509.21	1314.68
509.57	1310.47
509.93	1296.42
510.28	1281.21
510.64	1274.42
511.00	1269.04
511.36	1273.72
511.72	1267.17
512.07	1274.66
512.43	1265.53
512.79	1272.32
513.15	1271.85
513.51	1267.17
513.86	1257.80
514.22	1258.74
514.58	1243.76
514.94	1236.04
515.30	1244.23
515.65	1240.48
516.01	1232.29
516.37	1230.65
516.73	1222.70
517.08	1202.33
517.44	1205.61
517.80	1204.67
518.16	1196.48
518.51	1194.61
518.87	1197.18
519.23	1187.59
519.59	1183.14
519.94	1185.72
520.30	1172.84
520.66	1175.18
521.01	1174.48
521.37	1179.86
521.73	1173.31
522.09	1186.89
522.44	1188.76
522.80	1181.74
523.16	1185.95
523.51	1177.52
523.87	1162.54
524.23	1159.97
524.58	1170.97
524.94	1165.59
525.30	1170.97
525.65	1180.10
526.01	1173.08
526.37	1166.76
526.72	1159.50
527.08	1158.33
527.44	1149.20
527.79	1155.99
528.15	1151.31
528.51	1150.37
528.86	1155.05
529.22	1161.14
529.58	1153.42
529.93	1154.12
530.29	1147.56
530.65	1142.42
531.00	1137.97
531.36	1145.69
531.71	1149.67
532.07	1161.37
532.43	1163.25
532.78	1167.46
533.14	1159.97
533.49	1162.78
533.85	1160.91
534.21	1152.95
534.56	1149.67
534.92	1146.86
535.27	1137.03
535.63	1138.67
535.98	1150.61
536.34	1155.76
536.69	1160.91
537.05	1171.20
537.41	1159.50
537.76	1161.84
538.12	1150.61
538.47	1141.25
538.83	1130.95
539.18	1129.07
539.54	1121.12
539.89	1133.05
540.25	1132.59
540.60	1138.67
540.96	1147.56
541.31	1156.69
541.67	1141.48
542.02	1150.14
542.38	1146.63
542.73	1142.65
543.09	1138.67
543.44	1148.03
543.80	1147.80
544.15	1144.05
544.51	1135.63
544.86	1131.88
545.22	1137.03
545.57	1129.31
545.93	1135.63
546.28	1151.08
546.64	1145.69
546.99	1141.71
547.35	1148.03
547.70	1142.65
548.05	1137.03
548.41	1143.12
548.76	1137.97
549.12	1131.65
549.47	1127.67
549.83	1122.75
550.18	1114.56
550.53	1115.27
550.89	1112.46
551.24	1111.29
551.60	1111.29
551.95	1112.92
552.30	1107.78
552.66	1110.82
553.01	1114.09
553.37	1108.95
553.72	1109.18
554.07	1112.22
554.43	1113.63
554.78	1112.46
555.13	1120.18
555.49	1124.39
555.84	1118.07
556.19	1116.90
556.55	1117.14
556.90	1117.37
557.26	1116.20
557.61	1122.29
557.96	1126.50
558.32	1122.75
558.67	1127.90
559.02	1126.97
559.37	1126.97
559.73	1133.05
560.08	1136.33
560.43	1120.65
560.79	1122.99
561.14	1127.44
561.49	1110.35
561.85	1106.61
562.20	1113.16
562.55	1102.39
562.90	1101.46
563.26	1112.22
563.61	1115.97
563.96	1114.10
564.32	1115.73
564.67	1116.67
565.02	1115.03
565.37	1109.18
565.73	1115.73
566.08	1118.78
566.43	1111.05
566.78	1109.65
567.14	1117.37
567.49	1120.88
567.84	1120.88
568.19	1124.86
568.54	1122.29
568.90	1117.61
569.25	1118.54
569.60	1126.50
569.95	1122.75
570.31	1121.58
570.66	1126.03
571.01	1115.50
571.36	1108.01
571.71	1100.99
572.06	1105.20
572.42	1103.33
572.77	1100.05
573.12	1092.09
573.47	1108.01
573.82	1112.22
574.18	1114.09
574.53	1124.16
574.88	1125.56
575.23	1114.33
575.58	1110.82
575.93	1111.29
576.28	1103.80
576.64	1108.48
576.99	1111.29
577.34	1104.03
577.69	1097.48
578.04	1097.01
578.39	1097.01
578.74	1093.73
579.09	1103.09
579.44	1109.41
579.80	1112.69
580.15	1118.07
580.50	1123.69
580.85	1113.39
581.20	1111.99
581.55	1115.73
581.90	1107.78
582.25	1107.78
582.60	1114.80
582.95	1110.35
583.30	1102.86
583.65	1106.61
584.00	1100.52
584.35	1107.07
584.71	1108.95
585.06	1113.63
585.41	1111.75
585.76	1114.80
586.11	1111.29
586.46	1100.75
586.81	1089.75
587.16	1093.26
587.51	1099.12
587.86	1094.67
588.21	1113.16
588.56	1125.33
588.91	1119.24
589.26	1111.52
589.61	1107.78
589.96	1098.65
590.31	1089.29
590.66	1097.48
591.01	1100.52
591.36	1106.37
591.71	1103.56
592.06	1110.82
592.41	1106.14
592.76	1098.65
593.10	1098.65
593.45	1096.78
593.80	1090.46
594.15	1090.92
594.50	1098.65
594.85	1086.71
595.20	1088.58
595.55	1091.63
595.90	1092.33
596.25	1086.71
596.60	1091.16
596.95	1086.71
597.30	1089.52
597.64	1132.12
597.99	1134.22
598.34	1138.67
598.69	1149.20
599.04	1151.31
599.39	1107.31
599.74	1104.73
600.09	1113.16
600.44	1107.31
600.78	1098.65
601.13	1100.52
601.48	1108.71
601.83	1103.80
602.18	1103.33
602.53	1111.99
602.88	1106.61
603.22	1093.97
603.57	1086.24
603.92	1095.14
604.27	1092.33
604.62	1097.24
604.97	1106.61
605.31	1114.10
605.66	1109.41
606.01	1105.44
606.36	1111.52
606.71	1108.01
607.05	1107.07
607.40	1106.14
607.75	1107.07
608.10	1111.99
608.44	1124.86
608.79	1123.69
609.14	1122.99
609.49	1124.63
609.84	1114.56
610.18	1102.39
610.53	1108.48
610.88	1114.33
611.23	1109.88
611.57	1116.44
611.92	1123.46
612.27	1108.71
612.62	1104.97
612.96	1107.31
613.31	1104.26
613.66	1110.12
614.00	1113.86
614.35	1108.01
614.70	1107.07
615.05	1103.80
615.39	1092.56
615.74	1091.86
616.09	1097.71
616.43	1098.18
616.78	1090.46
617.13	1087.18
617.47	1093.26
617.82	1084.60
618.17	1085.31
618.51	1083.43
618.86	1086.24
619.21	1085.54
619.55	1091.86
619.90	1093.97
620.25	1091.39
620.59	1095.84
620.94	1092.33
621.29	1088.82
621.63	1081.09
621.98	1099.35
622.32	1096.07
622.67	1095.84
623.02	1107.78
623.36	1119.48
623.71	1106.84
624.05	1099.35
624.40	1097.24
624.75	1086.48
625.09	1071.97
625.44	1059.79
625.78	1057.22
626.13	1065.18
626.48	1064.48
626.82	1071.26
627.17	1079.69
627.51	1093.97
627.86	1097.95
628.20	1101.92
628.55	1109.18
628.89	1118.07
629.24	1114.10
629.58	1105.44
629.93	1106.14
630.28	1102.86
630.62	1088.58
630.97	1090.92
631.31	1089.99
631.66	1081.09
632.00	1083.67
632.35	1097.48
632.69	1093.26
633.04	1091.63
633.38	1099.12
633.73	1100.99
634.07	1102.39
634.42	1103.80
634.76	1108.24
635.11	1109.88
635.45	1104.50
635.79	1097.01
636.14	1087.41
636.48	1081.80
636.83	1078.99
637.17	1072.90
637.52	1076.65
637.86	1082.73
638.21	1093.97
638.55	1092.56
638.89	1097.01
639.24	1100.99
639.58	1097.01
639.93	1091.16
640.27	1090.46
640.61	1096.31
640.96	1091.16
641.30	1104.97
641.65	1101.46
641.99	1110.58
642.33	1099.58
642.68	1099.58
643.02	1095.37
643.37	1096.54
643.71	1095.60
644.05	1094.90
644.40	1098.18
644.74	1095.14
645.08	1090.92
645.43	1092.09
645.77	1098.65
646.11	1094.67
646.46	1093.50
646.80	1094.90
647.14	1089.05
647.49	1084.37
647.83	1084.60
648.17	1086.01
648.52	1088.58
648.86	1088.12
649.20	1094.67
649.55	1091.86
649.89	1097.71
650.23	1103.80
650.57	1110.58
650.92	1114.56
651.26	1120.88
651.60	1119.24
651.95	1115.50
652.29	1095.84
652.63	1085.07
652.97	1078.28
653.32	1073.84
653.66	1071.97
654.00	1097.71
654.34	1109.41
654.69	1110.58
655.03	1114.10
655.37	1115.73
655.71	1099.82
656.05	1095.37
656.40	1097.01
656.74	1087.18
657.08	1083.43
657.42	1085.31
657.76	1090.92
658.11	1090.46
658.45	1100.05
658.79	1105.20
659.13	1103.56
659.47	1091.39
659.82	1084.60
660.16	1080.16
660.50	1070.80
660.84	1072.43
661.18	1072.20
661.52	1079.22
661.87	1079.22
662.21	1080.16
662.55	1078.05
662.89	1083.20
663.23	1084.37
663.57	1087.88
663.91	1092.56
664.25	1091.16
664.60	1090.92
664.94	1087.41
665.28	1078.05
665.62	1082.73
665.96	1085.07
666.30	1085.54
666.64	1087.41
666.98	1097.48
667.32	1082.26
667.66	1085.07
668.01	1079.46
668.35	1072.20
668.69	1070.33
669.03	1080.63
669.37	1085.54
669.71	1087.18
670.05	1096.07
670.39	1090.92
670.73	1089.05
671.07	1084.84
671.41	1088.58
671.75	1082.73
672.09	1077.58
672.43	1075.94
672.77	1077.35
673.11	1077.35
673.45	1085.07
673.79	1097.48
674.13	1105.90
674.47	1112.22
674.81	1107.54
675.15	1103.33
675.49	1092.33
675.83	1081.33
676.17	1065.88
676.51	1075.01
676.85	1074.54
677.19	1086.94
677.53	1094.20
677.87	1095.60
678.21	1093.03
678.55	1093.03
678.89	1091.16
679.23	1092.09
679.57	1097.48
679.90	1097.24
680.24	1100.29
680.58	1096.31
680.92	1095.14
681.26	1083.20
681.60	1072.67
681.94	1071.97
682.28	1078.99
682.62	1076.65
682.96	1086.71
683.29	1085.31
683.63	1086.01
683.97	1081.09
684.31	1075.71
684.65	1083.67
684.99	1098.65
685.33	1098.65
685.67	1099.82
686.00	1104.50
686.34	1089.75
686.68	1086.48
687.02	1080.39
687.36	1079.92
687.70	1074.31
688.03	1079.92
688.37	1078.75
688.71	1078.99
689.05	1078.28
689.39	1079.46
689.72	1078.28
690.06	1074.07
690.40	1083.43
690.74	1088.58
691.08	1092.09
691.41	1098.41
691.75	1107.07
692.09	1110.35
692.43	1109.65
692.76	1112.69
693.10	1111.75
693.44	1114.80
693.78	1105.90
694.11	1101.69
694.45	1102.16
694.79	1098.18
695.13	1096.07
695.46	1100.75
695.80	1087.18
696.14	1086.01
696.48	1095.84
696.81	1079.22
697.15	1079.92
697.49	1086.48
697.82	1089.99
698.16	1076.18
698.50	1093.03
698.83	1100.52
699.17	1100.99
699.51	1100.52
699.84	1102.86
700.18	1100.99
700.52	1096.78
700.85	1104.03
701.19	1106.84
701.53	1118.31
701.86	1112.69
702.20	1109.18
702.54	1105.67
702.87	1104.03
703.21	1092.80
703.55	1093.97
703.88	1091.86
704.22	1092.80
704.55	1087.41
704.89	1088.12
705.23	1089.99
705.56	1088.82
705.90	1089.05
706.23	1089.29
706.57	1092.33
706.91	1085.31
707.24	1083.20
707.58	1080.39
707.91	1078.28
708.25	1076.41
708.58	1074.77
708.92	1070.09
709.26	1076.88
709.59	1083.67
709.93	1081.56
710.26	1085.54
710.60	1090.92
710.93	1086.48
711.27	1087.18
711.60	1082.73
711.94	1082.50
712.27	1090.46
712.61	1078.28
712.94	1069.86
713.28	1078.99
713.61	1076.88
713.95	1067.99
714.28	1081.09
714.62	1086.24
714.95	1079.22
715.29	1081.56
715.62	1082.03
715.96	1087.65
716.29	1089.99
716.63	1099.12
716.96	1104.73
717.29	1103.56
717.63	1092.80
717.96	1088.58
718.30	1084.37
718.63	1078.05
718.97	1081.09
719.30	1073.84
719.63	1085.77
719.97	1084.14
720.30	1080.16
720.64	1078.99
720.97	1081.09
721.30	1072.90
721.64	1083.20
721.97	1093.50
722.31	1090.46
722.64	1099.82
722.97	1098.41
723.31	1092.56
723.64	1092.80
723.97	1097.01
724.31	1089.05
724.64	1090.22
724.98	1094.67
725.31	1074.54
725.64	1066.11
725.98	1077.11
726.31	1079.92
726.64	1073.60
726.97	1086.71
727.31	1096.31
727.64	1100.05
727.97	1096.78
728.31	1099.82
728.64	1102.63
728.97	1100.99
729.31	1086.94
729.64	1084.37
729.97	1078.99
730.30	1083.90
730.64	1084.60
730.97	1099.58
731.30	1100.05
731.63	1096.07
731.97	1090.92
732.30	1086.94
732.63	1075.71
732.96	1079.69
733.30	1082.97
733.63	1078.75
733.96	1078.75
734.29	1068.92
734.63	1055.35
734.96	1065.18
735.29	1067.52
735.62	1077.58
735.95	1085.31
736.29	1095.37
736.62	1092.09
736.95	1088.58
737.28	1077.82
737.61	1071.03
737.94	1067.99
738.28	1060.03
738.61	1067.99
738.94	1062.60
739.27	1076.18
739.60	1082.50
739.93	1092.80
740.27	1090.92
740.60	1097.24
740.93	1097.01
741.26	1099.35
741.59	1088.35
741.92	1089.05
742.25	1090.22
742.58	1089.75
742.91	1075.01
743.25	1079.69
743.58	1068.69
743.91	1068.69
744.24	1063.31
744.57	1067.52
744.90	1081.56
745.23	1079.92
745.56	1079.22
745.89	1074.07
746.22	1077.58
746.55	1067.52
746.88	1073.37
747.21	1085.31
747.54	1095.37
747.87	1099.12
748.20	1097.95
748.53	1098.65
748.87	1088.82
749.20	1093.03
749.53	1098.18
749.86	1091.63
750.19	1094.90
750.52	1091.39
750.85	1078.75
751.18	1067.99
751.51	1074.77
751.84	1074.77
752.16	1077.58
752.49	1082.73
752.82	1077.58
753.15	1069.39
753.48	1061.20
753.81	1047.86
754.14	1052.07
754.47	1056.28
754.80	1060.96
755.13	1066.58
755.46	1079.69
755.79	1078.52
756.12	1078.28
756.45	1078.99
756.78	1073.37
757.11	1075.24
757.43	1074.77
757.76	1081.09
758.09	1077.82
758.42	1083.43
758.75	1080.63
759.08	1075.71
759.41	1072.67
759.74	1065.65
760.07	1060.50
760.39	1057.92
760.72	1064.01
761.05	1053.24
761.38	1070.09
761.71	1070.80
762.04	1080.63
762.36	1069.86
762.69	1088.12
763.02	1075.24
763.35	1081.09
763.68	1063.77
764.01	1066.82
