SpectraSuite Data File
++++++++++++++++++++++++++++++++++++
Date: Mon Aug 26 10:24:40 PDT 2019
User: corrico
Dark Spectrum Present: No
Reference Spectrum Present: No
Number of Sampled Component Spectra: 1
Spectrometers: USB2+H06089
Integration Time (usec): 10000 (USB2+H06089)
Spectra Averaged: 2 (USB2+H06089)
Boxcar Smoothing: 2 (USB2+H06089)
Correct for Electrical Dark: No (USB2+H06089)
Strobe/Lamp Enabled: No (USB2+H06089)
Correct for Detector Non-linearity: No (USB2+H06089)
Correct for Stray Light: No (USB2+H06089)
Number of Pixels in Processed Spectrum: 2048
>>>>>Begin Processed Spectral Data<<<<<
339.70	1002.92
340.07	1002.92
340.45	984.43
340.82	966.17
341.19	942.07
341.57	926.15
341.94	913.75
342.31	901.34
342.69	893.62
343.06	892.21
343.43	892.21
343.81	888.94
344.18	893.62
344.55	905.32
344.93	901.34
345.30	902.74
345.67	917.49
346.04	929.19
346.42	931.77
346.79	954.94
347.16	966.41
347.54	970.62
347.91	975.30
348.28	993.32
348.65	1000.58
349.03	1017.90
349.40	1028.20
349.77	1034.98
350.14	1043.64
350.52	1056.99
350.89	1052.54
351.26	1056.99
351.63	1070.33
352.01	1069.39
352.38	1073.14
352.75	1085.07
353.12	1080.86
353.50	1085.54
353.87	1086.24
354.24	1081.80
354.61	1081.33
354.98	1101.69
355.36	1102.39
355.73	1108.95
356.10	1109.41
356.47	1106.84
356.84	1104.03
357.22	1097.95
357.59	1098.18
357.96	1110.12
358.33	1110.12
358.70	1112.22
359.08	1111.99
359.45	1111.29
359.82	1103.33
360.19	1107.54
360.56	1105.67
360.94	1110.12
361.31	1115.50
361.68	1113.63
362.05	1108.95
362.42	1107.31
362.79	1111.29
363.16	1096.54
363.54	1098.88
363.91	1100.52
364.28	1098.65
364.65	1089.52
365.02	1096.54
365.39	1092.56
365.76	1095.37
366.14	1093.73
366.51	1098.41
366.88	1094.67
367.25	1090.92
367.62	1081.56
367.99	1086.71
368.36	1084.84
368.73	1090.22
369.10	1104.03
369.48	1107.54
369.85	1099.58
370.22	1095.37
370.59	1091.86
370.96	1088.82
371.33	1087.41
371.70	1098.18
372.07	1103.56
372.44	1108.71
372.81	1104.97
373.18	1109.65
373.55	1100.99
373.93	1100.52
374.30	1106.14
374.67	1104.50
375.04	1107.31
375.41	1102.86
375.78	1105.90
376.15	1104.73
376.52	1107.54
376.89	1109.65
377.26	1126.27
377.63	1123.22
378.00	1118.31
378.37	1116.44
378.74	1115.03
379.11	1100.05
379.48	1107.31
379.85	1116.44
380.22	1121.58
380.59	1110.82
380.96	1121.82
381.33	1121.12
381.70	1119.71
382.07	1116.44
382.44	1120.18
382.81	1115.03
383.18	1105.90
383.55	1091.16
383.92	1086.71
384.29	1084.84
384.66	1079.22
385.03	1079.69
385.40	1085.54
385.77	1100.29
386.14	1103.33
386.51	1113.39
386.88	1122.75
387.25	1134.93
387.62	1130.71
387.99	1128.61
388.36	1127.67
388.73	1128.37
389.10	1128.14
389.46	1131.41
389.83	1137.03
390.20	1131.18
390.57	1124.86
390.94	1115.73
391.31	1113.16
391.68	1110.82
392.05	1110.12
392.42	1104.73
392.79	1101.46
393.16	1094.90
393.53	1105.20
393.89	1114.56
394.26	1128.61
394.63	1132.12
395.00	1139.61
395.37	1146.39
395.74	1153.18
396.11	1153.18
396.48	1153.88
396.84	1155.05
397.21	1158.10
397.58	1163.95
397.95	1170.03
398.32	1180.10
398.69	1190.16
399.06	1185.01
399.42	1182.20
399.79	1187.12
400.16	1190.16
400.53	1179.86
400.90	1193.21
401.27	1188.52
401.64	1193.21
402.00	1199.99
402.37	1225.04
402.74	1220.36
403.11	1232.06
403.48	1235.10
403.84	1245.40
404.21	1253.82
404.58	1274.42
404.95	1299.70
405.32	1318.89
405.68	1342.30
406.05	1364.53
406.42	1386.07
406.79	1408.53
407.16	1424.92
407.52	1445.51
407.89	1466.11
408.26	1494.67
408.63	1527.20
408.99	1575.88
409.36	1627.61
409.73	1681.44
410.10	1730.83
410.47	1774.36
410.83	1821.87
411.20	1874.54
411.57	1950.37
411.94	2018.95
412.30	2106.95
412.67	2208.53
413.04	2288.11
413.40	2368.62
413.77	2479.56
414.14	2586.06
414.51	2692.55
414.87	2828.30
415.24	2968.27
415.61	3126.96
415.97	3289.15
416.34	3462.82
416.71	3649.83
417.08	3841.05
417.44	4032.74
417.81	4264.46
418.18	4489.85
418.54	4730.69
418.91	5000.79
419.28	5262.69
419.64	5523.43
420.01	5830.98
420.38	6144.37
420.74	6508.56
421.11	6921.67
421.48	7344.60
421.84	7793.28
422.21	8234.24
422.58	8685.96
422.94	9172.56
423.31	9683.26
423.68	10224.40
424.04	10861.26
424.41	11447.79
424.77	12067.80
425.14	12701.39
425.51	13367.50
425.87	14063.58
426.24	14812.31
426.61	15671.76
426.97	16643.08
427.34	17565.72
427.70	18636.52
428.07	19639.67
428.44	20657.80
428.80	21649.25
429.17	22763.35
429.53	23724.61
429.90	24959.00
430.27	26063.74
430.63	27216.69
431.00	28471.45
431.36	29903.15
431.73	31116.49
432.09	32446.85
432.46	33726.65
432.83	35038.76
433.19	36166.89
433.56	37635.58
433.92	39143.59
434.29	40678.04
434.65	42093.36
435.02	43529.05
435.38	44751.51
435.75	45583.81
436.11	46832.95
436.48	47955.47
436.84	48931.71
437.21	49872.84
437.57	50936.14
437.94	51521.74
438.30	51959.19
438.67	52201.90
439.03	52252.93
439.40	52376.51
439.76	52254.57
440.13	52031.98
440.49	52130.99
440.86	51831.87
441.22	51414.08
441.59	50841.35
441.95	50278.45
442.32	49334.98
442.68	48689.93
443.05	47751.14
443.41	46835.52
443.78	45821.60
444.14	44835.30
444.51	43595.29
444.87	42594.24
445.24	41357.27
445.60	40175.76
445.96	39010.18
446.33	38095.73
446.69	36963.61
447.06	36151.45
447.42	35189.02
447.79	34123.14
448.15	33065.92
448.51	32098.81
448.88	31197.94
449.24	30233.87
449.61	29495.20
449.97	28753.48
450.33	27999.59
450.70	27132.43
451.06	26534.65
451.43	25804.87
451.79	25232.15
452.15	24676.27
452.52	24130.69
452.88	23573.17
453.24	23040.70
453.61	22355.16
453.97	21773.77
454.34	21146.04
454.70	20568.16
455.06	19967.81
455.43	19329.08
455.79	18560.68
456.15	17987.49
456.52	17300.54
456.88	16794.98
457.24	16233.49
457.61	15784.10
457.97	15261.46
458.33	14752.86
458.70	14152.99
459.06	13621.68
459.42	13147.73
459.79	12660.89
460.15	12295.30
460.51	11862.07
460.88	11486.18
461.24	11083.14
461.60	10718.02
461.96	10322.70
462.33	9996.66
462.69	9694.03
463.05	9392.34
463.42	9117.32
463.78	8847.93
464.14	8593.98
464.50	8329.03
464.87	8066.42
465.23	7807.79
465.59	7590.12
465.95	7378.54
466.32	7177.95
466.68	7012.24
467.04	6829.22
467.40	6630.50
467.77	6473.69
468.13	6289.96
468.49	6119.80
468.85	5979.37
469.22	5867.02
469.58	5720.27
469.94	5620.09
470.30	5504.24
470.66	5383.70
471.03	5274.63
471.39	5175.86
471.75	5045.96
472.11	4944.62
472.47	4849.36
472.84	4730.92
473.20	4640.35
473.56	4548.60
473.92	4427.83
474.28	4336.31
474.65	4243.16
475.01	4148.13
475.37	4073.47
475.73	4017.30
476.09	3936.78
476.45	3825.61
476.81	3764.05
477.18	3681.90
477.54	3596.94
477.90	3527.89
478.26	3478.97
478.62	3394.95
478.98	3346.03
479.34	3306.94
479.71	3261.07
480.07	3227.36
480.43	3183.60
480.79	3122.98
481.15	3056.74
481.51	2996.35
481.87	2950.25
482.23	2903.67
482.59	2868.79
482.96	2825.26
483.32	2786.41
483.68	2724.62
484.04	2694.89
484.40	2650.66
484.76	2630.29
485.12	2579.27
485.48	2564.76
485.84	2507.65
486.20	2478.86
486.56	2420.82
486.92	2401.16
487.28	2366.75
487.64	2354.81
488.00	2310.58
488.37	2288.58
488.73	2256.98
489.09	2220.93
489.45	2178.57
489.81	2158.91
490.17	2122.40
490.53	2087.52
490.89	2062.48
491.25	2022.93
491.61	1999.99
491.97	1982.67
492.33	1956.22
492.69	1937.50
493.05	1933.75
493.41	1902.62
493.77	1881.32
494.13	1864.00
494.49	1832.41
494.85	1804.79
495.21	1777.40
495.57	1752.83
495.93	1732.23
496.29	1721.93
496.64	1697.82
497.00	1685.65
497.36	1662.01
497.72	1642.12
498.08	1611.22
498.44	1601.63
498.80	1583.61
499.16	1569.80
499.52	1569.10
499.88	1567.22
500.24	1553.88
500.60	1536.09
500.96	1526.50
501.32	1501.69
501.68	1478.98
502.03	1469.39
502.39	1454.64
502.75	1436.85
503.11	1432.17
503.47	1423.75
503.83	1413.45
504.19	1412.05
504.55	1415.56
504.91	1405.96
505.26	1412.05
505.62	1402.68
505.98	1391.21
506.34	1377.64
506.70	1356.57
507.06	1333.40
507.42	1332.94
507.78	1314.68
508.13	1308.13
508.49	1304.85
508.85	1298.06
509.21	1289.17
509.57	1296.66
509.93	1296.42
510.28	1301.81
510.64	1306.96
511.00	1287.53
511.36	1285.19
511.72	1276.06
512.07	1273.25
512.43	1273.02
512.79	1273.95
513.15	1261.78
513.51	1255.70
513.86	1242.82
514.22	1228.78
514.58	1224.10
514.94	1226.67
515.30	1231.12
515.65	1228.31
516.01	1232.06
516.37	1234.63
516.73	1230.42
517.08	1232.29
517.44	1237.68
517.80	1223.87
518.16	1226.21
518.51	1218.72
518.87	1197.89
519.23	1188.29
519.59	1195.78
519.94	1190.86
520.30	1197.89
520.66	1212.87
521.01	1209.59
521.37	1193.67
521.73	1198.12
522.09	1205.84
522.44	1203.50
522.80	1204.21
523.16	1218.95
523.51	1203.74
523.87	1192.50
524.23	1187.82
524.58	1183.14
524.94	1181.74
525.30	1188.99
525.65	1186.42
526.01	1172.84
526.37	1180.57
526.72	1161.37
527.08	1159.97
527.44	1149.67
527.79	1154.82
528.15	1148.50
528.51	1151.08
528.86	1143.35
529.22	1140.54
529.58	1141.71
529.93	1135.16
530.29	1138.67
530.65	1128.84
531.00	1134.46
531.36	1141.71
531.71	1137.27
532.07	1146.86
532.43	1159.03
532.78	1166.76
533.14	1147.33
533.49	1150.37
533.85	1144.52
534.21	1146.39
534.56	1138.44
534.92	1139.61
535.27	1136.33
535.63	1135.39
535.98	1134.46
536.34	1127.20
536.69	1130.48
537.05	1140.31
537.41	1137.03
537.76	1133.52
538.12	1138.67
538.47	1137.03
538.83	1135.16
539.18	1132.35
539.54	1133.52
539.89	1139.61
540.25	1144.52
540.60	1141.95
540.96	1146.39
541.31	1144.76
541.67	1135.16
542.02	1133.76
542.38	1138.67
542.73	1131.18
543.09	1124.16
543.44	1126.97
543.80	1116.90
544.15	1112.92
544.51	1123.22
544.86	1132.59
545.22	1134.69
545.57	1144.05
545.93	1148.97
546.28	1131.88
546.64	1124.16
546.99	1117.84
547.35	1117.14
547.70	1112.46
548.05	1119.01
548.41	1119.71
548.76	1126.27
549.12	1115.73
549.47	1111.75
549.83	1115.97
550.18	1115.50
550.53	1115.73
550.89	1126.97
551.24	1121.82
551.60	1115.50
551.95	1110.82
552.30	1104.73
552.66	1100.99
553.01	1097.48
553.37	1106.61
553.72	1113.86
554.07	1109.88
554.43	1104.26
554.78	1109.18
555.13	1109.65
555.49	1105.20
555.84	1109.88
556.19	1110.82
556.55	1110.58
556.90	1104.03
557.26	1099.82
557.61	1107.54
557.96	1104.73
558.32	1111.99
558.67	1104.97
559.02	1117.14
559.37	1119.95
559.73	1124.63
560.08	1118.54
560.43	1123.69
560.79	1111.29
561.14	1111.52
561.49	1112.92
561.85	1107.31
562.20	1104.26
562.55	1117.37
562.90	1090.92
563.26	1086.94
563.61	1091.63
563.96	1097.95
564.32	1088.58
564.67	1108.01
565.02	1113.39
565.37	1113.86
565.73	1115.97
566.08	1110.82
566.43	1095.14
566.78	1098.41
567.14	1102.63
567.49	1104.26
567.84	1106.84
568.19	1114.80
568.54	1115.27
568.90	1115.50
569.25	1109.65
569.60	1113.39
569.95	1117.37
570.31	1097.24
570.66	1089.05
571.01	1094.20
571.36	1091.86
571.71	1085.07
572.06	1101.69
572.42	1113.39
572.77	1110.12
573.12	1107.07
573.47	1116.90
573.82	1119.24
574.18	1111.75
574.53	1108.71
574.88	1117.84
575.23	1111.99
575.58	1096.78
575.93	1087.88
576.28	1093.97
576.64	1095.37
576.99	1105.67
577.34	1108.48
577.69	1110.82
578.04	1112.46
578.39	1103.09
578.74	1084.14
579.09	1093.26
579.44	1097.95
579.80	1105.20
580.15	1104.03
580.50	1117.14
580.85	1114.80
581.20	1121.58
581.55	1112.69
581.90	1122.52
582.25	1119.48
582.60	1123.93
582.95	1118.31
583.30	1113.16
583.65	1114.56
584.00	1118.78
584.35	1122.52
584.71	1127.67
585.06	1139.37
585.41	1122.75
585.76	1117.84
586.11	1111.05
586.46	1119.48
586.81	1109.88
587.16	1126.97
587.51	1129.54
587.86	1127.90
588.21	1115.03
588.56	1114.56
588.91	1110.58
589.26	1106.84
589.61	1111.29
589.96	1113.16
590.31	1116.67
590.66	1115.73
591.01	1111.05
591.36	1114.56
591.71	1112.92
592.06	1111.05
592.41	1106.84
592.76	1115.50
593.10	1107.78
593.45	1106.84
593.80	1099.35
594.15	1096.78
594.50	1089.99
594.85	1096.78
595.20	1095.14
595.55	1100.52
595.90	1104.97
596.25	1104.03
596.60	1100.75
596.95	1090.92
597.30	1093.26
597.64	1141.95
597.99	1157.39
598.34	1148.27
598.69	1153.65
599.04	1142.42
599.39	1098.65
599.74	1076.88
600.09	1079.46
600.44	1083.43
600.78	1084.84
601.13	1088.35
601.48	1101.46
601.83	1109.88
602.18	1112.69
602.53	1118.78
602.88	1111.05
603.22	1108.71
603.57	1099.82
603.92	1098.65
604.27	1100.75
604.62	1100.75
604.97	1095.84
605.31	1102.86
605.66	1097.71
606.01	1100.05
606.36	1102.86
606.71	1111.75
607.05	1113.63
607.40	1119.71
607.75	1117.37
608.10	1119.24
608.44	1118.78
608.79	1114.80
609.14	1115.50
609.49	1118.78
609.84	1108.01
610.18	1107.31
610.53	1107.07
610.88	1103.56
611.23	1106.61
611.57	1118.07
611.92	1113.39
612.27	1111.99
612.62	1116.67
612.96	1111.05
613.31	1107.54
613.66	1117.61
614.00	1120.18
614.35	1123.46
614.70	1120.41
615.05	1113.63
615.39	1109.18
615.74	1110.12
616.09	1107.31
616.43	1099.12
616.78	1093.26
617.13	1090.92
617.47	1095.14
617.82	1091.86
618.17	1096.54
618.51	1099.58
618.86	1095.60
619.21	1086.24
619.55	1087.18
619.90	1089.52
620.25	1091.39
620.59	1102.63
620.94	1104.26
621.29	1108.48
621.63	1113.16
621.98	1122.52
622.32	1114.80
622.67	1119.48
623.02	1114.80
623.36	1118.07
623.71	1114.09
624.05	1116.20
624.40	1107.54
624.75	1103.56
625.09	1097.48
625.44	1088.12
625.78	1085.31
626.13	1090.92
626.48	1090.92
626.82	1088.58
627.17	1088.12
627.51	1095.37
627.86	1100.29
628.20	1103.56
628.55	1109.88
628.89	1105.90
629.24	1095.84
629.58	1088.12
629.93	1082.97
630.28	1074.07
630.62	1087.65
630.97	1088.82
631.31	1087.41
631.66	1094.20
632.00	1089.52
632.35	1091.16
632.69	1087.18
633.04	1091.39
633.38	1095.37
633.73	1093.73
634.07	1100.05
634.42	1103.09
634.76	1107.78
635.11	1100.75
635.45	1112.69
635.79	1110.82
636.14	1119.01
636.48	1111.99
636.83	1114.80
637.17	1113.39
637.52	1105.67
637.86	1102.39
638.21	1108.71
638.55	1110.58
638.89	1111.99
639.24	1106.84
639.58	1101.92
639.93	1089.52
640.27	1089.52
640.61	1086.01
640.96	1088.58
641.30	1088.82
641.65	1099.12
641.99	1107.54
642.33	1106.61
642.68	1108.95
643.02	1107.54
643.37	1111.05
643.71	1091.86
644.05	1093.03
644.40	1085.77
644.74	1083.43
645.08	1075.48
645.43	1080.39
645.77	1086.48
646.11	1091.63
646.46	1095.84
646.80	1094.43
647.14	1103.56
647.49	1101.69
647.83	1106.84
648.17	1105.67
648.52	1111.52
648.86	1102.63
649.20	1117.84
649.55	1114.56
649.89	1115.03
650.23	1110.82
650.57	1113.16
650.92	1092.80
651.26	1087.18
651.60	1085.31
651.95	1078.99
652.29	1072.67
652.63	1077.35
652.97	1080.39
653.32	1088.82
653.66	1097.71
654.00	1102.39
654.34	1095.37
654.69	1098.65
655.03	1088.82
655.37	1092.80
655.71	1106.14
656.05	1113.16
656.40	1112.92
656.74	1114.10
657.08	1107.78
657.42	1094.90
657.76	1084.84
658.11	1075.01
658.45	1083.43
658.79	1084.14
659.13	1086.94
659.47	1093.03
659.82	1099.58
660.16	1102.86
660.50	1102.86
660.84	1098.41
661.18	1092.56
661.52	1100.99
661.87	1100.29
662.21	1099.58
662.55	1091.63
662.89	1098.18
663.23	1093.26
663.57	1081.80
663.91	1079.22
664.25	1084.84
664.60	1085.07
664.94	1096.07
665.28	1103.33
665.62	1109.88
665.96	1121.35
666.30	1116.67
666.64	1101.22
666.98	1083.67
667.32	1082.26
667.66	1074.31
668.01	1076.18
668.35	1076.41
668.69	1106.37
669.03	1100.05
669.37	1098.88
669.71	1104.50
670.05	1106.61
670.39	1082.97
670.73	1083.43
671.07	1085.54
671.41	1078.75
671.75	1080.86
672.09	1093.73
672.43	1100.99
672.77	1094.67
673.11	1095.37
673.45	1088.58
673.79	1086.94
674.13	1084.14
674.47	1090.69
674.81	1084.84
675.15	1081.33
675.49	1074.31
675.83	1070.80
676.17	1058.39
676.51	1072.67
676.85	1074.07
677.19	1071.26
677.53	1068.69
677.87	1076.65
678.21	1073.37
678.55	1088.82
678.89	1090.22
679.23	1092.56
679.57	1093.97
679.90	1093.03
680.24	1090.69
680.58	1096.54
680.92	1097.48
681.26	1097.71
681.60	1096.07
681.94	1090.46
682.28	1081.80
682.62	1084.84
682.96	1083.90
683.29	1078.75
683.63	1076.41
683.97	1076.88
684.31	1073.37
684.65	1067.99
684.99	1072.90
685.33	1074.07
685.67	1084.14
686.00	1078.99
686.34	1080.86
686.68	1078.28
687.02	1068.45
687.36	1060.73
687.70	1054.88
688.03	1058.39
688.37	1059.09
688.71	1065.88
689.05	1072.67
689.39	1090.92
689.72	1099.82
690.06	1104.50
690.40	1104.26
690.74	1097.24
691.08	1097.95
691.41	1096.54
691.75	1092.09
692.09	1100.05
692.43	1104.73
692.76	1095.84
693.10	1097.24
693.44	1095.60
693.78	1092.56
694.11	1089.52
694.45	1089.99
694.79	1085.77
695.13	1082.03
695.46	1081.09
695.80	1081.80
696.14	1084.84
696.48	1082.03
696.81	1088.12
697.15	1084.84
697.49	1081.33
697.82	1073.60
698.16	1077.58
698.50	1074.54
698.83	1087.65
699.17	1096.54
699.51	1106.14
699.84	1099.12
700.18	1109.18
700.52	1096.54
700.85	1091.16
701.19	1075.71
701.53	1079.22
701.86	1076.88
702.20	1079.22
702.54	1084.84
702.87	1107.31
703.21	1108.01
703.55	1101.92
703.88	1097.48
704.22	1088.35
704.55	1069.39
704.89	1078.99
705.23	1082.26
705.56	1087.88
705.90	1090.69
706.23	1094.43
706.57	1073.60
706.91	1071.73
707.24	1077.35
707.58	1078.52
707.91	1085.77
708.25	1082.97
708.58	1080.16
708.92	1075.24
709.26	1069.86
709.59	1060.96
709.93	1068.45
710.26	1079.69
710.60	1075.94
710.93	1082.97
711.27	1086.24
711.60	1086.94
711.94	1073.14
712.27	1063.77
712.61	1056.52
712.94	1052.54
713.28	1051.60
713.61	1059.09
713.95	1070.80
714.28	1082.26
714.62	1093.97
714.95	1089.99
715.29	1077.58
715.62	1086.71
715.96	1081.56
716.29	1070.33
716.63	1081.33
716.96	1089.29
717.29	1074.07
717.63	1070.56
717.96	1071.73
718.30	1073.14
718.63	1074.07
718.97	1079.46
719.30	1086.71
719.63	1093.03
719.97	1082.97
720.30	1082.26
720.64	1076.18
720.97	1069.39
721.30	1067.75
721.64	1074.54
721.97	1070.09
722.31	1080.16
722.64	1086.24
722.97	1090.69
723.31	1085.07
723.64	1086.48
723.97	1080.86
724.31	1079.69
724.64	1071.03
724.98	1073.14
725.31	1083.67
725.64	1091.86
725.98	1090.92
726.31	1105.20
726.64	1104.26
726.97	1100.75
727.31	1093.97
727.64	1093.73
727.97	1089.52
728.31	1088.35
728.64	1085.07
728.97	1086.48
729.31	1091.63
729.64	1086.94
729.97	1093.26
730.30	1098.18
730.64	1094.90
730.97	1089.05
731.30	1084.84
731.63	1092.09
731.97	1079.69
732.30	1082.50
732.63	1085.54
732.96	1089.75
733.30	1080.86
733.63	1083.20
733.96	1080.86
734.29	1080.39
734.63	1081.80
734.96	1083.43
735.29	1088.12
735.62	1089.99
735.95	1081.09
736.29	1083.43
736.62	1068.22
736.95	1071.97
737.28	1068.92
737.61	1075.01
737.94	1081.33
738.28	1086.71
738.61	1081.56
738.94	1077.58
739.27	1078.52
739.60	1072.43
739.93	1076.18
740.27	1070.56
740.60	1071.50
740.93	1061.90
741.26	1056.28
741.59	1058.86
741.92	1063.54
742.25	1074.77
742.58	1083.43
742.91	1071.03
743.25	1070.56
743.58	1076.41
743.91	1065.88
744.24	1059.56
744.57	1068.45
744.90	1074.77
745.23	1065.41
745.56	1063.54
745.89	1067.28
746.22	1067.75
746.55	1060.50
746.88	1075.01
747.21	1082.26
747.54	1083.43
747.87	1085.54
748.20	1089.52
748.53	1081.56
748.87	1083.20
749.20	1086.94
749.53	1081.09
749.86	1078.28
750.19	1082.73
750.52	1073.37
750.85	1060.26
751.18	1069.62
751.51	1078.52
751.84	1080.63
752.16	1091.86
752.49	1103.80
752.82	1104.03
753.15	1097.95
753.48	1092.09
753.81	1086.71
754.14	1079.22
754.47	1068.45
754.80	1075.71
755.13	1071.97
755.46	1073.84
755.79	1074.31
756.12	1090.22
756.45	1076.18
756.78	1075.24
757.11	1078.05
757.43	1086.71
757.76	1078.28
758.09	1096.31
758.42	1110.82
758.75	1099.82
759.08	1097.71
759.41	1097.95
759.74	1096.31
760.07	1092.33
760.39	1098.18
760.72	1101.22
761.05	1106.84
761.38	1091.63
761.71	1086.94
762.04	1088.35
762.36	1093.03
762.69	1077.35
763.02	1075.48
763.35	1077.82
763.68	1078.05
764.01	1069.62
