SpectraSuite Data File
++++++++++++++++++++++++++++++++++++
Date: Mon Aug 26 10:24:42 PDT 2019
User: corrico
Dark Spectrum Present: No
Reference Spectrum Present: No
Number of Sampled Component Spectra: 1
Spectrometers: USB2+H06089
Integration Time (usec): 10000 (USB2+H06089)
Spectra Averaged: 2 (USB2+H06089)
Boxcar Smoothing: 2 (USB2+H06089)
Correct for Electrical Dark: No (USB2+H06089)
Strobe/Lamp Enabled: No (USB2+H06089)
Correct for Detector Non-linearity: No (USB2+H06089)
Correct for Stray Light: No (USB2+H06089)
Number of Pixels in Processed Spectrum: 2048
>>>>>Begin Processed Spectral Data<<<<<
339.70	1014.62
340.07	1014.62
340.45	984.90
340.82	966.41
341.19	942.53
341.57	923.34
341.94	906.02
342.31	899.00
342.69	891.98
343.06	895.02
343.43	890.34
343.81	906.49
344.18	919.83
344.55	931.77
344.93	938.79
345.30	952.83
345.67	958.45
346.04	957.98
346.42	957.05
346.79	968.28
347.16	965.00
347.54	965.24
347.91	974.37
348.28	991.22
348.65	1001.75
349.03	1022.58
349.40	1027.73
349.77	1043.88
350.14	1051.84
350.52	1046.92
350.89	1056.05
351.26	1075.24
351.63	1074.07
352.01	1072.43
352.38	1072.90
352.75	1067.05
353.12	1070.33
353.50	1062.60
353.87	1072.20
354.24	1086.94
354.61	1096.07
354.98	1092.33
355.36	1097.71
355.73	1090.46
356.10	1087.65
356.47	1080.63
356.84	1087.41
357.22	1104.50
357.59	1108.01
357.96	1109.88
358.33	1125.10
358.70	1119.01
359.08	1110.12
359.45	1111.29
359.82	1108.95
360.19	1096.78
360.56	1104.50
360.94	1101.92
361.31	1104.97
361.68	1104.73
362.05	1097.01
362.42	1093.50
362.79	1095.37
363.16	1093.97
363.54	1092.56
363.91	1095.60
364.28	1091.86
364.65	1089.52
365.02	1094.20
365.39	1086.01
365.76	1088.35
366.14	1080.63
366.51	1080.16
366.88	1071.73
367.25	1073.84
367.62	1075.01
367.99	1073.14
368.36	1082.73
368.73	1079.22
369.10	1091.86
369.48	1097.24
369.85	1097.95
370.22	1094.20
370.59	1096.31
370.96	1097.95
371.33	1096.07
371.70	1110.35
372.07	1103.33
372.44	1107.07
372.81	1099.35
373.18	1094.43
373.55	1084.37
373.93	1087.88
374.30	1091.39
374.67	1106.84
375.04	1116.44
375.41	1116.90
375.78	1117.61
376.15	1111.75
376.52	1100.75
376.89	1086.71
377.26	1090.46
377.63	1090.46
378.00	1095.14
378.37	1093.73
378.74	1098.88
379.11	1100.75
379.48	1102.39
379.85	1101.46
380.22	1098.88
380.59	1094.43
380.96	1099.58
381.33	1101.92
381.70	1105.90
382.07	1109.18
382.44	1116.90
382.81	1115.27
383.18	1117.37
383.55	1108.01
383.92	1108.24
384.29	1111.52
384.66	1111.29
385.03	1099.35
385.40	1107.54
385.77	1121.12
386.14	1122.05
386.51	1116.90
386.88	1118.54
387.25	1118.78
387.62	1107.07
387.99	1120.41
388.36	1132.59
388.73	1137.50
389.10	1137.73
389.46	1140.07
389.83	1136.80
390.20	1131.41
390.57	1134.69
390.94	1135.63
391.31	1137.73
391.68	1122.52
392.05	1126.50
392.42	1126.50
392.79	1131.65
393.16	1138.20
393.53	1140.31
393.89	1137.73
394.26	1136.56
394.63	1141.71
395.00	1131.88
395.37	1135.16
395.74	1130.95
396.11	1138.67
396.48	1138.44
396.84	1146.16
397.21	1156.46
397.58	1168.63
397.95	1173.54
398.32	1172.37
398.69	1180.57
399.06	1176.12
399.42	1177.99
399.79	1176.59
400.16	1185.01
400.53	1181.03
400.90	1186.42
401.27	1191.10
401.64	1199.99
402.00	1206.31
402.37	1217.55
402.74	1237.44
403.11	1246.80
403.48	1256.17
403.84	1265.29
404.21	1282.85
404.58	1286.59
404.95	1311.87
405.32	1335.74
405.68	1362.89
406.05	1386.07
406.42	1416.26
406.79	1433.81
407.16	1448.56
407.52	1466.11
407.89	1489.28
408.26	1521.11
408.63	1555.05
408.99	1600.93
409.36	1645.40
409.73	1690.10
410.10	1740.89
410.47	1801.04
410.83	1860.26
411.20	1922.98
411.57	1991.56
411.94	2053.59
412.30	2124.74
412.67	2209.70
413.04	2295.60
413.40	2394.13
413.77	2507.18
414.14	2627.72
414.51	2745.92
414.87	2883.77
415.24	3025.14
415.61	3165.57
415.97	3310.69
416.34	3463.29
416.71	3641.41
417.08	3826.07
417.44	4031.57
417.81	4260.01
418.18	4528.94
418.54	4781.01
418.91	5058.83
419.28	5343.21
419.64	5664.33
420.01	5973.98
420.38	6331.15
420.74	6678.02
421.11	7084.80
421.48	7442.44
421.84	7863.97
422.21	8305.16
422.58	8790.82
422.94	9287.25
423.31	9840.78
423.68	10423.11
424.04	11020.65
424.41	11640.19
424.77	12261.13
425.14	12922.33
425.51	13621.45
425.87	14370.19
426.24	15110.26
426.61	16014.65
426.97	17046.59
427.34	17985.61
427.70	19025.51
428.07	20086.01
428.44	21084.48
428.80	22037.78
429.17	23119.34
429.53	24125.77
429.90	25390.60
430.27	26541.68
430.63	27715.92
431.00	28968.81
431.36	30384.37
431.73	31481.61
432.09	32710.39
432.46	33994.17
432.83	35372.28
433.19	36558.93
433.56	38126.86
433.92	39818.36
434.29	41318.65
434.65	42708.69
435.02	44045.84
435.38	45183.34
435.75	45999.02
436.11	47226.86
436.48	48275.66
436.84	49336.39
437.21	50284.54
437.57	51259.60
437.94	51900.91
438.30	52488.39
438.67	52846.49
439.03	53027.88
439.40	53190.55
439.76	53050.11
440.13	52842.04
440.49	52829.40
440.86	52539.64
441.22	52156.97
441.59	51670.84
441.95	51126.90
442.32	50238.66
442.68	49512.16
443.05	48514.39
443.41	47643.71
443.78	46561.92
444.14	45505.16
444.51	44225.36
444.87	43281.42
445.24	41922.27
445.60	40777.52
445.96	39664.36
446.33	38844.94
446.69	37691.99
447.06	36826.93
447.42	35781.64
447.79	34631.03
448.15	33563.52
448.51	32557.55
448.88	31726.90
449.24	30751.13
449.61	30072.14
449.97	29294.85
450.33	28580.75
450.70	27652.26
451.06	27076.96
451.43	26276.96
451.79	25724.36
452.15	25168.48
452.52	24628.52
452.88	23994.94
453.24	23467.15
453.61	22744.39
453.97	22093.25
454.34	21423.63
454.70	20907.30
455.06	20318.89
455.43	19620.01
455.79	18835.93
456.15	18321.25
456.52	17594.98
456.88	17040.04
457.24	16482.52
457.61	16049.29
457.97	15468.37
458.33	14945.02
458.70	14392.19
459.06	13866.74
459.42	13419.46
459.79	12937.78
460.15	12549.02
460.51	12084.42
460.88	11709.23
461.24	11265.23
461.60	10928.90
461.96	10549.73
462.33	10226.27
462.69	9887.36
463.05	9556.88
463.42	9230.84
463.78	8950.91
464.14	8703.28
464.50	8474.14
464.87	8244.54
465.23	8018.68
465.59	7789.07
465.95	7554.31
466.32	7341.56
466.68	7135.12
467.04	6915.35
467.40	6733.96
467.77	6565.90
468.13	6373.04
468.49	6201.95
468.85	6088.20
469.22	5968.60
469.58	5821.15
469.94	5698.27
470.30	5578.67
470.66	5451.81
471.03	5306.70
471.39	5221.50
471.75	5107.28
472.11	5034.73
472.47	4932.21
472.84	4821.50
473.20	4694.41
473.56	4610.39
473.92	4474.17
474.28	4375.63
474.65	4298.16
475.01	4209.22
475.37	4115.13
475.73	4049.59
476.09	3970.95
476.45	3892.78
476.81	3810.63
477.18	3736.43
477.54	3651.00
477.90	3568.38
478.26	3489.74
478.62	3436.14
478.98	3372.95
479.34	3344.39
479.71	3284.47
480.07	3225.49
480.43	3176.34
480.79	3126.02
481.15	3062.83
481.51	3037.08
481.87	3003.14
482.23	2962.65
482.59	2902.26
482.96	2847.96
483.32	2797.88
483.68	2744.28
484.04	2707.53
484.40	2673.36
484.76	2642.70
485.12	2603.85
485.48	2579.04
485.84	2541.12
486.20	2525.20
486.56	2483.78
486.92	2443.29
487.28	2413.09
487.64	2369.79
488.00	2335.15
488.37	2298.41
488.73	2272.89
489.09	2233.11
489.45	2202.91
489.81	2161.02
490.17	2128.48
490.53	2096.42
490.89	2063.88
491.25	2037.67
491.61	2021.99
491.97	1994.60
492.33	1985.71
492.69	1969.33
493.05	1949.20
493.41	1916.20
493.77	1899.58
494.13	1861.90
494.49	1842.00
494.85	1821.64
495.21	1789.11
495.57	1756.57
495.93	1743.23
496.29	1718.89
496.64	1694.78
497.00	1680.50
497.36	1666.46
497.72	1652.42
498.08	1649.14
498.44	1636.27
498.80	1625.97
499.16	1612.40
499.52	1594.61
499.88	1560.90
500.24	1537.50
500.60	1523.22
500.96	1506.84
501.32	1489.05
501.68	1481.79
502.03	1475.47
502.39	1472.43
502.75	1468.69
503.11	1453.94
503.47	1452.07
503.83	1439.90
504.19	1433.34
504.55	1420.24
504.91	1411.58
505.26	1390.98
505.62	1385.60
505.98	1373.66
506.34	1365.47
506.70	1362.66
507.06	1357.51
507.42	1347.21
507.78	1332.70
508.13	1332.47
508.49	1328.25
508.85	1332.70
509.21	1330.59
509.57	1325.68
509.93	1320.76
510.28	1304.38
510.64	1291.74
511.00	1284.95
511.36	1273.02
511.72	1265.53
512.07	1264.59
512.43	1259.91
512.79	1250.08
513.15	1258.04
513.51	1255.00
513.86	1255.46
514.22	1258.27
514.58	1264.59
514.94	1259.91
515.30	1251.25
515.65	1247.04
516.01	1239.08
516.37	1226.91
516.73	1221.06
517.08	1219.65
517.44	1220.36
517.80	1218.25
518.16	1211.23
518.51	1204.21
518.87	1208.89
519.23	1198.59
519.59	1201.16
519.94	1204.21
520.30	1211.70
520.66	1213.57
521.01	1213.33
521.37	1195.31
521.73	1197.89
522.09	1183.14
522.44	1173.78
522.80	1177.99
523.16	1186.89
523.51	1180.80
523.87	1183.14
524.23	1187.12
524.58	1181.50
524.94	1182.20
525.30	1191.80
525.65	1195.08
526.01	1190.40
526.37	1195.55
526.72	1198.35
527.08	1191.10
527.44	1185.25
527.79	1171.20
528.15	1155.99
528.51	1135.63
528.86	1137.73
529.22	1137.73
529.58	1146.86
529.93	1149.91
530.29	1163.01
530.65	1159.97
531.00	1166.52
531.36	1174.71
531.71	1176.12
532.07	1172.14
532.43	1164.65
532.78	1159.50
533.14	1146.63
533.49	1139.84
533.85	1132.12
534.21	1132.82
534.56	1132.82
534.92	1130.01
535.27	1133.29
535.63	1146.39
535.98	1145.93
536.34	1136.80
536.69	1139.84
537.05	1142.88
537.41	1130.01
537.76	1133.99
538.12	1133.52
538.47	1133.52
538.83	1126.73
539.18	1128.61
539.54	1111.99
539.89	1117.61
540.25	1122.52
540.60	1125.80
540.96	1133.52
541.31	1150.37
541.67	1153.18
542.02	1153.18
542.38	1166.29
542.73	1155.05
543.09	1141.95
543.44	1143.12
543.80	1142.88
544.15	1125.33
544.51	1124.39
544.86	1134.22
545.22	1131.41
545.57	1120.88
545.93	1128.61
546.28	1131.18
546.64	1132.82
546.99	1132.59
547.35	1132.59
547.70	1123.93
548.05	1129.07
548.41	1124.63
548.76	1116.90
549.12	1127.20
549.47	1131.18
549.83	1135.86
550.18	1125.33
550.53	1123.69
550.89	1114.80
551.24	1104.26
551.60	1094.67
551.95	1102.16
552.30	1109.41
552.66	1110.35
553.01	1113.16
553.37	1119.71
553.72	1125.56
554.07	1117.61
554.43	1114.33
554.78	1127.44
555.13	1132.35
555.49	1125.10
555.84	1132.35
556.19	1126.73
556.55	1124.86
556.90	1110.82
557.26	1119.01
557.61	1120.18
557.96	1131.18
558.32	1128.14
558.67	1128.84
559.02	1120.18
559.37	1111.75
559.73	1114.33
560.08	1113.86
560.43	1116.67
560.79	1112.46
561.14	1109.18
561.49	1100.99
561.85	1098.41
562.20	1100.99
562.55	1107.54
562.90	1106.61
563.26	1106.84
563.61	1105.90
563.96	1102.86
564.32	1097.24
564.67	1114.80
565.02	1113.63
565.37	1117.84
565.73	1118.54
566.08	1119.01
566.43	1103.56
566.78	1111.29
567.14	1113.39
567.49	1111.99
567.84	1106.14
568.19	1106.61
568.54	1100.29
568.90	1092.56
569.25	1096.54
569.60	1104.03
569.95	1115.03
570.31	1108.95
570.66	1114.33
571.01	1109.41
571.36	1109.41
571.71	1109.18
572.06	1114.80
572.42	1112.92
572.77	1112.22
573.12	1118.54
573.47	1110.82
573.82	1104.26
574.18	1103.80
574.53	1104.03
574.88	1100.05
575.23	1101.69
575.58	1109.18
575.93	1108.71
576.28	1104.26
576.64	1100.29
576.99	1098.88
577.34	1097.01
577.69	1090.22
578.04	1091.86
578.39	1086.48
578.74	1085.07
579.09	1088.35
579.44	1093.50
579.80	1095.37
580.15	1102.39
580.50	1111.75
580.85	1112.22
581.20	1118.07
581.55	1114.10
581.90	1113.16
582.25	1104.73
582.60	1100.75
582.95	1087.18
583.30	1096.07
583.65	1093.26
584.00	1087.65
584.35	1084.37
584.71	1087.18
585.06	1084.37
585.41	1084.60
585.76	1097.48
586.11	1106.14
586.46	1113.39
586.81	1119.48
587.16	1129.31
587.51	1118.07
587.86	1117.61
588.21	1109.18
588.56	1112.92
588.91	1105.20
589.26	1105.67
589.61	1100.75
589.96	1112.22
590.31	1101.92
590.66	1108.01
591.01	1111.29
591.36	1119.01
591.71	1115.03
592.06	1109.65
592.41	1114.56
592.76	1122.75
593.10	1115.27
593.45	1108.01
593.80	1110.58
594.15	1107.54
594.50	1109.88
594.85	1119.95
595.20	1120.41
595.55	1122.75
595.90	1111.29
596.25	1106.37
596.60	1094.90
596.95	1096.78
597.30	1100.29
597.64	1158.80
597.99	1157.86
598.34	1157.16
598.69	1153.65
599.04	1149.44
599.39	1096.07
599.74	1094.90
600.09	1103.33
600.44	1118.31
600.78	1120.41
601.13	1119.48
601.48	1106.84
601.83	1093.26
602.18	1072.43
602.53	1066.58
602.88	1058.16
603.22	1067.28
603.57	1081.80
603.92	1090.22
604.27	1096.07
604.62	1103.09
604.97	1107.31
605.31	1105.90
605.66	1104.73
606.01	1100.52
606.36	1091.39
606.71	1086.01
607.05	1073.37
607.40	1077.82
607.75	1084.60
608.10	1093.97
608.44	1094.43
608.79	1103.33
609.14	1111.99
609.49	1104.50
609.84	1104.97
610.18	1111.75
610.53	1113.39
610.88	1106.84
611.23	1110.12
611.57	1104.97
611.92	1100.52
612.27	1092.80
612.62	1090.69
612.96	1096.31
613.31	1095.14
613.66	1090.46
614.00	1092.56
614.35	1094.67
614.70	1096.07
615.05	1103.56
615.39	1105.44
615.74	1101.22
616.09	1105.90
616.43	1094.43
616.78	1100.05
617.13	1092.80
617.47	1092.56
617.82	1083.90
618.17	1084.14
618.51	1088.12
618.86	1100.05
619.21	1113.86
619.55	1107.07
619.90	1106.37
620.25	1107.07
620.59	1105.90
620.94	1098.65
621.29	1100.52
621.63	1110.12
621.98	1100.05
622.32	1103.09
622.67	1107.31
623.02	1106.37
623.36	1096.78
623.71	1098.88
624.05	1088.82
624.40	1083.20
624.75	1087.18
625.09	1085.77
625.44	1082.03
625.78	1092.80
626.13	1088.58
626.48	1082.97
626.82	1088.35
627.17	1091.16
627.51	1086.48
627.86	1087.41
628.20	1096.78
628.55	1101.92
628.89	1101.46
629.24	1103.33
629.58	1108.48
629.93	1101.46
630.28	1097.48
630.62	1105.67
630.97	1100.05
631.31	1085.31
631.66	1086.48
632.00	1086.01
632.35	1072.20
632.69	1075.24
633.04	1087.88
633.38	1092.09
633.73	1087.65
634.07	1097.01
634.42	1094.90
634.76	1083.43
635.11	1089.05
635.45	1093.97
635.79	1082.97
636.14	1091.16
636.48	1103.09
636.83	1101.22
637.17	1098.41
637.52	1095.84
637.86	1089.05
638.21	1088.82
638.55	1091.86
638.89	1098.88
639.24	1113.63
639.58	1119.95
639.93	1117.84
640.27	1114.80
640.61	1112.46
640.96	1108.24
641.30	1093.73
641.65	1096.07
641.99	1084.84
642.33	1084.60
642.68	1077.58
643.02	1079.22
643.37	1082.73
643.71	1089.29
644.05	1079.92
644.40	1087.18
644.74	1089.29
645.08	1084.37
645.43	1088.82
645.77	1093.26
646.11	1091.86
646.46	1097.95
646.80	1089.29
647.14	1087.65
647.49	1087.18
647.83	1082.73
648.17	1080.39
648.52	1085.54
648.86	1087.18
649.20	1089.29
649.55	1088.35
649.89	1088.35
650.23	1085.77
650.57	1080.63
650.92	1079.69
651.26	1082.50
651.60	1083.20
651.95	1090.22
652.29	1090.69
652.63	1091.39
652.97	1097.24
653.32	1095.14
653.66	1090.46
654.00	1089.75
654.34	1087.65
654.69	1078.28
655.03	1090.46
655.37	1100.52
655.71	1099.12
656.05	1100.29
656.40	1109.18
656.74	1104.97
657.08	1101.22
657.42	1101.22
657.76	1100.29
658.11	1104.50
658.45	1099.82
658.79	1096.54
659.13	1104.26
659.47	1112.69
659.82	1109.41
660.16	1107.78
660.50	1112.46
660.84	1100.05
661.18	1092.33
661.52	1085.07
661.87	1094.43
662.21	1088.58
662.55	1088.35
662.89	1092.33
663.23	1097.71
663.57	1093.97
663.91	1104.03
664.25	1108.24
664.60	1102.63
664.94	1085.07
665.28	1082.26
665.62	1068.45
665.96	1070.33
666.30	1070.80
666.64	1092.56
666.98	1090.92
667.32	1096.31
667.66	1096.54
668.01	1096.31
668.35	1091.16
668.69	1090.22
669.03	1101.69
669.37	1098.41
669.71	1101.46
670.05	1105.67
670.39	1107.54
670.73	1104.26
671.07	1115.27
671.41	1113.16
671.75	1097.48
672.09	1092.33
672.43	1089.05
672.77	1083.20
673.11	1089.99
673.45	1098.65
673.79	1101.46
674.13	1099.12
674.47	1104.26
674.81	1093.03
675.15	1096.78
675.49	1091.16
675.83	1090.92
676.17	1080.86
676.51	1095.37
676.85	1095.60
677.19	1103.80
677.53	1105.90
677.87	1109.41
678.21	1101.92
678.55	1091.63
678.89	1090.46
679.23	1084.14
679.57	1090.46
679.90	1089.05
680.24	1083.67
680.58	1077.11
680.92	1085.54
681.26	1082.73
681.60	1079.22
681.94	1084.14
682.28	1089.05
682.62	1084.60
682.96	1086.24
683.29	1087.65
683.63	1092.56
683.97	1101.92
684.31	1100.05
684.65	1093.26
684.99	1088.12
685.33	1100.99
685.67	1094.20
686.00	1079.92
686.34	1085.07
686.68	1088.12
687.02	1079.69
687.36	1075.71
687.70	1093.50
688.03	1092.09
688.37	1094.20
688.71	1084.14
689.05	1074.77
689.39	1067.28
689.72	1070.33
690.06	1072.20
690.40	1071.26
690.74	1075.94
691.08	1074.77
691.41	1072.90
691.75	1064.24
692.09	1070.56
692.43	1075.94
692.76	1080.16
693.10	1077.11
693.44	1084.14
693.78	1080.86
694.11	1078.52
694.45	1080.39
694.79	1082.03
695.13	1081.80
695.46	1085.31
695.80	1083.20
696.14	1080.39
696.48	1075.48
696.81	1073.84
697.15	1071.50
697.49	1082.50
697.82	1076.41
698.16	1079.92
698.50	1075.94
698.83	1082.26
699.17	1078.52
699.51	1081.33
699.84	1082.50
700.18	1087.41
700.52	1080.63
700.85	1077.35
701.19	1081.09
701.53	1082.03
701.86	1073.60
702.20	1067.28
702.54	1066.11
702.87	1067.75
703.21	1068.92
703.55	1071.73
703.88	1083.20
704.22	1082.73
704.55	1084.60
704.89	1085.07
705.23	1100.99
705.56	1098.41
705.90	1096.31
706.23	1088.58
706.57	1081.80
706.91	1075.01
707.24	1075.48
707.58	1081.09
707.91	1084.60
708.25	1084.84
708.58	1080.16
708.92	1082.26
709.26	1076.65
709.59	1078.05
709.93	1089.52
710.26	1092.56
710.60	1086.48
710.93	1089.99
711.27	1096.78
711.60	1087.18
711.94	1085.77
712.27	1085.31
712.61	1088.35
712.94	1077.35
713.28	1079.22
713.61	1080.63
713.95	1076.65
714.28	1075.24
714.62	1084.60
714.95	1092.09
715.29	1095.37
715.62	1114.33
715.96	1111.29
716.29	1109.88
716.63	1099.12
716.96	1100.99
717.29	1088.58
717.63	1091.39
717.96	1084.60
718.30	1076.88
718.63	1070.33
718.97	1063.31
719.30	1057.45
719.63	1056.99
719.97	1065.88
720.30	1067.28
720.64	1069.62
720.97	1068.45
721.30	1067.52
721.64	1059.09
721.97	1060.26
722.31	1069.16
722.64	1078.52
722.97	1080.63
723.31	1083.43
723.64	1077.82
723.97	1078.75
724.31	1082.26
724.64	1086.24
724.98	1090.92
725.31	1091.63
725.64	1090.69
725.98	1073.37
726.31	1060.03
726.64	1060.50
726.97	1068.45
727.31	1068.45
727.64	1070.33
727.97	1091.16
728.31	1089.99
728.64	1092.09
728.97	1085.31
729.31	1100.29
729.64	1086.71
729.97	1085.54
730.30	1076.18
730.64	1077.82
730.97	1075.48
731.30	1068.45
731.63	1069.62
731.97	1074.07
732.30	1071.03
732.63	1065.18
732.96	1076.65
733.30	1072.43
733.63	1066.58
733.96	1076.18
734.29	1079.69
734.63	1088.58
734.96	1090.46
735.29	1098.18
735.62	1089.75
735.95	1085.31
736.29	1076.41
736.62	1079.22
736.95	1073.60
737.28	1079.69
737.61	1087.41
737.94	1085.07
738.28	1085.54
738.61	1088.35
738.94	1085.07
739.27	1085.07
739.60	1093.03
739.93	1091.16
740.27	1089.99
740.60	1090.46
740.93	1088.12
741.26	1087.88
741.59	1086.01
741.92	1093.73
742.25	1093.03
742.58	1084.84
742.91	1074.07
743.25	1076.18
743.58	1077.35
743.91	1080.16
744.24	1092.56
744.57	1099.58
744.90	1101.22
745.23	1094.90
745.56	1103.80
745.89	1097.01
746.22	1096.31
746.55	1089.29
746.88	1081.09
747.21	1066.82
747.54	1067.28
747.87	1057.22
748.20	1058.86
748.53	1065.88
748.87	1075.48
749.20	1073.84
749.53	1086.48
749.86	1090.92
750.19	1092.56
750.52	1085.54
750.85	1090.22
751.18	1085.54
751.51	1081.09
751.84	1081.09
752.16	1086.94
752.49	1083.43
752.82	1090.92
753.15	1096.78
753.48	1095.84
753.81	1093.26
754.14	1089.99
754.47	1082.97
754.80	1090.22
755.13	1088.35
755.46	1085.31
755.79	1087.41
756.12	1088.58
756.45	1086.48
756.78	1092.09
757.11	1094.43
757.43	1095.37
757.76	1094.43
758.09	1083.43
758.42	1066.82
758.75	1063.77
759.08	1057.45
759.41	1056.52
759.74	1066.35
760.07	1075.71
760.39	1083.43
760.72	1084.14
761.05	1086.24
761.38	1089.05
761.71	1091.39
762.04	1087.41
762.36	1093.50
762.69	1091.86
763.02	1091.63
763.35	1087.65
763.68	1084.37
764.01	1079.46
