SpectraSuite Data File
++++++++++++++++++++++++++++++++++++
Date: Mon Aug 26 10:24:44 PDT 2019
User: corrico
Dark Spectrum Present: No
Reference Spectrum Present: No
Number of Sampled Component Spectra: 1
Spectrometers: USB2+H06089
Integration Time (usec): 10000 (USB2+H06089)
Spectra Averaged: 2 (USB2+H06089)
Boxcar Smoothing: 2 (USB2+H06089)
Correct for Electrical Dark: No (USB2+H06089)
Strobe/Lamp Enabled: No (USB2+H06089)
Correct for Detector Non-linearity: No (USB2+H06089)
Correct for Stray Light: No (USB2+H06089)
Number of Pixels in Processed Spectrum: 2048
>>>>>Begin Processed Spectral Data<<<<<
339.70	1023.98
340.07	1023.98
340.45	993.09
340.82	965.94
341.19	932.94
341.57	901.57
341.94	888.23
342.31	879.57
342.69	886.36
343.06	895.96
343.43	908.13
343.81	911.17
344.18	909.77
344.55	909.30
344.93	910.47
345.30	914.21
345.67	919.36
346.04	930.13
346.42	934.11
346.79	939.02
347.16	940.66
347.54	958.68
347.91	973.43
348.28	987.47
348.65	1003.62
349.03	1014.39
349.40	1014.15
349.77	1018.37
350.14	1025.15
350.52	1032.18
350.89	1044.82
351.26	1056.52
351.63	1062.60
352.01	1061.67
352.38	1063.77
352.75	1073.14
353.12	1077.58
353.50	1083.67
353.87	1100.29
354.24	1098.41
354.61	1096.07
354.98	1094.67
355.36	1093.73
355.73	1087.65
356.10	1093.50
356.47	1092.56
356.84	1091.86
357.22	1100.29
357.59	1092.80
357.96	1105.20
358.33	1108.71
358.70	1108.95
359.08	1097.95
359.45	1098.41
359.82	1084.37
360.19	1078.99
360.56	1073.84
360.94	1083.90
361.31	1088.12
361.68	1094.67
362.05	1094.67
362.42	1105.20
362.79	1103.80
363.16	1101.92
363.54	1111.05
363.91	1114.56
364.28	1103.56
364.65	1098.65
365.02	1101.69
365.39	1088.58
365.76	1080.86
366.14	1087.88
366.51	1086.01
366.88	1083.43
367.25	1083.43
367.62	1086.71
367.99	1076.88
368.36	1078.05
368.73	1076.41
369.10	1075.94
369.48	1075.48
369.85	1087.65
370.22	1085.54
370.59	1085.54
370.96	1083.43
371.33	1077.11
371.70	1071.97
372.07	1075.71
372.44	1090.69
372.81	1095.14
373.18	1098.41
373.55	1098.65
373.93	1095.84
374.30	1093.03
374.67	1095.60
375.04	1104.26
375.41	1105.67
375.78	1105.67
376.15	1097.48
376.52	1086.01
376.89	1082.73
377.26	1080.16
377.63	1081.09
378.00	1089.52
378.37	1090.22
378.74	1088.82
379.11	1084.84
379.48	1083.20
379.85	1080.63
380.22	1083.90
380.59	1089.52
380.96	1093.97
381.33	1097.01
381.70	1101.46
382.07	1098.18
382.44	1093.73
382.81	1099.58
383.18	1118.31
383.55	1117.14
383.92	1116.20
384.29	1124.39
384.66	1124.39
385.03	1095.84
385.40	1090.46
385.77	1098.41
386.14	1084.37
386.51	1089.75
386.88	1101.22
387.25	1098.65
387.62	1111.75
387.99	1119.95
388.36	1122.29
388.73	1127.44
389.10	1139.14
389.46	1130.71
389.83	1124.63
390.20	1118.07
390.57	1111.05
390.94	1103.56
391.31	1105.67
391.68	1111.52
392.05	1113.86
392.42	1126.03
392.79	1134.46
393.16	1129.31
393.53	1135.86
393.89	1136.33
394.26	1128.14
394.63	1118.78
395.00	1126.50
395.37	1126.03
395.74	1124.39
396.11	1132.35
396.48	1137.50
396.84	1139.14
397.21	1137.27
397.58	1143.12
397.95	1155.76
398.32	1159.74
398.69	1166.99
399.06	1163.71
399.42	1162.08
399.79	1144.76
400.16	1148.97
400.53	1150.14
400.90	1172.61
401.27	1192.74
401.64	1202.57
402.00	1210.53
402.37	1218.95
402.74	1220.59
403.11	1221.76
403.48	1242.36
403.84	1256.87
404.21	1266.93
404.58	1281.68
404.95	1296.89
405.32	1312.34
405.68	1328.72
406.05	1351.19
406.42	1371.79
406.79	1398.70
407.16	1417.90
407.52	1445.05
407.89	1470.32
408.26	1497.47
408.63	1532.58
408.99	1558.56
409.36	1589.22
409.73	1637.20
410.10	1685.65
410.47	1721.00
410.83	1794.49
411.20	1850.43
411.57	1908.71
411.94	1976.35
412.30	2061.54
412.67	2125.21
413.04	2219.76
413.40	2304.49
413.77	2391.79
414.14	2486.35
414.51	2610.17
414.87	2725.79
415.24	2865.52
415.61	3021.63
415.97	3167.68
416.34	3324.97
416.71	3503.31
417.08	3692.20
417.44	3858.14
417.81	4053.81
418.18	4258.84
418.54	4489.38
418.91	4716.41
419.28	5002.66
419.64	5303.19
420.01	5600.43
420.38	5927.87
420.74	6267.49
421.11	6636.12
421.48	7008.73
421.84	7426.75
422.21	7821.37
422.58	8254.37
422.94	8695.32
423.31	9158.28
423.68	9670.16
424.04	10252.95
424.41	10822.87
424.77	11388.81
425.14	11983.07
425.51	12571.02
425.87	13223.32
426.24	13946.55
426.61	14736.25
426.97	15683.93
427.34	16545.72
427.70	17458.76
428.07	18341.37
428.44	19298.42
428.80	20181.74
429.17	21246.45
429.53	22305.54
429.90	23517.47
430.27	24548.47
430.63	25666.55
431.00	26874.27
431.36	28135.58
431.73	29255.76
432.09	30559.67
432.46	31794.07
432.83	32982.83
433.19	34078.43
433.56	35382.11
433.92	36708.03
434.29	37995.09
434.65	39316.79
435.02	40486.59
435.38	41593.66
435.75	42408.17
436.11	43509.39
436.48	44371.17
436.84	45312.77
437.21	46235.41
437.57	47243.25
437.94	47916.62
438.30	48644.99
438.67	49241.13
439.03	49499.76
439.40	49655.40
439.76	49536.50
440.13	49285.60
440.49	49070.97
440.86	48640.08
441.22	48307.72
441.59	47872.62
441.95	47403.34
442.32	46586.49
442.68	45891.35
443.05	44910.90
443.41	44016.35
443.78	42873.93
444.14	41897.46
444.51	40740.53
444.87	39905.90
445.24	38803.98
445.60	37816.74
445.96	36741.73
446.33	35929.33
446.69	34780.36
447.06	33859.59
447.42	32834.21
447.79	31836.20
448.15	30868.86
448.51	29944.11
448.88	29228.38
449.24	28395.38
449.61	27751.26
449.97	27032.72
450.33	26315.81
450.70	25442.56
451.06	24923.66
451.43	24206.29
451.79	23709.16
452.15	23242.92
452.52	22700.86
452.88	22154.34
453.24	21679.21
453.61	21115.61
453.97	20539.14
454.34	19958.45
454.70	19396.72
455.06	18838.74
455.43	18156.24
455.79	17431.61
456.15	16861.22
456.52	16202.83
456.88	15657.72
457.24	15123.61
457.61	14747.01
457.97	14328.06
458.33	13897.40
458.70	13358.37
459.06	12851.18
459.42	12412.33
459.79	11918.48
460.15	11494.14
460.51	11129.25
460.88	10776.53
461.24	10407.89
461.60	10110.41
461.96	9814.80
462.33	9516.85
462.69	9212.11
463.05	8900.36
463.42	8646.88
463.78	8372.33
464.14	8130.55
464.50	7948.46
464.87	7703.64
465.23	7463.73
465.59	7253.32
465.95	7068.42
466.32	6855.90
466.68	6682.70
467.04	6492.65
467.40	6327.87
467.77	6157.72
468.13	5997.62
468.49	5848.76
468.85	5734.78
469.22	5601.60
469.58	5441.51
469.94	5321.68
470.30	5219.16
470.66	5088.79
471.03	4990.02
471.39	4913.02
471.75	4819.40
472.11	4713.84
472.47	4653.69
472.84	4549.53
473.20	4446.55
473.56	4382.89
473.92	4269.84
474.28	4155.86
474.65	4076.51
475.01	4010.27
475.37	3893.95
475.73	3838.01
476.09	3775.75
476.45	3704.13
476.81	3621.74
477.18	3534.91
477.54	3467.27
477.90	3388.63
478.26	3306.01
478.62	3251.24
478.98	3223.39
479.34	3186.87
479.71	3128.83
480.07	3101.44
480.43	3044.80
480.79	2999.86
481.15	2935.03
481.51	2904.84
481.87	2862.01
482.23	2819.88
482.59	2751.77
482.96	2706.83
483.32	2667.51
483.68	2618.36
484.04	2583.48
484.40	2567.80
484.76	2541.35
485.12	2499.93
485.48	2474.18
485.84	2436.97
486.20	2395.54
486.56	2351.07
486.92	2321.34
487.28	2282.49
487.64	2253.47
488.00	2228.89
488.37	2213.21
488.73	2188.17
489.09	2159.38
489.45	2134.80
489.81	2107.65
490.17	2072.78
490.53	2033.22
490.89	2013.80
491.25	1985.48
491.61	1964.41
491.97	1934.45
492.33	1917.60
492.69	1891.39
493.05	1870.09
493.41	1828.66
493.77	1803.15
494.13	1781.62
494.49	1761.96
494.85	1729.42
495.21	1714.44
495.57	1702.97
495.93	1673.72
496.29	1649.61
496.64	1638.61
497.00	1621.06
497.36	1608.88
497.72	1604.91
498.08	1597.88
498.44	1596.01
498.80	1584.07
499.16	1574.24
499.52	1558.80
499.88	1549.90
500.24	1523.45
500.60	1503.56
500.96	1485.07
501.32	1472.43
501.68	1455.58
502.03	1451.60
502.39	1453.00
502.75	1449.49
503.11	1438.96
503.47	1427.26
503.83	1424.92
504.19	1416.73
504.55	1398.94
504.91	1394.96
505.26	1386.30
505.62	1375.53
505.98	1356.81
506.34	1354.47
506.70	1337.85
507.06	1330.83
507.42	1331.06
507.78	1330.83
508.13	1318.66
508.49	1315.62
508.85	1305.78
509.21	1293.15
509.57	1293.38
509.93	1294.78
510.28	1295.49
510.64	1296.66
511.00	1287.06
511.36	1274.19
511.72	1263.66
512.07	1257.10
512.43	1249.85
512.79	1250.55
513.15	1255.46
513.51	1255.23
513.86	1255.70
514.22	1252.89
514.58	1248.91
514.94	1236.27
515.30	1230.89
515.65	1220.12
516.01	1220.12
516.37	1212.16
516.73	1209.59
517.08	1203.27
517.44	1207.95
517.80	1203.50
518.16	1207.48
518.51	1216.38
518.87	1219.42
519.23	1212.40
519.59	1205.14
519.94	1193.44
520.30	1180.10
520.66	1170.74
521.01	1163.95
521.37	1170.50
521.73	1163.48
522.09	1160.20
522.44	1153.88
522.80	1158.10
523.16	1142.65
523.51	1152.25
523.87	1162.08
524.23	1170.74
524.58	1168.63
524.94	1178.93
525.30	1178.69
525.65	1165.82
526.01	1162.31
526.37	1157.86
526.72	1156.22
527.08	1157.86
527.44	1153.88
527.79	1158.10
528.15	1162.78
528.51	1170.27
528.86	1170.74
529.22	1180.10
529.58	1166.05
529.93	1170.50
530.29	1158.10
530.65	1147.10
531.00	1144.29
531.36	1154.35
531.71	1145.46
532.07	1141.25
532.43	1144.52
532.78	1140.54
533.14	1141.71
533.49	1141.95
533.85	1145.69
534.21	1141.95
534.56	1134.93
534.92	1130.24
535.27	1127.67
535.63	1123.69
535.98	1120.18
536.34	1127.67
536.69	1124.63
537.05	1122.29
537.41	1117.61
537.76	1126.27
538.12	1131.41
538.47	1131.18
538.83	1143.12
539.18	1156.46
539.54	1154.59
539.89	1158.10
540.25	1163.48
540.60	1159.97
540.96	1148.50
541.31	1142.18
541.67	1136.10
542.02	1133.76
542.38	1117.61
542.73	1124.39
543.09	1126.73
543.44	1125.80
543.80	1121.82
544.15	1125.33
544.51	1121.12
544.86	1130.24
545.22	1124.39
545.57	1130.48
545.93	1128.84
546.28	1132.35
546.64	1125.10
546.99	1129.78
547.35	1123.22
547.70	1133.29
548.05	1125.33
548.41	1110.82
548.76	1113.63
549.12	1109.65
549.47	1108.01
549.83	1115.03
550.18	1129.31
550.53	1119.24
550.89	1127.44
551.24	1128.84
551.60	1130.95
551.95	1122.75
552.30	1118.07
552.66	1114.56
553.01	1112.22
553.37	1109.41
553.72	1117.61
554.07	1129.54
554.43	1120.41
554.78	1118.78
555.13	1116.67
555.49	1115.03
555.84	1106.61
556.19	1115.27
556.55	1116.90
556.90	1111.99
557.26	1106.84
557.61	1110.35
557.96	1117.84
558.32	1113.86
558.67	1103.56
559.02	1101.92
559.37	1103.56
559.73	1101.46
560.08	1099.35
560.43	1108.24
560.79	1118.31
561.14	1117.14
561.49	1102.16
561.85	1104.73
562.20	1120.88
562.55	1122.29
562.90	1125.56
563.26	1130.48
563.61	1132.59
563.96	1119.01
564.32	1113.86
564.67	1111.75
565.02	1114.56
565.37	1105.90
565.73	1105.67
566.08	1091.39
566.43	1086.71
566.78	1074.07
567.14	1080.39
567.49	1081.09
567.84	1093.03
568.19	1088.35
568.54	1099.12
568.90	1098.88
569.25	1099.82
569.60	1094.67
569.95	1097.71
570.31	1096.07
570.66	1091.16
571.01	1090.69
571.36	1096.07
571.71	1103.09
572.06	1106.14
572.42	1119.24
572.77	1118.54
573.12	1112.22
573.47	1110.12
573.82	1111.75
574.18	1106.14
574.53	1104.26
574.88	1109.41
575.23	1108.95
575.58	1110.35
575.93	1107.31
576.28	1111.29
576.64	1117.84
576.99	1121.58
577.34	1121.58
577.69	1116.67
578.04	1112.92
578.39	1096.78
578.74	1099.82
579.09	1103.80
579.44	1109.18
579.80	1116.44
580.15	1127.44
580.50	1116.67
580.85	1117.14
581.20	1119.24
581.55	1111.75
581.90	1109.88
582.25	1106.14
582.60	1101.46
582.95	1105.44
583.30	1104.26
583.65	1103.33
584.00	1112.92
584.35	1113.16
584.71	1097.71
585.06	1099.82
585.41	1100.29
585.76	1098.18
586.11	1104.26
586.46	1117.37
586.81	1114.10
587.16	1112.92
587.51	1117.14
587.86	1118.31
588.21	1109.65
588.56	1115.27
588.91	1119.48
589.26	1111.99
589.61	1096.31
589.96	1095.60
590.31	1091.86
590.66	1085.07
591.01	1079.46
591.36	1081.09
591.71	1083.20
592.06	1078.99
592.41	1089.05
592.76	1096.54
593.10	1104.50
593.45	1114.10
593.80	1123.46
594.15	1115.73
594.50	1118.07
594.85	1116.90
595.20	1114.56
595.55	1112.92
595.90	1113.63
596.25	1112.92
596.60	1112.92
596.95	1104.97
597.30	1107.54
597.64	1162.08
597.99	1156.46
598.34	1147.80
598.69	1152.71
599.04	1149.44
599.39	1088.58
599.74	1090.46
600.09	1096.54
600.44	1093.73
600.78	1097.24
601.13	1096.07
601.48	1092.56
601.83	1089.75
602.18	1084.84
602.53	1093.03
602.88	1103.80
603.22	1109.41
603.57	1119.01
603.92	1128.14
604.27	1110.82
604.62	1108.24
604.97	1099.12
605.31	1099.82
605.66	1098.65
606.01	1100.29
606.36	1093.97
606.71	1095.84
607.05	1097.95
607.40	1100.52
607.75	1104.73
608.10	1101.46
608.44	1113.86
608.79	1100.29
609.14	1098.65
609.49	1098.88
609.84	1108.71
610.18	1110.58
610.53	1110.12
610.88	1099.82
611.23	1099.12
611.57	1095.37
611.92	1101.46
612.27	1112.69
612.62	1127.67
612.96	1124.39
613.31	1131.88
613.66	1117.14
614.00	1117.84
614.35	1112.69
614.70	1113.86
615.05	1115.50
615.39	1120.41
615.74	1117.61
616.09	1112.22
616.43	1111.29
616.78	1101.69
617.13	1097.71
617.47	1095.84
617.82	1105.20
618.17	1113.16
618.51	1117.14
618.86	1119.24
619.21	1112.22
619.55	1101.92
619.90	1084.60
620.25	1085.77
620.59	1079.92
620.94	1083.43
621.29	1080.16
621.63	1098.18
621.98	1103.33
622.32	1106.14
622.67	1110.82
623.02	1122.52
623.36	1114.56
623.71	1108.01
624.05	1100.99
624.40	1097.24
624.75	1084.60
625.09	1086.94
625.44	1081.33
625.78	1081.80
626.13	1078.28
626.48	1080.86
626.82	1075.24
627.17	1086.94
627.51	1095.84
627.86	1099.58
628.20	1100.99
628.55	1103.56
628.89	1107.54
629.24	1104.73
629.58	1100.99
629.93	1100.52
630.28	1095.14
630.62	1081.56
630.97	1085.77
631.31	1081.33
631.66	1081.56
632.00	1098.18
632.35	1104.03
632.69	1101.22
633.04	1112.69
633.38	1116.44
633.73	1107.78
634.07	1103.56
634.42	1104.97
634.76	1100.29
635.11	1102.86
635.45	1111.05
635.79	1109.88
636.14	1104.50
636.48	1110.82
636.83	1101.92
637.17	1096.54
637.52	1100.75
637.86	1105.20
638.21	1094.43
638.55	1097.71
638.89	1094.43
639.24	1090.69
639.58	1090.22
639.93	1090.69
640.27	1086.24
640.61	1089.75
640.96	1092.09
641.30	1089.52
641.65	1096.54
641.99	1107.07
642.33	1103.33
642.68	1096.07
643.02	1096.78
643.37	1088.82
643.71	1082.26
644.05	1086.94
644.40	1095.14
644.74	1098.18
645.08	1097.24
645.43	1091.63
645.77	1086.48
646.11	1087.18
646.46	1082.73
646.80	1088.82
647.14	1096.54
647.49	1105.67
647.83	1097.24
648.17	1101.69
648.52	1092.33
648.86	1091.86
649.20	1086.94
649.55	1101.92
649.89	1097.71
650.23	1101.22
650.57	1095.14
650.92	1090.69
651.26	1083.43
651.60	1083.90
651.95	1089.52
652.29	1092.56
652.63	1087.18
652.97	1091.86
653.32	1096.78
653.66	1094.20
654.00	1100.29
654.34	1101.69
654.69	1084.84
655.03	1081.80
655.37	1086.48
655.71	1084.14
656.05	1085.77
656.40	1084.60
656.74	1091.16
657.08	1081.80
657.42	1082.73
657.76	1080.39
658.11	1090.22
658.45	1086.24
658.79	1098.88
659.13	1096.07
659.47	1103.09
659.82	1102.39
660.16	1099.58
660.50	1098.65
660.84	1095.14
661.18	1090.22
661.52	1089.29
661.87	1085.31
662.21	1079.69
662.55	1077.11
662.89	1071.26
663.23	1078.99
663.57	1085.77
663.91	1090.69
664.25	1093.03
664.60	1100.52
664.94	1094.43
665.28	1092.33
665.62	1085.07
665.96	1089.99
666.30	1085.77
666.64	1081.80
666.98	1083.90
667.32	1085.07
667.66	1093.50
668.01	1100.75
668.35	1105.67
668.69	1121.82
669.03	1118.07
669.37	1110.58
669.71	1095.84
670.05	1088.12
670.39	1055.58
670.73	1059.56
671.07	1059.09
671.41	1070.56
671.75	1083.43
672.09	1097.48
672.43	1100.75
672.77	1095.84
673.11	1102.86
673.45	1096.07
673.79	1091.63
674.13	1085.31
674.47	1085.77
674.81	1069.16
675.15	1073.37
675.49	1072.67
675.83	1078.52
676.17	1080.16
676.51	1085.54
676.85	1086.01
677.19	1088.35
677.53	1084.14
677.87	1082.50
678.21	1079.69
678.55	1071.97
678.89	1064.01
679.23	1071.26
679.57	1081.09
679.90	1083.90
680.24	1087.65
680.58	1094.67
680.92	1098.65
681.26	1097.95
681.60	1101.92
681.94	1103.09
682.28	1111.75
682.62	1110.12
682.96	1100.05
683.29	1103.56
683.63	1109.41
683.97	1104.03
684.31	1098.88
684.65	1103.56
684.99	1097.01
685.33	1089.99
685.67	1086.24
686.00	1085.07
686.34	1082.97
686.68	1083.67
687.02	1081.80
687.36	1082.97
687.70	1083.43
688.03	1078.52
688.37	1083.43
688.71	1078.05
689.05	1078.52
689.39	1075.01
689.72	1088.12
690.06	1085.77
690.40	1092.56
690.74	1099.12
691.08	1092.09
691.41	1089.99
691.75	1079.69
692.09	1077.35
692.43	1070.56
692.76	1087.88
693.10	1077.82
693.44	1089.75
693.78	1100.05
694.11	1098.18
694.45	1088.58
694.79	1092.80
695.13	1093.26
695.46	1087.65
695.80	1092.33
696.14	1100.75
696.48	1104.50
696.81	1104.73
697.15	1098.41
697.49	1096.54
697.82	1081.09
698.16	1082.50
698.50	1075.24
698.83	1082.50
699.17	1088.12
699.51	1089.75
699.84	1089.52
700.18	1100.29
700.52	1087.41
700.85	1071.73
701.19	1079.22
701.53	1075.71
701.86	1060.73
702.20	1075.01
702.54	1087.41
702.87	1082.26
703.21	1078.28
703.55	1080.63
703.88	1074.77
704.22	1066.58
704.55	1069.62
704.89	1073.14
705.23	1075.48
705.56	1074.77
705.90	1084.37
706.23	1086.48
706.57	1080.86
706.91	1077.58
707.24	1073.60
707.58	1066.58
707.91	1063.31
708.25	1071.73
708.58	1076.41
708.92	1085.07
709.26	1078.52
709.59	1081.56
709.93	1075.71
710.26	1084.60
710.60	1086.48
710.93	1095.14
711.27	1092.33
711.60	1090.22
711.94	1084.60
712.27	1075.24
712.61	1069.39
712.94	1076.41
713.28	1088.82
713.61	1086.01
713.95	1088.58
714.28	1095.84
714.62	1097.48
714.95	1078.05
715.29	1078.05
715.62	1084.84
715.96	1084.60
716.29	1074.54
716.63	1092.33
716.96	1091.86
717.29	1080.16
717.63	1085.77
717.96	1089.05
718.30	1083.90
718.63	1089.99
718.97	1088.12
719.30	1080.39
719.63	1079.46
719.97	1072.43
720.30	1060.50
720.64	1072.90
720.97	1078.75
721.30	1075.24
721.64	1078.75
721.97	1085.77
722.31	1089.29
722.64	1082.73
722.97	1083.67
723.31	1089.75
723.64	1091.16
723.97	1091.86
724.31	1091.16
724.64	1101.22
724.98	1090.46
725.31	1086.71
725.64	1070.33
725.98	1076.88
726.31	1071.50
726.64	1083.20
726.97	1078.75
727.31	1096.07
727.64	1086.48
727.97	1073.60
728.31	1063.54
728.64	1071.97
728.97	1061.67
729.31	1056.75
729.64	1077.11
729.97	1087.18
730.30	1090.69
730.64	1086.94
730.97	1100.52
731.30	1090.46
731.63	1086.48
731.97	1073.60
732.30	1080.39
732.63	1080.63
732.96	1075.71
733.30	1074.31
733.63	1092.33
733.96	1083.90
734.29	1076.88
734.63	1088.12
734.96	1079.46
735.29	1066.11
735.62	1067.52
735.95	1080.63
736.29	1081.80
736.62	1093.03
736.95	1103.33
737.28	1095.84
737.61	1094.20
737.94	1091.63
738.28	1084.84
738.61	1081.80
738.94	1093.03
739.27	1080.86
739.60	1075.01
739.93	1076.65
740.27	1072.90
740.60	1073.60
740.93	1082.50
741.26	1080.63
741.59	1083.20
741.92	1087.88
742.25	1079.92
742.58	1072.43
742.91	1075.71
743.25	1068.92
743.58	1057.69
743.91	1063.54
744.24	1065.65
744.57	1067.99
744.90	1079.69
745.23	1085.31
745.56	1086.94
745.89	1082.03
746.22	1071.73
746.55	1071.03
746.88	1072.43
747.21	1079.22
747.54	1084.37
747.87	1089.05
748.20	1084.14
748.53	1074.54
748.87	1057.92
749.20	1058.86
749.53	1061.67
749.86	1058.86
750.19	1069.16
750.52	1085.31
750.85	1086.71
751.18	1080.86
751.51	1092.33
751.84	1094.90
752.16	1089.29
752.49	1092.56
752.82	1108.48
753.15	1110.35
753.48	1106.37
753.81	1108.24
754.14	1102.16
754.47	1096.07
754.80	1093.73
755.13	1092.80
755.46	1084.14
755.79	1088.35
756.12	1089.05
756.45	1081.33
756.78	1083.43
757.11	1094.90
757.43	1081.80
757.76	1075.48
758.09	1084.14
758.42	1076.18
758.75	1074.31
759.08	1071.50
759.41	1073.60
759.74	1058.62
760.07	1065.41
760.39	1069.39
760.72	1085.54
761.05	1089.99
761.38	1098.18
761.71	1089.99
762.04	1088.35
762.36	1069.86
762.69	1068.22
763.02	1071.73
763.35	1078.05
763.68	1075.01
764.01	1083.67
