SpectraSuite Data File
++++++++++++++++++++++++++++++++++++
Date: Mon Aug 26 10:24:43 PDT 2019
User: corrico
Dark Spectrum Present: No
Reference Spectrum Present: No
Number of Sampled Component Spectra: 1
Spectrometers: USB2+H06089
Integration Time (usec): 10000 (USB2+H06089)
Spectra Averaged: 2 (USB2+H06089)
Boxcar Smoothing: 2 (USB2+H06089)
Correct for Electrical Dark: No (USB2+H06089)
Strobe/Lamp Enabled: No (USB2+H06089)
Correct for Detector Non-linearity: No (USB2+H06089)
Correct for Stray Light: No (USB2+H06089)
Number of Pixels in Processed Spectrum: 2048
>>>>>Begin Processed Spectral Data<<<<<
339.70	1021.64
340.07	1021.64
340.45	989.34
340.82	965.71
341.19	938.55
341.57	912.81
341.94	911.17
342.31	896.66
342.69	898.53
343.06	897.13
343.43	904.85
343.81	897.13
344.18	900.17
344.55	898.06
344.93	903.91
345.30	905.09
345.67	904.85
346.04	918.19
346.42	932.24
346.79	949.32
347.16	954.70
347.54	981.15
347.91	988.41
348.28	1001.05
348.65	1009.71
349.03	1016.49
349.40	1017.90
349.77	1022.11
350.14	1014.15
350.52	1019.07
350.89	1028.90
351.26	1036.86
351.63	1053.48
352.01	1074.31
352.38	1070.09
352.75	1077.82
353.12	1076.65
353.50	1072.43
353.87	1066.35
354.24	1075.24
354.61	1078.99
354.98	1083.90
355.36	1099.82
355.73	1100.99
356.10	1102.39
356.47	1093.97
356.84	1106.14
357.22	1099.82
357.59	1106.84
357.96	1115.50
358.33	1120.41
358.70	1105.90
359.08	1106.14
359.45	1103.09
359.82	1101.92
360.19	1107.31
360.56	1117.84
360.94	1119.24
361.31	1121.35
361.68	1115.97
362.05	1108.48
362.42	1099.35
362.79	1099.82
363.16	1089.05
363.54	1086.94
363.91	1099.58
364.28	1110.12
364.65	1092.56
365.02	1104.03
365.39	1108.95
365.76	1103.09
366.14	1096.07
366.51	1106.61
366.88	1099.12
367.25	1094.20
367.62	1087.41
367.99	1084.60
368.36	1079.22
368.73	1084.37
369.10	1082.50
369.48	1085.54
369.85	1084.37
370.22	1084.84
370.59	1095.60
370.96	1104.03
371.33	1100.99
371.70	1113.16
372.07	1115.97
372.44	1105.20
372.81	1108.24
373.18	1111.05
373.55	1108.01
373.93	1105.67
374.30	1109.65
374.67	1103.33
375.04	1108.24
375.41	1096.31
375.78	1096.78
376.15	1094.90
376.52	1094.67
376.89	1092.56
377.26	1100.99
377.63	1103.80
378.00	1099.58
378.37	1092.33
378.74	1088.82
379.11	1089.75
379.48	1097.95
379.85	1096.07
380.22	1107.54
380.59	1107.07
380.96	1106.61
381.33	1102.16
381.70	1114.80
382.07	1107.31
382.44	1114.80
382.81	1111.29
383.18	1111.52
383.55	1113.16
383.92	1120.88
384.29	1117.37
384.66	1126.97
385.03	1127.44
385.40	1114.56
385.77	1103.09
386.14	1100.29
386.51	1102.86
386.88	1093.73
387.25	1100.29
387.62	1101.69
387.99	1108.24
388.36	1108.71
388.73	1114.10
389.10	1105.90
389.46	1118.07
389.83	1125.33
390.20	1126.73
390.57	1131.65
390.94	1150.37
391.31	1155.76
391.68	1155.99
392.05	1145.22
392.42	1141.25
392.79	1134.69
393.16	1125.80
393.53	1116.67
393.89	1118.31
394.26	1116.20
394.63	1115.27
395.00	1122.52
395.37	1127.67
395.74	1138.67
396.11	1150.84
396.48	1157.63
396.84	1157.86
397.21	1167.46
397.58	1160.91
397.95	1162.31
398.32	1160.67
398.69	1166.29
399.06	1161.84
399.42	1172.14
399.79	1182.67
400.16	1194.84
400.53	1188.29
400.90	1198.12
401.27	1208.18
401.64	1211.93
402.00	1214.04
402.37	1229.25
402.74	1240.95
403.11	1245.40
403.48	1249.61
403.84	1261.31
404.21	1276.53
404.58	1279.80
404.95	1295.95
405.32	1310.47
405.68	1334.34
406.05	1351.19
406.42	1380.68
406.79	1403.62
407.16	1433.81
407.52	1461.66
407.89	1495.13
408.26	1522.75
408.63	1558.80
408.99	1603.50
409.36	1644.69
409.73	1683.78
410.10	1738.32
410.47	1794.72
410.83	1858.15
411.20	1915.49
411.57	1991.33
411.94	2065.52
412.30	2141.36
412.67	2212.04
413.04	2293.96
413.40	2380.56
413.77	2489.63
414.14	2588.40
414.51	2710.57
414.87	2856.62
415.24	2994.25
415.61	3136.79
415.97	3309.99
416.34	3477.80
416.71	3645.38
417.08	3843.63
417.44	4030.64
417.81	4229.58
418.18	4456.38
418.54	4706.35
418.91	4963.81
419.28	5256.84
419.64	5578.20
420.01	5908.21
420.38	6274.98
420.74	6634.48
421.11	7030.03
421.48	7427.92
421.84	7835.88
422.21	8229.32
422.58	8697.43
422.94	9188.01
423.31	9704.10
423.68	10314.74
424.04	10923.28
424.41	11562.01
424.77	12190.45
425.14	12885.82
425.51	13536.49
425.87	14258.54
426.24	15004.24
426.61	15873.28
426.97	16823.77
427.34	17760.22
427.70	18849.97
428.07	19874.89
428.44	20882.73
428.80	21842.82
429.17	22877.57
429.53	23893.12
429.90	25193.76
430.27	26335.01
430.63	27515.57
431.00	28839.61
431.36	30129.25
431.73	31261.60
432.09	32548.19
432.46	33858.19
432.83	35211.96
433.19	36498.55
433.56	37996.49
433.92	39575.65
434.29	40977.87
434.65	42336.55
435.02	43597.16
435.38	44705.87
435.75	45526.46
436.11	46784.27
436.48	47787.42
436.84	48884.19
437.21	49862.54
437.57	50841.82
437.94	51474.70
438.30	52034.56
438.67	52355.91
439.03	52527.94
439.40	52765.97
439.76	52582.94
440.13	52409.28
440.49	52407.17
440.86	52093.77
441.22	51701.73
441.59	51267.09
441.95	50747.73
442.32	49859.50
442.68	49193.15
443.05	48238.21
443.41	47313.93
443.78	46205.92
444.14	45162.51
444.51	43777.61
444.87	42784.76
445.24	41550.13
445.60	40451.24
445.96	39322.64
446.33	38509.30
446.69	37339.27
447.06	36444.48
447.42	35414.65
447.79	34254.91
448.15	33212.44
448.51	32203.20
448.88	31414.67
449.24	30505.61
449.61	29883.96
449.97	29158.63
450.33	28521.30
450.70	27612.70
451.06	26958.29
451.43	26202.77
451.79	25602.89
452.15	24912.43
452.52	24349.30
452.88	23754.57
453.24	23238.95
453.61	22534.21
453.97	21987.69
454.34	21348.73
454.70	20801.51
455.06	20143.59
455.43	19499.24
455.79	18733.18
456.15	18159.05
456.52	17472.57
456.88	16949.93
457.24	16392.41
457.61	15945.37
457.97	15379.89
458.33	14873.64
458.70	14327.12
459.06	13755.33
459.42	13260.54
459.79	12781.20
460.15	12358.50
460.51	11907.94
460.88	11553.35
461.24	11166.70
461.60	10807.19
461.96	10439.02
462.33	10098.71
462.69	9757.93
463.05	9405.91
463.42	9153.37
463.78	8882.33
464.14	8641.73
464.50	8418.20
464.87	8186.49
465.23	7898.84
465.59	7683.28
465.95	7458.59
466.32	7246.77
466.68	7026.52
467.04	6860.34
467.40	6658.59
467.77	6484.69
468.13	6311.49
468.49	6189.55
468.85	6041.86
469.22	5945.43
469.58	5819.98
469.94	5703.18
470.30	5547.07
470.66	5435.43
471.03	5284.93
471.39	5195.05
471.75	5071.94
472.11	4990.02
472.47	4887.74
472.84	4787.10
473.20	4659.54
473.56	4577.39
473.92	4471.36
474.28	4359.25
474.65	4268.90
475.01	4181.13
475.37	4091.26
475.73	3995.76
476.09	3948.48
476.45	3882.48
476.81	3819.05
477.18	3732.92
477.54	3665.98
477.90	3562.76
478.26	3489.04
478.62	3409.93
478.98	3348.84
479.34	3305.77
479.71	3257.09
480.07	3203.26
480.43	3162.77
480.79	3126.72
481.15	3071.95
481.51	3027.01
481.87	2983.95
482.23	2918.41
482.59	2850.07
482.96	2801.62
483.32	2756.21
483.68	2723.92
484.04	2702.38
484.40	2687.64
484.76	2662.36
485.12	2627.72
485.48	2579.50
485.84	2535.50
486.20	2480.50
486.56	2436.97
486.92	2411.45
487.28	2367.45
487.64	2331.41
488.00	2311.98
488.37	2287.64
488.73	2246.91
489.09	2217.42
489.45	2187.93
489.81	2150.95
490.17	2109.06
490.53	2083.54
490.89	2077.93
491.25	2057.56
491.61	2036.73
491.97	2018.95
492.33	1993.43
492.69	1951.30
493.05	1923.92
493.41	1905.90
493.77	1886.00
494.13	1862.60
494.49	1845.28
494.85	1816.72
495.21	1781.15
495.57	1757.51
495.93	1726.38
496.29	1696.65
496.64	1678.16
497.00	1673.95
497.36	1646.33
497.72	1643.29
498.08	1629.95
498.44	1611.93
498.80	1583.37
499.16	1567.46
499.52	1553.41
499.88	1545.92
500.24	1538.20
500.60	1529.31
500.96	1517.60
501.32	1492.33
501.68	1477.58
502.03	1464.71
502.39	1466.11
502.75	1463.07
503.11	1454.17
503.47	1433.81
503.83	1421.41
504.19	1405.02
504.55	1399.17
504.91	1396.60
505.26	1396.36
505.62	1392.38
505.98	1383.26
506.34	1373.19
506.70	1369.68
507.06	1360.09
507.42	1365.47
507.78	1355.40
508.13	1334.11
508.49	1321.70
508.85	1319.83
509.21	1301.81
509.57	1306.25
509.93	1313.27
510.28	1299.93
510.64	1291.74
511.00	1291.98
511.36	1269.51
511.72	1258.27
512.07	1270.68
512.43	1257.57
512.79	1245.16
513.15	1248.44
513.51	1237.44
513.86	1227.38
514.22	1226.44
514.58	1229.72
514.94	1233.46
515.30	1242.59
515.65	1238.14
516.01	1246.80
516.37	1237.21
516.73	1218.95
517.08	1211.93
517.44	1205.14
517.80	1202.33
518.16	1196.72
518.51	1207.72
518.87	1206.31
519.23	1213.10
519.59	1200.46
519.94	1202.57
520.30	1185.95
520.66	1194.84
521.01	1192.27
521.37	1194.61
521.73	1194.38
522.09	1202.10
522.44	1184.08
522.80	1178.46
523.16	1177.99
523.51	1171.91
523.87	1170.74
524.23	1178.93
524.58	1186.42
524.94	1180.57
525.30	1174.71
525.65	1172.37
526.01	1158.80
526.37	1152.71
526.72	1157.39
527.08	1161.37
527.44	1161.37
527.79	1164.18
528.15	1156.69
528.51	1165.12
528.86	1165.35
529.22	1161.37
529.58	1168.16
529.93	1162.08
530.29	1149.67
530.65	1141.48
531.00	1137.50
531.36	1130.24
531.71	1132.12
532.07	1125.33
532.43	1139.14
532.78	1139.84
533.14	1144.29
533.49	1142.65
533.85	1157.86
534.21	1133.52
534.56	1128.14
534.92	1116.90
535.27	1119.95
535.63	1108.01
535.98	1129.54
536.34	1137.50
536.69	1147.10
537.05	1146.86
537.41	1142.88
537.76	1132.12
538.12	1126.03
538.47	1116.44
538.83	1108.01
539.18	1122.52
539.54	1121.35
539.89	1124.16
540.25	1134.93
540.60	1137.73
540.96	1124.86
541.31	1133.99
541.67	1132.59
542.02	1125.56
542.38	1134.93
542.73	1134.22
543.09	1134.46
543.44	1141.01
543.80	1146.63
544.15	1137.27
544.51	1139.84
544.86	1129.07
545.22	1122.99
545.57	1123.69
545.93	1129.54
546.28	1125.33
546.64	1131.65
546.99	1137.97
547.35	1130.24
547.70	1128.61
548.05	1132.12
548.41	1130.01
548.76	1125.80
549.12	1125.80
549.47	1130.01
549.83	1132.59
550.18	1138.90
550.53	1126.50
550.89	1128.61
551.24	1123.93
551.60	1120.88
551.95	1115.27
552.30	1124.16
552.66	1130.01
553.01	1126.03
553.37	1126.50
553.72	1129.07
554.07	1128.14
554.43	1118.54
554.78	1122.05
555.13	1121.12
555.49	1111.52
555.84	1110.58
556.19	1111.05
556.55	1108.71
556.90	1102.63
557.26	1108.71
557.61	1109.41
557.96	1108.48
558.32	1105.20
558.67	1115.97
559.02	1109.18
559.37	1108.71
559.73	1109.41
560.08	1108.24
560.43	1100.29
560.79	1109.18
561.14	1102.39
561.49	1102.63
561.85	1107.07
562.20	1109.65
562.55	1106.14
562.90	1112.22
563.26	1111.75
563.61	1103.80
563.96	1114.56
564.32	1120.65
564.67	1124.63
565.02	1122.99
565.37	1139.14
565.73	1131.65
566.08	1129.07
566.43	1131.88
566.78	1136.56
567.14	1119.48
567.49	1117.14
567.84	1116.20
568.19	1107.31
568.54	1109.41
568.90	1125.56
569.25	1115.27
569.60	1111.29
569.95	1114.80
570.31	1107.07
570.66	1094.20
571.01	1100.52
571.36	1093.03
571.71	1096.07
572.06	1093.26
572.42	1104.03
572.77	1108.01
573.12	1118.78
573.47	1117.37
573.82	1123.69
574.18	1109.65
574.53	1103.80
574.88	1100.99
575.23	1091.63
575.58	1087.18
575.93	1094.20
576.28	1096.07
576.64	1100.75
576.99	1100.75
577.34	1108.01
577.69	1103.09
578.04	1112.46
578.39	1116.90
578.74	1119.71
579.09	1116.20
579.44	1122.75
579.80	1106.84
580.15	1101.92
580.50	1100.05
580.85	1093.97
581.20	1101.69
581.55	1101.22
581.90	1099.58
582.25	1106.14
582.60	1108.71
582.95	1101.22
583.30	1100.75
583.65	1099.82
584.00	1104.73
584.35	1112.92
584.71	1110.35
585.06	1111.29
585.41	1104.73
585.76	1091.16
586.11	1090.22
586.46	1086.48
586.81	1097.71
587.16	1104.50
587.51	1113.86
587.86	1102.86
588.21	1103.33
588.56	1093.97
588.91	1090.92
589.26	1090.69
589.61	1093.97
589.96	1099.35
590.31	1099.35
590.66	1097.01
591.01	1096.54
591.36	1104.26
591.71	1101.69
592.06	1118.07
592.41	1111.75
592.76	1107.78
593.10	1104.03
593.45	1103.33
593.80	1091.63
594.15	1104.97
594.50	1107.78
594.85	1111.29
595.20	1114.56
595.55	1117.37
595.90	1116.67
596.25	1120.65
596.60	1117.61
596.95	1115.50
597.30	1116.90
597.64	1156.22
597.99	1167.46
598.34	1165.12
598.69	1155.29
599.04	1148.50
599.39	1103.09
599.74	1089.75
600.09	1088.82
600.44	1107.54
600.78	1109.18
601.13	1108.48
601.48	1101.92
601.83	1102.16
602.18	1096.31
602.53	1090.92
602.88	1091.16
603.22	1094.43
603.57	1093.50
603.92	1082.50
604.27	1083.43
604.62	1087.18
604.97	1083.67
605.31	1080.86
605.66	1090.69
606.01	1094.20
606.36	1085.54
606.71	1089.29
607.05	1102.39
607.40	1100.29
607.75	1099.35
608.10	1109.41
608.44	1109.18
608.79	1106.61
609.14	1106.14
609.49	1106.84
609.84	1108.95
610.18	1099.82
610.53	1100.99
610.88	1098.18
611.23	1101.46
611.57	1096.31
611.92	1112.22
612.27	1107.78
612.62	1114.56
612.96	1111.75
613.31	1109.88
613.66	1095.37
614.00	1095.14
614.35	1082.97
614.70	1079.92
615.05	1080.16
615.39	1083.90
615.74	1085.54
616.09	1101.46
616.43	1100.05
616.78	1094.67
617.13	1095.60
617.47	1089.75
617.82	1079.92
618.17	1089.29
618.51	1094.43
618.86	1092.80
619.21	1086.94
619.55	1095.84
619.90	1090.22
620.25	1095.14
620.59	1100.99
620.94	1111.52
621.29	1103.33
621.63	1107.07
621.98	1104.97
622.32	1108.24
622.67	1106.14
623.02	1102.16
623.36	1101.69
623.71	1114.80
624.05	1111.99
624.40	1115.27
624.75	1132.35
625.09	1127.90
625.44	1111.99
625.78	1112.46
626.13	1111.29
626.48	1094.67
626.82	1095.37
627.17	1097.71
627.51	1089.05
627.86	1072.90
628.20	1068.69
628.55	1069.39
628.89	1075.24
629.24	1079.46
629.58	1093.73
629.93	1104.03
630.28	1104.73
630.62	1102.63
630.97	1105.20
631.31	1100.75
631.66	1098.65
632.00	1093.97
632.35	1091.63
632.69	1098.18
633.04	1099.82
633.38	1098.18
633.73	1096.31
634.07	1097.95
634.42	1090.46
634.76	1090.69
635.11	1096.07
635.45	1104.97
635.79	1094.90
636.14	1086.48
636.48	1088.58
636.83	1081.33
637.17	1081.56
637.52	1083.20
637.86	1083.43
638.21	1082.26
638.55	1089.29
638.89	1074.31
639.24	1083.90
639.58	1093.50
639.93	1092.56
640.27	1093.50
640.61	1103.09
640.96	1101.22
641.30	1094.90
641.65	1088.35
641.99	1087.41
642.33	1087.18
642.68	1081.80
643.02	1083.90
643.37	1087.88
643.71	1082.03
644.05	1086.24
644.40	1077.58
644.74	1085.54
645.08	1080.86
645.43	1071.97
645.77	1071.26
646.11	1088.35
646.46	1083.43
646.80	1092.80
647.14	1104.97
647.49	1097.01
647.83	1084.60
648.17	1082.73
648.52	1083.67
648.86	1078.28
649.20	1084.60
649.55	1087.41
649.89	1086.48
650.23	1085.77
650.57	1088.35
650.92	1096.07
651.26	1101.46
651.60	1101.22
651.95	1109.41
652.29	1108.71
652.63	1101.69
652.97	1096.07
653.32	1094.67
653.66	1082.73
654.00	1094.43
654.34	1095.84
654.69	1096.07
655.03	1100.29
655.37	1096.78
655.71	1088.12
656.05	1091.86
656.40	1094.67
656.74	1097.24
657.08	1100.52
657.42	1106.14
657.76	1099.35
658.11	1102.16
658.45	1099.12
658.79	1093.73
659.13	1086.48
659.47	1083.43
659.82	1075.48
660.16	1073.60
660.50	1089.75
660.84	1091.16
661.18	1092.80
661.52	1096.31
661.87	1091.86
662.21	1076.41
662.55	1079.46
662.89	1079.46
663.23	1079.69
663.57	1084.60
663.91	1091.86
664.25	1093.73
664.60	1097.01
664.94	1092.09
665.28	1086.48
665.62	1086.01
665.96	1082.50
666.30	1084.37
666.64	1090.46
666.98	1091.63
667.32	1086.01
667.66	1085.77
668.01	1081.33
668.35	1083.90
668.69	1086.48
669.03	1089.99
669.37	1083.20
669.71	1083.90
670.05	1082.26
670.39	1083.90
670.73	1083.67
671.07	1078.52
671.41	1070.33
671.75	1075.48
672.09	1068.92
672.43	1078.75
672.77	1093.50
673.11	1100.99
673.45	1090.46
673.79	1093.73
674.13	1090.46
674.47	1086.24
674.81	1090.92
675.15	1098.88
675.49	1100.99
675.83	1089.05
676.17	1095.84
676.51	1095.84
676.85	1090.46
677.19	1091.63
677.53	1099.82
677.87	1098.88
678.21	1092.80
678.55	1088.82
678.89	1089.05
679.23	1093.97
679.57	1087.65
679.90	1085.31
680.24	1100.52
680.58	1106.84
680.92	1104.26
681.26	1104.73
681.60	1109.41
681.94	1100.52
682.28	1100.75
682.62	1098.18
682.96	1098.88
683.29	1098.65
683.63	1092.09
683.97	1090.46
684.31	1086.24
684.65	1080.86
684.99	1079.92
685.33	1080.39
685.67	1078.99
686.00	1084.14
686.34	1093.73
686.68	1089.99
687.02	1095.60
687.36	1085.31
687.70	1077.35
688.03	1066.11
688.37	1066.82
688.71	1067.99
689.05	1074.54
689.39	1087.65
689.72	1088.35
690.06	1082.03
690.40	1082.26
690.74	1072.90
691.08	1071.50
691.41	1082.73
691.75	1087.65
692.09	1074.54
692.43	1075.48
692.76	1074.77
693.10	1068.92
693.44	1069.39
693.78	1074.07
694.11	1085.77
694.45	1074.07
694.79	1076.88
695.13	1070.80
695.46	1073.60
695.80	1068.69
696.14	1072.43
696.48	1069.16
696.81	1078.99
697.15	1083.43
697.49	1082.03
697.82	1087.41
698.16	1078.28
698.50	1081.80
698.83	1085.77
699.17	1090.69
699.51	1088.58
699.84	1088.82
700.18	1090.69
700.52	1089.52
700.85	1089.52
701.19	1089.52
701.53	1102.16
701.86	1104.26
702.20	1095.84
702.54	1093.50
702.87	1093.97
703.21	1084.60
703.55	1076.41
703.88	1090.22
704.22	1072.20
704.55	1068.69
704.89	1075.94
705.23	1067.75
705.56	1055.82
705.90	1068.92
706.23	1067.28
706.57	1067.75
706.91	1071.03
707.24	1081.09
707.58	1082.50
707.91	1082.26
708.25	1075.71
708.58	1086.48
708.92	1080.16
709.26	1086.24
709.59	1095.14
709.93	1097.24
710.26	1076.18
710.60	1079.69
710.93	1076.41
711.27	1066.82
711.60	1066.11
711.94	1087.18
712.27	1084.60
712.61	1083.43
712.94	1098.18
713.28	1106.84
713.61	1103.09
713.95	1101.22
714.28	1106.61
714.62	1096.07
714.95	1098.88
715.29	1104.97
715.62	1107.54
715.96	1107.07
716.29	1114.33
716.63	1112.92
716.96	1107.78
717.29	1093.73
717.63	1086.71
717.96	1084.60
718.30	1075.24
718.63	1075.94
718.97	1093.50
719.30	1102.86
719.63	1102.16
719.97	1093.50
720.30	1087.65
720.64	1079.46
720.97	1085.54
721.30	1082.50
721.64	1088.35
721.97	1084.84
722.31	1092.09
722.64	1078.28
722.97	1071.97
723.31	1071.26
723.64	1074.54
723.97	1072.43
724.31	1069.39
724.64	1072.20
724.98	1080.39
725.31	1068.92
725.64	1074.07
725.98	1088.12
726.31	1100.05
726.64	1104.97
726.97	1116.20
727.31	1099.58
727.64	1082.50
727.97	1071.26
728.31	1067.05
728.64	1066.82
728.97	1065.41
729.31	1072.20
729.64	1078.99
729.97	1064.48
730.30	1068.45
730.64	1067.99
730.97	1060.73
731.30	1057.69
731.63	1059.79
731.97	1054.65
732.30	1063.54
732.63	1076.41
732.96	1073.14
733.30	1086.71
733.63	1086.01
733.96	1087.65
734.29	1078.75
734.63	1085.77
734.96	1082.97
735.29	1083.67
735.62	1079.69
735.95	1080.63
736.29	1064.94
736.62	1060.50
736.95	1059.33
737.28	1062.37
737.61	1078.28
737.94	1083.90
738.28	1090.92
738.61	1096.54
738.94	1095.14
739.27	1080.63
739.60	1090.22
739.93	1085.54
740.27	1082.03
740.60	1078.75
740.93	1076.88
741.26	1071.26
741.59	1077.35
741.92	1087.65
742.25	1093.97
742.58	1097.24
742.91	1100.75
743.25	1104.26
743.58	1099.35
743.91	1095.60
744.24	1086.48
744.57	1085.54
744.90	1077.11
745.23	1072.43
745.56	1072.67
745.89	1085.77
746.22	1089.52
746.55	1084.14
746.88	1083.43
747.21	1093.26
747.54	1088.12
747.87	1086.24
748.20	1081.33
748.53	1091.16
748.87	1074.77
749.20	1093.26
749.53	1089.99
749.86	1093.50
750.19	1090.46
750.52	1106.61
750.85	1097.71
751.18	1099.12
751.51	1106.37
751.84	1104.03
752.16	1086.94
752.49	1082.50
752.82	1085.07
753.15	1085.07
753.48	1080.86
753.81	1094.43
754.14	1096.31
754.47	1084.37
754.80	1080.39
755.13	1079.22
755.46	1077.35
755.79	1066.11
756.12	1078.75
756.45	1084.14
756.78	1092.56
757.11	1092.09
757.43	1091.86
757.76	1088.58
758.09	1076.18
758.42	1069.16
758.75	1071.26
759.08	1070.80
759.41	1062.60
759.74	1065.88
760.07	1068.92
760.39	1057.45
760.72	1064.71
761.05	1069.16
761.38	1081.80
761.71	1082.26
762.04	1088.82
762.36	1082.50
762.69	1089.99
763.02	1078.75
763.35	1079.46
763.68	1078.99
764.01	1084.14
