SpectraSuite Data File
++++++++++++++++++++++++++++++++++++
Date: Mon Aug 26 10:24:44 PDT 2019
User: corrico
Dark Spectrum Present: No
Reference Spectrum Present: No
Number of Sampled Component Spectra: 1
Spectrometers: USB2+H06089
Integration Time (usec): 10000 (USB2+H06089)
Spectra Averaged: 2 (USB2+H06089)
Boxcar Smoothing: 2 (USB2+H06089)
Correct for Electrical Dark: No (USB2+H06089)
Strobe/Lamp Enabled: No (USB2+H06089)
Correct for Detector Non-linearity: No (USB2+H06089)
Correct for Stray Light: No (USB2+H06089)
Number of Pixels in Processed Spectrum: 2048
>>>>>Begin Processed Spectral Data<<<<<
339.70	1031.01
340.07	1031.01
340.45	993.56
340.82	968.51
341.19	950.73
341.57	919.60
341.94	903.91
342.31	890.81
342.69	889.17
343.06	884.25
343.43	886.36
343.81	886.13
344.18	899.00
344.55	907.66
344.93	914.21
345.30	922.64
345.67	936.92
346.04	949.79
346.42	961.49
346.79	958.92
347.16	972.02
347.54	980.22
347.91	980.22
348.28	980.45
348.65	993.09
349.03	1009.94
349.40	1014.62
349.77	1029.37
350.14	1031.01
350.52	1037.09
350.89	1039.90
351.26	1050.20
351.63	1059.79
352.01	1073.37
352.38	1085.54
352.75	1082.03
353.12	1082.50
353.50	1084.14
353.87	1090.22
354.24	1090.92
354.61	1081.33
354.98	1080.39
355.36	1081.33
355.73	1077.58
356.10	1079.69
356.47	1098.41
356.84	1103.56
357.22	1107.78
357.59	1115.97
357.96	1116.90
358.33	1115.27
358.70	1122.99
359.08	1116.90
359.45	1107.07
359.82	1103.09
360.19	1101.92
360.56	1104.03
360.94	1101.46
361.31	1094.43
361.68	1097.48
362.05	1092.56
362.42	1085.77
362.79	1095.84
363.16	1104.73
363.54	1108.01
363.91	1110.12
364.28	1108.71
364.65	1103.09
365.02	1103.80
365.39	1097.71
365.76	1101.46
366.14	1101.69
366.51	1094.67
366.88	1098.41
367.25	1100.75
367.62	1104.26
367.99	1101.46
368.36	1103.09
368.73	1100.52
369.10	1097.95
369.48	1087.41
369.85	1087.65
370.22	1091.86
370.59	1095.37
370.96	1098.65
371.33	1103.09
371.70	1103.56
372.07	1106.61
372.44	1097.01
372.81	1093.73
373.18	1086.24
373.55	1089.75
373.93	1079.46
374.30	1085.07
374.67	1080.39
375.04	1090.22
375.41	1086.48
375.78	1095.14
376.15	1093.03
376.52	1101.46
376.89	1102.16
377.26	1105.20
377.63	1100.29
378.00	1102.39
378.37	1098.41
378.74	1087.41
379.11	1090.69
379.48	1090.46
379.85	1100.75
380.22	1112.22
380.59	1133.76
380.96	1128.61
381.33	1138.67
381.70	1149.20
382.07	1140.54
382.44	1136.56
382.81	1135.86
383.18	1130.95
383.55	1104.73
383.92	1114.80
384.29	1103.33
384.66	1109.41
385.03	1106.37
385.40	1122.52
385.77	1113.86
386.14	1112.92
386.51	1115.97
386.88	1120.88
387.25	1122.75
387.62	1129.31
387.99	1136.80
388.36	1141.01
388.73	1143.59
389.10	1136.33
389.46	1133.99
389.83	1134.46
390.20	1126.27
390.57	1129.07
390.94	1131.41
391.31	1126.73
391.68	1134.22
392.05	1139.61
392.42	1145.22
392.79	1142.18
393.16	1145.22
393.53	1149.91
393.89	1153.18
394.26	1151.54
394.63	1155.76
395.00	1159.50
395.37	1152.95
395.74	1142.18
396.11	1138.20
396.48	1134.22
396.84	1139.61
397.21	1151.08
397.58	1162.54
397.95	1162.31
398.32	1174.95
398.69	1177.76
399.06	1165.59
399.42	1169.33
399.79	1164.18
400.16	1168.40
400.53	1159.03
400.90	1176.12
401.27	1171.44
401.64	1187.82
402.00	1181.74
402.37	1200.46
402.74	1208.65
403.11	1226.21
403.48	1239.78
403.84	1256.17
404.21	1261.31
404.58	1275.59
404.95	1292.21
405.32	1305.55
405.68	1336.45
406.05	1353.53
406.42	1364.06
406.79	1383.72
407.16	1412.98
407.52	1431.94
407.89	1469.86
408.26	1510.82
408.63	1551.78
408.99	1580.33
409.36	1599.29
409.73	1643.52
410.10	1679.10
410.47	1714.21
410.83	1776.23
411.20	1867.51
411.57	1936.56
411.94	2011.92
412.30	2101.80
412.67	2186.29
413.04	2243.64
413.40	2334.92
413.77	2424.33
414.14	2533.16
414.51	2634.98
414.87	2764.87
415.24	2880.97
415.61	3017.65
415.97	3151.30
416.34	3323.09
416.71	3478.74
417.08	3641.64
417.44	3815.07
417.81	4022.91
418.18	4214.13
418.54	4469.72
418.91	4726.48
419.28	5009.21
419.64	5294.53
420.01	5636.95
420.38	5966.49
420.74	6290.42
421.11	6641.74
421.48	6996.56
421.84	7345.30
422.21	7707.15
422.58	8162.85
422.94	8636.11
423.31	9131.83
423.68	9688.88
424.04	10289.93
424.41	10862.43
424.77	11440.07
425.14	12076.70
425.51	12667.45
425.87	13321.39
426.24	14040.64
426.61	14872.00
426.97	15759.53
427.34	16560.69
427.70	17571.81
428.07	18473.61
428.44	19347.80
428.80	20284.25
429.17	21389.92
429.53	22364.05
429.90	23584.64
430.27	24633.44
430.63	25672.17
431.00	26970.70
431.36	28249.10
431.73	29365.77
432.09	30664.06
432.46	31908.29
432.83	33047.43
433.19	34059.48
433.56	35390.54
433.92	36760.69
434.29	38051.96
434.65	39275.59
435.02	40448.20
435.38	41496.76
435.75	42340.29
436.11	43554.33
436.48	44510.20
436.84	45563.21
437.21	46494.74
437.57	47399.83
437.94	48025.45
438.30	48762.49
438.67	49299.41
439.03	49536.50
439.40	49779.92
439.76	49617.72
440.13	49272.96
440.49	49103.50
440.86	48714.51
441.22	48342.13
441.59	47909.60
441.95	47422.30
442.32	46618.32
442.68	45867.01
443.05	44951.39
443.41	44001.84
443.78	42947.43
444.14	41914.55
444.51	40716.90
444.87	39820.24
445.24	38769.10
445.60	37757.05
445.96	36701.94
446.33	35980.59
446.69	34858.53
447.06	33973.58
447.42	33026.60
447.79	31975.70
448.15	31073.89
448.51	30125.27
448.88	29322.47
449.24	28470.51
449.61	27889.12
449.97	27054.72
450.33	26370.35
450.70	25558.42
451.06	24959.00
451.43	24225.01
451.79	23765.10
452.15	23242.92
452.52	22766.16
452.88	22245.39
453.24	21767.92
453.61	21167.57
453.97	20606.54
454.34	19962.43
454.70	19399.53
455.06	18831.48
455.43	18184.32
455.79	17511.42
456.15	16971.69
456.52	16331.79
456.88	15816.87
457.24	15257.25
457.61	14813.72
457.97	14305.59
458.33	13820.40
458.70	13325.84
459.06	12889.10
459.42	12465.93
459.79	12031.29
460.15	11624.74
460.51	11176.99
460.88	10809.76
461.24	10406.96
461.60	10108.07
461.96	9830.25
462.33	9526.45
462.69	9194.79
463.05	8923.99
463.42	8643.83
463.78	8362.73
464.14	8132.43
464.50	7936.52
464.87	7694.04
465.23	7466.31
465.59	7287.96
465.95	7091.82
466.32	6877.20
466.68	6690.42
467.04	6504.82
467.40	6346.13
467.77	6186.97
468.13	6034.60
468.49	5894.64
468.85	5773.40
469.22	5639.29
469.58	5504.71
469.94	5375.04
470.30	5266.91
470.66	5152.69
471.03	5028.17
471.39	4944.38
471.75	4878.14
472.11	4777.27
472.47	4672.65
472.84	4582.77
473.20	4461.30
473.56	4365.33
473.92	4260.01
474.28	4172.47
474.65	4072.30
475.01	4012.85
475.37	3910.57
475.73	3847.84
476.09	3786.52
476.45	3720.28
476.81	3636.26
477.18	3561.13
477.54	3473.82
477.90	3406.65
478.26	3337.60
478.62	3267.62
478.98	3233.45
479.34	3193.43
479.71	3147.55
480.07	3089.74
480.43	3063.76
480.79	2999.40
481.15	2961.01
481.51	2910.69
481.87	2879.80
482.23	2841.88
482.59	2796.00
482.96	2764.87
483.32	2708.00
483.68	2664.93
484.04	2608.53
484.40	2599.40
484.76	2536.91
485.12	2518.42
485.48	2501.10
485.84	2483.07
486.20	2430.18
486.56	2408.41
486.92	2351.54
487.28	2320.64
487.64	2272.89
488.00	2231.00
488.37	2178.34
488.73	2173.42
489.09	2127.55
489.45	2109.52
489.81	2090.57
490.17	2077.23
490.53	2043.29
490.89	2025.27
491.25	1990.16
491.61	1958.56
491.97	1933.52
492.33	1903.56
492.69	1873.60
493.05	1871.96
493.41	1864.94
493.77	1843.41
494.13	1832.87
494.49	1807.60
494.85	1780.91
495.21	1750.02
495.57	1740.66
495.93	1721.70
496.29	1705.31
496.64	1676.53
497.00	1664.35
497.36	1644.46
497.72	1619.65
498.08	1615.44
498.44	1613.80
498.80	1599.76
499.16	1586.88
499.52	1566.75
499.88	1543.35
500.24	1516.43
500.60	1498.41
500.96	1473.84
501.32	1472.20
501.68	1467.52
502.03	1460.73
502.39	1447.15
502.75	1448.09
503.11	1449.49
503.47	1431.00
503.83	1413.68
504.19	1412.05
504.55	1397.07
504.91	1374.36
505.26	1366.87
505.62	1365.70
505.98	1363.13
506.34	1354.47
506.70	1348.15
507.06	1355.17
507.42	1349.32
507.78	1335.04
508.13	1334.81
508.49	1334.34
508.85	1316.79
509.21	1312.34
509.57	1320.76
509.93	1313.27
510.28	1299.47
510.64	1299.70
511.00	1299.23
511.36	1280.27
511.72	1271.61
512.07	1268.34
512.43	1254.76
512.79	1240.25
513.15	1232.29
513.51	1232.76
513.86	1232.76
514.22	1229.95
514.58	1217.78
514.94	1222.93
515.30	1223.40
515.65	1208.89
516.01	1212.16
516.37	1227.85
516.73	1214.04
517.08	1208.65
517.44	1221.76
517.80	1215.67
518.16	1206.78
518.51	1210.76
518.87	1205.14
519.23	1185.72
519.59	1174.95
519.94	1167.23
520.30	1166.52
520.66	1170.03
521.01	1181.50
521.37	1187.59
521.73	1199.06
522.09	1195.31
522.44	1195.78
522.80	1187.12
523.16	1188.99
523.51	1184.08
523.87	1189.23
524.23	1180.57
524.58	1179.40
524.94	1179.63
525.30	1174.95
525.65	1167.69
526.01	1162.78
526.37	1172.37
526.72	1157.39
527.08	1155.29
527.44	1156.22
527.79	1154.12
528.15	1146.16
528.51	1145.93
528.86	1140.54
529.22	1131.65
529.58	1127.90
529.93	1130.71
530.29	1141.01
530.65	1141.71
531.00	1152.48
531.36	1150.14
531.71	1149.20
532.07	1151.54
532.43	1138.90
532.78	1130.71
533.14	1132.59
533.49	1133.05
533.85	1126.97
534.21	1140.31
534.56	1136.10
534.92	1141.48
535.27	1130.71
535.63	1133.29
535.98	1133.52
536.34	1147.80
536.69	1151.31
537.05	1164.65
537.41	1159.97
537.76	1159.27
538.12	1143.35
538.47	1133.99
538.83	1125.33
539.18	1129.07
539.54	1120.65
539.89	1132.82
540.25	1125.33
540.60	1114.09
540.96	1104.50
541.31	1117.14
541.67	1103.56
542.02	1114.33
542.38	1133.05
542.73	1146.16
543.09	1149.67
543.44	1159.97
543.80	1151.78
544.15	1152.01
544.51	1150.37
544.86	1138.67
545.22	1138.20
545.57	1149.67
545.93	1140.31
546.28	1132.82
546.64	1122.75
546.99	1123.22
547.35	1116.67
547.70	1121.12
548.05	1126.27
548.41	1140.78
548.76	1140.78
549.12	1142.42
549.47	1131.65
549.83	1123.93
550.18	1117.14
550.53	1107.07
550.89	1105.44
551.24	1119.71
551.60	1114.10
551.95	1112.92
552.30	1118.78
552.66	1120.88
553.01	1112.22
553.37	1125.33
553.72	1139.84
554.07	1131.18
554.43	1129.31
554.78	1135.63
555.13	1127.90
555.49	1106.61
555.84	1122.29
556.19	1115.27
556.55	1108.01
556.90	1105.67
557.26	1126.73
557.61	1121.82
557.96	1131.18
558.32	1132.82
558.67	1134.69
559.02	1126.97
559.37	1126.27
559.73	1120.88
560.08	1113.86
560.43	1117.61
560.79	1114.10
561.14	1113.39
561.49	1116.20
561.85	1120.65
562.20	1118.07
562.55	1118.54
562.90	1113.63
563.26	1112.69
563.61	1123.93
563.96	1121.12
564.32	1118.78
564.67	1114.10
565.02	1116.90
565.37	1099.12
565.73	1094.43
566.08	1093.50
566.43	1103.09
566.78	1105.44
567.14	1116.20
567.49	1124.39
567.84	1130.24
568.19	1124.39
568.54	1119.95
568.90	1122.29
569.25	1119.24
569.60	1109.18
569.95	1116.67
570.31	1116.67
570.66	1106.61
571.01	1109.41
571.36	1109.65
571.71	1097.24
572.06	1097.48
572.42	1101.46
572.77	1104.73
573.12	1110.58
573.47	1115.73
573.82	1114.80
574.18	1105.20
574.53	1103.56
574.88	1109.18
575.23	1117.37
575.58	1110.12
575.93	1119.24
576.28	1115.97
576.64	1105.44
576.99	1105.44
577.34	1115.27
577.69	1122.29
578.04	1119.01
578.39	1121.58
578.74	1115.03
579.09	1111.52
579.44	1099.58
579.80	1107.31
580.15	1110.35
580.50	1108.24
580.85	1107.07
581.20	1115.50
581.55	1111.05
581.90	1110.35
582.25	1116.67
582.60	1115.27
582.95	1115.50
583.30	1105.67
583.65	1111.29
584.00	1101.22
584.35	1100.52
584.71	1090.69
585.06	1100.75
585.41	1094.67
585.76	1098.88
586.11	1102.86
586.46	1102.63
586.81	1109.88
587.16	1112.46
587.51	1118.31
587.86	1116.44
588.21	1111.52
588.56	1093.03
588.91	1085.77
589.26	1079.46
589.61	1079.92
589.96	1087.88
590.31	1095.84
590.66	1102.16
591.01	1096.54
591.36	1100.52
591.71	1101.22
592.06	1102.16
592.41	1101.92
592.76	1115.50
593.10	1111.52
593.45	1111.75
593.80	1114.33
594.15	1109.41
594.50	1097.01
594.85	1087.18
595.20	1081.56
595.55	1076.41
595.90	1076.65
596.25	1081.33
596.60	1093.73
596.95	1100.52
597.30	1106.61
597.64	1156.69
597.99	1156.22
598.34	1155.29
598.69	1151.78
599.04	1146.16
599.39	1089.52
599.74	1088.12
600.09	1083.20
600.44	1090.69
600.78	1097.48
601.13	1104.97
601.48	1097.48
601.83	1093.73
602.18	1082.73
602.53	1074.77
602.88	1069.39
603.22	1079.69
603.57	1091.39
603.92	1092.80
604.27	1092.09
604.62	1098.41
604.97	1095.14
605.31	1093.73
605.66	1104.26
606.01	1104.97
606.36	1113.86
606.71	1120.41
607.05	1124.39
607.40	1122.52
607.75	1115.50
608.10	1105.44
608.44	1101.92
608.79	1101.92
609.14	1109.65
609.49	1118.31
609.84	1119.71
610.18	1116.90
610.53	1117.37
610.88	1113.86
611.23	1124.63
611.57	1128.37
611.92	1137.27
612.27	1129.54
612.62	1121.58
612.96	1109.65
613.31	1112.69
613.66	1104.97
614.00	1104.26
614.35	1108.01
614.70	1109.65
615.05	1096.54
615.39	1096.07
615.74	1093.03
616.09	1089.52
616.43	1092.33
616.78	1090.22
617.13	1093.73
617.47	1095.84
617.82	1091.39
618.17	1086.24
618.51	1104.26
618.86	1095.14
619.21	1094.90
619.55	1097.71
619.90	1101.92
620.25	1096.31
620.59	1099.12
620.94	1106.61
621.29	1112.69
621.63	1117.14
621.98	1117.37
622.32	1117.61
622.67	1109.65
623.02	1111.05
623.36	1095.84
623.71	1086.24
624.05	1095.84
624.40	1098.18
624.75	1087.65
625.09	1102.16
625.44	1103.09
625.78	1101.92
626.13	1106.37
626.48	1107.31
626.82	1102.86
627.17	1112.46
627.51	1112.46
627.86	1103.56
628.20	1106.14
628.55	1104.97
628.89	1093.26
629.24	1090.22
629.58	1094.20
629.93	1099.12
630.28	1105.90
630.62	1110.12
630.97	1109.18
631.31	1110.58
631.66	1102.63
632.00	1097.24
632.35	1095.84
632.69	1092.09
633.04	1095.14
633.38	1105.67
633.73	1109.41
634.07	1112.46
634.42	1112.22
634.76	1109.88
635.11	1107.07
635.45	1107.31
635.79	1109.88
636.14	1111.99
636.48	1109.18
636.83	1104.03
637.17	1097.48
637.52	1091.63
637.86	1090.46
638.21	1089.05
638.55	1080.86
638.89	1081.56
639.24	1097.01
639.58	1093.73
639.93	1091.39
640.27	1100.05
640.61	1099.35
640.96	1085.54
641.30	1085.77
641.65	1083.90
641.99	1084.84
642.33	1085.77
642.68	1092.09
643.02	1093.03
643.37	1092.09
643.71	1082.50
644.05	1080.86
644.40	1072.43
644.74	1060.50
645.08	1068.22
645.43	1075.01
645.77	1078.28
646.11	1078.52
646.46	1090.69
646.80	1084.14
647.14	1081.56
647.49	1082.26
647.83	1091.63
648.17	1103.09
648.52	1103.80
648.86	1100.99
649.20	1101.46
649.55	1088.58
649.89	1087.88
650.23	1098.18
650.57	1102.16
650.92	1094.67
651.26	1090.46
651.60	1073.14
651.95	1067.75
652.29	1066.35
652.63	1063.31
652.97	1067.75
653.32	1071.50
653.66	1067.05
654.00	1075.94
654.34	1077.58
654.69	1095.60
655.03	1108.24
655.37	1110.58
655.71	1107.78
656.05	1109.88
656.40	1095.60
656.74	1089.29
657.08	1091.39
657.42	1085.77
657.76	1084.14
658.11	1093.97
658.45	1095.37
658.79	1100.99
659.13	1104.26
659.47	1115.03
659.82	1104.97
660.16	1108.48
660.50	1098.88
660.84	1097.48
661.18	1087.65
661.52	1085.77
661.87	1076.88
662.21	1084.84
662.55	1095.84
662.89	1096.54
663.23	1102.39
663.57	1112.69
663.91	1104.26
664.25	1096.78
664.60	1104.03
664.94	1106.14
665.28	1096.07
665.62	1088.82
665.96	1079.46
666.30	1073.60
666.64	1073.60
666.98	1072.43
667.32	1086.48
667.66	1101.69
668.01	1108.01
668.35	1103.56
668.69	1107.54
669.03	1107.07
669.37	1099.82
669.71	1099.82
670.05	1100.99
670.39	1115.97
670.73	1119.24
671.07	1119.71
671.41	1115.03
671.75	1115.73
672.09	1095.14
672.43	1081.56
672.77	1073.84
673.11	1069.39
673.45	1061.43
673.79	1059.79
674.13	1063.77
674.47	1061.43
674.81	1073.37
675.15	1086.01
675.49	1097.95
675.83	1101.22
676.17	1115.73
676.51	1108.95
676.85	1095.60
677.19	1084.84
677.53	1094.90
677.87	1087.88
678.21	1089.99
678.55	1099.35
678.89	1102.63
679.23	1096.31
679.57	1090.69
679.90	1078.28
680.24	1075.71
680.58	1080.16
680.92	1079.69
681.26	1089.29
681.60	1102.86
681.94	1097.48
682.28	1098.88
682.62	1095.60
682.96	1088.35
683.29	1090.46
683.63	1085.77
683.97	1087.65
684.31	1094.67
684.65	1093.03
684.99	1083.20
685.33	1086.94
685.67	1074.54
686.00	1066.82
686.34	1067.75
686.68	1068.22
687.02	1074.54
687.36	1074.07
687.70	1085.77
688.03	1093.73
688.37	1094.90
688.71	1101.69
689.05	1106.84
689.39	1093.26
689.72	1088.12
690.06	1097.24
690.40	1090.69
690.74	1096.54
691.08	1096.07
691.41	1099.35
691.75	1099.12
692.09	1099.35
692.43	1096.78
692.76	1093.50
693.10	1089.99
693.44	1079.69
693.78	1084.60
694.11	1086.01
694.45	1096.78
694.79	1103.09
695.13	1105.67
695.46	1094.90
695.80	1090.69
696.14	1095.37
696.48	1090.92
696.81	1087.88
697.15	1087.41
697.49	1082.73
697.82	1071.97
698.16	1065.18
698.50	1064.71
698.83	1065.18
699.17	1067.75
699.51	1062.60
699.84	1070.56
700.18	1074.07
700.52	1081.80
700.85	1082.97
701.19	1092.80
701.53	1089.75
701.86	1102.16
702.20	1098.41
702.54	1103.56
702.87	1100.05
703.21	1096.54
703.55	1085.54
703.88	1094.90
704.22	1093.73
704.55	1100.05
704.89	1109.65
705.23	1111.05
705.56	1098.88
705.90	1098.41
706.23	1095.14
706.57	1091.39
706.91	1095.37
707.24	1099.82
707.58	1104.03
707.91	1098.41
708.25	1098.88
708.58	1089.05
708.92	1090.92
709.26	1083.20
709.59	1094.43
709.93	1094.43
710.26	1092.09
710.60	1085.77
710.93	1097.95
711.27	1089.99
711.60	1097.95
711.94	1098.88
712.27	1098.18
712.61	1087.88
712.94	1095.14
713.28	1086.01
713.61	1096.54
713.95	1104.50
714.28	1110.58
714.62	1100.99
714.95	1099.35
715.29	1092.56
715.62	1082.97
715.96	1077.82
716.29	1078.05
716.63	1081.33
716.96	1081.80
717.29	1087.88
717.63	1087.65
717.96	1086.94
718.30	1082.50
718.63	1080.86
718.97	1074.07
719.30	1076.88
719.63	1079.46
719.97	1084.37
720.30	1078.28
720.64	1080.39
720.97	1076.18
721.30	1071.50
721.64	1072.67
721.97	1082.26
722.31	1084.14
722.64	1089.05
722.97	1092.80
723.31	1100.52
723.64	1100.52
723.97	1097.95
724.31	1092.56
724.64	1096.54
724.98	1077.82
725.31	1086.24
725.64	1088.12
725.98	1087.88
726.31	1078.52
726.64	1091.16
726.97	1074.54
727.31	1072.67
727.64	1071.73
727.97	1077.35
728.31	1078.99
728.64	1081.80
728.97	1086.01
729.31	1084.37
729.64	1087.65
729.97	1076.88
730.30	1068.69
730.64	1064.71
730.97	1064.94
731.30	1062.60
731.63	1071.73
731.97	1084.37
732.30	1089.52
732.63	1096.07
732.96	1092.80
733.30	1092.09
733.63	1089.75
733.96	1098.18
734.29	1092.80
734.63	1097.48
734.96	1097.48
735.29	1093.73
735.62	1088.82
735.95	1086.94
736.29	1078.99
736.62	1072.90
736.95	1075.48
737.28	1078.05
737.61	1082.26
737.94	1085.07
738.28	1084.84
738.61	1084.14
738.94	1071.97
739.27	1075.71
739.60	1069.16
739.93	1077.82
740.27	1086.01
740.60	1088.12
740.93	1082.03
741.26	1091.86
741.59	1078.28
741.92	1073.84
742.25	1073.14
742.58	1074.31
742.91	1076.18
743.25	1082.73
743.58	1077.82
743.91	1076.18
744.24	1077.82
744.57	1070.33
744.90	1078.05
745.23	1083.20
745.56	1097.01
745.89	1105.90
746.22	1103.09
746.55	1084.14
746.88	1081.09
747.21	1078.28
747.54	1069.86
747.87	1073.84
748.20	1085.07
748.53	1085.31
748.87	1076.88
749.20	1074.54
749.53	1069.39
749.86	1066.58
750.19	1068.92
750.52	1071.26
750.85	1070.09
751.18	1070.56
751.51	1066.35
751.84	1062.60
752.16	1061.20
752.49	1060.73
752.82	1070.56
753.15	1077.58
753.48	1080.16
753.81	1080.16
754.14	1086.94
754.47	1079.69
754.80	1078.75
755.13	1082.03
755.46	1086.94
755.79	1084.84
756.12	1092.56
756.45	1095.84
756.78	1083.43
757.11	1079.92
757.43	1083.43
757.76	1074.31
758.09	1066.35
758.42	1070.56
758.75	1071.03
759.08	1060.03
759.41	1064.01
759.74	1069.16
760.07	1068.92
760.39	1077.35
760.72	1089.29
761.05	1084.14
761.38	1088.12
761.71	1101.69
762.04	1098.41
762.36	1097.95
762.69	1104.26
763.02	1103.56
763.35	1099.58
763.68	1097.24
764.01	1092.56
