SpectraSuite Data File
++++++++++++++++++++++++++++++++++++
Date: Mon Aug 26 10:24:42 PDT 2019
User: corrico
Dark Spectrum Present: No
Reference Spectrum Present: No
Number of Sampled Component Spectra: 1
Spectrometers: USB2+H06089
Integration Time (usec): 10000 (USB2+H06089)
Spectra Averaged: 2 (USB2+H06089)
Boxcar Smoothing: 2 (USB2+H06089)
Correct for Electrical Dark: No (USB2+H06089)
Strobe/Lamp Enabled: No (USB2+H06089)
Correct for Detector Non-linearity: No (USB2+H06089)
Correct for Stray Light: No (USB2+H06089)
Number of Pixels in Processed Spectrum: 2048
>>>>>Begin Processed Spectral Data<<<<<
339.70	1027.50
340.07	1027.50
340.45	993.79
340.82	969.45
341.19	939.26
341.57	910.47
341.94	889.64
342.31	885.42
342.69	887.53
343.06	894.32
343.43	885.42
343.81	895.25
344.18	891.04
344.55	889.17
344.93	884.72
345.30	901.34
345.67	915.85
346.04	929.19
346.42	941.36
346.79	958.22
347.16	973.19
347.54	982.09
347.91	990.51
348.28	1005.26
348.65	1020.71
349.03	1031.71
349.40	1043.41
349.77	1052.07
350.14	1061.20
350.52	1064.24
350.89	1066.35
351.26	1065.65
351.63	1074.31
352.01	1082.03
352.38	1086.24
352.75	1089.29
353.12	1100.52
353.50	1108.71
353.87	1099.35
354.24	1103.33
354.61	1104.26
354.98	1103.09
355.36	1097.95
355.73	1093.97
356.10	1096.78
356.47	1098.65
356.84	1099.58
357.22	1096.54
357.59	1101.46
357.96	1097.01
358.33	1105.44
358.70	1095.37
359.08	1096.07
359.45	1103.56
359.82	1104.03
360.19	1093.03
360.56	1095.37
360.94	1093.97
361.31	1079.46
361.68	1082.03
362.05	1083.43
362.42	1086.48
362.79	1088.35
363.16	1093.73
363.54	1088.12
363.91	1090.22
364.28	1087.41
364.65	1091.63
365.02	1092.09
365.39	1088.35
365.76	1086.48
366.14	1085.54
366.51	1076.41
366.88	1077.58
367.25	1086.94
367.62	1087.41
367.99	1093.26
368.36	1097.01
368.73	1100.75
369.10	1104.03
369.48	1114.56
369.85	1115.03
370.22	1109.88
370.59	1100.99
370.96	1087.65
371.33	1082.26
371.70	1085.31
372.07	1089.75
372.44	1103.80
372.81	1115.27
373.18	1113.63
373.55	1103.56
373.93	1103.80
374.30	1097.71
374.67	1091.86
375.04	1093.50
375.41	1097.95
375.78	1101.46
376.15	1095.60
376.52	1090.69
376.89	1085.31
377.26	1077.11
377.63	1082.26
378.00	1088.82
378.37	1100.52
378.74	1098.18
379.11	1101.46
379.48	1099.35
379.85	1110.12
380.22	1100.75
380.59	1111.05
380.96	1111.29
381.33	1107.78
381.70	1091.86
382.07	1096.54
382.44	1087.41
382.81	1098.88
383.18	1096.31
383.55	1103.80
383.92	1104.26
384.29	1109.41
384.66	1103.56
385.03	1108.71
385.40	1106.14
385.77	1104.03
386.14	1099.12
386.51	1102.39
386.88	1100.52
387.25	1105.44
387.62	1113.63
387.99	1115.73
388.36	1118.07
388.73	1126.73
389.10	1127.90
389.46	1123.46
389.83	1134.93
390.20	1117.61
390.57	1112.22
390.94	1102.16
391.31	1108.95
391.68	1101.69
392.05	1115.03
392.42	1122.75
392.79	1131.41
393.16	1138.67
393.53	1139.84
393.89	1144.52
394.26	1137.97
394.63	1138.67
395.00	1123.93
395.37	1130.71
395.74	1124.86
396.11	1122.75
396.48	1129.07
396.84	1144.76
397.21	1150.37
397.58	1163.25
397.95	1163.48
398.32	1160.67
398.69	1160.91
399.06	1157.86
399.42	1161.37
399.79	1174.48
400.16	1187.35
400.53	1192.27
400.90	1202.10
401.27	1194.84
401.64	1198.12
402.00	1193.44
402.37	1198.12
402.74	1200.46
403.11	1227.61
403.48	1251.02
403.84	1278.40
404.21	1299.70
404.58	1316.08
404.95	1321.47
405.32	1329.89
405.68	1345.11
406.05	1358.45
406.42	1381.38
406.79	1409.24
407.16	1441.30
407.52	1473.60
407.89	1507.30
408.26	1544.99
408.63	1581.03
408.99	1613.57
409.36	1637.91
409.73	1688.93
410.10	1732.00
410.47	1778.10
410.83	1830.53
411.20	1915.03
411.57	1969.79
411.94	2032.99
412.30	2098.76
412.67	2196.59
413.04	2259.09
413.40	2342.41
413.77	2452.18
414.14	2583.95
414.51	2693.72
414.87	2820.11
415.24	2973.88
415.61	3104.95
415.97	3243.98
416.34	3418.82
416.71	3604.42
417.08	3791.43
417.44	4001.85
417.81	4241.05
418.18	4458.25
418.54	4715.01
418.91	4984.64
419.28	5272.99
419.64	5546.13
420.01	5872.40
420.38	6186.50
420.74	6509.26
421.11	6914.64
421.48	7293.58
421.84	7716.51
422.21	8143.19
422.58	8606.85
422.94	9075.43
423.31	9601.58
423.68	10192.10
424.04	10838.32
424.41	11466.28
424.77	12087.93
425.14	12771.13
425.51	13427.89
425.87	14153.45
426.24	14880.89
426.61	15701.02
426.97	16675.15
427.34	17537.87
427.70	18516.45
428.07	19540.43
428.44	20568.16
428.80	21482.61
429.17	22583.60
429.53	23653.22
429.90	24922.96
430.27	26054.14
430.63	27234.47
431.00	28467.70
431.36	29817.96
431.73	30961.54
432.09	32242.28
432.46	33533.79
432.83	34872.11
433.19	36028.10
433.56	37592.05
433.92	39113.86
434.29	40541.12
434.65	41874.52
435.02	43182.65
435.38	44198.44
435.75	45083.63
436.11	46304.46
436.48	47390.46
436.84	48439.73
437.21	49438.67
437.57	50441.82
437.94	51147.96
438.30	51697.05
438.67	52021.45
439.03	52204.48
439.40	52326.89
439.76	52151.82
440.13	51980.26
440.49	52029.87
440.86	51665.69
441.22	51310.39
441.59	50791.03
441.95	50285.24
442.32	49334.28
442.68	48701.63
443.05	47755.59
443.41	46836.69
443.78	45697.09
444.14	44699.08
444.51	43316.29
444.87	42301.44
445.24	41109.17
445.60	40042.59
445.96	38903.21
446.33	38101.58
446.69	36980.46
447.06	36121.02
447.42	35108.04
447.79	33962.58
448.15	32925.95
448.51	31961.89
448.88	31074.12
449.24	30108.18
449.61	29501.98
449.97	28739.20
450.33	27978.30
450.70	27137.58
451.06	26525.76
451.43	25765.55
451.79	25225.59
452.15	24703.42
452.52	24121.56
452.88	23519.58
453.24	22982.19
453.61	22335.26
453.97	21671.96
454.34	21061.78
454.70	20572.14
455.06	19977.41
455.43	19266.12
455.79	18527.68
456.15	17953.08
456.52	17227.28
456.88	16685.45
457.24	16119.97
457.61	15729.57
457.97	15167.84
458.33	14677.73
458.70	14139.41
459.06	13672.24
459.42	13177.92
459.79	12722.22
460.15	12327.37
460.51	11895.07
460.88	11462.77
461.24	11043.58
461.60	10672.61
461.96	10296.25
462.33	9961.79
462.69	9629.20
463.05	9338.27
463.42	9092.75
463.78	8805.10
464.14	8543.89
464.50	8339.56
464.87	8090.30
465.23	7830.03
465.59	7598.78
465.95	7375.50
466.32	7172.81
466.68	6986.97
467.04	6809.09
467.40	6644.55
467.77	6497.09
468.13	6325.30
468.49	6155.84
468.85	6011.43
469.22	5886.21
469.58	5708.80
469.94	5583.58
470.30	5454.38
470.66	5320.74
471.03	5186.86
471.39	5106.81
471.75	4982.77
472.11	4889.61
472.47	4808.63
472.84	4717.35
473.20	4615.77
473.56	4544.62
473.92	4430.17
474.28	4338.65
474.65	4258.84
475.01	4181.84
475.37	4073.70
475.73	4006.53
476.09	3919.46
476.45	3824.90
476.81	3735.03
477.18	3668.09
477.54	3606.53
477.90	3536.55
478.26	3470.31
478.62	3417.18
478.98	3376.69
479.34	3313.26
479.71	3271.60
480.07	3227.13
480.43	3169.55
480.79	3114.55
481.15	3058.14
481.51	2992.37
481.87	2938.54
482.23	2890.80
482.59	2825.49
482.96	2781.49
483.32	2729.06
483.68	2691.85
484.04	2661.89
484.40	2647.85
484.76	2616.25
485.12	2599.63
485.48	2569.44
485.84	2541.59
486.20	2481.90
486.56	2443.75
486.92	2405.37
487.28	2376.35
487.64	2330.00
488.00	2300.98
488.37	2259.55
488.73	2209.93
489.09	2173.89
489.45	2137.61
489.81	2107.18
490.17	2096.18
490.53	2084.48
490.89	2050.54
491.25	2031.58
491.61	2012.86
491.97	1977.28
492.33	1948.26
492.69	1933.28
493.05	1913.62
493.41	1897.94
493.77	1880.39
494.13	1857.45
494.49	1842.24
494.85	1811.81
495.21	1783.72
495.57	1754.47
495.93	1732.23
496.29	1701.57
496.64	1695.72
497.00	1674.65
497.36	1654.06
497.72	1629.48
498.08	1620.82
498.44	1592.73
498.80	1571.44
499.16	1557.39
499.52	1552.01
499.88	1534.46
500.24	1526.26
500.60	1516.90
500.96	1509.18
501.32	1497.24
501.68	1476.41
502.03	1464.71
502.39	1454.88
502.75	1435.92
503.11	1434.05
503.47	1442.94
503.83	1437.32
504.19	1440.37
504.55	1448.09
504.91	1429.13
505.26	1406.90
505.62	1398.24
505.98	1369.21
506.34	1346.74
506.70	1345.34
507.06	1333.17
507.42	1324.74
507.78	1329.66
508.13	1341.36
508.49	1330.59
508.85	1332.94
509.21	1328.25
509.57	1319.13
509.93	1306.96
510.28	1299.23
510.64	1293.85
511.00	1284.02
511.36	1275.12
511.72	1268.57
512.07	1267.17
512.43	1260.61
512.79	1254.06
513.15	1259.68
513.51	1264.59
513.86	1264.59
514.22	1259.91
514.58	1256.63
514.94	1254.29
515.30	1236.97
515.65	1232.29
516.01	1222.70
516.37	1222.70
516.73	1221.06
517.08	1224.33
517.44	1213.57
517.80	1206.55
518.16	1203.04
518.51	1192.74
518.87	1188.76
519.23	1192.74
519.59	1196.95
519.94	1192.03
520.30	1195.78
520.66	1189.69
521.01	1189.23
521.37	1183.37
521.73	1181.27
522.09	1170.27
522.44	1172.37
522.80	1165.59
523.16	1163.01
523.51	1160.67
523.87	1148.50
524.23	1146.16
524.58	1150.61
524.94	1154.59
525.30	1156.69
525.65	1174.25
526.01	1168.86
526.37	1163.25
526.72	1154.82
527.08	1149.20
527.44	1140.07
527.79	1137.50
528.15	1136.10
528.51	1141.01
528.86	1147.80
529.22	1159.97
529.58	1165.35
529.93	1163.48
530.29	1159.27
530.65	1157.86
531.00	1144.05
531.36	1144.52
531.71	1138.20
532.07	1139.37
532.43	1133.52
532.78	1140.07
533.14	1133.76
533.49	1135.39
533.85	1135.63
534.21	1135.86
534.56	1135.63
534.92	1134.46
535.27	1134.69
535.63	1139.37
535.98	1133.52
536.34	1128.84
536.69	1129.31
537.05	1136.10
537.41	1123.46
537.76	1131.88
538.12	1137.50
538.47	1130.71
538.83	1119.71
539.18	1127.67
539.54	1126.73
539.89	1118.31
540.25	1129.54
540.60	1137.03
540.96	1134.22
541.31	1125.80
541.67	1128.61
542.02	1127.20
542.38	1125.33
542.73	1131.88
543.09	1135.16
543.44	1126.03
543.80	1120.41
544.15	1120.18
544.51	1108.01
544.86	1109.65
545.22	1116.44
545.57	1128.37
545.93	1127.67
546.28	1144.99
546.64	1140.31
546.99	1130.71
547.35	1120.65
547.70	1132.59
548.05	1119.24
548.41	1121.58
548.76	1121.35
549.12	1114.80
549.47	1104.03
549.83	1111.05
550.18	1106.61
550.53	1118.31
550.89	1120.65
551.24	1114.33
551.60	1113.63
551.95	1116.44
552.30	1112.46
552.66	1106.14
553.01	1105.44
553.37	1104.26
553.72	1104.97
554.07	1094.43
554.43	1101.69
554.78	1111.29
555.13	1112.46
555.49	1113.39
555.84	1111.75
556.19	1114.33
556.55	1101.46
556.90	1095.37
557.26	1091.63
557.61	1104.03
557.96	1105.20
558.32	1111.75
558.67	1116.44
559.02	1121.58
559.37	1120.65
559.73	1113.86
560.08	1103.56
560.43	1095.60
560.79	1090.46
561.14	1088.58
561.49	1087.88
561.85	1103.80
562.20	1112.22
562.55	1118.31
562.90	1109.88
563.26	1113.63
563.61	1108.48
563.96	1102.63
564.32	1098.41
564.67	1100.75
565.02	1104.50
565.37	1101.22
565.73	1103.56
566.08	1098.18
566.43	1111.75
566.78	1102.39
567.14	1100.29
567.49	1105.44
567.84	1109.88
568.19	1111.05
568.54	1113.39
568.90	1115.97
569.25	1113.16
569.60	1123.22
569.95	1112.22
570.31	1108.71
570.66	1118.54
571.01	1117.14
571.36	1100.29
571.71	1096.78
572.06	1101.46
572.42	1093.97
572.77	1093.26
573.12	1097.01
573.47	1103.80
573.82	1106.14
574.18	1098.88
574.53	1089.29
574.88	1084.84
575.23	1087.65
575.58	1080.63
575.93	1087.18
576.28	1087.41
576.64	1097.48
576.99	1099.58
577.34	1106.37
577.69	1118.31
578.04	1126.50
578.39	1125.10
578.74	1119.95
579.09	1116.20
579.44	1098.65
579.80	1103.33
580.15	1103.56
580.50	1092.09
580.85	1100.75
581.20	1099.58
581.55	1094.67
581.90	1097.95
582.25	1101.69
582.60	1102.16
582.95	1108.01
583.30	1102.39
583.65	1091.39
584.00	1093.73
584.35	1090.69
584.71	1093.97
585.06	1093.73
585.41	1102.16
585.76	1105.44
586.11	1104.26
586.46	1096.54
586.81	1108.01
587.16	1107.54
587.51	1105.67
587.86	1105.44
588.21	1117.14
588.56	1108.24
588.91	1104.73
589.26	1108.01
589.61	1106.14
589.96	1097.71
590.31	1097.48
590.66	1092.56
591.01	1084.14
591.36	1086.94
591.71	1089.75
592.06	1098.88
592.41	1110.35
592.76	1116.20
593.10	1112.46
593.45	1112.92
593.80	1102.86
594.15	1086.48
594.50	1092.56
594.85	1093.03
595.20	1085.54
595.55	1089.75
595.90	1095.14
596.25	1085.07
596.60	1089.05
596.95	1096.54
597.30	1093.26
597.64	1147.80
597.99	1155.99
598.34	1146.39
598.69	1151.31
599.04	1149.44
599.39	1099.12
599.74	1098.18
600.09	1108.24
600.44	1101.69
600.78	1101.46
601.13	1095.14
601.48	1092.80
601.83	1089.99
602.18	1087.41
602.53	1091.63
602.88	1101.46
603.22	1101.69
603.57	1100.29
603.92	1097.24
604.27	1095.37
604.62	1094.67
604.97	1098.41
605.31	1093.97
605.66	1097.01
606.01	1096.78
606.36	1095.14
606.71	1081.56
607.05	1092.09
607.40	1098.65
607.75	1100.29
608.10	1098.65
608.44	1118.31
608.79	1111.52
609.14	1097.24
609.49	1099.82
609.84	1111.05
610.18	1092.56
610.53	1102.16
610.88	1120.18
611.23	1113.39
611.57	1103.80
611.92	1112.46
612.27	1105.44
612.62	1094.67
612.96	1101.92
613.31	1104.97
613.66	1109.18
614.00	1107.07
614.35	1108.71
614.70	1105.67
615.05	1106.14
615.39	1105.44
615.74	1110.58
616.09	1109.65
616.43	1112.69
616.78	1100.75
617.13	1093.03
617.47	1082.03
617.82	1083.43
618.17	1077.35
618.51	1086.24
618.86	1091.16
619.21	1097.24
619.55	1104.97
619.90	1107.54
620.25	1104.97
620.59	1111.52
620.94	1108.95
621.29	1104.50
621.63	1108.24
621.98	1110.82
622.32	1108.24
622.67	1121.12
623.02	1109.88
623.36	1097.95
623.71	1097.01
624.05	1093.03
624.40	1086.71
624.75	1094.20
625.09	1103.09
625.44	1105.67
625.78	1100.99
626.13	1095.84
626.48	1104.97
626.82	1103.09
627.17	1107.07
627.51	1108.01
627.86	1115.27
628.20	1102.86
628.55	1104.03
628.89	1089.75
629.24	1092.33
629.58	1086.94
629.93	1089.29
630.28	1090.92
630.62	1097.95
630.97	1096.54
631.31	1097.48
631.66	1103.56
632.00	1095.37
632.35	1097.71
632.69	1101.69
633.04	1096.07
633.38	1090.69
633.73	1097.95
634.07	1100.99
634.42	1098.65
634.76	1104.03
635.11	1096.07
635.45	1093.26
635.79	1090.69
636.14	1093.73
636.48	1098.88
636.83	1104.73
637.17	1104.73
637.52	1101.46
637.86	1098.88
638.21	1086.94
638.55	1083.90
638.89	1078.75
639.24	1079.69
639.58	1079.22
639.93	1074.31
640.27	1078.75
640.61	1087.41
640.96	1096.78
641.30	1102.39
641.65	1099.82
641.99	1100.52
642.33	1096.54
642.68	1085.54
643.02	1078.28
643.37	1091.16
643.71	1090.69
644.05	1095.14
644.40	1096.54
644.74	1092.80
645.08	1091.63
645.43	1092.33
645.77	1087.88
646.11	1088.35
646.46	1093.73
646.80	1085.77
647.14	1084.60
647.49	1087.41
647.83	1084.84
648.17	1089.05
648.52	1093.50
648.86	1096.07
649.20	1091.63
649.55	1095.14
649.89	1090.22
650.23	1093.97
650.57	1090.46
650.92	1088.82
651.26	1090.46
651.60	1096.07
651.95	1096.07
652.29	1101.22
652.63	1107.31
652.97	1103.80
653.32	1089.52
653.66	1090.22
654.00	1083.67
654.34	1075.94
654.69	1067.52
655.03	1077.82
655.37	1069.86
655.71	1071.03
656.05	1079.22
656.40	1078.28
656.74	1077.58
657.08	1089.52
657.42	1095.84
657.76	1094.90
658.11	1100.99
658.45	1097.24
658.79	1086.94
659.13	1086.24
659.47	1072.20
659.82	1073.84
660.16	1073.37
660.50	1070.09
660.84	1065.65
661.18	1079.69
661.52	1074.31
661.87	1080.86
662.21	1090.92
662.55	1091.63
662.89	1092.56
663.23	1099.58
663.57	1085.07
663.91	1083.20
664.25	1092.09
664.60	1088.82
664.94	1077.35
665.28	1088.12
665.62	1090.69
665.96	1082.26
666.30	1096.54
666.64	1108.48
666.98	1113.39
667.32	1110.35
667.66	1104.50
668.01	1090.22
668.35	1089.99
668.69	1088.35
669.03	1090.22
669.37	1104.26
669.71	1108.24
670.05	1106.14
670.39	1099.35
670.73	1097.95
671.07	1098.88
671.41	1097.95
671.75	1103.09
672.09	1114.33
672.43	1123.22
672.77	1109.65
673.11	1113.86
673.45	1118.31
673.79	1112.46
674.13	1104.97
674.47	1102.86
674.81	1087.41
675.15	1080.39
675.49	1085.77
675.83	1081.33
676.17	1090.92
676.51	1104.50
676.85	1097.48
677.19	1090.69
677.53	1082.97
677.87	1079.69
678.21	1068.45
678.55	1080.86
678.89	1074.77
679.23	1097.01
679.57	1100.29
679.90	1105.20
680.24	1093.73
680.58	1099.58
680.92	1089.75
681.26	1090.46
681.60	1099.82
681.94	1108.48
682.28	1107.54
682.62	1100.52
682.96	1095.84
683.29	1088.35
683.63	1084.84
683.97	1089.52
684.31	1093.73
684.65	1085.07
684.99	1082.73
685.33	1081.80
685.67	1080.16
686.00	1081.09
686.34	1083.20
686.68	1090.92
687.02	1082.97
687.36	1075.71
687.70	1070.09
688.03	1072.67
688.37	1071.03
688.71	1073.60
689.05	1071.97
689.39	1075.24
689.72	1074.31
690.06	1067.28
690.40	1078.99
690.74	1082.26
691.08	1085.31
691.41	1079.92
691.75	1079.92
692.09	1071.97
692.43	1071.73
692.76	1072.20
693.10	1078.28
693.44	1083.20
693.78	1087.65
694.11	1087.41
694.45	1081.56
694.79	1094.43
695.13	1090.22
695.46	1087.18
695.80	1085.31
696.14	1097.71
696.48	1088.58
696.81	1088.35
697.15	1083.90
697.49	1086.71
697.82	1079.69
698.16	1072.67
698.50	1084.14
698.83	1093.50
699.17	1096.07
699.51	1098.41
699.84	1101.46
700.18	1107.07
700.52	1110.35
700.85	1103.33
701.19	1091.39
701.53	1093.03
701.86	1075.48
702.20	1068.22
702.54	1077.58
702.87	1083.67
703.21	1087.88
703.55	1091.86
703.88	1095.14
704.22	1086.48
704.55	1086.71
704.89	1080.39
705.23	1077.11
705.56	1078.52
705.90	1088.82
706.23	1080.16
706.57	1075.71
706.91	1083.90
707.24	1083.43
707.58	1078.05
707.91	1092.56
708.25	1104.03
708.58	1098.65
708.92	1088.12
709.26	1089.75
709.59	1088.12
709.93	1091.39
710.26	1088.82
710.60	1102.63
710.93	1110.12
711.27	1107.31
711.60	1104.03
711.94	1103.09
712.27	1095.37
712.61	1087.88
712.94	1087.41
713.28	1074.77
713.61	1080.39
713.95	1079.46
714.28	1080.63
714.62	1088.35
714.95	1094.20
715.29	1095.14
715.62	1099.35
715.96	1098.41
716.29	1087.18
716.63	1085.31
716.96	1086.94
717.29	1079.92
717.63	1076.41
717.96	1077.35
718.30	1082.26
718.63	1082.73
718.97	1088.35
719.30	1091.16
719.63	1099.82
719.97	1102.16
720.30	1091.39
720.64	1089.99
720.97	1077.82
721.30	1076.18
721.64	1065.65
721.97	1071.97
722.31	1068.69
722.64	1079.92
722.97	1075.24
723.31	1078.28
723.64	1076.65
723.97	1069.86
724.31	1073.84
724.64	1065.65
724.98	1077.35
725.31	1084.60
725.64	1100.05
725.98	1098.88
726.31	1105.20
726.64	1096.54
726.97	1092.33
727.31	1088.12
727.64	1079.92
727.97	1075.94
728.31	1080.16
728.64	1080.39
728.97	1074.54
729.31	1078.52
729.64	1080.86
729.97	1079.46
730.30	1086.71
730.64	1090.22
730.97	1097.95
731.30	1098.88
731.63	1110.82
731.97	1099.58
732.30	1097.95
732.63	1096.78
732.96	1091.16
733.30	1079.22
733.63	1077.11
733.96	1080.39
734.29	1069.62
734.63	1079.22
734.96	1080.16
735.29	1091.63
735.62	1086.01
735.95	1085.31
736.29	1073.60
736.62	1082.26
736.95	1073.84
737.28	1071.50
737.61	1080.39
737.94	1093.73
738.28	1083.43
738.61	1084.84
738.94	1085.31
739.27	1073.60
739.60	1073.14
739.93	1080.63
740.27	1077.11
740.60	1084.37
740.93	1097.24
741.26	1097.24
741.59	1084.37
741.92	1089.75
742.25	1092.56
742.58	1082.73
742.91	1092.80
743.25	1095.14
743.58	1084.60
743.91	1084.60
744.24	1095.37
744.57	1086.48
744.90	1090.46
745.23	1097.48
745.56	1091.16
745.89	1085.54
746.22	1085.77
746.55	1081.80
746.88	1072.67
747.21	1073.14
747.54	1071.26
747.87	1069.62
748.20	1068.22
748.53	1066.35
748.87	1072.43
749.20	1077.82
749.53	1078.05
749.86	1082.03
750.19	1088.12
750.52	1087.18
750.85	1079.69
751.18	1076.88
751.51	1076.65
751.84	1084.37
752.16	1075.24
752.49	1068.45
752.82	1066.58
753.15	1070.80
753.48	1070.80
753.81	1075.94
754.14	1089.75
754.47	1085.31
754.80	1088.12
755.13	1079.22
755.46	1084.84
755.79	1088.82
756.12	1097.71
756.45	1087.18
756.78	1092.56
757.11	1089.29
757.43	1083.43
757.76	1081.56
758.09	1086.48
758.42	1089.75
758.75	1089.05
759.08	1089.05
759.41	1088.58
759.74	1078.52
760.07	1068.69
760.39	1075.94
760.72	1073.14
761.05	1071.50
761.38	1081.33
761.71	1088.12
762.04	1086.01
762.36	1090.46
762.69	1095.84
763.02	1089.99
763.35	1093.26
763.68	1079.69
764.01	1064.71
