SpectraSuite Data File
++++++++++++++++++++++++++++++++++++
Date: Mon Aug 26 10:24:41 PDT 2019
User: corrico
Dark Spectrum Present: No
Reference Spectrum Present: No
Number of Sampled Component Spectra: 1
Spectrometers: USB2+H06089
Integration Time (usec): 10000 (USB2+H06089)
Spectra Averaged: 2 (USB2+H06089)
Boxcar Smoothing: 2 (USB2+H06089)
Correct for Electrical Dark: No (USB2+H06089)
Strobe/Lamp Enabled: No (USB2+H06089)
Correct for Detector Non-linearity: No (USB2+H06089)
Correct for Stray Light: No (USB2+H06089)
Number of Pixels in Processed Spectrum: 2048
>>>>>Begin Processed Spectral Data<<<<<
339.70	1020.47
340.07	1020.47
340.45	989.81
340.82	972.73
341.19	957.98
341.57	936.92
341.94	935.28
342.31	918.43
342.69	915.38
343.06	914.21
343.43	920.53
343.81	912.11
344.18	923.58
344.55	918.66
344.93	912.34
345.30	910.23
345.67	916.79
346.04	913.28
346.42	926.62
346.79	932.24
347.16	947.21
347.54	964.30
347.91	974.83
348.28	986.07
348.65	1003.86
349.03	1011.35
349.40	1023.28
349.77	1043.88
350.14	1057.45
350.52	1070.80
350.89	1066.35
351.26	1060.73
351.63	1062.37
352.01	1053.48
352.38	1049.50
352.75	1064.48
353.12	1090.92
353.50	1088.12
353.87	1089.99
354.24	1083.20
354.61	1081.80
354.98	1068.69
355.36	1078.28
355.73	1084.14
356.10	1095.60
356.47	1088.35
356.84	1089.75
357.22	1086.01
357.59	1082.97
357.96	1078.05
358.33	1087.41
358.70	1094.20
359.08	1100.52
359.45	1107.78
359.82	1115.73
360.19	1112.92
360.56	1107.31
360.94	1101.46
361.31	1106.37
361.68	1112.22
362.05	1117.37
362.42	1115.73
362.79	1111.29
363.16	1096.78
363.54	1098.18
363.91	1093.73
364.28	1084.60
364.65	1090.92
365.02	1100.29
365.39	1084.14
365.76	1081.56
366.14	1092.09
366.51	1088.82
366.88	1083.67
367.25	1090.92
367.62	1090.22
367.99	1085.07
368.36	1076.65
368.73	1088.82
369.10	1094.90
369.48	1097.48
369.85	1100.52
370.22	1111.99
370.59	1106.14
370.96	1095.37
371.33	1092.80
371.70	1089.75
372.07	1087.88
372.44	1096.07
372.81	1103.33
373.18	1107.54
373.55	1113.63
373.93	1108.48
374.30	1095.60
374.67	1095.84
375.04	1087.65
375.41	1089.99
375.78	1100.29
376.15	1102.16
376.52	1095.60
376.89	1103.56
377.26	1104.03
377.63	1093.97
378.00	1092.56
378.37	1088.35
378.74	1085.31
379.11	1077.58
379.48	1088.12
379.85	1096.54
380.22	1097.71
380.59	1111.29
380.96	1108.24
381.33	1101.46
381.70	1103.33
382.07	1110.12
382.44	1106.37
382.81	1114.09
383.18	1108.95
383.55	1104.03
383.92	1104.50
384.29	1102.16
384.66	1105.67
385.03	1106.61
385.40	1103.09
385.77	1103.33
386.14	1099.58
386.51	1099.12
386.88	1105.44
387.25	1109.41
387.62	1106.61
387.99	1111.52
388.36	1111.52
388.73	1117.14
389.10	1128.37
389.46	1137.03
389.83	1143.12
390.20	1141.01
390.57	1137.03
390.94	1115.97
391.31	1110.12
391.68	1094.67
392.05	1092.80
392.42	1094.90
392.79	1108.71
393.16	1111.75
393.53	1119.48
393.89	1130.48
394.26	1131.18
394.63	1136.33
395.00	1139.14
395.37	1143.35
395.74	1138.90
396.11	1153.18
396.48	1152.01
396.84	1163.25
397.21	1171.44
397.58	1184.55
397.95	1176.82
398.32	1192.74
398.69	1183.84
399.06	1181.97
399.42	1182.91
399.79	1188.29
400.16	1174.25
400.53	1182.91
400.90	1190.63
401.27	1185.72
401.64	1188.99
402.00	1200.23
402.37	1209.82
402.74	1214.97
403.11	1239.55
403.48	1258.97
403.84	1274.42
404.21	1272.32
404.58	1294.32
404.95	1302.74
405.32	1311.64
405.68	1327.79
406.05	1362.89
406.42	1390.28
406.79	1407.60
407.16	1438.26
407.52	1465.41
407.89	1494.43
408.26	1534.46
408.63	1578.46
408.99	1617.78
409.36	1665.06
409.73	1713.27
410.10	1758.44
410.47	1809.47
410.83	1871.96
411.20	1924.39
411.57	1994.60
411.94	2049.14
412.30	2121.93
412.67	2198.00
413.04	2293.96
413.40	2393.90
413.77	2516.54
414.14	2627.25
414.51	2743.34
414.87	2888.92
415.24	3027.72
415.61	3154.57
415.97	3317.48
416.34	3501.21
416.71	3671.13
417.08	3861.18
417.44	4059.19
417.81	4312.91
418.18	4546.49
418.54	4797.40
418.91	5059.77
419.28	5393.30
419.64	5673.46
420.01	6019.16
420.38	6383.81
420.74	6722.95
421.11	7109.38
421.48	7521.31
421.84	7930.67
422.21	8361.10
422.58	8870.86
422.94	9371.74
423.31	9893.91
423.68	10471.09
424.04	11105.84
424.41	11722.34
424.77	12336.26
425.14	12995.82
425.51	13679.96
425.87	14395.93
426.24	15175.57
426.61	16119.74
426.97	17123.59
427.34	18066.13
427.70	19125.69
428.07	20132.82
428.44	21120.76
428.80	22061.42
429.17	23178.79
429.53	24192.01
429.90	25432.03
430.27	26540.97
430.63	27776.07
431.00	29083.26
431.36	30540.95
431.73	31845.09
432.09	33187.39
432.46	34456.20
432.83	35752.15
433.19	36996.61
433.56	38502.51
433.92	40093.84
434.29	41713.03
434.65	43234.61
435.02	44550.93
435.38	45710.90
435.75	46564.49
436.11	47788.12
436.48	48815.38
436.84	49853.64
437.21	50827.07
437.57	51909.57
437.94	52539.64
438.30	53067.90
438.67	53384.58
439.03	53497.39
439.40	53594.99
439.76	53400.73
440.13	53143.74
440.49	53132.03
440.86	52782.83
441.22	52360.59
441.59	51850.12
441.95	51325.61
442.32	50415.14
442.68	49750.66
443.05	48818.89
443.41	47881.51
443.78	46805.80
444.14	45829.80
444.51	44503.41
444.87	43487.15
445.24	42269.37
445.60	41106.36
445.96	39872.90
446.33	39000.58
446.69	37845.06
447.06	36969.93
447.42	35997.91
447.79	34918.69
448.15	33899.85
448.51	32895.29
448.88	31958.38
449.24	30919.88
449.61	30184.72
449.97	29347.28
450.33	28626.39
450.70	27775.84
451.06	27218.79
451.43	26460.69
451.79	25896.16
452.15	25284.34
452.52	24739.70
452.88	24095.35
453.24	23551.64
453.61	22909.40
453.97	22275.58
454.34	21614.38
454.70	21065.76
455.06	20478.05
455.43	19813.10
455.79	19039.56
456.15	18470.57
456.52	17759.52
456.88	17163.38
457.24	16581.76
457.61	16155.08
457.97	15597.80
458.33	15092.94
458.70	14557.20
459.06	14006.70
459.42	13530.87
459.79	12985.76
460.15	12557.44
460.51	12128.89
460.88	11730.53
461.24	11296.13
461.60	10974.30
461.96	10603.09
462.33	10253.65
462.69	9929.02
463.05	9626.16
463.42	9334.29
463.78	9047.57
464.14	8787.07
464.50	8520.02
464.87	8238.45
465.23	7972.10
465.59	7748.11
465.95	7490.18
466.32	7291.94
466.68	7107.97
467.04	6921.43
467.40	6759.70
467.77	6627.23
468.13	6435.77
468.49	6291.36
468.85	6143.44
469.22	6001.37
469.58	5835.42
469.94	5716.52
470.30	5578.67
470.66	5466.56
471.03	5340.87
471.39	5259.65
471.75	5151.29
472.11	5048.77
472.47	4955.15
472.84	4848.42
473.20	4719.46
473.56	4627.94
473.92	4506.23
474.28	4395.06
474.65	4305.18
475.01	4231.69
475.37	4131.51
475.73	4072.53
476.09	3995.29
476.45	3901.67
476.81	3833.56
477.18	3764.99
477.54	3684.24
477.90	3598.81
478.26	3539.59
478.62	3469.61
478.98	3410.39
479.34	3364.99
479.71	3323.33
480.07	3278.39
480.43	3237.90
480.79	3170.96
481.15	3115.96
481.51	3066.57
481.87	3018.59
482.23	2947.90
482.59	2885.18
482.96	2829.71
483.32	2777.75
483.68	2744.28
484.04	2720.87
484.40	2698.64
484.76	2679.45
485.12	2644.81
485.48	2584.19
485.84	2535.03
486.20	2509.99
486.56	2456.86
486.92	2433.92
487.28	2415.67
487.64	2393.43
488.00	2344.75
488.37	2315.02
488.73	2275.70
489.09	2236.85
489.45	2202.21
489.81	2172.25
490.17	2139.48
490.53	2103.21
490.89	2062.48
491.25	2035.56
491.61	2029.24
491.97	2003.50
492.33	2000.22
492.69	1976.11
493.05	1941.94
493.41	1908.24
493.77	1882.96
494.13	1830.06
494.49	1812.04
494.85	1797.53
495.21	1766.87
495.57	1760.32
495.93	1760.79
496.29	1741.36
496.64	1717.95
497.00	1702.74
497.36	1674.65
497.72	1649.38
498.08	1641.18
498.44	1628.78
498.80	1616.14
499.16	1600.46
499.52	1585.24
499.88	1565.58
500.24	1548.97
500.60	1533.05
500.96	1530.24
501.32	1515.50
501.68	1502.39
502.03	1493.03
502.39	1479.92
502.75	1464.94
503.11	1459.56
503.47	1443.88
503.83	1432.41
504.19	1427.49
504.55	1416.02
504.91	1409.24
505.26	1410.17
505.62	1407.60
505.98	1398.47
506.34	1387.94
506.70	1374.83
507.06	1367.11
507.42	1352.13
507.78	1346.98
508.13	1332.23
508.49	1334.81
508.85	1331.06
509.21	1322.17
509.57	1321.23
509.93	1310.47
510.28	1289.87
510.64	1280.98
511.00	1277.00
511.36	1266.93
511.72	1277.70
512.07	1279.80
512.43	1269.51
512.79	1267.17
513.15	1256.17
513.51	1245.87
513.86	1233.46
514.22	1237.44
514.58	1239.78
514.94	1237.44
515.30	1239.78
515.65	1241.65
516.01	1237.91
516.37	1221.76
516.73	1227.38
517.08	1223.87
517.44	1224.33
517.80	1214.97
518.16	1212.87
518.51	1197.42
518.87	1187.35
519.23	1191.33
519.59	1189.69
519.94	1194.61
520.30	1205.61
520.66	1208.42
521.01	1200.69
521.37	1199.29
521.73	1194.61
522.09	1188.52
522.44	1188.06
522.80	1189.69
523.16	1186.42
523.51	1182.20
523.87	1172.61
524.23	1163.48
524.58	1153.42
524.94	1150.61
525.30	1148.73
525.65	1155.05
526.01	1159.74
526.37	1160.44
526.72	1155.29
527.08	1155.52
527.44	1147.33
527.79	1147.80
528.15	1150.14
528.51	1153.65
528.86	1152.25
529.22	1157.86
529.58	1151.54
529.93	1145.46
530.29	1159.50
530.65	1161.37
531.00	1160.20
531.36	1163.01
531.71	1166.29
532.07	1152.25
532.43	1153.88
532.78	1147.33
533.14	1147.80
533.49	1142.42
533.85	1146.86
534.21	1156.69
534.56	1158.80
534.92	1157.16
535.27	1159.97
535.63	1149.91
535.98	1142.18
536.34	1141.48
536.69	1140.31
537.05	1137.97
537.41	1140.54
537.76	1138.67
538.12	1139.37
538.47	1137.97
538.83	1133.76
539.18	1132.82
539.54	1128.14
539.89	1128.14
540.25	1129.07
540.60	1128.37
540.96	1130.24
541.31	1133.52
541.67	1140.07
542.02	1148.03
542.38	1149.91
542.73	1157.86
543.09	1154.59
543.44	1149.67
543.80	1139.14
544.15	1137.03
544.51	1124.63
544.86	1130.71
545.22	1118.07
545.57	1108.01
545.93	1105.67
546.28	1111.05
546.64	1113.16
546.99	1122.99
547.35	1128.84
547.70	1126.50
548.05	1123.69
548.41	1106.61
548.76	1103.33
549.12	1105.20
549.47	1118.54
549.83	1122.99
550.18	1132.12
550.53	1137.50
550.89	1128.37
551.24	1118.78
551.60	1117.37
551.95	1114.56
552.30	1111.99
552.66	1110.12
553.01	1108.48
553.37	1107.78
553.72	1116.44
554.07	1112.46
554.43	1122.52
554.78	1118.78
555.13	1123.46
555.49	1117.37
555.84	1115.97
556.19	1117.61
556.55	1131.18
556.90	1125.33
557.26	1127.44
557.61	1131.18
557.96	1131.65
558.32	1122.29
558.67	1116.44
559.02	1110.58
559.37	1111.75
559.73	1115.50
560.08	1123.46
560.43	1128.61
560.79	1123.46
561.14	1120.88
561.49	1117.14
561.85	1108.24
562.20	1109.88
562.55	1121.12
562.90	1130.24
563.26	1122.29
563.61	1118.31
563.96	1114.33
564.32	1102.86
564.67	1100.05
565.02	1107.54
565.37	1114.33
565.73	1120.18
566.08	1118.31
566.43	1112.69
566.78	1106.84
567.14	1105.90
567.49	1099.35
567.84	1115.50
568.19	1107.07
568.54	1115.50
568.90	1117.84
569.25	1113.16
569.60	1104.97
569.95	1108.48
570.31	1108.95
570.66	1115.73
571.01	1125.33
571.36	1126.03
571.71	1130.01
572.06	1130.01
572.42	1120.65
572.77	1099.12
573.12	1101.22
573.47	1107.07
573.82	1105.44
574.18	1109.18
574.53	1120.18
574.88	1119.71
575.23	1117.37
575.58	1104.97
575.93	1100.75
576.28	1110.58
576.64	1111.29
576.99	1115.97
577.34	1130.24
577.69	1129.54
578.04	1132.12
578.39	1120.88
578.74	1108.71
579.09	1104.73
579.44	1108.95
579.80	1099.82
580.15	1108.24
580.50	1118.07
580.85	1125.10
581.20	1129.78
581.55	1132.12
581.90	1134.46
582.25	1129.31
582.60	1126.73
582.95	1120.41
583.30	1118.78
583.65	1110.35
584.00	1109.88
584.35	1104.97
584.71	1106.37
585.06	1100.99
585.41	1103.56
585.76	1102.86
586.11	1099.12
586.46	1092.09
586.81	1096.07
587.16	1101.46
587.51	1105.90
587.86	1100.29
588.21	1102.39
588.56	1100.05
588.91	1103.56
589.26	1097.48
589.61	1099.82
589.96	1104.50
590.31	1104.50
590.66	1095.60
591.01	1098.41
591.36	1102.63
591.71	1100.29
592.06	1110.35
592.41	1112.69
592.76	1106.61
593.10	1107.07
593.45	1111.75
593.80	1105.90
594.15	1103.56
594.50	1103.80
594.85	1096.54
595.20	1087.41
595.55	1096.78
595.90	1097.95
596.25	1110.12
596.60	1108.71
596.95	1111.29
597.30	1102.63
597.64	1142.18
597.99	1143.59
598.34	1144.99
598.69	1141.48
599.04	1141.71
599.39	1104.50
599.74	1104.73
600.09	1121.58
600.44	1135.86
600.78	1140.07
601.13	1140.54
601.48	1134.22
601.83	1122.52
602.18	1108.95
602.53	1101.46
602.88	1101.22
603.22	1098.18
603.57	1103.09
603.92	1101.69
604.27	1109.41
604.62	1112.46
604.97	1120.41
605.31	1119.48
605.66	1122.52
606.01	1115.27
606.36	1102.39
606.71	1092.56
607.05	1090.92
607.40	1090.46
607.75	1100.99
608.10	1100.52
608.44	1099.35
608.79	1100.29
609.14	1105.67
609.49	1099.82
609.84	1104.03
610.18	1102.63
610.53	1109.41
610.88	1108.95
611.23	1112.22
611.57	1109.88
611.92	1105.90
612.27	1100.99
612.62	1093.97
612.96	1086.48
613.31	1096.54
613.66	1104.97
614.00	1104.50
614.35	1111.05
614.70	1116.20
615.05	1108.01
615.39	1109.41
615.74	1101.92
616.09	1094.43
616.43	1077.58
616.78	1087.18
617.13	1089.75
617.47	1100.52
617.82	1103.09
618.17	1110.82
618.51	1104.26
618.86	1097.95
619.21	1085.54
619.55	1093.73
619.90	1098.18
620.25	1107.07
620.59	1098.65
620.94	1101.92
621.29	1102.16
621.63	1108.71
621.98	1095.14
622.32	1104.26
622.67	1110.12
623.02	1109.88
623.36	1107.31
623.71	1108.01
624.05	1119.71
624.40	1120.41
624.75	1114.56
625.09	1119.24
625.44	1123.69
625.78	1113.86
626.13	1110.35
626.48	1113.16
626.82	1104.03
627.17	1100.05
627.51	1098.41
627.86	1091.39
628.20	1090.46
628.55	1088.58
628.89	1099.82
629.24	1105.67
629.58	1107.78
629.93	1106.84
630.28	1108.48
630.62	1101.22
630.97	1087.88
631.31	1087.88
631.66	1089.75
632.00	1092.80
632.35	1093.03
632.69	1095.14
633.04	1085.31
633.38	1086.71
633.73	1076.65
634.07	1081.80
634.42	1082.03
634.76	1089.29
635.11	1079.69
635.45	1077.11
635.79	1061.90
636.14	1062.60
636.48	1067.05
636.83	1063.54
637.17	1064.71
637.52	1076.18
637.86	1082.73
638.21	1078.28
638.55	1084.37
638.89	1096.07
639.24	1087.18
639.58	1089.99
639.93	1099.35
640.27	1104.03
640.61	1109.41
640.96	1109.41
641.30	1103.56
641.65	1103.09
641.99	1091.39
642.33	1082.50
642.68	1093.50
643.02	1095.37
643.37	1094.43
643.71	1108.01
644.05	1111.52
644.40	1102.63
644.74	1095.84
645.08	1098.88
645.43	1087.18
645.77	1084.60
646.11	1094.20
646.46	1098.18
646.80	1086.24
647.14	1096.78
647.49	1102.39
647.83	1094.43
648.17	1099.12
648.52	1102.63
648.86	1087.41
649.20	1086.94
649.55	1085.07
649.89	1084.60
650.23	1086.01
650.57	1094.67
650.92	1088.12
651.26	1090.22
651.60	1085.31
651.95	1092.33
652.29	1098.41
652.63	1097.24
652.97	1096.78
653.32	1104.73
653.66	1098.65
654.00	1095.14
654.34	1091.39
654.69	1093.97
655.03	1087.65
655.37	1093.50
655.71	1093.73
656.05	1088.82
656.40	1086.01
656.74	1091.86
657.08	1085.54
657.42	1080.16
657.76	1085.31
658.11	1079.22
658.45	1063.77
658.79	1070.09
659.13	1078.28
659.47	1073.14
659.82	1082.03
660.16	1092.09
660.50	1085.31
660.84	1080.86
661.18	1092.80
661.52	1097.01
661.87	1100.05
662.21	1099.82
662.55	1098.18
662.89	1094.43
663.23	1093.26
663.57	1083.20
663.91	1081.80
664.25	1084.60
664.60	1088.35
664.94	1086.01
665.28	1094.43
665.62	1095.37
665.96	1104.97
666.30	1101.69
666.64	1091.86
666.98	1092.56
667.32	1096.07
667.66	1084.14
668.01	1081.56
668.35	1088.58
668.69	1092.09
669.03	1087.18
669.37	1085.07
669.71	1091.63
670.05	1094.43
670.39	1082.03
670.73	1078.75
671.07	1082.73
671.41	1077.11
671.75	1067.99
672.09	1076.88
672.43	1078.75
672.77	1086.01
673.11	1091.86
673.45	1102.86
673.79	1098.18
674.13	1101.22
674.47	1089.52
674.81	1082.26
675.15	1079.69
675.49	1070.80
675.83	1075.24
676.17	1079.69
676.51	1078.28
676.85	1069.16
677.19	1078.75
677.53	1073.60
677.87	1071.26
678.21	1072.43
678.55	1083.90
678.89	1082.73
679.23	1084.37
679.57	1087.65
679.90	1098.65
680.24	1091.86
680.58	1096.07
680.92	1097.71
681.26	1097.95
681.60	1094.20
681.94	1101.46
682.28	1100.75
682.62	1099.35
682.96	1102.16
683.29	1102.86
683.63	1094.43
683.97	1094.43
684.31	1089.99
684.65	1086.94
684.99	1081.33
685.33	1080.39
685.67	1086.48
686.00	1086.24
686.34	1082.73
686.68	1078.75
687.02	1082.26
687.36	1070.09
687.70	1077.82
688.03	1079.46
688.37	1083.43
688.71	1077.35
689.05	1089.29
689.39	1085.31
689.72	1078.52
690.06	1074.07
690.40	1078.75
690.74	1065.65
691.08	1059.09
691.41	1060.73
691.75	1058.86
692.09	1058.39
692.43	1070.56
692.76	1074.77
693.10	1084.14
693.44	1084.84
693.78	1083.67
694.11	1083.67
694.45	1083.67
694.79	1075.71
695.13	1083.43
695.46	1088.58
695.80	1081.09
696.14	1090.46
696.48	1100.05
696.81	1101.22
697.15	1088.82
697.49	1086.24
697.82	1081.80
698.16	1083.43
698.50	1085.77
698.83	1092.09
699.17	1100.99
699.51	1106.84
699.84	1091.63
700.18	1090.92
700.52	1098.18
700.85	1087.65
701.19	1081.33
701.53	1092.80
701.86	1084.37
702.20	1075.71
702.54	1084.37
702.87	1085.07
703.21	1082.73
703.55	1087.65
703.88	1094.90
704.22	1094.20
704.55	1092.09
704.89	1089.99
705.23	1089.99
705.56	1087.18
705.90	1084.60
706.23	1084.60
706.57	1078.75
706.91	1073.60
707.24	1075.94
707.58	1074.54
707.91	1070.56
708.25	1087.18
708.58	1092.33
708.92	1092.09
709.26	1097.95
709.59	1100.52
709.93	1087.65
710.26	1081.80
710.60	1076.18
710.93	1061.90
711.27	1059.56
711.60	1068.92
711.94	1076.18
712.27	1089.99
712.61	1108.01
712.94	1109.18
713.28	1113.16
713.61	1116.67
713.95	1107.07
714.28	1093.50
714.62	1091.39
714.95	1093.26
715.29	1090.92
715.62	1095.37
715.96	1099.12
716.29	1100.05
716.63	1081.80
716.96	1073.14
717.29	1078.52
717.63	1084.37
717.96	1087.18
718.30	1097.48
718.63	1105.44
718.97	1096.31
719.30	1091.16
719.63	1088.35
719.97	1078.28
720.30	1073.84
720.64	1067.99
720.97	1082.26
721.30	1083.43
721.64	1089.52
721.97	1087.18
722.31	1096.07
722.64	1081.09
722.97	1094.67
723.31	1101.22
723.64	1110.58
723.97	1113.86
724.31	1113.63
724.64	1097.24
724.98	1085.31
725.31	1080.86
725.64	1076.18
725.98	1078.99
726.31	1084.14
726.64	1089.99
726.97	1086.24
727.31	1082.73
727.64	1087.65
727.97	1089.29
728.31	1079.22
728.64	1077.82
728.97	1084.14
729.31	1075.94
729.64	1074.07
729.97	1072.90
730.30	1078.28
730.64	1075.24
730.97	1090.46
731.30	1094.20
731.63	1102.63
731.97	1102.86
732.30	1104.73
732.63	1088.58
732.96	1079.92
733.30	1089.05
733.63	1094.20
733.96	1090.46
734.29	1097.71
734.63	1109.41
734.96	1105.20
735.29	1102.86
735.62	1110.82
735.95	1106.37
736.29	1094.67
736.62	1082.97
736.95	1077.58
737.28	1071.03
737.61	1073.60
737.94	1071.97
738.28	1077.11
738.61	1079.22
738.94	1073.14
739.27	1067.75
739.60	1084.14
739.93	1095.84
740.27	1100.75
740.60	1104.26
740.93	1106.37
741.26	1095.14
741.59	1082.03
741.92	1078.52
742.25	1092.56
742.58	1101.22
742.91	1104.26
743.25	1108.24
743.58	1114.80
743.91	1107.07
744.24	1094.43
744.57	1093.97
744.90	1104.50
745.23	1097.48
745.56	1097.71
745.89	1099.82
746.22	1099.12
746.55	1080.16
746.88	1067.99
747.21	1056.52
747.54	1064.24
747.87	1059.56
748.20	1064.48
748.53	1074.54
748.87	1078.52
749.20	1079.92
749.53	1089.99
749.86	1083.67
750.19	1083.43
750.52	1086.01
750.85	1081.33
751.18	1077.82
751.51	1091.39
751.84	1093.97
752.16	1083.20
752.49	1081.56
752.82	1073.37
753.15	1065.88
753.48	1063.77
753.81	1073.60
754.14	1067.75
754.47	1071.97
754.80	1073.84
755.13	1067.75
755.46	1062.14
755.79	1064.01
756.12	1071.73
756.45	1067.52
756.78	1076.65
757.11	1079.69
757.43	1079.22
757.76	1082.03
758.09	1091.63
758.42	1078.52
758.75	1087.88
759.08	1090.92
759.41	1084.60
759.74	1079.92
760.07	1088.82
760.39	1080.63
760.72	1075.01
761.05	1083.20
761.38	1091.16
761.71	1095.60
762.04	1094.67
762.36	1102.63
762.69	1096.07
763.02	1094.67
763.35	1094.20
763.68	1095.37
764.01	1091.63
