SpectraSuite Data File
++++++++++++++++++++++++++++++++++++
Date: Mon Aug 26 10:24:45 PDT 2019
User: corrico
Dark Spectrum Present: No
Reference Spectrum Present: No
Number of Sampled Component Spectra: 1
Spectrometers: USB2+H06089
Integration Time (usec): 10000 (USB2+H06089)
Spectra Averaged: 2 (USB2+H06089)
Boxcar Smoothing: 2 (USB2+H06089)
Correct for Electrical Dark: No (USB2+H06089)
Strobe/Lamp Enabled: No (USB2+H06089)
Correct for Detector Non-linearity: No (USB2+H06089)
Correct for Stray Light: No (USB2+H06089)
Number of Pixels in Processed Spectrum: 2048
>>>>>Begin Processed Spectral Data<<<<<
339.70	1015.79
340.07	1015.79
340.45	991.68
340.82	977.17
341.19	958.92
341.57	929.89
341.94	922.17
342.31	907.66
342.69	890.57
343.06	887.30
343.43	893.15
343.81	883.32
344.18	877.93
344.55	887.06
344.93	888.94
345.30	899.70
345.67	913.04
346.04	929.43
346.42	940.90
346.79	944.17
347.16	947.45
347.54	965.24
347.91	979.75
348.28	995.66
348.65	1019.07
349.03	1031.01
349.40	1043.18
349.77	1050.43
350.14	1058.62
350.52	1061.67
350.89	1066.82
351.26	1064.48
351.63	1066.35
352.01	1070.56
352.38	1075.94
352.75	1078.05
353.12	1080.39
353.50	1084.84
353.87	1077.82
354.24	1074.77
354.61	1087.18
354.98	1084.60
355.36	1088.12
355.73	1089.99
356.10	1097.95
356.47	1095.60
356.84	1091.16
357.22	1091.63
357.59	1110.82
357.96	1115.27
358.33	1105.20
358.70	1112.46
359.08	1108.95
359.45	1094.90
359.82	1086.48
360.19	1091.16
360.56	1094.43
360.94	1091.39
361.31	1091.63
361.68	1097.95
362.05	1100.29
362.42	1105.67
362.79	1114.33
363.16	1114.33
363.54	1103.09
363.91	1095.37
364.28	1094.90
364.65	1093.26
365.02	1089.29
365.39	1093.26
365.76	1097.71
366.14	1080.16
366.51	1085.54
366.88	1089.29
367.25	1086.71
367.62	1088.82
367.99	1098.18
368.36	1092.09
368.73	1089.52
369.10	1094.67
369.48	1103.80
369.85	1108.01
370.22	1103.33
370.59	1102.16
370.96	1097.95
371.33	1101.69
371.70	1097.71
372.07	1106.84
372.44	1119.01
372.81	1120.65
373.18	1115.73
373.55	1119.71
373.93	1120.88
374.30	1104.03
374.67	1101.92
375.04	1096.54
375.41	1096.07
375.78	1098.18
376.15	1111.29
376.52	1118.78
376.89	1112.92
377.26	1118.31
377.63	1120.41
378.00	1110.58
378.37	1116.90
378.74	1116.67
379.11	1106.84
379.48	1092.80
379.85	1100.05
380.22	1096.07
380.59	1097.95
380.96	1110.12
381.33	1122.99
381.70	1126.73
382.07	1117.84
382.44	1122.75
382.81	1115.27
383.18	1107.07
383.55	1101.92
383.92	1094.43
384.29	1090.69
384.66	1091.39
385.03	1093.50
385.40	1090.69
385.77	1100.05
386.14	1101.92
386.51	1102.63
386.88	1102.63
387.25	1102.63
387.62	1111.05
387.99	1117.14
388.36	1115.73
388.73	1114.80
389.10	1114.33
389.46	1107.07
389.83	1106.37
390.20	1109.41
390.57	1116.90
390.94	1123.46
391.31	1122.99
391.68	1124.16
392.05	1125.10
392.42	1120.18
392.79	1121.12
393.16	1127.67
393.53	1133.05
393.89	1137.03
394.26	1133.99
394.63	1132.35
395.00	1138.20
395.37	1133.29
395.74	1124.16
396.11	1135.86
396.48	1150.14
396.84	1143.59
397.21	1141.71
397.58	1155.29
397.95	1150.61
398.32	1138.44
398.69	1151.54
399.06	1155.52
399.42	1164.18
399.79	1164.18
400.16	1178.93
400.53	1177.06
400.90	1191.80
401.27	1186.18
401.64	1204.67
402.00	1210.29
402.37	1225.97
402.74	1233.46
403.11	1245.87
403.48	1254.29
403.84	1267.17
404.21	1278.63
404.58	1296.66
404.95	1309.76
405.32	1319.36
405.68	1330.59
406.05	1344.17
406.42	1358.92
406.79	1382.55
407.16	1410.87
407.52	1437.79
407.89	1459.79
408.26	1493.26
408.63	1540.31
408.99	1576.35
409.36	1629.72
409.73	1669.27
410.10	1706.95
410.47	1740.89
410.83	1800.11
411.20	1843.64
411.57	1911.98
411.94	1990.16
412.30	2069.03
412.67	2155.17
413.04	2249.49
413.40	2351.54
413.77	2445.39
414.14	2553.99
414.51	2638.72
414.87	2764.41
415.24	2886.11
415.61	3031.70
415.97	3175.17
416.34	3379.27
416.71	3560.19
417.08	3755.62
417.44	3931.63
417.81	4143.68
418.18	4327.88
418.54	4563.11
418.91	4810.27
419.28	5071.00
419.64	5333.14
420.01	5667.84
420.38	5968.60
420.74	6281.30
421.11	6688.31
421.48	7086.91
421.84	7473.80
422.21	7885.97
422.58	8349.63
422.94	8781.22
423.31	9265.95
423.68	9803.80
424.04	10384.49
424.41	11001.69
424.77	11587.76
425.14	12210.34
425.51	12782.13
425.87	13480.32
426.24	14156.73
426.61	15017.58
426.97	15980.01
427.34	16889.31
427.70	17925.46
428.07	18856.76
428.44	19771.68
428.80	20678.63
429.17	21762.07
429.53	22743.69
429.90	23964.98
430.27	25078.14
430.63	26197.85
431.00	27472.27
431.36	28748.33
431.73	29899.64
432.09	31170.79
432.46	32452.46
432.83	33614.54
433.19	34807.74
433.56	36145.13
433.92	37559.98
434.29	38886.60
434.65	40254.64
435.02	41372.48
435.38	42552.81
435.75	43328.70
436.11	44475.33
436.48	45457.42
436.84	46406.04
437.21	47189.65
437.57	48142.71
437.94	48762.49
438.30	49417.60
438.67	50014.21
439.03	50406.48
439.40	50699.05
439.76	50637.02
440.13	50367.16
440.49	50217.60
440.86	49827.66
441.22	49369.62
441.59	48955.58
441.95	48422.64
442.32	47524.11
442.68	46759.92
443.05	45856.71
443.41	44888.67
443.78	43784.64
444.14	42862.93
444.51	41680.73
444.87	40815.67
445.24	39634.16
445.60	38621.65
445.96	37465.42
446.33	36684.85
446.69	35532.84
447.06	34739.64
447.42	33742.33
447.79	32673.88
448.15	31677.51
448.51	30711.81
448.88	29853.06
449.24	28984.02
449.61	28446.64
449.97	27651.56
450.33	26974.91
450.70	26129.27
451.06	25572.23
451.43	24862.11
451.79	24392.83
452.15	23840.93
452.52	23333.50
452.88	22785.12
453.24	22248.20
453.61	21610.17
453.97	21065.29
454.34	20389.11
454.70	19752.01
455.06	19095.26
455.43	18466.36
455.79	17706.15
456.15	17183.75
456.52	16600.72
456.88	16139.63
457.24	15551.46
457.61	15143.97
457.97	14669.07
458.33	14154.39
458.70	13578.15
459.06	13088.28
459.42	12670.26
459.79	12191.85
460.15	11815.26
460.51	11435.86
460.88	11060.20
461.24	10623.22
461.60	10312.40
461.96	9948.92
462.33	9622.64
462.69	9341.78
463.05	9045.00
463.42	8784.03
463.78	8525.64
464.14	8264.20
464.50	8051.21
464.87	7828.86
465.23	7551.04
465.59	7339.22
465.95	7151.51
466.32	6937.58
466.68	6755.02
467.04	6572.69
467.40	6440.69
467.77	6303.30
468.13	6128.69
468.49	5993.88
468.85	5885.51
469.22	5762.16
469.58	5626.18
469.94	5516.64
470.30	5382.53
470.66	5268.08
471.03	5122.96
471.39	5023.02
471.75	4925.42
472.11	4824.31
472.47	4727.65
472.84	4640.58
473.20	4513.02
473.56	4406.53
473.92	4310.56
474.28	4224.90
474.65	4131.05
475.01	4057.08
475.37	3951.76
475.73	3876.86
476.09	3786.28
476.45	3711.15
476.81	3637.43
477.18	3577.04
477.54	3501.21
477.90	3428.65
478.26	3354.22
478.62	3301.33
478.98	3279.09
479.34	3246.56
479.71	3198.11
480.07	3155.74
480.43	3111.74
480.79	3041.53
481.15	2977.86
481.51	2935.50
481.87	2901.09
482.23	2842.35
482.59	2782.19
482.96	2731.64
483.32	2697.23
483.68	2642.93
484.04	2608.76
484.40	2590.50
484.76	2556.80
485.12	2507.42
485.48	2465.52
485.84	2440.94
486.20	2397.18
486.56	2374.47
486.92	2347.32
487.28	2324.62
487.64	2271.72
488.00	2247.38
488.37	2210.17
488.73	2188.40
489.09	2166.87
489.45	2154.23
489.81	2125.21
490.17	2103.91
490.53	2078.63
490.89	2042.35
491.25	2020.12
491.61	1991.33
491.97	1962.77
492.33	1928.37
492.69	1912.69
493.05	1876.17
493.41	1852.07
493.77	1827.72
494.13	1799.87
494.49	1784.89
494.85	1778.10
495.21	1756.34
495.57	1728.72
495.93	1720.53
496.29	1687.53
496.64	1665.06
497.00	1634.40
497.36	1618.48
497.72	1588.52
498.08	1573.78
498.44	1565.58
498.80	1572.37
499.16	1566.05
499.52	1565.82
499.88	1552.48
500.24	1536.33
500.60	1523.22
500.96	1513.39
501.32	1489.28
501.68	1478.28
502.03	1460.73
502.39	1450.90
502.75	1446.92
503.11	1439.43
503.47	1441.54
503.83	1435.68
504.19	1419.77
504.55	1406.19
504.91	1409.24
505.26	1403.15
505.62	1391.68
505.98	1377.41
506.34	1363.83
506.70	1347.91
507.06	1327.79
507.42	1327.32
507.78	1321.00
508.13	1321.47
508.49	1313.98
508.85	1305.08
509.21	1297.12
509.57	1306.72
509.93	1296.66
510.28	1284.25
510.64	1280.98
511.00	1280.27
511.36	1266.70
511.72	1267.87
512.07	1274.66
512.43	1272.55
512.79	1274.19
513.15	1272.78
513.51	1259.44
513.86	1264.59
514.22	1253.59
514.58	1244.23
514.94	1241.65
515.30	1244.70
515.65	1237.21
516.01	1243.99
516.37	1238.14
516.73	1232.53
517.08	1220.36
517.44	1209.82
517.80	1207.48
518.16	1199.99
518.51	1195.31
518.87	1209.35
519.23	1203.04
519.59	1192.97
519.94	1185.25
520.30	1173.08
520.66	1156.46
521.01	1155.76
521.37	1156.69
521.73	1157.86
522.09	1172.84
522.44	1180.33
522.80	1186.65
523.16	1189.46
523.51	1190.86
523.87	1187.82
524.23	1181.50
524.58	1184.08
524.94	1179.63
525.30	1181.27
525.65	1178.46
526.01	1173.78
526.37	1162.78
526.72	1175.42
527.08	1170.97
527.44	1169.10
527.79	1172.61
528.15	1175.65
528.51	1165.35
528.86	1166.52
529.22	1164.42
529.58	1148.73
529.93	1150.37
530.29	1147.10
530.65	1137.50
531.00	1131.18
531.36	1140.54
531.71	1131.88
532.07	1124.16
532.43	1136.10
532.78	1140.78
533.14	1140.07
533.49	1143.12
533.85	1144.52
534.21	1131.65
534.56	1125.80
534.92	1139.37
535.27	1141.48
535.63	1148.73
535.98	1153.42
536.34	1154.59
536.69	1153.42
537.05	1155.76
537.41	1158.57
537.76	1157.63
538.12	1160.91
538.47	1151.78
538.83	1142.65
539.18	1134.46
539.54	1139.37
539.89	1144.05
540.25	1135.16
540.60	1135.16
540.96	1135.16
541.31	1127.20
541.67	1118.07
542.02	1120.18
542.38	1137.73
542.73	1145.93
543.09	1139.37
543.44	1141.25
543.80	1138.67
544.15	1117.84
544.51	1109.65
544.86	1121.35
545.22	1131.41
545.57	1137.50
545.93	1133.76
546.28	1128.84
546.64	1130.24
546.99	1131.41
547.35	1132.59
547.70	1144.05
548.05	1148.03
548.41	1146.16
548.76	1134.93
549.12	1129.31
549.47	1126.97
549.83	1120.18
550.18	1115.97
550.53	1120.18
550.89	1123.22
551.24	1128.14
551.60	1136.33
551.95	1144.29
552.30	1140.07
552.66	1144.05
553.01	1132.59
553.37	1129.78
553.72	1120.65
554.07	1126.27
554.43	1121.12
554.78	1127.90
555.13	1133.29
555.49	1131.18
555.84	1121.12
556.19	1121.82
556.55	1119.71
556.90	1109.41
557.26	1118.78
557.61	1118.31
557.96	1116.44
558.32	1119.01
558.67	1119.95
559.02	1112.46
559.37	1110.35
559.73	1116.20
560.08	1112.92
560.43	1108.48
560.79	1112.22
561.14	1112.69
561.49	1105.67
561.85	1109.18
562.20	1112.69
562.55	1111.52
562.90	1104.97
563.26	1112.92
563.61	1102.39
563.96	1097.95
564.32	1090.69
564.67	1107.31
565.02	1100.75
565.37	1099.35
565.73	1108.95
566.08	1111.52
566.43	1105.20
566.78	1101.92
567.14	1110.82
567.49	1113.86
567.84	1116.90
568.19	1111.52
568.54	1115.50
568.90	1113.39
569.25	1102.63
569.60	1113.39
569.95	1130.95
570.31	1123.93
570.66	1123.93
571.01	1118.31
571.36	1103.56
571.71	1096.07
572.06	1108.01
572.42	1108.01
572.77	1119.24
573.12	1123.46
573.47	1128.37
573.82	1117.37
574.18	1116.67
574.53	1114.33
574.88	1119.01
575.23	1104.50
575.58	1108.48
575.93	1103.80
576.28	1109.18
576.64	1108.95
576.99	1107.78
577.34	1104.73
577.69	1111.05
578.04	1098.41
578.39	1094.20
578.74	1106.14
579.09	1108.95
579.44	1107.07
579.80	1111.05
580.15	1102.63
580.50	1094.90
580.85	1100.05
581.20	1092.80
581.55	1083.20
581.90	1086.94
582.25	1082.97
582.60	1075.71
582.95	1083.43
583.30	1104.03
583.65	1104.73
584.00	1102.16
584.35	1095.60
584.71	1102.39
585.06	1098.18
585.41	1102.16
585.76	1112.46
586.11	1121.58
586.46	1118.07
586.81	1113.39
587.16	1124.63
587.51	1120.65
587.86	1111.75
588.21	1108.01
588.56	1112.69
588.91	1104.26
589.26	1104.50
589.61	1105.44
589.96	1106.14
590.31	1106.61
590.66	1106.14
591.01	1097.48
591.36	1106.14
591.71	1112.69
592.06	1109.65
592.41	1108.48
592.76	1118.07
593.10	1125.33
593.45	1118.78
593.80	1113.86
594.15	1105.67
594.50	1101.92
594.85	1094.20
595.20	1102.63
595.55	1103.56
595.90	1103.80
596.25	1110.58
596.60	1117.14
596.95	1099.58
597.30	1098.65
597.64	1138.90
597.99	1142.18
598.34	1134.69
598.69	1146.63
599.04	1152.01
599.39	1111.52
599.74	1109.18
600.09	1101.22
600.44	1094.90
600.78	1091.16
601.13	1107.54
601.48	1104.97
601.83	1108.95
602.18	1110.58
602.53	1110.58
602.88	1100.29
603.22	1093.97
603.57	1091.39
603.92	1094.90
604.27	1096.31
604.62	1093.26
604.97	1103.80
605.31	1111.75
605.66	1111.75
606.01	1117.14
606.36	1119.71
606.71	1112.69
607.05	1107.31
607.40	1095.37
607.75	1093.73
608.10	1097.71
608.44	1087.41
608.79	1083.20
609.14	1094.90
609.49	1095.14
609.84	1086.94
610.18	1104.97
610.53	1120.65
610.88	1119.01
611.23	1113.39
611.57	1123.22
611.92	1127.44
612.27	1121.58
612.62	1119.71
612.96	1124.16
613.31	1117.84
613.66	1115.03
614.00	1117.84
614.35	1119.01
614.70	1115.73
615.05	1113.86
615.39	1102.39
615.74	1091.39
616.09	1090.46
616.43	1088.82
616.78	1089.75
617.13	1089.05
617.47	1093.97
617.82	1096.78
618.17	1100.52
618.51	1091.63
618.86	1098.18
619.21	1097.71
619.55	1101.92
619.90	1104.26
620.25	1114.10
620.59	1118.07
620.94	1121.12
621.29	1114.33
621.63	1116.44
621.98	1123.46
622.32	1118.78
622.67	1105.67
623.02	1093.26
623.36	1090.69
623.71	1075.71
624.05	1064.01
624.40	1075.48
624.75	1072.43
625.09	1060.50
625.44	1067.52
625.78	1069.39
626.13	1068.45
626.48	1086.48
626.82	1100.05
627.17	1104.73
627.51	1113.39
627.86	1111.52
628.20	1109.18
628.55	1106.61
628.89	1096.07
629.24	1092.09
629.58	1091.16
629.93	1077.35
630.28	1085.31
630.62	1090.92
630.97	1090.46
631.31	1090.92
631.66	1098.18
632.00	1085.77
632.35	1092.33
632.69	1107.54
633.04	1113.16
633.38	1111.29
633.73	1115.27
634.07	1114.33
634.42	1094.90
634.76	1090.69
635.11	1089.99
635.45	1098.88
635.79	1096.07
636.14	1091.63
636.48	1092.56
636.83	1106.37
637.17	1098.88
637.52	1103.56
637.86	1115.73
638.21	1112.22
638.55	1099.12
638.89	1093.97
639.24	1083.90
639.58	1080.39
639.93	1086.94
640.27	1094.43
640.61	1098.65
640.96	1102.86
641.30	1109.18
641.65	1099.58
641.99	1099.35
642.33	1093.26
642.68	1081.56
643.02	1073.37
643.37	1080.39
643.71	1078.75
644.05	1089.99
644.40	1103.09
644.74	1105.67
645.08	1107.78
645.43	1098.18
645.77	1095.60
646.11	1090.46
646.46	1091.16
646.80	1074.31
647.14	1080.63
647.49	1071.97
647.83	1071.50
648.17	1072.90
648.52	1088.12
648.86	1098.88
649.20	1109.18
649.55	1109.88
649.89	1112.69
650.23	1108.48
650.57	1103.56
650.92	1095.37
651.26	1092.33
651.60	1085.31
651.95	1093.26
652.29	1092.33
652.63	1094.20
652.97	1093.73
653.32	1082.26
653.66	1063.54
654.00	1058.39
654.34	1048.09
654.69	1052.07
655.03	1061.43
655.37	1083.20
655.71	1089.29
656.05	1099.58
656.40	1097.24
656.74	1111.99
657.08	1110.58
657.42	1107.31
657.76	1106.14
658.11	1101.46
658.45	1093.50
658.79	1089.75
659.13	1086.01
659.47	1083.20
659.82	1091.16
660.16	1086.94
660.50	1077.11
660.84	1089.29
661.18	1088.35
661.52	1082.73
661.87	1088.35
662.21	1092.33
662.55	1085.54
662.89	1093.03
663.23	1104.03
663.57	1099.58
663.91	1100.52
664.25	1101.69
664.60	1092.56
664.94	1085.31
665.28	1089.75
665.62	1089.29
665.96	1085.54
666.30	1085.07
666.64	1089.05
666.98	1092.56
667.32	1088.58
667.66	1094.43
668.01	1099.12
668.35	1100.99
668.69	1099.58
669.03	1103.09
669.37	1101.22
669.71	1102.63
670.05	1099.58
670.39	1088.82
670.73	1100.99
671.07	1092.33
671.41	1089.99
671.75	1086.24
672.09	1092.80
672.43	1083.90
672.77	1093.26
673.11	1098.65
673.45	1103.80
673.79	1098.18
674.13	1089.52
674.47	1097.48
674.81	1085.77
675.15	1086.71
675.49	1094.90
675.83	1103.80
676.17	1089.29
676.51	1095.60
676.85	1094.20
677.19	1091.16
677.53	1086.48
677.87	1089.99
678.21	1091.63
678.55	1097.95
678.89	1097.01
679.23	1099.35
679.57	1110.35
679.90	1108.71
680.24	1097.24
680.58	1101.92
680.92	1107.54
681.26	1090.92
681.60	1084.60
681.94	1082.73
682.28	1078.28
682.62	1080.63
682.96	1084.14
683.29	1090.92
683.63	1089.75
683.97	1093.73
684.31	1082.73
684.65	1091.63
684.99	1089.99
685.33	1097.95
685.67	1098.18
686.00	1113.39
686.34	1111.52
686.68	1112.46
687.02	1115.03
687.36	1114.09
687.70	1097.95
688.03	1094.43
688.37	1091.39
688.71	1084.14
689.05	1083.67
689.39	1080.86
689.72	1084.60
690.06	1089.99
690.40	1088.82
690.74	1087.65
691.08	1098.88
691.41	1084.14
691.75	1083.43
692.09	1092.09
692.43	1088.35
692.76	1090.69
693.10	1102.86
693.44	1097.01
693.78	1086.71
694.11	1087.65
694.45	1090.69
694.79	1087.41
695.13	1092.80
695.46	1096.07
695.80	1099.35
696.14	1087.41
696.48	1083.90
696.81	1086.94
697.15	1092.56
697.49	1081.56
697.82	1086.94
698.16	1083.67
698.50	1081.33
698.83	1076.18
699.17	1084.37
699.51	1080.39
699.84	1098.88
700.18	1099.58
700.52	1111.75
700.85	1111.52
701.19	1118.07
701.53	1102.63
701.86	1104.73
702.20	1088.58
702.54	1089.29
702.87	1082.50
703.21	1084.14
703.55	1074.07
703.88	1073.84
704.22	1069.39
704.55	1070.56
704.89	1082.97
705.23	1092.33
705.56	1096.54
705.90	1106.84
706.23	1105.67
706.57	1100.52
706.91	1101.22
707.24	1104.50
707.58	1097.24
707.91	1100.99
708.25	1091.39
708.58	1090.46
708.92	1089.05
709.26	1101.46
709.59	1106.37
709.93	1116.20
710.26	1115.73
710.60	1124.86
710.93	1116.20
711.27	1108.48
711.60	1101.22
711.94	1089.75
712.27	1084.84
712.61	1083.20
712.94	1082.03
713.28	1089.75
713.61	1101.92
713.95	1093.26
714.28	1089.52
714.62	1081.56
714.95	1077.58
715.29	1069.39
715.62	1070.56
715.96	1073.60
716.29	1083.67
716.63	1079.69
716.96	1087.18
717.29	1079.46
717.63	1083.90
717.96	1084.14
718.30	1079.92
718.63	1075.01
718.97	1076.18
719.30	1077.11
719.63	1078.05
719.97	1093.50
720.30	1099.82
720.64	1117.37
720.97	1110.58
721.30	1108.71
721.64	1105.67
721.97	1101.46
722.31	1088.58
722.64	1085.54
722.97	1086.71
723.31	1078.99
723.64	1081.56
723.97	1095.60
724.31	1100.75
724.64	1089.29
724.98	1087.18
725.31	1092.09
725.64	1087.88
725.98	1088.58
726.31	1093.73
726.64	1097.71
726.97	1086.24
727.31	1079.46
727.64	1071.26
727.97	1077.35
728.31	1077.82
728.64	1086.94
728.97	1093.50
729.31	1104.50
729.64	1103.33
729.97	1099.35
730.30	1091.16
730.64	1083.20
730.97	1080.86
731.30	1067.75
731.63	1066.35
731.97	1073.60
732.30	1083.90
732.63	1089.29
732.96	1103.09
733.30	1109.65
733.63	1105.44
733.96	1099.35
734.29	1090.46
734.63	1079.22
734.96	1074.07
735.29	1072.43
735.62	1067.75
735.95	1070.56
736.29	1071.26
736.62	1069.62
736.95	1068.92
737.28	1062.60
737.61	1058.62
737.94	1064.71
738.28	1067.99
738.61	1065.41
738.94	1072.20
739.27	1077.82
739.60	1074.77
739.93	1077.82
740.27	1078.05
740.60	1077.82
740.93	1068.92
741.26	1075.48
741.59	1070.56
741.92	1071.73
742.25	1072.90
742.58	1083.43
742.91	1089.52
743.25	1092.56
743.58	1089.05
743.91	1085.07
744.24	1080.86
744.57	1075.24
744.90	1078.28
745.23	1089.52
745.56	1092.09
745.89	1091.16
746.22	1095.60
746.55	1091.16
746.88	1078.52
747.21	1071.03
747.54	1068.69
747.87	1064.94
748.20	1061.90
748.53	1067.52
748.87	1070.56
749.20	1063.77
749.53	1059.79
749.86	1056.05
750.19	1066.35
750.52	1078.28
750.85	1087.65
751.18	1092.56
751.51	1098.41
751.84	1094.67
752.16	1093.73
752.49	1083.67
752.82	1074.54
753.15	1086.94
753.48	1083.90
753.81	1077.35
754.14	1084.84
754.47	1082.73
754.80	1075.48
755.13	1077.11
755.46	1082.73
755.79	1082.26
756.12	1082.50
756.45	1077.82
756.78	1064.48
757.11	1053.01
757.43	1053.71
757.76	1061.67
758.09	1058.16
758.42	1059.56
758.75	1069.86
759.08	1074.31
759.41	1071.03
759.74	1071.03
760.07	1081.56
760.39	1070.33
760.72	1067.52
761.05	1070.80
761.38	1074.07
761.71	1076.18
762.04	1086.24
762.36	1086.94
762.69	1084.60
763.02	1080.39
763.35	1071.97
763.68	1069.62
764.01	1069.86
