SpectraSuite Data File
++++++++++++++++++++++++++++++++++++
Date: Mon Aug 26 10:24:48 PDT 2019
User: corrico
Dark Spectrum Present: No
Reference Spectrum Present: No
Number of Sampled Component Spectra: 1
Spectrometers: USB2+H06089
Integration Time (usec): 10000 (USB2+H06089)
Spectra Averaged: 2 (USB2+H06089)
Boxcar Smoothing: 2 (USB2+H06089)
Correct for Electrical Dark: No (USB2+H06089)
Strobe/Lamp Enabled: No (USB2+H06089)
Correct for Detector Non-linearity: No (USB2+H06089)
Correct for Stray Light: No (USB2+H06089)
Number of Pixels in Processed Spectrum: 2048
>>>>>Begin Processed Spectral Data<<<<<
339.70	1026.32
340.07	1026.32
340.45	999.17
340.82	980.22
341.19	957.75
341.57	926.38
341.94	918.66
342.31	896.66
342.69	887.06
343.06	886.13
343.43	887.53
343.81	887.77
344.18	902.04
344.55	912.81
344.93	909.06
345.30	923.81
345.67	928.26
346.04	935.75
346.42	943.70
346.79	960.79
347.16	968.05
347.54	976.24
347.91	978.81
348.28	987.71
348.65	1006.20
349.03	1024.22
349.40	1031.94
349.77	1037.33
350.14	1047.39
350.52	1037.09
350.89	1027.50
351.26	1034.98
351.63	1062.60
352.01	1067.28
352.38	1071.73
352.75	1086.24
353.12	1094.90
353.50	1078.52
353.87	1070.09
354.24	1082.97
354.61	1077.58
354.98	1070.80
355.36	1086.24
355.73	1090.46
356.10	1086.01
356.47	1092.80
356.84	1101.46
357.22	1100.99
357.59	1105.67
357.96	1104.97
358.33	1093.50
358.70	1085.31
359.08	1072.43
359.45	1075.71
359.82	1080.39
360.19	1090.69
360.56	1095.14
360.94	1100.75
361.31	1100.99
361.68	1108.24
362.05	1109.65
362.42	1100.99
362.79	1094.90
363.16	1089.75
363.54	1082.97
363.91	1078.05
364.28	1091.63
364.65	1092.09
365.02	1092.80
365.39	1088.12
365.76	1093.03
366.14	1082.50
366.51	1085.31
366.88	1075.94
367.25	1081.56
367.62	1076.88
367.99	1083.67
368.36	1081.80
368.73	1087.18
369.10	1077.11
369.48	1070.09
369.85	1067.05
370.22	1067.75
370.59	1072.43
370.96	1078.75
371.33	1083.90
371.70	1086.71
372.07	1090.92
372.44	1086.01
372.81	1084.14
373.18	1090.22
373.55	1080.16
373.93	1079.69
374.30	1072.20
374.67	1078.52
375.04	1076.88
375.41	1082.97
375.78	1080.86
376.15	1091.86
376.52	1094.90
376.89	1086.71
377.26	1088.12
377.63	1090.46
378.00	1093.50
378.37	1090.92
378.74	1106.37
379.11	1109.18
379.48	1110.82
379.85	1109.18
380.22	1106.84
380.59	1091.63
380.96	1090.69
381.33	1088.12
381.70	1082.26
382.07	1085.77
382.44	1087.65
382.81	1086.94
383.18	1085.54
383.55	1090.22
383.92	1087.65
384.29	1090.92
384.66	1089.75
385.03	1093.50
385.40	1089.75
385.77	1084.84
386.14	1088.82
386.51	1091.16
386.88	1086.48
387.25	1099.58
387.62	1101.92
387.99	1097.48
388.36	1099.12
388.73	1114.33
389.10	1104.97
389.46	1107.07
389.83	1111.29
390.20	1115.50
390.57	1110.35
390.94	1113.39
391.31	1108.01
391.68	1107.54
392.05	1106.14
392.42	1097.24
392.79	1095.60
393.16	1105.44
393.53	1111.05
393.89	1108.48
394.26	1103.80
394.63	1119.95
395.00	1126.27
395.37	1124.39
395.74	1132.82
396.11	1146.63
396.48	1137.50
396.84	1122.05
397.21	1116.44
397.58	1115.73
397.95	1119.71
398.32	1116.20
398.69	1125.56
399.06	1138.44
399.42	1150.84
399.79	1150.37
400.16	1161.14
400.53	1170.74
400.90	1165.35
401.27	1150.14
401.64	1153.18
402.00	1155.29
402.37	1158.57
402.74	1163.71
403.11	1174.01
403.48	1181.97
403.84	1189.69
404.21	1195.55
404.58	1218.72
404.95	1226.44
405.32	1236.74
405.68	1254.53
406.05	1265.06
406.42	1261.08
406.79	1273.72
407.16	1291.74
407.52	1299.00
407.89	1315.15
408.26	1337.62
408.63	1365.00
408.99	1390.51
409.36	1409.24
409.73	1437.09
410.10	1475.01
410.47	1489.28
410.83	1526.03
411.20	1559.50
411.57	1588.29
411.94	1624.57
412.30	1675.82
412.67	1709.76
413.04	1769.45
413.40	1834.51
413.77	1874.30
414.14	1928.37
414.51	1994.60
414.87	2049.61
415.24	2120.99
415.61	2210.87
415.97	2311.51
416.34	2400.45
416.71	2511.63
417.08	2609.70
417.44	2715.26
417.81	2828.07
418.18	2951.42
418.54	3088.80
418.91	3239.77
419.28	3390.97
419.64	3535.61
420.01	3701.09
420.38	3862.59
420.74	4053.34
421.11	4273.35
421.48	4495.94
421.84	4724.14
422.21	4957.72
422.58	5214.48
422.94	5460.70
423.31	5701.78
423.68	5995.05
424.04	6315.94
424.41	6613.89
424.77	6906.45
425.14	7254.02
425.51	7569.76
425.87	7957.12
426.24	8339.09
426.61	8780.52
426.97	9298.01
427.34	9779.46
427.70	10317.32
428.07	10846.51
428.44	11368.92
428.80	11874.71
429.17	12459.37
429.53	12983.65
429.90	13635.49
430.27	14200.03
430.63	14783.06
431.00	15503.01
431.36	16261.81
431.73	16830.56
432.09	17598.02
432.46	18306.50
432.83	18921.36
433.19	19441.19
433.56	20198.12
433.92	20884.83
434.29	21552.12
434.65	22298.05
435.02	22990.85
435.38	23645.96
435.75	24188.73
436.11	24860.23
436.48	25296.98
436.84	25851.92
437.21	26332.67
437.57	26826.99
437.94	27219.49
438.30	27670.75
438.67	27991.17
439.03	28138.39
439.40	28295.20
439.76	28211.88
440.13	28066.30
440.49	27981.10
440.86	27800.18
441.22	27518.85
441.59	27196.79
441.95	26916.86
442.32	26350.45
442.68	25900.13
443.05	25363.22
443.41	24873.81
443.78	24262.70
444.14	23713.84
444.51	23056.15
444.87	22603.02
445.24	22118.30
445.60	21618.83
445.96	21098.06
446.33	20657.10
446.69	20049.73
447.06	19505.32
447.42	18939.15
447.79	18391.23
448.15	17941.84
448.51	17414.52
448.88	16921.61
449.24	16434.31
449.61	16079.25
449.97	15599.20
450.33	15209.74
450.70	14789.85
451.06	14439.23
451.43	13951.00
451.79	13593.60
452.15	13262.18
452.52	12954.16
452.88	12631.64
453.24	12392.43
453.61	12110.40
453.97	11822.28
454.34	11498.35
454.70	11240.42
455.06	10978.75
455.43	10663.48
455.79	10315.21
456.15	10021.24
456.52	9672.26
456.88	9391.40
457.24	9120.13
457.61	8889.35
457.97	8647.81
458.33	8396.67
458.70	8085.61
459.06	7799.37
459.42	7557.82
459.79	7263.85
460.15	7041.97
460.51	6820.32
460.88	6595.40
461.24	6375.85
461.60	6197.74
461.96	5991.07
462.33	5818.81
462.69	5663.63
463.05	5502.37
463.42	5367.32
463.78	5244.20
464.14	5104.24
464.50	4969.66
464.87	4864.10
465.23	4729.52
465.59	4591.43
465.95	4485.40
466.32	4380.78
466.68	4278.50
467.04	4193.54
467.40	4092.66
467.77	4005.36
468.13	3929.06
468.49	3841.52
468.85	3779.03
469.22	3725.90
469.58	3662.24
469.94	3596.47
470.30	3523.68
470.66	3459.78
471.03	3399.63
471.39	3342.52
471.75	3278.62
472.11	3213.56
472.47	3163.70
472.84	3095.12
473.20	3043.16
473.56	2986.76
473.92	2915.37
474.28	2863.88
474.65	2814.73
475.01	2758.32
475.37	2702.38
475.73	2662.59
476.09	2611.10
476.45	2561.01
476.81	2534.80
477.18	2510.93
477.54	2493.61
477.90	2456.16
478.26	2431.58
478.62	2381.26
478.98	2341.71
479.34	2311.98
479.71	2289.75
480.07	2271.96
480.43	2247.62
480.79	2230.30
481.15	2184.66
481.51	2146.51
481.87	2118.89
482.23	2100.16
482.59	2061.31
482.96	2050.31
483.32	2036.50
483.68	2016.37
484.04	1986.65
484.40	1975.65
484.76	1951.54
485.12	1929.77
485.48	1904.96
485.84	1887.64
486.20	1865.41
486.56	1836.62
486.92	1818.13
487.28	1797.30
487.64	1783.49
488.00	1760.32
488.37	1738.78
488.73	1714.21
489.09	1686.59
489.45	1669.74
489.81	1663.18
490.17	1665.06
490.53	1652.89
490.89	1652.65
491.25	1627.84
491.61	1601.86
491.97	1579.86
492.33	1558.09
492.69	1551.07
493.05	1543.82
493.41	1539.14
493.77	1528.60
494.13	1528.60
494.49	1510.58
494.85	1499.35
495.21	1489.28
495.57	1474.77
495.93	1455.58
496.29	1430.30
496.64	1415.79
497.00	1395.19
497.36	1384.89
497.72	1379.98
498.08	1376.47
498.44	1364.06
498.80	1354.70
499.16	1340.89
499.52	1333.64
499.88	1328.96
500.24	1337.38
500.60	1337.38
500.96	1339.72
501.32	1344.40
501.68	1344.17
502.03	1330.13
502.39	1329.89
502.75	1329.42
503.11	1320.76
503.47	1316.55
503.83	1309.06
504.19	1293.85
504.55	1278.87
504.91	1263.19
505.26	1258.97
505.62	1248.44
505.98	1245.40
506.34	1239.08
506.70	1232.53
507.06	1216.84
507.42	1207.72
507.78	1199.06
508.13	1197.18
508.49	1199.76
508.85	1197.89
509.21	1210.76
509.57	1218.25
509.93	1221.99
510.28	1214.04
510.64	1211.93
511.00	1194.61
511.36	1168.40
511.72	1165.59
512.07	1167.23
512.43	1171.44
512.79	1178.93
513.15	1188.99
513.51	1188.29
513.86	1185.25
514.22	1170.97
514.58	1166.52
514.94	1171.67
515.30	1164.65
515.65	1168.86
516.01	1176.59
516.37	1180.80
516.73	1179.16
517.08	1183.14
517.44	1182.91
517.80	1179.63
518.16	1173.31
518.51	1167.46
518.87	1160.44
519.23	1144.76
519.59	1144.05
519.94	1135.86
520.30	1135.16
520.66	1134.22
521.01	1141.01
521.37	1139.37
521.73	1132.59
522.09	1133.29
522.44	1120.41
522.80	1116.20
523.16	1111.99
523.51	1122.05
523.87	1121.12
524.23	1125.80
524.58	1119.48
524.94	1113.63
525.30	1109.65
525.65	1105.67
526.01	1117.84
526.37	1118.31
526.72	1118.31
527.08	1118.54
527.44	1124.39
527.79	1118.07
528.15	1129.54
528.51	1134.22
528.86	1143.35
529.22	1130.71
529.58	1131.88
529.93	1119.95
530.29	1126.27
530.65	1120.41
531.00	1122.05
531.36	1123.22
531.71	1143.59
532.07	1130.71
532.43	1140.78
532.78	1146.16
533.14	1148.50
533.49	1131.88
533.85	1146.39
534.21	1133.76
534.56	1128.14
534.92	1120.65
535.27	1121.12
535.63	1117.14
535.98	1110.35
536.34	1116.44
536.69	1110.58
537.05	1109.65
537.41	1106.14
537.76	1113.63
538.12	1119.24
538.47	1124.16
538.83	1120.41
539.18	1118.78
539.54	1118.07
539.89	1102.16
540.25	1098.18
540.60	1092.33
540.96	1088.58
541.31	1085.54
541.67	1090.22
542.02	1101.22
542.38	1112.22
542.73	1118.07
543.09	1121.82
543.44	1124.39
543.80	1118.78
544.15	1112.22
544.51	1107.78
544.86	1105.90
545.22	1103.09
545.57	1102.86
545.93	1107.31
546.28	1111.05
546.64	1110.82
546.99	1112.69
547.35	1110.12
547.70	1104.97
548.05	1112.92
548.41	1114.33
548.76	1119.01
549.12	1122.29
549.47	1133.76
549.83	1120.41
550.18	1107.78
550.53	1100.75
550.89	1099.12
551.24	1086.48
551.60	1078.52
551.95	1093.50
552.30	1092.80
552.66	1093.26
553.01	1095.84
553.37	1113.63
553.72	1114.10
554.07	1111.99
554.43	1106.37
554.78	1101.46
555.13	1095.60
555.49	1094.20
555.84	1106.61
556.19	1111.75
556.55	1116.20
556.90	1114.80
557.26	1104.97
557.61	1101.92
557.96	1107.54
558.32	1099.82
558.67	1096.78
559.02	1099.12
559.37	1093.26
559.73	1085.07
560.08	1093.26
560.43	1093.03
560.79	1097.24
561.14	1094.90
561.49	1098.18
561.85	1108.71
562.20	1118.54
562.55	1125.56
562.90	1130.48
563.26	1129.54
563.61	1108.24
563.96	1101.92
564.32	1097.95
564.67	1094.67
565.02	1098.65
565.37	1104.73
565.73	1102.16
566.08	1100.99
566.43	1100.05
566.78	1093.03
567.14	1099.12
567.49	1096.31
567.84	1100.29
568.19	1095.84
568.54	1093.50
568.90	1096.78
569.25	1106.84
569.60	1103.33
569.95	1110.35
570.31	1108.48
570.66	1105.20
571.01	1102.16
571.36	1100.52
571.71	1099.12
572.06	1092.33
572.42	1093.50
572.77	1085.54
573.12	1090.92
573.47	1091.16
573.82	1105.90
574.18	1112.69
574.53	1112.69
574.88	1099.82
575.23	1105.90
575.58	1098.18
575.93	1094.90
576.28	1093.03
576.64	1103.33
576.99	1091.39
577.34	1096.31
577.69	1088.82
578.04	1095.84
578.39	1084.60
578.74	1088.58
579.09	1090.22
579.44	1093.26
579.80	1093.97
580.15	1098.41
580.50	1102.86
580.85	1106.61
581.20	1097.24
581.55	1098.41
581.90	1096.78
582.25	1094.20
582.60	1082.26
582.95	1085.07
583.30	1083.90
583.65	1084.84
584.00	1082.03
584.35	1086.24
584.71	1105.20
585.06	1101.46
585.41	1102.86
585.76	1105.90
586.11	1108.01
586.46	1091.39
586.81	1098.41
587.16	1103.33
587.51	1093.73
587.86	1087.41
588.21	1083.90
588.56	1075.24
588.91	1075.94
589.26	1084.84
589.61	1085.77
589.96	1092.56
590.31	1096.31
590.66	1093.73
591.01	1102.86
591.36	1105.90
591.71	1104.26
592.06	1111.29
592.41	1115.73
592.76	1106.14
593.10	1111.99
593.45	1107.07
593.80	1106.61
594.15	1096.07
594.50	1100.52
594.85	1097.24
595.20	1115.97
595.55	1110.82
595.90	1112.22
596.25	1112.69
596.60	1111.75
596.95	1102.63
597.30	1097.95
597.64	1145.93
597.99	1146.86
598.34	1149.67
598.69	1146.86
599.04	1141.95
599.39	1093.03
599.74	1095.37
600.09	1108.24
600.44	1110.35
600.78	1117.37
601.13	1122.05
601.48	1111.29
601.83	1093.97
602.18	1087.65
602.53	1093.50
602.88	1086.01
603.22	1092.09
603.57	1094.20
603.92	1099.12
604.27	1092.56
604.62	1093.26
604.97	1088.12
605.31	1097.95
605.66	1096.78
606.01	1093.03
606.36	1096.54
606.71	1099.35
607.05	1091.63
607.40	1098.65
607.75	1111.29
608.10	1119.01
608.44	1124.39
608.79	1123.22
609.14	1118.78
609.49	1114.56
609.84	1118.54
610.18	1106.14
610.53	1097.01
610.88	1102.63
611.23	1105.44
611.57	1097.71
611.92	1101.22
612.27	1111.52
612.62	1104.03
612.96	1101.69
613.31	1095.60
613.66	1094.20
614.00	1090.69
614.35	1087.88
614.70	1086.01
615.05	1093.03
615.39	1093.50
615.74	1092.80
616.09	1094.67
616.43	1095.37
616.78	1096.54
617.13	1106.84
617.47	1100.05
617.82	1109.18
618.17	1111.99
618.51	1106.61
618.86	1101.22
619.21	1112.69
619.55	1106.37
619.90	1103.09
620.25	1099.58
620.59	1097.71
620.94	1092.09
621.29	1084.14
621.63	1084.14
621.98	1086.01
622.32	1085.77
622.67	1093.03
623.02	1095.84
623.36	1092.09
623.71	1091.16
624.05	1090.69
624.40	1088.82
624.75	1096.31
625.09	1102.86
625.44	1100.99
625.78	1099.58
626.13	1088.82
626.48	1082.50
626.82	1082.50
627.17	1089.29
627.51	1080.63
627.86	1081.80
628.20	1086.24
628.55	1076.65
628.89	1074.31
629.24	1075.48
629.58	1079.22
629.93	1069.86
630.28	1077.58
630.62	1081.56
630.97	1092.80
631.31	1094.90
631.66	1105.67
632.00	1095.37
632.35	1090.22
632.69	1088.58
633.04	1085.31
633.38	1082.26
633.73	1091.63
634.07	1089.05
634.42	1085.07
634.76	1081.09
635.11	1076.88
635.45	1072.67
635.79	1074.07
636.14	1076.65
636.48	1079.46
636.83	1083.67
637.17	1081.56
637.52	1079.22
637.86	1079.46
638.21	1080.86
638.55	1076.65
638.89	1085.07
639.24	1085.54
639.58	1083.67
639.93	1087.18
640.27	1080.86
640.61	1077.82
640.96	1084.37
641.30	1078.99
641.65	1072.67
641.99	1079.69
642.33	1080.39
642.68	1078.05
643.02	1084.84
643.37	1100.99
643.71	1108.01
644.05	1101.69
644.40	1108.95
644.74	1115.97
645.08	1095.37
645.43	1090.22
645.77	1093.50
646.11	1091.86
646.46	1086.94
646.80	1096.31
647.14	1086.71
647.49	1086.94
647.83	1079.22
648.17	1082.97
648.52	1088.35
648.86	1096.78
649.20	1098.88
649.55	1101.22
649.89	1098.41
650.23	1092.33
650.57	1092.56
650.92	1097.01
651.26	1093.50
651.60	1094.43
651.95	1092.33
652.29	1096.07
652.63	1093.73
652.97	1101.69
653.32	1086.94
653.66	1089.52
654.00	1084.37
654.34	1092.80
654.69	1099.58
655.03	1112.92
655.37	1118.31
655.71	1125.33
656.05	1113.16
656.40	1100.99
656.74	1113.63
657.08	1106.61
657.42	1102.63
657.76	1101.22
658.11	1100.52
658.45	1085.54
658.79	1092.09
659.13	1099.82
659.47	1102.63
659.82	1098.88
660.16	1097.71
660.50	1096.78
660.84	1090.22
661.18	1091.63
661.52	1103.09
661.87	1098.65
662.21	1093.97
662.55	1088.35
662.89	1081.80
663.23	1078.28
663.57	1080.86
663.91	1082.03
664.25	1088.35
664.60	1099.12
664.94	1099.82
665.28	1101.69
665.62	1097.71
665.96	1088.12
666.30	1082.97
666.64	1076.88
666.98	1076.88
667.32	1089.29
667.66	1101.92
668.01	1104.26
668.35	1103.33
668.69	1105.90
669.03	1089.99
669.37	1076.65
669.71	1074.54
670.05	1074.54
670.39	1065.18
670.73	1073.84
671.07	1073.84
671.41	1070.56
671.75	1071.50
672.09	1079.69
672.43	1064.24
672.77	1060.26
673.11	1057.92
673.45	1062.84
673.79	1055.35
674.13	1063.07
674.47	1077.11
674.81	1083.43
675.15	1080.39
675.49	1083.43
675.83	1096.78
676.17	1089.99
676.51	1084.84
676.85	1091.39
677.19	1100.05
677.53	1099.58
677.87	1106.37
678.21	1105.90
678.55	1094.67
678.89	1089.75
679.23	1080.63
679.57	1076.88
679.90	1079.46
680.24	1086.01
680.58	1085.31
680.92	1093.03
681.26	1092.09
681.60	1095.37
681.94	1091.63
682.28	1098.88
682.62	1092.33
682.96	1095.37
683.29	1093.03
683.63	1097.01
683.97	1088.82
684.31	1092.33
684.65	1084.37
684.99	1073.14
685.33	1071.73
685.67	1078.05
686.00	1074.54
686.34	1078.75
686.68	1089.52
687.02	1095.60
687.36	1096.31
687.70	1093.73
688.03	1092.56
688.37	1090.92
688.71	1085.77
689.05	1086.94
689.39	1099.12
689.72	1102.86
690.06	1097.71
690.40	1093.97
690.74	1080.86
691.08	1072.20
691.41	1068.69
691.75	1083.67
692.09	1081.33
692.43	1083.67
692.76	1083.67
693.10	1090.22
693.44	1081.56
693.78	1088.35
694.11	1093.73
694.45	1101.69
694.79	1090.92
695.13	1087.41
695.46	1088.82
695.80	1091.63
696.14	1088.12
696.48	1102.16
696.81	1109.65
697.15	1109.65
697.49	1109.18
697.82	1101.22
698.16	1094.43
698.50	1091.16
698.83	1076.41
699.17	1074.77
699.51	1085.31
699.84	1089.05
700.18	1089.29
700.52	1104.03
700.85	1104.73
701.19	1096.54
701.53	1092.33
701.86	1098.65
702.20	1093.73
702.54	1085.31
702.87	1083.67
703.21	1076.18
703.55	1073.37
703.88	1078.75
704.22	1075.48
704.55	1083.43
704.89	1085.77
705.23	1084.14
705.56	1073.60
705.90	1083.43
706.23	1076.88
706.57	1078.52
706.91	1084.84
707.24	1090.69
707.58	1089.99
707.91	1089.52
708.25	1082.73
708.58	1080.86
708.92	1093.97
709.26	1093.97
709.59	1097.48
709.93	1104.26
710.26	1097.01
710.60	1082.73
710.93	1077.11
711.27	1075.01
711.60	1072.20
711.94	1077.11
712.27	1082.03
712.61	1091.16
712.94	1090.69
713.28	1103.09
713.61	1097.71
713.95	1093.50
714.28	1103.80
714.62	1089.29
714.95	1083.43
715.29	1089.75
715.62	1087.88
715.96	1073.14
716.29	1080.86
716.63	1089.05
716.96	1087.41
717.29	1093.73
717.63	1101.22
717.96	1112.92
718.30	1104.97
718.63	1095.84
718.97	1090.46
719.30	1086.94
719.63	1082.73
719.97	1078.99
720.30	1085.77
720.64	1093.50
720.97	1092.56
721.30	1086.48
721.64	1081.09
721.97	1076.88
722.31	1074.77
722.64	1072.90
722.97	1070.80
723.31	1083.67
723.64	1082.26
723.97	1077.82
724.31	1072.67
724.64	1080.86
724.98	1085.07
725.31	1088.82
725.64	1085.31
725.98	1094.67
726.31	1099.12
726.64	1083.43
726.97	1084.37
727.31	1082.26
727.64	1080.39
727.97	1075.71
728.31	1082.03
728.64	1087.65
728.97	1094.90
729.31	1091.16
729.64	1093.50
729.97	1096.07
730.30	1093.50
730.64	1098.88
730.97	1102.16
731.30	1101.46
731.63	1098.65
731.97	1100.75
732.30	1099.12
732.63	1095.14
732.96	1095.14
733.30	1089.75
733.63	1078.05
733.96	1070.80
734.29	1073.84
734.63	1065.18
734.96	1074.54
735.29	1073.84
735.62	1071.50
735.95	1067.28
736.29	1066.82
736.62	1068.22
736.95	1063.77
737.28	1062.60
737.61	1068.45
737.94	1089.52
738.28	1080.16
738.61	1086.48
738.94	1097.95
739.27	1098.18
739.60	1083.67
739.93	1088.58
740.27	1085.77
740.60	1081.09
740.93	1075.48
741.26	1064.71
741.59	1063.31
741.92	1066.82
742.25	1069.62
742.58	1065.88
742.91	1077.11
743.25	1084.37
743.58	1084.60
743.91	1090.69
744.24	1092.33
744.57	1090.69
744.90	1086.71
745.23	1085.31
745.56	1079.69
745.89	1089.52
746.22	1088.35
746.55	1082.26
746.88	1094.20
747.21	1087.65
747.54	1081.09
747.87	1088.12
748.20	1087.65
748.53	1075.24
748.87	1075.01
749.20	1073.84
749.53	1075.24
749.86	1074.07
750.19	1079.92
750.52	1089.29
750.85	1083.20
751.18	1070.80
751.51	1069.86
751.84	1060.73
752.16	1060.03
752.49	1056.52
752.82	1064.71
753.15	1061.90
753.48	1067.05
753.81	1063.31
754.14	1078.52
754.47	1072.67
754.80	1069.39
755.13	1076.88
755.46	1065.18
755.79	1065.88
756.12	1068.69
756.45	1075.94
756.78	1073.84
757.11	1072.90
757.43	1064.24
757.76	1069.86
758.09	1076.41
758.42	1071.73
758.75	1081.33
759.08	1088.35
759.41	1083.43
759.74	1075.71
760.07	1074.07
760.39	1071.50
760.72	1066.35
761.05	1070.09
761.38	1079.69
761.71	1078.05
762.04	1082.50
762.36	1081.09
762.69	1079.46
763.02	1066.82
763.35	1074.54
763.68	1072.20
764.01	1075.48
764.33	1078.28
764.66	1091.39
