SpectraSuite Data File
++++++++++++++++++++++++++++++++++++
Date: Mon Aug 26 10:24:50 PDT 2019
User: corrico
Dark Spectrum Present: No
Reference Spectrum Present: No
Number of Sampled Component Spectra: 1
Spectrometers: USB2+H06089
Integration Time (usec): 10000 (USB2+H06089)
Spectra Averaged: 2 (USB2+H06089)
Boxcar Smoothing: 2 (USB2+H06089)
Correct for Electrical Dark: No (USB2+H06089)
Strobe/Lamp Enabled: No (USB2+H06089)
Correct for Detector Non-linearity: No (USB2+H06089)
Correct for Stray Light: No (USB2+H06089)
Number of Pixels in Processed Spectrum: 2048
>>>>>Begin Processed Spectral Data<<<<<
339.70	1041.54
340.07	1041.54
340.45	999.64
340.82	980.22
341.19	958.68
341.57	936.68
341.94	921.47
342.31	917.49
342.69	912.11
343.06	904.15
343.43	904.38
343.81	906.72
344.18	897.60
344.55	899.47
344.93	902.51
345.30	899.94
345.67	900.40
346.04	909.06
346.42	911.40
346.79	915.62
347.16	927.32
347.54	948.15
347.91	966.41
348.28	983.26
348.65	999.41
349.03	1016.26
349.40	1018.84
349.77	1031.71
350.14	1029.60
350.52	1027.26
350.89	1024.92
351.26	1030.77
351.63	1028.67
352.01	1042.01
352.38	1056.05
352.75	1054.65
353.12	1053.94
353.50	1063.31
353.87	1057.92
354.24	1061.43
354.61	1070.56
354.98	1077.35
355.36	1076.18
355.73	1086.48
356.10	1082.50
356.47	1083.20
356.84	1087.65
357.22	1090.46
357.59	1086.24
357.96	1083.43
358.33	1088.82
358.70	1088.82
359.08	1091.63
359.45	1094.90
359.82	1106.37
360.19	1097.71
360.56	1101.46
360.94	1100.75
361.31	1097.24
361.68	1088.58
362.05	1081.56
362.42	1086.71
362.79	1082.50
363.16	1079.22
363.54	1083.67
363.91	1094.43
364.28	1080.39
364.65	1070.09
365.02	1074.77
365.39	1075.94
365.76	1079.46
366.14	1082.50
366.51	1097.95
366.88	1100.99
367.25	1104.50
367.62	1092.33
367.99	1088.12
368.36	1082.97
368.73	1074.54
369.10	1067.99
369.48	1077.11
369.85	1091.63
370.22	1095.84
370.59	1105.44
370.96	1110.12
371.33	1108.24
371.70	1103.09
372.07	1093.50
372.44	1079.22
372.81	1071.26
373.18	1069.16
373.55	1065.41
373.93	1066.58
374.30	1078.75
374.67	1078.99
375.04	1070.09
375.41	1074.77
375.78	1079.22
376.15	1073.37
376.52	1079.92
376.89	1091.16
377.26	1084.84
377.63	1077.35
378.00	1077.35
378.37	1061.43
378.74	1057.92
379.11	1053.24
379.48	1058.39
379.85	1066.35
380.22	1083.67
380.59	1093.26
380.96	1102.16
381.33	1112.92
381.70	1110.58
382.07	1110.58
382.44	1107.31
382.81	1096.07
383.18	1092.09
383.55	1093.26
383.92	1097.95
384.29	1098.65
384.66	1112.69
385.03	1106.37
385.40	1106.37
385.77	1106.61
386.14	1109.18
386.51	1109.65
386.88	1108.71
387.25	1106.14
387.62	1106.37
387.99	1104.26
388.36	1094.90
388.73	1110.12
389.10	1111.29
389.46	1112.22
389.83	1119.01
390.20	1130.24
390.57	1126.03
390.94	1131.88
391.31	1123.22
391.68	1111.75
392.05	1101.92
392.42	1100.99
392.79	1098.65
393.16	1104.97
393.53	1117.61
393.89	1128.14
394.26	1126.50
394.63	1120.88
395.00	1115.03
395.37	1111.75
395.74	1110.58
396.11	1107.78
396.48	1111.29
396.84	1112.22
397.21	1115.27
397.58	1111.29
397.95	1108.95
398.32	1113.16
398.69	1128.61
399.06	1124.16
399.42	1136.33
399.79	1143.12
400.16	1140.78
400.53	1133.99
400.90	1149.67
401.27	1153.88
401.64	1165.35
402.00	1181.27
402.37	1194.14
402.74	1192.03
403.11	1186.18
403.48	1189.23
403.84	1184.08
404.21	1187.12
404.58	1206.78
404.95	1221.76
405.32	1234.87
405.68	1244.70
406.05	1247.04
406.42	1239.78
406.79	1256.63
407.16	1277.23
407.52	1301.57
407.89	1324.74
408.26	1348.38
408.63	1365.23
408.99	1376.70
409.36	1396.60
409.73	1431.24
410.10	1474.54
410.47	1501.22
410.83	1536.33
411.20	1558.33
411.57	1580.33
411.94	1614.74
412.30	1663.18
412.67	1701.57
413.04	1768.98
413.40	1839.90
413.77	1881.56
414.14	1935.62
414.51	1996.95
414.87	2060.37
415.24	2123.80
415.61	2213.21
415.97	2301.92
416.34	2403.96
416.71	2501.56
417.08	2592.61
417.44	2679.68
417.81	2792.73
418.18	2913.97
418.54	3045.97
418.91	3203.26
419.28	3383.01
419.64	3528.83
420.01	3694.30
420.38	3866.10
420.74	4042.81
421.11	4237.07
421.48	4469.25
421.84	4699.56
422.21	4936.42
422.58	5189.20
422.94	5417.40
423.31	5656.14
423.68	5929.28
424.04	6226.29
424.41	6527.52
424.77	6847.71
425.14	7200.42
425.51	7518.27
425.87	7877.54
426.24	8254.13
426.61	8681.52
426.97	9151.26
427.34	9624.05
427.70	10118.14
428.07	10575.24
428.44	11093.91
428.80	11604.84
429.17	12151.36
429.53	12699.28
429.90	13377.57
430.27	13944.21
430.63	14507.34
431.00	15216.52
431.36	15970.88
431.73	16566.78
432.09	17271.28
432.46	18018.61
432.83	18648.69
433.19	19145.58
433.56	19871.15
433.92	20589.93
434.29	21182.78
434.65	21884.95
435.02	22624.55
435.38	23296.05
435.75	23802.78
436.11	24515.71
436.48	24970.47
436.84	25523.31
437.21	25976.90
437.57	26468.42
437.94	26869.35
438.30	27313.58
438.67	27614.81
439.03	27771.39
439.40	27892.63
439.76	27859.16
440.13	27750.80
440.49	27650.39
440.86	27461.27
441.22	27243.84
441.59	26865.61
441.95	26479.42
442.32	25935.01
442.68	25529.16
443.05	25008.39
443.41	24499.79
443.78	23923.08
444.14	23369.31
444.51	22690.79
444.87	22254.28
445.24	21766.05
445.60	21355.75
445.96	20842.70
446.33	20437.79
446.69	19748.04
447.06	19216.03
447.42	18605.85
447.79	18069.40
448.15	17593.81
448.51	17118.91
448.88	16693.64
449.24	16272.57
449.61	15965.50
449.97	15503.71
450.33	15171.82
450.70	14688.73
451.06	14340.46
451.43	13848.72
451.79	13514.72
452.15	13143.28
452.52	12862.88
452.88	12527.02
453.24	12270.96
453.61	11960.61
453.97	11676.70
454.34	11360.02
454.70	11072.84
455.06	10826.62
455.43	10535.69
455.79	10172.90
456.15	9860.91
456.52	9514.04
456.88	9207.67
457.24	8913.23
457.61	8701.64
457.97	8476.02
458.33	8237.52
458.70	7962.03
459.06	7684.21
459.42	7445.95
459.79	7173.51
460.15	6955.84
460.51	6710.32
460.88	6479.77
461.24	6247.12
461.60	6075.33
461.96	5890.19
462.33	5727.06
462.69	5595.28
463.05	5456.72
463.42	5304.59
463.78	5162.29
464.14	5042.92
464.50	4924.02
464.87	4782.65
465.23	4687.86
465.59	4574.58
465.95	4467.85
466.32	4351.99
466.68	4273.58
467.04	4164.75
467.40	4069.49
467.77	3967.21
468.13	3894.18
468.49	3830.52
468.85	3770.60
469.22	3695.00
469.58	3642.11
469.94	3578.45
470.30	3507.99
470.66	3425.14
471.03	3389.33
471.39	3317.94
471.75	3245.15
472.11	3173.77
472.47	3134.45
472.84	3070.31
473.20	3018.82
473.56	2979.97
473.92	2913.03
474.28	2849.13
474.65	2797.17
475.01	2756.45
475.37	2703.08
475.73	2670.08
476.09	2627.49
476.45	2593.55
476.81	2555.16
477.18	2497.82
477.54	2470.67
477.90	2444.46
478.26	2409.11
478.62	2371.20
478.98	2356.92
479.34	2322.28
479.71	2289.28
480.07	2262.83
480.43	2242.00
480.79	2198.93
481.15	2171.31
481.51	2147.91
481.87	2124.74
482.23	2091.74
482.59	2073.71
482.96	2043.76
483.32	2020.12
483.68	1988.05
484.04	1967.69
484.40	1952.01
484.76	1938.43
485.12	1930.71
485.48	1908.71
485.84	1895.37
486.20	1883.43
486.56	1864.00
486.92	1828.66
487.28	1812.98
487.64	1787.70
488.00	1759.15
488.37	1740.19
488.73	1726.85
489.09	1703.21
489.45	1688.93
489.81	1671.14
490.17	1663.89
490.53	1637.44
490.89	1630.65
491.25	1613.57
491.61	1595.08
491.97	1575.18
492.33	1565.82
492.69	1549.67
493.05	1539.60
493.41	1533.99
493.77	1522.75
494.13	1515.26
494.49	1503.33
494.85	1480.62
495.21	1466.58
495.57	1454.17
495.93	1435.22
496.29	1433.58
496.64	1436.39
497.00	1433.11
497.36	1418.13
497.72	1398.94
498.08	1383.96
498.44	1375.06
498.80	1363.60
499.16	1361.72
499.52	1367.34
499.88	1357.28
500.24	1347.68
500.60	1341.60
500.96	1333.64
501.32	1331.30
501.68	1323.34
502.03	1312.57
502.39	1296.19
502.75	1283.55
503.11	1284.95
503.47	1282.38
503.83	1281.91
504.19	1280.51
504.55	1286.83
504.91	1276.29
505.26	1278.87
505.62	1273.02
505.98	1279.80
506.34	1272.55
506.70	1269.51
507.06	1256.40
507.42	1253.82
507.78	1243.53
508.13	1245.17
508.49	1233.70
508.85	1231.36
509.21	1225.74
509.57	1215.44
509.93	1196.48
510.28	1192.97
510.64	1194.14
511.00	1183.37
511.36	1191.10
511.72	1197.65
512.07	1193.67
512.43	1179.86
512.79	1194.61
513.15	1191.10
513.51	1182.44
513.86	1182.67
514.22	1193.91
514.58	1172.14
514.94	1163.71
515.30	1174.25
515.65	1178.23
516.01	1174.95
516.37	1185.95
516.73	1181.74
517.08	1177.52
517.44	1186.18
517.80	1179.40
518.16	1177.99
518.51	1184.31
518.87	1179.16
519.23	1168.16
519.59	1172.37
519.94	1156.93
520.30	1147.10
520.66	1137.73
521.01	1132.59
521.37	1129.31
521.73	1137.97
522.09	1145.46
522.44	1137.97
522.80	1126.97
523.16	1118.78
523.51	1113.16
523.87	1109.88
524.23	1114.80
524.58	1115.97
524.94	1119.24
525.30	1121.82
525.65	1123.69
526.01	1128.14
526.37	1134.69
526.72	1142.42
527.08	1138.90
527.44	1135.86
527.79	1132.12
528.15	1130.24
528.51	1123.46
528.86	1126.27
529.22	1125.33
529.58	1126.27
529.93	1125.56
530.29	1116.90
530.65	1109.41
531.00	1106.14
531.36	1110.35
531.71	1101.69
532.07	1103.09
532.43	1111.52
532.78	1108.95
533.14	1108.01
533.49	1118.07
533.85	1122.99
534.21	1130.71
534.56	1124.16
534.92	1122.99
535.27	1108.71
535.63	1104.50
535.98	1103.09
536.34	1110.12
536.69	1105.67
537.05	1115.73
537.41	1113.16
537.76	1100.29
538.12	1101.46
538.47	1102.16
538.83	1098.18
539.18	1103.80
539.54	1110.35
539.89	1111.52
540.25	1122.29
540.60	1127.44
540.96	1126.27
541.31	1119.48
541.67	1113.39
542.02	1103.33
542.38	1105.20
542.73	1105.90
543.09	1109.41
543.44	1114.33
543.80	1124.86
544.15	1129.07
544.51	1133.76
544.86	1133.52
545.22	1131.18
545.57	1117.14
545.93	1118.54
546.28	1117.14
546.64	1119.48
546.99	1123.46
547.35	1126.73
547.70	1114.80
548.05	1108.24
548.41	1109.65
548.76	1098.65
549.12	1095.37
549.47	1100.52
549.83	1117.14
550.18	1112.22
550.53	1118.07
550.89	1130.71
551.24	1122.05
551.60	1103.33
551.95	1106.61
552.30	1109.41
552.66	1099.82
553.01	1100.52
553.37	1099.58
553.72	1096.78
554.07	1097.71
554.43	1097.24
554.78	1099.58
555.13	1103.33
555.49	1100.99
555.84	1098.65
556.19	1088.58
556.55	1079.69
556.90	1077.11
557.26	1067.28
557.61	1070.33
557.96	1074.54
558.32	1086.01
558.67	1094.20
559.02	1109.65
559.37	1109.88
559.73	1120.41
560.08	1120.65
560.43	1112.22
560.79	1109.88
561.14	1111.05
561.49	1099.35
561.85	1097.95
562.20	1104.73
562.55	1105.67
562.90	1093.03
563.26	1099.58
563.61	1098.41
563.96	1096.78
564.32	1099.35
564.67	1101.69
565.02	1108.48
565.37	1116.90
565.73	1114.09
566.08	1108.95
566.43	1114.10
566.78	1107.78
567.14	1109.18
567.49	1107.78
567.84	1108.01
568.19	1108.71
568.54	1111.52
568.90	1094.90
569.25	1099.12
569.60	1101.46
569.95	1104.26
570.31	1097.95
570.66	1103.56
571.01	1101.92
571.36	1103.56
571.71	1098.65
572.06	1095.37
572.42	1094.20
572.77	1093.73
573.12	1093.26
573.47	1098.18
573.82	1107.54
574.18	1112.69
574.53	1113.63
574.88	1113.63
575.23	1111.99
575.58	1105.44
575.93	1101.92
576.28	1090.46
576.64	1092.09
576.99	1095.84
577.34	1097.71
577.69	1099.82
578.04	1109.65
578.39	1099.58
578.74	1086.24
579.09	1081.33
579.44	1085.77
579.80	1081.80
580.15	1084.14
580.50	1082.50
580.85	1086.01
581.20	1079.92
581.55	1081.09
581.90	1083.67
582.25	1101.92
582.60	1106.14
582.95	1106.14
583.30	1113.86
583.65	1108.24
584.00	1103.33
584.35	1105.20
584.71	1104.50
585.06	1106.37
585.41	1105.44
585.76	1109.88
586.11	1100.29
586.46	1099.58
586.81	1083.90
587.16	1089.29
587.51	1080.16
587.86	1078.52
588.21	1078.52
588.56	1082.03
588.91	1083.90
589.26	1092.80
589.61	1088.58
589.96	1086.94
590.31	1093.97
590.66	1085.54
591.01	1077.82
591.36	1086.94
591.71	1090.22
592.06	1095.14
592.41	1105.44
592.76	1111.05
593.10	1106.14
593.45	1100.05
593.80	1095.14
594.15	1090.92
594.50	1080.63
594.85	1081.80
595.20	1089.05
595.55	1092.33
595.90	1089.29
596.25	1089.52
596.60	1089.29
596.95	1091.39
597.30	1072.67
597.64	1119.95
597.99	1123.22
598.34	1138.20
598.69	1132.59
599.04	1140.07
599.39	1096.07
599.74	1081.09
600.09	1064.71
600.44	1072.90
600.78	1070.09
601.13	1066.82
601.48	1082.97
601.83	1091.16
602.18	1089.05
602.53	1095.84
602.88	1101.92
603.22	1101.22
603.57	1100.05
603.92	1103.09
604.27	1107.78
604.62	1103.80
604.97	1100.75
605.31	1084.60
605.66	1073.14
606.01	1065.41
606.36	1059.33
606.71	1062.84
607.05	1080.63
607.40	1072.67
607.75	1074.31
608.10	1087.18
608.44	1092.33
608.79	1087.18
609.14	1097.24
609.49	1102.63
609.84	1106.84
610.18	1098.88
610.53	1106.14
610.88	1122.52
611.23	1120.88
611.57	1116.67
611.92	1120.88
612.27	1104.26
612.62	1093.97
612.96	1095.84
613.31	1087.41
613.66	1084.60
614.00	1099.58
614.35	1094.67
614.70	1088.35
615.05	1084.37
615.39	1081.80
615.74	1074.31
616.09	1071.50
616.43	1075.24
616.78	1082.26
617.13	1085.77
617.47	1093.03
617.82	1100.99
618.17	1096.31
618.51	1102.63
618.86	1097.48
619.21	1095.84
619.55	1081.56
619.90	1081.80
620.25	1067.28
620.59	1083.20
620.94	1080.39
621.29	1091.86
621.63	1096.78
621.98	1095.37
622.32	1080.39
622.67	1084.84
623.02	1088.35
623.36	1086.01
623.71	1094.90
624.05	1100.99
624.40	1103.33
624.75	1097.48
625.09	1104.03
625.44	1100.75
625.78	1105.44
626.13	1100.99
626.48	1102.16
626.82	1107.54
627.17	1111.99
627.51	1106.14
627.86	1105.90
628.20	1107.78
628.55	1094.43
628.89	1097.48
629.24	1108.24
629.58	1101.92
629.93	1097.48
630.28	1103.80
630.62	1107.31
630.97	1095.60
631.31	1100.99
631.66	1096.78
632.00	1089.52
632.35	1080.16
632.69	1078.75
633.04	1078.99
633.38	1082.73
633.73	1078.28
634.07	1082.97
634.42	1083.43
634.76	1080.86
635.11	1074.31
635.45	1085.31
635.79	1081.33
636.14	1077.11
636.48	1071.03
636.83	1069.16
637.17	1076.18
637.52	1075.71
637.86	1074.77
638.21	1085.31
638.55	1090.22
638.89	1078.28
639.24	1070.80
639.58	1068.69
639.93	1060.73
640.27	1059.79
640.61	1064.94
640.96	1080.86
641.30	1089.75
641.65	1091.86
641.99	1098.65
642.33	1096.78
642.68	1081.09
643.02	1081.33
643.37	1084.37
643.71	1084.14
644.05	1081.56
644.40	1083.67
644.74	1083.20
645.08	1084.60
645.43	1089.05
645.77	1089.52
646.11	1097.48
646.46	1099.58
646.80	1091.16
647.14	1090.22
647.49	1093.97
647.83	1102.39
648.17	1102.86
648.52	1108.01
648.86	1104.97
649.20	1094.43
649.55	1080.16
649.89	1071.50
650.23	1080.16
650.57	1083.90
650.92	1089.05
651.26	1092.33
651.60	1104.50
651.95	1109.41
652.29	1111.52
652.63	1124.39
652.97	1129.07
653.32	1122.05
653.66	1115.97
654.00	1107.07
654.34	1093.26
654.69	1078.28
655.03	1079.22
655.37	1066.82
655.71	1069.62
656.05	1076.18
656.40	1081.80
656.74	1074.07
657.08	1087.88
657.42	1078.99
657.76	1070.33
658.11	1079.69
658.45	1091.63
658.79	1081.09
659.13	1092.33
659.47	1101.22
659.82	1090.69
660.16	1095.84
660.50	1101.46
660.84	1092.80
661.18	1085.54
661.52	1086.71
661.87	1074.31
662.21	1072.43
662.55	1076.65
662.89	1082.50
663.23	1084.60
663.57	1084.37
663.91	1089.99
664.25	1092.33
664.60	1092.33
664.94	1094.43
665.28	1101.46
665.62	1098.65
665.96	1094.43
666.30	1083.43
666.64	1086.71
666.98	1077.82
667.32	1076.18
667.66	1080.39
668.01	1085.31
668.35	1085.07
668.69	1084.14
669.03	1082.03
669.37	1083.20
669.71	1083.90
670.05	1085.54
670.39	1094.20
670.73	1098.65
671.07	1090.22
671.41	1089.52
671.75	1085.77
672.09	1087.18
672.43	1073.37
672.77	1084.14
673.11	1093.03
673.45	1089.75
673.79	1093.97
674.13	1107.31
674.47	1105.67
674.81	1100.52
675.15	1104.26
675.49	1092.56
675.83	1080.16
676.17	1082.03
676.51	1089.99
676.85	1085.77
677.19	1087.88
677.53	1094.67
677.87	1091.16
678.21	1087.41
678.55	1087.65
678.89	1078.28
679.23	1072.43
679.57	1077.11
679.90	1075.94
680.24	1075.48
680.58	1082.26
680.92	1090.69
681.26	1089.52
681.60	1089.05
681.94	1095.14
682.28	1093.03
682.62	1097.48
682.96	1088.35
683.29	1084.84
683.63	1071.50
683.97	1073.14
684.31	1067.05
684.65	1076.41
684.99	1079.46
685.33	1083.67
685.67	1084.37
686.00	1078.28
686.34	1073.37
686.68	1070.09
687.02	1080.63
687.36	1091.16
687.70	1094.43
688.03	1086.48
688.37	1087.18
688.71	1079.92
689.05	1071.73
689.39	1091.86
689.72	1111.29
690.06	1114.10
690.40	1114.80
690.74	1121.12
691.08	1101.92
691.41	1098.18
691.75	1088.58
692.09	1094.43
692.43	1085.07
692.76	1092.09
693.10	1090.46
693.44	1093.03
693.78	1085.31
694.11	1083.67
694.45	1083.90
694.79	1076.88
695.13	1081.80
695.46	1087.65
695.80	1096.07
696.14	1092.80
696.48	1093.03
696.81	1098.65
697.15	1093.03
697.49	1087.88
697.82	1083.20
698.16	1088.82
698.50	1092.09
698.83	1089.99
699.17	1093.97
699.51	1101.92
699.84	1099.35
700.18	1089.29
700.52	1103.80
700.85	1096.31
701.19	1085.07
701.53	1075.94
701.86	1075.01
702.20	1069.16
702.54	1078.05
702.87	1078.99
703.21	1090.22
703.55	1097.24
703.88	1092.09
704.22	1086.01
704.55	1092.80
704.89	1091.16
705.23	1091.63
705.56	1093.50
705.90	1104.97
706.23	1096.07
706.57	1097.95
706.91	1086.94
707.24	1091.16
707.58	1087.88
707.91	1101.69
708.25	1096.54
708.58	1106.61
708.92	1100.05
709.26	1095.37
709.59	1078.75
709.93	1083.43
710.26	1075.01
710.60	1084.37
710.93	1096.07
711.27	1101.22
711.60	1102.86
711.94	1101.69
712.27	1088.35
712.61	1078.28
712.94	1085.77
713.28	1078.28
713.61	1085.07
713.95	1091.86
714.28	1086.71
714.62	1083.67
714.95	1083.20
715.29	1078.75
715.62	1075.24
715.96	1074.31
716.29	1082.97
716.63	1076.41
716.96	1076.18
717.29	1083.20
717.63	1082.73
717.96	1068.22
718.30	1078.28
718.63	1083.20
718.97	1086.94
719.30	1083.20
719.63	1093.73
719.97	1097.71
720.30	1091.16
720.64	1082.73
720.97	1086.94
721.30	1079.46
721.64	1074.31
721.97	1076.88
722.31	1073.60
722.64	1075.71
722.97	1069.16
723.31	1064.01
723.64	1067.05
723.97	1067.05
724.31	1063.54
724.64	1082.97
724.98	1088.58
725.31	1078.75
725.64	1080.16
725.98	1089.05
726.31	1082.97
726.64	1084.84
726.97	1089.99
727.31	1088.35
727.64	1079.92
727.97	1073.60
728.31	1073.14
728.64	1075.71
728.97	1080.86
729.31	1091.16
729.64	1093.50
729.97	1096.31
730.30	1089.05
730.64	1089.05
730.97	1087.88
731.30	1091.86
731.63	1085.54
731.97	1090.69
732.30	1095.37
732.63	1089.29
732.96	1093.50
733.30	1095.37
733.63	1102.39
733.96	1103.56
734.29	1110.12
734.63	1098.65
734.96	1095.14
735.29	1091.16
735.62	1093.73
735.95	1081.80
736.29	1081.33
736.62	1082.26
736.95	1084.84
737.28	1075.48
737.61	1085.31
737.94	1090.92
738.28	1087.41
738.61	1084.14
738.94	1079.69
739.27	1067.05
739.60	1063.77
739.93	1067.99
740.27	1057.69
740.60	1066.11
740.93	1070.80
741.26	1071.97
741.59	1067.99
741.92	1076.88
742.25	1074.31
742.58	1072.67
742.91	1070.80
743.25	1071.97
743.58	1065.88
743.91	1067.28
744.24	1064.71
744.57	1070.09
744.90	1078.05
745.23	1082.50
745.56	1085.07
745.89	1101.46
746.22	1093.50
746.55	1086.94
746.88	1094.20
747.21	1083.43
747.54	1081.56
747.87	1087.65
748.20	1089.05
748.53	1080.86
748.87	1092.56
749.20	1080.16
749.53	1071.03
749.86	1074.07
750.19	1067.05
750.52	1065.41
750.85	1066.11
751.18	1072.67
751.51	1074.54
751.84	1089.99
752.16	1086.24
752.49	1081.33
752.82	1079.69
753.15	1074.77
753.48	1073.84
753.81	1063.31
754.14	1073.14
754.47	1080.86
754.80	1080.39
755.13	1071.26
755.46	1083.90
755.79	1085.54
756.12	1079.69
756.45	1086.24
756.78	1088.35
757.11	1087.65
757.43	1090.69
757.76	1095.60
758.09	1091.39
758.42	1091.39
758.75	1085.77
759.08	1082.50
759.41	1076.65
759.74	1074.07
760.07	1072.90
760.39	1062.14
760.72	1060.26
761.05	1067.28
761.38	1070.09
761.71	1074.07
762.04	1079.69
762.36	1075.71
762.69	1065.65
763.02	1059.09
763.35	1052.30
763.68	1063.54
764.01	1071.73
764.33	1078.75
764.66	1094.67
