SpectraSuite Data File
++++++++++++++++++++++++++++++++++++
Date: Mon Aug 26 10:24:50 PDT 2019
User: corrico
Dark Spectrum Present: No
Reference Spectrum Present: No
Number of Sampled Component Spectra: 1
Spectrometers: USB2+H06089
Integration Time (usec): 10000 (USB2+H06089)
Spectra Averaged: 2 (USB2+H06089)
Boxcar Smoothing: 2 (USB2+H06089)
Correct for Electrical Dark: No (USB2+H06089)
Strobe/Lamp Enabled: No (USB2+H06089)
Correct for Detector Non-linearity: No (USB2+H06089)
Correct for Stray Light: No (USB2+H06089)
Number of Pixels in Processed Spectrum: 2048
>>>>>Begin Processed Spectral Data<<<<<
339.70	987.71
340.07	987.71
340.45	964.53
340.82	948.62
341.19	936.45
341.57	925.21
341.94	915.15
342.31	923.34
342.69	924.51
343.06	915.62
343.43	910.00
343.81	919.13
344.18	908.13
344.55	906.26
344.93	913.51
345.30	928.02
345.67	928.02
346.04	942.53
346.42	947.68
346.79	958.22
347.16	956.11
347.54	966.88
347.91	965.71
348.28	990.05
348.65	999.64
349.03	1010.88
349.40	1016.03
349.77	1031.47
350.14	1032.64
350.52	1034.98
350.89	1036.16
351.26	1047.39
351.63	1051.13
352.01	1053.48
352.38	1068.92
352.75	1085.07
353.12	1084.37
353.50	1098.18
353.87	1099.82
354.24	1096.07
354.61	1090.22
354.98	1098.65
355.36	1088.12
355.73	1089.29
356.10	1078.52
356.47	1074.07
356.84	1072.67
357.22	1078.52
357.59	1075.94
357.96	1093.50
358.33	1103.33
358.70	1096.78
359.08	1087.65
359.45	1086.48
359.82	1076.18
360.19	1062.14
360.56	1060.50
360.94	1066.11
361.31	1066.35
361.68	1071.03
362.05	1078.05
362.42	1078.75
362.79	1079.92
363.16	1078.52
363.54	1078.99
363.91	1079.92
364.28	1083.90
364.65	1081.33
365.02	1088.82
365.39	1082.26
365.76	1081.56
366.14	1076.18
366.51	1079.22
366.88	1080.39
367.25	1088.82
367.62	1081.33
367.99	1090.46
368.36	1076.41
368.73	1065.41
369.10	1062.37
369.48	1074.77
369.85	1065.41
370.22	1077.35
370.59	1083.90
370.96	1079.69
371.33	1081.80
371.70	1085.31
372.07	1083.90
372.44	1081.33
372.81	1083.43
373.18	1073.60
373.55	1083.90
373.93	1077.58
374.30	1082.03
374.67	1081.33
375.04	1084.60
375.41	1072.43
375.78	1084.84
376.15	1080.86
376.52	1077.58
376.89	1087.18
377.26	1103.80
377.63	1096.07
378.00	1099.12
378.37	1106.14
378.74	1109.18
379.11	1103.56
379.48	1112.92
379.85	1105.20
380.22	1104.03
380.59	1097.48
380.96	1095.84
381.33	1100.99
381.70	1105.90
382.07	1106.84
382.44	1107.54
382.81	1110.35
383.18	1100.52
383.55	1103.56
383.92	1106.37
384.29	1094.67
384.66	1081.80
385.03	1082.73
385.40	1091.16
385.77	1090.92
386.14	1093.26
386.51	1098.41
386.88	1097.48
387.25	1088.58
387.62	1085.07
387.99	1088.12
388.36	1088.35
388.73	1088.82
389.10	1097.01
389.46	1102.86
389.83	1112.22
390.20	1109.65
390.57	1109.18
390.94	1096.78
391.31	1095.37
391.68	1089.99
392.05	1098.41
392.42	1099.12
392.79	1112.22
393.16	1111.75
393.53	1118.31
393.89	1118.07
394.26	1118.78
394.63	1122.75
395.00	1125.33
395.37	1123.69
395.74	1128.61
396.11	1133.76
396.48	1124.63
396.84	1116.67
397.21	1109.65
397.58	1098.41
397.95	1098.41
398.32	1101.92
398.69	1112.46
399.06	1122.99
399.42	1133.52
399.79	1131.88
400.16	1140.54
400.53	1149.20
400.90	1149.91
401.27	1150.37
401.64	1161.37
402.00	1169.33
402.37	1170.50
402.74	1179.40
403.11	1197.42
403.48	1197.18
403.84	1205.84
404.21	1212.87
404.58	1219.42
404.95	1214.04
405.32	1232.99
405.68	1236.51
406.05	1246.57
406.42	1262.95
406.79	1279.80
407.16	1291.74
407.52	1303.68
407.89	1316.08
408.26	1333.40
408.63	1350.49
408.99	1375.30
409.36	1401.28
409.73	1431.47
410.10	1449.49
410.47	1483.67
410.83	1519.48
411.20	1557.39
411.57	1594.61
411.94	1641.89
412.30	1692.44
412.67	1723.10
413.04	1763.36
413.40	1833.34
413.77	1889.51
414.14	1937.26
414.51	2011.69
414.87	2109.99
415.24	2190.74
415.61	2277.34
415.97	2370.73
416.34	2457.56
416.71	2536.91
417.08	2611.80
417.44	2717.36
417.81	2827.13
418.18	2959.61
418.54	3090.21
418.91	3241.41
419.28	3382.31
419.64	3546.85
420.01	3702.96
420.38	3877.33
420.74	4056.38
421.11	4281.31
421.48	4477.44
421.84	4706.58
422.21	4951.87
422.58	5216.12
422.94	5479.90
423.31	5766.85
423.68	6054.97
424.04	6317.11
424.41	6611.78
424.77	6912.30
425.14	7230.15
425.51	7562.27
425.87	7953.14
426.24	8315.46
426.61	8718.26
426.97	9229.20
427.34	9695.67
427.70	10230.25
428.07	10772.32
428.44	11327.49
428.80	11839.60
429.17	12420.99
429.53	12934.03
429.90	13624.02
430.27	14189.03
430.63	14769.01
431.00	15440.75
431.36	16257.36
431.73	16884.16
432.09	17662.15
432.46	18372.50
432.83	19010.53
433.19	19541.37
433.56	20194.38
433.92	20873.60
434.29	21548.84
434.65	22321.69
435.02	23024.32
435.38	23704.24
435.75	24267.14
436.11	24920.15
436.48	25424.07
436.84	25957.95
437.21	26457.88
437.57	26991.99
437.94	27429.91
438.30	27874.14
438.67	28164.37
439.03	28309.25
439.40	28435.64
439.76	28354.65
440.13	28213.75
440.49	28187.54
440.86	28039.15
441.22	27741.43
441.59	27422.89
441.95	27054.49
442.32	26449.69
442.68	25975.73
443.05	25455.90
443.41	24918.75
443.78	24353.74
444.14	23873.93
444.51	23246.67
444.87	22761.24
445.24	22275.11
445.60	21790.15
445.96	21170.38
446.33	20609.82
446.69	19949.09
447.06	19409.83
447.42	18772.27
447.79	18318.67
448.15	17946.06
448.51	17503.93
448.88	17092.46
449.24	16654.78
449.61	16282.40
449.97	15796.51
450.33	15414.53
450.70	14936.13
451.06	14550.41
451.43	14066.39
451.79	13731.45
452.15	13340.59
452.52	13012.21
452.88	12748.90
453.24	12479.74
453.61	12186.23
453.97	11892.26
454.34	11588.93
454.70	11288.87
455.06	11021.58
455.43	10695.78
455.79	10333.00
456.15	10019.37
456.52	9674.60
456.88	9359.57
457.24	9023.94
457.61	8801.12
457.97	8560.74
458.33	8298.14
458.70	8017.04
459.06	7779.24
459.42	7549.87
459.79	7271.81
460.15	7042.91
460.51	6828.51
460.88	6622.31
461.24	6386.62
461.60	6225.59
461.96	6050.52
462.33	5850.87
462.69	5683.99
463.05	5513.13
463.42	5356.55
463.78	5221.27
464.14	5119.92
464.50	4993.53
464.87	4891.25
465.23	4764.63
465.59	4642.69
465.95	4524.49
466.32	4409.10
466.68	4306.82
467.04	4208.99
467.40	4112.79
467.77	4030.17
468.13	3938.65
468.49	3863.52
468.85	3811.09
469.22	3742.28
469.58	3670.43
469.94	3626.19
470.30	3561.83
470.66	3480.38
471.03	3409.69
471.39	3341.35
471.75	3270.66
472.11	3195.30
472.47	3133.74
472.84	3086.93
473.20	3032.40
473.56	2983.95
473.92	2920.52
474.28	2870.90
474.65	2815.43
475.01	2769.79
475.37	2726.72
475.73	2705.89
476.09	2657.91
476.45	2621.17
476.81	2581.14
477.18	2529.89
477.54	2492.67
477.90	2475.35
478.26	2436.03
478.62	2404.90
478.98	2387.11
479.34	2345.92
479.71	2304.02
480.07	2277.58
480.43	2249.96
480.79	2204.32
481.15	2174.12
481.51	2149.08
481.87	2130.36
482.23	2092.67
482.59	2080.74
482.96	2068.80
483.32	2054.99
483.68	2021.99
484.04	2009.82
484.40	1986.18
484.76	1953.18
485.12	1917.60
485.48	1900.05
485.84	1882.73
486.20	1874.30
486.56	1855.58
486.92	1850.43
487.28	1835.45
487.64	1814.62
488.00	1780.68
488.37	1763.13
488.73	1744.17
489.09	1728.95
489.45	1713.97
489.81	1696.89
490.17	1680.74
490.53	1657.80
490.89	1636.27
491.25	1609.35
491.61	1591.33
491.97	1586.88
492.33	1570.27
492.69	1555.29
493.05	1545.92
493.41	1549.43
493.77	1534.46
494.13	1530.71
494.49	1521.82
494.85	1496.77
495.21	1482.26
495.57	1471.03
495.93	1448.32
496.29	1438.03
496.64	1447.86
497.00	1437.56
497.36	1422.34
497.72	1422.58
498.08	1425.62
498.44	1410.17
498.80	1393.79
499.16	1381.62
499.52	1373.19
499.88	1358.45
500.24	1354.00
500.60	1348.62
500.96	1339.49
501.32	1321.70
501.68	1305.55
502.03	1297.83
502.39	1294.08
502.75	1293.38
503.11	1291.04
503.47	1296.42
503.83	1289.40
504.19	1278.63
504.55	1272.32
504.91	1269.04
505.26	1258.04
505.62	1253.82
505.98	1252.42
506.34	1249.14
506.70	1251.72
507.06	1234.40
507.42	1220.82
507.78	1217.08
508.13	1221.76
508.49	1211.23
508.85	1218.01
509.21	1230.19
509.57	1228.55
509.93	1213.57
510.28	1215.21
510.64	1214.04
511.00	1209.59
511.36	1204.44
511.72	1206.31
512.07	1199.29
512.43	1188.52
512.79	1187.59
513.15	1178.46
513.51	1176.12
513.86	1174.48
514.22	1181.97
514.58	1168.63
514.94	1169.33
515.30	1161.61
515.65	1149.44
516.01	1136.10
516.37	1136.10
516.73	1139.61
517.08	1147.80
517.44	1156.93
517.80	1169.10
518.16	1160.67
518.51	1153.88
518.87	1148.73
519.23	1151.08
519.59	1143.59
519.94	1149.91
520.30	1147.33
520.66	1152.25
521.01	1147.33
521.37	1137.50
521.73	1134.93
522.09	1130.95
522.44	1116.67
522.80	1107.54
523.16	1113.86
523.51	1119.24
523.87	1120.18
524.23	1123.22
524.58	1121.35
524.94	1111.52
525.30	1108.95
525.65	1121.82
526.01	1123.93
526.37	1132.82
526.72	1136.56
527.08	1128.37
527.44	1120.65
527.79	1125.56
528.15	1122.75
528.51	1116.44
528.86	1129.07
529.22	1122.75
529.58	1121.12
529.93	1124.39
530.29	1140.31
530.65	1129.07
531.00	1128.37
531.36	1126.03
531.71	1120.88
532.07	1110.58
532.43	1102.63
532.78	1100.99
533.14	1101.92
533.49	1101.22
533.85	1107.54
534.21	1122.29
534.56	1122.99
534.92	1123.93
535.27	1125.80
535.63	1130.71
535.98	1128.37
536.34	1128.61
536.69	1123.22
537.05	1114.56
537.41	1106.84
537.76	1098.65
538.12	1102.16
538.47	1098.88
538.83	1108.01
539.18	1102.63
539.54	1112.69
539.89	1113.39
540.25	1122.99
540.60	1126.03
540.96	1126.73
541.31	1124.39
541.67	1119.71
542.02	1113.16
542.38	1103.09
542.73	1104.97
543.09	1104.73
543.44	1107.31
543.80	1100.99
544.15	1100.99
544.51	1095.84
544.86	1089.99
545.22	1082.26
545.57	1088.82
545.93	1100.99
546.28	1110.82
546.64	1117.84
546.99	1120.88
547.35	1122.52
547.70	1115.50
548.05	1117.14
548.41	1110.82
548.76	1101.92
549.12	1100.52
549.47	1089.52
549.83	1082.03
550.18	1086.71
550.53	1095.60
550.89	1096.31
551.24	1101.46
551.60	1092.80
551.95	1084.60
552.30	1093.03
552.66	1097.48
553.01	1103.56
553.37	1114.33
553.72	1128.37
554.07	1119.48
554.43	1113.16
554.78	1106.84
555.13	1116.67
555.49	1104.97
555.84	1108.48
556.19	1109.18
556.55	1117.14
556.90	1101.69
557.26	1104.50
557.61	1105.20
557.96	1108.24
558.32	1100.99
558.67	1106.61
559.02	1111.05
559.37	1111.75
559.73	1097.48
560.08	1100.05
560.43	1104.73
560.79	1101.92
561.14	1092.80
561.49	1095.60
561.85	1097.48
562.20	1087.88
562.55	1090.92
562.90	1097.48
563.26	1103.80
563.61	1105.67
563.96	1109.18
564.32	1102.16
564.67	1091.63
565.02	1090.22
565.37	1087.65
565.73	1084.60
566.08	1087.18
566.43	1094.20
566.78	1086.01
567.14	1084.14
567.49	1090.46
567.84	1090.22
568.19	1088.82
568.54	1108.24
568.90	1101.22
569.25	1104.03
569.60	1101.22
569.95	1097.71
570.31	1095.14
570.66	1097.24
571.01	1091.39
571.36	1096.78
571.71	1102.16
572.06	1090.22
572.42	1089.29
572.77	1089.05
573.12	1081.56
573.47	1084.14
573.82	1089.99
574.18	1094.67
574.53	1093.03
574.88	1102.86
575.23	1109.18
575.58	1115.27
575.93	1118.78
576.28	1120.65
576.64	1115.50
576.99	1108.48
577.34	1093.26
577.69	1090.92
578.04	1092.33
578.39	1088.35
578.74	1083.43
579.09	1081.56
579.44	1075.94
579.80	1077.35
580.15	1080.63
580.50	1088.35
580.85	1097.01
581.20	1100.52
581.55	1104.26
581.90	1108.48
582.25	1107.54
582.60	1112.92
582.95	1111.99
583.30	1106.37
583.65	1105.67
584.00	1110.12
584.35	1100.99
584.71	1102.63
585.06	1098.18
585.41	1087.65
585.76	1068.45
586.11	1072.90
586.46	1069.62
586.81	1072.67
587.16	1078.75
587.51	1095.37
587.86	1093.73
588.21	1101.46
588.56	1103.33
588.91	1104.50
589.26	1091.63
589.61	1095.14
589.96	1093.03
590.31	1091.63
590.66	1092.80
591.01	1101.69
591.36	1097.71
591.71	1097.95
592.06	1092.33
592.41	1090.22
592.76	1079.69
593.10	1092.56
593.45	1098.65
593.80	1102.86
594.15	1100.29
594.50	1105.90
594.85	1106.37
595.20	1099.82
595.55	1099.35
595.90	1100.52
596.25	1110.82
596.60	1100.05
596.95	1094.20
597.30	1094.67
597.64	1129.78
597.99	1124.39
598.34	1124.63
598.69	1122.05
599.04	1116.90
599.39	1084.84
599.74	1079.22
600.09	1077.82
600.44	1087.65
600.78	1089.99
601.13	1086.94
601.48	1097.95
601.83	1095.84
602.18	1084.60
602.53	1085.54
602.88	1086.71
603.22	1087.65
603.57	1094.20
603.92	1100.05
604.27	1104.50
604.62	1101.46
604.97	1092.33
605.31	1089.05
605.66	1091.16
606.01	1083.43
606.36	1085.31
606.71	1078.28
607.05	1084.14
607.40	1085.31
607.75	1094.20
608.10	1087.88
608.44	1104.97
608.79	1085.31
609.14	1084.14
609.49	1086.94
609.84	1096.78
610.18	1088.82
610.53	1106.37
610.88	1108.48
611.23	1104.97
611.57	1094.43
611.92	1097.71
612.27	1097.24
612.62	1097.24
612.96	1089.05
613.31	1100.05
613.66	1095.60
614.00	1098.18
614.35	1099.82
614.70	1109.18
615.05	1113.86
615.39	1120.88
615.74	1115.73
616.09	1115.73
616.43	1105.67
616.78	1101.46
617.13	1102.39
617.47	1100.05
617.82	1097.95
618.17	1111.99
618.51	1106.37
618.86	1094.20
619.21	1089.05
619.55	1089.29
619.90	1089.05
620.25	1084.37
620.59	1089.99
620.94	1091.39
621.29	1086.01
621.63	1077.35
621.98	1079.22
622.32	1075.71
622.67	1078.99
623.02	1082.26
623.36	1079.22
623.71	1084.60
624.05	1082.03
624.40	1082.50
624.75	1083.43
625.09	1087.18
625.44	1080.39
625.78	1084.84
626.13	1082.50
626.48	1078.52
626.82	1078.28
627.17	1085.54
627.51	1084.37
627.86	1088.82
628.20	1090.46
628.55	1087.88
628.89	1089.99
629.24	1089.52
629.58	1087.41
629.93	1079.46
630.28	1075.24
630.62	1077.58
630.97	1083.20
631.31	1081.56
631.66	1079.69
632.00	1082.03
632.35	1073.14
632.69	1072.90
633.04	1075.24
633.38	1085.54
633.73	1080.39
634.07	1078.99
634.42	1069.16
634.76	1067.52
635.11	1066.35
635.45	1080.63
635.79	1087.18
636.14	1098.18
636.48	1101.92
636.83	1103.56
637.17	1092.56
637.52	1084.84
637.86	1080.63
638.21	1081.56
638.55	1068.22
638.89	1065.65
639.24	1067.99
639.58	1060.26
639.93	1055.58
640.27	1067.75
640.61	1068.69
640.96	1067.52
641.30	1079.46
641.65	1074.77
641.99	1071.97
642.33	1083.43
642.68	1075.48
643.02	1071.03
643.37	1077.35
643.71	1084.37
644.05	1080.16
644.40	1090.69
644.74	1088.82
645.08	1085.31
645.43	1078.52
645.77	1073.84
646.11	1077.35
646.46	1082.03
646.80	1090.46
647.14	1092.09
647.49	1099.35
647.83	1103.56
648.17	1111.05
648.52	1106.14
648.86	1104.03
649.20	1105.44
649.55	1102.16
649.89	1093.97
650.23	1094.67
650.57	1099.12
650.92	1094.67
651.26	1086.71
651.60	1090.22
651.95	1082.97
652.29	1077.58
652.63	1076.88
652.97	1082.97
653.32	1079.69
653.66	1081.33
654.00	1088.58
654.34	1086.71
654.69	1074.77
655.03	1082.73
655.37	1091.39
655.71	1097.95
656.05	1110.12
656.40	1121.82
656.74	1109.88
657.08	1094.67
657.42	1083.20
657.76	1076.18
658.11	1069.62
658.45	1065.18
658.79	1077.35
659.13	1082.97
659.47	1077.35
659.82	1082.73
660.16	1091.39
660.50	1089.75
660.84	1084.84
661.18	1086.71
661.52	1094.67
661.87	1093.03
662.21	1078.52
662.55	1089.05
662.89	1094.67
663.23	1091.86
663.57	1093.50
663.91	1101.69
664.25	1091.86
664.60	1083.43
664.94	1081.56
665.28	1076.88
665.62	1071.73
665.96	1078.99
666.30	1080.63
666.64	1078.75
666.98	1078.52
667.32	1096.31
667.66	1084.14
668.01	1081.33
668.35	1085.31
668.69	1086.01
669.03	1074.31
669.37	1080.39
669.71	1090.22
670.05	1082.73
670.39	1084.14
670.73	1098.65
671.07	1104.73
671.41	1093.73
671.75	1096.07
672.09	1108.24
672.43	1097.24
672.77	1086.94
673.11	1096.78
673.45	1097.01
673.79	1080.86
674.13	1082.50
674.47	1086.94
674.81	1091.86
675.15	1099.12
675.49	1106.61
675.83	1108.95
676.17	1107.31
676.51	1093.97
676.85	1089.05
677.19	1076.65
677.53	1086.24
677.87	1085.07
678.21	1095.60
678.55	1091.86
678.89	1106.61
679.23	1100.99
679.57	1100.99
679.90	1084.14
680.24	1080.39
680.58	1065.41
680.92	1056.05
681.26	1060.96
681.60	1072.90
681.94	1079.22
682.28	1096.78
682.62	1096.07
682.96	1091.39
683.29	1090.92
683.63	1086.48
683.97	1077.82
684.31	1085.77
684.65	1092.56
684.99	1095.60
685.33	1097.48
685.67	1089.29
686.00	1089.29
686.34	1083.90
686.68	1078.28
687.02	1071.97
687.36	1079.69
687.70	1079.46
688.03	1082.97
688.37	1083.90
688.71	1098.18
689.05	1097.71
689.39	1099.82
689.72	1093.26
690.06	1086.94
690.40	1077.35
690.74	1082.50
691.08	1071.73
691.41	1076.88
691.75	1073.14
692.09	1078.75
692.43	1075.48
692.76	1080.16
693.10	1078.05
693.44	1084.84
693.78	1077.82
694.11	1079.92
694.45	1081.09
694.79	1082.73
695.13	1088.58
695.46	1091.63
695.80	1089.99
696.14	1083.67
696.48	1077.58
696.81	1068.92
697.15	1072.67
697.49	1064.71
697.82	1070.09
698.16	1079.22
698.50	1086.94
698.83	1081.09
699.17	1084.60
699.51	1086.24
699.84	1083.43
700.18	1079.92
700.52	1083.90
700.85	1083.20
701.19	1085.54
701.53	1083.67
701.86	1089.29
702.20	1089.75
702.54	1087.18
702.87	1086.24
703.21	1088.82
703.55	1086.71
703.88	1077.35
704.22	1075.48
704.55	1071.73
704.89	1066.11
705.23	1057.45
705.56	1066.35
705.90	1070.33
706.23	1074.54
706.57	1078.75
706.91	1083.20
707.24	1075.24
707.58	1082.03
707.91	1081.56
708.25	1078.52
708.58	1084.84
708.92	1099.82
709.26	1096.54
709.59	1093.97
709.93	1089.52
710.26	1089.05
710.60	1071.97
710.93	1075.71
711.27	1075.48
711.60	1082.50
711.94	1086.01
712.27	1096.31
712.61	1091.63
712.94	1093.50
713.28	1092.56
713.61	1100.05
713.95	1102.16
714.28	1095.60
714.62	1093.97
714.95	1087.65
715.29	1074.54
715.62	1075.94
715.96	1091.63
716.29	1089.99
716.63	1093.50
716.96	1089.75
717.29	1089.05
717.63	1082.97
717.96	1080.16
718.30	1087.18
718.63	1093.73
718.97	1087.88
719.30	1084.37
719.63	1096.78
719.97	1085.07
720.30	1084.84
720.64	1089.99
720.97	1087.18
721.30	1082.97
721.64	1091.39
721.97	1090.92
722.31	1082.97
722.64	1083.20
722.97	1078.05
723.31	1076.41
723.64	1074.07
723.97	1073.60
724.31	1083.43
724.64	1082.26
724.98	1084.60
725.31	1079.92
725.64	1083.90
725.98	1084.84
726.31	1089.05
726.64	1086.24
726.97	1080.63
727.31	1079.22
727.64	1072.20
727.97	1063.54
728.31	1068.45
728.64	1082.97
728.97	1078.75
729.31	1081.80
729.64	1089.05
729.97	1087.41
730.30	1083.20
730.64	1084.84
730.97	1077.11
731.30	1073.14
731.63	1075.48
731.97	1071.03
732.30	1078.99
732.63	1069.16
732.96	1073.37
733.30	1064.24
733.63	1067.99
733.96	1057.45
734.29	1074.31
734.63	1073.14
734.96	1070.09
735.29	1063.31
735.62	1072.67
735.95	1073.37
736.29	1064.71
736.62	1080.39
736.95	1087.41
737.28	1083.43
737.61	1082.03
737.94	1090.69
738.28	1093.97
738.61	1091.86
738.94	1086.01
739.27	1085.07
739.60	1082.97
739.93	1072.20
740.27	1078.52
740.60	1090.69
740.93	1079.69
741.26	1078.05
741.59	1079.92
741.92	1076.88
742.25	1072.90
742.58	1089.75
742.91	1093.03
743.25	1084.60
743.58	1071.50
743.91	1069.86
744.24	1071.73
744.57	1072.20
744.90	1076.65
745.23	1081.80
745.56	1082.50
745.89	1067.28
746.22	1064.94
746.55	1063.54
746.88	1072.43
747.21	1072.20
747.54	1077.11
747.87	1081.80
748.20	1090.22
748.53	1087.65
748.87	1089.52
749.20	1089.29
749.53	1082.03
749.86	1078.75
750.19	1068.69
750.52	1062.60
750.85	1066.82
751.18	1068.45
751.51	1065.18
751.84	1080.16
752.16	1080.39
752.49	1075.24
752.82	1081.56
753.15	1083.90
753.48	1082.73
753.81	1083.20
754.14	1076.65
754.47	1067.99
754.80	1071.03
755.13	1069.86
755.46	1078.99
755.79	1093.73
756.12	1116.44
756.45	1117.37
756.78	1113.39
757.11	1104.50
757.43	1104.26
757.76	1091.39
758.09	1092.33
758.42	1086.71
758.75	1089.05
759.08	1083.67
759.41	1078.52
759.74	1083.20
760.07	1088.35
760.39	1090.22
760.72	1089.99
761.05	1086.94
761.38	1076.88
761.71	1078.52
762.04	1080.39
762.36	1083.67
762.69	1085.77
763.02	1087.18
763.35	1086.71
763.68	1084.14
764.01	1084.84
764.33	1080.16
764.66	1078.05
