SpectraSuite Data File
++++++++++++++++++++++++++++++++++++
Date: Mon Aug 26 10:24:49 PDT 2019
User: corrico
Dark Spectrum Present: No
Reference Spectrum Present: No
Number of Sampled Component Spectra: 1
Spectrometers: USB2+H06089
Integration Time (usec): 10000 (USB2+H06089)
Spectra Averaged: 2 (USB2+H06089)
Boxcar Smoothing: 2 (USB2+H06089)
Correct for Electrical Dark: No (USB2+H06089)
Strobe/Lamp Enabled: No (USB2+H06089)
Correct for Detector Non-linearity: No (USB2+H06089)
Correct for Stray Light: No (USB2+H06089)
Number of Pixels in Processed Spectrum: 2048
>>>>>Begin Processed Spectral Data<<<<<
339.70	1033.35
340.07	1033.35
340.45	988.41
340.82	963.60
341.19	936.92
341.57	905.79
341.94	900.40
342.31	890.57
342.69	883.55
343.06	882.15
343.43	878.64
343.81	885.66
344.18	888.00
344.55	899.23
344.93	911.40
345.30	916.79
345.67	920.53
346.04	928.72
346.42	938.09
346.79	941.13
347.16	953.07
347.54	963.83
347.91	982.32
348.28	989.11
348.65	1004.56
349.03	1028.43
349.40	1040.37
349.77	1043.88
350.14	1046.69
350.52	1040.60
350.89	1035.22
351.26	1044.35
351.63	1057.22
352.01	1058.39
352.38	1076.88
352.75	1086.48
353.12	1082.03
353.50	1081.33
353.87	1102.63
354.24	1098.18
354.61	1098.18
354.98	1098.65
355.36	1097.01
355.73	1077.82
356.10	1077.35
356.47	1082.73
356.84	1088.82
357.22	1083.20
357.59	1100.75
357.96	1103.09
358.33	1110.12
358.70	1106.84
359.08	1108.95
359.45	1088.12
359.82	1080.63
360.19	1066.58
360.56	1060.03
360.94	1062.84
361.31	1079.92
361.68	1088.58
362.05	1089.29
362.42	1094.20
362.79	1087.18
363.16	1089.05
363.54	1089.05
363.91	1093.73
364.28	1089.75
364.65	1097.01
365.02	1084.84
365.39	1078.28
365.76	1079.92
366.14	1089.75
366.51	1099.82
366.88	1106.61
367.25	1105.67
367.62	1097.48
367.99	1096.78
368.36	1093.50
368.73	1091.16
369.10	1091.63
369.48	1095.60
369.85	1086.01
370.22	1076.88
370.59	1072.43
370.96	1079.92
371.33	1085.77
371.70	1085.07
372.07	1082.26
372.44	1083.67
372.81	1081.09
373.18	1071.26
373.55	1072.43
373.93	1074.77
374.30	1078.28
374.67	1080.39
375.04	1083.20
375.41	1093.73
375.78	1087.41
376.15	1083.67
376.52	1093.50
376.89	1095.84
377.26	1082.97
377.63	1089.75
378.00	1094.67
378.37	1082.73
378.74	1081.80
379.11	1086.24
379.48	1086.71
379.85	1092.80
380.22	1090.92
380.59	1086.71
380.96	1091.39
381.33	1089.29
381.70	1084.37
382.07	1081.33
382.44	1081.33
382.81	1078.52
383.18	1081.33
383.55	1083.43
383.92	1092.33
384.29	1097.71
384.66	1098.41
385.03	1099.58
385.40	1100.52
385.77	1098.65
386.14	1094.43
386.51	1100.99
386.88	1100.75
387.25	1091.39
387.62	1094.90
387.99	1098.41
388.36	1091.86
388.73	1096.54
389.10	1104.73
389.46	1104.97
389.83	1108.71
390.20	1110.58
390.57	1112.46
390.94	1113.63
391.31	1107.78
391.68	1100.75
392.05	1104.03
392.42	1098.88
392.79	1091.16
393.16	1087.18
393.53	1092.80
393.89	1093.50
394.26	1096.78
394.63	1112.92
395.00	1118.07
395.37	1117.84
395.74	1124.39
396.11	1132.12
396.48	1133.05
396.84	1132.35
397.21	1137.03
397.58	1135.16
397.95	1129.54
398.32	1121.12
398.69	1127.90
399.06	1128.14
399.42	1122.99
399.79	1134.93
400.16	1133.76
400.53	1143.59
400.90	1137.50
401.27	1149.67
401.64	1151.78
402.00	1158.33
402.37	1162.54
402.74	1174.95
403.11	1178.23
403.48	1184.31
403.84	1188.52
404.21	1188.29
404.58	1206.31
404.95	1203.27
405.32	1207.01
405.68	1224.10
406.05	1237.68
406.42	1250.55
406.79	1267.63
407.16	1276.29
407.52	1291.27
407.89	1307.66
408.26	1323.10
408.63	1341.83
408.99	1368.75
409.36	1385.13
409.73	1410.41
410.10	1433.58
410.47	1465.41
410.83	1502.39
411.20	1537.97
411.57	1576.82
411.94	1614.27
412.30	1655.93
412.67	1685.19
413.04	1734.57
413.40	1784.66
413.77	1836.38
414.14	1896.77
414.51	1971.43
414.87	2052.42
415.24	2127.78
415.61	2209.00
415.97	2288.34
416.34	2375.88
416.71	2476.05
417.08	2558.44
417.44	2645.27
417.81	2766.28
418.18	2878.62
418.54	2989.10
418.91	3129.53
419.28	3294.54
419.64	3443.63
420.01	3611.68
420.38	3795.18
420.74	3959.25
421.11	4157.26
421.48	4356.44
421.84	4549.30
422.21	4744.73
422.58	5012.26
422.94	5250.76
423.31	5491.60
423.68	5781.83
424.04	6073.69
424.41	6363.92
424.77	6659.99
425.14	6986.97
425.51	7305.75
425.87	7658.00
426.24	8015.16
426.61	8410.25
426.97	8873.91
427.34	9317.91
427.70	9792.80
428.07	10270.74
428.44	10801.34
428.80	11276.23
429.17	11806.13
429.53	12369.97
429.90	13000.51
430.27	13554.74
430.63	14122.09
431.00	14805.53
431.36	15543.26
431.73	16149.93
432.09	16838.05
432.46	17559.87
432.83	18100.77
433.19	18602.34
433.56	19289.99
433.92	19910.00
434.29	20520.88
434.65	21316.43
435.02	21944.39
435.38	22590.62
435.75	23121.92
436.11	23767.67
436.48	24164.86
436.84	24709.74
437.21	25122.61
437.57	25638.93
437.94	26066.08
438.30	26535.12
438.67	26802.88
439.03	26970.70
439.40	27134.77
439.76	27024.76
440.13	26894.39
440.49	26884.10
440.86	26673.45
441.22	26398.20
441.59	26032.84
441.95	25705.64
442.32	25133.84
442.68	24729.40
443.05	24162.99
443.41	23722.27
443.78	23125.20
444.14	22663.64
444.51	22104.96
444.87	21728.83
445.24	21290.22
445.60	20891.86
445.96	20313.04
446.33	19796.72
446.69	19157.52
447.06	18619.66
447.42	18022.83
447.79	17509.78
448.15	17096.68
448.51	16618.74
448.88	16234.42
449.24	15769.13
449.61	15487.79
449.97	15108.16
450.33	14761.99
450.70	14292.48
451.06	13987.74
451.43	13513.79
451.79	13136.72
452.15	12795.24
452.52	12512.97
452.88	12204.02
453.24	11967.39
453.61	11696.59
453.97	11422.28
454.34	11102.80
454.70	10867.58
455.06	10597.95
455.43	10275.42
455.79	9922.47
456.15	9628.73
456.52	9258.22
456.88	8967.53
457.24	8665.13
457.61	8463.38
457.97	8230.49
458.33	7999.01
458.70	7745.07
459.06	7496.74
459.42	7258.94
459.79	6985.56
460.15	6785.92
460.51	6550.69
460.88	6341.92
461.24	6140.40
461.60	5966.49
461.96	5777.38
462.33	5624.31
462.69	5480.60
463.05	5328.00
463.42	5201.14
463.78	5059.07
464.14	4939.23
464.50	4845.14
464.87	4735.37
465.23	4597.98
465.59	4492.66
465.95	4371.42
466.32	4263.52
466.68	4171.54
467.04	4102.96
467.40	4013.08
467.77	3932.80
468.13	3851.35
468.49	3769.90
468.85	3719.35
469.22	3662.70
469.58	3606.06
469.94	3543.57
470.30	3466.57
470.66	3376.92
471.03	3321.69
471.39	3248.66
471.75	3177.75
472.11	3129.76
472.47	3076.87
472.84	2998.46
473.20	2949.08
473.56	2887.75
473.92	2833.45
474.28	2794.83
474.65	2752.24
475.01	2717.83
475.37	2670.55
475.73	2618.36
476.09	2569.44
476.45	2533.40
476.81	2487.05
477.18	2462.95
477.54	2451.71
477.90	2431.35
478.26	2390.39
478.62	2355.98
478.98	2315.73
479.34	2271.26
479.71	2229.13
480.07	2210.64
480.43	2189.10
480.79	2167.34
481.15	2151.19
481.51	2131.76
481.87	2109.99
482.23	2069.27
482.59	2040.48
482.96	2009.82
483.32	1979.63
483.68	1953.88
484.04	1932.35
484.40	1915.03
484.76	1899.34
485.12	1881.32
485.48	1869.85
485.84	1868.22
486.20	1847.62
486.56	1825.85
486.92	1804.79
487.28	1784.42
487.64	1754.93
488.00	1742.29
488.37	1716.55
488.73	1702.27
489.09	1685.19
489.45	1669.50
489.81	1642.35
490.17	1635.10
490.53	1619.18
490.89	1603.03
491.25	1586.65
491.61	1588.99
491.97	1577.29
492.33	1570.50
492.69	1546.39
493.05	1537.03
493.41	1523.92
493.77	1512.69
494.13	1502.86
494.49	1490.45
494.85	1484.37
495.21	1460.73
495.57	1432.41
495.93	1407.60
496.29	1408.30
496.64	1407.13
497.00	1411.34
497.36	1411.81
497.72	1410.87
498.08	1387.24
498.44	1361.26
498.80	1343.70
499.16	1334.34
499.52	1327.79
499.88	1322.17
500.24	1323.81
500.60	1317.96
500.96	1311.17
501.32	1301.34
501.68	1308.59
502.03	1302.98
502.39	1296.89
502.75	1295.25
503.11	1289.40
503.47	1274.42
503.83	1262.72
504.19	1256.40
504.55	1253.36
504.91	1244.93
505.26	1254.06
505.62	1248.68
505.98	1237.91
506.34	1219.65
506.70	1226.91
507.06	1205.84
507.42	1209.59
507.78	1214.27
508.13	1228.08
508.49	1228.78
508.85	1236.97
509.21	1227.61
509.57	1215.44
509.93	1209.35
510.28	1193.44
510.64	1194.61
511.00	1192.27
511.36	1198.59
511.72	1189.69
512.07	1195.78
512.43	1188.99
512.79	1197.18
513.15	1198.82
513.51	1209.59
513.86	1202.57
514.22	1195.78
514.58	1175.42
514.94	1170.03
515.30	1158.57
515.65	1157.63
516.01	1159.27
516.37	1163.71
516.73	1161.84
517.08	1161.37
517.44	1157.86
517.80	1150.37
518.16	1155.05
518.51	1153.65
518.87	1149.67
519.23	1158.57
519.59	1163.01
519.94	1157.16
520.30	1159.03
520.66	1164.42
521.01	1155.29
521.37	1148.97
521.73	1154.12
522.09	1148.73
522.44	1142.88
522.80	1144.05
523.16	1142.88
523.51	1134.69
523.87	1128.61
524.23	1123.93
524.58	1105.90
524.94	1106.84
525.30	1112.46
525.65	1130.71
526.01	1131.65
526.37	1143.12
526.72	1140.78
527.08	1139.37
527.44	1120.65
527.79	1113.39
528.15	1110.35
528.51	1108.48
528.86	1111.05
529.22	1108.95
529.58	1110.82
529.93	1106.37
530.29	1112.22
530.65	1112.22
531.00	1107.54
531.36	1113.63
531.71	1123.93
532.07	1118.31
532.43	1115.27
532.78	1127.20
533.14	1120.88
533.49	1113.86
533.85	1126.50
534.21	1121.82
534.56	1106.61
534.92	1115.97
535.27	1115.97
535.63	1100.99
535.98	1109.41
536.34	1115.73
536.69	1105.44
537.05	1104.50
537.41	1104.26
537.76	1103.33
538.12	1105.44
538.47	1105.44
538.83	1107.78
539.18	1107.78
539.54	1085.31
539.89	1080.63
540.25	1086.48
540.60	1077.82
540.96	1084.60
541.31	1099.35
541.67	1106.84
542.02	1113.63
542.38	1123.69
542.73	1124.16
543.09	1123.46
543.44	1118.31
543.80	1108.24
544.15	1107.54
544.51	1100.75
544.86	1091.39
545.22	1104.50
545.57	1113.63
545.93	1109.65
546.28	1109.41
546.64	1122.29
546.99	1123.93
547.35	1112.69
547.70	1105.90
548.05	1098.18
548.41	1098.88
548.76	1089.05
549.12	1093.50
549.47	1100.99
549.83	1118.07
550.18	1121.82
550.53	1131.65
550.89	1132.59
551.24	1140.54
551.60	1127.20
551.95	1110.35
552.30	1098.41
552.66	1097.48
553.01	1088.82
553.37	1104.73
553.72	1113.63
554.07	1115.03
554.43	1112.69
554.78	1115.97
555.13	1104.26
555.49	1107.54
555.84	1100.75
556.19	1102.63
556.55	1111.05
556.90	1104.73
557.26	1099.12
557.61	1104.50
557.96	1093.50
558.32	1077.35
558.67	1087.41
559.02	1093.03
559.37	1094.20
559.73	1108.48
560.08	1116.20
560.43	1110.58
560.79	1103.33
561.14	1101.69
561.49	1095.60
561.85	1092.33
562.20	1098.18
562.55	1098.18
562.90	1097.71
563.26	1107.31
563.61	1117.37
563.96	1113.86
564.32	1118.54
564.67	1124.63
565.02	1113.63
565.37	1102.39
565.73	1105.90
566.08	1103.80
566.43	1096.78
566.78	1103.33
567.14	1108.48
567.49	1106.14
567.84	1097.71
568.19	1098.18
568.54	1096.78
568.90	1087.88
569.25	1093.26
569.60	1103.33
569.95	1105.90
570.31	1105.44
570.66	1111.52
571.01	1110.35
571.36	1114.10
571.71	1106.37
572.06	1103.09
572.42	1105.44
572.77	1106.37
573.12	1102.16
573.47	1099.82
573.82	1103.56
574.18	1098.65
574.53	1094.43
574.88	1093.03
575.23	1102.16
575.58	1102.39
575.93	1105.20
576.28	1107.07
576.64	1101.46
576.99	1114.56
577.34	1115.50
577.69	1114.10
578.04	1116.67
578.39	1117.61
578.74	1097.71
579.09	1089.05
579.44	1077.82
579.80	1069.39
580.15	1079.22
580.50	1084.84
580.85	1089.29
581.20	1107.78
581.55	1116.67
581.90	1106.61
582.25	1104.50
582.60	1099.58
582.95	1095.60
583.30	1078.28
583.65	1083.20
584.00	1096.78
584.35	1109.65
584.71	1111.99
585.06	1128.61
585.41	1125.56
585.76	1114.33
586.11	1106.61
586.46	1097.01
586.81	1081.80
587.16	1090.22
587.51	1087.18
587.86	1086.71
588.21	1089.99
588.56	1099.58
588.91	1095.84
589.26	1101.22
589.61	1093.73
589.96	1099.12
590.31	1102.86
590.66	1100.75
591.01	1094.43
591.36	1099.12
591.71	1089.75
592.06	1092.80
592.41	1092.56
592.76	1098.41
593.10	1096.07
593.45	1108.01
593.80	1107.31
594.15	1096.78
594.50	1090.46
594.85	1091.16
595.20	1083.20
595.55	1085.77
595.90	1096.31
596.25	1101.46
596.60	1099.82
596.95	1097.48
597.30	1092.80
597.64	1146.39
597.99	1144.99
598.34	1151.78
598.69	1152.25
599.04	1152.48
599.39	1100.52
599.74	1103.33
600.09	1100.52
600.44	1102.86
600.78	1105.44
601.13	1105.67
601.48	1105.44
601.83	1104.97
602.18	1113.39
602.53	1113.86
602.88	1106.14
603.22	1100.29
603.57	1097.48
603.92	1095.14
604.27	1088.58
604.62	1103.33
604.97	1104.03
605.31	1102.86
605.66	1085.07
606.01	1087.65
606.36	1072.67
606.71	1077.35
607.05	1081.09
607.40	1084.37
607.75	1075.48
608.10	1082.26
608.44	1084.14
608.79	1079.92
609.14	1081.80
609.49	1083.43
609.84	1079.46
610.18	1076.65
610.53	1078.75
610.88	1086.71
611.23	1096.78
611.57	1110.82
611.92	1113.16
612.27	1115.03
612.62	1118.07
612.96	1123.46
613.31	1113.39
613.66	1103.09
614.00	1092.09
614.35	1093.73
614.70	1088.12
615.05	1089.75
615.39	1100.05
615.74	1102.86
616.09	1093.97
616.43	1092.56
616.78	1086.01
617.13	1087.18
617.47	1102.16
617.82	1107.54
618.17	1105.20
618.51	1111.75
618.86	1100.52
619.21	1100.29
619.55	1101.22
619.90	1098.65
620.25	1098.65
620.59	1103.56
620.94	1104.26
621.29	1103.56
621.63	1105.90
621.98	1108.95
622.32	1117.14
622.67	1115.27
623.02	1107.78
623.36	1103.09
623.71	1101.46
624.05	1092.56
624.40	1081.80
624.75	1077.11
625.09	1078.75
625.44	1064.94
625.78	1074.07
626.13	1082.26
626.48	1087.65
626.82	1089.75
627.17	1100.75
627.51	1098.65
627.86	1094.20
628.20	1097.48
628.55	1097.24
628.89	1093.03
629.24	1088.12
629.58	1095.14
629.93	1102.39
630.28	1096.31
630.62	1091.63
630.97	1093.73
631.31	1089.99
631.66	1086.94
632.00	1086.48
632.35	1089.75
632.69	1083.43
633.04	1082.03
633.38	1076.65
633.73	1076.18
634.07	1089.05
634.42	1094.20
634.76	1097.24
635.11	1096.07
635.45	1103.09
635.79	1092.33
636.14	1091.63
636.48	1093.03
636.83	1100.75
637.17	1108.01
637.52	1112.46
637.86	1111.52
638.21	1107.31
638.55	1094.20
638.89	1081.09
639.24	1076.18
639.58	1075.71
639.93	1078.05
640.27	1079.46
640.61	1084.14
640.96	1078.28
641.30	1080.39
641.65	1071.97
641.99	1085.54
642.33	1082.97
642.68	1091.39
643.02	1089.29
643.37	1098.41
643.71	1088.12
644.05	1084.60
644.40	1079.69
644.74	1072.43
645.08	1065.41
645.43	1071.26
645.77	1078.99
646.11	1086.24
646.46	1102.16
646.80	1104.50
647.14	1101.22
647.49	1095.37
647.83	1090.46
648.17	1080.16
648.52	1088.12
648.86	1090.69
649.20	1095.60
649.55	1099.58
649.89	1111.29
650.23	1100.52
650.57	1094.90
650.92	1085.54
651.26	1075.94
651.60	1069.16
651.95	1072.43
652.29	1072.90
652.63	1082.97
652.97	1091.63
653.32	1092.09
653.66	1093.97
654.00	1089.05
654.34	1087.18
654.69	1083.20
655.03	1078.75
655.37	1085.54
655.71	1091.39
656.05	1088.58
656.40	1091.39
656.74	1099.12
657.08	1089.05
657.42	1090.22
657.76	1095.60
658.11	1094.43
658.45	1085.77
658.79	1076.41
659.13	1076.41
659.47	1062.84
659.82	1065.65
660.16	1067.28
660.50	1074.31
660.84	1077.35
661.18	1083.90
661.52	1085.31
661.87	1086.71
662.21	1090.22
662.55	1094.43
662.89	1098.88
663.23	1089.05
663.57	1081.80
663.91	1080.16
664.25	1075.94
664.60	1071.26
664.94	1072.67
665.28	1078.28
665.62	1072.20
665.96	1071.03
666.30	1068.69
666.64	1066.11
666.98	1061.67
667.32	1068.92
667.66	1070.80
668.01	1066.58
668.35	1067.99
668.69	1075.94
669.03	1078.05
669.37	1082.73
669.71	1090.22
670.05	1086.24
670.39	1076.65
670.73	1071.03
671.07	1060.96
671.41	1061.67
671.75	1076.18
672.09	1085.31
672.43	1095.37
672.77	1101.92
673.11	1107.31
673.45	1098.65
673.79	1104.26
674.13	1094.67
674.47	1093.97
674.81	1089.99
675.15	1091.86
675.49	1081.09
675.83	1088.82
676.17	1097.71
676.51	1109.18
676.85	1109.65
677.19	1115.27
677.53	1118.54
677.87	1114.56
678.21	1095.14
678.55	1092.33
678.89	1083.67
679.23	1081.80
679.57	1075.24
679.90	1079.92
680.24	1089.05
680.58	1090.22
680.92	1083.20
681.26	1076.88
681.60	1078.05
681.94	1084.84
682.28	1091.63
682.62	1093.50
682.96	1095.37
683.29	1093.03
683.63	1070.80
683.97	1077.11
684.31	1079.46
684.65	1081.09
684.99	1087.18
685.33	1090.69
685.67	1080.86
686.00	1078.75
686.34	1080.63
686.68	1076.65
687.02	1083.20
687.36	1085.31
687.70	1090.92
688.03	1093.73
688.37	1090.92
688.71	1089.75
689.05	1083.90
689.39	1075.01
689.72	1063.54
690.06	1068.45
690.40	1064.94
690.74	1069.62
691.08	1065.41
691.41	1074.31
691.75	1066.82
692.09	1069.62
692.43	1073.60
692.76	1078.75
693.10	1076.18
693.44	1071.73
693.78	1071.97
694.11	1071.50
694.45	1079.46
694.79	1081.09
695.13	1104.26
695.46	1106.61
695.80	1106.37
696.14	1100.05
696.48	1104.97
696.81	1091.86
697.15	1085.77
697.49	1080.86
697.82	1078.75
698.16	1079.69
698.50	1078.75
698.83	1078.05
699.17	1075.24
699.51	1075.01
699.84	1068.45
700.18	1071.73
700.52	1076.65
700.85	1083.90
701.19	1080.86
701.53	1080.86
701.86	1084.84
702.20	1087.41
702.54	1092.80
702.87	1106.37
703.21	1102.39
703.55	1100.05
703.88	1104.26
704.22	1093.73
704.55	1085.31
704.89	1082.73
705.23	1071.73
705.56	1058.39
705.90	1056.52
706.23	1053.94
706.57	1052.30
706.91	1065.88
707.24	1073.84
707.58	1079.46
707.91	1078.75
708.25	1085.07
708.58	1079.69
708.92	1083.67
709.26	1087.41
709.59	1084.37
709.93	1076.88
710.26	1071.26
710.60	1070.56
710.93	1067.75
711.27	1072.90
711.60	1086.48
711.94	1095.14
712.27	1090.46
712.61	1096.31
712.94	1102.86
713.28	1100.05
713.61	1097.71
713.95	1101.22
714.28	1101.22
714.62	1092.33
714.95	1093.97
715.29	1087.18
715.62	1082.97
715.96	1072.90
716.29	1079.46
716.63	1079.92
716.96	1085.31
717.29	1081.56
717.63	1067.75
717.96	1066.11
718.30	1066.11
718.63	1066.82
718.97	1079.92
719.30	1095.60
719.63	1097.71
719.97	1099.12
720.30	1097.48
720.64	1079.69
720.97	1073.60
721.30	1074.54
721.64	1068.45
721.97	1067.05
722.31	1075.01
722.64	1086.01
722.97	1082.73
723.31	1077.11
723.64	1079.69
723.97	1080.16
724.31	1078.05
724.64	1078.05
724.98	1087.18
725.31	1086.24
725.64	1089.29
725.98	1087.88
726.31	1083.90
726.64	1078.52
726.97	1083.67
727.31	1089.52
727.64	1096.78
727.97	1092.80
728.31	1105.20
728.64	1100.29
728.97	1084.84
729.31	1075.71
729.64	1087.41
729.97	1077.58
730.30	1075.48
730.64	1088.35
730.97	1088.82
731.30	1091.39
731.63	1086.94
731.97	1089.75
732.30	1083.20
732.63	1083.67
732.96	1075.24
733.30	1084.60
733.63	1094.20
733.96	1094.67
734.29	1087.18
734.63	1084.37
734.96	1084.84
735.29	1078.52
735.62	1083.43
735.95	1088.58
736.29	1093.50
736.62	1084.14
736.95	1081.80
737.28	1079.22
737.61	1082.97
737.94	1078.28
738.28	1079.46
738.61	1071.73
738.94	1066.58
739.27	1060.26
739.60	1064.01
739.93	1061.90
740.27	1067.99
740.60	1067.99
740.93	1072.67
741.26	1073.84
741.59	1075.71
741.92	1075.24
742.25	1080.86
742.58	1076.88
742.91	1074.54
743.25	1076.41
743.58	1080.16
743.91	1082.26
744.24	1090.22
744.57	1084.84
744.90	1094.67
745.23	1099.58
745.56	1090.92
745.89	1087.18
746.22	1094.67
746.55	1085.77
746.88	1068.92
747.21	1063.54
747.54	1049.96
747.87	1047.16
748.20	1044.58
748.53	1049.50
748.87	1063.31
749.20	1075.01
749.53	1074.07
749.86	1080.39
750.19	1088.35
750.52	1089.05
750.85	1087.41
751.18	1086.71
751.51	1090.69
751.84	1089.75
752.16	1084.14
752.49	1086.94
752.82	1086.01
753.15	1073.14
753.48	1074.54
753.81	1074.31
754.14	1070.80
754.47	1084.37
754.80	1090.46
755.13	1086.48
755.46	1092.33
755.79	1093.26
756.12	1077.58
756.45	1080.16
756.78	1074.07
757.11	1071.26
757.43	1072.90
757.76	1078.52
758.09	1078.05
758.42	1090.22
758.75	1090.92
759.08	1099.58
759.41	1107.31
759.74	1109.18
760.07	1108.24
760.39	1100.29
760.72	1102.63
761.05	1096.78
761.38	1088.35
761.71	1073.37
762.04	1082.73
762.36	1071.73
762.69	1076.41
763.02	1077.11
763.35	1081.09
763.68	1082.97
764.01	1090.92
764.33	1079.22
764.66	1084.60
