SpectraSuite Data File
++++++++++++++++++++++++++++++++++++
Date: Mon Aug 26 10:24:51 PDT 2019
User: corrico
Dark Spectrum Present: No
Reference Spectrum Present: No
Number of Sampled Component Spectra: 1
Spectrometers: USB2+H06089
Integration Time (usec): 10000 (USB2+H06089)
Spectra Averaged: 2 (USB2+H06089)
Boxcar Smoothing: 2 (USB2+H06089)
Correct for Electrical Dark: No (USB2+H06089)
Strobe/Lamp Enabled: No (USB2+H06089)
Correct for Detector Non-linearity: No (USB2+H06089)
Correct for Stray Light: No (USB2+H06089)
Number of Pixels in Processed Spectrum: 2048
>>>>>Begin Processed Spectral Data<<<<<
339.70	1038.03
340.07	1038.03
340.45	989.34
340.82	976.00
341.19	945.34
341.57	919.83
341.94	910.23
342.31	902.74
342.69	883.08
343.06	879.34
343.43	883.32
343.81	882.62
344.18	891.28
344.55	903.91
344.93	915.38
345.30	917.72
345.67	923.34
346.04	935.04
346.42	939.02
346.79	941.13
347.16	957.51
347.54	977.17
347.91	988.17
348.28	1005.26
348.65	1024.22
349.03	1031.71
349.40	1045.28
349.77	1054.18
350.14	1053.01
350.52	1062.14
350.89	1058.62
351.26	1055.82
351.63	1059.33
352.01	1073.14
352.38	1075.94
352.75	1085.07
353.12	1088.12
353.50	1086.01
353.87	1091.16
354.24	1092.80
354.61	1095.60
354.98	1104.73
355.36	1113.39
355.73	1102.16
356.10	1100.05
356.47	1103.09
356.84	1103.33
357.22	1108.24
357.59	1116.20
357.96	1120.18
358.33	1112.22
358.70	1093.97
359.08	1087.41
359.45	1075.24
359.82	1068.45
360.19	1064.01
360.56	1077.82
360.94	1077.11
361.31	1078.52
361.68	1081.80
362.05	1087.41
362.42	1087.41
362.79	1079.22
363.16	1084.60
363.54	1080.16
363.91	1086.94
364.28	1083.90
364.65	1087.41
365.02	1093.50
365.39	1097.24
365.76	1096.54
366.14	1095.14
366.51	1097.95
366.88	1093.03
367.25	1095.60
367.62	1098.88
367.99	1100.75
368.36	1103.80
368.73	1108.48
369.10	1108.95
369.48	1096.54
369.85	1102.63
370.22	1100.75
370.59	1100.52
370.96	1099.58
371.33	1108.01
371.70	1111.29
372.07	1109.88
372.44	1104.26
372.81	1104.97
373.18	1097.71
373.55	1083.20
373.93	1075.94
374.30	1087.18
374.67	1091.86
375.04	1090.69
375.41	1095.84
375.78	1107.54
376.15	1085.31
376.52	1082.26
376.89	1089.75
377.26	1098.65
377.63	1086.94
378.00	1101.69
378.37	1101.22
378.74	1089.75
379.11	1090.46
379.48	1091.63
379.85	1097.71
380.22	1093.03
380.59	1098.18
380.96	1090.69
381.33	1089.99
381.70	1080.16
382.07	1083.90
382.44	1084.37
382.81	1090.92
383.18	1095.37
383.55	1090.22
383.92	1087.88
384.29	1091.63
384.66	1091.86
385.03	1095.14
385.40	1097.01
385.77	1095.37
386.14	1099.82
386.51	1099.35
386.88	1105.20
387.25	1115.27
387.62	1124.39
387.99	1117.61
388.36	1113.16
388.73	1100.05
389.10	1098.65
389.46	1091.39
389.83	1095.37
390.20	1100.99
390.57	1103.33
390.94	1102.86
391.31	1102.86
391.68	1113.16
392.05	1114.33
392.42	1119.24
392.79	1113.39
393.16	1121.35
393.53	1099.82
393.89	1094.43
394.26	1096.31
394.63	1094.20
395.00	1096.07
395.37	1113.63
395.74	1116.67
396.11	1124.39
396.48	1130.01
396.84	1127.90
397.21	1132.35
397.58	1124.39
397.95	1123.22
398.32	1127.20
398.69	1125.56
399.06	1122.05
399.42	1132.59
399.79	1144.52
400.16	1149.67
400.53	1153.18
400.90	1152.95
401.27	1166.99
401.64	1163.71
402.00	1157.16
402.37	1161.14
402.74	1163.01
403.11	1158.57
403.48	1159.97
403.84	1173.54
404.21	1183.14
404.58	1191.80
404.95	1192.97
405.32	1205.61
405.68	1218.72
406.05	1225.50
406.42	1243.76
406.79	1271.14
407.16	1285.66
407.52	1296.89
407.89	1322.17
408.26	1342.77
408.63	1354.23
408.99	1383.96
409.36	1416.02
409.73	1426.79
410.10	1445.28
410.47	1470.32
410.83	1500.28
411.20	1537.50
411.57	1593.67
411.94	1636.27
412.30	1694.08
412.67	1732.00
413.04	1779.74
413.40	1824.45
413.77	1893.49
414.14	1939.60
414.51	1985.71
414.87	2033.46
415.24	2110.70
415.61	2197.06
415.97	2284.36
416.34	2385.47
416.71	2484.71
417.08	2571.31
417.44	2657.91
417.81	2780.09
418.18	2902.03
418.54	3061.89
418.91	3217.07
419.28	3355.39
419.64	3506.36
420.01	3672.30
420.38	3809.92
420.74	3977.97
421.11	4194.71
421.48	4394.36
421.84	4611.32
422.21	4856.38
422.58	5097.45
422.94	5325.42
423.31	5565.79
423.68	5830.98
424.04	6133.37
424.41	6444.67
424.77	6741.21
425.14	7065.38
425.51	7415.75
425.87	7775.03
426.24	8140.15
426.61	8540.38
426.97	9022.30
427.34	9449.91
427.70	9930.19
428.07	10416.79
428.44	10939.66
428.80	11420.18
429.17	11977.46
429.53	12460.31
429.90	13083.36
430.27	13631.98
430.63	14216.65
431.00	14891.19
431.36	15694.23
431.73	16326.87
432.09	17058.53
432.46	17789.24
432.83	18417.21
433.19	18892.34
433.56	19535.28
433.92	20204.21
434.29	20783.72
434.65	21444.92
435.02	22120.17
435.38	22770.37
435.75	23273.35
436.11	23968.49
436.48	24437.30
436.84	24953.39
437.21	25404.41
437.57	25907.86
437.94	26322.60
438.30	26783.22
438.67	27098.96
439.03	27278.01
439.40	27444.65
439.76	27335.12
440.13	27251.09
440.49	27196.56
440.86	26994.33
441.22	26717.45
441.59	26382.99
441.95	25989.31
442.32	25445.84
442.68	25030.86
443.05	24518.28
443.41	24011.32
443.78	23374.46
444.14	22848.31
444.51	22221.51
444.87	21782.66
445.24	21323.68
445.60	20917.13
445.96	20337.15
446.33	19865.53
446.69	19237.10
447.06	18661.09
447.42	18104.75
447.79	17628.21
448.15	17184.92
448.51	16679.13
448.88	16284.98
449.24	15829.04
449.61	15497.86
449.97	15105.58
450.33	14741.40
450.70	14306.06
451.06	13964.57
451.43	13536.02
451.79	13158.26
452.15	12824.50
452.52	12514.14
452.88	12226.26
453.24	11972.78
453.61	11684.42
453.97	11415.96
454.34	11129.95
454.70	10854.23
455.06	10601.69
455.43	10303.27
455.79	9940.02
456.15	9646.75
456.52	9318.61
456.88	9029.08
457.24	8758.52
457.61	8582.74
457.97	8344.71
458.33	8107.15
458.70	7838.22
459.06	7547.99
459.42	7279.07
459.79	7024.18
460.15	6808.85
460.51	6564.03
460.88	6369.30
461.24	6164.97
461.60	6010.96
461.96	5830.04
462.33	5666.67
462.69	5542.62
463.05	5413.89
463.42	5240.23
463.78	5100.73
464.14	4976.68
464.50	4853.10
464.87	4727.18
465.23	4622.56
465.59	4511.15
465.95	4406.99
466.32	4283.18
466.68	4181.13
467.04	4096.87
467.40	4016.13
467.77	3937.02
468.13	3863.29
468.49	3786.05
468.85	3719.58
469.22	3648.90
469.58	3585.70
469.94	3527.66
470.30	3448.78
470.66	3384.41
471.03	3307.65
471.39	3245.85
471.75	3187.34
472.11	3151.30
472.47	3093.95
472.84	3045.04
473.20	2985.59
473.56	2939.24
473.92	2877.45
474.28	2822.45
474.65	2790.62
475.01	2746.85
475.37	2693.96
475.73	2649.95
476.09	2608.53
476.45	2560.31
476.81	2526.37
477.18	2477.69
477.54	2442.11
477.90	2418.94
478.26	2394.84
478.62	2365.58
478.98	2341.94
479.34	2329.77
479.71	2286.24
480.07	2244.34
480.43	2209.70
480.79	2192.38
481.15	2148.38
481.51	2139.48
481.87	2123.33
482.23	2098.76
482.59	2067.63
482.96	2043.52
483.32	2012.16
483.68	1986.65
484.04	1959.73
484.40	1936.79
484.76	1913.86
485.12	1890.92
485.48	1878.98
485.84	1868.92
486.20	1867.75
486.56	1861.66
486.92	1845.75
487.28	1828.66
487.64	1801.98
488.00	1767.81
488.37	1745.57
488.73	1728.95
489.09	1702.27
489.45	1691.74
489.81	1669.97
490.17	1651.25
490.53	1636.97
490.89	1604.44
491.25	1596.01
491.61	1579.86
491.97	1573.78
492.33	1552.71
492.69	1556.46
493.05	1534.22
493.41	1524.16
493.77	1510.11
494.13	1498.41
494.49	1478.75
494.85	1469.86
495.21	1463.54
495.57	1444.34
495.93	1426.32
496.29	1423.05
496.64	1412.51
497.00	1405.73
497.36	1405.26
497.72	1411.11
498.08	1398.94
498.44	1395.43
498.80	1381.38
499.16	1359.85
499.52	1349.32
499.88	1353.30
500.24	1343.47
500.60	1336.91
500.96	1341.60
501.32	1336.68
501.68	1326.15
502.03	1319.13
502.39	1317.72
502.75	1303.21
503.11	1302.51
503.47	1300.17
503.83	1297.83
504.19	1292.44
504.55	1287.53
504.91	1271.85
505.26	1253.59
505.62	1238.14
505.98	1235.57
506.34	1235.33
506.70	1241.19
507.06	1237.68
507.42	1237.21
507.78	1229.95
508.13	1223.16
508.49	1211.93
508.85	1210.76
509.21	1211.46
509.57	1208.65
509.93	1204.91
510.28	1207.48
510.64	1200.46
511.00	1199.99
511.36	1210.29
511.72	1215.67
512.07	1211.23
512.43	1211.70
512.79	1205.84
513.15	1191.10
513.51	1179.40
513.86	1177.99
514.22	1172.61
514.58	1156.93
514.94	1148.50
515.30	1148.27
515.65	1147.10
516.01	1150.37
516.37	1159.97
516.73	1160.67
517.08	1170.27
517.44	1170.74
517.80	1176.82
518.16	1184.78
518.51	1186.89
518.87	1181.97
519.23	1169.10
519.59	1162.08
519.94	1150.14
520.30	1145.69
520.66	1134.22
521.01	1134.93
521.37	1135.63
521.73	1142.65
522.09	1142.65
522.44	1142.88
522.80	1139.37
523.16	1135.86
523.51	1120.88
523.87	1118.07
524.23	1128.84
524.58	1134.93
524.94	1133.05
525.30	1137.50
525.65	1137.03
526.01	1131.18
526.37	1128.61
526.72	1121.82
527.08	1120.41
527.44	1128.84
527.79	1119.48
528.15	1118.54
528.51	1125.33
528.86	1128.37
529.22	1120.65
529.58	1130.48
529.93	1133.76
530.29	1128.37
530.65	1133.76
531.00	1133.29
531.36	1130.48
531.71	1129.54
532.07	1138.90
532.43	1129.07
532.78	1126.03
533.14	1122.05
533.49	1115.27
533.85	1111.75
534.21	1115.50
534.56	1112.46
534.92	1110.58
535.27	1113.16
535.63	1110.12
535.98	1100.99
536.34	1109.88
536.69	1113.16
537.05	1111.52
537.41	1110.58
537.76	1112.46
538.12	1108.24
538.47	1104.26
538.83	1099.12
539.18	1098.65
539.54	1103.09
539.89	1093.03
540.25	1092.56
540.60	1090.92
540.96	1076.88
541.31	1080.86
541.67	1091.39
542.02	1097.95
542.38	1103.33
542.73	1116.20
543.09	1106.61
543.44	1103.80
543.80	1087.88
544.15	1094.43
544.51	1093.03
544.86	1099.58
545.22	1104.03
545.57	1104.26
545.93	1096.07
546.28	1102.86
546.64	1102.86
546.99	1100.99
547.35	1118.54
547.70	1123.93
548.05	1122.99
548.41	1123.46
548.76	1113.63
549.12	1108.24
549.47	1111.29
549.83	1111.29
550.18	1103.33
550.53	1110.82
550.89	1113.63
551.24	1116.44
551.60	1110.35
551.95	1116.90
552.30	1112.92
552.66	1100.52
553.01	1086.94
553.37	1083.20
553.72	1081.56
554.07	1090.46
554.43	1103.80
554.78	1097.01
555.13	1100.05
555.49	1106.37
555.84	1097.95
556.19	1092.56
556.55	1101.69
556.90	1107.31
557.26	1098.18
557.61	1095.60
557.96	1092.56
558.32	1096.31
558.67	1090.92
559.02	1089.52
559.37	1100.05
559.73	1109.65
560.08	1109.41
560.43	1109.88
560.79	1118.07
561.14	1111.29
561.49	1103.56
561.85	1103.56
562.20	1104.97
562.55	1101.46
562.90	1101.69
563.26	1099.82
563.61	1103.09
563.96	1093.73
564.32	1079.46
564.67	1080.16
565.02	1072.20
565.37	1061.90
565.73	1070.56
566.08	1074.77
566.43	1076.88
566.78	1078.28
567.14	1084.60
567.49	1091.39
567.84	1102.16
568.19	1097.71
568.54	1099.58
568.90	1099.82
569.25	1094.43
569.60	1091.63
569.95	1088.58
570.31	1091.63
570.66	1089.99
571.01	1093.97
571.36	1086.24
571.71	1093.97
572.06	1095.37
572.42	1087.18
572.77	1078.75
573.12	1085.31
573.47	1082.26
573.82	1084.60
574.18	1094.20
574.53	1099.12
574.88	1098.18
575.23	1094.43
575.58	1095.60
575.93	1088.12
576.28	1075.48
576.64	1078.05
576.99	1080.39
577.34	1074.07
577.69	1078.52
578.04	1087.88
578.39	1099.12
578.74	1095.60
579.09	1105.67
579.44	1100.05
579.80	1098.65
580.15	1091.16
580.50	1096.07
580.85	1091.39
581.20	1092.09
581.55	1089.29
581.90	1087.88
582.25	1090.69
582.60	1089.99
582.95	1103.09
583.30	1106.37
583.65	1102.39
584.00	1092.09
584.35	1099.12
584.71	1090.92
585.06	1092.09
585.41	1093.26
585.76	1107.78
586.11	1107.31
586.46	1109.18
586.81	1099.35
587.16	1099.58
587.51	1093.73
587.86	1086.94
588.21	1094.67
588.56	1099.12
588.91	1100.05
589.26	1095.60
589.61	1093.50
589.96	1083.43
590.31	1090.92
590.66	1088.58
591.01	1088.12
591.36	1085.77
591.71	1082.73
592.06	1084.60
592.41	1079.92
592.76	1079.92
593.10	1084.84
593.45	1099.58
593.80	1101.46
594.15	1100.05
594.50	1104.97
594.85	1100.05
595.20	1087.65
595.55	1084.14
595.90	1097.48
596.25	1098.88
596.60	1109.41
596.95	1108.01
597.30	1110.35
597.64	1153.42
597.99	1153.42
598.34	1152.25
598.69	1157.16
599.04	1144.99
599.39	1098.65
599.74	1099.82
600.09	1089.99
600.44	1083.20
600.78	1093.50
601.13	1092.09
601.48	1079.69
601.83	1068.22
602.18	1075.94
602.53	1077.58
602.88	1082.97
603.22	1091.86
603.57	1091.86
603.92	1089.99
604.27	1086.71
604.62	1077.82
604.97	1078.99
605.31	1090.46
605.66	1096.78
606.01	1089.99
606.36	1099.82
606.71	1104.73
607.05	1108.95
607.40	1108.48
607.75	1113.16
608.10	1095.37
608.44	1087.88
608.79	1084.14
609.14	1083.43
609.49	1086.48
609.84	1097.48
610.18	1100.05
610.53	1102.63
610.88	1101.22
611.23	1099.82
611.57	1094.90
611.92	1094.20
612.27	1093.73
612.62	1090.46
612.96	1081.80
613.31	1083.90
613.66	1081.09
614.00	1082.03
614.35	1084.37
614.70	1087.65
615.05	1091.39
615.39	1097.48
615.74	1093.03
616.09	1096.78
616.43	1098.88
616.78	1092.09
617.13	1078.52
617.47	1092.09
617.82	1089.52
618.17	1093.73
618.51	1097.48
618.86	1102.39
619.21	1093.03
619.55	1085.31
619.90	1087.18
620.25	1077.58
620.59	1069.86
620.94	1075.94
621.29	1081.56
621.63	1074.31
621.98	1084.14
622.32	1098.65
622.67	1094.43
623.02	1093.03
623.36	1092.56
623.71	1091.39
624.05	1090.46
624.40	1083.90
624.75	1081.33
625.09	1079.22
625.44	1083.90
625.78	1082.73
626.13	1092.09
626.48	1097.48
626.82	1107.54
627.17	1096.78
627.51	1088.35
627.86	1079.92
628.20	1070.09
628.55	1072.20
628.89	1091.16
629.24	1098.65
629.58	1099.35
629.93	1102.86
630.28	1094.20
630.62	1088.82
630.97	1089.75
631.31	1089.99
631.66	1089.52
632.00	1093.03
632.35	1079.69
632.69	1080.39
633.04	1073.37
633.38	1079.92
633.73	1068.69
634.07	1080.16
634.42	1068.92
634.76	1078.05
635.11	1073.14
635.45	1091.39
635.79	1087.41
636.14	1098.18
636.48	1097.48
636.83	1098.18
637.17	1092.80
637.52	1096.07
637.86	1101.46
638.21	1108.48
638.55	1111.52
638.89	1106.84
639.24	1111.99
639.58	1106.14
639.93	1103.56
640.27	1100.05
640.61	1104.97
640.96	1092.80
641.30	1087.65
641.65	1083.90
641.99	1088.82
642.33	1087.88
642.68	1088.58
643.02	1098.41
643.37	1097.95
643.71	1089.05
644.05	1084.37
644.40	1085.77
644.74	1087.88
645.08	1085.54
645.43	1093.03
645.77	1100.29
646.11	1093.03
646.46	1086.48
646.80	1088.12
647.14	1070.80
647.49	1065.41
647.83	1072.20
648.17	1069.39
648.52	1064.24
648.86	1075.48
649.20	1069.86
649.55	1067.28
649.89	1076.41
650.23	1083.90
650.57	1082.50
650.92	1092.33
651.26	1095.14
651.60	1086.71
651.95	1088.82
652.29	1089.29
652.63	1086.94
652.97	1087.41
653.32	1099.58
653.66	1095.60
654.00	1101.22
654.34	1097.95
654.69	1102.16
655.03	1087.18
655.37	1085.31
655.71	1079.46
656.05	1087.41
656.40	1088.58
656.74	1087.18
657.08	1087.88
657.42	1097.95
657.76	1095.14
658.11	1091.63
658.45	1104.26
658.79	1101.69
659.13	1088.12
659.47	1089.29
659.82	1087.88
660.16	1072.90
660.50	1075.24
660.84	1080.63
661.18	1073.37
661.52	1068.22
661.87	1073.84
662.21	1077.35
662.55	1084.84
662.89	1089.52
663.23	1097.01
663.57	1100.75
663.91	1109.65
664.25	1102.16
664.60	1094.20
664.94	1093.97
665.28	1086.94
665.62	1078.28
665.96	1080.16
666.30	1086.01
666.64	1074.31
666.98	1081.33
667.32	1082.50
667.66	1085.77
668.01	1086.01
668.35	1091.86
668.69	1091.16
669.03	1083.67
669.37	1074.07
669.71	1071.73
670.05	1067.28
670.39	1066.82
670.73	1072.67
671.07	1072.43
671.41	1078.52
671.75	1083.90
672.09	1082.50
672.43	1083.67
672.77	1097.01
673.11	1089.52
673.45	1101.22
673.79	1103.33
674.13	1108.95
674.47	1105.90
674.81	1108.95
675.15	1096.07
675.49	1093.73
675.83	1087.65
676.17	1078.99
676.51	1081.09
676.85	1080.16
677.19	1076.41
677.53	1084.14
677.87	1086.24
678.21	1082.26
678.55	1088.12
678.89	1089.99
679.23	1087.41
679.57	1093.03
679.90	1100.75
680.24	1100.52
680.58	1104.50
680.92	1093.26
681.26	1088.82
681.60	1077.58
681.94	1076.18
682.28	1075.71
682.62	1086.01
682.96	1086.01
683.29	1098.88
683.63	1098.88
683.97	1098.18
684.31	1093.97
684.65	1096.31
684.99	1087.88
685.33	1090.69
685.67	1100.05
686.00	1101.92
686.34	1086.24
686.68	1076.41
687.02	1078.28
687.36	1064.24
687.70	1060.03
688.03	1070.80
688.37	1084.60
688.71	1084.84
689.05	1086.24
689.39	1091.39
689.72	1099.12
690.06	1091.16
690.40	1073.14
690.74	1074.54
691.08	1063.54
691.41	1059.79
691.75	1072.43
692.09	1087.41
692.43	1095.84
692.76	1097.95
693.10	1102.39
693.44	1106.84
693.78	1100.75
694.11	1090.46
694.45	1095.37
694.79	1099.12
695.13	1083.20
695.46	1090.69
695.80	1096.07
696.14	1089.29
696.48	1089.05
696.81	1094.20
697.15	1093.03
697.49	1093.26
697.82	1101.69
698.16	1087.65
698.50	1079.46
698.83	1069.16
699.17	1065.88
699.51	1055.82
699.84	1061.20
700.18	1068.45
700.52	1071.26
700.85	1070.80
701.19	1087.88
701.53	1089.05
701.86	1087.65
702.20	1094.67
702.54	1101.22
702.87	1090.46
703.21	1089.52
703.55	1088.35
703.88	1101.46
704.22	1103.56
704.55	1106.61
704.89	1094.67
705.23	1096.31
705.56	1074.77
705.90	1067.75
706.23	1076.88
706.57	1097.01
706.91	1090.92
707.24	1094.67
707.58	1098.18
707.91	1088.58
708.25	1088.82
708.58	1092.80
708.92	1094.90
709.26	1084.84
709.59	1079.92
709.93	1072.43
710.26	1077.82
710.60	1073.37
710.93	1073.84
711.27	1082.03
711.60	1091.63
711.94	1086.01
712.27	1088.12
712.61	1087.65
712.94	1084.60
713.28	1073.37
713.61	1073.84
713.95	1072.90
714.28	1081.56
714.62	1075.71
714.95	1078.05
715.29	1081.09
715.62	1084.60
715.96	1084.60
716.29	1093.50
716.63	1082.73
716.96	1082.97
717.29	1079.92
717.63	1073.84
717.96	1073.37
718.30	1078.52
718.63	1075.71
718.97	1082.26
719.30	1082.03
719.63	1078.75
719.97	1085.77
720.30	1083.20
720.64	1076.41
720.97	1075.01
721.30	1074.07
721.64	1076.41
721.97	1085.07
722.31	1085.31
722.64	1085.07
722.97	1095.84
723.31	1097.48
723.64	1090.69
723.97	1082.50
724.31	1096.07
724.64	1086.71
724.98	1071.26
725.31	1071.73
725.64	1082.03
725.98	1077.35
726.31	1079.92
726.64	1084.84
726.97	1081.09
727.31	1074.54
727.64	1065.88
727.97	1055.58
728.31	1060.73
728.64	1064.71
728.97	1070.80
729.31	1087.18
729.64	1097.48
729.97	1096.31
730.30	1105.20
730.64	1099.58
730.97	1089.05
731.30	1083.43
731.63	1089.05
731.97	1083.67
732.30	1098.41
732.63	1096.54
732.96	1094.67
733.30	1090.92
733.63	1083.67
733.96	1076.18
734.29	1075.94
734.63	1070.80
734.96	1064.01
735.29	1078.52
735.62	1083.20
735.95	1084.60
736.29	1093.50
736.62	1096.07
736.95	1088.82
737.28	1088.12
737.61	1084.60
737.94	1083.43
738.28	1086.94
738.61	1086.94
738.94	1086.71
739.27	1092.33
739.60	1088.12
739.93	1082.03
740.27	1068.69
740.60	1073.60
740.93	1073.37
741.26	1072.43
741.59	1091.86
741.92	1108.95
742.25	1092.80
742.58	1094.43
742.91	1106.14
743.25	1095.14
743.58	1092.56
743.91	1104.26
744.24	1096.07
744.57	1088.58
744.90	1082.97
745.23	1071.97
745.56	1075.24
745.89	1084.14
746.22	1097.24
746.55	1105.90
746.88	1111.05
747.21	1108.71
747.54	1106.14
747.87	1096.07
748.20	1090.92
748.53	1095.60
748.87	1093.73
749.20	1090.92
749.53	1086.94
749.86	1079.69
750.19	1083.43
750.52	1078.28
750.85	1064.71
751.18	1065.18
751.51	1074.54
751.84	1073.60
752.16	1086.48
752.49	1099.35
752.82	1100.52
753.15	1096.54
753.48	1094.67
753.81	1087.18
754.14	1095.37
754.47	1104.50
754.80	1099.35
755.13	1093.73
755.46	1095.14
755.79	1097.48
756.12	1096.54
756.45	1106.14
756.78	1108.48
757.11	1093.26
757.43	1087.41
757.76	1086.01
758.09	1086.94
758.42	1091.63
758.75	1099.35
759.08	1102.86
759.41	1094.20
759.74	1090.69
760.07	1088.35
760.39	1094.43
760.72	1086.71
761.05	1086.01
761.38	1085.07
761.71	1082.97
762.04	1079.22
762.36	1087.41
762.69	1089.52
763.02	1087.18
763.35	1100.75
763.68	1104.03
764.01	1090.92
764.33	1094.67
764.66	1087.65
