SpectraSuite Data File
++++++++++++++++++++++++++++++++++++
Date: Mon Aug 26 10:24:45 PDT 2019
User: corrico
Dark Spectrum Present: No
Reference Spectrum Present: No
Number of Sampled Component Spectra: 1
Spectrometers: USB2+H06089
Integration Time (usec): 10000 (USB2+H06089)
Spectra Averaged: 2 (USB2+H06089)
Boxcar Smoothing: 2 (USB2+H06089)
Correct for Electrical Dark: No (USB2+H06089)
Strobe/Lamp Enabled: No (USB2+H06089)
Correct for Detector Non-linearity: No (USB2+H06089)
Correct for Stray Light: No (USB2+H06089)
Number of Pixels in Processed Spectrum: 2048
>>>>>Begin Processed Spectral Data<<<<<
339.70	1018.13
340.07	1018.13
340.45	988.88
340.82	967.81
341.19	946.04
341.57	923.34
341.94	916.79
342.31	920.06
342.69	906.96
343.06	891.28
343.43	877.47
343.81	870.68
344.18	870.45
344.55	880.74
344.93	900.17
345.30	919.83
345.67	927.79
346.04	934.58
346.42	946.75
346.79	952.36
347.16	957.51
347.54	968.51
347.91	976.47
348.28	990.98
348.65	996.37
349.03	1002.45
349.40	1020.94
349.77	1029.60
350.14	1031.24
350.52	1045.28
350.89	1056.99
351.26	1049.50
351.63	1054.65
352.01	1064.24
352.38	1076.18
352.75	1083.90
353.12	1094.43
353.50	1087.65
353.87	1080.86
354.24	1076.41
354.61	1080.63
354.98	1080.39
355.36	1094.67
355.73	1103.33
356.10	1100.99
356.47	1098.65
356.84	1098.88
357.22	1097.95
357.59	1097.48
357.96	1096.31
358.33	1095.14
358.70	1087.18
359.08	1088.58
359.45	1087.88
359.82	1093.26
360.19	1090.69
360.56	1100.99
360.94	1098.41
361.31	1091.16
361.68	1085.77
362.05	1089.05
362.42	1086.01
362.79	1085.31
363.16	1087.65
363.54	1092.80
363.91	1089.52
364.28	1082.97
364.65	1085.31
365.02	1092.33
365.39	1096.54
365.76	1102.86
366.14	1110.12
366.51	1098.18
366.88	1098.88
367.25	1103.56
367.62	1099.35
367.99	1091.86
368.36	1103.56
368.73	1102.63
369.10	1092.33
369.48	1095.84
369.85	1108.01
370.22	1104.97
370.59	1098.41
370.96	1092.33
371.33	1100.05
371.70	1089.52
372.07	1081.80
372.44	1085.31
372.81	1096.07
373.18	1080.39
373.55	1079.46
373.93	1088.82
374.30	1090.69
374.67	1093.26
375.04	1102.63
375.41	1108.48
375.78	1106.61
376.15	1108.95
376.52	1105.44
376.89	1103.33
377.26	1105.44
377.63	1101.46
378.00	1093.97
378.37	1088.58
378.74	1088.12
379.11	1082.26
379.48	1085.54
379.85	1097.71
380.22	1106.37
380.59	1106.37
380.96	1105.20
381.33	1100.05
381.70	1097.24
382.07	1090.22
382.44	1093.97
382.81	1097.01
383.18	1097.01
383.55	1088.82
383.92	1099.58
384.29	1093.73
384.66	1101.69
385.03	1111.52
385.40	1121.35
385.77	1111.29
386.14	1105.67
386.51	1103.56
386.88	1101.92
387.25	1088.82
387.62	1089.29
387.99	1104.73
388.36	1104.97
388.73	1107.78
389.10	1130.24
389.46	1132.12
389.83	1116.90
390.20	1109.65
390.57	1110.35
390.94	1102.86
391.31	1110.82
391.68	1116.20
392.05	1122.75
392.42	1135.16
392.79	1132.59
393.16	1128.61
393.53	1142.42
393.89	1146.16
394.26	1138.20
394.63	1141.48
395.00	1148.73
395.37	1144.29
395.74	1144.99
396.11	1140.07
396.48	1138.44
396.84	1138.90
397.21	1133.99
397.58	1143.82
397.95	1156.46
398.32	1167.23
398.69	1173.54
399.06	1188.29
399.42	1183.84
399.79	1190.40
400.16	1191.57
400.53	1187.82
400.90	1195.31
401.27	1200.93
401.64	1204.44
402.00	1211.93
402.37	1226.21
402.74	1226.44
403.11	1243.99
403.48	1256.17
403.84	1267.87
404.21	1271.38
404.58	1292.68
404.95	1297.12
405.32	1301.81
405.68	1322.64
406.05	1355.40
406.42	1378.11
406.79	1415.09
407.16	1447.86
407.52	1482.73
407.89	1501.22
408.26	1534.69
408.63	1564.88
408.99	1598.35
409.36	1636.27
409.73	1685.19
410.10	1724.74
410.47	1770.85
410.83	1848.56
411.20	1912.92
411.57	1982.43
411.94	2046.80
412.30	2118.18
412.67	2177.63
413.04	2246.21
413.40	2329.07
413.77	2432.05
414.14	2534.33
414.51	2657.68
414.87	2785.71
415.24	2920.29
415.61	3067.27
415.97	3208.17
416.34	3365.92
416.71	3531.17
417.08	3735.26
417.44	3905.65
417.81	4147.20
418.18	4353.16
418.54	4617.88
418.91	4845.85
419.28	5145.90
419.64	5436.83
420.01	5766.61
420.38	6099.90
420.74	6447.47
421.11	6835.53
421.48	7202.76
421.84	7614.93
422.21	7996.91
422.58	8465.48
422.94	8943.66
423.31	9459.28
423.68	9984.49
424.04	10605.67
424.41	11191.27
424.77	11753.23
425.14	12374.65
425.51	12992.78
425.87	13678.09
426.24	14401.08
426.61	15282.06
426.97	16193.00
427.34	17128.98
427.70	18150.62
428.07	19135.52
428.44	20051.84
428.80	21037.91
429.17	22172.60
429.53	23183.47
429.90	24408.28
430.27	25535.71
430.63	26671.11
431.00	27858.46
431.36	29232.82
431.73	30417.84
432.09	31778.62
432.46	33024.72
432.83	34314.83
433.19	35400.37
433.56	36785.26
433.92	38147.46
434.29	39532.35
434.65	40887.52
435.02	42091.02
435.38	43172.35
435.75	43984.52
436.11	45139.81
436.48	46001.12
436.84	47029.09
437.21	47951.49
437.57	48886.07
437.94	49531.82
438.30	50258.09
438.67	50746.79
439.03	51065.81
439.40	51364.93
439.76	51241.58
440.13	51006.83
440.49	50844.63
440.86	50416.08
441.22	49998.52
441.59	49543.76
441.95	49038.67
442.32	48250.14
442.68	47529.96
443.05	46589.30
443.41	45689.13
443.78	44550.69
444.14	43540.28
444.51	42310.33
444.87	41431.93
445.24	40288.58
445.60	39254.53
445.96	38129.20
446.33	37251.73
446.69	36096.68
447.06	35182.46
447.42	34171.82
447.79	33114.84
448.15	32170.20
448.51	31206.13
448.88	30417.60
449.24	29516.03
449.61	28881.51
449.97	28110.77
450.33	27406.27
450.70	26563.68
451.06	26018.80
451.43	25270.06
451.79	24773.40
452.15	24185.69
452.52	23619.52
452.88	23028.06
453.24	22512.21
453.61	21859.67
453.97	21296.53
454.34	20680.04
454.70	20114.56
455.06	19498.30
455.43	18851.38
455.79	18099.60
456.15	17546.06
456.52	16856.07
456.88	16344.90
457.24	15759.30
457.61	15362.81
457.97	14825.19
458.33	14332.97
458.70	13797.93
459.06	13293.54
459.42	12818.65
459.79	12332.05
460.15	11921.28
460.51	11466.75
460.88	11136.74
461.24	10738.61
461.60	10462.43
461.96	10118.37
462.33	9842.89
462.69	9513.11
463.05	9202.99
463.42	8905.74
463.78	8652.49
464.14	8398.08
464.50	8174.09
464.87	7948.69
465.23	7715.58
465.59	7505.16
465.95	7304.81
466.32	7108.44
466.68	6918.39
467.04	6705.40
467.40	6545.78
467.77	6384.75
468.13	6215.53
468.49	6084.46
468.85	5972.34
469.22	5827.70
469.58	5678.61
469.94	5546.37
470.30	5401.49
470.66	5296.16
471.03	5176.33
471.39	5078.96
471.75	4971.77
472.11	4874.87
472.47	4771.65
472.84	4688.56
473.20	4580.90
473.56	4490.08
473.92	4394.59
474.28	4313.37
474.65	4236.37
475.01	4158.43
475.37	4055.68
475.73	3978.68
476.09	3890.67
476.45	3812.03
476.81	3729.41
477.18	3675.34
477.54	3592.49
477.90	3508.46
478.26	3412.74
478.62	3337.60
478.98	3282.60
479.34	3234.39
479.71	3198.11
480.07	3166.04
480.43	3140.53
480.79	3087.40
481.15	3026.55
481.51	2959.37
481.87	2917.95
482.23	2870.43
482.59	2815.20
482.96	2788.51
483.32	2763.24
483.68	2706.83
484.04	2653.00
484.40	2628.89
484.76	2587.46
485.12	2539.72
485.48	2520.99
485.84	2501.33
486.20	2456.86
486.56	2421.05
486.92	2398.82
487.28	2366.75
487.64	2320.64
488.00	2291.15
488.37	2274.30
488.73	2229.59
489.09	2193.78
489.45	2171.55
489.81	2141.82
490.17	2108.59
490.53	2089.40
490.89	2054.05
491.25	2032.52
491.61	2006.31
491.97	1963.71
492.33	1934.92
492.69	1924.39
493.05	1889.75
493.41	1868.22
493.77	1862.36
494.13	1848.32
494.49	1822.34
494.85	1802.21
495.21	1779.04
495.57	1754.23
495.93	1740.42
496.29	1715.85
496.64	1714.21
497.00	1696.65
497.36	1670.21
497.72	1654.29
498.08	1630.65
498.44	1611.69
498.80	1594.37
499.16	1593.44
499.52	1568.86
499.88	1563.01
500.24	1542.88
500.60	1527.20
500.96	1503.33
501.32	1497.71
501.68	1493.50
502.03	1476.41
502.39	1476.18
502.75	1462.60
503.11	1448.09
503.47	1427.73
503.83	1415.56
504.19	1405.96
504.55	1411.58
504.91	1393.32
505.26	1384.19
505.62	1385.13
505.98	1369.68
506.34	1348.85
506.70	1339.49
507.06	1332.94
507.42	1321.70
507.78	1317.96
508.13	1319.13
508.49	1308.83
508.85	1308.83
509.21	1307.66
509.57	1300.40
509.93	1289.64
510.28	1302.74
510.64	1287.29
511.00	1276.06
511.36	1273.25
511.72	1262.25
512.07	1249.38
512.43	1254.76
512.79	1255.23
513.15	1250.08
513.51	1246.80
513.86	1245.63
514.22	1243.29
514.58	1244.46
514.94	1247.97
515.30	1254.29
515.65	1249.38
516.01	1244.23
516.37	1229.02
516.73	1225.74
517.08	1215.21
517.44	1212.16
517.80	1207.48
518.16	1213.10
518.51	1202.57
518.87	1193.67
519.23	1183.37
519.59	1180.33
519.94	1171.44
520.30	1172.84
520.66	1185.72
521.01	1189.23
521.37	1188.76
521.73	1190.40
522.09	1193.67
522.44	1196.25
522.80	1195.55
523.16	1185.48
523.51	1180.57
523.87	1174.71
524.23	1159.03
524.58	1158.80
524.94	1159.97
525.30	1164.42
525.65	1160.20
526.01	1170.03
526.37	1172.84
526.72	1178.46
527.08	1171.67
527.44	1161.37
527.79	1149.20
528.15	1146.63
528.51	1136.80
528.86	1136.80
529.22	1133.05
529.58	1130.01
529.93	1117.84
530.29	1112.22
530.65	1115.97
531.00	1128.61
531.36	1131.41
531.71	1150.37
532.07	1170.97
532.43	1171.67
532.78	1172.37
533.14	1177.76
533.49	1155.05
533.85	1139.61
534.21	1129.31
534.56	1119.01
534.92	1112.69
535.27	1128.14
535.63	1135.63
535.98	1143.82
536.34	1146.63
536.69	1141.01
537.05	1131.18
537.41	1129.54
537.76	1134.46
538.12	1137.27
538.47	1148.03
538.83	1155.52
539.18	1150.37
539.54	1145.22
539.89	1148.97
540.25	1146.86
540.60	1142.18
540.96	1141.71
541.31	1124.86
541.67	1117.14
542.02	1112.69
542.38	1112.69
542.73	1119.48
543.09	1129.78
543.44	1122.29
543.80	1122.99
544.15	1118.54
544.51	1124.16
544.86	1126.03
545.22	1136.56
545.57	1133.29
545.93	1137.73
546.28	1128.14
546.64	1124.63
546.99	1111.75
547.35	1112.69
547.70	1111.52
548.05	1110.12
548.41	1114.80
548.76	1129.31
549.12	1138.67
549.47	1144.29
549.83	1148.73
550.18	1143.35
550.53	1133.29
550.89	1128.37
551.24	1117.37
551.60	1110.12
551.95	1115.03
552.30	1110.12
552.66	1108.71
553.01	1105.90
553.37	1108.71
553.72	1108.48
554.07	1118.78
554.43	1120.88
554.78	1130.01
555.13	1125.56
555.49	1125.56
555.84	1117.14
556.19	1101.69
556.55	1087.65
556.90	1086.71
557.26	1078.52
557.61	1082.73
557.96	1092.56
558.32	1107.07
558.67	1111.99
559.02	1111.29
559.37	1117.84
559.73	1130.71
560.08	1125.80
560.43	1132.35
560.79	1146.39
561.14	1140.07
561.49	1128.84
561.85	1128.14
562.20	1121.12
562.55	1121.82
562.90	1127.20
563.26	1124.86
563.61	1119.95
563.96	1121.35
564.32	1115.27
564.67	1108.71
565.02	1108.71
565.37	1110.12
565.73	1105.67
566.08	1096.31
566.43	1101.69
566.78	1104.50
567.14	1099.35
567.49	1097.01
567.84	1105.67
568.19	1104.97
568.54	1098.41
568.90	1109.88
569.25	1116.90
569.60	1105.67
569.95	1108.48
570.31	1115.03
570.66	1118.07
571.01	1110.58
571.36	1120.18
571.71	1120.88
572.06	1122.99
572.42	1108.01
572.77	1122.99
573.12	1115.03
573.47	1103.80
573.82	1101.69
574.18	1108.01
574.53	1091.39
574.88	1098.41
575.23	1108.95
575.58	1112.69
575.93	1108.24
576.28	1109.88
576.64	1107.54
576.99	1099.35
577.34	1095.14
577.69	1100.52
578.04	1099.35
578.39	1098.41
578.74	1109.65
579.09	1106.84
579.44	1104.03
579.80	1107.78
580.15	1104.50
580.50	1100.52
580.85	1101.22
581.20	1105.44
581.55	1100.75
581.90	1100.29
582.25	1101.69
582.60	1090.46
582.95	1089.29
583.30	1095.14
583.65	1095.60
584.00	1089.52
584.35	1111.52
584.71	1113.16
585.06	1119.95
585.41	1128.14
585.76	1124.63
586.11	1118.78
586.46	1115.73
586.81	1106.37
587.16	1103.80
587.51	1095.84
587.86	1086.24
588.21	1086.24
588.56	1083.43
588.91	1080.16
589.26	1104.26
589.61	1107.78
589.96	1104.73
590.31	1107.07
590.66	1109.18
591.01	1102.63
591.36	1094.43
591.71	1098.88
592.06	1093.26
592.41	1087.41
592.76	1080.39
593.10	1090.46
593.45	1084.37
593.80	1095.14
594.15	1092.09
594.50	1091.39
594.85	1087.41
595.20	1095.60
595.55	1102.16
595.90	1114.33
596.25	1116.20
596.60	1121.58
596.95	1119.95
597.30	1101.92
597.64	1142.18
597.99	1145.46
598.34	1137.27
598.69	1137.73
599.04	1151.08
599.39	1111.75
599.74	1102.86
600.09	1110.12
600.44	1107.07
600.78	1098.88
601.13	1100.75
601.48	1108.48
601.83	1106.37
602.18	1111.99
602.53	1111.29
602.88	1108.24
603.22	1102.63
603.57	1094.90
603.92	1089.99
604.27	1093.50
604.62	1086.94
604.97	1092.56
605.31	1100.75
605.66	1095.37
606.01	1087.65
606.36	1088.82
606.71	1091.39
607.05	1092.56
607.40	1095.84
607.75	1110.35
608.10	1105.20
608.44	1100.99
608.79	1101.69
609.14	1103.09
609.49	1086.01
609.84	1092.80
610.18	1097.71
610.53	1098.41
610.88	1101.69
611.23	1112.92
611.57	1110.58
611.92	1109.18
612.27	1114.33
612.62	1120.88
612.96	1112.46
613.31	1118.78
613.66	1109.65
614.00	1098.18
614.35	1095.60
614.70	1103.09
615.05	1102.86
615.39	1113.86
615.74	1115.27
616.09	1103.80
616.43	1111.29
616.78	1101.69
617.13	1091.16
617.47	1093.97
617.82	1110.35
618.17	1091.39
618.51	1097.24
618.86	1094.90
619.21	1087.65
619.55	1082.03
619.90	1081.80
620.25	1075.24
620.59	1087.18
620.94	1083.20
621.29	1082.50
621.63	1094.67
621.98	1097.71
622.32	1094.67
622.67	1103.80
623.02	1094.67
623.36	1092.80
623.71	1096.78
624.05	1096.78
624.40	1100.05
624.75	1103.56
625.09	1107.07
625.44	1106.61
625.78	1100.52
626.13	1095.37
626.48	1098.18
626.82	1097.01
627.17	1092.09
627.51	1086.71
627.86	1085.77
628.20	1084.14
628.55	1082.50
628.89	1073.60
629.24	1079.22
629.58	1080.86
629.93	1080.16
630.28	1091.16
630.62	1109.18
630.97	1110.12
631.31	1111.05
631.66	1111.29
632.00	1094.43
632.35	1085.77
632.69	1083.43
633.04	1078.28
633.38	1087.88
633.73	1092.80
634.07	1098.18
634.42	1108.71
634.76	1116.90
635.11	1108.95
635.45	1111.52
635.79	1111.99
636.14	1106.14
636.48	1097.71
636.83	1101.69
637.17	1098.65
637.52	1100.05
637.86	1097.71
638.21	1100.75
638.55	1103.56
638.89	1104.03
639.24	1099.82
639.58	1095.14
639.93	1099.35
640.27	1092.09
640.61	1092.09
640.96	1094.90
641.30	1096.31
641.65	1092.09
641.99	1090.46
642.33	1098.88
642.68	1092.80
643.02	1099.58
643.37	1108.71
643.71	1115.03
644.05	1105.90
644.40	1100.29
644.74	1104.97
645.08	1096.31
645.43	1088.58
645.77	1088.35
646.11	1100.05
646.46	1088.82
646.80	1089.99
647.14	1089.29
647.49	1088.82
647.83	1094.43
648.17	1105.90
648.52	1113.63
648.86	1108.01
649.20	1116.90
649.55	1120.65
649.89	1114.56
650.23	1102.16
650.57	1104.50
650.92	1092.33
651.26	1081.80
651.60	1065.18
651.95	1066.58
652.29	1074.77
652.63	1072.43
652.97	1060.96
653.32	1067.05
653.66	1073.37
654.00	1070.56
654.34	1083.90
654.69	1086.24
655.03	1093.03
655.37	1091.86
655.71	1083.90
656.05	1085.07
656.40	1092.09
656.74	1098.18
657.08	1098.65
657.42	1101.46
657.76	1098.88
658.11	1106.61
658.45	1101.46
658.79	1097.01
659.13	1106.14
659.47	1115.50
659.82	1105.20
660.16	1105.90
660.50	1096.31
660.84	1088.58
661.18	1083.43
661.52	1082.73
661.87	1089.05
662.21	1094.67
662.55	1095.37
662.89	1078.28
663.23	1080.63
663.57	1074.31
663.91	1080.39
664.25	1087.18
664.60	1092.80
664.94	1095.14
665.28	1089.29
665.62	1098.88
665.96	1093.26
666.30	1095.37
666.64	1087.41
666.98	1096.07
667.32	1078.99
667.66	1070.56
668.01	1069.39
668.35	1070.09
668.69	1065.41
669.03	1074.54
669.37	1083.20
669.71	1081.56
670.05	1091.63
670.39	1097.01
670.73	1105.20
671.07	1109.65
671.41	1108.48
671.75	1104.97
672.09	1108.48
672.43	1096.31
672.77	1095.84
673.11	1105.20
673.45	1103.09
673.79	1099.58
674.13	1099.58
674.47	1083.43
674.81	1072.43
675.15	1066.58
675.49	1060.96
675.83	1060.26
676.17	1079.92
676.51	1080.16
676.85	1079.22
677.19	1072.43
677.53	1072.43
677.87	1067.52
678.21	1078.52
678.55	1087.41
678.89	1102.16
679.23	1106.14
679.57	1095.37
679.90	1092.09
680.24	1088.35
680.58	1080.63
680.92	1080.39
681.26	1089.05
681.60	1087.41
681.94	1085.54
682.28	1088.12
682.62	1086.48
682.96	1083.90
683.29	1081.56
683.63	1093.50
683.97	1098.18
684.31	1095.37
684.65	1102.39
684.99	1101.22
685.33	1082.03
685.67	1078.75
686.00	1076.88
686.34	1071.50
686.68	1077.35
687.02	1091.16
687.36	1089.75
687.70	1092.09
688.03	1082.03
688.37	1078.75
688.71	1079.46
689.05	1079.22
689.39	1083.67
689.72	1087.18
690.06	1081.56
690.40	1081.80
690.74	1081.80
691.08	1074.31
691.41	1080.39
691.75	1077.58
692.09	1082.26
692.43	1091.39
692.76	1094.67
693.10	1096.54
693.44	1104.26
693.78	1097.95
694.11	1090.92
694.45	1097.71
694.79	1105.67
695.13	1102.16
695.46	1107.78
695.80	1100.52
696.14	1097.48
696.48	1095.37
696.81	1105.20
697.15	1095.14
697.49	1096.07
697.82	1091.86
698.16	1088.35
698.50	1081.56
698.83	1091.63
699.17	1097.95
699.51	1104.50
699.84	1104.97
700.18	1111.29
700.52	1098.88
700.85	1107.07
701.19	1116.67
701.53	1107.54
701.86	1108.24
702.20	1113.63
702.54	1104.97
702.87	1100.05
703.21	1108.71
703.55	1100.29
703.88	1089.99
704.22	1087.88
704.55	1079.46
704.89	1070.80
705.23	1067.52
705.56	1073.14
705.90	1066.82
706.23	1066.82
706.57	1071.50
706.91	1079.69
707.24	1081.56
707.58	1086.24
707.91	1082.97
708.25	1083.43
708.58	1090.22
708.92	1092.09
709.26	1097.71
709.59	1102.39
709.93	1100.75
710.26	1095.60
710.60	1100.29
710.93	1094.90
711.27	1087.18
711.60	1084.60
711.94	1073.84
712.27	1066.82
712.61	1071.03
712.94	1069.39
713.28	1069.16
713.61	1076.41
713.95	1077.58
714.28	1072.43
714.62	1075.24
714.95	1086.01
715.29	1083.67
715.62	1083.90
715.96	1082.97
716.29	1086.71
716.63	1083.43
716.96	1077.11
717.29	1073.37
717.63	1073.14
717.96	1081.33
718.30	1086.71
718.63	1104.50
718.97	1100.29
719.30	1099.58
719.63	1090.46
719.97	1076.41
720.30	1062.60
720.64	1070.80
720.97	1076.41
721.30	1077.11
721.64	1079.69
721.97	1078.52
722.31	1080.86
722.64	1074.77
722.97	1069.39
723.31	1077.82
723.64	1078.75
723.97	1080.63
724.31	1089.05
724.64	1093.50
724.98	1088.35
725.31	1090.46
725.64	1086.48
725.98	1086.48
726.31	1092.09
726.64	1097.71
726.97	1101.46
727.31	1100.05
727.64	1089.52
727.97	1085.31
728.31	1079.92
728.64	1079.46
728.97	1086.71
729.31	1097.71
729.64	1097.01
729.97	1092.09
730.30	1084.60
730.64	1080.16
730.97	1074.07
731.30	1081.80
731.63	1090.92
731.97	1106.14
732.30	1097.48
732.63	1101.22
732.96	1094.67
733.30	1091.39
733.63	1071.50
733.96	1077.82
734.29	1075.48
734.63	1075.01
734.96	1072.90
735.29	1080.16
735.62	1084.37
735.95	1089.29
736.29	1092.09
736.62	1084.37
736.95	1087.65
737.28	1084.84
737.61	1072.90
737.94	1073.84
738.28	1078.99
738.61	1076.65
738.94	1066.35
739.27	1064.01
739.60	1064.48
739.93	1061.90
740.27	1067.99
740.60	1084.60
740.93	1086.48
741.26	1077.35
741.59	1075.71
741.92	1070.80
742.25	1065.18
742.58	1075.94
742.91	1077.35
743.25	1079.69
743.58	1084.84
743.91	1089.29
744.24	1077.35
744.57	1092.33
744.90	1105.20
745.23	1098.88
745.56	1090.22
745.89	1100.05
746.22	1088.58
746.55	1087.18
746.88	1092.56
747.21	1084.37
747.54	1088.35
747.87	1085.77
748.20	1082.50
748.53	1080.39
748.87	1088.12
749.20	1083.43
749.53	1083.43
749.86	1078.75
750.19	1077.58
750.52	1082.97
750.85	1083.67
751.18	1084.60
751.51	1078.75
751.84	1071.97
752.16	1062.14
752.49	1056.28
752.82	1052.07
753.15	1060.73
753.48	1067.05
753.81	1074.31
754.14	1076.65
754.47	1089.05
754.80	1089.05
755.13	1089.99
755.46	1090.69
755.79	1086.48
756.12	1081.80
756.45	1075.94
756.78	1082.50
757.11	1086.71
757.43	1090.22
757.76	1085.31
758.09	1092.56
758.42	1083.67
758.75	1080.39
759.08	1087.65
759.41	1086.94
759.74	1073.37
760.07	1068.45
760.39	1065.65
760.72	1063.31
761.05	1075.24
761.38	1093.97
761.71	1104.73
762.04	1110.82
762.36	1107.78
762.69	1100.05
763.02	1103.09
763.35	1094.20
763.68	1089.29
764.01	1090.46
