SpectraSuite Data File
++++++++++++++++++++++++++++++++++++
Date: Mon Aug 26 10:24:46 PDT 2019
User: corrico
Dark Spectrum Present: No
Reference Spectrum Present: No
Number of Sampled Component Spectra: 1
Spectrometers: USB2+H06089
Integration Time (usec): 10000 (USB2+H06089)
Spectra Averaged: 2 (USB2+H06089)
Boxcar Smoothing: 2 (USB2+H06089)
Correct for Electrical Dark: No (USB2+H06089)
Strobe/Lamp Enabled: No (USB2+H06089)
Correct for Detector Non-linearity: No (USB2+H06089)
Correct for Stray Light: No (USB2+H06089)
Number of Pixels in Processed Spectrum: 2048
>>>>>Begin Processed Spectral Data<<<<<
339.70	1074.31
340.07	1074.31
340.45	1019.54
340.82	988.88
341.19	946.51
341.57	901.11
341.94	892.91
342.31	893.85
342.69	890.11
343.06	901.57
343.43	911.17
343.81	908.36
344.18	902.98
344.55	917.02
344.93	918.43
345.30	925.21
345.67	942.53
346.04	948.85
346.42	946.28
346.79	946.04
347.16	955.41
347.54	965.94
347.91	981.15
348.28	989.81
348.65	1012.05
349.03	1017.20
349.40	1017.20
349.77	1026.09
350.14	1027.03
350.52	1022.11
350.89	1037.09
351.26	1040.60
351.63	1048.33
352.01	1065.18
352.38	1085.77
352.75	1088.82
353.12	1093.03
353.50	1086.94
353.87	1097.95
354.24	1092.80
354.61	1090.69
354.98	1087.65
355.36	1102.86
355.73	1107.54
356.10	1109.18
356.47	1117.61
356.84	1125.80
357.22	1111.99
357.59	1099.82
357.96	1101.69
358.33	1099.35
358.70	1103.09
359.08	1112.22
359.45	1105.67
359.82	1105.44
360.19	1094.43
360.56	1095.60
360.94	1095.37
361.31	1092.80
361.68	1101.69
362.05	1113.39
362.42	1105.20
362.79	1100.05
363.16	1102.86
363.54	1088.82
363.91	1078.99
364.28	1080.63
364.65	1088.58
365.02	1098.88
365.39	1100.75
365.76	1106.84
366.14	1101.92
366.51	1101.92
366.88	1095.37
367.25	1104.26
367.62	1104.73
367.99	1112.92
368.36	1107.07
368.73	1106.14
369.10	1096.54
369.48	1100.52
369.85	1095.37
370.22	1093.26
370.59	1097.71
370.96	1106.84
371.33	1105.67
371.70	1109.88
372.07	1108.01
372.44	1105.67
372.81	1100.75
373.18	1097.48
373.55	1093.50
373.93	1097.71
374.30	1094.67
374.67	1099.82
375.04	1104.50
375.41	1107.78
375.78	1102.39
376.15	1105.67
376.52	1088.82
376.89	1090.69
377.26	1097.01
377.63	1104.50
378.00	1103.09
378.37	1116.90
378.74	1115.27
379.11	1112.92
379.48	1100.52
379.85	1098.65
380.22	1087.88
380.59	1090.69
380.96	1082.97
381.33	1090.46
381.70	1096.54
382.07	1108.24
382.44	1102.39
382.81	1107.07
383.18	1113.86
383.55	1110.82
383.92	1114.09
384.29	1115.03
384.66	1112.22
385.03	1111.05
385.40	1105.20
385.77	1097.95
386.14	1103.33
386.51	1104.50
386.88	1102.63
387.25	1116.20
387.62	1122.05
387.99	1115.03
388.36	1120.18
388.73	1124.63
389.10	1121.82
389.46	1122.05
389.83	1123.69
390.20	1125.80
390.57	1124.86
390.94	1128.14
391.31	1122.29
391.68	1133.29
392.05	1140.07
392.42	1141.01
392.79	1141.48
393.16	1153.18
393.53	1149.20
393.89	1135.86
394.26	1140.54
394.63	1143.59
395.00	1146.63
395.37	1148.50
395.74	1154.82
396.11	1156.69
396.48	1162.08
396.84	1167.69
397.21	1171.67
397.58	1176.35
397.95	1174.25
398.32	1180.10
398.69	1167.23
399.06	1166.05
399.42	1167.46
399.79	1183.61
400.16	1182.67
400.53	1186.89
400.90	1193.44
401.27	1213.10
401.64	1207.95
402.00	1208.42
402.37	1220.36
402.74	1238.61
403.11	1239.55
403.48	1251.95
403.84	1268.10
404.21	1275.12
404.58	1279.57
404.95	1293.61
405.32	1305.55
405.68	1317.02
406.05	1343.47
406.42	1365.47
406.79	1390.51
407.16	1420.47
407.52	1436.85
407.89	1465.88
408.26	1493.73
408.63	1531.41
408.99	1559.97
409.36	1614.50
409.73	1654.06
410.10	1693.14
410.47	1727.78
410.83	1783.25
411.20	1854.17
411.57	1914.09
411.94	1993.20
412.30	2078.63
412.67	2151.19
413.04	2217.89
413.40	2309.17
413.77	2391.33
414.14	2497.59
414.51	2628.42
414.87	2753.17
415.24	2902.97
415.61	3063.53
415.97	3217.07
416.34	3370.61
416.71	3564.87
417.08	3741.35
417.44	3927.89
417.81	4127.53
418.18	4335.14
418.54	4565.92
418.91	4805.82
419.28	5094.18
419.64	5401.02
420.01	5735.48
420.38	6054.03
420.74	6424.54
421.11	6805.34
421.48	7182.64
421.84	7575.85
422.21	7972.80
422.58	8435.99
422.94	8907.84
423.31	9386.72
423.68	9937.45
424.04	10541.77
424.41	11104.20
424.77	11662.19
425.14	12302.09
425.51	12923.97
425.87	13632.68
426.24	14377.44
426.61	15285.10
426.97	16240.74
427.34	17137.17
427.70	18068.47
428.07	19004.92
428.44	19893.85
428.80	20833.81
429.17	21929.18
429.53	22978.21
429.90	24212.61
430.27	25327.17
430.63	26468.18
431.00	27719.20
431.36	29100.82
431.73	30280.91
432.09	31659.49
432.46	32950.06
432.83	34270.36
433.19	35346.54
433.56	36690.71
433.92	38007.02
434.29	39353.53
434.65	40638.49
435.02	41874.29
435.38	43019.05
435.75	43870.30
436.11	44959.12
436.48	45876.84
436.84	46819.61
437.21	47713.22
437.57	48669.10
437.94	49402.86
438.30	50075.53
438.67	50648.26
439.03	50950.42
439.40	51224.26
439.76	51081.02
440.13	50798.28
440.49	50648.49
440.86	50252.47
441.22	49759.56
441.59	49337.09
441.95	48829.43
442.32	47977.94
442.68	47260.10
443.05	46428.97
443.41	45441.73
443.78	44410.73
444.14	43418.58
444.51	42181.37
444.87	41251.24
445.24	40146.04
445.60	39098.65
445.96	37986.89
446.33	37117.62
446.69	35968.88
447.06	35114.12
447.42	34054.09
447.79	33024.49
448.15	32079.38
448.51	31165.40
448.88	30345.75
449.24	29473.20
449.61	28793.27
449.97	28054.83
450.33	27285.26
450.70	26383.69
451.06	25833.66
451.43	25124.25
451.79	24556.90
452.15	24064.92
452.52	23515.60
452.88	22946.61
453.24	22455.80
453.61	21851.01
453.97	21230.30
454.34	20650.31
454.70	20033.11
455.06	19404.68
455.43	18743.48
455.79	18032.66
456.15	17432.08
456.52	16762.45
456.88	16254.32
457.24	15700.55
457.61	15294.46
457.97	14779.55
458.33	14328.99
458.70	13801.91
459.06	13312.50
459.42	12816.54
459.79	12375.58
460.15	11973.48
460.51	11527.61
460.88	11127.14
461.24	10708.42
461.60	10366.23
461.96	10032.24
462.33	9733.59
462.69	9430.72
463.05	9122.47
463.42	8849.10
463.78	8560.98
464.14	8313.82
464.50	8108.32
464.87	7889.01
465.23	7647.47
465.59	7462.56
465.95	7245.13
466.32	7048.99
466.68	6849.11
467.04	6672.40
467.40	6493.11
467.77	6332.55
468.13	6143.67
468.49	6014.24
468.85	5898.62
469.22	5766.38
469.58	5638.82
469.94	5544.50
470.30	5408.51
470.66	5287.04
471.03	5165.33
471.39	5077.56
471.75	4949.53
472.11	4839.53
472.47	4725.78
472.84	4616.24
473.20	4497.11
473.56	4409.80
473.92	4303.07
474.28	4201.03
474.65	4108.58
475.01	4030.64
475.37	3939.36
475.73	3898.16
476.09	3838.71
476.45	3787.92
476.81	3688.92
477.18	3607.70
477.54	3524.85
477.90	3452.52
478.26	3377.39
478.62	3333.16
478.98	3305.30
479.34	3252.88
479.71	3201.62
480.07	3166.04
480.43	3124.38
480.79	3073.83
481.15	3033.57
481.51	2980.20
481.87	2913.03
482.23	2853.58
482.59	2794.37
482.96	2738.66
483.32	2707.77
483.68	2686.47
484.04	2667.04
484.40	2631.46
484.76	2599.40
485.12	2559.14
485.48	2524.97
485.84	2477.93
486.20	2440.24
486.56	2387.35
486.92	2361.83
487.28	2325.09
487.64	2287.41
488.00	2248.08
488.37	2238.49
488.73	2203.85
489.09	2153.06
489.45	2127.55
489.81	2102.27
490.17	2067.40
490.53	2042.12
490.89	2028.54
491.25	2007.95
491.61	1991.56
491.97	1980.33
492.33	1951.54
492.69	1938.90
493.05	1913.86
493.41	1887.88
493.77	1849.02
494.13	1827.26
494.49	1792.85
494.85	1779.98
495.21	1759.38
495.57	1742.53
495.93	1711.17
496.29	1697.59
496.64	1683.08
497.00	1662.01
497.36	1646.10
497.72	1646.57
498.08	1623.63
498.44	1611.69
498.80	1598.59
499.16	1584.78
499.52	1565.82
499.88	1553.65
500.24	1535.63
500.60	1528.14
500.96	1516.43
501.32	1504.03
501.68	1497.94
502.03	1471.49
502.39	1457.45
502.75	1440.13
503.11	1429.13
503.47	1415.09
503.83	1410.64
504.19	1403.85
504.55	1397.77
504.91	1385.13
505.26	1370.15
505.62	1369.45
505.98	1359.38
506.34	1354.94
506.70	1345.34
507.06	1346.04
507.42	1335.51
507.78	1331.76
508.13	1317.49
508.49	1315.62
508.85	1310.23
509.21	1303.91
509.57	1293.38
509.93	1298.30
510.28	1301.10
510.64	1297.12
511.00	1286.59
511.36	1286.83
511.72	1276.29
512.07	1258.27
512.43	1250.08
512.79	1252.19
513.15	1234.16
513.51	1232.29
513.86	1225.50
514.22	1227.85
514.58	1222.46
514.94	1221.29
515.30	1225.27
515.65	1229.72
516.01	1236.51
516.37	1233.70
516.73	1237.44
517.08	1226.21
517.44	1229.48
517.80	1210.29
518.16	1209.35
518.51	1212.63
518.87	1210.53
519.23	1202.57
519.59	1200.46
519.94	1188.76
520.30	1181.97
520.66	1177.06
521.01	1170.74
521.37	1173.78
521.73	1179.16
522.09	1168.86
522.44	1159.03
522.80	1154.82
523.16	1150.37
523.51	1140.31
523.87	1147.10
524.23	1163.71
524.58	1177.52
524.94	1179.16
525.30	1177.99
525.65	1183.61
526.01	1177.06
526.37	1160.91
526.72	1152.71
527.08	1153.18
527.44	1145.69
527.79	1147.80
528.15	1139.61
528.51	1141.01
528.86	1151.54
529.22	1145.93
529.58	1142.65
529.93	1156.46
530.29	1156.93
530.65	1140.54
531.00	1150.14
531.36	1157.63
531.71	1159.03
532.07	1153.65
532.43	1173.54
532.78	1165.35
533.14	1159.97
533.49	1153.18
533.85	1164.18
534.21	1151.08
534.56	1143.35
534.92	1133.99
535.27	1137.73
535.63	1122.05
535.98	1117.84
536.34	1126.03
536.69	1133.99
537.05	1135.39
537.41	1139.37
537.76	1142.88
538.12	1143.82
538.47	1142.42
538.83	1129.54
539.18	1134.93
539.54	1136.80
539.89	1132.59
540.25	1131.88
540.60	1138.67
540.96	1133.52
541.31	1137.03
541.67	1133.99
542.02	1130.95
542.38	1125.33
542.73	1125.80
543.09	1118.31
543.44	1111.52
543.80	1108.95
544.15	1110.82
544.51	1119.48
544.86	1114.10
545.22	1122.75
545.57	1127.44
545.93	1136.33
546.28	1122.05
546.64	1125.10
546.99	1116.67
547.35	1108.71
547.70	1104.97
548.05	1106.61
548.41	1108.71
548.76	1113.86
549.12	1115.97
549.47	1113.63
549.83	1114.80
550.18	1113.39
550.53	1115.97
550.89	1118.07
551.24	1121.12
551.60	1120.88
551.95	1111.75
552.30	1113.16
552.66	1115.27
553.01	1108.48
553.37	1106.61
553.72	1111.99
554.07	1107.07
554.43	1105.44
554.78	1111.05
555.13	1124.63
555.49	1128.37
555.84	1125.80
556.19	1126.03
556.55	1122.05
556.90	1108.71
557.26	1109.18
557.61	1118.07
557.96	1115.97
558.32	1115.27
558.67	1107.07
559.02	1104.50
559.37	1112.22
559.73	1112.69
560.08	1114.33
560.43	1125.10
560.79	1130.95
561.14	1121.58
561.49	1124.16
561.85	1122.29
562.20	1120.88
562.55	1112.69
562.90	1110.58
563.26	1113.39
563.61	1119.48
563.96	1111.52
564.32	1112.69
564.67	1111.99
565.02	1110.58
565.37	1101.92
565.73	1113.63
566.08	1126.03
566.43	1124.16
566.78	1115.97
567.14	1121.58
567.49	1115.03
567.84	1100.05
568.19	1102.16
568.54	1106.37
568.90	1107.78
569.25	1115.97
569.60	1125.56
569.95	1130.48
570.31	1131.88
570.66	1131.18
571.01	1133.05
571.36	1124.39
571.71	1117.61
572.06	1123.93
572.42	1116.90
572.77	1109.41
573.12	1110.58
573.47	1111.99
573.82	1098.88
574.18	1099.58
574.53	1098.18
574.88	1104.26
575.23	1101.69
575.58	1101.69
575.93	1099.58
576.28	1096.31
576.64	1093.73
576.99	1096.07
577.34	1100.75
577.69	1104.73
578.04	1104.97
578.39	1096.07
578.74	1087.41
579.09	1093.50
579.44	1089.52
579.80	1101.92
580.15	1103.33
580.50	1112.92
580.85	1106.37
581.20	1117.84
581.55	1115.03
581.90	1122.75
582.25	1122.99
582.60	1122.75
582.95	1120.65
583.30	1116.44
583.65	1121.58
584.00	1114.56
584.35	1114.33
584.71	1111.05
585.06	1106.84
585.41	1100.75
585.76	1102.16
586.11	1100.05
586.46	1104.50
586.81	1109.41
587.16	1103.80
587.51	1099.35
587.86	1103.80
588.21	1090.22
588.56	1084.37
588.91	1088.82
589.26	1093.03
589.61	1083.43
589.96	1090.92
590.31	1091.39
590.66	1097.95
591.01	1099.82
591.36	1101.92
591.71	1102.39
592.06	1097.48
592.41	1091.86
592.76	1096.07
593.10	1104.26
593.45	1104.97
593.80	1115.97
594.15	1125.10
594.50	1120.88
594.85	1112.92
595.20	1114.33
595.55	1111.75
595.90	1094.67
596.25	1097.71
596.60	1098.18
596.95	1100.75
597.30	1097.95
597.64	1148.03
597.99	1147.33
598.34	1148.97
598.69	1152.25
599.04	1154.12
599.39	1113.86
599.74	1111.52
600.09	1120.88
600.44	1116.20
600.78	1115.50
601.13	1113.16
601.48	1115.73
601.83	1111.05
602.18	1107.54
602.53	1111.05
602.88	1105.20
603.22	1100.99
603.57	1102.39
603.92	1100.99
604.27	1104.97
604.62	1108.95
604.97	1118.31
605.31	1114.56
605.66	1120.18
606.01	1115.97
606.36	1114.56
606.71	1107.78
607.05	1106.14
607.40	1108.01
607.75	1104.97
608.10	1099.82
608.44	1100.29
608.79	1102.86
609.14	1094.20
609.49	1098.88
609.84	1103.09
610.18	1096.54
610.53	1097.71
610.88	1104.50
611.23	1107.07
611.57	1111.52
611.92	1119.01
612.27	1126.50
612.62	1122.29
612.96	1113.63
613.31	1103.80
613.66	1096.31
614.00	1092.33
614.35	1092.09
614.70	1095.84
615.05	1099.35
615.39	1101.69
615.74	1098.65
616.09	1095.84
616.43	1091.16
616.78	1093.73
617.13	1094.20
617.47	1093.73
617.82	1094.67
618.17	1101.46
618.51	1110.12
618.86	1114.10
619.21	1112.22
619.55	1119.24
619.90	1116.44
620.25	1114.33
620.59	1111.29
620.94	1106.37
621.29	1097.71
621.63	1098.41
621.98	1096.54
622.32	1093.03
622.67	1103.56
623.02	1108.01
623.36	1109.18
623.71	1100.99
624.05	1107.31
624.40	1093.73
624.75	1101.22
625.09	1094.90
625.44	1099.82
625.78	1094.20
626.13	1097.71
626.48	1080.63
626.82	1084.84
627.17	1084.14
627.51	1084.60
627.86	1092.09
628.20	1098.18
628.55	1090.46
628.89	1095.60
629.24	1104.73
629.58	1104.97
629.93	1112.46
630.28	1113.86
630.62	1107.31
630.97	1106.84
631.31	1099.12
631.66	1097.48
632.00	1104.03
632.35	1101.22
632.69	1091.63
633.04	1088.58
633.38	1079.22
633.73	1086.48
634.07	1094.43
634.42	1102.86
634.76	1105.90
635.11	1114.56
635.45	1108.01
635.79	1098.18
636.14	1095.84
636.48	1094.90
636.83	1089.52
637.17	1088.12
637.52	1096.07
637.86	1091.39
638.21	1092.33
638.55	1097.48
638.89	1085.54
639.24	1082.26
639.58	1082.26
639.93	1081.33
640.27	1075.48
640.61	1086.24
640.96	1092.09
641.30	1097.71
641.65	1102.86
641.99	1102.63
642.33	1102.16
642.68	1108.01
643.02	1107.07
643.37	1096.54
643.71	1095.37
644.05	1090.22
644.40	1076.88
644.74	1069.62
645.08	1078.28
645.43	1076.65
645.77	1071.50
646.11	1069.86
646.46	1068.22
646.80	1066.58
647.14	1071.97
647.49	1079.69
647.83	1081.56
648.17	1076.18
648.52	1074.54
648.86	1073.84
649.20	1073.14
649.55	1073.37
649.89	1090.69
650.23	1086.01
650.57	1090.92
650.92	1092.80
651.26	1097.71
651.60	1096.31
651.95	1097.48
652.29	1096.54
652.63	1103.33
652.97	1101.22
653.32	1093.26
653.66	1101.22
654.00	1097.48
654.34	1097.95
654.69	1105.90
655.03	1110.12
655.37	1110.12
655.71	1101.46
656.05	1091.39
656.40	1081.56
656.74	1080.39
657.08	1078.52
657.42	1097.71
657.76	1102.86
658.11	1102.39
658.45	1107.54
658.79	1105.67
659.13	1098.41
659.47	1099.12
659.82	1104.50
660.16	1099.82
660.50	1100.52
660.84	1104.73
661.18	1099.12
661.52	1094.90
661.87	1092.09
662.21	1089.29
662.55	1079.69
662.89	1084.84
663.23	1087.88
663.57	1093.50
663.91	1093.97
664.25	1094.20
664.60	1095.14
664.94	1087.88
665.28	1086.94
665.62	1086.94
665.96	1093.03
666.30	1093.97
666.64	1095.84
666.98	1090.92
667.32	1089.05
667.66	1088.35
668.01	1083.20
668.35	1088.82
668.69	1089.05
669.03	1094.43
669.37	1092.33
669.71	1098.18
670.05	1095.37
670.39	1102.16
670.73	1094.67
671.07	1086.48
671.41	1078.05
671.75	1080.86
672.09	1076.41
672.43	1090.92
672.77	1097.48
673.11	1100.05
673.45	1095.37
673.79	1089.52
674.13	1079.46
674.47	1077.35
674.81	1091.39
675.15	1098.41
675.49	1097.01
675.83	1103.09
676.17	1102.86
676.51	1083.20
676.85	1077.11
677.19	1096.54
677.53	1093.73
677.87	1083.67
678.21	1091.16
678.55	1094.20
678.89	1087.41
679.23	1085.77
679.57	1100.52
679.90	1100.52
680.24	1103.80
680.58	1108.24
680.92	1109.18
681.26	1107.31
681.60	1103.56
681.94	1105.20
682.28	1096.07
682.62	1089.99
682.96	1090.46
683.29	1094.90
683.63	1095.84
683.97	1088.35
684.31	1089.29
684.65	1087.65
684.99	1082.50
685.33	1078.99
685.67	1092.56
686.00	1098.18
686.34	1101.22
686.68	1110.58
687.02	1103.80
687.36	1100.75
687.70	1103.80
688.03	1109.65
688.37	1108.01
688.71	1113.86
689.05	1113.63
689.39	1116.90
689.72	1108.71
690.06	1105.90
690.40	1107.31
690.74	1096.78
691.08	1086.01
691.41	1087.41
691.75	1082.50
692.09	1081.09
692.43	1083.67
692.76	1084.14
693.10	1075.24
693.44	1075.71
693.78	1076.88
694.11	1086.71
694.45	1088.35
694.79	1097.71
695.13	1098.88
695.46	1089.29
695.80	1071.26
696.14	1070.80
696.48	1070.09
696.81	1065.88
697.15	1069.86
697.49	1083.43
697.82	1073.37
698.16	1071.97
698.50	1072.90
698.83	1076.18
699.17	1068.22
699.51	1081.09
699.84	1073.60
700.18	1070.80
700.52	1056.05
700.85	1051.84
701.19	1049.03
701.53	1054.18
701.86	1064.48
702.20	1080.63
702.54	1093.03
702.87	1101.92
703.21	1111.29
703.55	1108.01
703.88	1096.31
704.22	1091.86
704.55	1079.46
704.89	1071.97
705.23	1077.35
705.56	1075.24
705.90	1077.58
706.23	1080.39
706.57	1074.07
706.91	1076.41
707.24	1087.65
707.58	1093.26
707.91	1099.35
708.25	1110.35
708.58	1113.39
708.92	1111.99
709.26	1105.20
709.59	1107.78
709.93	1110.58
710.26	1106.61
710.60	1104.03
710.93	1111.75
711.27	1102.16
711.60	1088.35
711.94	1085.07
712.27	1083.67
712.61	1082.97
712.94	1077.58
713.28	1088.58
713.61	1082.26
713.95	1086.48
714.28	1083.43
714.62	1096.54
714.95	1093.03
715.29	1094.67
715.62	1102.63
715.96	1097.24
716.29	1085.77
716.63	1089.99
716.96	1097.01
717.29	1088.35
717.63	1093.73
717.96	1091.63
718.30	1092.33
718.63	1089.75
718.97	1081.09
719.30	1072.20
719.63	1081.80
719.97	1069.16
720.30	1070.56
720.64	1065.18
720.97	1073.60
721.30	1076.65
721.64	1086.94
721.97	1085.07
722.31	1095.84
722.64	1098.65
722.97	1089.05
723.31	1080.16
723.64	1076.41
723.97	1075.94
724.31	1062.37
724.64	1059.79
724.98	1056.05
725.31	1055.11
725.64	1057.92
725.98	1062.60
726.31	1070.33
726.64	1077.82
726.97	1084.37
727.31	1088.82
727.64	1082.97
727.97	1083.90
728.31	1083.90
728.64	1076.88
728.97	1078.99
729.31	1078.75
729.64	1081.56
729.97	1086.71
730.30	1089.05
730.64	1085.54
730.97	1097.24
731.30	1096.07
731.63	1083.67
731.97	1087.65
732.30	1083.67
732.63	1086.48
732.96	1082.03
733.30	1093.03
733.63	1093.50
733.96	1098.88
734.29	1085.77
734.63	1081.33
734.96	1071.73
735.29	1073.14
735.62	1071.26
735.95	1071.97
736.29	1080.86
736.62	1086.01
736.95	1074.07
737.28	1064.71
737.61	1080.86
737.94	1080.39
738.28	1081.09
738.61	1078.99
738.94	1086.94
739.27	1075.24
739.60	1075.01
739.93	1073.37
740.27	1082.03
740.60	1076.41
740.93	1074.54
741.26	1070.56
741.59	1071.97
741.92	1070.56
742.25	1076.18
742.58	1074.77
742.91	1077.58
743.25	1078.28
743.58	1070.33
743.91	1067.52
744.24	1064.24
744.57	1058.62
744.90	1063.31
745.23	1072.67
745.56	1066.58
745.89	1066.82
746.22	1066.82
746.55	1058.86
746.88	1056.28
747.21	1064.71
747.54	1067.99
747.87	1071.03
748.20	1063.54
748.53	1068.45
748.87	1059.56
749.20	1062.14
749.53	1062.84
749.86	1074.77
750.19	1069.16
750.52	1082.26
750.85	1086.71
751.18	1079.92
751.51	1071.50
751.84	1071.50
752.16	1074.07
752.49	1064.48
752.82	1070.33
753.15	1075.24
753.48	1081.56
753.81	1079.69
754.14	1079.69
754.47	1088.58
754.80	1095.37
755.13	1088.58
755.46	1087.65
755.79	1089.99
756.12	1078.75
756.45	1082.26
756.78	1081.33
757.11	1071.50
757.43	1066.11
757.76	1069.16
758.09	1061.43
758.42	1065.88
758.75	1081.33
759.08	1093.50
759.41	1084.84
759.74	1082.03
760.07	1082.73
760.39	1073.14
760.72	1074.54
761.05	1085.54
761.38	1093.73
761.71	1091.39
762.04	1089.99
762.36	1078.05
762.69	1075.71
763.02	1067.99
763.35	1071.97
763.68	1078.52
764.01	1085.77
