SpectraSuite Data File
++++++++++++++++++++++++++++++++++++
Date: Mon Aug 26 10:24:47 PDT 2019
User: corrico
Dark Spectrum Present: No
Reference Spectrum Present: No
Number of Sampled Component Spectra: 1
Spectrometers: USB2+H06089
Integration Time (usec): 10000 (USB2+H06089)
Spectra Averaged: 2 (USB2+H06089)
Boxcar Smoothing: 2 (USB2+H06089)
Correct for Electrical Dark: No (USB2+H06089)
Strobe/Lamp Enabled: No (USB2+H06089)
Correct for Detector Non-linearity: No (USB2+H06089)
Correct for Stray Light: No (USB2+H06089)
Number of Pixels in Processed Spectrum: 2048
>>>>>Begin Processed Spectral Data<<<<<
339.70	1002.92
340.07	1002.92
340.45	961.96
340.82	947.68
341.19	929.66
341.57	907.89
341.94	912.81
342.31	917.02
342.69	909.06
343.06	914.68
343.43	920.77
343.81	918.66
344.18	910.47
344.55	912.57
344.93	906.26
345.30	906.02
345.67	912.81
346.04	922.17
346.42	934.81
346.79	939.96
347.16	950.26
347.54	956.81
347.91	963.60
348.28	971.09
348.65	985.60
349.03	990.98
349.40	996.60
349.77	1005.26
350.14	1018.84
350.52	1031.47
350.89	1042.94
351.26	1066.11
351.63	1077.82
352.01	1077.11
352.38	1080.63
352.75	1082.73
353.12	1075.24
353.50	1089.29
353.87	1085.07
354.24	1084.14
354.61	1087.41
354.98	1096.31
355.36	1088.12
355.73	1099.35
356.10	1097.24
356.47	1105.20
356.84	1095.60
357.22	1091.16
357.59	1083.67
357.96	1082.26
358.33	1067.28
358.70	1071.03
359.08	1070.33
359.45	1078.99
359.82	1088.35
360.19	1101.69
360.56	1090.69
360.94	1088.35
361.31	1081.33
361.68	1082.26
362.05	1091.16
362.42	1101.46
362.79	1100.29
363.16	1100.52
363.54	1089.75
363.91	1074.31
364.28	1070.80
364.65	1078.28
365.02	1083.67
365.39	1081.09
365.76	1079.69
366.14	1089.99
366.51	1081.09
366.88	1072.67
367.25	1082.97
367.62	1089.29
367.99	1073.84
368.36	1070.80
368.73	1078.05
369.10	1076.65
369.48	1067.28
369.85	1077.58
370.22	1088.58
370.59	1090.92
370.96	1082.26
371.33	1085.31
371.70	1082.26
372.07	1075.48
372.44	1065.18
372.81	1073.84
373.18	1078.05
373.55	1074.31
373.93	1087.41
374.30	1097.95
374.67	1095.37
375.04	1087.88
375.41	1086.94
375.78	1073.37
376.15	1073.14
376.52	1072.20
376.89	1086.48
377.26	1089.29
377.63	1085.31
378.00	1077.58
378.37	1083.67
378.74	1077.11
379.11	1082.26
379.48	1092.80
379.85	1092.56
380.22	1094.90
380.59	1101.69
380.96	1103.80
381.33	1106.61
381.70	1113.16
382.07	1118.31
382.44	1113.86
382.81	1109.65
383.18	1111.05
383.55	1113.86
383.92	1103.09
384.29	1099.82
384.66	1109.65
385.03	1106.37
385.40	1103.56
385.77	1105.20
386.14	1106.84
386.51	1099.12
386.88	1103.80
387.25	1102.16
387.62	1098.41
387.99	1101.92
388.36	1108.24
388.73	1105.90
389.10	1109.41
389.46	1114.10
389.83	1115.50
390.20	1113.39
390.57	1113.16
390.94	1105.67
391.31	1104.73
391.68	1099.82
392.05	1103.56
392.42	1105.67
392.79	1109.41
393.16	1106.37
393.53	1104.97
393.89	1099.12
394.26	1089.05
394.63	1095.37
395.00	1089.99
395.37	1093.26
395.74	1094.20
396.11	1104.73
396.48	1101.69
396.84	1119.24
397.21	1120.65
397.58	1130.01
397.95	1142.42
398.32	1142.88
398.69	1151.08
399.06	1153.42
399.42	1157.86
399.79	1160.44
400.16	1173.08
400.53	1168.16
400.90	1184.31
401.27	1176.35
401.64	1162.31
402.00	1158.10
402.37	1155.05
402.74	1154.59
403.11	1162.54
403.48	1187.35
403.84	1212.87
404.21	1225.97
404.58	1230.19
404.95	1229.95
405.32	1220.12
405.68	1219.89
406.05	1238.85
406.42	1249.14
406.79	1278.17
407.16	1297.59
407.52	1313.27
407.89	1326.38
408.26	1346.51
408.63	1356.81
408.99	1381.38
409.36	1395.90
409.73	1417.90
410.10	1450.43
410.47	1490.92
410.83	1529.31
411.20	1570.73
411.57	1605.14
411.94	1643.52
412.30	1691.04
412.67	1729.89
413.04	1783.02
413.40	1839.90
413.77	1891.15
414.14	1951.30
414.51	2027.14
414.87	2092.91
415.24	2166.63
415.61	2253.47
415.97	2324.15
416.34	2415.20
416.71	2509.29
417.08	2625.85
417.44	2719.47
417.81	2850.77
418.18	2983.95
418.54	3118.53
418.91	3260.13
419.28	3431.93
419.64	3581.49
420.01	3744.62
420.38	3943.57
420.74	4121.92
421.11	4331.86
421.48	4553.28
421.84	4775.40
422.21	4985.34
422.58	5238.82
422.94	5486.68
423.31	5763.34
423.68	6034.14
424.04	6346.83
424.41	6671.70
424.77	7008.50
425.14	7305.05
425.51	7675.79
425.87	8053.08
426.24	8411.42
426.61	8827.10
426.97	9371.97
427.34	9835.17
427.70	10358.27
428.07	10878.81
428.44	11404.49
428.80	11876.35
429.17	12452.82
429.53	12983.65
429.90	13680.43
430.27	14274.23
430.63	14880.89
431.00	15542.33
431.36	16353.79
431.73	16974.97
432.09	17749.69
432.46	18536.81
432.83	19208.31
433.19	19794.85
433.56	20539.37
433.92	21190.98
434.29	21838.37
434.65	22579.15
435.02	23244.56
435.38	23912.55
435.75	24458.60
436.11	25093.12
436.48	25540.86
436.84	26076.38
437.21	26592.46
437.57	27104.81
437.94	27515.34
438.30	27960.27
438.67	28223.35
439.03	28315.80
439.40	28525.75
439.76	28500.24
440.13	28447.81
440.49	28474.72
440.86	28287.25
441.22	27920.02
441.59	27588.60
441.95	27248.75
442.32	26652.15
442.68	26184.98
443.05	25662.34
443.41	25108.33
443.78	24419.04
444.14	23831.57
444.51	23152.58
444.87	22717.94
445.24	22212.15
445.60	21783.37
445.96	21214.38
446.33	20787.70
446.69	20100.05
447.06	19528.26
447.42	18887.42
447.79	18343.25
448.15	17856.65
448.51	17391.82
448.88	16961.86
449.24	16530.97
449.61	16215.93
449.97	15784.57
450.33	15398.62
450.70	14935.66
451.06	14593.24
451.43	14113.43
451.79	13675.05
452.15	13306.41
452.52	12973.59
452.88	12642.87
453.24	12375.82
453.61	12113.91
453.97	11828.60
454.34	11534.16
454.70	11218.66
455.06	10947.62
455.43	10586.48
455.79	10196.78
456.15	9867.93
456.52	9539.32
456.88	9216.33
457.24	8971.04
457.61	8770.46
457.97	8528.21
458.33	8278.01
458.70	8016.10
459.06	7758.88
459.42	7524.35
459.79	7278.60
460.15	7050.63
460.51	6807.21
460.88	6604.76
461.24	6384.05
461.60	6210.38
461.96	6016.11
462.33	5846.66
462.69	5658.48
463.05	5484.11
463.42	5331.74
463.78	5193.41
464.14	5066.09
464.50	4943.45
464.87	4823.14
465.23	4679.20
465.59	4578.56
465.95	4472.30
466.32	4361.59
466.68	4263.75
467.04	4199.86
467.40	4093.13
467.77	4005.36
468.13	3925.55
468.49	3848.78
468.85	3766.62
469.22	3699.68
469.58	3642.81
469.94	3579.38
470.30	3507.06
470.66	3434.74
471.03	3362.41
471.39	3303.43
471.75	3235.79
472.11	3181.96
472.47	3125.79
472.84	3081.32
473.20	3013.21
473.56	2968.27
473.92	2906.24
474.28	2848.67
474.65	2806.54
475.01	2772.36
475.37	2730.23
475.73	2693.49
476.09	2649.25
476.45	2614.61
476.81	2561.72
477.18	2515.84
477.54	2477.93
477.90	2453.82
478.26	2406.07
478.62	2361.60
478.98	2331.64
479.34	2303.56
479.71	2272.43
480.07	2237.79
480.43	2219.76
480.79	2188.63
481.15	2176.93
481.51	2148.14
481.87	2140.89
482.23	2109.76
482.59	2083.31
482.96	2048.20
483.32	2024.80
483.68	2002.09
484.04	1999.05
484.40	1980.33
484.76	1970.73
485.12	1951.07
485.48	1922.28
485.84	1897.00
486.20	1886.00
486.56	1853.70
486.92	1828.89
487.28	1815.09
487.64	1791.21
488.00	1772.96
488.37	1754.00
488.73	1743.70
489.09	1715.61
489.45	1695.72
489.81	1681.21
490.17	1657.80
490.53	1655.23
490.89	1645.86
491.25	1636.74
491.61	1622.23
491.97	1614.74
492.33	1588.99
492.69	1570.03
493.05	1558.56
493.41	1543.12
493.77	1532.82
494.13	1523.92
494.49	1520.41
494.85	1500.99
495.21	1490.45
495.57	1480.62
495.93	1467.05
496.29	1451.60
496.64	1449.03
497.00	1434.05
497.36	1419.07
497.72	1401.51
498.08	1395.19
498.44	1379.28
498.80	1372.96
499.16	1373.66
499.52	1375.77
499.88	1361.49
500.24	1355.87
500.60	1344.40
500.96	1333.17
501.32	1322.87
501.68	1316.55
502.03	1310.93
502.39	1307.42
502.75	1291.74
503.11	1293.61
503.47	1287.53
503.83	1276.06
504.19	1273.49
504.55	1273.25
504.91	1265.53
505.26	1271.38
505.62	1258.51
505.98	1252.42
506.34	1252.42
506.70	1252.89
507.06	1247.27
507.42	1254.29
507.78	1262.48
508.13	1254.06
508.49	1231.36
508.85	1226.21
509.21	1220.59
509.57	1208.65
509.93	1201.87
510.28	1209.12
510.64	1191.33
511.00	1188.99
511.36	1186.89
511.72	1188.06
512.07	1181.97
512.43	1189.69
512.79	1189.23
513.15	1181.27
513.51	1181.03
513.86	1172.37
514.22	1164.18
514.58	1159.50
514.94	1163.71
515.30	1158.10
515.65	1161.61
516.01	1157.39
516.37	1162.31
516.73	1141.01
517.08	1139.61
517.44	1139.84
517.80	1153.88
518.16	1159.50
518.51	1166.76
518.87	1167.46
519.23	1169.57
519.59	1160.20
519.94	1147.10
520.30	1164.18
520.66	1159.27
521.01	1158.80
521.37	1156.22
521.73	1154.82
522.09	1148.97
522.44	1152.01
522.80	1152.95
523.16	1149.67
523.51	1155.76
523.87	1146.63
524.23	1141.71
524.58	1125.80
524.94	1121.58
525.30	1117.61
525.65	1129.78
526.01	1132.59
526.37	1152.95
526.72	1168.16
527.08	1159.74
527.44	1136.56
527.79	1127.90
528.15	1110.12
528.51	1093.73
528.86	1101.69
529.22	1120.18
529.58	1125.80
529.93	1128.84
530.29	1135.86
530.65	1134.69
531.00	1127.20
531.36	1125.33
531.71	1127.90
532.07	1131.65
532.43	1123.22
532.78	1119.48
533.14	1117.84
533.49	1116.44
533.85	1113.86
534.21	1116.67
534.56	1123.69
534.92	1124.63
535.27	1130.71
535.63	1122.75
535.98	1126.27
536.34	1118.78
536.69	1115.27
537.05	1100.99
537.41	1097.71
537.76	1097.95
538.12	1097.48
538.47	1102.39
538.83	1107.54
539.18	1113.86
539.54	1116.90
539.89	1108.24
540.25	1104.50
540.60	1114.10
540.96	1110.12
541.31	1109.18
541.67	1119.48
542.02	1126.97
542.38	1110.82
542.73	1114.09
543.09	1110.82
543.44	1119.01
543.80	1105.44
544.15	1108.48
544.51	1110.12
544.86	1113.86
545.22	1100.05
545.57	1106.37
545.93	1111.05
546.28	1114.10
546.64	1108.95
546.99	1111.75
547.35	1118.78
547.70	1114.09
548.05	1115.97
548.41	1117.84
548.76	1126.50
549.12	1123.22
549.47	1125.33
549.83	1115.73
550.18	1106.37
550.53	1093.97
550.89	1085.07
551.24	1080.63
551.60	1077.82
551.95	1086.24
552.30	1094.43
552.66	1099.35
553.01	1115.27
553.37	1119.01
553.72	1109.41
554.07	1100.75
554.43	1103.09
554.78	1098.18
555.13	1094.67
555.49	1104.97
555.84	1099.12
556.19	1096.07
556.55	1096.31
556.90	1096.31
557.26	1093.03
557.61	1095.60
557.96	1089.05
558.32	1076.65
558.67	1087.18
559.02	1080.39
559.37	1086.48
559.73	1091.63
560.08	1093.50
560.43	1085.31
560.79	1098.41
561.14	1096.78
561.49	1098.18
561.85	1102.39
562.20	1105.90
562.55	1101.69
562.90	1099.12
563.26	1095.60
563.61	1093.97
563.96	1092.56
564.32	1088.12
564.67	1092.56
565.02	1100.75
565.37	1101.22
565.73	1110.12
566.08	1121.82
566.43	1128.37
566.78	1116.90
567.14	1119.01
567.49	1115.97
567.84	1114.56
568.19	1106.14
568.54	1104.97
568.90	1093.50
569.25	1082.26
569.60	1069.39
569.95	1063.77
570.31	1078.05
570.66	1096.07
571.01	1095.60
571.36	1098.18
571.71	1102.39
572.06	1085.54
572.42	1079.92
572.77	1088.82
573.12	1089.99
573.47	1096.31
573.82	1098.65
574.18	1100.05
574.53	1099.35
574.88	1099.12
575.23	1096.31
575.58	1105.44
575.93	1091.86
576.28	1089.05
576.64	1092.56
576.99	1091.39
577.34	1089.75
577.69	1100.52
578.04	1089.75
578.39	1087.88
578.74	1084.37
579.09	1081.56
579.44	1074.31
579.80	1074.07
580.15	1074.07
580.50	1071.50
580.85	1076.88
581.20	1081.09
581.55	1089.75
581.90	1085.54
582.25	1089.99
582.60	1076.18
582.95	1091.16
583.30	1095.14
583.65	1098.18
584.00	1099.82
584.35	1118.31
584.71	1108.01
585.06	1103.33
585.41	1098.41
585.76	1095.60
586.11	1087.88
586.46	1088.35
586.81	1098.41
587.16	1093.97
587.51	1093.50
587.86	1103.80
588.21	1111.99
588.56	1106.37
588.91	1104.97
589.26	1112.46
589.61	1100.75
589.96	1095.37
590.31	1088.82
590.66	1088.35
591.01	1087.41
591.36	1084.84
591.71	1082.73
592.06	1091.86
592.41	1100.05
592.76	1096.78
593.10	1105.90
593.45	1099.35
593.80	1095.60
594.15	1095.60
594.50	1094.43
594.85	1079.46
595.20	1077.35
595.55	1070.56
595.90	1068.45
596.25	1068.45
596.60	1083.90
596.95	1075.71
597.30	1082.50
597.64	1135.39
597.99	1146.39
598.34	1137.73
598.69	1142.65
599.04	1141.48
599.39	1090.92
599.74	1072.90
600.09	1069.39
600.44	1079.22
600.78	1079.46
601.13	1082.03
601.48	1090.69
601.83	1098.88
602.18	1102.39
602.53	1110.58
602.88	1109.18
603.22	1106.84
603.57	1107.54
603.92	1117.37
604.27	1110.12
604.62	1115.50
604.97	1119.48
605.31	1118.07
605.66	1111.99
606.01	1110.35
606.36	1098.88
606.71	1098.18
607.05	1102.16
607.40	1101.69
607.75	1100.52
608.10	1109.41
608.44	1095.60
608.79	1092.80
609.14	1078.99
609.49	1075.48
609.84	1071.50
610.18	1097.24
610.53	1101.69
610.88	1103.33
611.23	1108.95
611.57	1115.73
611.92	1108.48
612.27	1102.39
612.62	1109.41
612.96	1116.90
613.31	1113.16
613.66	1107.07
614.00	1103.80
614.35	1103.09
614.70	1092.56
615.05	1087.41
615.39	1088.12
615.74	1093.26
616.09	1086.24
616.43	1089.52
616.78	1087.41
617.13	1089.99
617.47	1089.75
617.82	1091.39
618.17	1098.65
618.51	1101.69
618.86	1100.75
619.21	1100.29
619.55	1097.24
619.90	1086.01
620.25	1094.20
620.59	1081.33
620.94	1078.05
621.29	1086.94
621.63	1087.18
621.98	1079.92
622.32	1081.09
622.67	1084.14
623.02	1086.24
623.36	1087.18
623.71	1089.29
624.05	1100.29
624.40	1100.75
624.75	1084.60
625.09	1085.07
625.44	1087.41
625.78	1082.03
626.13	1093.26
626.48	1102.39
626.82	1097.48
627.17	1091.16
627.51	1098.65
627.86	1081.80
628.20	1072.90
628.55	1082.73
628.89	1098.65
629.24	1093.73
629.58	1095.60
629.93	1110.82
630.28	1108.71
630.62	1095.14
630.97	1096.78
631.31	1101.69
631.66	1097.01
632.00	1087.65
632.35	1098.88
632.69	1090.69
633.04	1085.54
633.38	1087.41
633.73	1097.01
634.07	1085.31
634.42	1095.60
634.76	1094.43
635.11	1091.39
635.45	1084.37
635.79	1083.43
636.14	1084.37
636.48	1083.43
636.83	1083.90
637.17	1087.88
637.52	1086.94
637.86	1080.86
638.21	1089.29
638.55	1092.33
638.89	1095.37
639.24	1102.86
639.58	1107.31
639.93	1091.86
640.27	1086.24
640.61	1085.07
640.96	1079.69
641.30	1072.90
641.65	1078.99
641.99	1078.28
642.33	1083.43
642.68	1082.97
643.02	1082.50
643.37	1092.80
643.71	1090.92
644.05	1077.82
644.40	1082.03
644.74	1083.67
645.08	1076.88
645.43	1081.80
645.77	1090.92
646.11	1084.37
646.46	1079.69
646.80	1080.63
647.14	1076.65
647.49	1064.71
647.83	1070.09
648.17	1075.24
648.52	1066.35
648.86	1066.58
649.20	1078.28
649.55	1079.92
649.89	1086.71
650.23	1095.14
650.57	1105.90
650.92	1104.73
651.26	1106.84
651.60	1099.82
651.95	1097.01
652.29	1081.09
652.63	1075.94
652.97	1071.03
653.32	1070.33
653.66	1069.16
654.00	1074.54
654.34	1088.35
654.69	1083.20
655.03	1087.88
655.37	1089.52
655.71	1101.92
656.05	1089.99
656.40	1093.73
656.74	1092.09
657.08	1100.99
657.42	1100.05
657.76	1099.82
658.11	1105.67
658.45	1108.48
658.79	1105.20
659.13	1092.33
659.47	1099.82
659.82	1096.07
660.16	1094.67
660.50	1082.73
660.84	1088.58
661.18	1083.90
661.52	1078.05
661.87	1074.77
662.21	1079.22
662.55	1068.22
662.89	1065.65
663.23	1072.67
663.57	1079.46
663.91	1087.41
664.25	1097.24
664.60	1098.65
664.94	1093.50
665.28	1090.46
665.62	1085.07
665.96	1088.82
666.30	1080.63
666.64	1080.16
666.98	1074.31
667.32	1073.84
667.66	1067.99
668.01	1071.50
668.35	1077.11
668.69	1086.48
669.03	1086.24
669.37	1093.03
669.71	1094.90
670.05	1095.14
670.39	1099.35
670.73	1100.52
671.07	1096.31
671.41	1097.71
671.75	1105.90
672.09	1094.67
672.43	1095.37
672.77	1097.24
673.11	1100.52
673.45	1077.11
673.79	1088.12
674.13	1090.22
674.47	1086.94
674.81	1076.41
675.15	1092.56
675.49	1083.67
675.83	1079.22
676.17	1076.65
676.51	1093.50
676.85	1086.24
677.19	1086.71
677.53	1096.31
677.87	1096.78
678.21	1088.35
678.55	1086.94
678.89	1085.54
679.23	1083.43
679.57	1083.67
679.90	1080.86
680.24	1080.16
680.58	1084.37
680.92	1084.84
681.26	1091.16
681.60	1094.20
681.94	1100.05
682.28	1097.48
682.62	1094.67
682.96	1084.37
683.29	1091.86
683.63	1090.22
683.97	1095.60
684.31	1095.60
684.65	1094.90
684.99	1097.24
685.33	1095.37
685.67	1088.82
686.00	1081.33
686.34	1088.58
686.68	1076.88
687.02	1080.16
687.36	1073.37
687.70	1081.09
688.03	1078.05
688.37	1080.86
688.71	1081.33
689.05	1084.14
689.39	1081.09
689.72	1079.22
690.06	1078.28
690.40	1076.18
690.74	1073.84
691.08	1075.01
691.41	1087.18
691.75	1086.24
692.09	1085.31
692.43	1086.24
692.76	1091.39
693.10	1079.92
693.44	1078.28
693.78	1076.18
694.11	1085.54
694.45	1076.18
694.79	1085.77
695.13	1095.37
695.46	1098.18
695.80	1091.63
696.14	1093.97
696.48	1086.48
696.81	1083.90
697.15	1079.46
697.49	1088.12
697.82	1093.50
698.16	1103.80
698.50	1096.07
698.83	1095.37
699.17	1091.16
699.51	1084.37
699.84	1078.52
700.18	1085.31
700.52	1088.12
700.85	1083.43
701.19	1090.69
701.53	1088.58
701.86	1088.58
702.20	1100.29
702.54	1101.46
702.87	1100.52
703.21	1103.80
703.55	1106.37
703.88	1091.39
704.22	1090.22
704.55	1087.18
704.89	1082.73
705.23	1079.22
705.56	1085.07
705.90	1086.71
706.23	1085.54
706.57	1080.86
706.91	1075.48
707.24	1073.60
707.58	1089.05
707.91	1099.35
708.25	1099.82
708.58	1098.88
708.92	1101.46
709.26	1087.88
709.59	1079.69
709.93	1081.80
710.26	1093.97
710.60	1085.77
710.93	1086.94
711.27	1091.16
711.60	1093.97
711.94	1081.80
712.27	1091.63
712.61	1093.26
712.94	1088.35
713.28	1090.69
713.61	1095.14
713.95	1099.35
714.28	1092.80
714.62	1089.52
714.95	1083.90
715.29	1082.73
715.62	1070.33
715.96	1072.67
716.29	1068.22
716.63	1068.92
716.96	1062.84
717.29	1069.62
717.63	1068.22
717.96	1077.82
718.30	1081.80
718.63	1084.84
718.97	1077.35
719.30	1076.88
719.63	1066.58
719.97	1066.11
720.30	1067.05
720.64	1071.73
720.97	1075.24
721.30	1071.26
721.64	1072.43
721.97	1071.73
722.31	1069.86
722.64	1075.71
722.97	1083.20
723.31	1078.05
723.64	1085.31
723.97	1085.07
724.31	1066.35
724.64	1069.62
724.98	1072.67
725.31	1065.18
725.64	1060.73
725.98	1071.03
726.31	1074.31
726.64	1067.75
726.97	1076.18
727.31	1087.88
727.64	1078.75
727.97	1066.35
728.31	1067.99
728.64	1059.79
728.97	1051.60
729.31	1060.96
729.64	1069.16
729.97	1068.22
730.30	1069.39
730.64	1064.48
730.97	1068.92
731.30	1078.28
731.63	1081.56
731.97	1084.37
732.30	1088.82
732.63	1080.16
732.96	1079.22
733.30	1082.26
733.63	1081.56
733.96	1090.22
734.29	1086.24
734.63	1075.94
734.96	1072.43
735.29	1074.54
735.62	1065.41
735.95	1065.41
736.29	1065.88
736.62	1065.18
736.95	1066.35
737.28	1076.65
737.61	1083.90
737.94	1081.56
738.28	1083.20
738.61	1087.65
738.94	1089.05
739.27	1089.52
739.60	1091.63
739.93	1086.24
740.27	1081.56
740.60	1070.09
740.93	1074.77
741.26	1077.58
741.59	1086.01
741.92	1093.73
742.25	1105.67
742.58	1104.73
742.91	1107.54
743.25	1100.05
743.58	1082.73
743.91	1067.05
744.24	1054.88
744.57	1041.77
744.90	1042.71
745.23	1039.43
745.56	1042.24
745.89	1059.56
746.22	1071.97
746.55	1075.48
746.88	1079.22
747.21	1086.48
747.54	1071.97
747.87	1071.03
748.20	1069.62
748.53	1072.67
748.87	1077.35
749.20	1085.77
749.53	1087.65
749.86	1093.73
750.19	1093.50
750.52	1096.78
750.85	1086.94
751.18	1084.14
751.51	1074.07
751.84	1079.22
752.16	1078.52
752.49	1087.88
752.82	1097.48
753.15	1109.41
753.48	1111.99
753.81	1112.22
754.14	1119.95
754.47	1111.29
754.80	1114.10
755.13	1105.90
755.46	1094.90
755.79	1076.18
756.12	1074.31
756.45	1063.54
756.78	1064.71
757.11	1069.39
757.43	1080.86
757.76	1078.99
758.09	1071.26
758.42	1064.94
758.75	1068.92
759.08	1069.16
759.41	1073.14
759.74	1089.52
760.07	1094.67
760.39	1084.84
760.72	1077.11
761.05	1076.18
761.38	1067.75
761.71	1065.88
762.04	1068.92
762.36	1061.43
762.69	1063.77
763.02	1068.92
763.35	1066.35
763.68	1069.39
764.01	1074.07
764.33	1066.35
764.66	1061.43
