SpectraSuite Data File
++++++++++++++++++++++++++++++++++++
Date: Mon Aug 26 10:24:51 PDT 2019
User: corrico
Dark Spectrum Present: No
Reference Spectrum Present: No
Number of Sampled Component Spectra: 1
Spectrometers: USB2+H06089
Integration Time (usec): 10000 (USB2+H06089)
Spectra Averaged: 2 (USB2+H06089)
Boxcar Smoothing: 2 (USB2+H06089)
Correct for Electrical Dark: No (USB2+H06089)
Strobe/Lamp Enabled: No (USB2+H06089)
Correct for Detector Non-linearity: No (USB2+H06089)
Correct for Stray Light: No (USB2+H06089)
Number of Pixels in Processed Spectrum: 2048
>>>>>Begin Processed Spectral Data<<<<<
339.70	1081.33
340.07	1081.33
340.45	1026.79
340.82	998.00
341.19	967.81
341.57	934.58
341.94	923.34
342.31	917.96
342.69	910.00
343.06	900.64
343.43	896.43
343.81	900.87
344.18	903.45
344.55	900.40
344.93	906.02
345.30	908.60
345.67	913.75
346.04	924.04
346.42	936.21
346.79	942.07
347.16	955.17
347.54	960.32
347.91	968.51
348.28	979.51
348.65	994.03
349.03	1001.05
349.40	1018.84
349.77	1029.37
350.14	1037.56
350.52	1049.03
350.89	1062.84
351.26	1058.39
351.63	1057.22
352.01	1069.16
352.38	1073.60
352.75	1078.28
353.12	1084.60
353.50	1093.50
353.87	1085.54
354.24	1083.43
354.61	1078.28
354.98	1084.14
355.36	1078.75
355.73	1086.48
356.10	1084.60
356.47	1089.05
356.84	1093.03
357.22	1093.26
357.59	1096.54
357.96	1097.71
358.33	1100.99
358.70	1093.50
359.08	1089.05
359.45	1092.33
359.82	1094.90
360.19	1097.71
360.56	1101.92
360.94	1112.46
361.31	1110.12
361.68	1114.10
362.05	1106.61
362.42	1096.78
362.79	1101.22
363.16	1096.31
363.54	1081.56
363.91	1075.48
364.28	1088.82
364.65	1083.90
365.02	1074.07
365.39	1075.71
365.76	1079.22
366.14	1072.43
366.51	1067.52
366.88	1068.69
367.25	1078.75
367.62	1078.05
367.99	1065.18
368.36	1063.54
368.73	1074.07
369.10	1084.14
369.48	1092.09
369.85	1110.12
370.22	1119.48
370.59	1118.31
370.96	1104.26
371.33	1097.71
371.70	1085.54
372.07	1084.37
372.44	1083.90
372.81	1084.60
373.18	1092.56
373.55	1097.48
373.93	1100.99
374.30	1102.63
374.67	1108.48
375.04	1102.63
375.41	1103.09
375.78	1097.95
376.15	1092.80
376.52	1085.54
376.89	1081.80
377.26	1081.09
377.63	1068.45
378.00	1067.05
378.37	1064.01
378.74	1078.05
379.11	1088.82
379.48	1104.26
379.85	1108.95
380.22	1121.12
380.59	1120.88
380.96	1106.37
381.33	1094.67
381.70	1097.71
382.07	1089.29
382.44	1075.01
382.81	1085.77
383.18	1100.29
383.55	1097.24
383.92	1099.82
384.29	1102.39
384.66	1091.63
385.03	1086.48
385.40	1083.20
385.77	1089.99
386.14	1093.73
386.51	1103.09
386.88	1106.84
387.25	1109.41
387.62	1094.43
387.99	1088.58
388.36	1089.75
388.73	1089.52
389.10	1087.65
389.46	1102.16
389.83	1110.58
390.20	1111.75
390.57	1110.12
390.94	1108.48
391.31	1101.92
391.68	1097.95
392.05	1098.88
392.42	1095.60
392.79	1110.35
393.16	1120.65
393.53	1121.58
393.89	1121.82
394.26	1113.86
394.63	1106.14
395.00	1097.95
395.37	1098.18
395.74	1100.75
396.11	1115.73
396.48	1113.63
396.84	1127.90
397.21	1141.71
397.58	1131.41
397.95	1123.46
398.32	1125.10
398.69	1121.58
399.06	1115.97
399.42	1124.86
399.79	1136.33
400.16	1133.52
400.53	1134.93
400.90	1135.63
401.27	1147.10
401.64	1161.84
402.00	1184.55
402.37	1189.93
402.74	1185.25
403.11	1185.01
403.48	1170.74
403.84	1154.59
404.21	1163.95
404.58	1185.25
404.95	1194.61
405.32	1211.93
405.68	1243.76
406.05	1247.74
406.42	1259.21
406.79	1271.14
407.16	1283.08
407.52	1297.36
407.89	1315.62
408.26	1336.91
408.63	1362.89
408.99	1387.70
409.36	1402.45
409.73	1427.96
410.10	1448.79
410.47	1466.81
410.83	1497.47
411.20	1537.73
411.57	1576.12
411.94	1620.12
412.30	1663.42
412.67	1706.48
413.04	1749.55
413.40	1794.96
413.77	1852.53
414.14	1930.01
414.51	2000.92
414.87	2073.48
415.24	2160.55
415.61	2231.93
415.97	2283.89
416.34	2370.03
416.71	2465.99
417.08	2565.93
417.44	2678.98
417.81	2825.26
418.18	2946.97
418.54	3081.55
418.91	3217.53
419.28	3376.46
419.64	3523.91
420.01	3706.00
420.38	3875.69
420.74	4044.21
421.11	4238.48
421.48	4454.27
421.84	4673.35
422.21	4895.00
422.58	5139.11
422.94	5396.34
423.31	5635.78
423.68	5892.06
424.04	6217.40
424.41	6539.92
424.77	6812.60
425.14	7135.59
425.51	7472.16
425.87	7839.39
426.24	8175.26
426.61	8623.70
426.97	9117.32
427.34	9584.73
427.70	10057.28
428.07	10599.12
428.44	11086.42
428.80	11615.38
429.17	12176.40
429.53	12696.94
429.90	13330.29
430.27	13904.19
430.63	14465.68
431.00	15138.82
431.36	15879.13
431.73	16487.67
432.09	17214.64
432.46	17891.99
432.83	18521.13
433.19	19080.28
433.56	19802.34
433.92	20483.67
434.29	21098.06
434.65	21791.32
435.02	22471.72
435.38	23111.62
435.75	23658.84
436.11	24322.61
436.48	24790.95
436.84	25310.09
437.21	25791.30
437.57	26263.39
437.94	26696.38
438.30	27115.11
438.67	27434.12
439.03	27523.53
439.40	27670.52
439.76	27606.38
440.13	27494.98
440.49	27361.56
440.86	27207.32
441.22	26933.95
441.59	26601.12
441.95	26277.66
442.32	25759.94
442.68	25285.74
443.05	24731.27
443.41	24192.25
443.78	23567.09
444.14	23021.04
444.51	22436.61
444.87	22007.82
445.24	21581.38
445.60	21122.63
445.96	20610.29
446.33	20090.69
446.69	19511.88
447.06	18968.87
447.42	18434.76
447.79	17919.84
448.15	17501.59
448.51	16981.99
448.88	16552.74
449.24	16105.69
449.61	15766.55
449.97	15349.47
450.33	14944.32
450.70	14460.30
451.06	14105.00
451.43	13648.60
451.79	13284.18
452.15	12972.65
452.52	12665.81
452.88	12310.28
453.24	12052.59
453.61	11794.19
453.97	11512.86
454.34	11225.91
454.70	11011.28
455.06	10766.93
455.43	10454.47
455.79	10113.22
456.15	9815.74
456.52	9438.21
456.88	9122.00
457.24	8824.76
457.61	8599.83
457.97	8361.80
458.33	8168.47
458.70	7910.31
459.06	7632.02
459.42	7377.13
459.79	7122.72
460.15	6849.58
460.51	6628.40
460.88	6437.41
461.24	6238.00
461.60	6065.03
461.96	5907.98
462.33	5739.23
462.69	5586.16
463.05	5410.85
463.42	5253.10
463.78	5114.54
464.14	4979.26
464.50	4859.65
464.87	4781.48
465.23	4680.60
465.59	4591.43
465.95	4496.64
466.32	4381.01
466.68	4263.75
467.04	4162.41
467.40	4051.94
467.77	3973.53
468.13	3887.40
468.49	3818.58
468.85	3761.94
469.22	3695.47
469.58	3624.55
469.94	3566.04
470.30	3483.65
470.66	3398.93
471.03	3324.50
471.39	3254.98
471.75	3205.60
472.11	3158.08
472.47	3115.02
472.84	3074.29
473.20	3021.87
473.56	2955.63
473.92	2887.05
474.28	2823.15
474.65	2774.47
475.01	2743.34
475.37	2689.74
475.73	2659.55
476.09	2633.10
476.45	2584.89
476.81	2533.40
477.18	2486.59
477.54	2459.43
477.90	2422.92
478.26	2377.28
478.62	2338.90
478.98	2330.71
479.34	2298.17
479.71	2263.53
480.07	2253.47
480.43	2226.32
480.79	2197.29
481.15	2170.14
481.51	2148.85
481.87	2118.89
482.23	2101.10
482.59	2066.22
482.96	2047.50
483.32	2021.52
483.68	1996.48
484.04	1966.75
484.40	1951.30
484.76	1921.58
485.12	1910.35
485.48	1898.64
485.84	1879.22
486.20	1858.62
486.56	1847.85
486.92	1835.45
487.28	1820.47
487.64	1801.51
488.00	1783.49
488.37	1765.23
488.73	1726.85
489.09	1700.63
489.45	1693.61
489.81	1662.25
490.17	1637.20
490.53	1628.31
490.89	1603.03
491.25	1588.99
491.61	1588.52
491.97	1582.67
492.33	1568.39
492.69	1564.65
493.05	1532.58
493.41	1520.65
493.77	1510.82
494.13	1494.20
494.49	1493.73
494.85	1499.58
495.21	1485.07
495.57	1452.54
495.93	1439.90
496.29	1421.17
496.64	1409.47
497.00	1406.66
497.36	1406.90
497.72	1407.83
498.08	1404.56
498.44	1390.51
498.80	1374.13
499.16	1371.32
499.52	1356.11
499.88	1342.77
500.24	1331.06
500.60	1325.21
500.96	1317.25
501.32	1315.85
501.68	1308.83
502.03	1307.66
502.39	1296.42
502.75	1294.78
503.11	1292.91
503.47	1286.36
503.83	1279.80
504.19	1290.10
504.55	1274.42
504.91	1266.93
505.26	1261.55
505.62	1251.02
505.98	1237.44
506.34	1233.23
506.70	1228.55
507.06	1222.93
507.42	1214.74
507.78	1207.95
508.13	1212.40
508.49	1214.04
508.85	1212.40
509.21	1220.82
509.57	1219.19
509.93	1206.55
510.28	1196.25
510.64	1190.40
511.00	1184.08
511.36	1193.91
511.72	1199.76
512.07	1199.76
512.43	1203.74
512.79	1201.16
513.15	1187.59
513.51	1188.76
513.86	1182.20
514.22	1177.76
514.58	1173.08
514.94	1167.69
515.30	1167.23
515.65	1173.78
516.01	1163.25
516.37	1163.95
516.73	1166.99
517.08	1163.71
517.44	1149.67
517.80	1148.27
518.16	1147.80
518.51	1140.54
518.87	1128.14
519.23	1133.99
519.59	1140.78
519.94	1134.69
520.30	1135.86
520.66	1142.65
521.01	1137.27
521.37	1128.14
521.73	1132.59
522.09	1128.84
522.44	1130.48
522.80	1130.95
523.16	1137.97
523.51	1143.12
523.87	1139.61
524.23	1137.03
524.58	1139.14
524.94	1130.01
525.30	1119.71
525.65	1127.67
526.01	1130.24
526.37	1135.86
526.72	1136.80
527.08	1148.03
527.44	1145.93
527.79	1139.14
528.15	1130.01
528.51	1126.03
528.86	1114.80
529.22	1113.63
529.58	1113.39
529.93	1113.16
530.29	1123.46
530.65	1132.12
531.00	1132.12
531.36	1135.86
531.71	1136.33
532.07	1131.41
532.43	1119.71
532.78	1115.27
533.14	1119.95
533.49	1113.39
533.85	1106.61
534.21	1114.56
534.56	1114.09
534.92	1111.99
535.27	1122.99
535.63	1120.88
535.98	1112.46
536.34	1118.54
536.69	1107.07
537.05	1105.90
537.41	1106.61
537.76	1098.41
538.12	1089.75
538.47	1097.71
538.83	1092.80
539.18	1093.73
539.54	1107.54
539.89	1115.50
540.25	1107.31
540.60	1107.54
540.96	1118.07
541.31	1117.37
541.67	1113.39
542.02	1113.63
542.38	1116.44
542.73	1113.86
543.09	1118.54
543.44	1115.97
543.80	1116.67
544.15	1118.54
544.51	1120.41
544.86	1112.46
545.22	1122.05
545.57	1121.35
545.93	1118.07
546.28	1115.73
546.64	1112.22
546.99	1107.07
547.35	1103.80
547.70	1103.09
548.05	1101.92
548.41	1101.69
548.76	1111.99
549.12	1113.39
549.47	1116.67
549.83	1109.18
550.18	1117.61
550.53	1106.84
550.89	1105.20
551.24	1096.54
551.60	1101.69
551.95	1095.14
552.30	1098.18
552.66	1095.84
553.01	1106.61
553.37	1104.73
553.72	1104.50
554.07	1102.39
554.43	1120.18
554.78	1116.20
555.13	1116.90
555.49	1124.39
555.84	1127.20
556.19	1107.78
556.55	1108.48
556.90	1107.07
557.26	1103.80
557.61	1093.73
557.96	1100.05
558.32	1088.12
558.67	1091.39
559.02	1076.65
559.37	1085.07
559.73	1083.43
560.08	1088.35
560.43	1087.18
560.79	1089.05
561.14	1080.63
561.49	1078.05
561.85	1083.43
562.20	1080.16
562.55	1099.12
562.90	1110.82
563.26	1110.58
563.61	1099.58
563.96	1104.73
564.32	1098.41
564.67	1088.12
565.02	1087.88
565.37	1094.43
565.73	1091.86
566.08	1093.03
566.43	1091.63
566.78	1090.46
567.14	1095.37
567.49	1097.01
567.84	1086.71
568.19	1097.48
568.54	1097.01
568.90	1080.16
569.25	1075.94
569.60	1079.69
569.95	1077.82
570.31	1088.82
570.66	1106.84
571.01	1111.29
571.36	1109.65
571.71	1106.37
572.06	1112.92
572.42	1114.56
572.77	1112.69
573.12	1117.84
573.47	1114.80
573.82	1104.03
574.18	1090.46
574.53	1079.92
574.88	1079.92
575.23	1080.39
575.58	1082.97
575.93	1098.65
576.28	1106.61
576.64	1105.67
576.99	1100.99
577.34	1099.12
577.69	1095.84
578.04	1097.71
578.39	1090.92
578.74	1093.73
579.09	1090.92
579.44	1084.84
579.80	1080.63
580.15	1082.03
580.50	1082.50
580.85	1089.75
581.20	1094.43
581.55	1095.84
581.90	1102.39
582.25	1100.75
582.60	1095.37
582.95	1085.31
583.30	1082.73
583.65	1083.20
584.00	1088.35
584.35	1093.26
584.71	1101.69
585.06	1111.29
585.41	1112.92
585.76	1110.35
586.11	1110.12
586.46	1105.20
586.81	1098.18
587.16	1092.80
587.51	1101.22
587.86	1093.26
588.21	1092.56
588.56	1096.54
588.91	1094.20
589.26	1095.37
589.61	1096.78
589.96	1095.14
590.31	1092.80
590.66	1100.29
591.01	1106.37
591.36	1108.24
591.71	1112.92
592.06	1109.88
592.41	1104.26
592.76	1083.67
593.10	1088.35
593.45	1079.69
593.80	1078.28
594.15	1074.77
594.50	1078.28
594.85	1068.92
595.20	1071.73
595.55	1078.28
595.90	1073.60
596.25	1067.28
596.60	1068.22
596.95	1066.82
597.30	1065.65
597.64	1118.31
597.99	1131.88
598.34	1134.46
598.69	1141.01
599.04	1135.63
599.39	1094.90
599.74	1097.95
600.09	1097.71
600.44	1089.05
600.78	1091.86
601.13	1096.54
601.48	1092.80
601.83	1096.31
602.18	1104.26
602.53	1109.18
602.88	1106.84
603.22	1099.12
603.57	1089.29
603.92	1091.39
604.27	1091.16
604.62	1086.48
604.97	1094.43
605.31	1099.12
605.66	1099.12
606.01	1102.16
606.36	1103.56
606.71	1098.41
607.05	1094.90
607.40	1096.31
607.75	1087.65
608.10	1089.05
608.44	1091.86
608.79	1100.52
609.14	1095.60
609.49	1093.50
609.84	1086.24
610.18	1087.18
610.53	1080.39
610.88	1081.33
611.23	1082.26
611.57	1086.94
611.92	1080.16
612.27	1080.63
612.62	1090.69
612.96	1103.09
613.31	1106.84
613.66	1112.92
614.00	1121.35
614.35	1109.41
614.70	1103.56
615.05	1103.56
615.39	1104.73
615.74	1090.22
616.09	1089.75
616.43	1079.69
616.78	1072.67
617.13	1071.26
617.47	1086.24
617.82	1083.20
618.17	1084.84
618.51	1090.22
618.86	1087.18
619.21	1084.14
619.55	1095.84
619.90	1092.33
620.25	1089.29
620.59	1094.20
620.94	1090.22
621.29	1082.26
621.63	1097.48
621.98	1098.41
622.32	1095.84
622.67	1091.16
623.02	1094.43
623.36	1087.65
623.71	1087.18
624.05	1089.52
624.40	1102.86
624.75	1101.46
625.09	1101.92
625.44	1106.37
625.78	1100.29
626.13	1090.22
626.48	1076.41
626.82	1082.26
627.17	1072.67
627.51	1080.63
627.86	1080.86
628.20	1092.80
628.55	1084.60
628.89	1087.65
629.24	1072.90
629.58	1074.31
629.93	1079.46
630.28	1081.09
630.62	1085.31
630.97	1090.22
631.31	1095.60
631.66	1083.90
632.00	1082.03
632.35	1071.26
632.69	1073.37
633.04	1076.41
633.38	1081.33
633.73	1079.22
634.07	1085.54
634.42	1095.14
634.76	1087.88
635.11	1095.60
635.45	1100.29
635.79	1104.97
636.14	1094.20
636.48	1097.24
636.83	1097.01
637.17	1104.73
637.52	1099.82
637.86	1102.16
638.21	1103.80
638.55	1101.46
638.89	1093.73
639.24	1096.54
639.58	1107.54
639.93	1099.82
640.27	1096.31
640.61	1094.43
640.96	1092.56
641.30	1082.03
641.65	1082.26
641.99	1082.97
642.33	1086.48
642.68	1085.54
643.02	1084.60
643.37	1087.41
643.71	1085.54
644.05	1079.22
644.40	1075.01
644.74	1085.31
645.08	1086.48
645.43	1088.82
645.77	1094.90
646.11	1099.12
646.46	1093.73
646.80	1091.39
647.14	1091.39
647.49	1093.50
647.83	1098.65
648.17	1085.54
648.52	1075.94
648.86	1079.92
649.20	1077.35
649.55	1075.94
649.89	1086.24
650.23	1102.16
650.57	1093.97
650.92	1088.82
651.26	1088.35
651.60	1091.86
651.95	1089.52
652.29	1092.80
652.63	1097.01
652.97	1092.09
653.32	1092.56
653.66	1084.14
654.00	1096.54
654.34	1089.05
654.69	1093.26
655.03	1088.82
655.37	1090.92
655.71	1079.92
656.05	1093.03
656.40	1096.54
656.74	1098.41
657.08	1100.52
657.42	1097.48
657.76	1086.71
658.11	1079.92
658.45	1073.37
658.79	1079.22
659.13	1078.75
659.47	1073.14
659.82	1074.07
660.16	1071.03
660.50	1059.79
660.84	1059.56
661.18	1068.92
661.52	1067.28
661.87	1071.97
662.21	1081.56
662.55	1077.58
662.89	1075.01
663.23	1078.05
663.57	1085.77
663.91	1076.41
664.25	1085.07
664.60	1087.18
664.94	1095.60
665.28	1084.37
665.62	1095.84
665.96	1094.90
666.30	1086.24
666.64	1077.35
666.98	1079.69
667.32	1069.39
667.66	1068.69
668.01	1075.01
668.35	1071.26
668.69	1079.46
669.03	1078.99
669.37	1078.75
669.71	1078.99
670.05	1083.43
670.39	1078.75
670.73	1088.35
671.07	1089.29
671.41	1092.09
671.75	1093.03
672.09	1090.46
672.43	1082.03
672.77	1073.14
673.11	1073.37
673.45	1066.35
673.79	1075.01
674.13	1083.43
674.47	1095.84
674.81	1091.39
675.15	1098.41
675.49	1090.22
675.83	1083.90
676.17	1073.14
676.51	1072.43
676.85	1075.48
677.19	1068.45
677.53	1076.88
677.87	1086.24
678.21	1101.46
678.55	1086.48
678.89	1091.16
679.23	1094.43
679.57	1083.20
679.90	1069.16
680.24	1072.20
680.58	1075.94
680.92	1065.41
681.26	1071.50
681.60	1084.84
681.94	1089.99
682.28	1095.37
682.62	1100.99
682.96	1111.75
683.29	1104.50
683.63	1104.73
683.97	1086.71
684.31	1078.75
684.65	1064.24
684.99	1056.99
685.33	1058.86
685.67	1062.84
686.00	1060.03
686.34	1060.96
686.68	1069.62
687.02	1070.09
687.36	1080.63
687.70	1081.56
688.03	1084.14
688.37	1086.24
688.71	1083.20
689.05	1080.63
689.39	1081.33
689.72	1090.22
690.06	1091.16
690.40	1098.65
690.74	1102.16
691.08	1106.37
691.41	1097.71
691.75	1079.46
692.09	1071.50
692.43	1067.28
692.76	1064.94
693.10	1064.01
693.44	1067.99
693.78	1069.86
694.11	1073.14
694.45	1083.20
694.79	1090.22
695.13	1092.80
695.46	1091.86
695.80	1084.60
696.14	1075.94
696.48	1075.71
696.81	1082.73
697.15	1085.77
697.49	1084.60
697.82	1090.92
698.16	1082.03
698.50	1075.01
698.83	1081.80
699.17	1089.05
699.51	1083.90
699.84	1088.58
700.18	1093.03
700.52	1078.75
700.85	1087.65
701.19	1081.80
701.53	1087.88
701.86	1088.58
702.20	1097.48
702.54	1086.48
702.87	1091.86
703.21	1086.94
703.55	1086.71
703.88	1085.54
704.22	1079.46
704.55	1083.20
704.89	1079.46
705.23	1075.94
705.56	1067.52
705.90	1076.41
706.23	1071.26
706.57	1077.11
706.91	1086.71
707.24	1093.03
707.58	1089.29
707.91	1082.97
708.25	1067.52
708.58	1058.16
708.92	1061.20
709.26	1064.01
709.59	1069.16
709.93	1087.88
710.26	1098.18
710.60	1095.84
710.93	1102.39
711.27	1101.92
711.60	1097.71
711.94	1095.14
712.27	1091.63
712.61	1090.46
712.94	1095.37
713.28	1096.31
713.61	1093.97
713.95	1100.29
714.28	1082.03
714.62	1074.77
714.95	1070.56
715.29	1070.09
715.62	1065.65
715.96	1073.37
716.29	1072.90
716.63	1073.14
716.96	1069.86
717.29	1072.43
717.63	1078.75
717.96	1087.41
718.30	1091.63
718.63	1093.03
718.97	1096.07
719.30	1093.73
719.63	1096.54
719.97	1096.31
720.30	1099.58
720.64	1096.31
720.97	1099.82
721.30	1078.52
721.64	1067.75
721.97	1058.86
722.31	1057.45
722.64	1052.54
722.97	1061.90
723.31	1063.31
723.64	1074.07
723.97	1079.92
724.31	1075.71
724.64	1084.84
724.98	1087.41
725.31	1081.09
725.64	1075.94
725.98	1077.11
726.31	1073.14
726.64	1071.50
726.97	1067.28
727.31	1075.48
727.64	1085.07
727.97	1083.90
728.31	1088.82
728.64	1096.78
728.97	1083.20
729.31	1085.07
729.64	1086.71
729.97	1088.35
730.30	1086.24
730.64	1080.16
730.97	1064.48
731.30	1060.50
731.63	1058.62
731.97	1068.69
732.30	1080.63
732.63	1091.16
732.96	1094.67
733.30	1086.71
733.63	1077.82
733.96	1076.18
734.29	1070.56
734.63	1072.20
734.96	1074.77
735.29	1069.86
735.62	1063.77
735.95	1073.60
736.29	1066.11
736.62	1073.14
736.95	1077.35
737.28	1084.84
737.61	1084.84
737.94	1090.69
738.28	1086.01
738.61	1082.03
738.94	1073.37
739.27	1075.94
739.60	1087.18
739.93	1091.39
740.27	1098.18
740.60	1108.95
740.93	1099.58
741.26	1082.73
741.59	1080.16
741.92	1070.56
742.25	1067.05
742.58	1072.20
742.91	1082.73
743.25	1080.16
743.58	1085.31
743.91	1087.18
744.24	1085.54
744.57	1079.92
744.90	1083.20
745.23	1094.90
745.56	1096.54
745.89	1094.90
746.22	1092.80
746.55	1090.69
746.88	1080.39
747.21	1077.82
747.54	1077.11
747.87	1081.09
748.20	1079.69
748.53	1074.54
748.87	1076.65
749.20	1066.35
749.53	1070.56
749.86	1080.16
750.19	1086.01
750.52	1086.71
750.85	1100.52
751.18	1097.24
751.51	1093.03
751.84	1092.09
752.16	1091.16
752.49	1078.99
752.82	1075.94
753.15	1067.28
753.48	1064.01
753.81	1056.05
754.14	1061.90
754.47	1064.48
754.80	1076.18
755.13	1076.18
755.46	1080.39
755.79	1087.18
756.12	1082.50
756.45	1079.69
756.78	1084.60
757.11	1086.71
757.43	1081.09
757.76	1085.31
758.09	1079.22
758.42	1069.16
758.75	1066.35
759.08	1071.26
759.41	1069.62
759.74	1071.26
760.07	1082.50
760.39	1089.29
760.72	1095.14
761.05	1097.71
761.38	1095.37
761.71	1091.63
762.04	1081.80
762.36	1064.24
762.69	1059.09
763.02	1065.88
763.35	1063.54
763.68	1065.41
764.01	1066.11
764.33	1070.09
764.66	1078.99
