SpectraSuite Data File
++++++++++++++++++++++++++++++++++++
Date: Mon Aug 26 10:24:46 PDT 2019
User: corrico
Dark Spectrum Present: No
Reference Spectrum Present: No
Number of Sampled Component Spectra: 1
Spectrometers: USB2+H06089
Integration Time (usec): 10000 (USB2+H06089)
Spectra Averaged: 2 (USB2+H06089)
Boxcar Smoothing: 2 (USB2+H06089)
Correct for Electrical Dark: No (USB2+H06089)
Strobe/Lamp Enabled: No (USB2+H06089)
Correct for Detector Non-linearity: No (USB2+H06089)
Correct for Stray Light: No (USB2+H06089)
Number of Pixels in Processed Spectrum: 2048
>>>>>Begin Processed Spectral Data<<<<<
339.70	1000.58
340.07	1000.58
340.45	983.02
340.82	966.17
341.19	948.39
341.57	934.11
341.94	923.58
342.31	912.11
342.69	904.15
343.06	903.21
343.43	898.06
343.81	895.25
344.18	901.57
344.55	905.55
344.93	914.68
345.30	912.81
345.67	917.72
346.04	918.19
346.42	932.00
346.79	937.38
347.16	954.94
347.54	972.49
347.91	979.75
348.28	985.60
348.65	1004.09
349.03	1019.54
349.40	1023.75
349.77	1036.86
350.14	1052.54
350.52	1057.45
350.89	1059.33
351.26	1074.77
351.63	1081.09
352.01	1086.24
352.38	1083.90
352.75	1092.33
353.12	1097.24
353.50	1093.26
353.87	1098.65
354.24	1102.86
354.61	1094.43
354.98	1079.46
355.36	1087.18
355.73	1088.35
356.10	1089.75
356.47	1095.84
356.84	1108.48
357.22	1105.67
357.59	1099.58
357.96	1097.71
358.33	1096.31
358.70	1093.50
359.08	1099.58
359.45	1107.31
359.82	1108.24
360.19	1116.90
360.56	1106.61
360.94	1104.26
361.31	1100.29
361.68	1092.56
362.05	1077.11
362.42	1099.58
362.79	1097.71
363.16	1089.05
363.54	1079.92
363.91	1088.35
364.28	1073.14
364.65	1075.01
365.02	1077.35
365.39	1094.67
365.76	1082.03
366.14	1081.56
366.51	1083.20
366.88	1073.14
367.25	1067.75
367.62	1081.80
367.99	1089.52
368.36	1085.07
368.73	1093.50
369.10	1093.50
369.48	1083.20
369.85	1076.18
370.22	1080.86
370.59	1090.69
370.96	1102.86
371.33	1114.80
371.70	1108.24
372.07	1106.37
372.44	1095.60
372.81	1087.41
373.18	1083.20
373.55	1086.94
373.93	1097.01
374.30	1094.90
374.67	1102.39
375.04	1108.48
375.41	1117.61
375.78	1094.43
376.15	1099.12
376.52	1094.20
376.89	1087.18
377.26	1086.01
377.63	1097.48
378.00	1091.63
378.37	1085.54
378.74	1084.37
379.11	1085.54
379.48	1095.84
379.85	1107.31
380.22	1113.39
380.59	1116.67
380.96	1113.63
381.33	1114.80
381.70	1115.03
382.07	1119.24
382.44	1118.54
382.81	1123.22
383.18	1119.24
383.55	1118.31
383.92	1113.63
384.29	1113.86
384.66	1109.65
385.03	1110.12
385.40	1120.18
385.77	1114.56
386.14	1118.78
386.51	1122.75
386.88	1124.16
387.25	1114.80
387.62	1122.75
387.99	1121.58
388.36	1115.97
388.73	1114.56
389.10	1108.95
389.46	1112.22
389.83	1111.05
390.20	1106.37
390.57	1104.26
390.94	1107.78
391.31	1104.97
391.68	1108.95
392.05	1129.54
392.42	1135.63
392.79	1133.99
393.16	1136.80
393.53	1141.25
393.89	1131.18
394.26	1127.44
394.63	1132.12
395.00	1137.27
395.37	1134.22
395.74	1137.27
396.11	1138.20
396.48	1149.91
396.84	1148.97
397.21	1158.57
397.58	1158.33
397.95	1159.74
398.32	1150.14
398.69	1152.48
399.06	1148.97
399.42	1155.76
399.79	1163.01
400.16	1176.12
400.53	1180.57
400.90	1185.25
401.27	1191.80
401.64	1201.87
402.00	1205.14
402.37	1212.87
402.74	1235.33
403.11	1253.59
403.48	1259.44
403.84	1272.78
404.21	1289.64
404.58	1294.08
404.95	1300.17
405.32	1334.57
405.68	1343.70
406.05	1365.00
406.42	1372.26
406.79	1402.68
407.16	1424.45
407.52	1450.20
407.89	1466.58
408.26	1504.03
408.63	1534.22
408.99	1563.24
409.36	1611.69
409.73	1656.16
410.10	1713.04
410.47	1782.79
410.83	1849.49
411.20	1913.15
411.57	1989.22
411.94	2048.67
412.30	2112.57
412.67	2183.72
413.04	2258.15
413.40	2345.45
413.77	2436.97
414.14	2541.12
414.51	2658.15
414.87	2810.28
415.24	2956.56
415.61	3114.08
415.97	3271.60
416.34	3441.99
416.71	3611.21
417.08	3783.01
417.44	3963.93
417.81	4175.75
418.18	4395.06
418.54	4654.16
418.91	4925.42
419.28	5214.95
419.64	5500.02
420.01	5847.59
420.38	6194.93
420.74	6531.73
421.11	6930.79
421.48	7328.69
421.84	7723.30
422.21	8110.42
422.58	8588.36
422.94	9061.85
423.31	9576.07
423.68	10109.71
424.04	10726.68
424.41	11330.30
424.77	11947.50
425.14	12604.02
425.51	13244.62
425.87	13909.10
426.24	14665.33
426.61	15503.24
426.97	16503.82
427.34	17423.65
427.70	18488.83
428.07	19419.89
428.44	20345.34
428.80	21250.19
429.17	22391.67
429.53	23388.27
429.90	24712.31
430.27	25800.19
430.63	27000.89
431.00	28274.84
431.36	29686.89
431.73	30890.62
432.09	32377.80
432.46	33658.31
432.83	34850.11
433.19	35896.80
433.56	37196.73
433.92	38570.16
434.29	39896.54
434.65	41240.01
435.02	42538.77
435.38	43723.78
435.75	44559.35
436.11	45715.81
436.48	46695.09
436.84	47658.92
437.21	48557.92
437.57	49463.71
437.94	50118.36
438.30	50817.48
438.67	51393.72
439.03	51691.20
439.40	51980.49
439.76	51870.02
440.13	51559.90
440.49	51400.97
440.86	50941.06
441.22	50538.72
441.59	50046.50
441.95	49585.19
442.32	48702.57
442.68	48034.81
443.05	47081.05
443.41	46200.77
443.78	45094.63
444.14	44057.78
444.51	42880.49
444.87	41979.85
445.24	40820.82
445.60	39754.94
445.96	38664.95
446.33	37747.22
446.69	36545.83
447.06	35614.29
447.42	34591.95
447.79	33529.58
448.15	32543.28
448.51	31615.25
448.88	30806.37
449.24	29930.77
449.61	29292.74
449.97	28510.07
450.33	27714.99
450.70	26836.58
451.06	26268.30
451.43	25498.50
451.79	24969.30
452.15	24495.34
452.52	23959.36
452.88	23352.23
453.24	22836.61
453.61	22210.28
453.97	21562.89
454.34	20887.88
454.70	20308.36
455.06	19661.67
455.43	18957.87
455.79	18237.22
456.15	17687.43
456.52	16969.59
456.88	16490.71
457.24	15939.52
457.61	15517.28
457.97	15011.49
458.33	14540.11
458.70	13969.72
459.06	13430.93
459.42	12960.48
459.79	12488.40
460.15	12089.10
460.51	11637.38
460.88	11245.34
461.24	10810.70
461.60	10466.41
461.96	10121.18
462.33	9827.68
462.69	9535.11
463.05	9246.99
463.42	8971.27
463.78	8682.69
464.14	8442.31
464.50	8221.60
464.87	8020.55
465.23	7785.09
465.59	7581.46
465.95	7352.79
466.32	7147.53
466.68	6931.26
467.04	6743.79
467.40	6552.80
467.77	6422.20
468.13	6237.76
468.49	6073.22
468.85	5939.81
469.22	5820.21
469.58	5664.33
469.94	5548.24
470.30	5438.47
470.66	5347.66
471.03	5217.52
471.39	5140.52
471.75	5030.28
472.11	4917.00
472.47	4791.08
472.84	4712.67
473.20	4569.43
473.56	4487.74
473.92	4381.72
474.28	4278.27
474.65	4180.20
475.01	4109.75
475.37	4006.06
475.73	3928.12
476.09	3861.42
476.45	3803.14
476.81	3734.56
477.18	3677.22
477.54	3614.26
477.90	3553.17
478.26	3455.80
478.62	3395.18
478.98	3334.80
479.34	3287.05
479.71	3242.11
480.07	3204.66
480.43	3144.04
480.79	3089.74
481.15	3039.65
481.51	2972.25
481.87	2918.41
482.23	2872.77
482.59	2822.45
482.96	2769.09
483.32	2719.47
483.68	2683.66
484.04	2656.04
484.40	2626.55
484.76	2596.82
485.12	2566.87
485.48	2532.69
485.84	2484.24
486.20	2436.97
486.56	2400.45
486.92	2380.79
487.28	2355.75
487.64	2326.49
488.00	2300.28
488.37	2269.62
488.73	2214.38
489.09	2167.34
489.45	2148.38
489.81	2129.65
490.17	2089.86
490.53	2064.35
490.89	2028.07
491.25	1985.24
491.61	1953.65
491.97	1934.92
492.33	1916.66
492.69	1911.75
493.05	1893.03
493.41	1874.54
493.77	1858.39
494.13	1838.96
494.49	1826.32
494.85	1814.62
495.21	1788.87
495.57	1767.34
495.93	1751.66
496.29	1724.97
496.64	1705.08
497.00	1680.97
497.36	1661.08
497.72	1646.80
498.08	1633.93
498.44	1609.59
498.80	1593.44
499.16	1584.54
499.52	1567.92
499.88	1553.18
500.24	1537.73
500.60	1522.28
500.96	1510.35
501.32	1490.22
501.68	1474.77
502.03	1470.09
502.39	1465.64
502.75	1441.54
503.11	1431.94
503.47	1425.85
503.83	1413.45
504.19	1412.98
504.55	1408.07
504.91	1409.47
505.26	1387.47
505.62	1386.07
505.98	1372.02
506.34	1367.11
506.70	1347.91
507.06	1353.30
507.42	1342.77
507.78	1332.23
508.13	1328.49
508.49	1331.53
508.85	1306.72
509.21	1297.83
509.57	1297.59
509.93	1287.76
510.28	1277.93
510.64	1288.23
511.00	1275.12
511.36	1260.14
511.72	1260.85
512.07	1263.66
512.43	1266.70
512.79	1274.42
513.15	1275.59
513.51	1270.44
513.86	1271.38
514.22	1254.53
514.58	1243.06
514.94	1238.14
515.30	1227.61
515.65	1215.91
516.01	1216.14
516.37	1212.40
516.73	1215.67
517.08	1216.61
517.44	1208.89
517.80	1213.80
518.16	1220.12
518.51	1220.82
518.87	1211.23
519.23	1202.80
519.59	1196.25
519.94	1181.97
520.30	1172.14
520.66	1183.37
521.01	1192.50
521.37	1181.97
521.73	1195.08
522.09	1189.23
522.44	1180.33
522.80	1180.33
523.16	1177.99
523.51	1164.42
523.87	1166.76
524.23	1173.08
524.58	1165.35
524.94	1167.23
525.30	1167.23
525.65	1177.29
526.01	1169.57
526.37	1159.97
526.72	1159.27
527.08	1147.56
527.44	1130.24
527.79	1128.14
528.15	1131.41
528.51	1129.31
528.86	1142.18
529.22	1149.91
529.58	1147.33
529.93	1147.10
530.29	1152.71
530.65	1150.84
531.00	1159.50
531.36	1154.35
531.71	1163.95
532.07	1153.18
532.43	1150.14
532.78	1131.41
533.14	1135.63
533.49	1124.16
533.85	1137.73
534.21	1136.10
534.56	1145.93
534.92	1135.63
535.27	1135.63
535.63	1129.54
535.98	1127.44
536.34	1117.61
536.69	1130.71
537.05	1130.48
537.41	1135.16
537.76	1139.61
538.12	1148.50
538.47	1144.99
538.83	1144.99
539.18	1141.48
539.54	1140.31
539.89	1131.88
540.25	1130.01
540.60	1125.80
540.96	1127.67
541.31	1126.03
541.67	1126.50
542.02	1135.39
542.38	1139.37
542.73	1139.14
543.09	1140.31
543.44	1138.20
543.80	1142.18
544.15	1147.56
544.51	1135.39
544.86	1131.41
545.22	1135.86
545.57	1130.48
545.93	1129.54
546.28	1137.73
546.64	1140.54
546.99	1142.42
547.35	1138.67
547.70	1137.97
548.05	1148.27
548.41	1143.35
548.76	1139.84
549.12	1136.33
549.47	1129.07
549.83	1121.12
550.18	1108.71
550.53	1103.56
550.89	1105.90
551.24	1109.41
551.60	1107.07
551.95	1116.20
552.30	1130.95
552.66	1127.20
553.01	1126.03
553.37	1121.12
553.72	1135.39
554.07	1127.44
554.43	1145.93
554.78	1145.46
555.13	1141.71
555.49	1137.97
555.84	1139.14
556.19	1121.58
556.55	1119.48
556.90	1131.65
557.26	1128.14
557.61	1126.97
557.96	1123.93
558.32	1127.44
558.67	1118.54
559.02	1113.39
559.37	1115.97
559.73	1119.48
560.08	1114.10
560.43	1104.26
560.79	1104.50
561.14	1106.37
561.49	1101.69
561.85	1106.61
562.20	1126.97
562.55	1122.05
562.90	1111.75
563.26	1113.16
563.61	1111.99
563.96	1103.80
564.32	1115.50
564.67	1117.61
565.02	1125.33
565.37	1130.48
565.73	1131.88
566.08	1134.69
566.43	1138.44
566.78	1141.95
567.14	1136.33
567.49	1134.46
567.84	1130.95
568.19	1129.31
568.54	1120.18
568.90	1126.03
569.25	1130.95
569.60	1128.61
569.95	1133.76
570.31	1142.18
570.66	1137.50
571.01	1129.31
571.36	1119.71
571.71	1109.88
572.06	1101.69
572.42	1097.01
572.77	1100.05
573.12	1109.18
573.47	1105.67
573.82	1099.58
574.18	1107.31
574.53	1096.78
574.88	1098.41
575.23	1104.50
575.58	1115.50
575.93	1111.99
576.28	1123.46
576.64	1119.48
576.99	1122.99
577.34	1117.84
577.69	1111.99
578.04	1111.05
578.39	1116.44
578.74	1123.93
579.09	1130.48
579.44	1136.10
579.80	1138.90
580.15	1131.41
580.50	1124.86
580.85	1110.82
581.20	1108.71
581.55	1100.75
581.90	1100.29
582.25	1093.73
582.60	1102.16
582.95	1100.75
583.30	1089.05
583.65	1085.07
584.00	1089.05
584.35	1099.12
584.71	1105.20
585.06	1121.82
585.41	1126.73
585.76	1130.95
586.11	1117.37
586.46	1116.20
586.81	1106.84
587.16	1105.67
587.51	1092.56
587.86	1089.52
588.21	1082.97
588.56	1097.24
588.91	1098.41
589.26	1093.50
589.61	1098.65
589.96	1094.20
590.31	1089.99
590.66	1084.60
591.01	1095.14
591.36	1106.14
591.71	1111.99
592.06	1106.14
592.41	1117.37
592.76	1116.67
593.10	1107.78
593.45	1106.61
593.80	1103.56
594.15	1102.39
594.50	1099.12
594.85	1104.03
595.20	1110.35
595.55	1116.67
595.90	1116.20
596.25	1125.10
596.60	1104.26
596.95	1103.09
597.30	1102.16
597.64	1143.35
597.99	1141.25
598.34	1155.05
598.69	1155.76
599.04	1153.42
599.39	1102.86
599.74	1105.44
600.09	1106.37
600.44	1100.05
600.78	1097.71
601.13	1108.71
601.48	1112.69
601.83	1106.84
602.18	1116.44
602.53	1116.90
602.88	1112.69
603.22	1094.67
603.57	1102.16
603.92	1094.43
604.27	1100.05
604.62	1103.56
604.97	1109.18
605.31	1106.84
605.66	1111.75
606.01	1109.65
606.36	1103.33
606.71	1099.58
607.05	1098.41
607.40	1090.22
607.75	1085.07
608.10	1082.73
608.44	1076.65
608.79	1077.11
609.14	1080.86
609.49	1081.09
609.84	1093.50
610.18	1101.46
610.53	1102.63
610.88	1110.58
611.23	1122.52
611.57	1119.95
611.92	1123.22
612.27	1126.03
612.62	1127.67
612.96	1130.01
613.31	1120.88
613.66	1123.46
614.00	1114.10
614.35	1110.82
614.70	1105.67
615.05	1120.88
615.39	1124.16
615.74	1122.05
616.09	1119.71
616.43	1122.05
616.78	1111.99
617.13	1111.52
617.47	1115.97
617.82	1104.50
618.17	1101.69
618.51	1104.26
618.86	1101.46
619.21	1102.86
619.55	1102.16
619.90	1103.09
620.25	1099.35
620.59	1093.73
620.94	1089.52
621.29	1101.92
621.63	1089.99
621.98	1087.65
622.32	1087.65
622.67	1095.14
623.02	1095.37
623.36	1108.01
623.71	1109.88
624.05	1115.03
624.40	1103.80
624.75	1100.99
625.09	1102.16
625.44	1095.37
625.78	1090.22
626.13	1092.56
626.48	1088.12
626.82	1078.05
627.17	1087.65
627.51	1091.39
627.86	1092.80
628.20	1092.80
628.55	1098.65
628.89	1099.12
629.24	1102.16
629.58	1108.95
629.93	1113.39
630.28	1111.99
630.62	1100.75
630.97	1096.78
631.31	1097.01
631.66	1098.88
632.00	1099.58
632.35	1104.26
632.69	1098.88
633.04	1093.97
633.38	1097.24
633.73	1097.71
634.07	1096.31
634.42	1100.75
634.76	1099.12
635.11	1082.03
635.45	1072.90
635.79	1081.09
636.14	1088.58
636.48	1087.88
636.83	1094.90
637.17	1095.84
637.52	1085.77
637.86	1075.71
638.21	1082.50
638.55	1085.31
638.89	1089.29
639.24	1091.86
639.58	1100.29
639.93	1099.82
640.27	1103.09
640.61	1093.26
640.96	1092.80
641.30	1082.97
641.65	1082.97
641.99	1068.92
642.33	1083.43
642.68	1082.97
643.02	1083.20
643.37	1082.26
643.71	1097.48
644.05	1089.29
644.40	1094.20
644.74	1097.01
645.08	1102.39
645.43	1089.75
645.77	1096.54
646.11	1089.99
646.46	1095.84
646.80	1081.80
647.14	1097.95
647.49	1094.20
647.83	1094.43
648.17	1092.80
648.52	1095.84
648.86	1089.75
649.20	1094.20
649.55	1107.78
649.89	1102.63
650.23	1100.75
650.57	1100.99
650.92	1107.54
651.26	1111.75
651.60	1110.35
651.95	1107.54
652.29	1105.90
652.63	1096.31
652.97	1091.63
653.32	1099.35
653.66	1108.01
654.00	1104.03
654.34	1108.48
654.69	1105.67
655.03	1098.41
655.37	1093.03
655.71	1101.22
656.05	1096.31
656.40	1097.24
656.74	1100.99
657.08	1103.56
657.42	1101.92
657.76	1106.61
658.11	1096.78
658.45	1088.82
658.79	1089.29
659.13	1088.35
659.47	1082.03
659.82	1086.48
660.16	1091.63
660.50	1088.12
660.84	1084.60
661.18	1076.18
661.52	1077.82
661.87	1093.73
662.21	1101.46
662.55	1099.35
662.89	1112.69
663.23	1102.63
663.57	1093.97
663.91	1089.52
664.25	1089.75
664.60	1083.20
664.94	1089.05
665.28	1076.65
665.62	1079.22
665.96	1084.84
666.30	1084.60
666.64	1090.22
666.98	1097.48
667.32	1098.65
667.66	1107.07
668.01	1108.01
668.35	1104.50
668.69	1099.82
669.03	1098.41
669.37	1086.48
669.71	1082.50
670.05	1076.18
670.39	1077.82
670.73	1069.86
671.07	1068.22
671.41	1067.52
671.75	1072.20
672.09	1075.48
672.43	1085.07
672.77	1090.69
673.11	1099.82
673.45	1108.95
673.79	1115.03
674.13	1109.65
674.47	1109.18
674.81	1102.63
675.15	1093.50
675.49	1085.07
675.83	1087.41
676.17	1083.20
676.51	1096.07
676.85	1096.07
677.19	1101.22
677.53	1102.86
677.87	1099.58
678.21	1088.82
678.55	1091.63
678.89	1086.48
679.23	1080.63
679.57	1073.37
679.90	1075.48
680.24	1074.54
680.58	1075.01
680.92	1086.01
681.26	1093.97
681.60	1094.90
681.94	1103.09
682.28	1112.69
682.62	1100.52
682.96	1103.80
683.29	1100.29
683.63	1104.50
683.97	1098.41
684.31	1105.67
684.65	1104.97
684.99	1115.73
685.33	1105.44
685.67	1111.29
686.00	1114.10
686.34	1120.41
686.68	1111.52
687.02	1101.46
687.36	1091.86
687.70	1081.56
688.03	1081.33
688.37	1087.18
688.71	1093.03
689.05	1096.78
689.39	1102.86
689.72	1101.22
690.06	1097.48
690.40	1099.12
690.74	1097.01
691.08	1099.12
691.41	1097.95
691.75	1087.65
692.09	1079.69
692.43	1072.67
692.76	1066.58
693.10	1075.24
693.44	1082.73
693.78	1091.39
694.11	1099.82
694.45	1111.29
694.79	1093.97
695.13	1097.24
695.46	1098.65
695.80	1097.95
696.14	1090.69
696.48	1097.01
696.81	1091.86
697.15	1090.22
697.49	1086.71
697.82	1091.39
698.16	1092.80
698.50	1098.65
698.83	1099.58
699.17	1100.05
699.51	1101.22
699.84	1094.43
700.18	1087.65
700.52	1092.33
700.85	1098.65
701.19	1079.46
701.53	1078.28
701.86	1074.54
702.20	1064.48
702.54	1067.05
702.87	1076.18
703.21	1089.52
703.55	1106.61
703.88	1113.86
704.22	1111.99
704.55	1117.14
704.89	1121.12
705.23	1111.75
705.56	1107.78
705.90	1098.65
706.23	1093.03
706.57	1082.26
706.91	1077.58
707.24	1064.71
707.58	1064.71
707.91	1068.92
708.25	1065.65
708.58	1068.45
708.92	1074.77
709.26	1077.35
709.59	1079.22
709.93	1081.09
710.26	1082.97
710.60	1093.03
710.93	1099.82
711.27	1098.65
711.60	1105.20
711.94	1112.92
712.27	1105.67
712.61	1103.09
712.94	1103.56
713.28	1096.07
713.61	1082.97
713.95	1082.03
714.28	1073.84
714.62	1067.99
714.95	1063.77
715.29	1068.69
715.62	1068.69
715.96	1067.75
716.29	1070.33
716.63	1079.46
716.96	1071.50
717.29	1078.05
717.63	1090.69
717.96	1087.65
718.30	1091.16
718.63	1101.22
718.97	1095.14
719.30	1086.24
719.63	1086.24
719.97	1081.09
720.30	1081.56
720.64	1081.33
720.97	1082.03
721.30	1088.82
721.64	1087.41
721.97	1083.67
722.31	1085.31
722.64	1083.20
722.97	1081.80
723.31	1082.03
723.64	1078.99
723.97	1086.24
724.31	1092.09
724.64	1086.24
724.98	1067.52
725.31	1061.67
725.64	1047.39
725.98	1042.24
726.31	1046.22
726.64	1054.18
726.97	1062.60
727.31	1076.41
727.64	1074.77
727.97	1077.11
728.31	1091.39
728.64	1090.69
728.97	1082.50
729.31	1085.31
729.64	1080.63
729.97	1072.20
730.30	1079.22
730.64	1080.86
730.97	1080.39
731.30	1081.80
731.63	1093.73
731.97	1087.65
732.30	1079.92
732.63	1082.73
732.96	1086.24
733.30	1073.60
733.63	1082.26
733.96	1088.35
734.29	1084.84
734.63	1080.16
734.96	1083.20
735.29	1070.80
735.62	1085.54
735.95	1087.88
736.29	1081.80
736.62	1086.01
736.95	1090.92
737.28	1084.60
737.61	1086.48
737.94	1089.05
738.28	1089.75
738.61	1088.35
738.94	1084.84
739.27	1080.16
739.60	1090.46
739.93	1084.14
740.27	1085.77
740.60	1085.77
740.93	1092.80
741.26	1088.82
741.59	1083.90
741.92	1090.46
742.25	1097.24
742.58	1078.52
742.91	1080.63
743.25	1081.56
743.58	1074.31
743.91	1064.71
744.24	1081.56
744.57	1072.20
744.90	1079.69
745.23	1078.75
745.56	1075.48
745.89	1077.58
746.22	1087.65
746.55	1083.43
746.88	1073.84
747.21	1081.80
747.54	1078.28
747.87	1067.75
748.20	1072.90
748.53	1084.37
748.87	1082.03
749.20	1080.86
749.53	1086.48
749.86	1086.71
750.19	1078.52
750.52	1075.71
750.85	1079.22
751.18	1079.22
751.51	1078.52
751.84	1085.07
752.16	1100.99
752.49	1090.46
752.82	1093.97
753.15	1096.78
753.48	1095.37
753.81	1084.84
754.14	1088.82
754.47	1085.07
754.80	1083.20
755.13	1088.12
755.46	1083.90
755.79	1088.58
756.12	1096.07
756.45	1087.88
756.78	1083.67
757.11	1079.92
757.43	1074.77
757.76	1066.82
758.09	1072.43
758.42	1064.48
758.75	1065.18
759.08	1071.73
759.41	1068.92
759.74	1066.35
760.07	1068.45
760.39	1075.01
760.72	1067.99
761.05	1061.90
761.38	1057.22
761.71	1066.58
762.04	1069.39
762.36	1079.22
762.69	1088.82
763.02	1098.88
763.35	1092.33
763.68	1076.18
764.01	1072.90
