SpectraSuite Data File
++++++++++++++++++++++++++++++++++++
Date: Mon Aug 26 10:24:47 PDT 2019
User: corrico
Dark Spectrum Present: No
Reference Spectrum Present: No
Number of Sampled Component Spectra: 1
Spectrometers: USB2+H06089
Integration Time (usec): 10000 (USB2+H06089)
Spectra Averaged: 2 (USB2+H06089)
Boxcar Smoothing: 2 (USB2+H06089)
Correct for Electrical Dark: No (USB2+H06089)
Strobe/Lamp Enabled: No (USB2+H06089)
Correct for Detector Non-linearity: No (USB2+H06089)
Correct for Stray Light: No (USB2+H06089)
Number of Pixels in Processed Spectrum: 2048
>>>>>Begin Processed Spectral Data<<<<<
339.70	1069.62
340.07	1069.62
340.45	1013.69
340.82	978.11
341.19	935.75
341.57	895.96
341.94	883.55
342.31	875.36
342.69	879.81
343.06	884.02
343.43	891.74
343.81	898.53
344.18	899.94
344.55	900.17
344.93	921.23
345.30	925.45
345.67	923.58
346.04	938.55
346.42	951.19
346.79	950.96
347.16	961.49
347.54	970.39
347.91	965.24
348.28	974.60
348.65	979.98
349.03	991.22
349.40	1010.88
349.77	1033.11
350.14	1041.54
350.52	1044.82
350.89	1046.92
351.26	1051.13
351.63	1049.26
352.01	1048.09
352.38	1052.54
352.75	1061.90
353.12	1067.75
353.50	1075.94
353.87	1087.18
354.24	1098.41
354.61	1095.37
354.98	1099.58
355.36	1109.88
355.73	1102.86
356.10	1104.03
356.47	1112.69
356.84	1114.80
357.22	1113.39
357.59	1119.48
357.96	1122.99
358.33	1116.67
358.70	1106.37
359.08	1096.31
359.45	1094.20
359.82	1089.52
360.19	1087.18
360.56	1080.39
360.94	1079.46
361.31	1064.48
361.68	1059.33
362.05	1053.94
362.42	1064.01
362.79	1067.99
363.16	1081.80
363.54	1085.54
363.91	1093.73
364.28	1086.71
364.65	1088.35
365.02	1089.52
365.39	1083.20
365.76	1082.03
366.14	1089.75
366.51	1075.01
366.88	1071.73
367.25	1075.71
367.62	1067.28
367.99	1061.20
368.36	1070.33
368.73	1074.54
369.10	1070.80
369.48	1082.50
369.85	1081.33
370.22	1085.07
370.59	1077.82
370.96	1083.43
371.33	1075.01
371.70	1082.73
372.07	1077.82
372.44	1077.35
372.81	1071.03
373.18	1080.16
373.55	1082.50
373.93	1092.56
374.30	1105.44
374.67	1118.07
375.04	1115.73
375.41	1115.27
375.78	1114.33
376.15	1105.67
376.52	1096.31
376.89	1092.56
377.26	1091.63
377.63	1088.58
378.00	1089.99
378.37	1090.22
378.74	1097.01
379.11	1086.71
379.48	1081.33
379.85	1078.75
380.22	1083.43
380.59	1074.31
380.96	1085.54
381.33	1096.07
381.70	1097.48
382.07	1101.46
382.44	1106.37
382.81	1106.61
383.18	1097.95
383.55	1096.31
383.92	1090.46
384.29	1089.05
384.66	1082.26
385.03	1082.73
385.40	1078.05
385.77	1077.58
386.14	1079.92
386.51	1084.14
386.88	1089.29
387.25	1101.46
387.62	1101.92
387.99	1105.67
388.36	1111.29
388.73	1108.01
389.10	1106.84
389.46	1107.78
389.83	1108.48
390.20	1096.54
390.57	1100.05
390.94	1093.73
391.31	1095.84
391.68	1091.63
392.05	1103.56
392.42	1100.75
392.79	1108.24
393.16	1108.48
393.53	1115.27
393.89	1113.86
394.26	1119.71
394.63	1109.41
395.00	1113.86
395.37	1108.01
395.74	1111.05
396.11	1100.29
396.48	1108.95
396.84	1110.12
397.21	1117.84
397.58	1120.65
397.95	1135.63
398.32	1138.20
398.69	1137.50
399.06	1135.86
399.42	1140.54
399.79	1140.54
400.16	1135.39
400.53	1146.63
400.90	1147.80
401.27	1147.80
401.64	1151.08
402.00	1161.61
402.37	1149.91
402.74	1157.63
403.11	1154.82
403.48	1151.08
403.84	1163.25
404.21	1179.63
404.58	1192.74
404.95	1206.78
405.32	1229.25
405.68	1241.65
406.05	1244.70
406.42	1255.70
406.79	1280.27
407.16	1293.85
407.52	1306.49
407.89	1329.89
408.26	1344.87
408.63	1363.13
408.99	1379.28
409.36	1400.81
409.73	1423.05
410.10	1454.41
410.47	1469.39
410.83	1503.79
411.20	1543.12
411.57	1566.75
411.94	1599.52
412.30	1650.55
412.67	1696.89
413.04	1733.40
413.40	1807.83
413.77	1858.39
414.14	1916.43
414.51	1985.24
414.87	2055.69
415.24	2123.10
415.61	2207.83
415.97	2293.26
416.34	2381.96
416.71	2481.20
417.08	2586.76
417.44	2694.66
417.81	2801.86
418.18	2907.18
418.54	3052.29
418.91	3201.38
419.28	3347.43
419.64	3502.85
420.01	3698.51
420.38	3856.50
420.74	4021.27
421.11	4227.71
421.48	4442.57
421.84	4644.09
422.21	4883.29
422.58	5151.52
422.94	5377.15
423.31	5639.29
423.68	5917.58
424.04	6209.68
424.41	6484.92
424.77	6830.85
425.14	7140.51
425.51	7445.24
425.87	7824.41
426.24	8187.90
426.61	8590.47
426.97	9102.58
427.34	9567.64
427.70	10038.32
428.07	10546.22
428.44	11062.07
428.80	11567.40
429.17	12137.08
429.53	12654.57
429.90	13245.56
430.27	13782.95
430.63	14308.16
431.00	14942.21
431.36	15664.74
431.73	16297.85
432.09	17034.65
432.46	17800.94
432.83	18466.59
433.19	19074.66
433.56	19795.31
433.92	20485.54
434.29	21072.08
434.65	21800.45
435.02	22427.72
435.38	23056.62
435.75	23583.47
436.11	24215.65
436.48	24634.14
436.84	25155.14
437.21	25655.55
437.57	26041.97
437.94	26461.16
438.30	26790.71
438.67	27052.61
439.03	27161.21
439.40	27366.25
439.76	27310.07
440.13	27314.52
440.49	27297.43
440.86	27089.13
441.22	26764.03
441.59	26408.97
441.95	26065.84
442.32	25551.39
442.68	25127.76
443.05	24627.82
443.41	24186.63
443.78	23540.87
444.14	22960.89
444.51	22319.11
444.87	21888.22
445.24	21304.26
445.60	20877.58
445.96	20354.70
446.33	19954.94
446.69	19373.78
447.06	18834.76
447.42	18250.80
447.79	17729.56
448.15	17212.77
448.51	16732.49
448.88	16390.54
449.24	15968.77
449.61	15625.42
449.97	15245.08
450.33	14841.81
450.70	14353.80
451.06	14013.72
451.43	13554.28
451.79	13134.85
452.15	12787.28
452.52	12471.31
452.88	12148.08
453.24	11899.05
453.61	11654.70
453.97	11389.75
454.34	11099.52
454.70	10830.59
455.06	10542.01
455.43	10237.74
455.79	9859.27
456.15	9574.66
456.52	9226.86
456.88	8949.74
457.24	8645.94
457.61	8446.06
457.97	8207.56
458.33	7995.04
458.70	7751.85
459.06	7512.89
459.42	7286.09
459.79	7003.59
460.15	6756.89
460.51	6538.52
460.88	6343.55
461.24	6134.31
461.60	5998.09
461.96	5818.81
462.33	5633.20
462.69	5473.81
463.05	5334.08
463.42	5174.22
463.78	5053.45
464.14	4930.81
464.50	4817.29
464.87	4699.33
465.23	4590.96
465.59	4478.15
465.95	4370.95
466.32	4263.05
466.68	4159.60
467.04	4063.64
467.40	3986.17
467.77	3913.61
468.13	3830.29
468.49	3744.62
468.85	3686.81
469.22	3613.08
469.58	3521.57
469.94	3474.06
470.30	3428.18
470.66	3361.24
471.03	3302.26
471.39	3261.30
471.75	3192.96
472.11	3126.25
472.47	3064.93
472.84	3015.55
473.20	2957.27
473.56	2886.82
473.92	2833.22
474.28	2767.22
474.65	2711.04
475.01	2677.57
475.37	2645.98
475.73	2615.31
476.09	2583.25
476.45	2533.86
476.81	2470.20
477.18	2437.90
477.54	2392.96
477.90	2351.07
478.26	2320.88
478.62	2312.22
478.98	2287.87
479.34	2270.55
479.71	2259.09
480.07	2243.40
480.43	2222.81
480.79	2191.21
481.15	2155.63
481.51	2132.23
481.87	2107.42
482.23	2072.08
482.59	2039.07
482.96	2006.78
483.32	1977.52
483.68	1951.07
484.04	1933.05
484.40	1917.83
484.76	1911.75
485.12	1893.26
485.48	1872.90
485.84	1850.66
486.20	1829.83
486.56	1794.02
486.92	1785.83
487.28	1764.30
487.64	1748.61
488.00	1736.21
488.37	1732.93
488.73	1706.72
489.09	1686.82
489.45	1668.80
489.81	1640.25
490.17	1616.84
490.53	1610.05
490.89	1610.29
491.25	1590.16
491.61	1592.73
491.97	1579.86
492.33	1563.01
492.69	1538.43
493.05	1526.97
493.41	1508.01
493.77	1493.03
494.13	1482.96
494.49	1473.37
494.85	1464.01
495.21	1447.15
495.57	1442.94
495.93	1423.05
496.29	1409.24
496.64	1395.66
497.00	1384.66
497.36	1380.45
497.72	1376.70
498.08	1372.72
498.44	1371.32
498.80	1359.62
499.16	1346.98
499.52	1335.04
499.88	1331.76
500.24	1325.45
500.60	1331.76
500.96	1320.76
501.32	1316.32
501.68	1303.91
502.03	1300.17
502.39	1290.10
502.75	1291.98
503.11	1277.23
503.47	1280.74
503.83	1267.87
504.19	1255.23
504.55	1241.19
504.91	1245.17
505.26	1243.06
505.62	1243.99
505.98	1255.46
506.34	1261.31
506.70	1262.95
507.06	1245.87
507.42	1246.10
507.78	1235.80
508.13	1222.93
508.49	1215.21
508.85	1219.65
509.21	1206.78
509.57	1193.91
509.93	1189.23
510.28	1188.76
510.64	1184.78
511.00	1182.67
511.36	1188.52
511.72	1188.99
512.07	1181.74
512.43	1177.99
512.79	1170.50
513.15	1170.97
513.51	1174.48
513.86	1172.37
514.22	1178.23
514.58	1192.03
514.94	1196.48
515.30	1196.01
515.65	1205.14
516.01	1193.44
516.37	1182.91
516.73	1174.71
517.08	1171.67
517.44	1159.97
517.80	1149.44
518.16	1153.18
518.51	1137.50
518.87	1126.27
519.23	1133.52
519.59	1137.50
519.94	1129.31
520.30	1137.73
520.66	1145.46
521.01	1132.82
521.37	1138.67
521.73	1141.71
522.09	1142.18
522.44	1149.44
522.80	1148.97
523.16	1147.33
523.51	1147.80
523.87	1144.05
524.23	1134.69
524.58	1130.01
524.94	1130.24
525.30	1125.56
525.65	1129.31
526.01	1132.82
526.37	1132.35
526.72	1127.20
527.08	1126.03
527.44	1125.33
527.79	1120.41
528.15	1131.65
528.51	1128.84
528.86	1127.44
529.22	1133.99
529.58	1137.97
529.93	1134.46
530.29	1137.27
530.65	1140.78
531.00	1131.65
531.36	1126.50
531.71	1118.78
532.07	1124.16
532.43	1116.90
532.78	1114.80
533.14	1110.58
533.49	1115.73
533.85	1112.92
534.21	1124.16
534.56	1118.31
534.92	1106.84
535.27	1095.60
535.63	1086.71
535.98	1080.16
536.34	1088.35
536.69	1104.97
537.05	1114.10
537.41	1113.63
537.76	1100.75
538.12	1088.82
538.47	1082.26
538.83	1082.26
539.18	1093.73
539.54	1096.54
539.89	1110.35
540.25	1116.44
540.60	1110.12
540.96	1099.12
541.31	1102.63
541.67	1094.43
542.02	1088.35
542.38	1099.35
542.73	1103.33
543.09	1105.44
543.44	1104.50
543.80	1112.22
544.15	1104.26
544.51	1101.69
544.86	1106.14
545.22	1110.12
545.57	1105.44
545.93	1103.33
546.28	1108.95
546.64	1112.69
546.99	1118.07
547.35	1114.80
547.70	1119.01
548.05	1116.20
548.41	1102.39
548.76	1089.52
549.12	1098.88
549.47	1109.88
549.83	1112.22
550.18	1115.73
550.53	1127.90
550.89	1129.31
551.24	1119.48
551.60	1117.14
551.95	1121.58
552.30	1111.99
552.66	1101.46
553.01	1095.60
553.37	1097.95
553.72	1094.20
554.07	1097.48
554.43	1098.88
554.78	1103.56
555.13	1096.07
555.49	1099.58
555.84	1090.92
556.19	1092.80
556.55	1085.07
556.90	1091.16
557.26	1091.63
557.61	1097.01
557.96	1088.58
558.32	1097.01
558.67	1099.58
559.02	1099.58
559.37	1101.22
559.73	1104.26
560.08	1109.88
560.43	1099.12
560.79	1096.31
561.14	1093.97
561.49	1097.95
561.85	1094.90
562.20	1102.63
562.55	1104.26
562.90	1108.71
563.26	1110.82
563.61	1108.95
563.96	1104.50
564.32	1098.18
564.67	1093.97
565.02	1089.99
565.37	1082.97
565.73	1082.50
566.08	1085.07
566.43	1081.33
566.78	1083.20
567.14	1088.82
567.49	1101.92
567.84	1105.20
568.19	1108.95
568.54	1107.07
568.90	1105.20
569.25	1096.31
569.60	1100.75
569.95	1097.71
570.31	1102.63
570.66	1113.86
571.01	1114.33
571.36	1107.54
571.71	1111.52
572.06	1102.16
572.42	1096.78
572.77	1097.71
573.12	1086.24
573.47	1078.28
573.82	1086.01
574.18	1077.82
574.53	1077.58
574.88	1087.88
575.23	1086.01
575.58	1082.03
575.93	1079.22
576.28	1078.52
576.64	1087.41
576.99	1093.50
577.34	1091.39
577.69	1100.75
578.04	1091.86
578.39	1078.52
578.74	1081.33
579.09	1083.90
579.44	1079.22
579.80	1079.22
580.15	1082.73
580.50	1090.69
580.85	1083.90
581.20	1083.43
581.55	1091.16
581.90	1106.14
582.25	1091.16
582.60	1101.46
582.95	1102.39
583.30	1106.14
583.65	1095.84
584.00	1096.54
584.35	1095.84
584.71	1096.31
585.06	1095.37
585.41	1083.67
585.76	1085.77
586.11	1082.26
586.46	1087.65
586.81	1091.16
587.16	1094.90
587.51	1101.69
587.86	1104.03
588.21	1097.24
588.56	1098.41
588.91	1105.67
589.26	1099.12
589.61	1095.14
589.96	1106.14
590.31	1099.12
590.66	1099.58
591.01	1103.09
591.36	1099.35
591.71	1083.90
592.06	1088.82
592.41	1087.65
592.76	1083.67
593.10	1081.09
593.45	1088.82
593.80	1087.18
594.15	1088.12
594.50	1092.80
594.85	1103.09
595.20	1096.07
595.55	1085.54
595.90	1084.84
596.25	1089.29
596.60	1088.12
596.95	1091.39
597.30	1097.48
597.64	1143.12
597.99	1143.12
598.34	1148.97
598.69	1142.42
599.04	1148.03
599.39	1105.67
599.74	1102.39
600.09	1095.14
600.44	1108.01
600.78	1104.50
601.13	1097.95
601.48	1100.75
601.83	1103.56
602.18	1104.73
602.53	1090.92
602.88	1097.48
603.22	1100.05
603.57	1108.48
603.92	1101.22
604.27	1113.86
604.62	1114.80
604.97	1107.78
605.31	1091.63
605.66	1098.88
606.01	1105.20
606.36	1099.82
606.71	1115.27
607.05	1124.16
607.40	1125.33
607.75	1114.80
608.10	1115.97
608.44	1104.50
608.79	1100.52
609.14	1082.73
609.49	1083.90
609.84	1074.77
610.18	1078.05
610.53	1079.46
610.88	1096.07
611.23	1096.31
611.57	1102.39
611.92	1093.26
612.27	1087.88
612.62	1072.67
612.96	1071.50
613.31	1069.39
613.66	1069.86
614.00	1069.62
614.35	1081.33
614.70	1082.50
615.05	1087.88
615.39	1092.33
615.74	1095.60
616.09	1091.39
616.43	1089.99
616.78	1089.29
617.13	1090.46
617.47	1088.35
617.82	1084.84
618.17	1082.73
618.51	1086.48
618.86	1079.46
619.21	1084.60
619.55	1087.65
619.90	1085.07
620.25	1078.99
620.59	1079.92
620.94	1070.80
621.29	1072.67
621.63	1076.41
621.98	1076.18
622.32	1084.60
622.67	1090.69
623.02	1092.33
623.36	1103.80
623.71	1105.90
624.05	1104.26
624.40	1104.97
624.75	1100.52
625.09	1087.88
625.44	1081.09
625.78	1079.46
626.13	1080.16
626.48	1082.97
626.82	1085.54
627.17	1086.48
627.51	1076.41
627.86	1075.24
628.20	1075.01
628.55	1071.03
628.89	1067.99
629.24	1070.33
629.58	1063.07
629.93	1064.71
630.28	1064.94
630.62	1065.65
630.97	1075.71
631.31	1086.94
631.66	1088.82
632.00	1095.84
632.35	1099.58
632.69	1093.73
633.04	1092.56
633.38	1089.52
633.73	1088.58
634.07	1086.71
634.42	1091.16
634.76	1096.07
635.11	1095.14
635.45	1093.03
635.79	1094.90
636.14	1085.07
636.48	1071.97
636.83	1066.82
637.17	1066.11
637.52	1073.14
637.86	1074.54
638.21	1075.71
638.55	1070.09
638.89	1075.24
639.24	1077.58
639.58	1084.37
639.93	1081.09
640.27	1085.31
640.61	1086.01
640.96	1078.52
641.30	1069.86
641.65	1077.82
641.99	1087.88
642.33	1086.24
642.68	1081.09
643.02	1091.86
643.37	1093.26
643.71	1096.07
644.05	1089.99
644.40	1098.65
644.74	1103.33
645.08	1097.71
645.43	1092.80
645.77	1098.65
646.11	1097.71
646.46	1097.71
646.80	1104.73
647.14	1112.46
647.49	1109.65
647.83	1113.86
648.17	1108.71
648.52	1107.07
648.86	1104.73
649.20	1102.86
649.55	1094.43
649.89	1082.97
650.23	1086.48
650.57	1082.26
650.92	1082.03
651.26	1085.31
651.60	1090.69
651.95	1078.75
652.29	1080.63
652.63	1077.82
652.97	1073.37
653.32	1077.82
653.66	1091.39
654.00	1083.90
654.34	1090.46
654.69	1092.09
655.03	1087.18
655.37	1074.77
655.71	1075.24
656.05	1069.39
656.40	1076.88
656.74	1082.26
657.08	1078.75
657.42	1083.43
657.76	1082.73
658.11	1079.69
658.45	1078.28
658.79	1080.63
659.13	1079.46
659.47	1088.58
659.82	1084.37
660.16	1087.18
660.50	1096.78
660.84	1104.03
661.18	1102.63
661.52	1105.44
661.87	1099.58
662.21	1097.95
662.55	1091.86
662.89	1092.56
663.23	1097.01
663.57	1093.03
663.91	1101.22
664.25	1101.46
664.60	1099.35
664.94	1095.84
665.28	1108.01
665.62	1093.26
665.96	1085.77
666.30	1086.71
666.64	1084.60
666.98	1074.77
667.32	1077.82
667.66	1077.82
668.01	1083.20
668.35	1084.14
668.69	1084.84
669.03	1085.07
669.37	1087.65
669.71	1086.71
670.05	1093.03
670.39	1095.14
670.73	1104.50
671.07	1112.69
671.41	1104.97
671.75	1098.18
672.09	1088.82
672.43	1084.84
672.77	1084.37
673.11	1088.12
673.45	1089.99
673.79	1098.88
674.13	1093.26
674.47	1090.46
674.81	1089.52
675.15	1094.43
675.49	1090.69
675.83	1091.39
676.17	1091.39
676.51	1088.58
676.85	1075.48
677.19	1074.54
677.53	1077.82
677.87	1077.35
678.21	1071.50
678.55	1076.65
678.89	1080.39
679.23	1075.01
679.57	1069.39
679.90	1064.71
680.24	1070.09
680.58	1065.41
680.92	1063.54
681.26	1076.18
681.60	1081.56
681.94	1082.50
682.28	1085.54
682.62	1087.88
682.96	1074.31
683.29	1079.69
683.63	1077.35
683.97	1083.43
684.31	1077.82
684.65	1082.73
684.99	1078.99
685.33	1073.37
685.67	1072.43
686.00	1085.54
686.34	1081.09
686.68	1084.84
687.02	1084.14
687.36	1084.60
687.70	1082.26
688.03	1087.41
688.37	1086.71
688.71	1093.50
689.05	1089.29
689.39	1090.69
689.72	1091.63
690.06	1094.90
690.40	1090.22
690.74	1092.09
691.08	1087.18
691.41	1083.90
691.75	1079.22
692.09	1076.65
692.43	1073.60
692.76	1073.37
693.10	1081.09
693.44	1084.60
693.78	1093.26
694.11	1099.58
694.45	1084.37
694.79	1077.82
695.13	1076.41
695.46	1065.18
695.80	1051.13
696.14	1064.48
696.48	1066.82
696.81	1066.35
697.15	1072.43
697.49	1075.71
697.82	1080.86
698.16	1079.46
698.50	1075.94
698.83	1079.69
699.17	1092.56
699.51	1100.75
699.84	1102.16
700.18	1108.95
700.52	1110.58
700.85	1105.90
701.19	1096.54
701.53	1097.48
701.86	1101.22
702.20	1098.65
702.54	1102.86
702.87	1101.69
703.21	1101.22
703.55	1097.71
703.88	1104.26
704.22	1101.22
704.55	1102.16
704.89	1093.73
705.23	1085.07
705.56	1075.24
705.90	1076.41
706.23	1073.60
706.57	1079.46
706.91	1078.99
707.24	1081.09
707.58	1074.54
707.91	1075.01
708.25	1080.63
708.58	1078.52
708.92	1068.69
709.26	1066.58
709.59	1069.39
709.93	1066.11
710.26	1065.41
710.60	1065.41
710.93	1072.20
711.27	1070.80
711.60	1066.82
711.94	1082.97
712.27	1094.67
712.61	1085.31
712.94	1096.54
713.28	1098.88
713.61	1098.88
713.95	1094.90
714.28	1100.05
714.62	1084.60
714.95	1077.11
715.29	1078.05
715.62	1075.24
715.96	1070.56
716.29	1066.11
716.63	1070.33
716.96	1051.13
717.29	1057.69
717.63	1068.92
717.96	1079.92
718.30	1084.37
718.63	1087.18
718.97	1089.29
719.30	1084.37
719.63	1083.67
719.97	1085.54
720.30	1088.12
720.64	1079.69
720.97	1083.20
721.30	1082.26
721.64	1079.22
721.97	1081.09
722.31	1081.33
722.64	1081.09
722.97	1076.41
723.31	1073.14
723.64	1073.37
723.97	1075.48
724.31	1078.05
724.64	1072.20
724.98	1081.56
725.31	1083.20
725.64	1086.24
725.98	1081.09
726.31	1094.43
726.64	1086.71
726.97	1092.56
727.31	1090.46
727.64	1086.71
727.97	1080.16
728.31	1080.16
728.64	1068.45
728.97	1070.09
729.31	1073.14
729.64	1077.58
729.97	1078.28
730.30	1073.60
730.64	1078.52
730.97	1073.60
731.30	1077.82
731.63	1080.39
731.97	1087.41
732.30	1079.92
732.63	1087.41
732.96	1085.31
733.30	1075.94
733.63	1079.69
733.96	1076.41
734.29	1079.22
734.63	1071.26
734.96	1067.52
735.29	1067.52
735.62	1071.03
735.95	1064.94
736.29	1060.26
736.62	1074.31
736.95	1069.16
737.28	1071.03
737.61	1076.65
737.94	1088.58
738.28	1081.33
738.61	1084.37
738.94	1086.94
739.27	1077.58
739.60	1074.77
739.93	1080.63
740.27	1075.71
740.60	1068.45
740.93	1073.60
741.26	1068.45
741.59	1065.18
741.92	1086.71
742.25	1091.16
742.58	1086.94
742.91	1093.26
743.25	1098.18
743.58	1088.12
743.91	1094.67
744.24	1099.35
744.57	1090.69
744.90	1092.09
745.23	1092.09
745.56	1088.35
745.89	1088.58
746.22	1108.48
746.55	1098.18
746.88	1097.95
747.21	1090.69
747.54	1090.92
747.87	1086.48
748.20	1093.97
748.53	1089.05
748.87	1092.56
749.20	1084.37
749.53	1081.56
749.86	1078.05
750.19	1077.82
750.52	1081.80
750.85	1082.97
751.18	1080.86
751.51	1088.58
751.84	1090.92
752.16	1087.65
752.49	1100.99
752.82	1090.92
753.15	1071.97
753.48	1067.05
753.81	1068.92
754.14	1060.26
754.47	1069.62
754.80	1084.60
755.13	1084.84
755.46	1085.07
755.79	1091.63
756.12	1092.56
756.45	1095.60
756.78	1093.73
757.11	1083.67
757.43	1075.94
757.76	1073.37
758.09	1072.43
758.42	1080.86
758.75	1091.16
759.08	1098.65
759.41	1097.95
759.74	1101.69
760.07	1103.80
760.39	1099.82
760.72	1087.65
761.05	1091.16
761.38	1082.73
761.71	1079.22
762.04	1082.50
762.36	1089.52
762.69	1081.33
763.02	1084.37
763.35	1093.50
763.68	1089.75
764.01	1102.86
764.33	1111.99
764.66	1105.90
