SpectraSuite Data File
++++++++++++++++++++++++++++++++++++
Date: Mon Aug 26 10:24:47 PDT 2019
User: corrico
Dark Spectrum Present: No
Reference Spectrum Present: No
Number of Sampled Component Spectra: 1
Spectrometers: USB2+H06089
Integration Time (usec): 10000 (USB2+H06089)
Spectra Averaged: 2 (USB2+H06089)
Boxcar Smoothing: 2 (USB2+H06089)
Correct for Electrical Dark: No (USB2+H06089)
Strobe/Lamp Enabled: No (USB2+H06089)
Correct for Detector Non-linearity: No (USB2+H06089)
Correct for Stray Light: No (USB2+H06089)
Number of Pixels in Processed Spectrum: 2048
>>>>>Begin Processed Spectral Data<<<<<
339.70	1019.30
340.07	1019.30
340.45	983.02
340.82	961.26
341.19	948.85
341.57	925.45
341.94	920.53
342.31	914.92
342.69	915.85
343.06	899.70
343.43	902.74
343.81	889.87
344.18	891.74
344.55	897.13
344.93	898.06
345.30	889.64
345.67	902.98
346.04	921.00
346.42	931.77
346.79	948.85
347.16	966.64
347.54	977.64
347.91	982.79
348.28	990.05
348.65	1001.52
349.03	1014.39
349.40	1023.52
349.77	1031.94
350.14	1038.73
350.52	1041.77
350.89	1048.56
351.26	1063.77
351.63	1065.18
352.01	1077.58
352.38	1078.52
352.75	1077.11
353.12	1074.54
353.50	1073.14
353.87	1074.54
354.24	1081.33
354.61	1085.07
354.98	1078.75
355.36	1087.18
355.73	1081.80
356.10	1076.65
356.47	1078.28
356.84	1081.33
357.22	1078.99
357.59	1076.88
357.96	1089.99
358.33	1098.65
358.70	1101.69
359.08	1104.03
359.45	1110.82
359.82	1108.95
360.19	1103.09
360.56	1105.90
360.94	1107.78
361.31	1098.65
361.68	1091.16
362.05	1092.33
362.42	1093.97
362.79	1086.01
363.16	1086.01
363.54	1093.03
363.91	1089.05
364.28	1080.86
364.65	1089.75
365.02	1093.97
365.39	1085.31
365.76	1095.84
366.14	1096.78
366.51	1089.05
366.88	1082.26
367.25	1081.09
367.62	1072.67
367.99	1071.73
368.36	1083.67
368.73	1086.94
369.10	1096.31
369.48	1097.95
369.85	1098.88
370.22	1077.58
370.59	1067.52
370.96	1068.45
371.33	1066.82
371.70	1061.67
372.07	1073.60
372.44	1087.65
372.81	1089.52
373.18	1082.97
373.55	1084.60
373.93	1083.20
374.30	1083.90
374.67	1077.11
375.04	1088.12
375.41	1093.73
375.78	1095.60
376.15	1085.07
376.52	1075.01
376.89	1063.77
377.26	1061.67
377.63	1062.14
378.00	1075.24
378.37	1085.77
378.74	1086.71
379.11	1085.31
379.48	1085.07
379.85	1083.67
380.22	1084.84
380.59	1090.69
380.96	1101.22
381.33	1108.48
381.70	1087.18
382.07	1091.39
382.44	1088.12
382.81	1088.82
383.18	1084.14
383.55	1103.09
383.92	1103.80
384.29	1104.97
384.66	1094.43
385.03	1094.43
385.40	1089.05
385.77	1081.09
386.14	1089.29
386.51	1100.05
386.88	1094.43
387.25	1100.75
387.62	1112.92
387.99	1116.90
388.36	1112.46
388.73	1126.73
389.10	1128.37
389.46	1122.75
389.83	1121.12
390.20	1121.58
390.57	1114.10
390.94	1110.12
391.31	1122.05
391.68	1117.14
392.05	1126.73
392.42	1133.29
392.79	1149.44
393.16	1135.63
393.53	1141.48
393.89	1135.39
394.26	1130.48
394.63	1114.10
395.00	1116.20
395.37	1117.84
395.74	1118.78
396.11	1124.63
396.48	1135.39
396.84	1145.46
397.21	1141.95
397.58	1147.10
397.95	1154.12
398.32	1151.78
398.69	1145.93
399.06	1145.93
399.42	1150.61
399.79	1146.63
400.16	1154.35
400.53	1164.88
400.90	1174.95
401.27	1176.12
401.64	1176.35
402.00	1171.20
402.37	1175.42
402.74	1172.84
403.11	1164.42
403.48	1174.48
403.84	1194.14
404.21	1203.27
404.58	1217.08
404.95	1238.85
405.32	1250.55
405.68	1256.63
406.05	1263.42
406.42	1270.68
406.79	1283.08
407.16	1302.51
407.52	1309.30
407.89	1332.70
408.26	1359.85
408.63	1372.96
408.99	1387.00
409.36	1427.02
409.73	1448.32
410.10	1466.81
410.47	1511.52
410.83	1555.75
411.20	1587.59
411.57	1621.76
411.94	1668.57
412.30	1715.85
412.67	1754.47
413.04	1796.36
413.40	1862.36
413.77	1934.22
414.14	1985.01
414.51	2055.22
414.87	2140.19
415.24	2207.83
415.61	2293.72
415.97	2377.75
416.34	2473.95
416.71	2576.70
417.08	2682.49
417.44	2778.45
417.81	2911.16
418.18	3041.29
418.54	3179.85
418.91	3328.24
419.28	3485.06
419.64	3643.75
420.01	3805.71
420.38	3985.70
420.74	4178.56
421.11	4396.46
421.48	4613.20
421.84	4868.08
422.21	5094.18
422.58	5375.98
422.94	5653.56
423.31	5944.96
423.68	6230.04
424.04	6575.03
424.41	6871.81
424.77	7164.85
425.14	7491.12
425.51	7848.52
425.87	8232.37
426.24	8623.94
426.61	9078.70
426.97	9596.90
427.34	10081.86
427.70	10608.01
428.07	11150.78
428.44	11756.51
428.80	12320.81
429.17	12966.10
429.53	13568.79
429.90	14281.95
430.27	14820.51
430.63	15390.89
431.00	16055.14
431.36	16814.41
431.73	17423.18
432.09	18271.39
432.46	19111.18
432.83	19792.74
433.19	20412.05
433.56	21209.23
433.92	21854.05
434.29	22541.47
434.65	23334.44
435.02	24011.32
435.38	24686.57
435.75	25263.74
436.11	25897.33
436.48	26397.26
436.84	27044.89
437.21	27529.85
437.57	28053.19
437.94	28465.60
438.30	28827.68
438.67	29074.13
439.03	29320.36
439.40	29528.90
439.76	29536.16
440.13	29516.73
440.49	29512.75
440.86	29220.65
441.22	28889.23
441.59	28507.96
441.95	28146.58
442.32	27532.66
442.68	27095.91
443.05	26549.16
443.41	25985.33
443.78	25319.92
444.14	24724.25
444.51	24006.64
444.87	23536.90
445.24	22981.49
445.60	22489.27
445.96	21923.56
446.33	21510.93
446.69	20845.75
447.06	20343.23
447.42	19709.89
447.79	19079.58
448.15	18543.13
448.51	17952.14
448.88	17473.50
449.24	17026.93
449.61	16765.73
449.97	16316.58
450.33	15940.69
450.70	15489.20
451.06	15074.92
451.43	14557.66
451.79	14181.31
452.15	13843.80
452.52	13433.04
452.88	13123.15
453.24	12814.20
453.61	12498.46
453.97	12218.30
454.34	11924.80
454.70	11633.63
455.06	11367.05
455.43	10994.20
455.79	10622.76
456.15	10341.42
456.52	9975.13
456.88	9660.80
457.24	9382.74
457.61	9122.47
457.97	8810.48
458.33	8537.81
458.70	8259.98
459.06	7962.03
459.42	7701.77
459.79	7477.78
460.15	7261.98
460.51	7022.31
460.88	6833.90
461.24	6612.72
461.60	6398.09
461.96	6206.40
462.33	6022.43
462.69	5849.47
463.05	5690.08
463.42	5560.41
463.78	5395.40
464.14	5251.93
464.50	5120.62
464.87	4998.45
465.23	4861.76
465.59	4744.03
465.95	4627.71
466.32	4509.04
466.68	4406.99
467.04	4315.71
467.40	4209.92
467.77	4112.56
468.13	4028.76
468.49	3931.87
468.85	3860.95
469.22	3805.95
469.58	3735.26
469.94	3665.51
470.30	3599.98
470.66	3517.36
471.03	3450.65
471.39	3411.33
471.75	3345.56
472.11	3284.47
472.47	3219.41
472.84	3162.30
473.20	3078.04
473.56	3029.12
473.92	2964.76
474.28	2917.01
474.65	2863.88
475.01	2822.92
475.37	2770.26
475.73	2728.13
476.09	2679.21
476.45	2635.91
476.81	2581.84
477.18	2551.65
477.54	2513.97
477.90	2474.41
478.26	2432.99
478.62	2403.03
478.98	2374.01
479.34	2357.15
479.71	2317.83
480.07	2297.00
480.43	2281.32
480.79	2245.98
481.15	2220.93
481.51	2222.34
481.87	2197.53
482.23	2178.34
482.59	2156.80
482.96	2118.18
483.32	2084.48
483.68	2071.14
484.04	2041.18
484.40	2009.35
484.76	1990.63
485.12	1969.09
485.48	1933.28
485.84	1909.88
486.20	1885.07
486.56	1859.79
486.92	1840.36
487.28	1831.47
487.64	1820.47
488.00	1810.87
488.37	1800.11
488.73	1768.04
489.09	1744.17
489.45	1713.51
489.81	1697.12
490.17	1676.29
490.53	1669.97
490.89	1651.95
491.25	1642.82
491.61	1619.18
491.97	1601.16
492.33	1580.10
492.69	1576.12
493.05	1566.99
493.41	1557.63
493.77	1541.01
494.13	1533.99
494.49	1507.77
494.85	1491.86
495.21	1483.67
495.57	1489.05
495.93	1487.88
496.29	1489.28
496.64	1472.43
497.00	1470.56
497.36	1449.26
497.72	1426.09
498.08	1409.00
498.44	1402.68
498.80	1375.77
499.16	1370.38
499.52	1370.85
499.88	1358.92
500.24	1354.70
500.60	1338.32
500.96	1335.74
501.32	1322.64
501.68	1315.85
502.03	1315.15
502.39	1323.10
502.75	1315.15
503.11	1302.04
503.47	1300.17
503.83	1291.51
504.19	1285.42
504.55	1273.95
504.91	1279.10
505.26	1275.83
505.62	1274.19
505.98	1264.12
506.34	1261.78
506.70	1258.51
507.06	1242.12
507.42	1231.59
507.78	1232.76
508.13	1223.16
508.49	1209.59
508.85	1211.46
509.21	1210.53
509.57	1203.97
509.93	1204.67
510.28	1207.95
510.64	1203.74
511.00	1203.27
511.36	1211.23
511.72	1210.99
512.07	1206.55
512.43	1204.67
512.79	1201.16
513.15	1185.01
513.51	1178.93
513.86	1178.69
514.22	1179.63
514.58	1169.33
514.94	1168.16
515.30	1164.65
515.65	1170.03
516.01	1175.65
516.37	1172.37
516.73	1176.35
517.08	1180.80
517.44	1173.54
517.80	1158.80
518.16	1165.12
518.51	1155.99
518.87	1150.14
519.23	1141.25
519.59	1143.12
519.94	1141.71
520.30	1148.27
520.66	1157.16
521.01	1162.54
521.37	1162.31
521.73	1153.88
522.09	1141.71
522.44	1132.59
522.80	1133.29
523.16	1133.29
523.51	1140.78
523.87	1140.31
524.23	1139.84
524.58	1132.82
524.94	1132.59
525.30	1121.12
525.65	1127.20
526.01	1130.48
526.37	1122.52
526.72	1116.44
527.08	1127.90
527.44	1125.56
527.79	1120.65
528.15	1123.93
528.51	1128.61
528.86	1128.84
529.22	1135.63
529.58	1128.61
529.93	1123.46
530.29	1121.58
530.65	1108.95
531.00	1110.58
531.36	1117.61
531.71	1128.14
532.07	1122.99
532.43	1121.58
532.78	1115.97
533.14	1114.33
533.49	1110.35
533.85	1113.63
534.21	1118.31
534.56	1123.93
534.92	1124.39
535.27	1119.71
535.63	1119.95
535.98	1114.80
536.34	1115.50
536.69	1115.73
537.05	1133.52
537.41	1136.56
537.76	1143.59
538.12	1134.46
538.47	1128.37
538.83	1105.20
539.18	1100.99
539.54	1096.07
539.89	1095.84
540.25	1108.01
540.60	1125.80
540.96	1128.14
541.31	1140.07
541.67	1146.63
542.02	1146.86
542.38	1136.80
542.73	1137.27
543.09	1135.39
543.44	1133.76
543.80	1128.37
544.15	1132.82
544.51	1130.71
544.86	1127.67
545.22	1121.82
545.57	1122.52
545.93	1112.46
546.28	1101.22
546.64	1095.84
546.99	1094.90
547.35	1082.50
547.70	1084.14
548.05	1105.20
548.41	1112.92
548.76	1116.67
549.12	1125.80
549.47	1129.07
549.83	1113.16
550.18	1099.82
550.53	1094.90
550.89	1100.75
551.24	1104.97
551.60	1109.41
551.95	1114.10
552.30	1116.67
552.66	1113.16
553.01	1111.52
553.37	1110.35
553.72	1104.97
554.07	1109.18
554.43	1107.31
554.78	1103.09
555.13	1102.63
555.49	1102.63
555.84	1094.67
556.19	1084.14
556.55	1090.69
556.90	1098.18
557.26	1101.22
557.61	1109.88
557.96	1119.01
558.32	1123.69
558.67	1127.20
559.02	1120.18
559.37	1107.07
559.73	1095.60
560.08	1083.20
560.43	1083.43
560.79	1087.65
561.14	1096.07
561.49	1104.97
561.85	1104.73
562.20	1094.20
562.55	1090.22
562.90	1080.63
563.26	1082.50
563.61	1087.65
563.96	1095.60
564.32	1103.80
564.67	1104.73
565.02	1102.86
565.37	1097.95
565.73	1087.41
566.08	1084.37
566.43	1090.22
566.78	1092.56
567.14	1097.95
567.49	1100.75
567.84	1098.41
568.19	1085.07
568.54	1086.24
568.90	1087.88
569.25	1093.50
569.60	1089.75
569.95	1097.24
570.31	1082.97
570.66	1075.94
571.01	1078.05
571.36	1091.16
571.71	1095.60
572.06	1105.44
572.42	1104.97
572.77	1103.80
573.12	1097.95
573.47	1100.52
573.82	1100.99
574.18	1106.84
574.53	1094.20
574.88	1105.20
575.23	1104.73
575.58	1108.24
575.93	1096.54
576.28	1108.71
576.64	1085.77
576.99	1083.20
577.34	1080.63
577.69	1091.63
578.04	1087.41
578.39	1098.18
578.74	1099.35
579.09	1100.29
579.44	1098.88
579.80	1090.69
580.15	1104.73
580.50	1105.90
580.85	1107.31
581.20	1106.84
581.55	1112.22
581.90	1095.60
582.25	1099.12
582.60	1096.31
582.95	1095.60
583.30	1101.69
583.65	1110.58
584.00	1112.92
584.35	1109.88
584.71	1115.50
585.06	1112.92
585.41	1121.58
585.76	1112.46
586.11	1118.31
586.46	1114.33
586.81	1109.41
587.16	1092.80
587.51	1100.52
587.86	1095.84
588.21	1094.90
588.56	1092.56
588.91	1093.73
589.26	1090.22
589.61	1091.86
589.96	1087.88
590.31	1082.73
590.66	1090.69
591.01	1088.35
591.36	1083.90
591.71	1082.50
592.06	1097.48
592.41	1096.07
592.76	1103.80
593.10	1097.71
593.45	1095.60
593.80	1093.73
594.15	1088.12
594.50	1091.63
594.85	1098.41
595.20	1102.86
595.55	1097.01
595.90	1102.39
596.25	1094.43
596.60	1094.20
596.95	1097.48
597.30	1100.52
597.64	1153.42
597.99	1154.59
598.34	1155.99
598.69	1148.73
599.04	1143.35
599.39	1088.35
599.74	1074.31
600.09	1081.09
600.44	1086.01
600.78	1089.99
601.13	1080.86
601.48	1083.90
601.83	1066.82
602.18	1064.94
602.53	1066.35
602.88	1065.65
603.22	1071.73
603.57	1077.11
603.92	1083.90
604.27	1079.22
604.62	1081.56
604.97	1088.82
605.31	1095.14
605.66	1089.52
606.01	1097.01
606.36	1099.35
606.71	1086.24
607.05	1086.01
607.40	1082.73
607.75	1077.58
608.10	1079.46
608.44	1079.22
608.79	1081.09
609.14	1089.05
609.49	1092.56
609.84	1097.01
610.18	1108.24
610.53	1101.92
610.88	1099.35
611.23	1096.31
611.57	1097.01
611.92	1098.18
612.27	1111.99
612.62	1116.20
612.96	1111.99
613.31	1104.50
613.66	1090.69
614.00	1082.50
614.35	1085.07
614.70	1093.50
615.05	1093.97
615.39	1096.78
615.74	1092.33
616.09	1079.92
616.43	1082.50
616.78	1085.54
617.13	1094.20
617.47	1095.60
617.82	1110.12
618.17	1094.20
618.51	1089.52
618.86	1082.50
619.21	1074.77
619.55	1069.39
619.90	1078.28
620.25	1084.14
620.59	1089.05
620.94	1096.78
621.29	1085.54
621.63	1092.56
621.98	1092.80
622.32	1096.31
622.67	1097.01
623.02	1105.20
623.36	1099.82
623.71	1095.60
624.05	1091.16
624.40	1093.26
624.75	1092.09
625.09	1083.43
625.44	1080.39
625.78	1069.16
626.13	1071.73
626.48	1070.56
626.82	1075.24
627.17	1070.33
627.51	1082.03
627.86	1073.84
628.20	1064.01
628.55	1073.60
628.89	1080.86
629.24	1088.82
629.58	1095.60
629.93	1106.37
630.28	1099.12
630.62	1099.58
630.97	1082.97
631.31	1075.94
631.66	1074.54
632.00	1075.48
632.35	1076.18
632.69	1091.16
633.04	1087.88
633.38	1095.84
633.73	1092.80
634.07	1091.16
634.42	1082.73
634.76	1096.07
635.11	1090.46
635.45	1093.97
635.79	1095.37
636.14	1095.60
636.48	1091.16
636.83	1089.29
637.17	1086.94
637.52	1084.14
637.86	1092.33
638.21	1089.52
638.55	1087.41
638.89	1095.37
639.24	1100.29
639.58	1096.54
639.93	1099.12
640.27	1105.44
640.61	1097.48
640.96	1097.71
641.30	1093.50
641.65	1085.54
641.99	1078.52
642.33	1079.46
642.68	1082.73
643.02	1083.90
643.37	1090.69
643.71	1096.54
644.05	1096.07
644.40	1087.41
644.74	1087.88
645.08	1088.35
645.43	1083.20
645.77	1082.03
646.11	1084.14
646.46	1089.29
646.80	1094.90
647.14	1102.39
647.49	1100.05
647.83	1094.67
648.17	1086.24
648.52	1081.33
648.86	1074.07
649.20	1086.24
649.55	1089.75
649.89	1097.48
650.23	1099.35
650.57	1100.75
650.92	1095.37
651.26	1104.97
651.60	1096.54
651.95	1095.84
652.29	1099.12
652.63	1096.78
652.97	1092.09
653.32	1092.56
653.66	1095.37
654.00	1094.43
654.34	1091.39
654.69	1082.50
655.03	1079.22
655.37	1074.77
655.71	1072.20
656.05	1069.16
656.40	1073.84
656.74	1086.94
657.08	1087.88
657.42	1092.80
657.76	1094.20
658.11	1091.63
658.45	1083.20
658.79	1074.54
659.13	1067.99
659.47	1067.99
659.82	1067.28
660.16	1070.09
660.50	1075.48
660.84	1079.92
661.18	1085.07
661.52	1093.97
661.87	1103.56
662.21	1099.12
662.55	1095.14
662.89	1093.26
663.23	1086.71
663.57	1079.22
663.91	1080.63
664.25	1083.90
664.60	1089.99
664.94	1092.56
665.28	1091.63
665.62	1086.48
665.96	1094.67
666.30	1084.60
666.64	1090.69
666.98	1089.05
667.32	1092.56
667.66	1086.24
668.01	1085.77
668.35	1087.18
668.69	1088.35
669.03	1096.78
669.37	1093.03
669.71	1093.03
670.05	1076.65
670.39	1071.26
670.73	1069.86
671.07	1076.41
671.41	1078.52
671.75	1088.58
672.09	1097.48
672.43	1100.75
672.77	1098.65
673.11	1097.71
673.45	1095.84
673.79	1090.69
674.13	1087.41
674.47	1078.52
674.81	1086.01
675.15	1095.60
675.49	1099.12
675.83	1093.97
676.17	1106.14
676.51	1106.14
676.85	1101.46
677.19	1101.22
677.53	1105.90
677.87	1100.05
678.21	1102.63
678.55	1103.09
678.89	1099.35
679.23	1089.29
679.57	1081.56
679.90	1072.67
680.24	1067.05
680.58	1063.77
680.92	1069.86
681.26	1072.90
681.60	1082.97
681.94	1085.31
682.28	1091.86
682.62	1096.07
682.96	1098.88
683.29	1094.67
683.63	1099.35
683.97	1096.31
684.31	1099.35
684.65	1095.60
684.99	1095.14
685.33	1083.90
685.67	1082.26
686.00	1079.46
686.34	1080.39
686.68	1073.84
687.02	1083.20
687.36	1083.67
687.70	1081.09
688.03	1087.18
688.37	1093.97
688.71	1084.84
689.05	1095.60
689.39	1088.58
689.72	1083.90
690.06	1086.01
690.40	1083.43
690.74	1067.52
691.08	1070.33
691.41	1067.75
691.75	1061.20
692.09	1064.71
692.43	1067.52
692.76	1079.92
693.10	1087.18
693.44	1090.22
693.78	1102.63
694.11	1110.12
694.45	1097.71
694.79	1093.50
695.13	1093.26
695.46	1080.63
695.80	1071.50
696.14	1072.43
696.48	1073.14
696.81	1067.28
697.15	1081.80
697.49	1090.92
697.82	1090.22
698.16	1088.35
698.50	1090.22
698.83	1076.18
699.17	1071.50
699.51	1085.07
699.84	1082.97
700.18	1087.41
700.52	1087.41
700.85	1084.14
701.19	1079.46
701.53	1078.52
701.86	1079.46
702.20	1083.43
702.54	1087.18
702.87	1080.16
703.21	1078.99
703.55	1075.24
703.88	1071.50
704.22	1066.58
704.55	1067.05
704.89	1070.56
705.23	1064.71
705.56	1066.11
705.90	1070.33
706.23	1072.67
706.57	1078.52
706.91	1084.84
707.24	1093.26
707.58	1096.78
707.91	1104.26
708.25	1098.18
708.58	1091.86
708.92	1090.46
709.26	1077.58
709.59	1070.33
709.93	1078.28
710.26	1088.35
710.60	1086.48
710.93	1101.92
711.27	1107.07
711.60	1099.35
711.94	1092.80
712.27	1089.52
712.61	1075.94
712.94	1068.92
713.28	1070.09
713.61	1084.14
713.95	1082.97
714.28	1084.84
714.62	1090.46
714.95	1094.43
715.29	1086.71
715.62	1084.37
715.96	1078.75
716.29	1077.82
716.63	1077.35
716.96	1078.05
717.29	1089.29
717.63	1104.03
717.96	1101.46
718.30	1095.14
718.63	1086.01
718.97	1087.18
719.30	1074.77
719.63	1076.65
719.97	1068.22
720.30	1068.45
720.64	1071.26
720.97	1074.77
721.30	1079.46
721.64	1089.05
721.97	1097.24
722.31	1083.20
722.64	1089.29
722.97	1081.80
723.31	1089.75
723.64	1088.35
723.97	1092.09
724.31	1095.14
724.64	1090.22
724.98	1078.75
725.31	1074.54
725.64	1067.52
725.98	1068.45
726.31	1075.01
726.64	1080.63
726.97	1085.07
727.31	1083.67
727.64	1070.80
727.97	1068.69
728.31	1070.80
728.64	1063.07
728.97	1073.14
729.31	1082.03
729.64	1076.65
729.97	1077.11
730.30	1081.33
730.64	1076.88
730.97	1066.58
731.30	1072.43
731.63	1064.94
731.97	1056.28
732.30	1051.84
732.63	1063.07
732.96	1061.67
733.30	1069.86
733.63	1073.84
733.96	1082.26
734.29	1073.84
734.63	1073.37
734.96	1069.16
735.29	1075.24
735.62	1071.50
735.95	1078.75
736.29	1079.22
736.62	1078.05
736.95	1075.94
737.28	1075.71
737.61	1073.60
737.94	1066.11
738.28	1074.07
738.61	1076.88
738.94	1076.88
739.27	1082.97
739.60	1092.33
739.93	1085.31
740.27	1090.69
740.60	1094.67
740.93	1093.50
741.26	1097.71
741.59	1098.18
741.92	1089.52
742.25	1079.22
742.58	1078.75
742.91	1071.73
743.25	1072.67
743.58	1073.60
743.91	1081.33
744.24	1080.16
744.57	1089.52
744.90	1092.56
745.23	1086.24
745.56	1089.29
745.89	1091.63
746.22	1082.97
746.55	1076.41
746.88	1087.18
747.21	1080.86
747.54	1070.33
747.87	1068.22
748.20	1076.41
748.53	1062.37
748.87	1065.18
749.20	1068.69
749.53	1070.33
749.86	1061.20
750.19	1062.37
750.52	1060.26
750.85	1065.41
751.18	1070.09
751.51	1079.22
751.84	1088.82
752.16	1084.60
752.49	1075.94
752.82	1079.92
753.15	1071.03
753.48	1070.33
753.81	1076.18
754.14	1085.31
754.47	1075.24
754.80	1073.14
755.13	1077.58
755.46	1071.26
755.79	1069.16
756.12	1079.22
756.45	1089.75
756.78	1086.01
757.11	1090.22
757.43	1090.92
757.76	1081.33
758.09	1080.86
758.42	1084.14
758.75	1090.92
759.08	1094.43
759.41	1099.35
759.74	1089.75
760.07	1088.35
760.39	1081.80
760.72	1076.18
761.05	1071.03
761.38	1082.97
761.71	1075.94
762.04	1081.09
762.36	1076.65
762.69	1080.86
763.02	1075.48
763.35	1077.35
763.68	1079.69
764.01	1088.82
764.33	1086.94
764.66	1086.94
