SpectraSuite Data File
++++++++++++++++++++++++++++++++++++
Date: Mon Aug 26 10:24:47 PDT 2019
User: corrico
Dark Spectrum Present: No
Reference Spectrum Present: No
Number of Sampled Component Spectra: 1
Spectrometers: USB2+H06089
Integration Time (usec): 10000 (USB2+H06089)
Spectra Averaged: 2 (USB2+H06089)
Boxcar Smoothing: 2 (USB2+H06089)
Correct for Electrical Dark: No (USB2+H06089)
Strobe/Lamp Enabled: No (USB2+H06089)
Correct for Detector Non-linearity: No (USB2+H06089)
Correct for Stray Light: No (USB2+H06089)
Number of Pixels in Processed Spectrum: 2048
>>>>>Begin Processed Spectral Data<<<<<
339.70	1020.47
340.07	1020.47
340.45	977.41
340.82	957.05
341.19	935.28
341.57	911.64
341.94	906.72
342.31	899.70
342.69	892.68
343.06	897.83
343.43	893.38
343.81	905.32
344.18	914.21
344.55	924.75
344.93	920.30
345.30	922.64
345.67	929.89
346.04	935.28
346.42	940.19
346.79	942.07
347.16	951.19
347.54	957.05
347.91	965.47
348.28	978.34
348.65	1000.81
349.03	1020.01
349.40	1023.98
349.77	1037.79
350.14	1045.52
350.52	1056.28
350.89	1072.67
351.26	1081.56
351.63	1084.14
352.01	1080.63
352.38	1079.46
352.75	1071.03
353.12	1071.73
353.50	1070.80
353.87	1082.50
354.24	1090.46
354.61	1084.14
354.98	1086.48
355.36	1094.67
355.73	1099.35
356.10	1097.71
356.47	1112.69
356.84	1119.24
357.22	1104.97
357.59	1096.31
357.96	1097.48
358.33	1103.33
358.70	1107.07
359.08	1106.37
359.45	1101.22
359.82	1090.92
360.19	1089.29
360.56	1085.54
360.94	1084.14
361.31	1090.46
361.68	1090.22
362.05	1086.48
362.42	1085.77
362.79	1096.31
363.16	1098.18
363.54	1099.12
363.91	1093.50
364.28	1093.26
364.65	1089.52
365.02	1089.29
365.39	1090.69
365.76	1088.82
366.14	1079.69
366.51	1084.14
366.88	1079.46
367.25	1082.97
367.62	1096.07
367.99	1095.14
368.36	1099.82
368.73	1101.69
369.10	1092.33
369.48	1085.54
369.85	1096.07
370.22	1086.94
370.59	1086.94
370.96	1091.39
371.33	1091.63
371.70	1092.80
372.07	1091.16
372.44	1087.65
372.81	1088.35
373.18	1084.84
373.55	1075.48
373.93	1065.65
374.30	1066.58
374.67	1062.60
375.04	1066.82
375.41	1068.22
375.78	1071.73
376.15	1075.48
376.52	1078.28
376.89	1076.65
377.26	1068.69
377.63	1075.24
378.00	1067.75
378.37	1068.22
378.74	1069.39
379.11	1086.71
379.48	1092.33
379.85	1094.90
380.22	1097.71
380.59	1097.71
380.96	1091.39
381.33	1088.82
381.70	1092.80
382.07	1084.37
382.44	1079.22
382.81	1081.09
383.18	1092.09
383.55	1098.18
383.92	1112.92
384.29	1119.24
384.66	1124.39
385.03	1112.46
385.40	1103.33
385.77	1097.71
386.14	1099.35
386.51	1086.01
386.88	1087.65
387.25	1090.22
387.62	1095.84
387.99	1089.99
388.36	1100.05
388.73	1098.88
389.10	1106.61
389.46	1106.84
389.83	1102.16
390.20	1105.20
390.57	1119.48
390.94	1105.67
391.31	1103.33
391.68	1119.24
392.05	1115.03
392.42	1111.05
392.79	1120.88
393.16	1124.63
393.53	1115.50
393.89	1123.46
394.26	1107.54
394.63	1106.37
395.00	1101.46
395.37	1097.01
395.74	1094.90
396.11	1114.80
396.48	1126.50
396.84	1131.88
397.21	1137.73
397.58	1128.37
397.95	1123.46
398.32	1115.27
398.69	1114.33
399.06	1120.18
399.42	1130.01
399.79	1132.82
400.16	1136.56
400.53	1144.99
400.90	1143.35
401.27	1146.63
401.64	1147.80
402.00	1148.03
402.37	1151.78
402.74	1162.54
403.11	1170.97
403.48	1177.06
403.84	1190.63
404.21	1192.74
404.58	1211.23
404.95	1216.61
405.32	1229.95
405.68	1242.82
406.05	1257.80
406.42	1259.68
406.79	1283.55
407.16	1296.19
407.52	1301.81
407.89	1324.98
408.26	1338.79
408.63	1356.57
408.99	1373.89
409.36	1404.32
409.73	1419.53
410.10	1455.58
410.47	1479.22
410.83	1511.52
411.20	1541.71
411.57	1592.27
411.94	1625.50
412.30	1680.27
412.67	1730.59
413.04	1799.17
413.40	1849.96
413.77	1925.79
414.14	1982.90
414.51	2065.76
414.87	2130.59
415.24	2202.21
415.61	2262.83
415.97	2355.28
416.34	2454.05
416.71	2559.14
417.08	2684.13
417.44	2801.62
417.81	2919.35
418.18	3041.06
418.54	3182.89
418.91	3328.71
419.28	3497.93
419.64	3673.24
420.01	3851.12
420.38	4039.53
420.74	4211.79
421.11	4425.25
421.48	4633.79
421.84	4864.10
422.21	5107.28
422.58	5385.10
422.94	5643.97
423.31	5933.49
423.68	6235.42
424.04	6537.12
424.41	6849.81
424.77	7190.83
425.14	7502.82
425.51	7844.07
425.87	8223.94
426.24	8601.70
426.61	9011.53
426.97	9560.85
427.34	10080.22
427.70	10598.18
428.07	11145.40
428.44	11738.96
428.80	12246.85
429.17	12808.58
429.53	13389.74
429.90	14074.81
430.27	14651.99
430.63	15284.40
431.00	15980.94
431.36	16726.64
431.73	17340.33
432.09	18073.38
432.46	18824.46
432.83	19521.24
433.19	20178.93
433.56	20963.24
433.92	21691.15
434.29	22370.84
434.65	23056.85
435.02	23735.84
435.38	24407.11
435.75	24915.47
436.11	25619.74
436.48	26174.91
436.84	26773.39
437.21	27301.65
437.57	27871.57
437.94	28294.27
438.30	28741.31
438.67	28925.28
439.03	29076.94
439.40	29257.87
439.76	29180.86
440.13	29034.81
440.49	29078.11
440.86	28860.68
441.22	28519.90
441.59	28153.13
441.95	27784.73
442.32	27208.73
442.68	26729.15
443.05	26222.89
443.41	25665.61
443.78	25067.84
444.14	24490.66
444.51	23806.76
444.87	23333.03
445.24	22795.65
445.60	22260.60
445.96	21717.36
446.33	21244.57
446.69	20568.16
447.06	20035.45
447.42	19432.06
447.79	18774.84
448.15	18273.03
448.51	17762.33
448.88	17318.79
449.24	16864.96
449.61	16581.76
449.97	16200.02
450.33	15791.13
450.70	15313.42
451.06	14985.98
451.43	14514.60
451.79	14115.30
452.15	13788.10
452.52	13449.19
452.88	13075.87
453.24	12798.05
453.61	12503.14
453.97	12166.34
454.34	11844.28
454.70	11556.63
455.06	11227.55
455.43	10837.38
455.79	10435.51
456.15	10116.50
456.52	9763.78
456.88	9483.38
457.24	9203.45
457.61	9010.13
457.97	8760.16
458.33	8494.04
458.70	8215.51
459.06	7931.84
459.42	7700.83
459.79	7437.75
460.15	7190.36
460.51	6923.77
460.88	6697.68
461.24	6451.22
461.60	6248.53
461.96	6063.39
462.33	5912.90
462.69	5773.40
463.05	5624.78
463.42	5494.88
463.78	5366.61
464.14	5217.76
464.50	5076.15
464.87	4937.59
465.23	4810.03
465.59	4701.20
465.95	4596.34
466.32	4486.81
466.68	4387.80
467.04	4281.54
467.40	4170.83
467.77	4080.96
468.13	4003.02
468.49	3912.21
468.85	3841.05
469.22	3764.28
469.58	3694.07
469.94	3617.77
470.30	3539.36
470.66	3447.84
471.03	3395.65
471.39	3342.29
471.75	3278.62
472.11	3242.58
472.47	3204.43
472.84	3153.17
473.20	3083.42
473.56	3032.16
473.92	2967.33
474.28	2917.24
474.65	2870.20
475.01	2825.73
475.37	2764.64
475.73	2729.53
476.09	2690.21
476.45	2638.02
476.81	2584.89
477.18	2554.23
477.54	2515.37
477.90	2472.31
478.26	2439.31
478.62	2405.84
478.98	2373.30
479.34	2333.75
479.71	2305.90
480.07	2289.51
480.43	2277.34
480.79	2250.89
481.15	2225.62
481.51	2194.02
481.87	2154.93
482.23	2121.46
482.59	2091.74
482.96	2067.16
483.32	2039.07
483.68	2012.16
484.04	1992.03
484.40	1970.97
484.76	1954.35
485.12	1962.07
485.48	1945.22
485.84	1922.52
486.20	1908.00
486.56	1874.30
486.92	1843.64
487.28	1824.92
487.64	1804.08
488.00	1771.79
488.37	1757.51
488.73	1734.57
489.09	1717.95
489.45	1693.38
489.81	1687.99
490.17	1680.27
490.53	1664.12
490.89	1654.29
491.25	1646.10
491.61	1640.01
491.97	1608.18
492.33	1600.93
492.69	1572.14
493.05	1558.09
493.41	1536.56
493.77	1542.65
494.13	1518.07
494.49	1506.13
494.85	1496.30
495.21	1481.79
495.57	1462.13
495.93	1449.03
496.29	1449.96
496.64	1445.28
497.00	1431.00
497.36	1427.73
497.72	1438.26
498.08	1424.92
498.44	1407.83
498.80	1405.02
499.16	1391.21
499.52	1374.83
499.88	1365.47
500.24	1362.66
500.60	1349.79
500.96	1338.32
501.32	1328.25
501.68	1325.91
502.03	1309.30
502.39	1307.42
502.75	1301.34
503.11	1284.49
503.47	1271.85
503.83	1272.32
504.19	1262.72
504.55	1260.14
504.91	1254.29
505.26	1255.46
505.62	1250.55
505.98	1247.04
506.34	1252.89
506.70	1261.55
507.06	1256.63
507.42	1258.51
507.78	1258.74
508.13	1257.57
508.49	1242.36
508.85	1238.38
509.21	1233.93
509.57	1229.48
509.93	1223.87
510.28	1227.38
510.64	1226.44
511.00	1218.48
511.36	1216.14
511.72	1206.55
512.07	1206.78
512.43	1205.14
512.79	1207.48
513.15	1202.57
513.51	1193.91
513.86	1178.23
514.22	1171.44
514.58	1180.80
514.94	1177.52
515.30	1171.91
515.65	1178.93
516.01	1181.74
516.37	1160.44
516.73	1171.67
517.08	1172.61
517.44	1172.14
517.80	1161.37
518.16	1165.82
518.51	1163.95
518.87	1167.69
519.23	1173.78
519.59	1172.61
519.94	1173.31
520.30	1162.54
520.66	1157.16
521.01	1141.71
521.37	1133.99
521.73	1128.14
522.09	1119.48
522.44	1127.90
522.80	1136.80
523.16	1156.46
523.51	1163.71
523.87	1165.82
524.23	1160.67
524.58	1153.42
524.94	1133.29
525.30	1129.07
525.65	1135.63
526.01	1130.71
526.37	1132.82
526.72	1139.37
527.08	1126.27
527.44	1114.80
527.79	1116.20
528.15	1115.03
528.51	1110.58
528.86	1121.58
529.22	1123.46
529.58	1131.41
529.93	1134.93
530.29	1136.10
530.65	1133.76
531.00	1137.97
531.36	1128.14
531.71	1125.80
532.07	1124.86
532.43	1121.82
532.78	1112.92
533.14	1113.16
533.49	1109.18
533.85	1119.71
534.21	1127.90
534.56	1136.80
534.92	1135.16
535.27	1131.88
535.63	1122.99
535.98	1112.92
536.34	1110.82
536.69	1110.82
537.05	1114.80
537.41	1117.61
537.76	1113.16
538.12	1110.12
538.47	1117.61
538.83	1121.58
539.18	1120.41
539.54	1122.29
539.89	1122.52
540.25	1105.90
540.60	1097.24
540.96	1095.60
541.31	1097.48
541.67	1098.41
542.02	1103.56
542.38	1112.46
542.73	1110.58
543.09	1110.35
543.44	1105.44
543.80	1107.07
544.15	1102.86
544.51	1103.80
544.86	1099.58
545.22	1104.26
545.57	1111.75
545.93	1111.75
546.28	1112.46
546.64	1114.33
546.99	1119.01
547.35	1108.71
547.70	1092.09
548.05	1088.35
548.41	1093.50
548.76	1082.73
549.12	1083.90
549.47	1093.03
549.83	1101.22
550.18	1093.03
550.53	1093.97
550.89	1104.97
551.24	1111.52
551.60	1105.90
551.95	1117.37
552.30	1135.39
552.66	1141.71
553.01	1141.01
553.37	1142.65
553.72	1132.35
554.07	1110.12
554.43	1102.16
554.78	1100.52
555.13	1093.03
555.49	1096.31
555.84	1104.50
556.19	1095.14
556.55	1108.95
556.90	1120.65
557.26	1122.75
557.61	1116.90
557.96	1124.39
558.32	1111.29
558.67	1090.69
559.02	1084.84
559.37	1103.80
559.73	1090.22
560.08	1091.16
560.43	1103.09
560.79	1108.01
561.14	1087.65
561.49	1097.71
561.85	1097.95
562.20	1099.58
562.55	1100.52
562.90	1110.12
563.26	1105.44
563.61	1093.73
563.96	1088.58
564.32	1086.48
564.67	1082.26
565.02	1089.29
565.37	1099.58
565.73	1106.61
566.08	1100.99
566.43	1100.75
566.78	1101.22
567.14	1091.86
567.49	1092.09
567.84	1088.82
568.19	1092.80
568.54	1086.48
568.90	1092.80
569.25	1083.20
569.60	1089.05
569.95	1091.63
570.31	1094.20
570.66	1095.37
571.01	1098.41
571.36	1103.09
571.71	1095.60
572.06	1087.18
572.42	1086.48
572.77	1088.35
573.12	1079.69
573.47	1090.46
573.82	1100.29
574.18	1101.46
574.53	1111.05
574.88	1114.10
575.23	1111.05
575.58	1110.82
575.93	1111.05
576.28	1104.26
576.64	1112.69
576.99	1112.69
577.34	1103.33
577.69	1094.43
578.04	1100.52
578.39	1093.97
578.74	1095.84
579.09	1111.75
579.44	1117.37
579.80	1119.48
580.15	1109.65
580.50	1101.22
580.85	1086.94
581.20	1096.78
581.55	1083.20
581.90	1091.16
582.25	1092.80
582.60	1098.18
582.95	1078.52
583.30	1081.56
583.65	1081.80
584.00	1085.07
584.35	1081.33
584.71	1098.18
585.06	1101.22
585.41	1102.16
585.76	1098.65
586.11	1097.24
586.46	1088.82
586.81	1086.24
587.16	1080.63
587.51	1079.69
587.86	1080.86
588.21	1082.73
588.56	1074.77
588.91	1083.20
589.26	1076.88
589.61	1087.88
589.96	1092.56
590.31	1096.31
590.66	1101.22
591.01	1111.05
591.36	1105.20
591.71	1100.29
592.06	1106.14
592.41	1105.44
592.76	1093.26
593.10	1089.75
593.45	1094.67
593.80	1094.20
594.15	1089.05
594.50	1100.99
594.85	1100.29
595.20	1098.65
595.55	1089.99
595.90	1088.12
596.25	1092.09
596.60	1099.35
596.95	1093.50
597.30	1104.03
597.64	1146.86
597.99	1137.97
598.34	1126.50
598.69	1130.01
599.04	1118.78
599.39	1076.41
599.74	1077.82
600.09	1078.99
600.44	1079.69
600.78	1089.29
601.13	1098.41
601.48	1093.03
601.83	1091.39
602.18	1092.56
602.53	1087.18
602.88	1071.26
603.22	1068.92
603.57	1071.73
603.92	1073.37
604.27	1081.33
604.62	1098.88
604.97	1104.73
605.31	1101.69
605.66	1102.63
606.01	1096.78
606.36	1093.26
606.71	1092.33
607.05	1096.54
607.40	1101.69
607.75	1104.26
608.10	1097.24
608.44	1095.60
608.79	1093.50
609.14	1084.37
609.49	1076.41
609.84	1082.97
610.18	1089.05
610.53	1097.95
610.88	1095.14
611.23	1112.22
611.57	1099.12
611.92	1101.46
612.27	1097.01
612.62	1099.12
612.96	1088.35
613.31	1095.60
613.66	1088.35
614.00	1076.65
614.35	1077.82
614.70	1076.88
615.05	1081.09
615.39	1089.75
615.74	1093.50
616.09	1100.29
616.43	1105.20
616.78	1107.78
617.13	1103.80
617.47	1112.22
617.82	1106.37
618.17	1100.05
618.51	1094.20
618.86	1096.31
619.21	1101.46
619.55	1099.35
619.90	1104.73
620.25	1100.05
620.59	1096.54
620.94	1086.71
621.29	1096.07
621.63	1093.03
621.98	1097.95
622.32	1097.71
622.67	1097.48
623.02	1091.39
623.36	1090.69
623.71	1086.24
624.05	1089.29
624.40	1087.88
624.75	1087.18
625.09	1089.75
625.44	1085.54
625.78	1086.01
626.13	1099.82
626.48	1103.56
626.82	1102.63
627.17	1108.24
627.51	1113.63
627.86	1109.18
628.20	1096.54
628.55	1088.58
628.89	1093.26
629.24	1087.18
629.58	1078.75
629.93	1091.86
630.28	1101.69
630.62	1101.69
630.97	1109.65
631.31	1118.54
631.66	1119.24
632.00	1114.10
632.35	1102.39
632.69	1079.92
633.04	1076.65
633.38	1067.05
633.73	1071.03
634.07	1085.31
634.42	1096.31
634.76	1094.90
635.11	1093.50
635.45	1098.18
635.79	1092.80
636.14	1092.80
636.48	1089.99
636.83	1088.58
637.17	1083.43
637.52	1079.46
637.86	1072.90
638.21	1077.11
638.55	1087.41
638.89	1088.58
639.24	1084.60
639.58	1087.41
639.93	1089.05
640.27	1080.39
640.61	1085.31
640.96	1099.12
641.30	1102.16
641.65	1092.56
641.99	1096.54
642.33	1093.26
642.68	1083.90
643.02	1086.71
643.37	1090.69
643.71	1080.16
644.05	1074.77
644.40	1070.09
644.74	1075.71
645.08	1084.84
645.43	1086.48
645.77	1084.84
646.11	1092.56
646.46	1082.50
646.80	1080.63
647.14	1091.63
647.49	1092.56
647.83	1094.20
648.17	1095.14
648.52	1082.50
648.86	1082.73
649.20	1084.37
649.55	1082.97
649.89	1089.52
650.23	1094.20
650.57	1083.90
650.92	1089.29
651.26	1089.52
651.60	1089.99
651.95	1092.56
652.29	1099.12
652.63	1096.78
652.97	1107.07
653.32	1097.48
653.66	1101.92
654.00	1106.61
654.34	1103.56
654.69	1088.12
655.03	1094.20
655.37	1088.12
655.71	1090.46
656.05	1091.16
656.40	1096.07
656.74	1094.67
657.08	1092.56
657.42	1089.29
657.76	1092.33
658.11	1096.78
658.45	1094.90
658.79	1099.35
659.13	1099.58
659.47	1090.22
659.82	1084.60
660.16	1092.33
660.50	1094.90
660.84	1093.73
661.18	1103.80
661.52	1101.92
661.87	1089.99
662.21	1082.26
662.55	1080.16
662.89	1075.01
663.23	1072.90
663.57	1078.05
663.91	1079.46
664.25	1076.41
664.60	1076.65
664.94	1076.18
665.28	1074.54
665.62	1080.63
665.96	1082.73
666.30	1087.88
666.64	1095.60
666.98	1091.86
667.32	1083.43
667.66	1076.65
668.01	1072.67
668.35	1072.43
668.69	1081.33
669.03	1079.22
669.37	1084.84
669.71	1073.84
670.05	1072.20
670.39	1071.50
670.73	1080.16
671.07	1088.58
671.41	1099.12
671.75	1095.60
672.09	1080.86
672.43	1072.43
672.77	1069.62
673.11	1060.26
673.45	1062.37
673.79	1078.28
674.13	1081.33
674.47	1080.39
674.81	1094.20
675.15	1093.73
675.49	1089.29
675.83	1092.80
676.17	1085.77
676.51	1077.11
676.85	1074.31
677.19	1074.31
677.53	1076.88
677.87	1071.97
678.21	1064.48
678.55	1069.86
678.89	1066.35
679.23	1062.60
679.57	1076.41
679.90	1092.09
680.24	1090.69
680.58	1093.73
680.92	1096.31
681.26	1089.75
681.60	1090.22
681.94	1095.37
682.28	1095.84
682.62	1093.73
682.96	1101.92
683.29	1093.50
683.63	1086.01
683.97	1083.90
684.31	1086.48
684.65	1078.75
684.99	1076.65
685.33	1076.18
685.67	1085.31
686.00	1085.07
686.34	1079.46
686.68	1087.18
687.02	1097.71
687.36	1094.20
687.70	1089.29
688.03	1094.20
688.37	1086.48
688.71	1082.26
689.05	1079.46
689.39	1080.86
689.72	1074.31
690.06	1079.22
690.40	1077.82
690.74	1078.75
691.08	1089.52
691.41	1096.54
691.75	1093.26
692.09	1096.78
692.43	1092.56
692.76	1090.22
693.10	1087.65
693.44	1078.28
693.78	1077.58
694.11	1076.65
694.45	1064.48
694.79	1066.35
695.13	1077.35
695.46	1064.01
695.80	1077.82
696.14	1082.73
696.48	1081.56
696.81	1077.35
697.15	1081.80
697.49	1075.24
697.82	1076.41
698.16	1078.28
698.50	1081.56
698.83	1089.75
699.17	1089.99
699.51	1085.31
699.84	1086.71
700.18	1097.01
700.52	1090.46
700.85	1082.50
701.19	1093.50
701.53	1100.29
701.86	1094.43
702.20	1091.86
702.54	1094.90
702.87	1080.39
703.21	1081.09
703.55	1074.54
703.88	1076.65
704.22	1074.77
704.55	1082.97
704.89	1077.58
705.23	1082.50
705.56	1084.84
705.90	1092.09
706.23	1084.84
706.57	1079.46
706.91	1081.56
707.24	1074.31
707.58	1070.56
707.91	1088.35
708.25	1092.09
708.58	1087.18
708.92	1095.37
709.26	1094.90
709.59	1076.18
709.93	1079.46
710.26	1077.58
710.60	1071.73
710.93	1072.20
711.27	1077.82
711.60	1071.97
711.94	1073.60
712.27	1068.92
712.61	1073.84
712.94	1075.48
713.28	1070.80
713.61	1071.26
713.95	1074.54
714.28	1071.97
714.62	1076.18
714.95	1079.92
715.29	1079.92
715.62	1078.99
715.96	1086.24
716.29	1078.05
716.63	1084.37
716.96	1085.77
717.29	1093.26
717.63	1077.35
717.96	1086.71
718.30	1079.69
718.63	1084.14
718.97	1084.14
719.30	1088.12
719.63	1090.22
719.97	1095.84
720.30	1091.16
720.64	1089.05
720.97	1091.39
721.30	1088.35
721.64	1095.60
721.97	1099.35
722.31	1107.31
722.64	1101.22
722.97	1099.12
723.31	1088.58
723.64	1084.14
723.97	1081.09
724.31	1082.03
724.64	1079.46
724.98	1077.82
725.31	1082.97
725.64	1072.20
725.98	1068.92
726.31	1067.99
726.64	1066.82
726.97	1059.09
727.31	1067.28
727.64	1073.84
727.97	1076.88
728.31	1088.58
728.64	1094.90
728.97	1095.60
729.31	1095.14
729.64	1098.41
729.97	1098.18
730.30	1095.84
730.64	1091.86
730.97	1087.18
731.30	1080.39
731.63	1078.52
731.97	1073.60
732.30	1075.48
732.63	1074.54
732.96	1080.16
733.30	1074.54
733.63	1079.92
733.96	1077.58
734.29	1070.56
734.63	1070.33
734.96	1066.58
735.29	1068.92
735.62	1066.58
735.95	1074.31
736.29	1071.73
736.62	1072.90
736.95	1075.24
737.28	1088.58
737.61	1089.05
737.94	1084.37
738.28	1080.16
738.61	1075.01
738.94	1060.73
739.27	1058.16
739.60	1064.71
739.93	1071.50
740.27	1065.88
740.60	1072.43
740.93	1083.90
741.26	1078.28
741.59	1085.07
741.92	1088.58
742.25	1085.54
742.58	1091.16
742.91	1090.22
743.25	1078.52
743.58	1084.60
743.91	1089.05
744.24	1084.14
744.57	1083.20
744.90	1088.82
745.23	1085.31
745.56	1080.16
745.89	1083.20
746.22	1086.48
746.55	1081.33
746.88	1083.90
747.21	1083.67
747.54	1072.90
747.87	1073.60
748.20	1078.52
748.53	1075.48
748.87	1084.84
749.20	1084.60
749.53	1091.86
749.86	1089.99
750.19	1092.56
750.52	1089.29
750.85	1090.46
751.18	1081.56
751.51	1074.77
751.84	1070.09
752.16	1067.05
752.49	1070.80
752.82	1076.18
753.15	1085.31
753.48	1078.75
753.81	1075.48
754.14	1079.92
754.47	1072.20
754.80	1076.18
755.13	1083.20
755.46	1078.28
755.79	1074.54
756.12	1086.48
756.45	1078.75
756.78	1072.90
757.11	1078.05
757.43	1078.52
757.76	1071.97
758.09	1072.67
758.42	1081.09
758.75	1081.80
759.08	1078.05
759.41	1086.01
759.74	1081.80
760.07	1084.84
760.39	1082.50
760.72	1092.80
761.05	1091.63
761.38	1086.71
761.71	1082.73
762.04	1089.05
762.36	1085.77
762.69	1076.18
763.02	1085.07
763.35	1076.65
763.68	1067.28
764.01	1062.14
764.33	1066.11
764.66	1060.73
