SpectraSuite Data File
++++++++++++++++++++++++++++++++++++
Date: Mon Aug 26 10:24:46 PDT 2019
User: corrico
Dark Spectrum Present: No
Reference Spectrum Present: No
Number of Sampled Component Spectra: 1
Spectrometers: USB2+H06089
Integration Time (usec): 10000 (USB2+H06089)
Spectra Averaged: 2 (USB2+H06089)
Boxcar Smoothing: 2 (USB2+H06089)
Correct for Electrical Dark: No (USB2+H06089)
Strobe/Lamp Enabled: No (USB2+H06089)
Correct for Detector Non-linearity: No (USB2+H06089)
Correct for Stray Light: No (USB2+H06089)
Number of Pixels in Processed Spectrum: 2048
>>>>>Begin Processed Spectral Data<<<<<
339.70	997.07
340.07	997.07
340.45	981.62
340.82	962.90
341.19	951.90
341.57	936.92
341.94	913.75
342.31	904.38
342.69	904.85
343.06	903.91
343.43	895.25
343.81	903.45
344.18	907.66
344.55	919.36
344.93	913.75
345.30	922.17
345.67	927.09
346.04	929.66
346.42	917.49
346.79	923.58
347.16	930.60
347.54	946.51
347.91	957.98
348.28	975.30
348.65	995.43
349.03	1009.00
349.40	1016.26
349.77	1030.07
350.14	1047.16
350.52	1052.07
350.89	1053.94
351.26	1061.67
351.63	1065.41
352.01	1077.11
352.38	1086.01
352.75	1103.33
353.12	1110.35
353.50	1122.75
353.87	1119.01
354.24	1114.80
354.61	1112.69
354.98	1111.75
355.36	1101.46
355.73	1095.60
356.10	1102.63
356.47	1107.78
356.84	1095.60
357.22	1100.52
357.59	1107.54
357.96	1099.82
358.33	1084.84
358.70	1090.22
359.08	1089.29
359.45	1083.90
359.82	1087.65
360.19	1098.41
360.56	1104.97
360.94	1109.41
361.31	1115.03
361.68	1120.88
362.05	1117.37
362.42	1111.99
362.79	1109.41
363.16	1115.03
363.54	1109.18
363.91	1107.07
364.28	1107.31
364.65	1101.22
365.02	1092.56
365.39	1090.22
365.76	1087.41
366.14	1086.24
366.51	1087.41
366.88	1085.07
367.25	1082.73
367.62	1095.14
367.99	1104.26
368.36	1110.12
368.73	1113.63
369.10	1117.61
369.48	1116.20
369.85	1107.31
370.22	1110.12
370.59	1110.12
370.96	1108.24
371.33	1100.99
371.70	1110.12
372.07	1102.86
372.44	1093.97
372.81	1092.33
373.18	1091.39
373.55	1088.35
373.93	1087.41
374.30	1092.56
374.67	1086.24
375.04	1088.35
375.41	1077.82
375.78	1081.56
376.15	1085.31
376.52	1092.56
376.89	1097.24
377.26	1111.99
377.63	1110.12
378.00	1106.61
378.37	1101.46
378.74	1094.43
379.11	1082.03
379.48	1075.71
379.85	1074.54
380.22	1087.88
380.59	1096.78
380.96	1096.54
381.33	1106.14
381.70	1113.39
382.07	1109.65
382.44	1113.16
382.81	1130.01
383.18	1129.78
383.55	1125.33
383.92	1122.99
384.29	1122.52
384.66	1118.07
385.03	1117.37
385.40	1115.97
385.77	1124.39
386.14	1106.84
386.51	1104.26
386.88	1100.29
387.25	1100.99
387.62	1096.78
387.99	1119.71
388.36	1118.07
388.73	1119.24
389.10	1117.37
389.46	1114.80
389.83	1109.88
390.20	1105.20
390.57	1118.78
390.94	1127.20
391.31	1123.93
391.68	1121.58
392.05	1130.95
392.42	1137.03
392.79	1145.93
393.16	1158.10
393.53	1159.97
393.89	1167.23
394.26	1154.12
394.63	1143.59
395.00	1133.99
395.37	1135.86
395.74	1133.76
396.11	1139.14
396.48	1140.07
396.84	1150.84
397.21	1149.91
397.58	1153.42
397.95	1160.20
398.32	1161.61
398.69	1162.08
399.06	1165.35
399.42	1166.05
399.79	1156.93
400.16	1174.25
400.53	1174.71
400.90	1177.99
401.27	1183.14
401.64	1194.14
402.00	1192.27
402.37	1209.12
402.74	1218.01
403.11	1228.08
403.48	1247.27
403.84	1262.25
404.21	1260.14
404.58	1282.61
404.95	1299.00
405.32	1313.74
405.68	1329.66
406.05	1364.06
406.42	1382.32
406.79	1410.41
407.16	1439.20
407.52	1469.15
407.89	1497.47
408.26	1524.62
408.63	1554.58
408.99	1581.73
409.36	1616.14
409.73	1663.65
410.10	1709.53
410.47	1759.61
410.83	1812.98
411.20	1876.64
411.57	1943.81
411.94	2026.67
412.30	2108.59
412.67	2200.10
413.04	2291.85
413.40	2391.56
413.77	2480.97
414.14	2587.93
414.51	2699.57
414.87	2829.01
415.24	2964.76
415.61	3144.28
415.97	3302.73
416.34	3465.16
416.71	3643.51
417.08	3834.97
417.44	3995.76
417.81	4221.16
418.18	4456.15
418.54	4687.86
418.91	4918.64
419.28	5220.80
419.64	5515.47
420.01	5826.06
420.38	6171.76
420.74	6542.97
421.11	6920.73
421.48	7280.00
421.84	7698.49
422.21	8104.57
422.58	8562.85
422.94	9007.79
423.31	9529.02
423.68	10091.69
424.04	10726.44
424.41	11320.70
424.77	11960.14
425.14	12597.70
425.51	13248.37
425.87	13967.61
426.24	14714.48
426.61	15552.86
426.97	16537.52
427.34	17434.65
427.70	18398.48
428.07	19342.42
428.44	20283.08
428.80	21208.76
429.17	22366.39
429.53	23437.66
429.90	24745.55
430.27	25899.90
430.63	27058.93
431.00	28324.70
431.36	29691.33
431.73	30950.54
432.09	32337.78
432.46	33635.60
432.83	34900.66
433.19	36002.12
433.56	37303.46
433.92	38721.82
434.29	40074.89
434.65	41367.10
435.02	42661.88
435.38	43803.13
435.75	44677.55
436.11	45864.67
436.48	46850.04
436.84	47745.29
437.21	48596.07
437.57	49448.26
437.94	50105.02
438.30	50736.73
438.67	51290.73
439.03	51626.13
439.40	51913.55
439.76	51814.31
440.13	51545.62
440.49	51458.55
440.86	51067.45
441.22	50638.66
441.59	50199.81
441.95	49723.04
442.32	48827.32
442.68	48112.29
443.05	47199.24
443.41	46272.39
443.78	45181.70
444.14	44248.30
444.51	43051.81
444.87	42170.84
445.24	41049.02
445.60	39958.33
445.96	38752.95
446.33	37844.12
446.69	36669.17
447.06	35715.17
447.42	34701.25
447.79	33676.80
448.15	32716.94
448.51	31742.11
448.88	30911.22
449.24	30041.01
449.61	29348.91
449.97	28553.60
450.33	27771.39
450.70	26927.63
451.06	26329.86
451.43	25605.69
451.79	25093.82
452.15	24545.67
452.52	23941.11
452.88	23348.25
453.24	22852.76
453.61	22144.74
453.97	21559.14
454.34	20951.77
454.70	20368.51
455.06	19693.50
455.43	19054.54
455.79	18292.46
456.15	17685.09
456.52	17054.31
456.88	16534.71
457.24	15974.16
457.61	15571.35
457.97	15065.33
458.33	14542.68
458.70	14019.11
459.06	13483.12
459.42	13011.27
459.79	12549.72
460.15	12145.04
460.51	11698.00
460.88	11327.02
461.24	10943.64
461.60	10606.37
461.96	10241.01
462.33	9951.72
462.69	9654.94
463.05	9362.85
463.42	9069.34
463.78	8805.10
464.14	8512.29
464.50	8299.54
464.87	8027.80
465.23	7775.03
465.59	7579.12
465.95	7414.35
466.32	7180.06
466.68	7001.01
467.04	6834.83
467.40	6645.48
467.77	6451.45
468.13	6287.38
468.49	6124.95
468.85	5973.75
469.22	5842.45
469.58	5718.16
469.94	5596.45
470.30	5463.04
470.66	5372.47
471.03	5223.37
471.39	5103.54
471.75	5001.72
472.11	4907.87
472.47	4792.48
472.84	4726.95
473.20	4620.22
473.56	4521.21
473.92	4403.95
474.28	4306.59
474.65	4198.22
475.01	4106.24
475.37	4020.57
475.73	3953.87
476.09	3898.86
476.45	3838.95
476.81	3774.11
477.18	3699.92
477.54	3623.62
477.90	3546.38
478.26	3452.52
478.62	3386.05
478.98	3332.69
479.34	3298.28
479.71	3237.19
480.07	3200.92
480.43	3156.21
480.79	3098.87
481.15	3034.97
481.51	2982.54
481.87	2943.46
482.23	2890.56
482.59	2853.58
482.96	2807.00
483.32	2782.43
483.68	2722.75
484.04	2697.94
484.40	2651.83
484.76	2626.78
485.12	2577.16
485.48	2550.25
485.84	2514.91
486.20	2471.84
486.56	2425.26
486.92	2397.64
487.28	2367.69
487.64	2333.05
488.00	2303.32
488.37	2274.06
488.73	2231.47
489.09	2201.74
489.45	2165.93
489.81	2139.48
490.17	2101.33
490.53	2064.12
490.89	2035.33
491.25	2008.88
491.61	1979.16
491.97	1960.67
492.33	1952.24
492.69	1919.24
493.05	1911.75
493.41	1896.77
493.77	1875.71
494.13	1856.28
494.49	1851.36
494.85	1831.70
495.21	1807.36
495.57	1785.13
495.93	1765.47
496.29	1748.15
496.64	1716.55
497.00	1697.36
497.36	1681.91
497.72	1662.01
498.08	1635.10
498.44	1620.12
498.80	1616.14
499.16	1592.27
499.52	1578.93
499.88	1568.16
500.24	1564.65
500.60	1541.48
500.96	1529.07
501.32	1529.77
501.68	1504.03
502.03	1480.86
502.39	1475.24
502.75	1474.30
503.11	1454.41
503.47	1442.94
503.83	1446.22
504.19	1437.32
504.55	1425.62
504.91	1413.92
505.26	1420.71
505.62	1385.83
505.98	1379.75
506.34	1373.66
506.70	1357.98
507.06	1345.57
507.42	1348.38
507.78	1330.13
508.13	1333.17
508.49	1333.40
508.85	1324.98
509.21	1319.83
509.57	1316.32
509.93	1302.74
510.28	1294.32
510.64	1289.64
511.00	1277.46
511.36	1274.42
511.72	1269.27
512.07	1272.78
512.43	1271.14
512.79	1274.89
513.15	1266.46
513.51	1264.83
513.86	1254.53
514.22	1249.61
514.58	1242.36
514.94	1240.25
515.30	1231.36
515.65	1231.12
516.01	1226.67
516.37	1232.53
516.73	1221.99
517.08	1222.93
517.44	1217.55
517.80	1205.84
518.16	1197.18
518.51	1200.93
518.87	1190.16
519.23	1179.86
519.59	1183.14
519.94	1188.52
520.30	1189.69
520.66	1191.57
521.01	1202.80
521.37	1203.50
521.73	1196.01
522.09	1185.72
522.44	1175.65
522.80	1164.88
523.16	1161.84
523.51	1155.76
523.87	1156.22
524.23	1155.52
524.58	1151.78
524.94	1150.14
525.30	1159.50
525.65	1157.86
526.01	1171.20
526.37	1170.97
526.72	1166.76
527.08	1155.05
527.44	1170.27
527.79	1156.93
528.15	1153.65
528.51	1164.18
528.86	1172.14
529.22	1159.74
529.58	1160.44
529.93	1168.40
530.29	1166.05
530.65	1158.57
531.00	1158.10
531.36	1165.12
531.71	1163.48
532.07	1152.25
532.43	1156.22
532.78	1155.05
533.14	1141.71
533.49	1139.14
533.85	1151.08
534.21	1145.93
534.56	1150.61
534.92	1157.63
535.27	1161.61
535.63	1144.76
535.98	1147.33
536.34	1142.18
536.69	1144.76
537.05	1132.82
537.41	1130.71
537.76	1116.44
538.12	1118.31
538.47	1108.01
538.83	1116.44
539.18	1125.56
539.54	1139.84
539.89	1139.61
540.25	1147.10
540.60	1135.39
540.96	1131.65
541.31	1126.73
541.67	1126.97
542.02	1122.75
542.38	1130.71
542.73	1131.88
543.09	1129.07
543.44	1129.31
543.80	1132.59
544.15	1128.37
544.51	1122.52
544.86	1120.18
545.22	1117.84
545.57	1112.69
545.93	1120.88
546.28	1129.31
546.64	1133.76
546.99	1127.67
547.35	1125.10
547.70	1120.88
548.05	1122.75
548.41	1128.14
548.76	1130.48
549.12	1135.39
549.47	1134.69
549.83	1131.88
550.18	1130.01
550.53	1125.33
550.89	1125.80
551.24	1127.90
551.60	1130.01
551.95	1117.61
552.30	1122.52
552.66	1129.31
553.01	1120.41
553.37	1114.10
553.72	1120.65
554.07	1123.46
554.43	1121.35
554.78	1115.97
555.13	1116.44
555.49	1115.73
555.84	1112.69
556.19	1108.95
556.55	1117.61
556.90	1114.33
557.26	1114.10
557.61	1112.69
557.96	1106.61
558.32	1113.16
558.67	1120.65
559.02	1124.16
559.37	1122.52
559.73	1121.35
560.08	1118.07
560.43	1119.71
560.79	1114.56
561.14	1122.99
561.49	1126.97
561.85	1115.03
562.20	1109.41
562.55	1111.52
562.90	1104.03
563.26	1111.29
563.61	1114.56
563.96	1104.97
564.32	1098.41
564.67	1095.14
565.02	1096.78
565.37	1097.24
565.73	1108.01
566.08	1114.80
566.43	1124.86
566.78	1120.88
567.14	1118.31
567.49	1113.86
567.84	1113.16
568.19	1110.12
568.54	1101.46
568.90	1104.50
569.25	1109.65
569.60	1103.09
569.95	1092.56
570.31	1092.56
570.66	1088.82
571.01	1079.22
571.36	1086.48
571.71	1096.78
572.06	1100.29
572.42	1100.99
572.77	1111.29
573.12	1112.69
573.47	1119.01
573.82	1117.84
574.18	1124.16
574.53	1121.82
574.88	1112.69
575.23	1104.26
575.58	1106.14
575.93	1110.58
576.28	1104.97
576.64	1110.82
576.99	1110.82
577.34	1104.26
577.69	1093.97
578.04	1098.65
578.39	1091.39
578.74	1087.18
579.09	1092.56
579.44	1090.69
579.80	1102.86
580.15	1119.71
580.50	1122.29
580.85	1127.67
581.20	1139.37
581.55	1131.88
581.90	1128.84
582.25	1131.88
582.60	1120.41
582.95	1114.33
583.30	1107.78
583.65	1102.39
584.00	1092.33
584.35	1103.80
584.71	1104.50
585.06	1104.73
585.41	1105.44
585.76	1118.54
586.11	1117.37
586.46	1122.75
586.81	1121.82
587.16	1115.27
587.51	1118.07
587.86	1124.63
588.21	1123.22
588.56	1118.31
588.91	1119.01
589.26	1104.97
589.61	1100.05
589.96	1095.84
590.31	1095.60
590.66	1102.86
591.01	1108.48
591.36	1101.69
591.71	1104.73
592.06	1106.14
592.41	1098.41
592.76	1093.97
593.10	1089.99
593.45	1089.05
593.80	1089.99
594.15	1092.33
594.50	1095.84
594.85	1098.65
595.20	1103.09
595.55	1112.69
595.90	1119.71
596.25	1117.14
596.60	1114.56
596.95	1112.46
597.30	1110.82
597.64	1156.22
597.99	1160.91
598.34	1172.37
598.69	1175.65
599.04	1173.31
599.39	1108.95
599.74	1104.50
600.09	1097.01
600.44	1096.54
600.78	1094.67
601.13	1109.65
601.48	1114.56
601.83	1103.09
602.18	1092.56
602.53	1095.60
602.88	1086.71
603.22	1090.69
603.57	1104.03
603.92	1114.33
604.27	1103.09
604.62	1104.73
604.97	1093.50
605.31	1091.63
605.66	1085.54
606.01	1092.09
606.36	1099.58
606.71	1107.54
607.05	1102.63
607.40	1108.24
607.75	1109.65
608.10	1110.12
608.44	1111.29
608.79	1126.50
609.14	1119.01
609.49	1126.50
609.84	1122.52
610.18	1109.88
610.53	1103.33
610.88	1108.48
611.23	1100.99
611.57	1097.01
611.92	1112.22
612.27	1101.46
612.62	1093.73
612.96	1096.54
613.31	1101.46
613.66	1088.35
614.00	1098.65
614.35	1106.37
614.70	1106.61
615.05	1096.07
615.39	1102.16
615.74	1098.65
616.09	1088.58
616.43	1086.94
616.78	1097.71
617.13	1095.60
617.47	1093.03
617.82	1110.12
618.17	1109.88
618.51	1100.75
618.86	1106.14
619.21	1115.27
619.55	1108.95
619.90	1105.67
620.25	1114.33
620.59	1105.90
620.94	1087.18
621.29	1077.11
621.63	1077.58
621.98	1082.97
622.32	1082.97
622.67	1095.14
623.02	1110.12
623.36	1106.84
623.71	1100.52
624.05	1110.82
624.40	1108.95
624.75	1104.97
625.09	1104.97
625.44	1106.84
625.78	1096.31
626.13	1100.52
626.48	1100.52
626.82	1101.92
627.17	1096.78
627.51	1092.33
627.86	1089.75
628.20	1086.71
628.55	1082.26
628.89	1084.60
629.24	1094.20
629.58	1094.20
629.93	1091.39
630.28	1096.78
630.62	1102.63
630.97	1094.20
631.31	1096.31
631.66	1088.58
632.00	1086.01
632.35	1081.80
632.69	1085.77
633.04	1083.43
633.38	1087.41
633.73	1084.84
634.07	1081.09
634.42	1074.31
634.76	1073.14
635.11	1076.65
635.45	1082.73
635.79	1088.82
636.14	1101.92
636.48	1108.24
636.83	1110.35
637.17	1103.09
637.52	1094.90
637.86	1086.71
638.21	1080.63
638.55	1076.18
638.89	1083.90
639.24	1090.69
639.58	1099.35
639.93	1102.86
640.27	1093.97
640.61	1086.24
640.96	1079.46
641.30	1073.60
641.65	1072.67
641.99	1074.31
642.33	1075.48
642.68	1076.41
643.02	1078.99
643.37	1076.65
643.71	1079.92
644.05	1088.82
644.40	1091.16
644.74	1081.80
645.08	1079.92
645.43	1087.41
645.77	1079.69
646.11	1084.14
646.46	1096.31
646.80	1102.16
647.14	1100.52
647.49	1107.78
647.83	1100.29
648.17	1091.16
648.52	1091.16
648.86	1090.92
649.20	1090.69
649.55	1089.75
649.89	1096.07
650.23	1086.94
650.57	1085.07
650.92	1081.56
651.26	1090.22
651.60	1096.07
651.95	1093.97
652.29	1097.48
652.63	1103.56
652.97	1105.44
653.32	1097.24
653.66	1108.48
654.00	1109.18
654.34	1111.05
654.69	1104.73
655.03	1105.90
655.37	1099.58
655.71	1101.69
656.05	1094.67
656.40	1098.18
656.74	1107.07
657.08	1113.16
657.42	1103.80
657.76	1094.90
658.11	1091.63
658.45	1084.84
658.79	1076.41
659.13	1080.16
659.47	1096.78
659.82	1104.03
660.16	1105.90
660.50	1111.99
660.84	1108.71
661.18	1098.88
661.52	1090.22
661.87	1084.60
662.21	1080.16
662.55	1086.24
662.89	1086.24
663.23	1089.29
663.57	1089.29
663.91	1093.50
664.25	1087.18
664.60	1093.73
664.94	1094.43
665.28	1088.12
665.62	1082.50
665.96	1101.69
666.30	1113.63
666.64	1110.82
666.98	1116.44
667.32	1108.95
667.66	1089.29
668.01	1071.73
668.35	1078.75
668.69	1083.43
669.03	1088.35
669.37	1092.09
669.71	1098.41
670.05	1093.50
670.39	1091.63
670.73	1099.58
671.07	1100.29
671.41	1097.71
671.75	1093.50
672.09	1090.92
672.43	1094.67
672.77	1088.35
673.11	1082.73
673.45	1081.09
673.79	1078.99
674.13	1071.50
674.47	1078.52
674.81	1084.14
675.15	1075.94
675.49	1074.54
675.83	1080.16
676.17	1088.12
676.51	1077.82
676.85	1081.09
677.19	1079.22
677.53	1075.48
677.87	1067.99
678.21	1073.14
678.55	1084.37
678.89	1088.82
679.23	1080.16
679.57	1082.26
679.90	1079.92
680.24	1078.75
680.58	1078.99
680.92	1084.14
681.26	1085.54
681.60	1090.46
681.94	1089.52
682.28	1095.14
682.62	1098.18
682.96	1092.80
683.29	1097.01
683.63	1103.80
683.97	1099.12
684.31	1104.03
684.65	1114.80
684.99	1109.88
685.33	1105.44
685.67	1095.37
686.00	1086.01
686.34	1075.94
686.68	1073.60
687.02	1068.92
687.36	1074.07
687.70	1077.11
688.03	1076.18
688.37	1080.63
688.71	1081.80
689.05	1092.80
689.39	1089.52
689.72	1084.84
690.06	1079.22
690.40	1082.73
690.74	1069.86
691.08	1072.43
691.41	1079.92
691.75	1077.11
692.09	1077.35
692.43	1084.60
692.76	1084.14
693.10	1083.43
693.44	1097.95
693.78	1099.58
694.11	1101.92
694.45	1103.56
694.79	1107.07
695.13	1089.75
695.46	1088.35
695.80	1093.97
696.14	1095.60
696.48	1084.37
696.81	1088.58
697.15	1076.41
697.49	1070.80
697.82	1070.09
698.16	1078.52
698.50	1084.84
698.83	1082.50
699.17	1082.97
699.51	1088.35
699.84	1085.77
700.18	1080.63
700.52	1085.77
700.85	1077.35
701.19	1072.90
701.53	1064.71
701.86	1064.94
702.20	1066.35
702.54	1068.45
702.87	1070.56
703.21	1076.88
703.55	1079.46
703.88	1088.12
704.22	1095.37
704.55	1094.43
704.89	1095.14
705.23	1091.16
705.56	1089.75
705.90	1088.35
706.23	1088.58
706.57	1093.03
706.91	1100.29
707.24	1100.99
707.58	1090.46
707.91	1080.63
708.25	1077.82
708.58	1070.56
708.92	1064.71
709.26	1071.50
709.59	1075.71
709.93	1079.22
710.26	1075.94
710.60	1079.22
710.93	1082.97
711.27	1082.50
711.60	1083.43
711.94	1095.60
712.27	1096.31
712.61	1098.41
712.94	1099.12
713.28	1096.07
713.61	1097.71
713.95	1092.09
714.28	1088.58
714.62	1086.01
714.95	1075.94
715.29	1070.56
715.62	1070.56
715.96	1069.62
716.29	1072.67
716.63	1078.75
716.96	1081.56
717.29	1084.60
717.63	1078.99
717.96	1074.07
718.30	1087.65
718.63	1077.58
718.97	1083.20
719.30	1091.39
719.63	1097.71
719.97	1091.39
720.30	1098.41
720.64	1082.26
720.97	1079.46
721.30	1073.84
721.64	1073.14
721.97	1067.99
722.31	1077.58
722.64	1074.07
722.97	1071.50
723.31	1061.20
723.64	1069.39
723.97	1074.31
724.31	1075.01
724.64	1077.35
724.98	1084.60
725.31	1087.65
725.64	1093.97
725.98	1111.05
726.31	1116.20
726.64	1111.05
726.97	1112.46
727.31	1104.73
727.64	1091.63
727.97	1084.37
728.31	1086.48
728.64	1074.31
728.97	1067.28
729.31	1058.62
729.64	1070.09
729.97	1067.28
730.30	1074.31
730.64	1078.28
730.97	1089.29
731.30	1087.18
731.63	1081.80
731.97	1084.84
732.30	1088.12
732.63	1078.52
732.96	1073.84
733.30	1077.82
733.63	1074.07
733.96	1070.80
734.29	1078.28
734.63	1080.86
734.96	1094.20
735.29	1094.67
735.62	1103.80
735.95	1101.69
736.29	1110.12
736.62	1104.03
736.95	1095.37
737.28	1084.37
737.61	1074.07
737.94	1072.43
738.28	1074.07
738.61	1080.63
738.94	1079.22
739.27	1089.05
739.60	1092.33
739.93	1086.48
740.27	1081.09
740.60	1085.07
740.93	1088.82
741.26	1092.33
741.59	1099.12
741.92	1105.44
742.25	1108.71
742.58	1099.35
742.91	1092.33
743.25	1091.63
743.58	1095.37
743.91	1088.12
744.24	1092.80
744.57	1082.03
744.90	1078.75
745.23	1077.58
745.56	1090.22
745.89	1082.26
746.22	1087.65
746.55	1090.69
746.88	1091.39
747.21	1082.03
747.54	1087.41
747.87	1090.46
748.20	1078.28
748.53	1079.46
748.87	1086.71
749.20	1091.16
749.53	1089.05
749.86	1088.58
750.19	1084.60
750.52	1082.73
750.85	1082.26
751.18	1077.82
751.51	1090.69
751.84	1090.69
752.16	1082.97
752.49	1077.58
752.82	1084.14
753.15	1082.97
753.48	1071.73
753.81	1076.65
754.14	1076.88
754.47	1077.35
754.80	1076.18
755.13	1082.26
755.46	1075.24
755.79	1077.82
756.12	1071.26
756.45	1074.31
756.78	1080.63
757.11	1082.26
757.43	1076.88
757.76	1080.63
758.09	1076.88
758.42	1080.86
758.75	1084.60
759.08	1087.41
759.41	1087.65
759.74	1093.03
760.07	1083.43
760.39	1077.58
760.72	1093.03
761.05	1089.29
761.38	1094.67
761.71	1087.41
762.04	1094.20
762.36	1088.35
762.69	1089.52
763.02	1084.84
763.35	1093.26
763.68	1087.88
764.01	1082.03
