SpectraSuite Data File
++++++++++++++++++++++++++++++++++++
Date: Mon Aug 26 10:24:49 PDT 2019
User: corrico
Dark Spectrum Present: No
Reference Spectrum Present: No
Number of Sampled Component Spectra: 1
Spectrometers: USB2+H06089
Integration Time (usec): 10000 (USB2+H06089)
Spectra Averaged: 2 (USB2+H06089)
Boxcar Smoothing: 2 (USB2+H06089)
Correct for Electrical Dark: No (USB2+H06089)
Strobe/Lamp Enabled: No (USB2+H06089)
Correct for Detector Non-linearity: No (USB2+H06089)
Correct for Stray Light: No (USB2+H06089)
Number of Pixels in Processed Spectrum: 2048
>>>>>Begin Processed Spectral Data<<<<<
339.70	998.24
340.07	998.24
340.45	977.17
340.82	962.90
341.19	940.19
341.57	922.87
341.94	898.77
342.31	898.53
342.69	891.28
343.06	890.11
343.43	887.30
343.81	899.47
344.18	903.21
344.55	911.64
344.93	928.49
345.30	928.72
345.67	933.41
346.04	928.26
346.42	934.58
346.79	933.41
347.16	946.04
347.54	950.96
347.91	970.39
348.28	982.09
348.65	994.73
349.03	1004.56
349.40	1017.20
349.77	1025.86
350.14	1036.39
350.52	1042.47
350.89	1054.65
351.26	1064.24
351.63	1072.43
352.01	1072.43
352.38	1074.31
352.75	1080.39
353.12	1087.18
353.50	1091.39
353.87	1096.54
354.24	1101.69
354.61	1103.56
354.98	1096.54
355.36	1093.26
355.73	1092.33
356.10	1092.56
356.47	1089.99
356.84	1087.41
357.22	1079.46
357.59	1083.90
357.96	1077.58
358.33	1072.67
358.70	1078.05
359.08	1096.07
359.45	1092.56
359.82	1096.78
360.19	1096.54
360.56	1097.24
360.94	1084.14
361.31	1078.52
361.68	1089.52
362.05	1081.09
362.42	1080.63
362.79	1084.84
363.16	1087.88
363.54	1094.90
363.91	1109.65
364.28	1114.33
364.65	1104.26
365.02	1106.84
365.39	1094.43
365.76	1099.58
366.14	1089.99
366.51	1104.26
366.88	1104.97
367.25	1110.12
367.62	1101.22
367.99	1100.29
368.36	1088.35
368.73	1083.67
369.10	1082.50
369.48	1086.71
369.85	1095.84
370.22	1100.52
370.59	1097.95
370.96	1088.58
371.33	1078.99
371.70	1085.31
372.07	1086.48
372.44	1086.94
372.81	1090.46
373.18	1085.77
373.55	1076.88
373.93	1077.11
374.30	1076.41
374.67	1073.37
375.04	1088.35
375.41	1092.80
375.78	1088.35
376.15	1086.01
376.52	1097.01
376.89	1087.88
377.26	1085.07
377.63	1093.73
378.00	1103.09
378.37	1094.90
378.74	1104.73
379.11	1109.41
379.48	1098.88
379.85	1102.39
380.22	1097.95
380.59	1093.73
380.96	1073.14
381.33	1083.43
381.70	1070.09
382.07	1071.26
382.44	1074.07
382.81	1087.18
383.18	1090.46
383.55	1094.43
383.92	1097.24
384.29	1104.50
384.66	1110.12
385.03	1115.03
385.40	1117.61
385.77	1122.29
386.14	1116.20
386.51	1117.61
386.88	1107.78
387.25	1118.78
387.62	1115.97
387.99	1119.01
388.36	1118.31
388.73	1119.48
389.10	1111.05
389.46	1113.39
389.83	1102.16
390.20	1100.29
390.57	1105.90
390.94	1104.03
391.31	1108.01
391.68	1113.63
392.05	1105.67
392.42	1095.14
392.79	1102.86
393.16	1098.18
393.53	1089.52
393.89	1097.01
394.26	1114.80
394.63	1115.73
395.00	1114.80
395.37	1124.63
395.74	1125.56
396.11	1110.58
396.48	1115.97
396.84	1120.18
397.21	1124.39
397.58	1129.54
397.95	1134.93
398.32	1128.84
398.69	1132.82
399.06	1135.16
399.42	1131.88
399.79	1125.80
400.16	1129.31
400.53	1124.86
400.90	1131.88
401.27	1142.42
401.64	1162.54
402.00	1155.99
402.37	1159.50
402.74	1163.48
403.11	1162.78
403.48	1161.84
403.84	1181.50
404.21	1205.38
404.58	1211.93
404.95	1232.29
405.32	1240.02
405.68	1241.42
406.05	1240.25
406.42	1249.14
406.79	1251.02
407.16	1261.78
407.52	1277.93
407.89	1300.64
408.26	1322.64
408.63	1346.98
408.99	1376.70
409.36	1389.34
409.73	1405.02
410.10	1434.05
410.47	1461.43
410.83	1492.33
411.20	1540.07
411.57	1583.61
411.94	1618.95
412.30	1663.65
412.67	1702.04
413.04	1753.76
413.40	1798.00
413.77	1853.00
414.14	1907.77
414.51	1974.24
414.87	2041.18
415.24	2124.97
415.61	2200.57
415.97	2272.43
416.34	2372.84
416.71	2457.09
417.08	2554.46
417.44	2635.68
417.81	2755.51
418.18	2861.07
418.54	2985.35
418.91	3121.57
419.28	3297.81
419.64	3443.86
420.01	3605.36
420.38	3788.63
420.74	3954.34
421.11	4150.00
421.48	4344.50
421.84	4553.98
422.21	4762.05
422.58	5005.24
422.94	5241.40
423.31	5506.11
423.68	5781.59
424.04	6083.52
424.41	6361.81
424.77	6667.95
425.14	6987.90
425.51	7332.20
425.87	7683.98
426.24	8067.59
426.61	8476.95
426.97	8973.38
427.34	9423.23
427.70	9933.23
428.07	10428.96
428.44	10938.96
428.80	11424.15
429.17	11984.95
429.53	12524.21
429.90	13194.07
430.27	13736.37
430.63	14248.25
431.00	14909.91
431.36	15649.29
431.73	16187.85
432.09	16908.73
432.46	17660.98
432.83	18249.16
433.19	18746.52
433.56	19467.41
433.92	20112.46
434.29	20778.57
434.65	21515.14
435.02	22187.11
435.38	22867.97
435.75	23450.06
436.11	24126.48
436.48	24603.24
436.84	25148.12
437.21	25568.48
437.57	25993.52
437.94	26351.86
438.30	26730.79
438.67	27011.42
439.03	27123.06
439.40	27281.52
439.76	27198.20
440.13	27138.28
440.49	27069.93
440.86	26878.71
441.22	26649.81
441.59	26335.94
441.95	25973.86
442.32	25461.05
442.68	25087.27
443.05	24486.92
443.41	23963.57
443.78	23367.91
444.14	22871.48
444.51	22260.84
444.87	21891.73
445.24	21406.31
445.60	20989.46
445.96	20387.94
446.33	19940.19
446.69	19292.57
447.06	18766.88
447.42	18145.47
447.79	17697.73
448.15	17221.19
448.51	16798.02
448.88	16376.26
449.24	15948.18
449.61	15591.24
449.97	15156.37
450.33	14789.38
450.70	14364.57
451.06	14045.55
451.43	13580.96
451.79	13261.24
452.15	12917.65
452.52	12638.42
452.88	12310.28
453.24	12037.61
453.61	11740.36
453.97	11429.30
454.34	11109.35
454.70	10844.40
455.06	10601.46
455.43	10284.31
455.79	9919.42
456.15	9628.50
456.52	9300.12
456.88	9020.42
457.24	8736.52
457.61	8543.42
457.97	8308.67
458.33	8058.93
458.70	7767.07
459.06	7506.10
459.42	7282.58
459.79	7001.95
460.15	6785.45
460.51	6581.59
460.88	6373.98
461.24	6153.50
461.60	5985.45
461.96	5823.02
462.33	5649.35
462.69	5514.30
463.05	5369.19
463.42	5233.44
463.78	5065.39
464.14	4934.08
464.50	4822.21
464.87	4693.01
465.23	4580.43
465.59	4488.68
465.95	4397.40
466.32	4284.35
466.68	4200.79
467.04	4094.53
467.40	3992.95
467.77	3900.97
468.13	3816.71
468.49	3742.05
468.85	3683.07
469.22	3628.77
469.58	3559.02
469.94	3487.16
470.30	3415.54
470.66	3353.29
471.03	3295.94
471.39	3254.75
471.75	3218.94
472.11	3147.79
472.47	3096.06
472.84	3035.44
473.20	2962.18
473.56	2895.48
473.92	2846.56
474.28	2783.60
474.65	2745.68
475.01	2707.06
475.37	2656.74
475.73	2615.31
476.09	2592.14
476.45	2534.57
476.81	2506.48
477.18	2461.31
477.54	2430.65
477.90	2398.82
478.26	2361.37
478.62	2314.09
478.98	2304.26
479.34	2283.89
479.71	2250.43
480.07	2239.42
480.43	2229.59
480.79	2190.04
481.15	2152.12
481.51	2112.80
481.87	2078.86
482.23	2036.27
482.59	2014.73
482.96	2008.88
483.32	2002.56
483.68	1981.97
484.04	1971.20
484.40	1952.47
484.76	1927.67
485.12	1908.71
485.48	1887.17
485.84	1870.56
486.20	1864.24
486.56	1837.55
486.92	1814.38
487.28	1799.17
487.64	1771.32
488.00	1740.19
488.37	1721.93
488.73	1704.61
489.09	1695.48
489.45	1694.31
489.81	1687.29
490.17	1676.53
490.53	1666.93
490.89	1645.63
491.25	1615.44
491.61	1590.16
491.97	1577.76
492.33	1556.22
492.69	1549.20
493.05	1530.94
493.41	1529.31
493.77	1516.20
494.13	1506.37
494.49	1491.16
494.85	1493.73
495.21	1479.22
495.57	1465.18
495.93	1455.81
496.29	1429.83
496.64	1410.17
497.00	1397.30
497.36	1396.13
497.72	1385.60
498.08	1394.96
498.44	1385.60
498.80	1374.13
499.16	1359.38
499.52	1358.21
499.88	1342.77
500.24	1348.15
500.60	1342.30
500.96	1332.47
501.32	1318.89
501.68	1310.93
502.03	1308.59
502.39	1306.96
502.75	1295.72
503.11	1284.02
503.47	1281.44
503.83	1259.91
504.19	1247.27
504.55	1251.95
504.91	1246.80
505.26	1242.36
505.62	1246.34
505.98	1247.04
506.34	1239.78
506.70	1251.72
507.06	1235.10
507.42	1221.76
507.78	1217.08
508.13	1219.19
508.49	1206.78
508.85	1219.89
509.21	1221.53
509.57	1216.14
509.93	1215.21
510.28	1203.74
510.64	1193.21
511.00	1188.52
511.36	1187.59
511.72	1175.89
512.07	1176.82
512.43	1175.89
512.79	1182.67
513.15	1179.63
513.51	1176.82
513.86	1178.23
514.22	1171.67
514.58	1172.84
514.94	1166.52
515.30	1165.59
515.65	1171.20
516.01	1178.46
516.37	1167.23
516.73	1172.84
517.08	1171.91
517.44	1164.65
517.80	1160.44
518.16	1161.84
518.51	1153.65
518.87	1146.86
519.23	1146.63
519.59	1150.84
519.94	1147.56
520.30	1153.18
520.66	1164.88
521.01	1166.52
521.37	1154.82
521.73	1146.39
522.09	1143.12
522.44	1130.01
522.80	1124.86
523.16	1134.69
523.51	1135.16
523.87	1133.99
524.23	1143.12
524.58	1148.50
524.94	1139.84
525.30	1138.67
525.65	1133.99
526.01	1125.56
526.37	1112.69
526.72	1113.86
527.08	1114.10
527.44	1117.37
527.79	1123.22
528.15	1131.18
528.51	1129.31
528.86	1126.73
529.22	1127.44
529.58	1117.84
529.93	1106.84
530.29	1104.73
530.65	1113.39
531.00	1109.41
531.36	1115.27
531.71	1115.73
532.07	1113.16
532.43	1100.75
532.78	1103.56
533.14	1099.58
533.49	1102.16
533.85	1110.82
534.21	1118.07
534.56	1118.54
534.92	1122.52
535.27	1122.29
535.63	1115.73
535.98	1119.48
536.34	1110.12
536.69	1110.35
537.05	1110.12
537.41	1112.69
537.76	1111.52
538.12	1122.05
538.47	1118.54
538.83	1121.12
539.18	1123.22
539.54	1126.03
539.89	1114.56
540.25	1115.27
540.60	1110.58
540.96	1102.39
541.31	1094.90
541.67	1102.16
542.02	1097.24
542.38	1093.97
542.73	1098.65
543.09	1101.69
543.44	1104.26
543.80	1110.12
544.15	1120.18
544.51	1117.14
544.86	1109.65
545.22	1113.16
545.57	1107.78
545.93	1099.12
546.28	1097.24
546.64	1099.82
546.99	1089.99
547.35	1088.12
547.70	1094.90
548.05	1099.12
548.41	1099.82
548.76	1099.82
549.12	1100.75
549.47	1089.29
549.83	1083.43
550.18	1094.90
550.53	1102.16
550.89	1098.88
551.24	1102.16
551.60	1107.07
551.95	1100.75
552.30	1100.52
552.66	1109.65
553.01	1115.73
553.37	1118.54
553.72	1115.73
554.07	1111.99
554.43	1107.07
554.78	1110.82
555.13	1106.14
555.49	1105.20
555.84	1088.12
556.19	1090.92
556.55	1081.80
556.90	1086.71
557.26	1080.86
557.61	1092.33
557.96	1091.16
558.32	1084.60
558.67	1083.43
559.02	1085.77
559.37	1090.69
559.73	1089.99
560.08	1096.31
560.43	1096.07
560.79	1090.46
561.14	1090.22
561.49	1100.75
561.85	1107.07
562.20	1105.44
562.55	1110.12
562.90	1103.56
563.26	1089.99
563.61	1081.56
563.96	1085.07
564.32	1088.35
564.67	1087.65
565.02	1091.39
565.37	1094.20
565.73	1088.58
566.08	1093.50
566.43	1104.97
566.78	1099.58
567.14	1105.20
567.49	1109.65
567.84	1111.99
568.19	1101.46
568.54	1107.54
568.90	1104.50
569.25	1099.58
569.60	1089.52
569.95	1089.52
570.31	1095.60
570.66	1100.52
571.01	1100.05
571.36	1101.22
571.71	1108.95
572.06	1103.80
572.42	1095.60
572.77	1096.54
573.12	1098.41
573.47	1096.31
573.82	1085.31
574.18	1091.63
574.53	1094.43
574.88	1094.67
575.23	1095.14
575.58	1093.50
575.93	1083.43
576.28	1078.75
576.64	1076.65
576.99	1079.69
577.34	1095.60
577.69	1095.60
578.04	1098.88
578.39	1097.71
578.74	1086.71
579.09	1078.99
579.44	1089.99
579.80	1097.24
580.15	1089.75
580.50	1098.41
580.85	1110.58
581.20	1110.82
581.55	1093.03
581.90	1105.20
582.25	1106.37
582.60	1098.65
582.95	1098.41
583.30	1115.73
583.65	1115.73
584.00	1113.16
584.35	1110.12
584.71	1107.31
585.06	1108.48
585.41	1106.84
585.76	1115.27
586.11	1112.46
586.46	1106.37
586.81	1091.63
587.16	1092.09
587.51	1076.41
587.86	1078.99
588.21	1078.75
588.56	1080.63
588.91	1078.28
589.26	1089.05
589.61	1078.99
589.96	1089.52
590.31	1094.43
590.66	1098.65
591.01	1093.73
591.36	1102.63
591.71	1102.63
592.06	1102.86
592.41	1109.88
592.76	1103.56
593.10	1111.75
593.45	1106.61
593.80	1100.52
594.15	1090.22
594.50	1095.84
594.85	1079.69
595.20	1079.92
595.55	1084.37
595.90	1083.67
596.25	1078.75
596.60	1075.71
596.95	1071.97
597.30	1075.48
597.64	1127.44
597.99	1137.73
598.34	1146.39
598.69	1148.50
599.04	1142.18
599.39	1089.75
599.74	1090.22
600.09	1095.60
600.44	1108.01
600.78	1117.37
601.13	1123.93
601.48	1117.61
601.83	1118.31
602.18	1106.84
602.53	1098.41
602.88	1085.31
603.22	1089.05
603.57	1082.97
603.92	1081.80
604.27	1092.80
604.62	1093.26
604.97	1089.99
605.31	1094.43
605.66	1099.12
606.01	1092.09
606.36	1099.35
606.71	1100.29
607.05	1098.88
607.40	1094.67
607.75	1096.54
608.10	1094.67
608.44	1088.82
608.79	1093.03
609.14	1101.46
609.49	1099.35
609.84	1104.50
610.18	1120.65
610.53	1113.16
610.88	1114.56
611.23	1105.20
611.57	1100.05
611.92	1089.52
612.27	1091.16
612.62	1082.73
612.96	1088.58
613.31	1090.92
613.66	1090.46
614.00	1082.50
614.35	1079.46
614.70	1087.65
615.05	1091.16
615.39	1092.56
615.74	1101.92
616.09	1101.69
616.43	1082.03
616.78	1072.67
617.13	1074.54
617.47	1070.80
617.82	1060.73
618.17	1073.37
618.51	1079.92
618.86	1075.71
619.21	1077.58
619.55	1093.26
619.90	1086.48
620.25	1090.46
620.59	1090.92
620.94	1095.14
621.29	1101.69
621.63	1103.09
621.98	1102.86
622.32	1103.09
622.67	1099.35
623.02	1083.43
623.36	1097.24
623.71	1089.52
624.05	1095.84
624.40	1096.31
624.75	1097.24
625.09	1086.71
625.44	1088.58
625.78	1078.52
626.13	1079.69
626.48	1083.67
626.82	1081.80
627.17	1082.03
627.51	1090.69
627.86	1090.22
628.20	1093.97
628.55	1097.48
628.89	1109.65
629.24	1098.65
629.58	1105.67
629.93	1100.75
630.28	1086.71
630.62	1075.94
630.97	1079.22
631.31	1069.86
631.66	1071.73
632.00	1083.67
632.35	1075.94
632.69	1080.63
633.04	1085.77
633.38	1088.58
633.73	1083.20
634.07	1099.12
634.42	1092.80
634.76	1080.39
635.11	1088.58
635.45	1097.48
635.79	1088.35
636.14	1085.54
636.48	1091.63
636.83	1078.99
637.17	1079.46
637.52	1076.41
637.86	1088.35
638.21	1092.56
638.55	1090.22
638.89	1090.69
639.24	1093.50
639.58	1082.03
639.93	1085.07
640.27	1092.33
640.61	1090.46
640.96	1087.41
641.30	1110.12
641.65	1103.33
641.99	1093.97
642.33	1094.20
642.68	1091.39
643.02	1075.01
643.37	1083.67
643.71	1090.92
644.05	1091.39
644.40	1102.39
644.74	1101.69
645.08	1095.14
645.43	1096.54
645.77	1101.69
646.11	1095.14
646.46	1099.35
646.80	1104.26
647.14	1099.35
647.49	1099.82
647.83	1099.58
648.17	1099.82
648.52	1092.09
648.86	1102.86
649.20	1096.31
649.55	1098.88
649.89	1085.54
650.23	1088.35
650.57	1085.07
650.92	1079.46
651.26	1078.99
651.60	1087.88
651.95	1079.69
652.29	1075.94
652.63	1085.77
652.97	1088.35
653.32	1088.58
653.66	1092.09
654.00	1096.31
654.34	1090.69
654.69	1091.63
655.03	1093.03
655.37	1100.75
655.71	1096.78
656.05	1104.73
656.40	1094.43
656.74	1090.46
657.08	1083.90
657.42	1077.58
657.76	1073.37
658.11	1079.46
658.45	1074.77
658.79	1084.14
659.13	1085.07
659.47	1087.18
659.82	1089.52
660.16	1101.22
660.50	1089.52
660.84	1090.69
661.18	1089.29
661.52	1093.26
661.87	1091.16
662.21	1096.78
662.55	1102.86
662.89	1097.71
663.23	1081.33
663.57	1081.80
663.91	1082.73
664.25	1075.48
664.60	1080.63
664.94	1093.97
665.28	1096.31
665.62	1100.52
665.96	1103.33
666.30	1108.01
666.64	1099.58
666.98	1093.03
667.32	1092.09
667.66	1098.18
668.01	1086.48
668.35	1095.84
668.69	1089.05
669.03	1077.11
669.37	1078.05
669.71	1080.39
670.05	1082.26
670.39	1094.67
670.73	1101.46
671.07	1093.50
671.41	1095.60
671.75	1087.41
672.09	1085.31
672.43	1078.99
672.77	1079.92
673.11	1073.84
673.45	1075.94
673.79	1076.65
674.13	1082.03
674.47	1076.88
674.81	1085.31
675.15	1086.71
675.49	1079.46
675.83	1088.58
676.17	1091.16
676.51	1089.05
676.85	1089.29
677.19	1096.07
677.53	1079.22
677.87	1087.18
678.21	1086.94
678.55	1081.56
678.89	1077.35
679.23	1096.78
679.57	1087.41
679.90	1086.71
680.24	1084.84
680.58	1087.41
680.92	1074.77
681.26	1077.35
681.60	1081.09
681.94	1086.94
682.28	1080.39
682.62	1090.22
682.96	1091.63
683.29	1082.73
683.63	1085.54
683.97	1095.84
684.31	1090.92
684.65	1095.14
684.99	1105.67
685.33	1101.69
685.67	1094.20
686.00	1098.65
686.34	1092.09
686.68	1088.35
687.02	1092.56
687.36	1093.97
687.70	1080.39
688.03	1077.35
688.37	1070.09
688.71	1066.82
689.05	1064.71
689.39	1070.80
689.72	1075.94
690.06	1079.92
690.40	1079.92
690.74	1085.31
691.08	1086.01
691.41	1086.01
691.75	1087.88
692.09	1093.26
692.43	1095.84
692.76	1096.31
693.10	1103.09
693.44	1104.03
693.78	1101.69
694.11	1093.73
694.45	1092.80
694.79	1088.35
695.13	1086.01
695.46	1084.14
695.80	1084.37
696.14	1081.56
696.48	1077.11
696.81	1076.41
697.15	1073.14
697.49	1080.39
697.82	1078.52
698.16	1086.94
698.50	1088.82
698.83	1084.84
699.17	1084.60
699.51	1093.26
699.84	1086.71
700.18	1096.07
700.52	1099.12
700.85	1104.73
701.19	1096.07
701.53	1094.20
701.86	1083.20
702.20	1087.88
702.54	1072.20
702.87	1079.92
703.21	1082.50
703.55	1083.67
703.88	1086.01
704.22	1089.05
704.55	1083.67
704.89	1083.20
705.23	1086.01
705.56	1064.71
705.90	1069.39
706.23	1065.65
706.57	1060.73
706.91	1061.90
707.24	1072.90
707.58	1076.18
707.91	1083.67
708.25	1081.56
708.58	1074.31
708.92	1076.65
709.26	1075.48
709.59	1070.09
709.93	1084.37
710.26	1085.54
710.60	1085.31
710.93	1085.31
711.27	1091.63
711.60	1085.07
711.94	1088.58
712.27	1094.67
712.61	1087.18
712.94	1084.60
713.28	1084.37
713.61	1081.09
713.95	1076.65
714.28	1080.39
714.62	1080.39
714.95	1077.11
715.29	1073.14
715.62	1073.14
715.96	1073.60
716.29	1080.63
716.63	1082.03
716.96	1086.94
717.29	1083.43
717.63	1083.90
717.96	1085.07
718.30	1083.90
718.63	1075.94
718.97	1081.33
719.30	1081.80
719.63	1071.26
719.97	1081.56
720.30	1094.90
720.64	1083.43
720.97	1086.24
721.30	1090.92
721.64	1085.31
721.97	1082.97
722.31	1098.88
722.64	1091.86
722.97	1092.09
723.31	1086.01
723.64	1086.71
723.97	1086.01
724.31	1083.67
724.64	1084.84
724.98	1086.48
725.31	1078.05
725.64	1074.54
725.98	1082.97
726.31	1073.14
726.64	1082.73
726.97	1086.48
727.31	1081.33
727.64	1074.54
727.97	1076.65
728.31	1068.69
728.64	1066.11
728.97	1069.16
729.31	1068.69
729.64	1070.09
729.97	1062.60
730.30	1060.26
730.64	1068.69
730.97	1069.62
731.30	1084.37
731.63	1099.58
731.97	1103.33
732.30	1099.12
732.63	1101.46
732.96	1098.65
733.30	1087.88
733.63	1105.90
733.96	1100.75
734.29	1100.99
734.63	1089.99
734.96	1093.03
735.29	1078.05
735.62	1085.77
735.95	1082.26
736.29	1093.73
736.62	1086.71
736.95	1083.20
737.28	1065.18
737.61	1072.43
737.94	1063.07
738.28	1070.33
738.61	1071.97
738.94	1082.97
739.27	1082.50
739.60	1088.58
739.93	1087.65
740.27	1084.37
740.60	1084.60
740.93	1076.88
741.26	1075.94
741.59	1068.45
741.92	1077.35
742.25	1076.65
742.58	1081.80
742.91	1071.73
743.25	1078.75
743.58	1064.94
743.91	1067.28
744.24	1065.41
744.57	1074.77
744.90	1078.52
745.23	1080.39
745.56	1076.88
745.89	1081.33
746.22	1076.18
746.55	1071.73
746.88	1079.92
747.21	1090.92
747.54	1090.69
747.87	1089.05
748.20	1088.58
748.53	1084.60
748.87	1074.07
749.20	1075.24
749.53	1071.73
749.86	1085.54
750.19	1089.99
750.52	1087.65
750.85	1086.24
751.18	1093.73
751.51	1083.20
751.84	1077.58
752.16	1074.77
752.49	1064.48
752.82	1058.86
753.15	1056.75
753.48	1062.84
753.81	1068.22
754.14	1076.65
754.47	1086.71
754.80	1097.95
755.13	1093.73
755.46	1101.22
755.79	1102.16
756.12	1100.52
756.45	1092.80
756.78	1094.90
757.11	1085.77
757.43	1084.60
757.76	1079.92
758.09	1072.67
758.42	1081.56
758.75	1082.50
759.08	1083.43
759.41	1076.65
759.74	1083.90
760.07	1078.99
760.39	1086.01
760.72	1082.97
761.05	1087.65
761.38	1088.12
761.71	1084.37
762.04	1082.50
762.36	1087.65
762.69	1089.52
763.02	1082.97
763.35	1081.80
763.68	1078.99
764.01	1080.16
764.33	1084.37
764.66	1082.97
