SpectraSuite Data File
++++++++++++++++++++++++++++++++++++
Date: Mon Aug 26 10:24:48 PDT 2019
User: corrico
Dark Spectrum Present: No
Reference Spectrum Present: No
Number of Sampled Component Spectra: 1
Spectrometers: USB2+H06089
Integration Time (usec): 10000 (USB2+H06089)
Spectra Averaged: 2 (USB2+H06089)
Boxcar Smoothing: 2 (USB2+H06089)
Correct for Electrical Dark: No (USB2+H06089)
Strobe/Lamp Enabled: No (USB2+H06089)
Correct for Detector Non-linearity: No (USB2+H06089)
Correct for Stray Light: No (USB2+H06089)
Number of Pixels in Processed Spectrum: 2048
>>>>>Begin Processed Spectral Data<<<<<
339.70	1042.71
340.07	1042.71
340.45	995.90
340.82	967.34
341.19	942.07
341.57	910.23
341.94	906.72
342.31	894.08
342.69	896.89
343.06	888.94
343.43	891.28
343.81	878.64
344.18	899.23
344.55	895.72
344.93	911.17
345.30	924.51
345.67	947.45
346.04	943.70
346.42	966.88
346.79	960.56
347.16	974.60
347.54	981.39
347.91	994.49
348.28	992.62
348.65	1016.96
349.03	1021.64
349.40	1031.71
349.77	1029.13
350.14	1033.11
350.52	1025.39
350.89	1020.94
351.26	1019.07
351.63	1027.26
352.01	1033.11
352.38	1043.88
352.75	1050.67
353.12	1063.31
353.50	1072.67
353.87	1078.52
354.24	1084.37
354.61	1090.22
354.98	1080.86
355.36	1087.41
355.73	1091.86
356.10	1097.01
356.47	1103.56
356.84	1119.95
357.22	1119.71
357.59	1112.69
357.96	1114.09
358.33	1111.29
358.70	1111.99
359.08	1107.78
359.45	1109.65
359.82	1100.29
360.19	1094.20
360.56	1086.48
360.94	1079.46
361.31	1081.56
361.68	1086.71
362.05	1085.77
362.42	1083.20
362.79	1092.80
363.16	1092.09
363.54	1090.69
363.91	1082.73
364.28	1088.35
364.65	1078.99
365.02	1072.43
365.39	1066.35
365.76	1075.01
366.14	1070.09
366.51	1066.35
366.88	1074.07
367.25	1069.16
367.62	1080.39
367.99	1089.05
368.36	1086.94
368.73	1083.20
369.10	1091.39
369.48	1072.43
369.85	1065.88
370.22	1070.56
370.59	1069.62
370.96	1069.62
371.33	1079.46
371.70	1068.45
372.07	1072.43
372.44	1082.26
372.81	1085.54
373.18	1076.88
373.55	1079.46
373.93	1080.16
374.30	1085.07
374.67	1078.52
375.04	1085.31
375.41	1090.46
375.78	1085.31
376.15	1074.31
376.52	1082.97
376.89	1089.75
377.26	1089.05
377.63	1096.31
378.00	1092.80
378.37	1085.54
378.74	1073.60
379.11	1079.22
379.48	1078.28
379.85	1077.82
380.22	1079.92
380.59	1083.43
380.96	1074.31
381.33	1076.65
381.70	1089.05
382.07	1096.31
382.44	1103.09
382.81	1108.24
383.18	1108.48
383.55	1109.41
383.92	1112.69
384.29	1110.35
384.66	1108.71
385.03	1114.10
385.40	1101.46
385.77	1094.67
386.14	1094.67
386.51	1103.80
386.88	1100.99
387.25	1109.88
387.62	1104.03
387.99	1106.14
388.36	1097.01
388.73	1100.29
389.10	1096.54
389.46	1107.07
389.83	1108.95
390.20	1107.07
390.57	1099.35
390.94	1095.84
391.31	1086.01
391.68	1083.90
392.05	1097.71
392.42	1092.80
392.79	1102.39
393.16	1104.97
393.53	1106.84
393.89	1094.90
394.26	1101.46
394.63	1095.84
395.00	1101.22
395.37	1110.12
395.74	1116.20
396.11	1122.99
396.48	1127.20
396.84	1125.10
397.21	1121.82
397.58	1125.10
397.95	1132.12
398.32	1139.14
398.69	1144.76
399.06	1135.86
399.42	1137.03
399.79	1119.24
400.16	1116.20
400.53	1117.14
400.90	1130.01
401.27	1142.18
401.64	1161.84
402.00	1165.59
402.37	1177.76
402.74	1185.48
403.11	1183.61
403.48	1185.72
403.84	1188.29
404.21	1195.08
404.58	1197.89
404.95	1202.33
405.32	1215.67
405.68	1230.89
406.05	1239.55
406.42	1257.34
406.79	1282.38
407.16	1294.55
407.52	1313.04
407.89	1332.47
408.26	1341.83
408.63	1361.26
408.99	1387.00
409.36	1406.19
409.73	1436.39
410.10	1464.71
410.47	1487.41
410.83	1513.86
411.20	1550.14
411.57	1579.39
411.94	1614.27
412.30	1655.23
412.67	1692.68
413.04	1731.29
413.40	1783.49
413.77	1849.26
414.14	1919.47
414.51	1997.41
414.87	2082.14
415.24	2157.04
415.61	2237.55
415.97	2324.85
416.34	2418.01
416.71	2511.63
417.08	2612.27
417.44	2706.36
417.81	2820.35
418.18	2942.29
418.54	3086.70
418.91	3245.15
419.28	3407.12
419.64	3563.00
420.01	3724.73
420.38	3882.01
420.74	4037.66
421.11	4225.14
421.48	4427.59
421.84	4651.58
422.21	4895.46
422.58	5145.90
422.94	5411.32
423.31	5668.31
423.68	5964.62
424.04	6277.78
424.41	6583.22
424.77	6901.07
425.14	7256.36
425.51	7580.76
425.87	7928.10
426.24	8334.88
426.61	8751.03
426.97	9239.03
427.34	9699.18
427.70	10226.50
428.07	10725.04
428.44	11281.38
428.80	11806.13
429.17	12417.01
429.53	12933.33
429.90	13594.30
430.27	14145.96
430.63	14692.71
431.00	15342.45
431.36	16119.97
431.73	16713.30
432.09	17461.80
432.46	18200.47
432.83	18846.93
433.19	19405.62
433.56	20157.63
433.92	20826.55
434.29	21423.39
434.65	22170.96
435.02	22826.54
435.38	23452.87
435.75	24019.51
436.11	24758.19
436.48	25207.34
436.84	25780.53
437.21	26270.64
437.57	26746.47
437.94	27142.26
438.30	27540.62
438.67	27807.20
439.03	28008.02
439.40	28122.24
439.76	28026.04
440.13	27961.91
440.49	28001.94
440.86	27750.33
441.22	27505.98
441.59	27202.17
441.95	26851.09
442.32	26207.91
442.68	25747.53
443.05	25225.59
443.41	24688.20
443.78	24054.39
444.14	23543.21
444.51	22948.02
444.87	22509.87
445.24	22066.10
445.60	21628.66
445.96	21050.54
446.33	20593.44
446.69	19923.81
447.06	19330.95
447.42	18734.58
447.79	18218.50
448.15	17694.45
448.51	17232.43
448.88	16815.34
449.24	16348.88
449.61	15998.26
449.97	15613.25
450.33	15190.08
450.70	14750.29
451.06	14413.96
451.43	13948.66
451.79	13548.43
452.15	13227.07
452.52	12864.75
452.88	12542.46
453.24	12258.79
453.61	11998.05
453.97	11714.85
454.34	11463.48
454.70	11229.19
455.06	11008.71
455.43	10677.06
455.79	10298.36
456.15	9967.17
456.52	9604.86
456.88	9281.86
457.24	8986.72
457.61	8769.75
457.97	8548.10
458.33	8283.16
458.70	8021.72
459.06	7746.00
459.42	7527.87
459.79	7249.81
460.15	7040.33
460.51	6810.96
460.88	6624.89
461.24	6390.13
461.60	6210.14
461.96	5987.56
462.33	5816.93
462.69	5642.56
463.05	5476.39
463.42	5323.78
463.78	5195.52
464.14	5049.47
464.50	4926.59
464.87	4826.18
465.23	4699.80
465.59	4589.56
465.95	4469.72
466.32	4366.04
466.68	4268.43
467.04	4193.77
467.40	4093.60
467.77	4012.38
468.13	3935.14
468.49	3859.54
468.85	3786.99
469.22	3737.84
469.58	3656.85
469.94	3591.32
470.30	3517.59
470.66	3436.37
471.03	3364.75
471.39	3328.94
471.75	3271.13
472.11	3198.11
472.47	3137.49
472.84	3088.57
473.20	3024.21
473.56	2952.82
473.92	2900.16
474.28	2848.20
474.65	2802.09
475.01	2768.85
475.37	2725.32
475.73	2687.40
476.09	2654.17
476.45	2611.57
476.81	2545.10
477.18	2490.10
477.54	2452.41
477.90	2422.45
478.26	2373.77
478.62	2355.28
478.98	2355.05
479.34	2329.07
479.71	2292.32
480.07	2269.38
480.43	2242.70
480.79	2210.64
481.15	2182.78
481.51	2153.29
481.87	2121.23
482.23	2090.10
482.59	2062.95
482.96	2037.67
483.32	2011.92
483.68	1996.71
484.04	1992.50
484.40	1967.45
484.76	1954.11
485.12	1941.01
485.48	1922.98
485.84	1895.37
486.20	1888.11
486.56	1874.54
486.92	1862.13
487.28	1839.90
487.64	1816.49
488.00	1793.55
488.37	1767.57
488.73	1739.02
489.09	1712.57
489.45	1710.93
489.81	1697.12
490.17	1679.80
490.53	1670.44
490.89	1653.59
491.25	1623.63
491.61	1603.27
491.97	1586.88
492.33	1574.24
492.69	1569.80
493.05	1557.39
493.41	1541.48
493.77	1537.50
494.13	1524.39
494.49	1511.75
494.85	1504.73
495.21	1499.82
495.57	1478.05
495.93	1464.47
496.29	1451.60
496.64	1435.22
497.00	1418.36
497.36	1415.32
497.72	1412.28
498.08	1414.85
498.44	1401.04
498.80	1389.34
499.16	1380.21
499.52	1368.51
499.88	1364.53
500.24	1369.92
500.60	1359.62
500.96	1346.98
501.32	1331.53
501.68	1301.57
502.03	1282.85
502.39	1286.36
502.75	1281.44
503.11	1270.44
503.47	1269.97
503.83	1259.21
504.19	1247.97
504.55	1247.74
504.91	1256.40
505.26	1250.08
505.62	1266.23
505.98	1263.66
506.34	1253.12
506.70	1240.02
507.06	1243.76
507.42	1220.59
507.78	1214.74
508.13	1205.84
508.49	1204.44
508.85	1202.80
509.21	1214.27
509.57	1214.27
509.93	1214.74
510.28	1208.65
510.64	1202.57
511.00	1197.65
511.36	1196.25
511.72	1194.38
512.07	1202.80
512.43	1206.78
512.79	1200.23
513.15	1209.82
513.51	1207.95
513.86	1201.63
514.22	1182.91
514.58	1179.16
514.94	1161.61
515.30	1156.93
515.65	1158.10
516.01	1158.33
516.37	1157.16
516.73	1159.03
517.08	1155.99
517.44	1151.08
517.80	1164.65
518.16	1160.91
518.51	1151.78
518.87	1153.88
519.23	1161.37
519.59	1149.67
519.94	1162.78
520.30	1172.14
520.66	1164.18
521.01	1149.91
521.37	1148.97
521.73	1142.18
522.09	1136.56
522.44	1146.63
522.80	1145.46
523.16	1147.33
523.51	1133.99
523.87	1131.41
524.23	1126.03
524.58	1130.48
524.94	1123.93
525.30	1133.76
525.65	1144.05
526.01	1137.03
526.37	1135.63
526.72	1140.78
527.08	1140.31
527.44	1127.20
527.79	1135.86
528.15	1130.24
528.51	1129.78
528.86	1120.88
529.22	1124.39
529.58	1120.18
529.93	1121.12
530.29	1118.31
530.65	1130.48
531.00	1123.69
531.36	1115.50
531.71	1117.84
532.07	1123.22
532.43	1119.95
532.78	1116.90
533.14	1119.48
533.49	1126.27
533.85	1117.37
534.21	1109.18
534.56	1116.67
534.92	1137.73
535.27	1142.42
535.63	1147.80
535.98	1140.54
536.34	1143.82
536.69	1129.07
537.05	1115.97
537.41	1106.84
537.76	1114.33
538.12	1112.22
538.47	1107.31
538.83	1108.95
539.18	1111.99
539.54	1102.86
539.89	1095.60
540.25	1100.52
540.60	1094.90
540.96	1107.54
541.31	1116.67
541.67	1122.52
542.02	1125.56
542.38	1129.54
542.73	1130.95
543.09	1140.54
543.44	1141.25
543.80	1145.69
544.15	1139.37
544.51	1126.03
544.86	1117.84
545.22	1118.78
545.57	1097.71
545.93	1100.29
546.28	1102.86
546.64	1094.67
546.99	1094.43
547.35	1108.48
547.70	1109.18
548.05	1104.03
548.41	1104.73
548.76	1095.14
549.12	1081.80
549.47	1072.43
549.83	1075.48
550.18	1078.52
550.53	1075.48
550.89	1087.18
551.24	1088.35
551.60	1085.07
551.95	1084.37
552.30	1092.09
552.66	1084.84
553.01	1093.97
553.37	1089.99
553.72	1090.69
554.07	1092.09
554.43	1100.52
554.78	1100.75
555.13	1108.01
555.49	1095.60
555.84	1099.35
556.19	1094.43
556.55	1096.78
556.90	1090.92
557.26	1113.86
557.61	1104.73
557.96	1106.14
558.32	1101.92
558.67	1107.07
559.02	1096.78
559.37	1103.09
559.73	1108.24
560.08	1115.27
560.43	1117.84
560.79	1119.24
561.14	1120.41
561.49	1121.12
561.85	1113.63
562.20	1115.50
562.55	1117.14
562.90	1113.86
563.26	1108.24
563.61	1105.44
563.96	1096.54
564.32	1097.95
564.67	1102.16
565.02	1098.41
565.37	1104.50
565.73	1097.95
566.08	1088.35
566.43	1083.67
566.78	1086.01
567.14	1083.20
567.49	1100.99
567.84	1109.88
568.19	1112.22
568.54	1113.16
568.90	1114.10
569.25	1109.41
569.60	1099.35
569.95	1093.26
570.31	1097.24
570.66	1097.71
571.01	1092.80
571.36	1096.78
571.71	1109.18
572.06	1108.48
572.42	1109.88
572.77	1105.90
573.12	1107.31
573.47	1101.92
573.82	1093.73
574.18	1091.39
574.53	1094.90
574.88	1093.26
575.23	1085.77
575.58	1090.92
575.93	1090.46
576.28	1086.94
576.64	1078.99
576.99	1089.29
577.34	1083.90
577.69	1086.01
578.04	1094.20
578.39	1103.09
578.74	1090.22
579.09	1086.24
579.44	1086.71
579.80	1082.97
580.15	1080.16
580.50	1085.77
580.85	1097.71
581.20	1096.31
581.55	1102.86
581.90	1102.86
582.25	1099.35
582.60	1096.31
582.95	1096.07
583.30	1093.26
583.65	1095.84
584.00	1097.01
584.35	1097.24
584.71	1092.56
585.06	1078.05
585.41	1086.71
585.76	1090.22
586.11	1094.20
586.46	1103.33
586.81	1118.07
587.16	1112.92
587.51	1114.56
587.86	1100.05
588.21	1105.20
588.56	1100.75
588.91	1101.46
589.26	1092.80
589.61	1108.48
589.96	1095.37
590.31	1101.69
590.66	1094.67
591.01	1108.48
591.36	1104.97
591.71	1104.73
592.06	1092.09
592.41	1098.18
592.76	1085.77
593.10	1085.31
593.45	1085.77
593.80	1088.35
594.15	1094.67
594.50	1099.82
594.85	1096.54
595.20	1090.22
595.55	1089.05
595.90	1087.65
596.25	1087.88
596.60	1097.71
596.95	1110.82
597.30	1110.58
597.64	1150.37
597.99	1159.50
598.34	1152.25
598.69	1154.12
599.04	1144.52
599.39	1101.46
599.74	1097.48
600.09	1094.43
600.44	1083.43
600.78	1104.73
601.13	1096.31
601.48	1087.18
601.83	1086.71
602.18	1089.99
602.53	1082.26
602.88	1089.99
603.22	1100.29
603.57	1103.80
603.92	1100.99
604.27	1113.16
604.62	1107.54
604.97	1102.63
605.31	1105.20
605.66	1112.22
606.01	1106.37
606.36	1105.67
606.71	1103.56
607.05	1100.29
607.40	1090.92
607.75	1086.71
608.10	1087.88
608.44	1089.29
608.79	1079.92
609.14	1082.26
609.49	1078.05
609.84	1085.54
610.18	1091.63
610.53	1105.20
610.88	1109.41
611.23	1110.82
611.57	1105.90
611.92	1095.60
612.27	1086.01
612.62	1089.05
612.96	1093.73
613.31	1093.03
613.66	1099.35
614.00	1098.41
614.35	1091.63
614.70	1092.33
615.05	1101.46
615.39	1092.56
615.74	1098.88
616.09	1102.16
616.43	1097.71
616.78	1090.92
617.13	1086.94
617.47	1091.63
617.82	1088.82
618.17	1081.33
618.51	1085.54
618.86	1105.44
619.21	1096.07
619.55	1102.63
619.90	1111.99
620.25	1100.05
620.59	1090.69
620.94	1098.41
621.29	1100.99
621.63	1099.12
621.98	1102.86
622.32	1092.80
622.67	1089.05
623.02	1073.37
623.36	1073.60
623.71	1075.48
624.05	1093.03
624.40	1085.54
624.75	1090.92
625.09	1085.07
625.44	1087.65
625.78	1078.52
626.13	1085.54
626.48	1088.12
626.82	1093.50
627.17	1088.12
627.51	1093.73
627.86	1097.95
628.20	1100.05
628.55	1101.22
628.89	1103.33
629.24	1092.33
629.58	1089.99
629.93	1092.56
630.28	1094.43
630.62	1092.33
630.97	1097.95
631.31	1086.94
631.66	1080.39
632.00	1079.92
632.35	1073.84
632.69	1065.41
633.04	1080.63
633.38	1081.33
633.73	1085.07
634.07	1086.24
634.42	1088.12
634.76	1082.03
635.11	1082.97
635.45	1083.90
635.79	1092.56
636.14	1100.05
636.48	1091.86
636.83	1086.01
637.17	1074.54
637.52	1070.33
637.86	1061.20
638.21	1066.35
638.55	1069.16
638.89	1080.86
639.24	1088.58
639.58	1097.48
639.93	1109.41
640.27	1115.73
640.61	1105.67
640.96	1097.48
641.30	1087.41
641.65	1076.41
641.99	1074.31
642.33	1077.82
642.68	1082.97
643.02	1089.05
643.37	1084.60
643.71	1086.71
644.05	1082.97
644.40	1072.67
644.74	1071.50
645.08	1078.52
645.43	1076.88
645.77	1079.92
646.11	1086.01
646.46	1094.67
646.80	1096.07
647.14	1089.52
647.49	1081.80
647.83	1091.63
648.17	1090.22
648.52	1079.69
648.86	1093.26
649.20	1102.86
649.55	1095.37
649.89	1089.29
650.23	1094.20
650.57	1082.26
650.92	1089.29
651.26	1085.54
651.60	1081.33
651.95	1082.03
652.29	1082.73
652.63	1076.65
652.97	1081.33
653.32	1078.05
653.66	1083.67
654.00	1084.37
654.34	1081.56
654.69	1066.58
655.03	1068.45
655.37	1070.56
655.71	1076.41
656.05	1080.63
656.40	1085.77
656.74	1090.92
657.08	1089.52
657.42	1089.52
657.76	1088.12
658.11	1097.48
658.45	1092.33
658.79	1085.77
659.13	1076.88
659.47	1072.43
659.82	1068.45
660.16	1079.69
660.50	1087.88
660.84	1094.20
661.18	1096.78
661.52	1100.05
661.87	1098.65
662.21	1100.05
662.55	1100.52
662.89	1100.05
663.23	1105.90
663.57	1107.31
663.91	1101.22
664.25	1095.60
664.60	1093.26
664.94	1084.14
665.28	1089.75
665.62	1088.82
665.96	1098.41
666.30	1103.09
666.64	1106.37
666.98	1105.90
667.32	1102.16
667.66	1082.97
668.01	1079.92
668.35	1074.54
668.69	1071.26
669.03	1080.86
669.37	1100.05
669.71	1099.82
670.05	1104.50
670.39	1103.56
670.73	1097.24
671.07	1086.94
671.41	1086.94
671.75	1087.88
672.09	1084.14
672.43	1089.05
672.77	1087.65
673.11	1087.41
673.45	1081.33
673.79	1073.37
674.13	1071.50
674.47	1069.39
674.81	1064.94
675.15	1068.45
675.49	1075.94
675.83	1065.65
676.17	1075.71
676.51	1077.11
676.85	1081.33
677.19	1079.92
677.53	1085.54
677.87	1070.56
678.21	1076.18
678.55	1074.77
678.89	1074.31
679.23	1070.33
679.57	1078.05
679.90	1080.63
680.24	1078.99
680.58	1085.07
680.92	1088.12
681.26	1092.56
681.60	1100.75
681.94	1107.78
682.28	1091.16
682.62	1083.90
682.96	1082.50
683.29	1078.52
683.63	1069.62
683.97	1078.05
684.31	1083.43
684.65	1088.35
684.99	1075.01
685.33	1078.99
685.67	1086.94
686.00	1085.54
686.34	1082.26
686.68	1089.75
687.02	1095.14
687.36	1096.54
687.70	1095.60
688.03	1095.60
688.37	1096.07
688.71	1092.33
689.05	1093.50
689.39	1093.26
689.72	1085.07
690.06	1086.48
690.40	1082.03
690.74	1069.39
691.08	1080.16
691.41	1090.69
691.75	1086.94
692.09	1086.01
692.43	1100.29
692.76	1099.82
693.10	1098.65
693.44	1095.60
693.78	1101.92
694.11	1091.86
694.45	1093.73
694.79	1095.60
695.13	1098.41
695.46	1087.65
695.80	1092.09
696.14	1094.20
696.48	1088.35
696.81	1092.56
697.15	1100.05
697.49	1099.82
697.82	1099.58
698.16	1102.16
698.50	1094.90
698.83	1088.12
699.17	1084.60
699.51	1079.92
699.84	1084.37
700.18	1092.09
700.52	1095.14
700.85	1097.01
701.19	1088.82
701.53	1089.75
701.86	1085.77
702.20	1093.26
702.54	1094.20
702.87	1089.29
703.21	1073.84
703.55	1068.45
703.88	1067.05
704.22	1064.71
704.55	1073.37
704.89	1086.71
705.23	1088.82
705.56	1078.52
705.90	1079.69
706.23	1084.37
706.57	1075.94
706.91	1073.84
707.24	1080.86
707.58	1077.58
707.91	1078.99
708.25	1079.46
708.58	1091.39
708.92	1093.26
709.26	1102.86
709.59	1102.39
709.93	1096.54
710.26	1089.99
710.60	1082.50
710.93	1068.92
711.27	1070.80
711.60	1087.41
711.94	1089.29
712.27	1100.99
712.61	1108.95
712.94	1104.73
713.28	1100.52
713.61	1091.39
713.95	1082.03
714.28	1077.82
714.62	1075.01
714.95	1069.62
715.29	1072.67
715.62	1064.01
715.96	1067.05
716.29	1072.43
716.63	1077.82
716.96	1077.11
717.29	1093.26
717.63	1084.14
717.96	1081.09
718.30	1085.31
718.63	1093.50
718.97	1098.88
719.30	1105.67
719.63	1113.86
719.97	1118.78
720.30	1110.58
720.64	1100.99
720.97	1103.80
721.30	1086.71
721.64	1070.80
721.97	1072.20
722.31	1067.28
722.64	1064.94
722.97	1068.92
723.31	1055.82
723.64	1053.71
723.97	1053.24
724.31	1049.50
724.64	1050.90
724.98	1071.26
725.31	1069.16
725.64	1066.82
725.98	1071.97
726.31	1075.01
726.64	1074.07
726.97	1075.48
727.31	1075.94
727.64	1075.48
727.97	1073.84
728.31	1081.56
728.64	1085.54
728.97	1095.37
729.31	1089.05
729.64	1095.14
729.97	1088.12
730.30	1091.63
730.64	1089.99
730.97	1100.75
731.30	1094.43
731.63	1091.39
731.97	1091.39
732.30	1090.46
732.63	1087.65
732.96	1094.67
733.30	1093.03
733.63	1090.22
733.96	1093.73
734.29	1086.48
734.63	1082.73
734.96	1078.05
735.29	1069.86
735.62	1058.86
735.95	1064.01
736.29	1060.96
736.62	1072.67
736.95	1072.67
737.28	1078.05
737.61	1067.05
737.94	1062.14
738.28	1061.90
738.61	1075.01
738.94	1070.33
739.27	1076.88
739.60	1085.54
739.93	1075.94
740.27	1076.65
740.60	1088.35
740.93	1093.26
741.26	1087.18
741.59	1099.12
741.92	1091.63
742.25	1094.90
742.58	1093.50
742.91	1092.09
743.25	1085.07
743.58	1085.54
743.91	1077.11
744.24	1082.03
744.57	1090.22
744.90	1090.92
745.23	1092.56
745.56	1095.60
745.89	1088.35
746.22	1095.14
746.55	1093.73
746.88	1088.12
747.21	1079.46
747.54	1078.99
747.87	1063.31
748.20	1066.35
748.53	1072.90
748.87	1079.69
749.20	1078.75
749.53	1082.50
749.86	1080.16
750.19	1073.60
750.52	1067.28
750.85	1068.45
751.18	1071.03
751.51	1066.35
751.84	1073.60
752.16	1071.26
752.49	1068.69
752.82	1071.73
753.15	1075.24
753.48	1072.67
753.81	1075.24
754.14	1090.69
754.47	1090.92
754.80	1097.24
755.13	1084.37
755.46	1089.99
755.79	1082.50
756.12	1083.43
756.45	1079.69
756.78	1087.18
757.11	1081.80
757.43	1079.92
757.76	1067.52
758.09	1063.07
758.42	1069.86
758.75	1074.54
759.08	1078.52
759.41	1092.09
759.74	1097.48
760.07	1100.52
760.39	1101.69
760.72	1094.67
761.05	1082.97
761.38	1082.26
761.71	1078.75
762.04	1071.26
762.36	1073.37
762.69	1073.60
763.02	1071.50
763.35	1064.71
763.68	1061.43
764.01	1056.99
764.33	1062.37
764.66	1063.54
