SpectraSuite Data File
++++++++++++++++++++++++++++++++++++
Date: Mon Aug 26 10:24:47 PDT 2019
User: corrico
Dark Spectrum Present: No
Reference Spectrum Present: No
Number of Sampled Component Spectra: 1
Spectrometers: USB2+H06089
Integration Time (usec): 10000 (USB2+H06089)
Spectra Averaged: 2 (USB2+H06089)
Boxcar Smoothing: 2 (USB2+H06089)
Correct for Electrical Dark: No (USB2+H06089)
Strobe/Lamp Enabled: No (USB2+H06089)
Correct for Detector Non-linearity: No (USB2+H06089)
Correct for Stray Light: No (USB2+H06089)
Number of Pixels in Processed Spectrum: 2048
>>>>>Begin Processed Spectral Data<<<<<
339.70	994.73
340.07	994.73
340.45	971.32
340.82	953.30
341.19	925.92
341.57	914.45
341.94	912.11
342.31	900.87
342.69	899.47
343.06	912.11
343.43	909.77
343.81	906.49
344.18	913.51
344.55	910.00
344.93	907.19
345.30	911.40
345.67	927.09
346.04	927.79
346.42	937.15
346.79	949.56
347.16	948.62
347.54	948.15
347.91	961.49
348.28	983.49
348.65	994.96
349.03	1013.45
349.40	1019.77
349.77	1028.90
350.14	1034.52
350.52	1040.84
350.89	1037.33
351.26	1045.52
351.63	1054.88
352.01	1060.73
352.38	1062.37
352.75	1071.73
353.12	1077.82
353.50	1074.54
353.87	1062.14
354.24	1075.48
354.61	1079.69
354.98	1079.46
355.36	1091.63
355.73	1108.48
356.10	1101.69
356.47	1094.20
356.84	1096.78
357.22	1086.48
357.59	1073.84
357.96	1072.20
358.33	1083.90
358.70	1088.12
359.08	1090.22
359.45	1094.67
359.82	1091.39
360.19	1090.92
360.56	1083.43
360.94	1082.97
361.31	1088.82
361.68	1087.88
362.05	1084.60
362.42	1089.52
362.79	1096.31
363.16	1087.41
363.54	1091.16
363.91	1092.80
364.28	1095.37
364.65	1083.20
365.02	1078.28
365.39	1074.54
365.76	1079.46
366.14	1075.01
366.51	1079.69
366.88	1094.67
367.25	1091.63
367.62	1086.94
367.99	1088.35
368.36	1078.99
368.73	1076.65
369.10	1090.22
369.48	1090.92
369.85	1084.84
370.22	1098.88
370.59	1096.07
370.96	1086.71
371.33	1089.05
371.70	1098.88
372.07	1091.86
372.44	1089.05
372.81	1102.63
373.18	1094.43
373.55	1092.56
373.93	1088.58
374.30	1091.63
374.67	1069.39
375.04	1086.24
375.41	1084.84
375.78	1100.75
376.15	1103.56
376.52	1115.03
376.89	1106.84
377.26	1113.39
377.63	1107.31
378.00	1107.31
378.37	1101.22
378.74	1101.46
379.11	1088.58
379.48	1079.92
379.85	1079.22
380.22	1088.58
380.59	1076.41
380.96	1084.60
381.33	1091.63
381.70	1085.31
382.07	1080.63
382.44	1091.39
382.81	1091.16
383.18	1091.16
383.55	1095.60
383.92	1104.26
384.29	1109.41
384.66	1098.65
385.03	1099.82
385.40	1098.18
385.77	1080.39
386.14	1076.41
386.51	1097.48
386.88	1093.50
387.25	1096.78
387.62	1115.50
387.99	1108.95
388.36	1097.01
388.73	1097.71
389.10	1099.12
389.46	1094.43
389.83	1098.41
390.20	1101.69
390.57	1109.65
390.94	1117.84
391.31	1114.80
391.68	1114.56
392.05	1118.54
392.42	1115.97
392.79	1105.20
393.16	1104.73
393.53	1107.31
393.89	1107.54
394.26	1110.35
394.63	1116.44
395.00	1122.29
395.37	1120.65
395.74	1116.67
396.11	1113.39
396.48	1107.31
396.84	1100.99
397.21	1105.20
397.58	1124.63
397.95	1130.71
398.32	1142.65
398.69	1145.69
399.06	1141.71
399.42	1128.61
399.79	1133.76
400.16	1137.27
400.53	1137.03
400.90	1155.52
401.27	1159.50
401.64	1166.76
402.00	1171.91
402.37	1186.65
402.74	1182.20
403.11	1187.82
403.48	1185.72
403.84	1194.61
404.21	1203.97
404.58	1213.33
404.95	1224.57
405.32	1239.78
405.68	1239.31
406.05	1249.85
406.42	1265.53
406.79	1277.23
407.16	1279.80
407.52	1292.68
407.89	1308.59
408.26	1316.55
408.63	1335.04
408.99	1375.30
409.36	1411.58
409.73	1436.62
410.10	1475.24
410.47	1498.88
410.83	1519.94
411.20	1551.78
411.57	1591.10
411.94	1625.50
412.30	1684.25
412.67	1726.85
413.04	1772.72
413.40	1834.98
413.77	1901.45
414.14	1964.41
414.51	2049.37
414.87	2132.93
415.24	2203.38
415.61	2286.47
415.97	2355.05
416.34	2434.86
416.71	2508.59
417.08	2615.55
417.44	2710.81
417.81	2856.62
418.18	2998.46
418.54	3164.40
418.91	3296.41
419.28	3467.04
419.64	3620.34
420.01	3786.52
420.38	3957.61
420.74	4166.62
421.11	4389.91
421.48	4603.60
421.84	4836.01
422.21	5086.69
422.58	5339.00
422.94	5590.14
423.31	5855.79
423.68	6158.65
424.04	6469.94
424.41	6773.28
424.77	7057.18
425.14	7388.60
425.51	7719.09
425.87	8112.76
426.24	8504.10
426.61	9002.40
426.97	9522.00
427.34	9995.96
427.70	10506.20
428.07	11033.52
428.44	11550.78
428.80	12091.68
429.17	12677.04
429.53	13241.11
429.90	13910.74
430.27	14486.51
430.63	15080.77
431.00	15742.44
431.36	16421.90
431.73	17017.33
432.09	17707.09
432.46	18411.12
432.83	19112.11
433.19	19739.61
433.56	20516.67
433.92	21288.11
434.29	22047.85
434.65	22788.39
435.02	23483.77
435.38	24105.88
435.75	24600.67
436.11	25208.27
436.48	25755.49
436.84	26308.09
437.21	26785.32
437.57	27256.24
437.94	27605.68
438.30	27877.18
438.67	28059.98
439.03	28216.80
439.40	28406.85
439.76	28445.47
440.13	28444.53
440.49	28508.90
440.86	28316.04
441.22	28038.68
441.59	27600.30
441.95	27251.33
442.32	26618.21
442.68	26199.25
443.05	25675.68
443.41	25205.00
443.78	24495.58
444.14	23960.77
444.51	23245.97
444.87	22731.75
445.24	22079.44
445.60	21587.46
445.96	21041.18
446.33	20602.57
446.69	19958.22
447.06	19467.87
447.42	18846.70
447.79	18219.90
448.15	17709.20
448.51	17218.15
448.88	16812.77
449.24	16373.45
449.61	16099.37
449.97	15684.87
450.33	15336.13
450.70	14858.42
451.06	14533.32
451.43	14061.24
451.79	13693.07
452.15	13322.10
452.52	13027.66
452.88	12743.98
453.24	12517.19
453.61	12213.15
453.97	11922.22
454.34	11607.65
454.70	11261.96
455.06	10958.86
455.43	10620.88
455.79	10265.36
456.15	9941.89
456.52	9588.71
456.88	9262.44
457.24	8990.70
457.61	8747.75
457.97	8472.04
458.33	8244.30
458.70	7961.33
459.06	7688.43
459.42	7462.10
459.79	7240.92
460.15	7016.93
460.51	6821.49
460.88	6613.18
461.24	6378.43
461.60	6183.70
461.96	6003.71
462.33	5825.59
462.69	5672.29
463.05	5527.18
463.42	5401.72
463.78	5262.23
464.14	5116.88
464.50	4977.15
464.87	4828.29
465.23	4669.13
465.59	4543.45
465.95	4457.32
466.32	4365.10
466.68	4268.43
467.04	4186.52
467.40	4125.43
467.77	4019.87
468.13	3918.06
468.49	3842.93
468.85	3774.11
469.22	3701.79
469.58	3627.13
469.94	3574.70
470.30	3504.48
470.66	3449.25
471.03	3373.88
471.39	3335.97
471.75	3264.81
472.11	3198.34
472.47	3124.85
472.84	3056.27
473.20	2989.10
473.56	2945.33
473.92	2910.46
474.28	2867.16
474.65	2837.20
475.01	2799.98
475.37	2761.60
475.73	2722.98
476.09	2701.45
476.45	2647.38
476.81	2582.31
477.18	2525.67
477.54	2472.54
477.90	2401.39
478.26	2374.47
478.62	2351.77
478.98	2336.09
479.34	2319.24
479.71	2298.41
480.07	2264.00
480.43	2233.57
480.79	2198.70
481.15	2169.91
481.51	2146.74
481.87	2125.21
482.23	2104.14
482.59	2077.93
482.96	2061.78
483.32	2035.10
483.68	2018.24
484.04	2007.95
484.40	1987.58
484.76	1957.86
485.12	1944.75
485.48	1905.66
485.84	1875.24
486.20	1845.28
486.56	1823.98
486.92	1801.98
487.28	1791.45
487.64	1777.87
488.00	1760.08
488.37	1736.91
488.73	1725.68
489.09	1703.68
489.45	1685.89
489.81	1674.65
490.17	1659.67
490.53	1647.50
490.89	1650.31
491.25	1633.46
491.61	1619.18
491.97	1604.91
492.33	1582.67
492.69	1556.92
493.05	1539.37
493.41	1526.03
493.77	1519.71
494.13	1511.75
494.49	1496.54
494.85	1501.69
495.21	1496.54
495.57	1493.03
495.93	1482.50
496.29	1478.98
496.64	1463.54
497.00	1438.96
497.36	1414.62
497.72	1404.09
498.08	1390.75
498.44	1362.89
498.80	1354.23
499.16	1349.08
499.52	1337.85
499.88	1324.51
500.24	1321.70
500.60	1321.23
500.96	1313.74
501.32	1300.17
501.68	1300.17
502.03	1305.32
502.39	1302.27
502.75	1295.25
503.11	1305.08
503.47	1300.17
503.83	1296.89
504.19	1291.98
504.55	1292.68
504.91	1283.55
505.26	1276.53
505.62	1258.51
505.98	1251.95
506.34	1240.25
506.70	1224.57
507.06	1227.14
507.42	1236.27
507.78	1228.08
508.13	1230.19
508.49	1234.87
508.85	1220.12
509.21	1209.82
509.57	1206.55
509.93	1207.72
510.28	1203.74
510.64	1201.40
511.00	1198.82
511.36	1199.99
511.72	1190.63
512.07	1183.37
512.43	1205.14
512.79	1199.29
513.15	1185.25
513.51	1186.42
513.86	1185.72
514.22	1159.97
514.58	1166.52
514.94	1171.20
515.30	1175.65
515.65	1180.57
516.01	1184.55
516.37	1189.23
516.73	1195.78
517.08	1184.78
517.44	1185.01
517.80	1185.72
518.16	1169.57
518.51	1167.23
518.87	1164.18
519.23	1154.12
519.59	1154.82
519.94	1150.14
520.30	1151.08
520.66	1144.99
521.01	1149.67
521.37	1137.97
521.73	1144.52
522.09	1143.12
522.44	1144.29
522.80	1143.82
523.16	1148.50
523.51	1158.33
523.87	1156.46
524.23	1155.05
524.58	1151.08
524.94	1148.27
525.30	1133.29
525.65	1123.69
526.01	1119.01
526.37	1116.44
526.72	1116.44
527.08	1125.56
527.44	1133.05
527.79	1145.46
528.15	1141.71
528.51	1138.90
528.86	1131.18
529.22	1128.61
529.58	1119.48
529.93	1114.33
530.29	1115.03
530.65	1112.92
531.00	1106.37
531.36	1108.24
531.71	1117.84
532.07	1116.90
532.43	1112.69
532.78	1125.56
533.14	1127.20
533.49	1134.69
533.85	1139.14
534.21	1138.44
534.56	1131.88
534.92	1135.16
535.27	1121.82
535.63	1125.10
535.98	1134.69
536.34	1125.80
536.69	1119.71
537.05	1123.22
537.41	1117.14
537.76	1107.07
538.12	1108.24
538.47	1109.88
538.83	1114.56
539.18	1108.01
539.54	1111.75
539.89	1119.71
540.25	1118.78
540.60	1111.29
540.96	1114.56
541.31	1115.03
541.67	1112.69
542.02	1111.05
542.38	1113.39
542.73	1110.58
543.09	1104.73
543.44	1104.03
543.80	1104.26
544.15	1106.37
544.51	1114.56
544.86	1122.05
545.22	1126.03
545.57	1123.46
545.93	1118.54
546.28	1105.67
546.64	1101.46
546.99	1096.31
547.35	1093.03
547.70	1092.09
548.05	1091.63
548.41	1089.99
548.76	1090.46
549.12	1095.60
549.47	1103.80
549.83	1106.14
550.18	1104.26
550.53	1108.95
550.89	1111.75
551.24	1112.46
551.60	1119.24
551.95	1131.88
552.30	1124.63
552.66	1122.75
553.01	1117.61
553.37	1126.97
553.72	1116.67
554.07	1118.07
554.43	1124.16
554.78	1119.24
555.13	1103.80
555.49	1105.90
555.84	1107.07
556.19	1101.46
556.55	1105.67
556.90	1104.50
557.26	1098.18
557.61	1098.41
557.96	1097.95
558.32	1103.56
558.67	1113.86
559.02	1126.27
559.37	1126.97
559.73	1130.71
560.08	1126.27
560.43	1115.27
560.79	1106.37
561.14	1099.58
561.49	1092.56
561.85	1083.67
562.20	1088.12
562.55	1083.90
562.90	1086.24
563.26	1091.16
563.61	1100.05
563.96	1100.75
564.32	1115.27
564.67	1114.10
565.02	1113.16
565.37	1111.52
565.73	1110.58
566.08	1105.44
566.43	1104.73
566.78	1103.80
567.14	1096.78
567.49	1094.43
567.84	1087.41
568.19	1090.69
568.54	1083.90
568.90	1089.05
569.25	1092.09
569.60	1087.65
569.95	1085.54
570.31	1095.14
570.66	1088.82
571.01	1089.05
571.36	1104.26
571.71	1100.05
572.06	1096.54
572.42	1099.58
572.77	1093.97
573.12	1082.26
573.47	1084.14
573.82	1084.60
574.18	1078.52
574.53	1088.12
574.88	1086.48
575.23	1100.99
575.58	1090.69
575.93	1102.16
576.28	1091.63
576.64	1093.26
576.99	1074.07
577.34	1083.43
577.69	1087.41
578.04	1107.31
578.39	1103.80
578.74	1111.05
579.09	1100.52
579.44	1095.60
579.80	1086.01
580.15	1091.16
580.50	1092.80
580.85	1093.73
581.20	1091.86
581.55	1086.01
581.90	1085.31
582.25	1087.41
582.60	1095.37
582.95	1089.52
583.30	1088.82
583.65	1091.39
584.00	1095.84
584.35	1108.01
584.71	1112.69
585.06	1115.73
585.41	1111.75
585.76	1099.12
586.11	1089.05
586.46	1094.20
586.81	1089.52
587.16	1094.20
587.51	1096.31
587.86	1089.05
588.21	1082.26
588.56	1086.24
588.91	1086.94
589.26	1089.99
589.61	1094.90
589.96	1092.56
590.31	1089.05
590.66	1087.41
591.01	1088.82
591.36	1085.54
591.71	1089.75
592.06	1090.22
592.41	1088.12
592.76	1077.58
593.10	1080.63
593.45	1085.77
593.80	1093.73
594.15	1098.18
594.50	1099.35
594.85	1095.60
595.20	1091.16
595.55	1077.11
595.90	1074.07
596.25	1082.73
596.60	1086.24
596.95	1092.80
597.30	1097.71
597.64	1138.20
597.99	1137.03
598.34	1137.03
598.69	1141.01
599.04	1145.22
599.39	1102.63
599.74	1101.69
600.09	1092.33
600.44	1084.84
600.78	1089.52
601.13	1092.33
601.48	1093.97
601.83	1111.52
602.18	1100.05
602.53	1101.69
602.88	1104.50
603.22	1106.84
603.57	1089.75
603.92	1101.92
604.27	1097.95
604.62	1085.31
604.97	1088.35
605.31	1107.78
605.66	1107.54
606.01	1101.22
606.36	1108.24
606.71	1103.33
607.05	1089.52
607.40	1082.97
607.75	1081.09
608.10	1081.33
608.44	1079.22
608.79	1078.99
609.14	1084.14
609.49	1091.39
609.84	1088.35
610.18	1083.67
610.53	1081.33
610.88	1079.46
611.23	1079.22
611.57	1079.92
611.92	1088.35
612.27	1100.29
612.62	1097.71
612.96	1096.78
613.31	1104.73
613.66	1108.71
614.00	1102.86
614.35	1098.88
614.70	1097.01
615.05	1089.05
615.39	1084.84
615.74	1083.43
616.09	1094.90
616.43	1090.46
616.78	1091.16
617.13	1090.92
617.47	1101.22
617.82	1092.56
618.17	1094.90
618.51	1102.39
618.86	1102.86
619.21	1100.52
619.55	1087.65
619.90	1081.09
620.25	1074.31
620.59	1060.03
620.94	1049.50
621.29	1070.56
621.63	1072.90
621.98	1074.54
622.32	1088.58
622.67	1090.69
623.02	1087.65
623.36	1101.92
623.71	1104.26
624.05	1094.20
624.40	1097.24
624.75	1097.24
625.09	1087.41
625.44	1078.75
625.78	1088.12
626.13	1089.52
626.48	1081.56
626.82	1081.80
627.17	1094.90
627.51	1083.67
627.86	1092.80
628.20	1101.46
628.55	1105.44
628.89	1108.24
629.24	1119.48
629.58	1119.95
629.93	1111.99
630.28	1118.31
630.62	1107.78
630.97	1107.07
631.31	1102.86
631.66	1111.29
632.00	1105.90
632.35	1094.43
632.69	1090.22
633.04	1086.01
633.38	1083.43
633.73	1088.35
634.07	1099.35
634.42	1094.90
634.76	1086.71
635.11	1093.97
635.45	1085.54
635.79	1083.43
636.14	1091.16
636.48	1095.14
636.83	1083.90
637.17	1081.56
637.52	1085.77
637.86	1077.11
638.21	1072.90
638.55	1067.52
638.89	1073.84
639.24	1073.37
639.58	1080.39
639.93	1087.65
640.27	1096.07
640.61	1095.84
640.96	1091.39
641.30	1090.69
641.65	1091.39
641.99	1094.20
642.33	1089.99
642.68	1091.16
643.02	1088.35
643.37	1080.39
643.71	1075.94
644.05	1073.37
644.40	1071.97
644.74	1077.58
645.08	1080.63
645.43	1079.46
645.77	1082.50
646.11	1088.82
646.46	1088.12
646.80	1090.46
647.14	1090.22
647.49	1101.46
647.83	1100.75
648.17	1097.24
648.52	1099.35
648.86	1094.20
649.20	1082.50
649.55	1080.63
649.89	1082.50
650.23	1075.48
650.57	1085.54
650.92	1089.52
651.26	1089.29
651.60	1095.37
651.95	1093.50
652.29	1092.80
652.63	1095.37
652.97	1103.56
653.32	1097.01
653.66	1108.01
654.00	1111.75
654.34	1104.97
654.69	1089.29
655.03	1086.01
655.37	1079.69
655.71	1076.88
656.05	1084.14
656.40	1089.75
656.74	1093.26
657.08	1099.35
657.42	1097.95
657.76	1093.03
658.11	1107.54
658.45	1112.69
658.79	1106.84
659.13	1104.26
659.47	1100.52
659.82	1088.82
660.16	1094.20
660.50	1093.50
660.84	1092.09
661.18	1092.56
661.52	1085.31
661.87	1064.48
662.21	1062.84
662.55	1060.73
662.89	1063.77
663.23	1069.62
663.57	1070.33
663.91	1078.28
664.25	1081.56
664.60	1080.39
664.94	1084.37
665.28	1097.24
665.62	1087.41
665.96	1091.86
666.30	1091.86
666.64	1087.88
666.98	1087.65
667.32	1085.77
667.66	1084.37
668.01	1072.67
668.35	1066.58
668.69	1058.86
669.03	1066.35
669.37	1065.88
669.71	1071.03
670.05	1077.58
670.39	1087.65
670.73	1090.46
671.07	1088.35
671.41	1091.39
671.75	1093.03
672.09	1087.65
672.43	1081.80
672.77	1088.35
673.11	1087.88
673.45	1095.14
673.79	1103.56
674.13	1107.07
674.47	1102.86
674.81	1115.27
675.15	1098.88
675.49	1097.24
675.83	1103.09
676.17	1097.24
676.51	1076.18
676.85	1082.03
677.19	1071.26
677.53	1059.33
677.87	1066.58
678.21	1066.58
678.55	1076.88
678.89	1091.63
679.23	1093.97
679.57	1095.84
679.90	1108.01
680.24	1100.99
680.58	1093.50
680.92	1092.33
681.26	1093.50
681.60	1094.20
681.94	1088.58
682.28	1088.35
682.62	1093.03
682.96	1084.14
683.29	1079.69
683.63	1080.86
683.97	1077.58
684.31	1084.14
684.65	1081.09
684.99	1084.84
685.33	1087.18
685.67	1086.48
686.00	1073.37
686.34	1077.82
686.68	1078.99
687.02	1070.80
687.36	1074.07
687.70	1066.35
688.03	1067.28
688.37	1064.48
688.71	1069.39
689.05	1066.82
689.39	1078.52
689.72	1080.39
690.06	1090.22
690.40	1094.90
690.74	1092.33
691.08	1090.46
691.41	1077.35
691.75	1067.28
692.09	1069.16
692.43	1069.39
692.76	1060.50
693.10	1074.07
693.44	1065.18
693.78	1061.90
694.11	1067.52
694.45	1081.09
694.79	1079.46
695.13	1086.94
695.46	1080.86
695.80	1080.39
696.14	1076.18
696.48	1083.67
696.81	1089.99
697.15	1101.46
697.49	1104.50
697.82	1112.46
698.16	1109.41
698.50	1100.52
698.83	1090.46
699.17	1084.60
699.51	1077.58
699.84	1070.56
700.18	1075.94
700.52	1082.73
700.85	1076.41
701.19	1069.16
701.53	1070.33
701.86	1075.94
702.20	1071.03
702.54	1070.80
702.87	1073.84
703.21	1068.22
703.55	1065.88
703.88	1070.56
704.22	1074.31
704.55	1087.18
704.89	1099.35
705.23	1093.26
705.56	1085.31
705.90	1079.22
706.23	1073.60
706.57	1069.16
706.91	1073.37
707.24	1081.80
707.58	1088.82
707.91	1083.67
708.25	1085.07
708.58	1079.46
708.92	1079.22
709.26	1069.62
709.59	1076.18
709.93	1067.52
710.26	1069.86
710.60	1074.07
710.93	1089.52
711.27	1090.22
711.60	1087.41
711.94	1096.07
712.27	1089.99
712.61	1084.37
712.94	1076.65
713.28	1090.46
713.61	1084.37
713.95	1090.92
714.28	1089.29
714.62	1092.33
714.95	1087.18
715.29	1083.67
715.62	1074.07
715.96	1074.77
716.29	1071.50
716.63	1062.84
716.96	1068.45
717.29	1080.16
717.63	1084.14
717.96	1089.99
718.30	1099.35
718.63	1087.88
718.97	1080.39
719.30	1078.99
719.63	1084.14
719.97	1081.56
720.30	1089.52
720.64	1091.39
720.97	1094.67
721.30	1093.03
721.64	1097.01
721.97	1095.60
722.31	1094.90
722.64	1088.35
722.97	1083.20
723.31	1081.80
723.64	1078.52
723.97	1078.99
724.31	1084.14
724.64	1086.24
724.98	1090.46
725.31	1088.58
725.64	1078.52
725.98	1081.33
726.31	1078.05
726.64	1071.50
726.97	1075.94
727.31	1082.03
727.64	1071.03
727.97	1059.56
728.31	1058.16
728.64	1046.69
728.97	1042.71
729.31	1047.16
729.64	1061.43
729.97	1063.77
730.30	1079.46
730.64	1089.29
730.97	1088.12
731.30	1078.05
731.63	1082.26
731.97	1080.63
732.30	1079.69
732.63	1080.63
732.96	1084.84
733.30	1076.88
733.63	1078.28
733.96	1070.09
734.29	1071.73
734.63	1070.33
734.96	1070.33
735.29	1069.62
735.62	1064.94
735.95	1077.58
736.29	1081.09
736.62	1076.18
736.95	1070.56
737.28	1081.80
737.61	1065.65
737.94	1065.18
738.28	1069.16
738.61	1074.31
738.94	1063.07
739.27	1071.26
739.60	1069.86
739.93	1076.88
740.27	1074.07
740.60	1075.01
740.93	1078.28
741.26	1082.50
741.59	1079.46
741.92	1089.05
742.25	1091.39
742.58	1083.43
742.91	1083.67
743.25	1093.26
743.58	1086.24
743.91	1098.65
744.24	1104.50
744.57	1098.18
744.90	1086.48
745.23	1079.22
745.56	1071.73
745.89	1064.24
746.22	1064.24
746.55	1060.73
746.88	1072.43
747.21	1068.22
747.54	1070.56
747.87	1070.80
748.20	1078.05
748.53	1074.54
748.87	1084.84
749.20	1080.16
749.53	1079.92
749.86	1084.84
750.19	1077.58
750.52	1070.09
750.85	1080.16
751.18	1080.16
751.51	1070.09
751.84	1076.18
752.16	1078.28
752.49	1064.48
752.82	1066.58
753.15	1076.18
753.48	1078.99
753.81	1085.07
754.14	1097.24
754.47	1097.71
754.80	1100.05
755.13	1103.09
755.46	1101.69
755.79	1093.50
756.12	1096.31
756.45	1089.99
756.78	1082.26
757.11	1075.94
757.43	1080.39
757.76	1087.88
758.09	1088.12
758.42	1085.31
758.75	1082.03
759.08	1082.97
759.41	1071.97
759.74	1068.22
760.07	1077.11
760.39	1092.56
760.72	1089.52
761.05	1102.86
761.38	1111.52
761.71	1104.97
762.04	1101.69
762.36	1105.67
762.69	1094.90
763.02	1096.54
763.35	1092.33
763.68	1095.60
764.01	1095.60
764.33	1089.52
764.66	1080.63
