SpectraSuite Data File
++++++++++++++++++++++++++++++++++++
Date: Mon Aug 26 10:24:48 PDT 2019
User: corrico
Dark Spectrum Present: No
Reference Spectrum Present: No
Number of Sampled Component Spectra: 1
Spectrometers: USB2+H06089
Integration Time (usec): 10000 (USB2+H06089)
Spectra Averaged: 2 (USB2+H06089)
Boxcar Smoothing: 2 (USB2+H06089)
Correct for Electrical Dark: No (USB2+H06089)
Strobe/Lamp Enabled: No (USB2+H06089)
Correct for Detector Non-linearity: No (USB2+H06089)
Correct for Stray Light: No (USB2+H06089)
Number of Pixels in Processed Spectrum: 2048
>>>>>Begin Processed Spectral Data<<<<<
339.70	1023.98
340.07	1023.98
340.45	993.09
340.82	971.32
341.19	946.04
341.57	921.00
341.94	904.15
342.31	898.77
342.69	903.21
343.06	905.55
343.43	914.68
343.81	918.89
344.18	915.62
344.55	903.91
344.93	901.81
345.30	897.83
345.67	906.49
346.04	912.57
346.42	927.09
346.79	945.81
347.16	957.28
347.54	957.51
347.91	971.79
348.28	990.98
348.65	997.54
349.03	1005.96
349.40	1024.45
349.77	1035.22
350.14	1033.81
350.52	1037.56
350.89	1047.86
351.26	1066.11
351.63	1069.62
352.01	1081.33
352.38	1083.43
352.75	1086.94
353.12	1078.28
353.50	1080.63
353.87	1074.77
354.24	1074.77
354.61	1089.29
354.98	1082.03
355.36	1085.07
355.73	1081.09
356.10	1103.80
356.47	1088.12
356.84	1100.29
357.22	1097.95
357.59	1108.01
357.96	1091.63
358.33	1102.63
358.70	1102.63
359.08	1105.67
359.45	1108.01
359.82	1103.33
360.19	1097.48
360.56	1091.86
360.94	1094.67
361.31	1097.95
361.68	1103.09
362.05	1094.67
362.42	1096.07
362.79	1096.31
363.16	1089.05
363.54	1089.52
363.91	1084.37
364.28	1088.35
364.65	1086.48
365.02	1083.90
365.39	1087.88
365.76	1094.90
366.14	1087.88
366.51	1083.43
366.88	1079.69
367.25	1078.52
367.62	1072.67
367.99	1067.05
368.36	1072.67
368.73	1088.12
369.10	1087.88
369.48	1101.92
369.85	1117.37
370.22	1123.22
370.59	1116.67
370.96	1114.80
371.33	1109.18
371.70	1105.67
372.07	1082.03
372.44	1077.58
372.81	1074.07
373.18	1071.97
373.55	1072.43
373.93	1083.90
374.30	1086.01
374.67	1084.60
375.04	1090.92
375.41	1089.52
375.78	1089.52
376.15	1085.77
376.52	1081.33
376.89	1076.65
377.26	1082.03
377.63	1094.20
378.00	1097.48
378.37	1114.80
378.74	1119.01
379.11	1120.18
379.48	1119.71
379.85	1123.22
380.22	1125.56
380.59	1124.63
380.96	1128.61
381.33	1129.54
381.70	1127.90
382.07	1122.05
382.44	1112.22
382.81	1099.35
383.18	1091.16
383.55	1078.28
383.92	1070.80
384.29	1073.84
384.66	1078.75
385.03	1081.80
385.40	1094.67
385.77	1104.97
386.14	1114.56
386.51	1110.35
386.88	1113.16
387.25	1112.22
387.62	1110.58
387.99	1107.31
388.36	1108.24
388.73	1114.56
389.10	1108.01
389.46	1103.33
389.83	1105.67
390.20	1121.58
390.57	1107.78
390.94	1123.69
391.31	1126.73
391.68	1125.80
392.05	1110.35
392.42	1110.35
392.79	1112.22
393.16	1103.33
393.53	1103.56
393.89	1107.31
394.26	1114.80
394.63	1113.39
395.00	1126.97
395.37	1131.18
395.74	1130.01
396.11	1132.12
396.48	1129.78
396.84	1134.69
397.21	1127.90
397.58	1134.93
397.95	1139.61
398.32	1133.99
398.69	1132.12
399.06	1144.05
399.42	1136.80
399.79	1136.80
400.16	1147.56
400.53	1145.93
400.90	1143.12
401.27	1149.67
401.64	1152.95
402.00	1171.20
402.37	1177.52
402.74	1180.10
403.11	1192.50
403.48	1200.69
403.84	1204.67
404.21	1210.06
404.58	1216.84
404.95	1228.31
405.32	1229.72
405.68	1234.87
406.05	1255.70
406.42	1280.27
406.79	1287.53
407.16	1304.38
407.52	1322.64
407.89	1329.66
408.26	1335.04
408.63	1357.98
408.99	1387.94
409.36	1404.56
409.73	1422.81
410.10	1462.37
410.47	1488.35
410.83	1519.48
411.20	1552.95
411.57	1592.50
411.94	1629.48
412.30	1687.76
412.67	1716.78
413.04	1760.79
413.40	1836.15
413.77	1894.90
414.14	1940.30
414.51	2013.80
414.87	2084.72
415.24	2148.38
415.61	2232.87
415.97	2322.75
416.34	2420.11
416.71	2515.37
417.08	2620.70
417.44	2714.32
417.81	2836.96
418.18	2975.99
418.54	3104.49
418.91	3245.85
419.28	3399.63
419.64	3563.23
420.01	3726.60
420.38	3905.42
420.74	4087.75
421.11	4308.69
421.48	4504.36
421.84	4734.20
422.21	4961.94
422.58	5225.01
422.94	5489.02
423.31	5751.63
423.68	6021.03
424.04	6329.98
424.41	6619.27
424.77	6929.39
425.14	7267.36
425.51	7621.49
425.87	8023.82
426.24	8413.29
426.61	8836.93
426.97	9351.14
427.34	9808.25
427.70	10305.14
428.07	10839.49
428.44	11361.19
428.80	11863.94
429.17	12445.80
429.53	12981.08
429.90	13647.20
430.27	14246.37
430.63	14839.70
431.00	15551.46
431.36	16326.87
431.73	16938.22
432.09	17655.60
432.46	18411.59
432.83	19069.05
433.19	19654.88
433.56	20392.85
433.92	21046.57
434.29	21676.87
434.65	22347.20
435.02	23046.55
435.38	23679.90
435.75	24286.33
436.11	24969.07
436.48	25481.18
436.84	26021.61
437.21	26499.08
437.57	27022.42
437.94	27421.01
438.30	27887.01
438.67	28121.54
439.03	28289.82
439.40	28382.04
439.76	28312.52
440.13	28167.88
440.49	28198.31
440.86	27956.53
441.22	27692.75
441.59	27377.01
441.95	27031.78
442.32	26433.07
442.68	26037.99
443.05	25467.60
443.41	24925.77
443.78	24297.57
444.14	23775.16
444.51	23091.96
444.87	22660.13
445.24	22141.47
445.60	21680.85
445.96	21078.16
446.33	20611.23
446.69	20010.41
447.06	19521.71
447.42	18905.44
447.79	18360.57
448.15	17914.93
448.51	17407.50
448.88	16939.86
449.24	16474.09
449.61	16146.42
449.97	15709.44
450.33	15345.02
450.70	14883.70
451.06	14555.79
451.43	14080.43
451.79	13710.62
452.15	13331.69
452.52	13003.31
452.88	12679.15
453.24	12412.80
453.61	12153.23
453.97	11874.71
454.34	11568.10
454.70	11289.34
455.06	11058.80
455.43	10686.18
455.79	10303.27
456.15	9992.92
456.52	9661.26
456.88	9351.38
457.24	9082.21
457.61	8888.18
457.97	8630.73
458.33	8378.88
458.70	8060.80
459.06	7765.43
459.42	7484.10
459.79	7243.49
460.15	7012.01
460.51	6790.83
460.88	6586.74
461.24	6376.32
461.60	6190.25
461.96	6022.43
462.33	5884.11
462.69	5737.12
463.05	5575.86
463.42	5403.83
463.78	5235.78
464.14	5071.24
464.50	4957.02
464.87	4855.44
465.23	4780.08
465.59	4674.05
465.95	4584.41
466.32	4466.44
466.68	4359.48
467.04	4225.37
467.40	4134.09
467.77	4032.51
468.13	3929.99
468.49	3870.31
468.85	3811.33
469.22	3734.32
469.58	3670.90
469.94	3631.81
470.30	3544.98
470.66	3482.01
471.03	3404.54
471.39	3352.82
471.75	3274.41
472.11	3220.34
472.47	3171.89
472.84	3119.70
473.20	3053.46
473.56	3017.65
473.92	2960.54
474.28	2899.69
474.65	2858.26
475.01	2805.13
475.37	2737.26
475.73	2687.17
476.09	2649.49
476.45	2622.34
476.81	2598.46
477.18	2570.84
477.54	2528.71
477.90	2489.86
478.26	2447.26
478.62	2396.24
478.98	2354.81
479.34	2325.56
479.71	2287.41
480.07	2248.79
480.43	2228.42
480.79	2201.51
481.15	2173.66
481.51	2161.02
481.87	2137.85
482.23	2113.97
482.59	2104.84
482.96	2078.63
483.32	2042.82
483.68	2025.50
484.04	1999.05
484.40	1974.01
484.76	1957.62
485.12	1948.03
485.48	1927.20
485.84	1893.03
486.20	1870.56
486.56	1850.90
486.92	1829.13
487.28	1796.83
487.64	1793.32
488.00	1754.23
488.37	1724.51
488.73	1699.23
489.09	1693.14
489.45	1673.72
489.81	1673.72
490.17	1674.42
490.53	1655.23
490.89	1640.25
491.25	1627.61
491.61	1605.61
491.97	1592.97
492.33	1594.14
492.69	1580.10
493.05	1556.92
493.41	1555.29
493.77	1524.16
494.13	1503.33
494.49	1490.22
494.85	1486.71
495.21	1471.26
495.57	1469.86
495.93	1450.90
496.29	1448.32
496.64	1449.26
497.00	1429.37
497.36	1428.66
497.72	1422.81
498.08	1406.43
498.44	1385.60
498.80	1378.11
499.16	1359.62
499.52	1351.89
499.88	1337.38
500.24	1322.17
500.60	1320.06
500.96	1311.17
501.32	1299.93
501.68	1293.61
502.03	1292.68
502.39	1289.40
502.75	1277.70
503.11	1273.49
503.47	1265.06
503.83	1260.85
504.19	1254.76
504.55	1260.38
504.91	1263.89
505.26	1261.08
505.62	1247.97
505.98	1240.48
506.34	1231.36
506.70	1222.70
507.06	1223.87
507.42	1233.93
507.78	1239.08
508.13	1235.10
508.49	1237.21
508.85	1225.97
509.21	1216.61
509.57	1195.78
509.93	1190.63
510.28	1175.18
510.64	1174.71
511.00	1170.74
511.36	1179.16
511.72	1183.61
512.07	1184.08
512.43	1185.25
512.79	1185.95
513.15	1186.18
513.51	1178.23
513.86	1179.40
514.22	1163.71
514.58	1163.95
514.94	1160.20
515.30	1166.52
515.65	1165.12
516.01	1183.37
516.37	1172.37
516.73	1167.69
517.08	1162.08
517.44	1160.44
517.80	1142.42
518.16	1141.25
518.51	1145.69
518.87	1126.50
519.23	1114.33
519.59	1126.97
519.94	1126.03
520.30	1128.61
520.66	1140.31
521.01	1147.56
521.37	1154.59
521.73	1151.78
522.09	1147.56
522.44	1156.93
522.80	1168.16
523.16	1160.20
523.51	1169.57
523.87	1167.93
524.23	1167.23
524.58	1162.08
524.94	1160.44
525.30	1161.14
525.65	1163.48
526.01	1154.12
526.37	1142.65
526.72	1135.39
527.08	1122.29
527.44	1115.27
527.79	1115.97
528.15	1117.37
528.51	1119.01
528.86	1121.82
529.22	1115.50
529.58	1109.41
529.93	1115.27
530.29	1122.05
530.65	1129.78
531.00	1125.80
531.36	1128.14
531.71	1126.50
532.07	1117.61
532.43	1113.63
532.78	1120.18
533.14	1125.10
533.49	1120.65
533.85	1122.29
534.21	1119.24
534.56	1116.67
534.92	1107.31
535.27	1108.01
535.63	1100.52
535.98	1098.88
536.34	1094.67
536.69	1102.63
537.05	1095.37
537.41	1101.46
537.76	1097.01
538.12	1108.95
538.47	1104.26
538.83	1109.88
539.18	1111.05
539.54	1122.05
539.89	1120.88
540.25	1122.75
540.60	1119.71
540.96	1123.93
541.31	1115.03
541.67	1110.12
542.02	1112.46
542.38	1120.41
542.73	1115.27
543.09	1124.86
543.44	1123.22
543.80	1115.03
544.15	1120.88
544.51	1120.65
544.86	1115.03
545.22	1116.20
545.57	1114.56
545.93	1106.14
546.28	1110.58
546.64	1107.78
546.99	1113.63
547.35	1116.67
547.70	1113.16
548.05	1103.09
548.41	1116.44
548.76	1106.37
549.12	1106.37
549.47	1114.09
549.83	1119.95
550.18	1107.54
550.53	1110.35
550.89	1110.12
551.24	1107.31
551.60	1106.84
551.95	1108.24
552.30	1107.07
552.66	1103.33
553.01	1101.92
553.37	1099.12
553.72	1094.67
554.07	1097.24
554.43	1103.33
554.78	1100.29
555.13	1094.90
555.49	1094.67
555.84	1099.82
556.19	1094.43
556.55	1096.31
556.90	1100.52
557.26	1106.61
557.61	1107.07
557.96	1108.01
558.32	1102.63
558.67	1105.67
559.02	1097.48
559.37	1089.99
559.73	1085.54
560.08	1093.50
560.43	1085.54
560.79	1090.92
561.14	1100.29
561.49	1109.41
561.85	1102.39
562.20	1100.52
562.55	1106.61
562.90	1100.99
563.26	1095.14
563.61	1097.01
563.96	1099.12
564.32	1095.84
564.67	1088.35
565.02	1090.22
565.37	1094.90
565.73	1107.31
566.08	1107.78
566.43	1115.27
566.78	1114.80
567.14	1107.54
567.49	1103.09
567.84	1089.05
568.19	1083.90
568.54	1084.60
568.90	1090.22
569.25	1083.43
569.60	1084.60
569.95	1080.86
570.31	1083.90
570.66	1082.73
571.01	1091.86
571.36	1093.50
571.71	1094.90
572.06	1095.37
572.42	1090.92
572.77	1083.43
573.12	1094.20
573.47	1097.01
573.82	1097.48
574.18	1103.80
574.53	1106.61
574.88	1096.31
575.23	1098.65
575.58	1098.65
575.93	1106.14
576.28	1099.12
576.64	1105.44
576.99	1094.67
577.34	1100.75
577.69	1088.58
578.04	1096.54
578.39	1100.99
578.74	1114.56
579.09	1106.14
579.44	1117.61
579.80	1111.29
580.15	1101.69
580.50	1095.84
580.85	1094.67
581.20	1085.07
581.55	1088.35
581.90	1090.92
582.25	1086.94
582.60	1087.18
582.95	1080.39
583.30	1083.90
583.65	1089.05
584.00	1100.05
584.35	1100.75
584.71	1113.16
585.06	1116.20
585.41	1122.75
585.76	1127.90
586.11	1118.78
586.46	1104.73
586.81	1101.46
587.16	1088.82
587.51	1078.28
587.86	1093.26
588.21	1100.52
588.56	1096.31
588.91	1090.46
589.26	1092.09
589.61	1089.99
589.96	1082.50
590.31	1086.01
590.66	1099.35
591.01	1087.18
591.36	1085.07
591.71	1085.07
592.06	1082.26
592.41	1080.63
592.76	1097.71
593.10	1097.48
593.45	1103.33
593.80	1106.84
594.15	1093.50
594.50	1084.14
594.85	1090.69
595.20	1092.56
595.55	1089.99
595.90	1102.86
596.25	1102.86
596.60	1100.05
596.95	1103.56
597.30	1102.86
597.64	1137.27
597.99	1146.16
598.34	1137.03
598.69	1125.80
599.04	1119.95
599.39	1085.31
599.74	1085.07
600.09	1083.67
600.44	1097.48
600.78	1098.65
601.13	1105.20
601.48	1098.88
601.83	1102.16
602.18	1084.14
602.53	1078.99
602.88	1075.48
603.22	1072.43
603.57	1071.73
603.92	1081.56
604.27	1088.12
604.62	1078.75
604.97	1084.14
605.31	1082.03
605.66	1085.31
606.01	1098.41
606.36	1096.31
606.71	1086.48
607.05	1083.20
607.40	1072.90
607.75	1067.75
608.10	1064.94
608.44	1073.60
608.79	1079.92
609.14	1084.84
609.49	1078.75
609.84	1088.12
610.18	1091.63
610.53	1091.86
610.88	1101.22
611.23	1102.39
611.57	1109.88
611.92	1100.52
612.27	1096.78
612.62	1094.90
612.96	1096.31
613.31	1085.54
613.66	1092.33
614.00	1094.67
614.35	1088.58
614.70	1079.92
615.05	1076.88
615.39	1081.09
615.74	1089.05
616.09	1089.52
616.43	1097.71
616.78	1106.61
617.13	1094.20
617.47	1089.29
617.82	1092.09
618.17	1090.92
618.51	1091.39
618.86	1094.43
619.21	1086.94
619.55	1086.48
619.90	1079.46
620.25	1068.69
620.59	1075.24
620.94	1072.90
621.29	1072.43
621.63	1080.39
621.98	1094.90
622.32	1085.07
622.67	1103.33
623.02	1101.92
623.36	1102.63
623.71	1097.48
624.05	1094.67
624.40	1087.65
624.75	1092.80
625.09	1089.99
625.44	1086.01
625.78	1090.22
626.13	1082.73
626.48	1089.29
626.82	1097.01
627.17	1094.43
627.51	1099.58
627.86	1104.26
628.20	1090.92
628.55	1086.01
628.89	1082.73
629.24	1079.92
629.58	1076.65
629.93	1080.39
630.28	1083.43
630.62	1094.43
630.97	1104.97
631.31	1111.52
631.66	1104.97
632.00	1105.20
632.35	1100.52
632.69	1090.46
633.04	1089.75
633.38	1097.71
633.73	1099.35
634.07	1094.20
634.42	1089.75
634.76	1091.39
635.11	1088.12
635.45	1078.99
635.79	1082.97
636.14	1087.41
636.48	1077.35
636.83	1075.71
637.17	1082.26
637.52	1086.24
637.86	1091.39
638.21	1092.09
638.55	1094.20
638.89	1091.39
639.24	1095.37
639.58	1097.01
639.93	1100.75
640.27	1100.75
640.61	1097.48
640.96	1085.77
641.30	1082.03
641.65	1078.05
641.99	1080.86
642.33	1084.37
642.68	1090.69
643.02	1089.99
643.37	1094.20
643.71	1093.03
644.05	1086.94
644.40	1097.95
644.74	1097.95
645.08	1089.99
645.43	1086.71
645.77	1087.18
646.11	1079.46
646.46	1075.71
646.80	1080.86
647.14	1079.46
647.49	1074.54
647.83	1069.86
648.17	1074.07
648.52	1078.28
648.86	1076.41
649.20	1081.33
649.55	1081.56
649.89	1075.24
650.23	1067.05
650.57	1069.62
650.92	1079.46
651.26	1080.86
651.60	1082.03
651.95	1093.26
652.29	1097.71
652.63	1092.56
652.97	1083.67
653.32	1083.90
653.66	1072.67
654.00	1062.37
654.34	1069.62
654.69	1082.50
655.03	1083.67
655.37	1084.60
655.71	1096.54
656.05	1087.18
656.40	1085.54
656.74	1091.63
657.08	1095.84
657.42	1099.35
657.76	1098.88
658.11	1087.18
658.45	1085.77
658.79	1092.09
659.13	1088.12
659.47	1088.35
659.82	1108.95
660.16	1106.84
660.50	1100.52
660.84	1107.78
661.18	1107.07
661.52	1096.54
661.87	1096.07
662.21	1097.24
662.55	1086.94
662.89	1086.71
663.23	1084.14
663.57	1085.54
663.91	1081.80
664.25	1082.73
664.60	1075.48
664.94	1062.84
665.28	1064.71
665.62	1065.41
665.96	1069.86
666.30	1082.97
666.64	1102.39
666.98	1091.16
667.32	1097.95
667.66	1085.31
668.01	1075.94
668.35	1074.07
668.69	1081.09
669.03	1078.75
669.37	1098.65
669.71	1109.65
670.05	1100.05
670.39	1088.12
670.73	1081.56
671.07	1063.54
671.41	1048.79
671.75	1057.45
672.09	1072.67
672.43	1079.92
672.77	1090.92
673.11	1103.33
673.45	1101.22
673.79	1103.80
674.13	1100.52
674.47	1095.14
674.81	1102.16
675.15	1107.07
675.49	1101.22
675.83	1093.97
676.17	1098.41
676.51	1095.37
676.85	1085.77
677.19	1089.99
677.53	1095.60
677.87	1095.84
678.21	1084.60
678.55	1082.03
678.89	1079.22
679.23	1093.50
679.57	1092.80
679.90	1102.86
680.24	1107.31
680.58	1117.37
680.92	1108.01
681.26	1096.78
681.60	1089.05
681.94	1088.58
682.28	1084.37
682.62	1076.18
682.96	1091.39
683.29	1088.35
683.63	1091.16
683.97	1085.54
684.31	1087.18
684.65	1086.24
684.99	1092.33
685.33	1089.75
685.67	1082.50
686.00	1087.41
686.34	1082.50
686.68	1087.88
687.02	1089.75
687.36	1099.82
687.70	1102.63
688.03	1090.22
688.37	1079.69
688.71	1078.99
689.05	1077.11
689.39	1076.41
689.72	1087.41
690.06	1089.99
690.40	1097.24
690.74	1098.65
691.08	1102.63
691.41	1108.24
691.75	1115.50
692.09	1110.12
692.43	1113.39
692.76	1110.12
693.10	1106.37
693.44	1090.22
693.78	1088.35
694.11	1079.69
694.45	1075.71
694.79	1073.60
695.13	1087.41
695.46	1088.82
695.80	1092.56
696.14	1096.78
696.48	1094.20
696.81	1100.52
697.15	1084.84
697.49	1080.63
697.82	1081.80
698.16	1081.56
698.50	1068.69
698.83	1087.65
699.17	1091.39
699.51	1082.50
699.84	1084.37
700.18	1083.90
700.52	1077.82
700.85	1073.84
701.19	1077.35
701.53	1073.84
701.86	1078.52
702.20	1081.33
702.54	1086.94
702.87	1091.16
703.21	1099.35
703.55	1096.07
703.88	1101.92
704.22	1103.56
704.55	1096.54
704.89	1091.86
705.23	1085.54
705.56	1073.14
705.90	1074.77
706.23	1073.60
706.57	1071.03
706.91	1089.99
707.24	1104.73
707.58	1091.86
707.91	1096.31
708.25	1104.50
708.58	1088.12
708.92	1079.22
709.26	1092.56
709.59	1092.56
709.93	1090.69
710.26	1096.54
710.60	1092.56
710.93	1089.05
711.27	1086.24
711.60	1084.60
711.94	1085.77
712.27	1093.26
712.61	1084.60
712.94	1088.12
713.28	1090.92
713.61	1087.41
713.95	1078.52
714.28	1075.01
714.62	1073.14
714.95	1067.28
715.29	1063.31
715.62	1064.01
715.96	1069.39
716.29	1067.75
716.63	1065.18
716.96	1067.05
717.29	1072.20
717.63	1082.03
717.96	1080.86
718.30	1084.60
718.63	1090.46
718.97	1089.99
719.30	1078.05
719.63	1096.54
719.97	1094.90
720.30	1083.67
720.64	1083.90
720.97	1089.29
721.30	1071.03
721.64	1074.31
721.97	1087.88
722.31	1088.82
722.64	1086.01
722.97	1093.26
723.31	1090.46
723.64	1085.31
723.97	1082.26
724.31	1093.73
724.64	1082.97
724.98	1088.58
725.31	1094.43
725.64	1094.43
725.98	1082.97
726.31	1088.35
726.64	1078.75
726.97	1088.35
727.31	1082.26
727.64	1079.69
727.97	1078.05
728.31	1078.28
728.64	1069.16
728.97	1074.07
729.31	1075.48
729.64	1073.37
729.97	1080.16
730.30	1078.75
730.64	1077.82
730.97	1084.84
731.30	1086.24
731.63	1093.50
731.97	1090.92
732.30	1092.09
732.63	1097.95
732.96	1102.16
733.30	1089.75
733.63	1088.58
733.96	1084.14
734.29	1072.20
734.63	1074.77
734.96	1083.20
735.29	1081.80
735.62	1097.01
735.95	1092.80
736.29	1089.75
736.62	1083.43
736.95	1088.35
737.28	1078.05
737.61	1083.20
737.94	1087.41
738.28	1094.20
738.61	1090.92
738.94	1090.69
739.27	1090.69
739.60	1093.26
739.93	1086.01
740.27	1087.41
740.60	1088.12
740.93	1092.33
741.26	1079.22
741.59	1082.03
741.92	1078.52
742.25	1080.63
742.58	1085.77
742.91	1092.09
743.25	1103.33
743.58	1104.03
743.91	1094.43
744.24	1087.18
744.57	1087.88
744.90	1074.31
745.23	1074.77
745.56	1091.39
745.89	1088.12
746.22	1085.31
746.55	1087.88
746.88	1086.01
747.21	1077.82
747.54	1084.84
747.87	1088.82
748.20	1082.50
748.53	1083.43
748.87	1082.73
749.20	1076.18
749.53	1075.94
749.86	1078.99
750.19	1082.03
750.52	1082.03
750.85	1084.14
751.18	1077.35
751.51	1065.65
751.84	1064.48
752.16	1056.05
752.49	1052.07
752.82	1061.20
753.15	1067.28
753.48	1061.43
753.81	1073.60
754.14	1078.52
754.47	1075.24
754.80	1077.11
755.13	1086.71
755.46	1090.69
755.79	1093.50
756.12	1098.41
756.45	1100.75
756.78	1097.71
757.11	1091.16
757.43	1099.82
757.76	1093.97
758.09	1093.26
758.42	1086.48
758.75	1088.35
759.08	1085.31
759.41	1091.16
759.74	1088.35
760.07	1089.75
760.39	1087.65
760.72	1069.16
761.05	1057.45
761.38	1060.03
761.71	1060.50
762.04	1062.37
762.36	1075.48
762.69	1075.94
763.02	1069.62
763.35	1080.16
763.68	1071.03
764.01	1067.28
764.33	1073.14
764.66	1080.16
