SpectraSuite Data File
++++++++++++++++++++++++++++++++++++
Date: Mon Aug 26 10:24:45 PDT 2019
User: corrico
Dark Spectrum Present: No
Reference Spectrum Present: No
Number of Sampled Component Spectra: 1
Spectrometers: USB2+H06089
Integration Time (usec): 10000 (USB2+H06089)
Spectra Averaged: 2 (USB2+H06089)
Boxcar Smoothing: 2 (USB2+H06089)
Correct for Electrical Dark: No (USB2+H06089)
Strobe/Lamp Enabled: No (USB2+H06089)
Correct for Detector Non-linearity: No (USB2+H06089)
Correct for Stray Light: No (USB2+H06089)
Number of Pixels in Processed Spectrum: 2048
>>>>>Begin Processed Spectral Data<<<<<
339.70	990.05
340.07	990.05
340.45	979.28
340.82	961.02
341.19	952.13
341.57	930.60
341.94	921.70
342.31	905.79
342.69	900.17
343.06	901.81
343.43	907.89
343.81	910.94
344.18	917.26
344.55	925.92
344.93	932.00
345.30	928.49
345.67	933.41
346.04	935.04
346.42	944.64
346.79	942.30
347.16	955.64
347.54	956.34
347.91	970.62
348.28	982.56
348.65	991.22
349.03	1005.73
349.40	1019.07
349.77	1032.88
350.14	1038.03
350.52	1041.30
350.89	1038.26
351.26	1050.67
351.63	1051.60
352.01	1062.60
352.38	1081.33
352.75	1095.14
353.12	1103.33
353.50	1118.54
353.87	1122.29
354.24	1119.24
354.61	1116.67
354.98	1107.31
355.36	1098.41
355.73	1090.69
356.10	1090.92
356.47	1087.18
356.84	1088.35
357.22	1084.60
357.59	1086.71
357.96	1074.31
358.33	1087.88
358.70	1091.39
359.08	1087.41
359.45	1090.92
359.82	1103.56
360.19	1100.99
360.56	1104.97
360.94	1116.20
361.31	1110.58
361.68	1100.75
362.05	1087.88
362.42	1076.88
362.79	1074.77
363.16	1070.33
363.54	1075.48
363.91	1083.67
364.28	1076.88
364.65	1080.86
365.02	1085.31
365.39	1087.65
365.76	1084.84
366.14	1102.16
366.51	1095.84
366.88	1089.75
367.25	1086.48
367.62	1088.12
367.99	1076.88
368.36	1075.24
368.73	1077.11
369.10	1077.82
369.48	1076.88
369.85	1079.92
370.22	1083.43
370.59	1092.56
370.96	1089.75
371.33	1095.37
371.70	1096.54
372.07	1091.39
372.44	1088.82
372.81	1096.31
373.18	1098.41
373.55	1103.80
373.93	1105.67
374.30	1109.41
374.67	1105.20
375.04	1098.18
375.41	1092.80
375.78	1099.35
376.15	1100.75
376.52	1099.35
376.89	1102.39
377.26	1100.99
377.63	1104.03
378.00	1101.46
378.37	1102.16
378.74	1111.75
379.11	1115.27
379.48	1106.84
379.85	1105.20
380.22	1105.90
380.59	1101.92
380.96	1101.92
381.33	1110.58
381.70	1111.29
382.07	1115.73
382.44	1105.67
382.81	1105.20
383.18	1102.86
383.55	1096.31
383.92	1092.09
384.29	1109.88
384.66	1106.61
385.03	1102.63
385.40	1115.73
385.77	1122.75
386.14	1113.86
386.51	1125.33
386.88	1117.84
387.25	1115.73
387.62	1113.86
387.99	1114.33
388.36	1117.37
388.73	1131.41
389.10	1126.03
389.46	1131.41
389.83	1130.95
390.20	1122.99
390.57	1110.58
390.94	1112.22
391.31	1111.29
391.68	1105.20
392.05	1113.63
392.42	1121.82
392.79	1124.16
393.16	1123.22
393.53	1126.97
393.89	1124.16
394.26	1128.37
394.63	1128.14
395.00	1135.63
395.37	1135.16
395.74	1134.46
396.11	1141.95
396.48	1144.99
396.84	1140.07
397.21	1142.65
397.58	1144.29
397.95	1137.27
398.32	1146.39
398.69	1146.16
399.06	1157.16
399.42	1169.57
399.79	1178.69
400.16	1186.89
400.53	1194.14
400.90	1198.35
401.27	1193.21
401.64	1192.50
402.00	1195.08
402.37	1206.08
402.74	1219.19
403.11	1230.65
403.48	1242.12
403.84	1249.38
404.21	1254.53
404.58	1254.76
404.95	1270.21
405.32	1298.76
405.68	1319.36
406.05	1347.21
406.42	1383.96
406.79	1399.64
407.16	1410.87
407.52	1441.07
407.89	1464.24
408.26	1490.92
408.63	1539.14
408.99	1587.12
409.36	1621.06
409.73	1659.91
410.10	1698.29
410.47	1736.68
410.83	1793.32
411.20	1864.00
411.57	1937.03
411.94	2006.54
412.30	2092.67
412.67	2167.57
413.04	2242.23
413.40	2329.07
413.77	2430.41
414.14	2536.20
414.51	2634.74
414.87	2744.51
415.24	2863.18
415.61	3013.44
415.97	3169.32
416.34	3335.26
416.71	3511.27
417.08	3699.68
417.44	3873.12
417.81	4045.15
418.18	4279.44
418.54	4496.40
418.91	4747.54
419.28	5008.75
419.64	5293.36
420.01	5592.01
420.38	5915.24
420.74	6237.29
421.11	6606.16
421.48	7004.76
421.84	7367.77
422.21	7775.26
422.58	8246.41
422.94	8706.32
423.31	9157.35
423.68	9700.35
424.04	10278.23
424.41	10831.30
424.77	11423.69
425.14	12056.80
425.51	12652.94
425.87	13309.22
426.24	14029.64
426.61	14839.70
426.97	15734.02
427.34	16624.12
427.70	17647.41
428.07	18540.09
428.44	19395.08
428.80	20278.40
429.17	21333.28
429.53	22317.94
429.90	23527.06
430.27	24641.39
430.63	25764.85
431.00	26996.21
431.36	28265.48
431.73	29437.85
432.09	30728.19
432.46	32005.19
432.83	33203.31
433.19	34341.98
433.56	35607.27
433.92	36972.97
434.29	38271.97
434.65	39573.31
435.02	40721.11
435.38	41814.14
435.75	42602.43
436.11	43675.80
436.48	44585.57
436.84	45503.99
437.21	46486.78
437.57	47447.34
437.94	48160.50
438.30	48889.11
438.67	49452.95
439.03	49661.25
439.40	49955.93
439.76	49887.58
440.13	49517.54
440.49	49439.84
440.86	49056.22
441.22	48601.22
441.59	48043.47
441.95	47606.26
442.32	46723.65
442.68	46006.74
443.05	45122.02
443.41	44260.23
443.78	43272.53
444.14	42195.41
444.51	41055.34
444.87	40198.00
445.24	39059.80
445.60	37992.04
445.96	36969.93
446.33	36128.28
446.69	35026.12
447.06	34204.82
447.42	33196.29
447.79	32174.17
448.15	31278.22
448.51	30283.49
448.88	29529.13
449.24	28629.90
449.61	28018.55
449.97	27186.96
450.33	26485.27
450.70	25669.83
451.06	25137.35
451.43	24424.66
451.79	23986.28
452.15	23493.83
452.52	22904.01
452.88	22327.31
453.24	21812.15
453.61	21191.44
453.97	20560.90
454.34	19957.51
454.70	19449.38
455.06	18908.49
455.43	18242.84
455.79	17543.49
456.15	17021.55
456.52	16362.69
456.88	15833.72
457.24	15316.47
457.61	14975.92
457.97	14478.79
458.33	14006.94
458.70	13489.21
459.06	12939.42
459.42	12445.80
459.79	11988.22
460.15	11598.52
460.51	11203.91
460.88	10862.66
461.24	10484.90
461.60	10149.03
461.96	9816.44
462.33	9515.68
462.69	9229.90
463.05	8950.68
463.42	8704.45
463.78	8435.76
464.14	8171.51
464.50	7972.10
464.87	7750.22
465.23	7507.74
465.59	7290.77
465.95	7118.04
466.32	6908.56
466.68	6707.98
467.04	6513.24
467.40	6376.09
467.77	6210.61
468.13	6040.22
468.49	5914.30
468.85	5810.38
469.22	5657.31
469.58	5510.56
469.94	5408.28
470.30	5264.80
470.66	5149.65
471.03	5048.07
471.39	4947.19
471.75	4843.04
472.11	4730.92
472.47	4636.37
472.84	4536.66
473.20	4420.80
473.56	4311.73
473.92	4226.07
474.28	4125.66
474.65	4035.55
475.01	3976.80
475.37	3906.12
475.73	3839.18
476.09	3768.50
476.45	3717.94
476.81	3633.92
477.18	3556.68
477.54	3481.78
477.90	3426.31
478.26	3346.50
478.62	3286.58
478.98	3260.60
479.34	3212.62
479.71	3151.53
480.07	3107.76
480.43	3084.83
480.79	3009.93
481.15	2975.52
481.51	2943.22
481.87	2896.65
482.23	2844.22
482.59	2808.64
482.96	2749.43
483.32	2696.53
483.68	2649.02
484.04	2600.10
484.40	2562.89
484.76	2527.31
485.12	2471.14
485.48	2440.94
485.84	2417.54
486.20	2384.54
486.56	2349.20
486.92	2345.45
487.28	2317.60
487.64	2277.58
488.00	2235.91
488.37	2218.36
488.73	2179.97
489.09	2153.76
489.45	2130.12
489.81	2104.84
490.17	2070.20
490.53	2038.37
490.89	2010.99
491.25	1981.03
491.61	1952.71
491.97	1928.60
492.33	1907.54
492.69	1881.56
493.05	1858.85
493.41	1850.66
493.77	1821.40
494.13	1812.04
494.49	1795.19
494.85	1776.47
495.21	1751.66
495.57	1730.83
495.93	1702.74
496.29	1678.40
496.64	1663.65
497.00	1633.93
497.36	1625.27
497.72	1612.16
498.08	1608.65
498.44	1598.35
498.80	1591.56
499.16	1570.03
499.52	1553.65
499.88	1516.43
500.24	1497.24
500.60	1485.07
500.96	1484.13
501.32	1462.13
501.68	1477.58
502.03	1472.90
502.39	1461.66
502.75	1449.26
503.11	1447.39
503.47	1425.15
503.83	1419.77
504.19	1404.09
504.55	1401.98
504.91	1400.11
505.26	1398.94
505.62	1366.87
505.98	1365.47
506.34	1347.68
506.70	1330.59
507.06	1323.34
507.42	1325.45
507.78	1313.51
508.13	1311.64
508.49	1314.68
508.85	1296.89
509.21	1305.08
509.57	1304.85
509.93	1296.89
510.28	1290.81
510.64	1288.23
511.00	1264.12
511.36	1270.68
511.72	1259.91
512.07	1256.63
512.43	1253.82
512.79	1256.63
513.15	1242.82
513.51	1240.48
513.86	1225.27
514.22	1218.01
514.58	1229.95
514.94	1231.12
515.30	1227.85
515.65	1233.70
516.01	1239.31
516.37	1226.67
516.73	1222.70
517.08	1231.59
517.44	1232.06
517.80	1227.38
518.16	1220.36
518.51	1216.14
518.87	1205.14
519.23	1211.70
519.59	1207.25
519.94	1210.29
520.30	1202.57
520.66	1198.59
521.01	1177.76
521.37	1184.55
521.73	1176.59
522.09	1174.48
522.44	1174.71
522.80	1180.33
523.16	1176.59
523.51	1173.31
523.87	1179.86
524.23	1178.46
524.58	1178.23
524.94	1175.42
525.30	1186.42
525.65	1174.25
526.01	1168.40
526.37	1153.88
526.72	1145.93
527.08	1140.31
527.44	1143.12
527.79	1150.14
528.15	1142.88
528.51	1140.31
528.86	1134.22
529.22	1130.71
529.58	1128.37
529.93	1149.67
530.29	1154.59
530.65	1159.03
531.00	1163.48
531.36	1163.71
531.71	1152.01
532.07	1151.08
532.43	1148.97
532.78	1150.84
533.14	1145.69
533.49	1148.03
533.85	1143.82
534.21	1133.76
534.56	1121.58
534.92	1123.46
535.27	1120.65
535.63	1125.10
535.98	1135.63
536.34	1145.46
536.69	1149.20
537.05	1147.10
537.41	1133.29
537.76	1136.80
538.12	1133.29
538.47	1130.48
538.83	1134.93
539.18	1141.95
539.54	1138.20
539.89	1133.99
540.25	1141.01
540.60	1145.22
540.96	1153.18
541.31	1147.80
541.67	1160.91
542.02	1155.76
542.38	1145.22
542.73	1131.41
543.09	1132.59
543.44	1114.10
543.80	1111.29
544.15	1110.82
544.51	1112.69
544.86	1121.58
545.22	1134.93
545.57	1132.82
545.93	1147.10
546.28	1156.93
546.64	1147.80
546.99	1136.10
547.35	1132.35
547.70	1122.05
548.05	1123.69
548.41	1127.67
548.76	1132.59
549.12	1125.56
549.47	1126.50
549.83	1124.86
550.18	1123.93
550.53	1130.01
550.89	1147.80
551.24	1146.16
551.60	1139.84
551.95	1139.84
552.30	1135.86
552.66	1120.18
553.01	1126.50
553.37	1124.86
553.72	1123.93
554.07	1116.90
554.43	1135.86
554.78	1128.61
555.13	1122.52
555.49	1118.54
555.84	1130.71
556.19	1119.95
556.55	1119.48
556.90	1122.29
557.26	1117.84
557.61	1108.95
557.96	1100.29
558.32	1093.50
558.67	1086.48
559.02	1087.18
559.37	1089.05
559.73	1092.33
560.08	1099.12
560.43	1110.82
560.79	1111.29
561.14	1113.39
561.49	1120.18
561.85	1124.86
562.20	1122.52
562.55	1128.84
562.90	1122.75
563.26	1116.67
563.61	1104.50
563.96	1104.73
564.32	1104.50
564.67	1115.03
565.02	1118.54
565.37	1122.52
565.73	1125.80
566.08	1126.50
566.43	1117.84
566.78	1108.48
567.14	1113.16
567.49	1104.26
567.84	1097.95
568.19	1098.18
568.54	1104.26
568.90	1102.63
569.25	1107.07
569.60	1099.12
569.95	1111.05
570.31	1114.56
570.66	1111.05
571.01	1109.18
571.36	1118.54
571.71	1104.50
572.06	1108.01
572.42	1106.84
572.77	1103.33
573.12	1099.12
573.47	1093.26
573.82	1078.99
574.18	1078.28
574.53	1085.07
574.88	1087.88
575.23	1098.41
575.58	1109.88
575.93	1117.14
576.28	1120.41
576.64	1121.35
576.99	1118.31
577.34	1106.84
577.69	1103.80
578.04	1106.37
578.39	1106.14
578.74	1114.56
579.09	1121.12
579.44	1123.93
579.80	1117.61
580.15	1118.54
580.50	1108.24
580.85	1108.71
581.20	1105.20
581.55	1089.29
581.90	1084.14
582.25	1079.92
582.60	1079.92
582.95	1086.01
583.30	1095.84
583.65	1095.14
584.00	1103.80
584.35	1102.39
584.71	1093.50
585.06	1103.80
585.41	1109.65
585.76	1111.29
586.11	1122.52
586.46	1127.44
586.81	1120.65
587.16	1121.35
587.51	1119.71
587.86	1108.01
588.21	1105.90
588.56	1103.56
588.91	1100.75
589.26	1092.56
589.61	1094.20
589.96	1095.14
590.31	1099.58
590.66	1105.90
591.01	1119.24
591.36	1122.75
591.71	1125.80
592.06	1124.39
592.41	1115.27
592.76	1099.12
593.10	1099.35
593.45	1101.22
593.80	1099.12
594.15	1100.05
594.50	1109.65
594.85	1108.01
595.20	1103.33
595.55	1098.18
595.90	1090.69
596.25	1081.80
596.60	1078.99
596.95	1083.43
597.30	1093.26
597.64	1151.31
597.99	1165.35
598.34	1169.80
598.69	1160.20
599.04	1162.78
599.39	1117.61
599.74	1125.80
600.09	1126.73
600.44	1123.69
600.78	1112.69
601.13	1099.12
601.48	1088.35
601.83	1086.48
602.18	1092.09
602.53	1094.20
602.88	1108.01
603.22	1095.60
603.57	1087.65
603.92	1088.82
604.27	1088.12
604.62	1076.88
604.97	1084.60
605.31	1085.54
605.66	1081.80
606.01	1081.09
606.36	1082.03
606.71	1082.50
607.05	1069.16
607.40	1073.60
607.75	1080.39
608.10	1082.97
608.44	1087.41
608.79	1107.78
609.14	1102.63
609.49	1103.56
609.84	1108.95
610.18	1093.50
610.53	1091.39
610.88	1100.05
611.23	1097.71
611.57	1091.16
611.92	1094.20
612.27	1093.50
612.62	1081.33
612.96	1076.41
613.31	1077.58
613.66	1085.77
614.00	1085.54
614.35	1089.75
614.70	1108.95
615.05	1117.14
615.39	1123.93
615.74	1122.75
616.09	1119.95
616.43	1106.61
616.78	1098.41
617.13	1086.48
617.47	1089.75
617.82	1097.24
618.17	1090.92
618.51	1093.03
618.86	1105.20
619.21	1097.95
619.55	1094.90
619.90	1096.78
620.25	1096.78
620.59	1092.09
620.94	1091.63
621.29	1093.03
621.63	1096.31
621.98	1090.92
622.32	1078.99
622.67	1084.14
623.02	1083.43
623.36	1088.82
623.71	1101.46
624.05	1099.82
624.40	1099.12
624.75	1103.56
625.09	1099.12
625.44	1093.73
625.78	1115.50
626.13	1111.99
626.48	1112.92
626.82	1112.69
627.17	1106.14
627.51	1092.56
627.86	1090.69
628.20	1078.52
628.55	1074.31
628.89	1072.20
629.24	1075.48
629.58	1081.09
629.93	1085.54
630.28	1092.56
630.62	1104.97
630.97	1108.71
631.31	1106.37
631.66	1109.41
632.00	1105.90
632.35	1094.67
632.69	1090.46
633.04	1092.56
633.38	1098.65
633.73	1098.41
634.07	1102.16
634.42	1094.20
634.76	1090.69
635.11	1084.84
635.45	1083.90
635.79	1090.22
636.14	1103.80
636.48	1106.14
636.83	1105.44
637.17	1101.69
637.52	1100.29
637.86	1096.78
638.21	1099.35
638.55	1099.12
638.89	1096.07
639.24	1098.88
639.58	1099.82
639.93	1106.84
640.27	1107.31
640.61	1112.22
640.96	1101.46
641.30	1098.41
641.65	1090.46
641.99	1089.29
642.33	1091.63
642.68	1104.26
643.02	1106.37
643.37	1103.80
643.71	1096.54
644.05	1099.35
644.40	1085.77
644.74	1089.29
645.08	1090.46
645.43	1094.67
645.77	1081.33
646.11	1077.82
646.46	1063.54
646.80	1061.90
647.14	1069.86
647.49	1082.73
647.83	1093.97
648.17	1107.78
648.52	1107.07
648.86	1105.90
649.20	1105.67
649.55	1105.90
649.89	1099.82
650.23	1099.82
650.57	1105.44
650.92	1113.86
651.26	1121.12
651.60	1112.22
651.95	1123.22
652.29	1118.78
652.63	1109.41
652.97	1099.12
653.32	1103.33
653.66	1094.67
654.00	1088.82
654.34	1091.16
654.69	1085.54
655.03	1082.50
655.37	1078.52
655.71	1076.65
656.05	1066.11
656.40	1078.28
656.74	1086.94
657.08	1090.46
657.42	1092.56
657.76	1099.82
658.11	1096.54
658.45	1099.12
658.79	1110.58
659.13	1112.69
659.47	1119.95
659.82	1118.54
660.16	1119.95
660.50	1100.99
660.84	1097.24
661.18	1090.69
661.52	1085.77
661.87	1080.16
662.21	1084.37
662.55	1080.39
662.89	1080.39
663.23	1079.46
663.57	1076.41
663.91	1078.28
664.25	1090.22
664.60	1092.80
664.94	1098.41
665.28	1099.58
665.62	1100.75
665.96	1103.09
666.30	1107.07
666.64	1108.71
666.98	1114.80
667.32	1116.67
667.66	1109.41
668.01	1095.37
668.35	1097.24
668.69	1095.37
669.03	1092.33
669.37	1083.67
669.71	1090.22
670.05	1089.75
670.39	1079.92
670.73	1075.01
671.07	1080.86
671.41	1080.16
671.75	1067.28
672.09	1082.50
672.43	1082.50
672.77	1083.43
673.11	1081.80
673.45	1095.84
673.79	1087.65
674.13	1095.37
674.47	1089.29
674.81	1087.18
675.15	1080.39
675.49	1083.90
675.83	1081.56
676.17	1082.03
676.51	1085.07
676.85	1079.92
677.19	1082.03
677.53	1084.14
677.87	1084.84
678.21	1081.56
678.55	1088.82
678.89	1084.37
679.23	1078.52
679.57	1077.58
679.90	1075.71
680.24	1072.20
680.58	1071.73
680.92	1081.09
681.26	1082.50
681.60	1093.03
681.94	1095.14
682.28	1099.35
682.62	1094.43
682.96	1102.39
683.29	1099.35
683.63	1108.71
683.97	1103.80
684.31	1101.69
684.65	1096.78
684.99	1096.31
685.33	1086.71
685.67	1097.24
686.00	1110.12
686.34	1114.33
686.68	1114.80
687.02	1110.58
687.36	1103.33
687.70	1088.35
688.03	1080.16
688.37	1080.86
688.71	1094.43
689.05	1097.24
689.39	1097.01
689.72	1104.73
690.06	1105.44
690.40	1091.63
690.74	1083.67
691.08	1094.90
691.41	1090.46
691.75	1099.12
692.09	1106.37
692.43	1105.90
692.76	1103.09
693.10	1107.31
693.44	1086.94
693.78	1090.22
694.11	1079.22
694.45	1067.99
694.79	1071.73
695.13	1079.92
695.46	1073.14
695.80	1081.56
696.14	1089.99
696.48	1094.43
696.81	1100.05
697.15	1103.80
697.49	1107.54
697.82	1109.88
698.16	1105.44
698.50	1098.18
698.83	1097.24
699.17	1101.22
699.51	1103.56
699.84	1096.31
700.18	1098.41
700.52	1098.18
700.85	1098.41
701.19	1090.69
701.53	1090.69
701.86	1098.88
702.20	1089.75
702.54	1086.01
702.87	1085.54
703.21	1082.97
703.55	1078.28
703.88	1079.92
704.22	1091.63
704.55	1098.18
704.89	1102.39
705.23	1100.29
705.56	1106.14
705.90	1100.75
706.23	1088.12
706.57	1092.80
706.91	1092.09
707.24	1084.84
707.58	1078.75
707.91	1080.16
708.25	1075.01
708.58	1069.62
708.92	1069.16
709.26	1067.52
709.59	1067.52
709.93	1067.99
710.26	1083.67
710.60	1088.82
710.93	1087.65
711.27	1104.26
711.60	1104.97
711.94	1091.63
712.27	1092.09
712.61	1101.92
712.94	1089.52
713.28	1089.75
713.61	1090.22
713.95	1093.50
714.28	1083.43
714.62	1087.41
714.95	1091.39
715.29	1090.92
715.62	1092.56
715.96	1099.58
716.29	1099.82
716.63	1081.80
716.96	1086.71
717.29	1091.63
717.63	1092.09
717.96	1088.82
718.30	1104.03
718.63	1100.75
718.97	1094.20
719.30	1091.16
719.63	1092.80
719.97	1098.65
720.30	1100.75
720.64	1100.29
720.97	1100.05
721.30	1103.80
721.64	1096.54
721.97	1097.24
722.31	1088.12
722.64	1083.90
722.97	1068.22
723.31	1069.16
723.64	1065.65
723.97	1073.84
724.31	1080.39
724.64	1088.35
724.98	1094.90
725.31	1098.18
725.64	1092.56
725.98	1086.24
726.31	1082.73
726.64	1067.75
726.97	1064.94
727.31	1074.07
727.64	1073.60
727.97	1076.18
728.31	1088.58
728.64	1090.46
728.97	1086.01
729.31	1081.33
729.64	1083.43
729.97	1074.77
730.30	1076.88
730.64	1072.43
730.97	1078.52
731.30	1076.41
731.63	1071.26
731.97	1065.18
732.30	1067.52
732.63	1073.84
732.96	1077.58
733.30	1088.12
733.63	1093.50
733.96	1096.07
734.29	1091.63
734.63	1081.09
734.96	1083.20
735.29	1077.11
735.62	1075.01
735.95	1075.24
736.29	1099.82
736.62	1105.67
736.95	1106.61
737.28	1106.37
737.61	1102.39
737.94	1086.24
738.28	1090.69
738.61	1100.29
738.94	1106.84
739.27	1112.22
739.60	1112.92
739.93	1098.88
740.27	1082.97
740.60	1080.86
740.93	1083.90
741.26	1082.73
741.59	1083.67
741.92	1090.22
742.25	1086.94
742.58	1082.03
742.91	1077.82
743.25	1074.07
743.58	1074.77
743.91	1067.75
744.24	1054.88
744.57	1060.03
744.90	1061.67
745.23	1055.58
745.56	1062.37
745.89	1077.11
746.22	1071.73
746.55	1069.16
746.88	1060.50
747.21	1065.65
747.54	1051.37
747.87	1052.77
748.20	1060.96
748.53	1078.05
748.87	1076.88
749.20	1089.29
749.53	1096.78
749.86	1089.52
750.19	1091.86
750.52	1089.29
750.85	1091.86
751.18	1093.03
751.51	1097.24
751.84	1089.75
752.16	1087.41
752.49	1086.24
752.82	1086.94
753.15	1081.80
753.48	1088.58
753.81	1096.31
754.14	1095.84
754.47	1095.37
754.80	1104.50
755.13	1102.39
755.46	1100.05
755.79	1099.35
756.12	1103.80
756.45	1103.80
756.78	1096.78
757.11	1095.14
757.43	1093.97
757.76	1080.86
758.09	1068.69
758.42	1078.52
758.75	1077.35
759.08	1075.24
759.41	1083.20
759.74	1094.43
760.07	1098.41
760.39	1103.56
760.72	1101.22
761.05	1102.86
761.38	1096.78
761.71	1093.97
762.04	1083.90
762.36	1082.03
762.69	1075.48
763.02	1076.88
763.35	1076.88
763.68	1084.14
764.01	1086.48
