SpectraSuite Data File
++++++++++++++++++++++++++++++++++++
Date: Mon Aug 26 10:24:46 PDT 2019
User: corrico
Dark Spectrum Present: No
Reference Spectrum Present: No
Number of Sampled Component Spectra: 1
Spectrometers: USB2+H06089
Integration Time (usec): 10000 (USB2+H06089)
Spectra Averaged: 2 (USB2+H06089)
Boxcar Smoothing: 2 (USB2+H06089)
Correct for Electrical Dark: No (USB2+H06089)
Strobe/Lamp Enabled: No (USB2+H06089)
Correct for Detector Non-linearity: No (USB2+H06089)
Correct for Stray Light: No (USB2+H06089)
Number of Pixels in Processed Spectrum: 2048
>>>>>Begin Processed Spectral Data<<<<<
339.70	1053.24
340.07	1053.24
340.45	1015.56
340.82	993.32
341.19	973.43
341.57	950.49
341.94	936.21
342.31	921.23
342.69	917.96
343.06	903.21
343.43	885.19
343.81	894.32
344.18	893.38
344.55	888.94
344.93	900.87
345.30	911.87
345.67	911.87
346.04	916.32
346.42	925.68
346.79	934.11
347.16	951.19
347.54	969.92
347.91	986.30
348.28	989.81
348.65	1005.96
349.03	1015.56
349.40	1013.69
349.77	1020.47
350.14	1037.09
350.52	1037.79
350.89	1043.88
351.26	1057.45
351.63	1064.48
352.01	1069.62
352.38	1065.41
352.75	1066.82
353.12	1072.43
353.50	1087.65
353.87	1093.73
354.24	1097.24
354.61	1100.99
354.98	1102.39
355.36	1095.14
355.73	1099.12
356.10	1111.05
356.47	1110.35
356.84	1101.46
357.22	1100.75
357.59	1086.94
357.96	1092.80
358.33	1090.46
358.70	1104.50
359.08	1104.03
359.45	1118.07
359.82	1102.63
360.19	1104.97
360.56	1104.97
360.94	1106.14
361.31	1099.12
361.68	1102.63
362.05	1112.69
362.42	1110.12
362.79	1102.86
363.16	1096.07
363.54	1103.09
363.91	1095.14
364.28	1083.67
364.65	1087.41
365.02	1096.31
365.39	1089.52
365.76	1084.14
366.14	1092.56
366.51	1087.41
366.88	1090.22
367.25	1100.52
367.62	1105.67
367.99	1109.65
368.36	1119.95
368.73	1120.41
369.10	1119.48
369.48	1112.69
369.85	1109.88
370.22	1110.35
370.59	1108.48
370.96	1103.09
371.33	1105.90
371.70	1104.97
372.07	1099.12
372.44	1097.01
372.81	1096.07
373.18	1095.14
373.55	1092.33
373.93	1093.50
374.30	1097.48
374.67	1107.07
375.04	1113.16
375.41	1119.48
375.78	1119.71
376.15	1119.95
376.52	1112.46
376.89	1113.39
377.26	1112.22
377.63	1112.46
378.00	1109.88
378.37	1112.46
378.74	1111.05
379.11	1108.48
379.48	1098.18
379.85	1093.73
380.22	1097.01
380.59	1100.05
380.96	1097.01
381.33	1107.54
381.70	1114.33
382.07	1108.48
382.44	1116.20
382.81	1126.03
383.18	1128.37
383.55	1133.52
383.92	1123.46
384.29	1113.86
384.66	1110.35
385.03	1108.95
385.40	1104.26
385.77	1117.61
386.14	1118.54
386.51	1115.97
386.88	1113.16
387.25	1111.75
387.62	1105.67
387.99	1108.95
388.36	1112.22
388.73	1115.73
389.10	1113.39
389.46	1110.12
389.83	1099.58
390.20	1100.05
390.57	1104.97
390.94	1107.54
391.31	1108.71
391.68	1111.05
392.05	1107.78
392.42	1104.73
392.79	1113.16
393.16	1122.52
393.53	1135.16
393.89	1142.65
394.26	1145.69
394.63	1148.73
395.00	1155.29
395.37	1145.69
395.74	1138.44
396.11	1140.31
396.48	1134.46
396.84	1128.84
397.21	1136.80
397.58	1151.78
397.95	1161.37
398.32	1171.67
398.69	1180.33
399.06	1177.52
399.42	1174.01
399.79	1160.91
400.16	1158.33
400.53	1163.95
400.90	1180.10
401.27	1188.06
401.64	1202.80
402.00	1208.65
402.37	1216.14
402.74	1221.53
403.11	1231.82
403.48	1241.65
403.84	1253.59
404.21	1266.23
404.58	1283.32
404.95	1306.72
405.32	1335.51
405.68	1355.40
406.05	1368.51
406.42	1397.53
406.79	1407.13
407.16	1417.66
407.52	1449.73
407.89	1488.58
408.26	1510.11
408.63	1546.63
408.99	1596.95
409.36	1644.23
409.73	1686.59
410.10	1724.51
410.47	1783.72
410.83	1826.32
411.20	1878.98
411.57	1927.43
411.94	1997.88
412.30	2058.97
412.67	2145.34
413.04	2233.57
413.40	2350.60
413.77	2450.31
414.14	2574.59
414.51	2691.85
414.87	2799.98
415.24	2925.44
415.61	3079.21
415.97	3215.66
416.34	3373.65
416.71	3559.49
417.08	3731.75
417.44	3918.06
417.81	4147.43
418.18	4388.04
418.54	4626.77
418.91	4895.00
419.28	5180.78
419.64	5468.66
420.01	5775.51
420.38	6082.58
420.74	6414.24
421.11	6809.79
421.48	7180.06
421.84	7563.68
422.21	7974.44
422.58	8419.61
422.94	8886.55
423.31	9364.48
423.68	9932.77
424.04	10552.77
424.41	11198.29
424.77	11790.45
425.14	12444.63
425.51	13073.53
425.87	13775.69
426.24	14484.64
426.61	15310.38
426.97	16258.53
427.34	17122.89
427.70	18096.09
428.07	18967.94
428.44	19913.04
428.80	20848.79
429.17	21958.67
429.53	22968.61
429.90	24301.08
430.27	25414.47
430.63	26567.89
431.00	27867.82
431.36	29318.49
431.73	30504.67
432.09	31871.07
432.46	33145.50
432.83	34335.42
433.19	35447.18
433.56	36743.84
433.92	38106.03
434.29	39409.24
434.65	40789.22
435.02	41963.23
435.38	43138.65
435.75	43979.60
436.11	45229.45
436.48	46142.26
436.84	47083.62
437.21	47980.51
437.57	48919.77
437.94	49611.63
438.30	50329.01
438.67	50872.01
439.03	51206.24
439.40	51457.61
439.76	51320.69
440.13	51031.87
440.49	50968.68
440.86	50528.89
441.22	50099.87
441.59	49543.06
441.95	49071.91
442.32	48129.37
442.68	47410.13
443.05	46490.53
443.41	45682.58
443.78	44580.89
444.14	43573.52
444.51	42413.08
444.87	41525.08
445.24	40341.24
445.60	39297.83
445.96	38280.16
446.33	37404.10
446.69	36220.49
447.06	35291.53
447.42	34237.59
447.79	33084.17
448.15	32109.81
448.51	31216.43
448.88	30404.96
449.24	29491.22
449.61	28881.27
449.97	28085.02
450.33	27344.48
450.70	26480.12
451.06	25951.86
451.43	25253.68
451.79	24726.59
452.15	24195.29
452.52	23663.05
452.88	23080.72
453.24	22560.19
453.61	21936.20
453.97	21302.15
454.34	20689.87
454.70	20117.61
455.06	19463.43
455.43	18780.22
455.79	18067.06
456.15	17456.89
456.52	16793.34
456.88	16287.79
457.24	15707.80
457.61	15289.08
457.97	14826.59
458.33	14334.38
458.70	13791.61
459.06	13302.67
459.42	12840.65
459.79	12351.94
460.15	11944.69
460.51	11527.84
460.88	11164.82
461.24	10752.19
461.60	10441.13
461.96	10120.48
462.33	9777.59
462.69	9454.36
463.05	9153.60
463.42	8854.25
463.78	8550.21
464.14	8322.71
464.50	8117.45
464.87	7890.41
465.23	7656.59
465.59	7454.61
465.95	7276.96
466.32	7068.65
466.68	6893.58
467.04	6694.87
467.40	6514.65
467.77	6331.15
468.13	6171.06
468.49	6016.35
468.85	5893.00
469.22	5770.82
469.58	5634.37
469.94	5506.58
470.30	5377.38
470.66	5275.33
471.03	5169.78
471.39	5084.35
471.75	5001.96
472.11	4896.17
472.47	4791.54
472.84	4674.52
473.20	4539.70
473.56	4414.95
473.92	4318.29
474.28	4215.30
474.65	4129.88
475.01	4074.64
475.37	3982.19
475.73	3898.40
476.09	3849.01
476.45	3785.58
476.81	3696.17
477.18	3639.30
477.54	3564.64
477.90	3465.40
478.26	3390.27
478.62	3323.09
478.98	3268.79
479.34	3243.28
479.71	3208.41
480.07	3177.98
480.43	3135.15
480.79	3075.93
481.15	3015.55
481.51	2964.05
481.87	2911.16
482.23	2862.48
482.59	2838.60
482.96	2780.56
483.32	2756.92
483.68	2710.57
484.04	2682.25
484.40	2636.85
484.76	2614.85
485.12	2561.01
485.48	2535.03
485.84	2502.97
486.20	2453.82
486.56	2400.45
486.92	2371.66
487.28	2336.79
487.64	2286.47
488.00	2262.36
488.37	2246.68
488.73	2223.51
489.09	2196.12
489.45	2168.97
489.81	2134.10
490.17	2100.16
490.53	2066.69
490.89	2033.69
491.25	2022.93
491.61	2012.86
491.97	2001.63
492.33	1968.39
492.69	1948.26
493.05	1923.92
493.41	1895.37
493.77	1870.32
494.13	1861.66
494.49	1836.62
494.85	1815.79
495.21	1793.55
495.57	1771.55
495.93	1742.76
496.29	1714.91
496.64	1678.63
497.00	1664.35
497.36	1636.27
497.72	1616.14
498.08	1611.69
498.44	1616.37
498.80	1582.67
499.16	1571.67
499.52	1551.54
499.88	1523.45
500.24	1496.07
500.60	1493.96
500.96	1487.64
501.32	1486.47
501.68	1478.75
502.03	1469.86
502.39	1453.00
502.75	1427.96
503.11	1420.71
503.47	1410.64
503.83	1402.68
504.19	1398.70
504.55	1400.58
504.91	1388.64
505.26	1369.45
505.62	1372.72
505.98	1370.15
506.34	1365.94
506.70	1353.30
507.06	1358.21
507.42	1346.51
507.78	1343.23
508.13	1325.91
508.49	1325.91
508.85	1321.70
509.21	1313.27
509.57	1291.74
509.93	1292.44
510.28	1293.85
510.64	1291.27
511.00	1279.80
511.36	1284.25
511.72	1284.95
512.07	1271.61
512.43	1277.93
512.79	1280.27
513.15	1285.66
513.51	1288.23
513.86	1294.32
514.22	1284.72
514.58	1281.68
514.94	1269.04
515.30	1252.65
515.65	1234.63
516.01	1221.76
516.37	1219.89
516.73	1215.44
517.08	1204.67
517.44	1203.50
517.80	1194.38
518.16	1194.14
518.51	1188.06
518.87	1194.38
519.23	1187.59
519.59	1205.61
519.94	1197.65
520.30	1195.78
520.66	1200.69
521.01	1214.27
521.37	1203.97
521.73	1198.59
522.09	1200.93
522.44	1188.99
522.80	1189.46
523.16	1189.69
523.51	1191.80
523.87	1192.50
524.23	1198.59
524.58	1189.69
524.94	1182.67
525.30	1181.97
525.65	1180.33
526.01	1181.27
526.37	1172.84
526.72	1168.86
527.08	1163.25
527.44	1154.35
527.79	1136.80
528.15	1137.73
528.51	1143.59
528.86	1141.25
529.22	1139.84
529.58	1154.59
529.93	1156.22
530.29	1150.14
530.65	1155.76
531.00	1164.42
531.36	1156.22
531.71	1164.42
532.07	1164.18
532.43	1157.16
532.78	1155.99
533.14	1152.95
533.49	1137.27
533.85	1145.69
534.21	1155.76
534.56	1143.12
534.92	1157.16
535.27	1162.08
535.63	1151.08
535.98	1137.50
536.34	1145.22
536.69	1130.71
537.05	1132.82
537.41	1132.12
537.76	1138.67
538.12	1137.03
538.47	1133.29
538.83	1123.93
539.18	1125.56
539.54	1125.10
539.89	1124.63
540.25	1127.44
540.60	1130.01
540.96	1139.84
541.31	1139.14
541.67	1139.84
542.02	1146.39
542.38	1136.10
542.73	1131.18
543.09	1142.18
543.44	1133.29
543.80	1120.65
544.15	1142.88
544.51	1143.12
544.86	1124.86
545.22	1128.61
545.57	1123.22
545.93	1116.67
546.28	1102.39
546.64	1102.39
546.99	1104.03
547.35	1116.67
547.70	1120.18
548.05	1129.54
548.41	1127.44
548.76	1121.58
549.12	1117.84
549.47	1113.39
549.83	1105.44
550.18	1106.37
550.53	1114.33
550.89	1111.29
551.24	1103.56
551.60	1111.29
551.95	1111.52
552.30	1105.67
552.66	1104.97
553.01	1110.82
553.37	1112.92
553.72	1115.27
554.07	1114.33
554.43	1123.22
554.78	1114.56
555.13	1099.12
555.49	1107.78
555.84	1106.37
556.19	1104.73
556.55	1108.01
556.90	1112.92
557.26	1100.05
557.61	1104.26
557.96	1100.52
558.32	1093.97
558.67	1103.56
559.02	1107.31
559.37	1108.95
559.73	1116.90
560.08	1130.48
560.43	1127.44
560.79	1132.59
561.14	1130.24
561.49	1118.31
561.85	1109.18
562.20	1109.88
562.55	1113.16
562.90	1105.44
563.26	1109.18
563.61	1102.86
563.96	1100.75
564.32	1099.58
564.67	1108.01
565.02	1114.33
565.37	1127.67
565.73	1122.52
566.08	1112.22
566.43	1111.52
566.78	1100.99
567.14	1105.20
567.49	1104.50
567.84	1115.03
568.19	1118.31
568.54	1117.14
568.90	1106.14
569.25	1110.35
569.60	1105.20
569.95	1098.65
570.31	1097.95
570.66	1100.52
571.01	1101.22
571.36	1103.09
571.71	1110.82
572.06	1114.10
572.42	1109.41
572.77	1115.50
573.12	1109.65
573.47	1102.86
573.82	1104.73
574.18	1100.99
574.53	1092.56
574.88	1093.50
575.23	1104.97
575.58	1107.78
575.93	1114.80
576.28	1117.37
576.64	1123.69
576.99	1112.69
577.34	1109.41
577.69	1104.50
578.04	1112.69
578.39	1110.82
578.74	1096.54
579.09	1098.88
579.44	1102.63
579.80	1093.50
580.15	1085.77
580.50	1107.31
580.85	1111.52
581.20	1108.01
581.55	1102.39
581.90	1109.65
582.25	1103.33
582.60	1097.01
582.95	1109.41
583.30	1114.33
583.65	1110.58
584.00	1115.27
584.35	1123.22
584.71	1116.67
585.06	1114.33
585.41	1115.27
585.76	1109.18
586.11	1099.35
586.46	1104.03
586.81	1109.41
587.16	1118.54
587.51	1124.86
587.86	1124.86
588.21	1118.54
588.56	1116.67
588.91	1100.99
589.26	1098.41
589.61	1104.26
589.96	1100.99
590.31	1099.35
590.66	1096.07
591.01	1096.78
591.36	1088.12
591.71	1091.63
592.06	1098.65
592.41	1109.18
592.76	1100.29
593.10	1098.18
593.45	1097.01
593.80	1086.71
594.15	1089.99
594.50	1087.18
594.85	1097.48
595.20	1100.75
595.55	1105.44
595.90	1103.09
596.25	1110.12
596.60	1116.67
596.95	1114.56
597.30	1112.22
597.64	1149.44
597.99	1154.35
598.34	1139.84
598.69	1138.20
599.04	1135.86
599.39	1096.31
599.74	1092.80
600.09	1097.24
600.44	1097.01
600.78	1100.52
601.13	1102.39
601.48	1109.88
601.83	1112.92
602.18	1115.03
602.53	1114.33
602.88	1114.80
603.22	1102.39
603.57	1102.86
603.92	1104.50
604.27	1105.67
604.62	1098.41
604.97	1111.99
605.31	1104.97
605.66	1092.56
606.01	1089.05
606.36	1090.92
606.71	1071.50
607.05	1078.05
607.40	1086.71
607.75	1087.18
608.10	1088.35
608.44	1104.26
608.79	1100.75
609.14	1117.37
609.49	1118.78
609.84	1118.78
610.18	1109.18
610.53	1108.48
610.88	1096.54
611.23	1100.29
611.57	1102.16
611.92	1103.56
612.27	1104.03
612.62	1102.16
612.96	1103.33
613.31	1103.33
613.66	1110.12
614.00	1111.29
614.35	1119.71
614.70	1121.58
615.05	1125.56
615.39	1125.10
615.74	1126.97
616.09	1109.65
616.43	1105.20
616.78	1100.05
617.13	1090.69
617.47	1082.26
617.82	1086.24
618.17	1087.88
618.51	1093.03
618.86	1103.33
619.21	1111.75
619.55	1121.58
619.90	1114.33
620.25	1106.61
620.59	1104.50
620.94	1103.09
621.29	1097.48
621.63	1102.86
621.98	1103.33
622.32	1097.24
622.67	1091.39
623.02	1090.22
623.36	1088.35
623.71	1092.80
624.05	1097.01
624.40	1098.41
624.75	1107.54
625.09	1107.07
625.44	1101.69
625.78	1102.63
626.13	1101.92
626.48	1090.22
626.82	1086.94
627.17	1088.12
627.51	1085.77
627.86	1094.20
628.20	1092.56
628.55	1099.58
628.89	1100.75
629.24	1104.97
629.58	1105.20
629.93	1109.88
630.28	1112.46
630.62	1109.18
630.97	1103.09
631.31	1093.26
631.66	1098.18
632.00	1092.09
632.35	1090.69
632.69	1090.92
633.04	1099.35
633.38	1087.65
633.73	1088.35
634.07	1091.86
634.42	1090.69
634.76	1088.12
635.11	1098.41
635.45	1100.29
635.79	1103.80
636.14	1103.09
636.48	1100.52
636.83	1101.22
637.17	1104.97
637.52	1102.16
637.86	1105.67
638.21	1111.29
638.55	1107.54
638.89	1100.99
639.24	1095.84
639.58	1096.31
639.93	1087.18
640.27	1074.07
640.61	1077.58
640.96	1086.48
641.30	1087.65
641.65	1086.01
641.99	1094.67
642.33	1088.58
642.68	1077.82
643.02	1078.28
643.37	1085.77
643.71	1088.82
644.05	1087.18
644.40	1086.71
644.74	1083.20
645.08	1085.31
645.43	1079.22
645.77	1085.77
646.11	1093.03
646.46	1096.78
646.80	1086.48
647.14	1095.37
647.49	1086.71
647.83	1081.33
648.17	1072.20
648.52	1072.20
648.86	1069.16
649.20	1079.22
649.55	1080.39
649.89	1082.50
650.23	1102.16
650.57	1104.50
650.92	1101.46
651.26	1106.37
651.60	1120.41
651.95	1101.69
652.29	1097.95
652.63	1099.35
652.97	1097.24
653.32	1078.28
653.66	1074.77
654.00	1076.88
654.34	1069.16
654.69	1063.07
655.03	1068.45
655.37	1080.16
655.71	1085.77
656.05	1088.58
656.40	1097.48
656.74	1100.75
657.08	1093.73
657.42	1087.88
657.76	1089.05
658.11	1082.50
658.45	1076.65
658.79	1078.52
659.13	1079.92
659.47	1078.28
659.82	1088.12
660.16	1091.86
660.50	1089.52
660.84	1091.86
661.18	1100.99
661.52	1101.22
661.87	1107.78
662.21	1116.20
662.55	1103.80
662.89	1095.60
663.23	1087.41
663.57	1087.41
663.91	1077.11
664.25	1083.43
664.60	1087.88
664.94	1095.37
665.28	1084.84
665.62	1086.24
665.96	1096.31
666.30	1090.46
666.64	1084.14
666.98	1094.43
667.32	1105.90
667.66	1099.82
668.01	1096.54
668.35	1099.12
668.69	1098.88
669.03	1092.33
669.37	1083.90
669.71	1094.90
670.05	1097.48
670.39	1087.41
670.73	1091.86
671.07	1105.67
671.41	1093.73
671.75	1085.54
672.09	1088.82
672.43	1083.20
672.77	1068.92
673.11	1070.80
673.45	1076.65
673.79	1073.14
674.13	1081.09
674.47	1097.24
674.81	1102.86
675.15	1100.99
675.49	1105.44
675.83	1096.78
676.17	1094.43
676.51	1089.05
676.85	1076.65
677.19	1077.82
677.53	1075.71
677.87	1069.16
678.21	1071.26
678.55	1087.41
678.89	1086.94
679.23	1097.24
679.57	1088.82
679.90	1090.46
680.24	1088.82
680.58	1085.31
680.92	1077.58
681.26	1088.35
681.60	1093.73
681.94	1091.86
682.28	1100.75
682.62	1099.82
682.96	1099.12
683.29	1094.20
683.63	1095.14
683.97	1090.69
684.31	1100.75
684.65	1098.88
684.99	1103.33
685.33	1103.09
685.67	1100.05
686.00	1095.84
686.34	1087.41
686.68	1086.24
687.02	1091.16
687.36	1097.01
687.70	1088.12
688.03	1099.35
688.37	1086.94
688.71	1078.28
689.05	1071.73
689.39	1072.20
689.72	1065.41
690.06	1071.26
690.40	1073.84
690.74	1073.37
691.08	1075.01
691.41	1073.37
691.75	1072.67
692.09	1069.62
692.43	1072.43
692.76	1065.41
693.10	1060.96
693.44	1067.75
693.78	1075.24
694.11	1069.86
694.45	1088.12
694.79	1088.35
695.13	1083.43
695.46	1080.86
695.80	1090.22
696.14	1075.94
696.48	1080.86
696.81	1089.75
697.15	1088.12
697.49	1089.52
697.82	1088.82
698.16	1096.31
698.50	1095.84
698.83	1098.41
699.17	1095.37
699.51	1097.48
699.84	1097.71
700.18	1085.31
700.52	1083.67
700.85	1080.63
701.19	1082.26
701.53	1077.35
701.86	1089.52
702.20	1094.67
702.54	1100.52
702.87	1099.82
703.21	1100.29
703.55	1089.29
703.88	1083.90
704.22	1085.31
704.55	1084.84
704.89	1072.43
705.23	1076.18
705.56	1075.24
705.90	1064.24
706.23	1070.56
706.57	1089.05
706.91	1094.43
707.24	1098.18
707.58	1104.50
707.91	1098.88
708.25	1087.18
708.58	1089.99
708.92	1089.99
709.26	1091.16
709.59	1093.03
709.93	1098.65
710.26	1099.12
710.60	1095.84
710.93	1097.95
711.27	1096.07
711.60	1087.88
711.94	1088.82
712.27	1081.56
712.61	1074.77
712.94	1070.80
713.28	1078.75
713.61	1074.77
713.95	1086.24
714.28	1092.56
714.62	1102.63
714.95	1107.54
715.29	1100.05
715.62	1091.63
715.96	1086.24
716.29	1080.86
716.63	1074.77
716.96	1073.84
717.29	1084.14
717.63	1083.90
717.96	1085.31
718.30	1090.22
718.63	1089.52
718.97	1086.94
719.30	1094.67
719.63	1090.92
719.97	1089.52
720.30	1096.78
720.64	1096.54
720.97	1096.31
721.30	1095.60
721.64	1100.05
721.97	1089.52
722.31	1085.31
722.64	1078.28
722.97	1083.43
723.31	1063.54
723.64	1070.09
723.97	1065.88
724.31	1068.69
724.64	1068.22
724.98	1078.75
725.31	1076.88
725.64	1084.84
725.98	1078.75
726.31	1085.54
726.64	1083.90
726.97	1086.48
727.31	1086.71
727.64	1091.86
727.97	1089.99
728.31	1093.73
728.64	1093.50
728.97	1091.86
729.31	1094.20
729.64	1085.54
729.97	1090.46
730.30	1088.58
730.64	1084.84
730.97	1076.18
731.30	1079.46
731.63	1072.43
731.97	1072.43
732.30	1078.05
732.63	1089.29
732.96	1090.22
733.30	1081.33
733.63	1078.99
733.96	1078.99
734.29	1068.92
734.63	1065.88
734.96	1071.26
735.29	1070.56
735.62	1062.84
735.95	1067.99
736.29	1075.94
736.62	1087.18
736.95	1088.82
737.28	1095.14
737.61	1097.95
737.94	1087.88
738.28	1089.05
738.61	1088.58
738.94	1083.90
739.27	1077.58
739.60	1079.92
739.93	1077.11
740.27	1069.86
740.60	1071.03
740.93	1070.80
741.26	1078.05
741.59	1072.20
741.92	1084.14
742.25	1095.84
742.58	1095.60
742.91	1095.37
743.25	1091.39
743.58	1090.69
743.91	1081.80
744.24	1095.37
744.57	1093.03
744.90	1099.58
745.23	1109.41
745.56	1105.44
745.89	1099.58
746.22	1099.58
746.55	1097.71
746.88	1086.94
747.21	1085.31
747.54	1075.24
747.87	1082.97
748.20	1074.54
748.53	1073.60
748.87	1079.22
749.20	1081.33
749.53	1072.20
749.86	1083.20
750.19	1083.67
750.52	1090.69
750.85	1093.73
751.18	1092.09
751.51	1085.31
751.84	1085.31
752.16	1076.88
752.49	1075.71
752.82	1085.07
753.15	1096.07
753.48	1093.26
753.81	1089.52
754.14	1087.18
754.47	1087.18
754.80	1074.77
755.13	1083.90
755.46	1086.01
755.79	1093.26
756.12	1084.14
756.45	1087.18
756.78	1081.56
757.11	1077.82
757.43	1079.46
757.76	1075.94
758.09	1074.07
758.42	1070.09
758.75	1071.73
759.08	1061.67
759.41	1059.79
759.74	1065.88
760.07	1074.77
760.39	1079.92
760.72	1084.37
761.05	1080.39
761.38	1078.99
761.71	1076.88
762.04	1078.75
762.36	1086.94
762.69	1092.09
763.02	1079.92
763.35	1074.77
763.68	1077.35
764.01	1061.67
