SpectraSuite Data File
++++++++++++++++++++++++++++++++++++
Date: Mon Aug 26 10:24:46 PDT 2019
User: corrico
Dark Spectrum Present: No
Reference Spectrum Present: No
Number of Sampled Component Spectra: 1
Spectrometers: USB2+H06089
Integration Time (usec): 10000 (USB2+H06089)
Spectra Averaged: 2 (USB2+H06089)
Boxcar Smoothing: 2 (USB2+H06089)
Correct for Electrical Dark: No (USB2+H06089)
Strobe/Lamp Enabled: No (USB2+H06089)
Correct for Detector Non-linearity: No (USB2+H06089)
Correct for Stray Light: No (USB2+H06089)
Number of Pixels in Processed Spectrum: 2048
>>>>>Begin Processed Spectral Data<<<<<
339.70	1039.20
340.07	1039.20
340.45	1004.32
340.82	981.85
341.19	955.17
341.57	928.02
341.94	910.70
342.31	892.68
342.69	891.04
343.06	888.94
343.43	882.38
343.81	891.51
344.18	907.89
344.55	906.72
344.93	914.45
345.30	927.79
345.67	920.30
346.04	916.79
346.42	917.96
346.79	920.77
347.16	933.41
347.54	959.62
347.91	978.81
348.28	1001.28
348.65	1014.15
349.03	1016.26
349.40	1022.35
349.77	1021.64
350.14	1021.41
350.52	1030.54
350.89	1041.07
351.26	1050.90
351.63	1061.67
352.01	1066.58
352.38	1074.07
352.75	1087.88
353.12	1080.39
353.50	1094.20
353.87	1093.73
354.24	1089.05
354.61	1080.16
354.98	1092.56
355.36	1094.43
355.73	1112.92
356.10	1109.41
356.47	1113.63
356.84	1110.58
357.22	1097.24
357.59	1083.90
357.96	1085.54
358.33	1088.35
358.70	1084.84
359.08	1084.37
359.45	1091.63
359.82	1094.67
360.19	1090.92
360.56	1101.46
360.94	1102.63
361.31	1103.33
361.68	1109.88
362.05	1111.75
362.42	1093.03
362.79	1102.16
363.16	1097.71
363.54	1099.12
363.91	1101.22
364.28	1102.63
364.65	1096.54
365.02	1097.48
365.39	1088.12
365.76	1080.16
366.14	1092.56
366.51	1098.88
366.88	1094.43
367.25	1106.61
367.62	1102.39
367.99	1105.20
368.36	1097.24
368.73	1099.35
369.10	1096.78
369.48	1101.69
369.85	1093.73
370.22	1097.24
370.59	1101.69
370.96	1106.14
371.33	1111.52
371.70	1114.56
372.07	1121.82
372.44	1125.33
372.81	1110.58
373.18	1108.01
373.55	1109.18
373.93	1099.35
374.30	1090.69
374.67	1093.73
375.04	1100.05
375.41	1095.37
375.78	1101.92
376.15	1100.05
376.52	1095.60
376.89	1086.01
377.26	1091.86
377.63	1093.03
378.00	1103.56
378.37	1113.86
378.74	1112.92
379.11	1107.54
379.48	1093.73
379.85	1092.80
380.22	1097.24
380.59	1104.73
380.96	1110.82
381.33	1127.67
381.70	1125.80
382.07	1110.12
382.44	1116.44
382.81	1115.50
383.18	1108.48
383.55	1111.05
383.92	1123.22
384.29	1111.05
384.66	1109.65
385.03	1120.18
385.40	1119.01
385.77	1117.37
386.14	1130.24
386.51	1130.01
386.88	1124.63
387.25	1122.99
387.62	1125.10
387.99	1123.69
388.36	1125.10
388.73	1121.58
389.10	1119.48
389.46	1129.78
389.83	1114.56
390.20	1113.16
390.57	1112.46
390.94	1128.14
391.31	1128.84
391.68	1134.69
392.05	1143.82
392.42	1152.95
392.79	1145.22
393.16	1139.37
393.53	1141.01
393.89	1133.52
394.26	1125.80
394.63	1115.73
395.00	1120.18
395.37	1128.61
395.74	1130.71
396.11	1135.39
396.48	1156.69
396.84	1150.37
397.21	1157.39
397.58	1162.78
397.95	1164.42
398.32	1159.74
398.69	1166.52
399.06	1162.31
399.42	1167.69
399.79	1176.59
400.16	1168.63
400.53	1171.44
400.90	1182.20
401.27	1187.35
401.64	1194.84
402.00	1211.70
402.37	1218.72
402.74	1224.10
403.11	1236.51
403.48	1243.29
403.84	1255.00
404.21	1270.68
404.58	1288.23
404.95	1299.23
405.32	1315.38
405.68	1338.79
406.05	1361.02
406.42	1371.79
406.79	1395.90
407.16	1421.17
407.52	1439.90
407.89	1465.64
408.26	1504.50
408.63	1546.16
408.99	1582.90
409.36	1626.44
409.73	1669.27
410.10	1712.10
410.47	1749.55
410.83	1810.17
411.20	1870.79
411.57	1938.90
411.94	2021.52
412.30	2102.27
412.67	2181.61
413.04	2270.32
413.40	2352.71
413.77	2459.43
414.14	2581.61
414.51	2697.47
414.87	2824.79
415.24	2978.80
415.61	3128.13
415.97	3277.69
416.34	3446.44
416.71	3625.72
417.08	3808.05
417.44	3991.32
417.81	4190.03
418.18	4406.53
418.54	4649.24
418.91	4902.95
419.28	5191.78
419.64	5507.98
420.01	5834.72
420.38	6151.40
420.74	6478.60
421.11	6854.02
421.48	7227.34
421.84	7632.25
422.21	8063.61
422.58	8523.06
422.94	8982.27
423.31	9498.83
423.68	10047.92
424.04	10630.48
424.41	11213.74
424.77	11857.86
425.14	12498.23
425.51	13174.17
425.87	13910.51
426.24	14745.61
426.61	15564.56
426.97	16516.22
427.34	17367.48
427.70	18325.93
428.07	19174.84
428.44	20126.50
428.80	21066.93
429.17	22200.68
429.53	23278.97
429.90	24591.54
430.27	25700.02
430.63	26902.59
431.00	28188.94
431.36	29538.73
431.73	30746.68
432.09	32147.49
432.46	33412.55
432.83	34608.10
433.19	35753.56
433.56	37113.17
433.92	38487.30
434.29	39803.85
434.65	41135.15
435.02	42407.93
435.38	43515.47
435.75	44351.05
436.11	45532.78
436.48	46582.75
436.84	47470.04
437.21	48371.85
437.57	49303.15
437.94	49976.76
438.30	50604.49
438.67	51128.07
439.03	51420.63
439.40	51698.92
439.76	51562.70
440.13	51317.65
440.49	51206.47
440.86	50754.28
441.22	50343.05
441.59	49865.82
441.95	49323.51
442.32	48463.13
442.68	47821.12
443.05	46862.91
443.41	46001.59
443.78	44909.97
444.14	43933.26
444.51	42700.03
444.87	41796.58
445.24	40624.91
445.60	39580.10
445.96	38404.45
446.33	37518.32
446.69	36308.26
447.06	35365.03
447.42	34294.70
447.79	33235.14
448.15	32255.16
448.51	31387.29
448.88	30590.57
449.24	29735.10
449.61	29114.86
449.97	28396.55
450.33	27623.47
450.70	26702.70
451.06	26107.97
451.43	25386.15
451.79	24825.36
452.15	24301.31
452.52	23761.82
452.88	23217.88
453.24	22629.70
453.61	21986.06
453.97	21382.67
454.34	20783.25
454.70	20142.18
455.06	19560.09
455.43	18894.21
455.79	18138.92
456.15	17563.15
456.52	16893.75
456.88	16373.45
457.24	15801.19
457.61	15366.32
457.97	14884.40
458.33	14410.44
458.70	13873.53
459.06	13382.25
459.42	12920.69
459.79	12416.31
460.15	12042.99
460.51	11596.65
460.88	11201.34
461.24	10759.21
461.60	10434.58
461.96	10085.13
462.33	9821.82
462.69	9509.13
463.05	9257.75
463.42	8968.00
463.78	8692.05
464.14	8394.57
464.50	8202.17
464.87	7949.63
465.23	7735.70
465.59	7517.80
465.95	7339.45
466.32	7101.89
466.68	6929.16
467.04	6722.95
467.40	6520.73
467.77	6327.64
468.13	6155.61
468.49	5991.54
468.85	5882.94
469.22	5786.51
469.58	5672.29
469.94	5565.79
470.30	5455.09
470.66	5316.29
471.03	5194.58
471.39	5108.45
471.75	4994.70
472.11	4859.19
472.47	4775.63
472.84	4681.07
473.20	4564.28
473.56	4465.98
473.92	4388.97
474.28	4290.67
474.65	4185.81
475.01	4101.09
475.37	4026.19
475.73	3936.55
476.09	3856.27
476.45	3790.26
476.81	3713.49
477.18	3629.47
477.54	3557.38
477.90	3494.65
478.26	3415.54
478.62	3351.41
478.98	3303.67
479.34	3255.69
479.71	3202.32
480.07	3172.60
480.43	3124.62
480.79	3077.57
481.15	3038.48
481.51	3001.50
481.87	2950.95
482.23	2905.78
482.59	2839.54
482.96	2782.43
483.32	2726.02
483.68	2677.57
484.04	2639.19
484.40	2612.51
484.76	2583.25
485.12	2536.67
485.48	2513.27
485.84	2484.71
486.20	2449.84
486.56	2405.60
486.92	2388.05
487.28	2340.07
487.64	2300.28
488.00	2288.34
488.37	2264.47
488.73	2230.53
489.09	2210.17
489.45	2196.59
489.81	2147.21
490.17	2127.78
490.53	2095.01
490.89	2062.71
491.25	2028.31
491.61	2013.80
491.97	1986.41
492.33	1968.86
492.69	1945.22
493.05	1915.49
493.41	1886.47
493.77	1856.28
494.13	1815.09
494.49	1792.85
494.85	1771.55
495.21	1749.55
495.57	1734.10
495.93	1728.49
496.29	1706.72
496.64	1688.70
497.00	1674.42
497.36	1656.16
497.72	1631.35
498.08	1612.40
498.44	1598.82
498.80	1580.10
499.16	1567.46
499.52	1553.65
499.88	1551.31
500.24	1531.65
500.60	1525.80
500.96	1520.88
501.32	1514.79
501.68	1501.22
502.03	1491.86
502.39	1466.11
502.75	1451.13
503.11	1446.45
503.47	1427.02
503.83	1433.11
504.19	1439.20
504.55	1427.26
504.91	1420.71
505.26	1427.02
505.62	1409.70
505.98	1388.17
506.34	1378.58
506.70	1360.09
507.06	1346.04
507.42	1331.53
507.78	1329.89
508.13	1318.89
508.49	1326.62
508.85	1324.04
509.21	1312.10
509.57	1312.34
509.93	1301.10
510.28	1288.00
510.64	1278.17
511.00	1270.91
511.36	1260.61
511.72	1264.12
512.07	1261.08
512.43	1265.53
512.79	1276.06
513.15	1268.57
513.51	1265.06
513.86	1254.29
514.22	1249.14
514.58	1238.85
514.94	1240.25
515.30	1242.36
515.65	1247.27
516.01	1240.02
516.37	1235.10
516.73	1238.14
517.08	1225.27
517.44	1210.76
517.80	1207.48
518.16	1208.18
518.51	1197.65
518.87	1191.10
519.23	1190.40
519.59	1180.10
519.94	1181.97
520.30	1180.10
520.66	1189.23
521.01	1197.89
521.37	1203.04
521.73	1195.08
522.09	1195.31
522.44	1199.29
522.80	1190.86
523.16	1188.52
523.51	1187.82
523.87	1182.20
524.23	1163.95
524.58	1163.48
524.94	1153.65
525.30	1154.82
525.65	1152.95
526.01	1161.84
526.37	1156.46
526.72	1161.84
527.08	1163.95
527.44	1165.35
527.79	1169.33
528.15	1178.93
528.51	1180.80
528.86	1185.48
529.22	1180.80
529.58	1167.93
529.93	1152.95
530.29	1148.03
530.65	1141.48
531.00	1156.22
531.36	1157.63
531.71	1159.03
532.07	1167.93
532.43	1168.63
532.78	1152.01
533.14	1153.42
533.49	1157.39
533.85	1154.82
534.21	1150.37
534.56	1160.44
534.92	1156.69
535.27	1155.99
535.63	1152.01
535.98	1157.39
536.34	1146.39
536.69	1152.01
537.05	1142.65
537.41	1131.65
537.76	1113.86
538.12	1118.54
538.47	1112.46
538.83	1116.67
539.18	1127.90
539.54	1135.63
539.89	1139.84
540.25	1140.07
540.60	1144.99
540.96	1148.97
541.31	1148.03
541.67	1145.93
542.02	1148.50
542.38	1147.33
542.73	1131.65
543.09	1130.48
543.44	1130.95
543.80	1131.18
544.15	1132.35
544.51	1139.14
544.86	1146.86
545.22	1136.33
545.57	1142.42
545.93	1140.07
546.28	1144.52
546.64	1134.46
546.99	1147.56
547.35	1140.31
547.70	1134.22
548.05	1134.22
548.41	1132.59
548.76	1118.54
549.12	1124.86
549.47	1131.65
549.83	1129.54
550.18	1136.80
550.53	1147.56
550.89	1136.10
551.24	1137.27
551.60	1128.14
551.95	1134.69
552.30	1121.35
552.66	1124.16
553.01	1117.37
553.37	1118.54
553.72	1108.71
554.07	1107.54
554.43	1093.97
554.78	1106.37
555.13	1114.10
555.49	1107.54
555.84	1115.50
556.19	1123.22
556.55	1107.78
556.90	1101.92
557.26	1108.95
557.61	1110.82
557.96	1115.97
558.32	1126.73
558.67	1130.24
559.02	1128.37
559.37	1121.82
559.73	1120.65
560.08	1115.50
560.43	1111.05
560.79	1103.80
561.14	1099.58
561.49	1101.92
561.85	1094.67
562.20	1095.84
562.55	1097.95
562.90	1102.86
563.26	1101.46
563.61	1104.26
563.96	1108.01
564.32	1122.99
564.67	1131.65
565.02	1135.86
565.37	1130.24
565.73	1124.63
566.08	1120.41
566.43	1121.35
566.78	1114.33
567.14	1127.67
567.49	1128.61
567.84	1126.73
568.19	1119.48
568.54	1126.27
568.90	1121.58
569.25	1127.44
569.60	1116.67
569.95	1117.14
570.31	1111.52
570.66	1107.54
571.01	1099.12
571.36	1102.86
571.71	1100.75
572.06	1103.33
572.42	1104.03
572.77	1108.71
573.12	1111.99
573.47	1120.88
573.82	1113.16
574.18	1122.29
574.53	1122.99
574.88	1121.82
575.23	1115.50
575.58	1126.73
575.93	1120.88
576.28	1117.61
576.64	1111.52
576.99	1116.90
577.34	1115.73
577.69	1111.52
578.04	1102.86
578.39	1107.78
578.74	1099.12
579.09	1087.88
579.44	1082.03
579.80	1097.01
580.15	1093.97
580.50	1093.26
580.85	1100.29
581.20	1106.84
581.55	1108.01
581.90	1117.14
582.25	1108.48
582.60	1108.01
582.95	1104.73
583.30	1089.75
583.65	1083.90
584.00	1107.07
584.35	1097.48
584.71	1101.46
585.06	1095.60
585.41	1094.20
585.76	1086.94
586.11	1092.09
586.46	1089.75
586.81	1093.73
587.16	1094.20
587.51	1089.52
587.86	1102.63
588.21	1107.31
588.56	1110.58
588.91	1110.35
589.26	1101.22
589.61	1090.46
589.96	1093.03
590.31	1098.65
590.66	1096.78
591.01	1100.29
591.36	1099.12
591.71	1094.90
592.06	1095.37
592.41	1095.60
592.76	1103.56
593.10	1101.46
593.45	1102.16
593.80	1110.58
594.15	1114.33
594.50	1117.37
594.85	1122.75
595.20	1126.03
595.55	1105.67
595.90	1111.29
596.25	1104.26
596.60	1103.56
596.95	1096.07
597.30	1107.31
597.64	1150.14
597.99	1153.18
598.34	1158.80
598.69	1159.74
599.04	1165.59
599.39	1110.82
599.74	1114.10
600.09	1109.18
600.44	1114.80
600.78	1109.65
601.13	1109.65
601.48	1104.73
601.83	1109.88
602.18	1119.24
602.53	1121.82
602.88	1135.63
603.22	1140.07
603.57	1140.54
603.92	1116.90
604.27	1103.56
604.62	1094.90
604.97	1092.56
605.31	1086.01
605.66	1088.35
606.01	1099.12
606.36	1104.50
606.71	1097.24
607.05	1095.84
607.40	1100.99
607.75	1102.86
608.10	1094.43
608.44	1093.03
608.79	1095.60
609.14	1099.58
609.49	1094.43
609.84	1102.39
610.18	1106.14
610.53	1101.46
610.88	1101.22
611.23	1107.07
611.57	1106.84
611.92	1108.71
612.27	1113.16
612.62	1108.71
612.96	1101.92
613.31	1089.52
613.66	1085.77
614.00	1086.24
614.35	1088.12
614.70	1089.29
615.05	1102.39
615.39	1103.56
615.74	1102.39
616.09	1110.12
616.43	1116.44
616.78	1105.90
617.13	1110.58
617.47	1120.18
617.82	1117.84
618.17	1109.88
618.51	1101.92
618.86	1101.92
619.21	1094.43
619.55	1097.01
619.90	1092.33
620.25	1107.07
620.59	1104.73
620.94	1106.14
621.29	1097.71
621.63	1109.65
621.98	1109.41
622.32	1108.01
622.67	1101.92
623.02	1097.71
623.36	1097.01
623.71	1094.67
624.05	1090.46
624.40	1102.86
624.75	1109.65
625.09	1100.99
625.44	1104.03
625.78	1104.03
626.13	1089.75
626.48	1083.43
626.82	1094.67
627.17	1095.14
627.51	1099.58
627.86	1100.99
628.20	1103.56
628.55	1093.97
628.89	1089.75
629.24	1084.60
629.58	1082.73
629.93	1088.35
630.28	1087.88
630.62	1094.20
630.97	1097.01
631.31	1098.65
631.66	1100.29
632.00	1106.37
632.35	1091.86
632.69	1090.22
633.04	1093.26
633.38	1089.05
633.73	1088.82
634.07	1086.01
634.42	1082.26
634.76	1079.22
635.11	1083.67
635.45	1080.39
635.79	1097.01
636.14	1109.65
636.48	1115.97
636.83	1096.78
637.17	1091.86
637.52	1090.22
637.86	1086.94
638.21	1080.16
638.55	1099.12
638.89	1103.33
639.24	1104.03
639.58	1093.73
639.93	1087.88
640.27	1082.03
640.61	1081.56
640.96	1086.24
641.30	1100.05
641.65	1111.75
641.99	1113.63
642.33	1111.75
642.68	1098.18
643.02	1093.50
643.37	1093.03
643.71	1088.35
644.05	1096.78
644.40	1100.05
644.74	1101.46
645.08	1093.03
645.43	1091.86
645.77	1078.99
646.11	1075.24
646.46	1075.24
646.80	1091.16
647.14	1087.88
647.49	1085.54
647.83	1099.35
648.17	1102.16
648.52	1087.65
648.86	1093.73
649.20	1101.22
649.55	1082.50
649.89	1074.31
650.23	1078.28
650.57	1077.82
650.92	1081.56
651.26	1094.43
651.60	1098.65
651.95	1094.90
652.29	1101.69
652.63	1095.84
652.97	1084.84
653.32	1084.84
653.66	1085.54
654.00	1087.41
654.34	1097.48
654.69	1114.09
655.03	1112.22
655.37	1119.71
655.71	1120.65
656.05	1122.75
656.40	1111.99
656.74	1108.01
657.08	1103.80
657.42	1099.82
657.76	1086.71
658.11	1091.86
658.45	1100.75
658.79	1105.67
659.13	1106.61
659.47	1111.05
659.82	1111.99
660.16	1107.07
660.50	1098.88
660.84	1093.97
661.18	1092.09
661.52	1080.63
661.87	1083.20
662.21	1084.14
662.55	1081.56
662.89	1077.35
663.23	1085.77
663.57	1090.92
663.91	1092.56
664.25	1107.54
664.60	1115.97
664.94	1113.16
665.28	1105.20
665.62	1108.95
665.96	1101.22
666.30	1097.48
666.64	1104.50
666.98	1103.33
667.32	1102.16
667.66	1103.80
668.01	1100.52
668.35	1093.50
668.69	1094.67
669.03	1094.43
669.37	1086.24
669.71	1095.84
670.05	1102.39
670.39	1103.80
670.73	1102.63
671.07	1100.05
671.41	1101.46
671.75	1093.50
672.09	1083.90
672.43	1086.71
672.77	1092.56
673.11	1086.48
673.45	1091.39
673.79	1102.86
674.13	1102.86
674.47	1103.56
674.81	1096.78
675.15	1086.71
675.49	1086.48
675.83	1081.09
676.17	1063.54
676.51	1069.86
676.85	1077.35
677.19	1071.26
677.53	1075.24
677.87	1087.41
678.21	1085.54
678.55	1085.54
678.89	1087.65
679.23	1083.20
679.57	1075.94
679.90	1075.24
680.24	1072.67
680.58	1070.09
680.92	1070.56
681.26	1080.63
681.60	1093.97
681.94	1098.65
682.28	1108.71
682.62	1104.97
682.96	1101.22
683.29	1089.29
683.63	1089.99
683.97	1083.67
684.31	1081.80
684.65	1089.99
684.99	1091.39
685.33	1095.60
685.67	1094.20
686.00	1102.86
686.34	1098.65
686.68	1100.05
687.02	1096.31
687.36	1095.14
687.70	1090.92
688.03	1091.63
688.37	1091.39
688.71	1087.65
689.05	1098.18
689.39	1093.26
689.72	1088.35
690.06	1091.86
690.40	1089.52
690.74	1083.43
691.08	1090.69
691.41	1089.75
691.75	1084.14
692.09	1096.54
692.43	1103.09
692.76	1100.75
693.10	1110.58
693.44	1104.03
693.78	1087.88
694.11	1075.24
694.45	1087.88
694.79	1082.26
695.13	1083.43
695.46	1087.41
695.80	1086.24
696.14	1081.80
696.48	1076.88
696.81	1075.01
697.15	1084.37
697.49	1086.48
697.82	1072.43
698.16	1078.52
698.50	1082.03
698.83	1080.16
699.17	1089.52
699.51	1099.12
699.84	1099.12
700.18	1101.69
700.52	1086.01
700.85	1072.90
701.19	1067.99
701.53	1064.94
701.86	1061.90
702.20	1074.31
702.54	1086.94
702.87	1096.31
703.21	1105.67
703.55	1105.44
703.88	1094.90
704.22	1089.75
704.55	1079.92
704.89	1075.71
705.23	1074.54
705.56	1081.80
705.90	1084.60
706.23	1085.54
706.57	1076.41
706.91	1078.75
707.24	1079.69
707.58	1081.80
707.91	1093.50
708.25	1095.60
708.58	1096.78
708.92	1107.54
709.26	1100.29
709.59	1097.95
709.93	1113.16
710.26	1121.82
710.60	1114.80
710.93	1122.75
711.27	1124.86
711.60	1116.44
711.94	1107.54
712.27	1101.92
712.61	1097.71
712.94	1089.52
713.28	1082.26
713.61	1078.52
713.95	1089.29
714.28	1072.20
714.62	1060.50
714.95	1070.09
715.29	1063.77
715.62	1056.52
715.96	1072.43
716.29	1078.99
716.63	1071.50
716.96	1081.80
717.29	1084.37
717.63	1092.09
717.96	1085.54
718.30	1083.20
718.63	1077.35
718.97	1075.24
719.30	1073.14
719.63	1087.65
719.97	1090.46
720.30	1106.61
720.64	1112.22
720.97	1101.46
721.30	1098.18
721.64	1103.33
721.97	1098.41
722.31	1087.18
722.64	1093.50
722.97	1096.54
723.31	1093.73
723.64	1091.39
723.97	1096.07
724.31	1089.05
724.64	1083.67
724.98	1079.69
725.31	1082.97
725.64	1084.60
725.98	1089.99
726.31	1094.43
726.64	1093.73
726.97	1093.50
727.31	1088.35
727.64	1089.99
727.97	1089.29
728.31	1093.73
728.64	1085.07
728.97	1084.60
729.31	1079.46
729.64	1077.35
729.97	1075.01
730.30	1075.48
730.64	1074.77
730.97	1072.20
731.30	1078.05
731.63	1078.28
731.97	1083.20
732.30	1080.86
732.63	1088.58
732.96	1084.84
733.30	1084.84
733.63	1084.84
733.96	1089.29
734.29	1087.18
734.63	1078.28
734.96	1075.71
735.29	1072.20
735.62	1072.67
735.95	1071.97
736.29	1083.20
736.62	1085.77
736.95	1092.80
737.28	1095.14
737.61	1086.48
737.94	1082.97
738.28	1085.54
738.61	1082.50
738.94	1072.20
739.27	1079.46
739.60	1081.09
739.93	1094.90
740.27	1089.75
740.60	1097.01
740.93	1103.09
741.26	1096.31
741.59	1076.41
741.92	1088.35
742.25	1091.86
742.58	1093.26
742.91	1094.90
743.25	1094.20
743.58	1085.77
743.91	1085.07
744.24	1071.50
744.57	1083.20
744.90	1090.46
745.23	1089.99
745.56	1089.52
745.89	1092.80
746.22	1078.52
746.55	1071.73
746.88	1070.09
747.21	1069.39
747.54	1071.97
747.87	1067.99
748.20	1072.20
748.53	1074.07
748.87	1081.33
749.20	1080.86
749.53	1091.86
749.86	1098.41
750.19	1097.95
750.52	1092.09
750.85	1097.71
751.18	1098.41
751.51	1105.90
751.84	1098.41
752.16	1091.16
752.49	1099.58
752.82	1092.80
753.15	1082.73
753.48	1090.69
753.81	1097.71
754.14	1089.29
754.47	1087.18
754.80	1077.35
755.13	1080.16
755.46	1077.58
755.79	1066.58
756.12	1078.75
756.45	1090.46
756.78	1090.69
757.11	1091.39
757.43	1096.31
757.76	1089.05
758.09	1085.31
758.42	1080.16
758.75	1086.71
759.08	1085.77
759.41	1089.75
759.74	1092.80
760.07	1101.46
760.39	1102.39
760.72	1107.31
761.05	1101.46
761.38	1096.78
761.71	1092.80
762.04	1081.09
762.36	1077.35
762.69	1075.71
763.02	1076.65
763.35	1079.92
763.68	1076.41
764.01	1075.94
