SpectraSuite Data File
++++++++++++++++++++++++++++++++++++
Date: Mon Aug 26 10:24:48 PDT 2019
User: corrico
Dark Spectrum Present: No
Reference Spectrum Present: No
Number of Sampled Component Spectra: 1
Spectrometers: USB2+H06089
Integration Time (usec): 10000 (USB2+H06089)
Spectra Averaged: 2 (USB2+H06089)
Boxcar Smoothing: 2 (USB2+H06089)
Correct for Electrical Dark: No (USB2+H06089)
Strobe/Lamp Enabled: No (USB2+H06089)
Correct for Detector Non-linearity: No (USB2+H06089)
Correct for Stray Light: No (USB2+H06089)
Number of Pixels in Processed Spectrum: 2048
>>>>>Begin Processed Spectral Data<<<<<
339.70	1019.30
340.07	1019.30
340.45	994.26
340.82	971.56
341.19	952.13
341.57	931.07
341.94	915.62
342.31	896.19
342.69	899.23
343.06	892.91
343.43	887.77
343.81	899.23
344.18	905.79
344.55	900.64
344.93	903.91
345.30	917.49
345.67	925.21
346.04	940.43
346.42	952.83
346.79	956.11
347.16	962.90
347.54	961.96
347.91	966.17
348.28	976.94
348.65	994.96
349.03	1009.71
349.40	1019.07
349.77	1031.94
350.14	1032.41
350.52	1038.50
350.89	1031.71
351.26	1038.73
351.63	1045.75
352.01	1058.62
352.38	1058.39
352.75	1069.62
353.12	1080.16
353.50	1078.99
353.87	1074.54
354.24	1085.07
354.61	1081.09
354.98	1065.88
355.36	1073.60
355.73	1083.43
356.10	1088.35
356.47	1101.46
356.84	1113.16
357.22	1110.82
357.59	1111.52
357.96	1110.58
358.33	1104.50
358.70	1109.41
359.08	1098.18
359.45	1093.26
359.82	1086.94
360.19	1084.14
360.56	1081.80
360.94	1095.14
361.31	1097.48
361.68	1104.26
362.05	1100.29
362.42	1100.99
362.79	1100.29
363.16	1101.22
363.54	1091.39
363.91	1091.63
364.28	1087.18
364.65	1089.99
365.02	1081.56
365.39	1085.07
365.76	1090.69
366.14	1088.35
366.51	1075.71
366.88	1088.82
367.25	1090.92
367.62	1092.33
367.99	1097.01
368.36	1102.86
368.73	1103.80
369.10	1097.71
369.48	1099.35
369.85	1097.01
370.22	1096.07
370.59	1090.69
370.96	1094.43
371.33	1089.99
371.70	1091.63
372.07	1093.73
372.44	1091.16
372.81	1090.92
373.18	1094.90
373.55	1093.03
373.93	1095.84
374.30	1096.54
374.67	1095.37
375.04	1089.29
375.41	1092.33
375.78	1079.22
376.15	1082.73
376.52	1084.14
376.89	1094.20
377.26	1093.26
377.63	1102.39
378.00	1103.33
378.37	1111.99
378.74	1103.56
379.11	1106.14
379.48	1102.16
379.85	1100.75
380.22	1097.95
380.59	1100.29
380.96	1097.01
381.33	1101.22
381.70	1092.09
382.07	1091.86
382.44	1090.22
382.81	1095.14
383.18	1089.29
383.55	1094.67
383.92	1091.86
384.29	1089.99
384.66	1088.12
385.03	1094.90
385.40	1096.78
385.77	1104.26
386.14	1106.61
386.51	1105.90
386.88	1100.29
387.25	1092.33
387.62	1079.22
387.99	1079.22
388.36	1078.52
388.73	1078.99
389.10	1088.12
389.46	1082.50
389.83	1090.46
390.20	1088.58
390.57	1095.37
390.94	1102.16
391.31	1117.14
391.68	1107.78
392.05	1107.31
392.42	1109.18
392.79	1104.03
393.16	1096.54
393.53	1108.24
393.89	1116.20
394.26	1114.09
394.63	1112.46
395.00	1129.54
395.37	1128.61
395.74	1124.39
396.11	1125.80
396.48	1133.99
396.84	1120.18
397.21	1128.37
397.58	1128.14
397.95	1136.80
398.32	1133.99
398.69	1152.25
399.06	1130.71
399.42	1134.22
399.79	1139.84
400.16	1151.54
400.53	1147.33
400.90	1161.14
401.27	1173.54
401.64	1166.99
402.00	1167.69
402.37	1175.42
402.74	1175.89
403.11	1177.29
403.48	1192.03
403.84	1201.87
404.21	1201.87
404.58	1221.29
404.95	1229.95
405.32	1229.25
405.68	1231.12
406.05	1251.95
406.42	1258.51
406.79	1273.02
407.16	1286.59
407.52	1304.15
407.89	1314.68
408.26	1325.21
408.63	1348.62
408.99	1377.17
409.36	1397.53
409.73	1420.00
410.10	1461.20
410.47	1481.09
410.83	1509.65
411.20	1549.20
411.57	1582.20
411.94	1620.35
412.30	1667.16
412.67	1721.00
413.04	1769.45
413.40	1824.21
413.77	1883.20
414.14	1939.13
414.51	1992.26
414.87	2057.56
415.24	2128.48
415.61	2204.78
415.97	2284.36
416.34	2393.90
416.71	2487.99
417.08	2599.40
417.44	2699.57
417.81	2842.11
418.18	2955.63
418.54	3083.66
418.91	3207.70
419.28	3366.86
419.64	3522.27
420.01	3693.37
420.38	3880.84
420.74	4067.62
421.11	4267.97
421.48	4477.21
421.84	4697.92
422.21	4913.95
422.58	5167.20
422.94	5409.21
423.31	5638.58
423.68	5921.56
424.04	6217.87
424.41	6527.99
424.77	6826.17
425.14	7148.46
425.51	7458.82
425.87	7839.86
426.24	8234.47
426.61	8665.13
426.97	9189.41
427.34	9637.86
427.70	10143.65
428.07	10617.84
428.44	11154.29
428.80	11634.10
429.17	12222.28
429.53	12787.52
429.90	13453.87
430.27	14004.83
430.63	14597.92
431.00	15283.00
431.36	16003.88
431.73	16605.63
432.09	17296.32
432.46	18022.83
432.83	18623.64
433.19	19209.71
433.56	19944.88
433.92	20655.93
434.29	21281.79
434.65	22046.68
435.02	22724.96
435.38	23376.57
435.75	23941.81
436.11	24585.46
436.48	25056.37
436.84	25505.52
437.21	25918.39
437.57	26335.94
437.94	26748.58
438.30	27179.24
438.67	27516.74
439.03	27737.92
439.40	27942.02
439.76	27869.46
440.13	27715.69
440.49	27659.75
440.86	27434.82
441.22	27165.66
441.59	26839.86
441.95	26497.67
442.32	25941.80
442.68	25507.16
443.05	24994.81
443.41	24480.37
443.78	23867.14
444.14	23283.65
444.51	22624.09
444.87	22201.62
445.24	21694.66
445.60	21256.04
445.96	20756.10
446.33	20281.21
446.69	19593.79
447.06	19055.47
447.42	18490.23
447.79	17953.55
448.15	17480.99
448.51	16973.33
448.88	16588.78
449.24	16093.52
449.61	15767.49
449.97	15394.64
450.33	15064.39
450.70	14601.20
451.06	14244.27
451.43	13745.26
451.79	13352.05
452.15	12982.02
452.52	12665.81
452.88	12353.11
453.24	12114.61
453.61	11851.54
453.97	11590.10
454.34	11305.02
454.70	11060.20
455.06	10810.93
455.43	10476.00
455.79	10076.94
456.15	9740.84
456.52	9417.38
456.88	9114.28
457.24	8822.18
457.61	8657.88
457.97	8461.04
458.33	8208.02
458.70	7936.52
459.06	7662.45
459.42	7389.54
459.79	7107.04
460.15	6894.75
460.51	6697.21
460.88	6503.88
461.24	6281.76
461.60	6109.27
461.96	5925.07
462.33	5739.46
462.69	5590.60
463.05	5454.38
463.42	5292.42
463.78	5159.48
464.14	5051.81
464.50	4945.32
464.87	4814.48
465.23	4701.90
465.59	4577.15
465.95	4450.06
466.32	4330.23
466.68	4252.29
467.04	4152.34
467.40	4054.98
467.77	3964.63
468.13	3875.69
468.49	3788.39
468.85	3740.41
469.22	3673.00
469.58	3614.26
469.94	3556.91
470.30	3484.82
470.66	3413.67
471.03	3369.44
471.39	3315.84
471.75	3272.07
472.11	3227.13
472.47	3164.40
472.84	3102.38
473.20	3034.74
473.56	2976.69
473.92	2914.67
474.28	2864.11
474.65	2802.09
475.01	2758.09
475.37	2693.72
475.73	2656.04
476.09	2620.00
476.45	2600.57
476.81	2562.89
477.18	2521.93
477.54	2486.59
477.90	2446.56
478.26	2398.35
478.62	2367.22
478.98	2346.86
479.34	2312.68
479.71	2277.34
480.07	2253.23
480.43	2216.02
480.79	2191.21
481.15	2175.29
481.51	2156.57
481.87	2131.76
482.23	2100.40
482.59	2077.46
482.96	2047.50
483.32	2022.93
483.68	1994.60
484.04	1980.09
484.40	1948.96
484.76	1938.20
485.12	1924.39
485.48	1910.11
485.84	1896.54
486.20	1879.68
486.56	1843.41
486.92	1813.21
487.28	1797.06
487.64	1778.10
488.00	1766.64
488.37	1753.06
488.73	1734.57
489.09	1706.72
489.45	1691.97
489.81	1668.57
490.17	1647.74
490.53	1635.10
490.89	1622.23
491.25	1606.08
491.61	1599.05
491.97	1605.37
492.33	1597.65
492.69	1577.99
493.05	1565.58
493.41	1550.37
493.77	1520.41
494.13	1509.65
494.49	1500.75
494.85	1488.81
495.21	1464.01
495.57	1461.43
495.93	1450.20
496.29	1456.75
496.64	1449.26
497.00	1446.69
497.36	1428.66
497.72	1405.96
498.08	1391.92
498.44	1379.28
498.80	1376.24
499.16	1366.40
499.52	1367.81
499.88	1354.70
500.24	1350.72
500.60	1343.23
500.96	1333.87
501.32	1330.83
501.68	1328.25
502.03	1319.59
502.39	1313.04
502.75	1299.70
503.11	1296.42
503.47	1291.04
503.83	1291.04
504.19	1293.38
504.55	1297.83
504.91	1281.91
505.26	1273.72
505.62	1257.34
505.98	1241.19
506.34	1239.31
506.70	1235.10
507.06	1225.97
507.42	1222.23
507.78	1211.46
508.13	1209.82
508.49	1215.44
508.85	1210.29
509.21	1207.72
509.57	1207.48
509.93	1198.59
510.28	1185.48
510.64	1188.06
511.00	1180.80
511.36	1189.23
511.72	1192.27
512.07	1194.38
512.43	1193.44
512.79	1204.44
513.15	1192.03
513.51	1183.37
513.86	1178.23
514.22	1168.16
514.58	1159.27
514.94	1164.65
515.30	1158.33
515.65	1154.59
516.01	1156.69
516.37	1152.71
516.73	1146.63
517.08	1156.46
517.44	1150.14
517.80	1148.27
518.16	1143.82
518.51	1136.56
518.87	1136.33
519.23	1143.59
519.59	1131.88
519.94	1133.29
520.30	1129.31
520.66	1125.10
521.01	1126.50
521.37	1140.07
521.73	1137.50
522.09	1149.44
522.44	1144.05
522.80	1137.97
523.16	1130.95
523.51	1141.48
523.87	1142.18
524.23	1138.67
524.58	1130.01
524.94	1137.97
525.30	1132.35
525.65	1133.99
526.01	1134.93
526.37	1151.54
526.72	1151.08
527.08	1143.82
527.44	1137.27
527.79	1140.54
528.15	1137.73
528.51	1130.71
528.86	1135.39
529.22	1135.16
529.58	1135.63
529.93	1133.99
530.29	1137.73
530.65	1129.31
531.00	1128.37
531.36	1126.73
531.71	1124.39
532.07	1111.52
532.43	1111.99
532.78	1116.90
533.14	1119.71
533.49	1116.20
533.85	1123.22
534.21	1122.29
534.56	1111.29
534.92	1107.31
535.27	1108.95
535.63	1110.12
535.98	1116.44
536.34	1119.01
536.69	1118.07
537.05	1116.20
537.41	1119.71
537.76	1112.22
538.12	1122.75
538.47	1117.37
538.83	1120.88
539.18	1107.54
539.54	1105.90
539.89	1101.46
540.25	1115.97
540.60	1115.50
540.96	1117.37
541.31	1129.07
541.67	1123.46
542.02	1119.24
542.38	1108.01
542.73	1121.82
543.09	1114.10
543.44	1107.54
543.80	1101.22
544.15	1108.95
544.51	1100.75
544.86	1101.46
545.22	1102.16
545.57	1099.58
545.93	1109.41
546.28	1124.86
546.64	1122.29
546.99	1132.59
547.35	1129.31
547.70	1120.41
548.05	1116.44
548.41	1122.05
548.76	1119.01
549.12	1132.59
549.47	1132.59
549.83	1124.86
550.18	1129.54
550.53	1127.90
550.89	1135.16
551.24	1139.14
551.60	1143.59
551.95	1133.52
552.30	1132.59
552.66	1131.65
553.01	1137.27
553.37	1136.56
553.72	1135.39
554.07	1142.42
554.43	1133.76
554.78	1124.39
555.13	1105.90
555.49	1105.44
555.84	1087.65
556.19	1075.48
556.55	1072.90
556.90	1066.35
557.26	1071.26
557.61	1081.09
557.96	1089.05
558.32	1095.84
558.67	1115.03
559.02	1110.82
559.37	1106.84
559.73	1102.86
560.08	1092.09
560.43	1080.86
560.79	1083.67
561.14	1090.22
561.49	1093.50
561.85	1097.95
562.20	1106.84
562.55	1106.61
562.90	1100.99
563.26	1100.05
563.61	1104.73
563.96	1103.56
564.32	1106.84
564.67	1105.67
565.02	1105.90
565.37	1096.31
565.73	1089.99
566.08	1090.22
566.43	1101.22
566.78	1095.14
567.14	1097.71
567.49	1096.78
567.84	1085.54
568.19	1075.94
568.54	1077.82
568.90	1082.97
569.25	1092.56
569.60	1102.16
569.95	1103.33
570.31	1107.78
570.66	1101.46
571.01	1100.05
571.36	1092.80
571.71	1089.75
572.06	1093.03
572.42	1095.84
572.77	1098.41
573.12	1102.63
573.47	1105.44
573.82	1099.12
574.18	1094.20
574.53	1083.43
574.88	1089.99
575.23	1096.31
575.58	1103.80
575.93	1110.82
576.28	1120.88
576.64	1111.52
576.99	1104.97
577.34	1103.56
577.69	1110.35
578.04	1109.88
578.39	1118.31
578.74	1117.14
579.09	1106.84
579.44	1095.14
579.80	1086.48
580.15	1088.12
580.50	1097.24
580.85	1094.90
581.20	1108.24
581.55	1110.35
581.90	1104.26
582.25	1104.03
582.60	1112.92
582.95	1107.78
583.30	1108.48
583.65	1112.46
584.00	1104.97
584.35	1101.46
584.71	1092.09
585.06	1090.22
585.41	1082.26
585.76	1077.58
586.11	1080.16
586.46	1086.71
586.81	1093.03
587.16	1100.52
587.51	1108.24
587.86	1107.07
588.21	1098.65
588.56	1093.50
588.91	1090.46
589.26	1092.56
589.61	1091.39
589.96	1097.48
590.31	1103.09
590.66	1097.01
591.01	1081.56
591.36	1085.07
591.71	1081.09
592.06	1072.67
592.41	1072.43
592.76	1081.56
593.10	1079.92
593.45	1081.09
593.80	1081.09
594.15	1083.90
594.50	1085.77
594.85	1083.43
595.20	1085.07
595.55	1102.39
595.90	1100.99
596.25	1091.86
596.60	1100.75
596.95	1097.24
597.30	1089.99
597.64	1152.95
597.99	1174.25
598.34	1164.42
598.69	1167.93
599.04	1164.42
599.39	1101.22
599.74	1082.03
600.09	1081.09
600.44	1074.31
600.78	1082.26
601.13	1080.63
601.48	1087.41
601.83	1092.33
602.18	1098.88
602.53	1089.05
602.88	1094.43
603.22	1096.31
603.57	1090.46
603.92	1094.20
604.27	1089.29
604.62	1082.97
604.97	1077.58
605.31	1080.86
605.66	1073.84
606.01	1075.48
606.36	1077.11
606.71	1075.48
607.05	1081.56
607.40	1093.97
607.75	1103.56
608.10	1099.82
608.44	1108.24
608.79	1097.01
609.14	1085.07
609.49	1086.71
609.84	1101.46
610.18	1101.92
610.53	1109.65
610.88	1116.90
611.23	1109.65
611.57	1107.07
611.92	1109.18
612.27	1104.03
612.62	1097.71
612.96	1094.90
613.31	1091.63
613.66	1082.26
614.00	1082.03
614.35	1086.01
614.70	1094.90
615.05	1088.35
615.39	1079.46
615.74	1083.90
616.09	1079.92
616.43	1077.35
616.78	1083.20
617.13	1089.52
617.47	1092.09
617.82	1094.43
618.17	1087.65
618.51	1079.92
618.86	1070.33
619.21	1062.14
619.55	1057.69
619.90	1059.33
620.25	1061.67
620.59	1060.73
620.94	1069.62
621.29	1073.14
621.63	1066.35
621.98	1061.90
622.32	1077.11
622.67	1072.43
623.02	1078.05
623.36	1074.77
623.71	1082.73
624.05	1083.20
624.40	1094.67
624.75	1088.58
625.09	1097.95
625.44	1096.31
625.78	1096.31
626.13	1089.29
626.48	1090.22
626.82	1089.05
627.17	1098.18
627.51	1095.37
627.86	1089.99
628.20	1086.24
628.55	1098.88
628.89	1092.09
629.24	1092.33
629.58	1107.31
629.93	1107.31
630.28	1100.75
630.62	1096.54
630.97	1105.44
631.31	1082.26
631.66	1086.24
632.00	1088.12
632.35	1093.03
632.69	1093.73
633.04	1108.24
633.38	1108.95
633.73	1107.54
634.07	1115.03
634.42	1104.50
634.76	1106.84
635.11	1100.29
635.45	1092.56
635.79	1083.20
636.14	1088.12
636.48	1078.75
636.83	1080.86
637.17	1086.24
637.52	1087.41
637.86	1083.20
638.21	1082.97
638.55	1081.80
638.89	1078.28
639.24	1080.63
639.58	1087.65
639.93	1094.90
640.27	1098.88
640.61	1105.44
640.96	1107.07
641.30	1100.05
641.65	1105.90
641.99	1103.33
642.33	1096.78
642.68	1089.29
643.02	1081.56
643.37	1072.20
643.71	1077.58
644.05	1073.84
644.40	1077.58
644.74	1093.97
645.08	1094.67
645.43	1092.80
645.77	1091.86
646.11	1089.52
646.46	1082.03
646.80	1082.73
647.14	1077.35
647.49	1079.92
647.83	1082.50
648.17	1074.54
648.52	1076.18
648.86	1079.46
649.20	1076.65
649.55	1081.56
649.89	1093.73
650.23	1091.86
650.57	1092.09
650.92	1091.63
651.26	1089.05
651.60	1086.71
651.95	1085.77
652.29	1092.09
652.63	1104.26
652.97	1096.07
653.32	1092.33
653.66	1094.43
654.00	1084.60
654.34	1079.92
654.69	1082.50
655.03	1086.94
655.37	1085.77
655.71	1086.24
656.05	1088.35
656.40	1095.37
656.74	1097.48
657.08	1102.16
657.42	1108.01
657.76	1103.80
658.11	1091.63
658.45	1085.54
658.79	1081.33
659.13	1085.31
659.47	1091.63
659.82	1092.09
660.16	1097.71
660.50	1094.20
660.84	1080.39
661.18	1078.75
661.52	1081.56
661.87	1071.73
662.21	1075.71
662.55	1089.29
662.89	1083.67
663.23	1078.28
663.57	1087.41
663.91	1083.67
664.25	1076.65
664.60	1076.18
664.94	1081.33
665.28	1077.58
665.62	1081.56
665.96	1086.71
666.30	1101.22
666.64	1101.46
666.98	1095.84
667.32	1097.95
667.66	1099.82
668.01	1092.80
668.35	1098.88
668.69	1105.44
669.03	1097.48
669.37	1087.41
669.71	1078.28
670.05	1078.28
670.39	1075.01
670.73	1077.82
671.07	1083.90
671.41	1081.09
671.75	1086.01
672.09	1086.01
672.43	1087.88
672.77	1093.73
673.11	1101.69
673.45	1098.18
673.79	1099.58
674.13	1088.82
674.47	1077.35
674.81	1071.50
675.15	1070.80
675.49	1080.63
675.83	1101.22
676.17	1106.61
676.51	1113.16
676.85	1113.86
677.19	1101.92
677.53	1084.60
677.87	1072.43
678.21	1071.73
678.55	1068.22
678.89	1074.77
679.23	1082.50
679.57	1092.56
679.90	1097.95
680.24	1098.18
680.58	1096.78
680.92	1091.86
681.26	1092.09
681.60	1082.97
681.94	1080.16
682.28	1083.43
682.62	1081.09
682.96	1085.07
683.29	1095.14
683.63	1108.24
683.97	1097.24
684.31	1106.37
684.65	1094.90
684.99	1090.22
685.33	1080.63
685.67	1084.37
686.00	1093.97
686.34	1094.43
686.68	1092.33
687.02	1090.69
687.36	1087.18
687.70	1065.88
688.03	1074.77
688.37	1074.31
688.71	1066.82
689.05	1068.45
689.39	1079.69
689.72	1082.73
690.06	1080.63
690.40	1089.99
690.74	1095.37
691.08	1089.29
691.41	1073.60
691.75	1076.18
692.09	1068.45
692.43	1064.71
692.76	1073.60
693.10	1094.90
693.44	1094.20
693.78	1098.65
694.11	1095.37
694.45	1082.26
694.79	1074.07
695.13	1073.14
695.46	1067.52
695.80	1076.88
696.14	1082.50
696.48	1081.80
696.81	1081.09
697.15	1087.18
697.49	1080.86
697.82	1074.54
698.16	1070.80
698.50	1079.92
698.83	1085.31
699.17	1085.77
699.51	1092.56
699.84	1094.67
700.18	1088.58
700.52	1082.50
700.85	1086.24
701.19	1090.46
701.53	1079.69
701.86	1067.52
702.20	1070.33
702.54	1070.56
702.87	1063.07
703.21	1072.67
703.55	1089.99
703.88	1087.41
704.22	1085.54
704.55	1082.26
704.89	1083.90
705.23	1075.71
705.56	1069.39
705.90	1071.03
706.23	1074.77
706.57	1070.56
706.91	1069.62
707.24	1076.88
707.58	1081.80
707.91	1079.46
708.25	1089.99
708.58	1097.01
708.92	1107.07
709.26	1093.50
709.59	1094.43
709.93	1091.86
710.26	1089.05
710.60	1078.99
710.93	1086.48
711.27	1087.41
711.60	1082.26
711.94	1082.26
712.27	1088.35
712.61	1083.67
712.94	1090.22
713.28	1086.48
713.61	1087.88
713.95	1081.80
714.28	1086.71
714.62	1082.03
714.95	1097.24
715.29	1088.12
715.62	1086.01
715.96	1081.56
716.29	1079.46
716.63	1062.37
716.96	1075.24
717.29	1079.92
717.63	1077.58
717.96	1088.12
718.30	1087.41
718.63	1081.80
718.97	1077.82
719.30	1080.63
719.63	1064.48
719.97	1070.56
720.30	1072.43
720.64	1080.86
720.97	1079.92
721.30	1086.48
721.64	1087.88
721.97	1089.52
722.31	1087.65
722.64	1094.43
722.97	1103.09
723.31	1099.35
723.64	1102.63
723.97	1103.56
724.31	1103.09
724.64	1096.78
724.98	1102.39
725.31	1098.65
725.64	1085.07
725.98	1079.22
726.31	1079.92
726.64	1075.71
726.97	1073.84
727.31	1087.88
727.64	1085.07
727.97	1085.31
728.31	1080.86
728.64	1088.12
728.97	1077.82
729.31	1080.39
729.64	1080.86
729.97	1084.37
730.30	1070.33
730.64	1073.14
730.97	1070.33
731.30	1074.07
731.63	1075.71
731.97	1084.37
732.30	1086.48
732.63	1085.54
732.96	1079.46
733.30	1080.39
733.63	1075.71
733.96	1066.35
734.29	1076.65
734.63	1080.16
734.96	1080.39
735.29	1089.05
735.62	1098.18
735.95	1087.88
736.29	1087.88
736.62	1091.39
736.95	1075.24
737.28	1069.16
737.61	1078.75
737.94	1065.88
738.28	1065.65
738.61	1077.82
738.94	1075.48
739.27	1075.94
739.60	1091.39
739.93	1089.05
740.27	1090.69
740.60	1100.05
740.93	1094.20
741.26	1086.71
741.59	1081.56
741.92	1080.39
742.25	1075.01
742.58	1081.09
742.91	1086.24
743.25	1087.88
743.58	1086.01
743.91	1082.03
744.24	1075.24
744.57	1074.07
744.90	1074.77
745.23	1076.88
745.56	1086.01
745.89	1087.65
746.22	1081.09
746.55	1078.05
746.88	1078.52
747.21	1074.77
747.54	1080.86
747.87	1085.07
748.20	1084.37
748.53	1073.84
748.87	1077.35
749.20	1069.62
749.53	1065.88
749.86	1070.56
750.19	1070.80
750.52	1063.54
750.85	1063.31
751.18	1070.33
751.51	1071.73
751.84	1085.77
752.16	1095.84
752.49	1104.73
752.82	1103.09
753.15	1105.67
753.48	1100.99
753.81	1101.22
754.14	1095.14
754.47	1089.29
754.80	1086.24
755.13	1081.33
755.46	1078.52
755.79	1079.22
756.12	1096.54
756.45	1094.43
756.78	1095.37
757.11	1091.63
757.43	1092.33
757.76	1077.58
758.09	1088.82
758.42	1085.07
758.75	1081.56
759.08	1079.92
759.41	1077.82
759.74	1071.26
760.07	1077.11
760.39	1082.03
760.72	1080.39
761.05	1080.63
761.38	1077.11
761.71	1073.37
762.04	1080.16
762.36	1079.22
762.69	1082.50
763.02	1089.05
763.35	1093.50
763.68	1094.90
764.01	1099.35
764.33	1110.58
764.66	1105.44
