SpectraSuite Data File
++++++++++++++++++++++++++++++++++++
Date: Mon Aug 26 10:24:47 PDT 2019
User: corrico
Dark Spectrum Present: No
Reference Spectrum Present: No
Number of Sampled Component Spectra: 1
Spectrometers: USB2+H06089
Integration Time (usec): 10000 (USB2+H06089)
Spectra Averaged: 2 (USB2+H06089)
Boxcar Smoothing: 2 (USB2+H06089)
Correct for Electrical Dark: No (USB2+H06089)
Strobe/Lamp Enabled: No (USB2+H06089)
Correct for Detector Non-linearity: No (USB2+H06089)
Correct for Stray Light: No (USB2+H06089)
Number of Pixels in Processed Spectrum: 2048
>>>>>Begin Processed Spectral Data<<<<<
339.70	995.90
340.07	995.90
340.45	973.90
340.82	961.49
341.19	937.85
341.57	917.26
341.94	905.55
342.31	886.13
342.69	877.93
343.06	873.02
343.43	878.40
343.81	878.17
344.18	885.66
344.55	892.45
344.93	899.23
345.30	902.51
345.67	914.92
346.04	917.26
346.42	920.53
346.79	935.51
347.16	935.28
347.54	944.87
347.91	970.85
348.28	986.07
348.65	1000.34
349.03	1018.84
349.40	1035.45
349.77	1036.86
350.14	1047.39
350.52	1049.96
350.89	1054.88
351.26	1047.86
351.63	1056.05
352.01	1049.96
352.38	1060.03
352.75	1073.60
353.12	1084.37
353.50	1087.65
353.87	1102.16
354.24	1093.97
354.61	1090.22
354.98	1099.82
355.36	1095.37
355.73	1086.01
356.10	1094.20
356.47	1084.14
356.84	1084.37
357.22	1095.37
357.59	1100.75
357.96	1093.73
358.33	1094.43
358.70	1079.69
359.08	1071.50
359.45	1080.39
359.82	1089.75
360.19	1092.56
360.56	1102.39
360.94	1110.35
361.31	1099.58
361.68	1102.16
362.05	1111.75
362.42	1108.71
362.79	1098.18
363.16	1101.22
363.54	1094.43
363.91	1087.41
364.28	1087.41
364.65	1081.33
365.02	1073.37
365.39	1064.48
365.76	1070.80
366.14	1069.16
366.51	1077.82
366.88	1084.60
367.25	1092.33
367.62	1091.63
367.99	1093.50
368.36	1086.01
368.73	1076.88
369.10	1073.84
369.48	1072.90
369.85	1068.45
370.22	1076.41
370.59	1083.90
370.96	1086.24
371.33	1080.86
371.70	1079.22
372.07	1076.88
372.44	1070.80
372.81	1076.65
373.18	1082.50
373.55	1086.48
373.93	1088.58
374.30	1093.03
374.67	1083.20
375.04	1084.14
375.41	1076.41
375.78	1086.94
376.15	1095.14
376.52	1104.97
376.89	1102.39
377.26	1106.37
377.63	1089.05
378.00	1079.69
378.37	1073.60
378.74	1066.82
379.11	1068.45
379.48	1068.92
379.85	1073.14
380.22	1078.28
380.59	1086.94
380.96	1090.92
381.33	1104.97
381.70	1105.20
382.07	1104.03
382.44	1102.39
382.81	1097.48
383.18	1103.09
383.55	1102.16
383.92	1107.31
384.29	1100.99
384.66	1109.18
385.03	1095.84
385.40	1101.92
385.77	1095.60
386.14	1099.82
386.51	1095.37
386.88	1103.33
387.25	1102.86
387.62	1104.03
387.99	1109.41
388.36	1113.16
388.73	1111.29
389.10	1110.82
389.46	1117.14
389.83	1115.73
390.20	1110.58
390.57	1106.84
390.94	1107.54
391.31	1105.90
391.68	1099.58
392.05	1097.01
392.42	1095.37
392.79	1096.54
393.16	1107.07
393.53	1114.10
393.89	1115.50
394.26	1118.31
394.63	1119.71
395.00	1112.22
395.37	1112.22
395.74	1124.16
396.11	1132.82
396.48	1139.37
396.84	1152.48
397.21	1162.78
397.58	1166.76
397.95	1160.44
398.32	1162.31
398.69	1148.73
399.06	1141.48
399.42	1140.54
399.79	1149.44
400.16	1143.82
400.53	1138.44
400.90	1143.82
401.27	1145.46
401.64	1144.29
402.00	1150.14
402.37	1163.01
402.74	1176.82
403.11	1171.67
403.48	1181.27
403.84	1181.50
404.21	1188.99
404.58	1188.29
404.95	1210.99
405.32	1212.40
405.68	1226.44
406.05	1229.95
406.42	1239.78
406.79	1251.25
407.16	1270.21
407.52	1291.98
407.89	1317.96
408.26	1335.04
408.63	1360.32
408.99	1384.43
409.36	1391.21
409.73	1411.81
410.10	1435.45
410.47	1449.03
410.83	1471.49
411.20	1513.39
411.57	1541.94
411.94	1583.37
412.30	1636.50
412.67	1691.97
413.04	1750.72
413.40	1820.94
413.77	1878.28
414.14	1934.69
414.51	1991.56
414.87	2042.82
415.24	2109.76
415.61	2187.70
415.97	2265.64
416.34	2352.47
416.71	2446.56
417.08	2530.12
417.44	2644.81
417.81	2769.32
418.18	2883.54
418.54	3012.50
418.91	3150.36
419.28	3273.24
419.64	3411.33
420.01	3570.96
420.38	3728.71
420.74	3888.57
421.11	4097.11
421.48	4277.09
421.84	4486.57
422.21	4702.37
422.58	4969.19
422.94	5211.20
423.31	5490.66
423.68	5759.12
424.04	6054.26
424.41	6345.89
424.77	6621.38
425.14	6904.81
425.51	7213.30
425.87	7577.95
426.24	7905.86
426.61	8311.71
426.97	8795.73
427.34	9287.25
427.70	9742.48
428.07	10243.12
428.44	10720.59
428.80	11207.66
429.17	11708.53
429.53	12236.32
429.90	12855.39
430.27	13392.08
430.63	13931.57
431.00	14543.15
431.36	15230.33
431.73	15818.04
432.09	16489.07
432.46	17117.74
432.83	17744.77
433.19	18358.23
433.56	19064.83
433.92	19803.04
434.29	20564.41
434.65	21285.77
435.02	21888.46
435.38	22437.31
435.75	22839.42
436.11	23386.87
436.48	23847.02
436.84	24347.89
437.21	24854.38
437.57	25334.19
437.94	25655.55
438.30	25929.62
438.67	26126.00
439.03	26255.43
439.40	26416.46
439.76	26407.33
440.13	26404.52
440.49	26384.16
440.86	26146.83
441.22	25854.96
441.59	25472.99
441.95	25153.50
442.32	24644.20
442.68	24214.95
443.05	23771.18
443.41	23343.33
443.78	22666.45
444.14	22112.21
444.51	21487.99
444.87	20994.14
445.24	20438.49
445.60	20012.52
445.96	19448.68
446.33	19049.62
446.69	18438.27
447.06	17920.78
447.42	17381.99
447.79	16896.09
448.15	16425.41
448.51	16035.24
448.88	15668.25
449.24	15244.14
449.61	14966.79
449.97	14645.20
450.33	14269.54
450.70	13855.50
451.06	13532.51
451.43	13089.91
451.79	12665.11
452.15	12314.49
452.52	12005.54
452.88	11694.25
453.24	11451.07
453.61	11196.89
453.97	10937.09
454.34	10648.03
454.70	10397.83
455.06	10151.37
455.43	9845.00
455.79	9507.96
456.15	9245.35
456.52	8921.89
456.88	8651.09
457.24	8367.88
457.61	8144.13
457.97	7911.01
458.33	7669.70
458.70	7435.65
459.06	7235.06
459.42	7047.59
459.79	6803.70
460.15	6625.59
460.51	6398.09
460.88	6178.08
461.24	5969.77
461.60	5790.72
461.96	5594.35
462.33	5429.81
462.69	5270.89
463.05	5119.22
463.42	5008.98
463.78	4903.66
464.14	4784.76
464.50	4667.73
464.87	4538.77
465.23	4421.51
465.59	4329.52
465.95	4233.80
466.32	4161.24
466.68	4087.98
467.04	3996.70
467.40	3894.65
467.77	3805.24
468.13	3706.71
468.49	3627.83
468.85	3562.30
469.22	3497.70
469.58	3427.25
469.94	3378.56
470.30	3323.79
470.66	3254.98
471.03	3204.66
471.39	3153.87
471.75	3085.06
472.11	3017.89
472.47	2958.44
472.84	2894.54
473.20	2841.18
473.56	2809.81
473.92	2772.36
474.28	2749.19
474.65	2714.09
475.01	2666.34
475.37	2623.74
475.73	2571.55
476.09	2521.69
476.45	2474.88
476.81	2448.90
477.18	2418.24
477.54	2397.18
477.90	2362.54
478.26	2314.79
478.62	2286.00
478.98	2247.62
479.34	2206.66
479.71	2188.63
480.07	2172.72
480.43	2155.17
480.79	2125.91
481.15	2107.65
481.51	2087.29
481.87	2075.35
482.23	2060.61
482.59	2039.54
482.96	2019.18
483.32	1985.24
483.68	1963.94
484.04	1930.47
484.40	1898.41
484.76	1875.94
485.12	1863.77
485.48	1832.41
485.84	1811.57
486.20	1801.98
486.56	1785.36
486.92	1770.85
487.28	1757.51
487.64	1735.51
488.00	1716.31
488.37	1704.85
488.73	1674.89
489.09	1655.69
489.45	1632.29
489.81	1625.74
490.17	1609.59
490.53	1608.18
490.89	1600.69
491.25	1590.39
491.61	1579.86
491.97	1569.33
492.33	1548.26
492.69	1533.28
493.05	1522.99
493.41	1506.84
493.77	1493.50
494.13	1492.33
494.49	1482.50
494.85	1474.07
495.21	1459.79
495.57	1443.17
495.93	1423.51
496.29	1421.88
496.64	1420.24
497.00	1395.43
497.36	1389.34
497.72	1382.09
498.08	1363.13
498.44	1345.57
498.80	1349.32
499.16	1339.72
499.52	1330.36
499.88	1323.57
500.24	1312.81
500.60	1305.78
500.96	1304.61
501.32	1297.36
501.68	1299.93
502.03	1300.87
502.39	1297.59
502.75	1295.02
503.11	1287.06
503.47	1274.19
503.83	1269.74
504.19	1263.19
504.55	1243.99
504.91	1248.44
505.26	1246.80
505.62	1245.16
505.98	1238.85
506.34	1236.74
506.70	1232.99
507.06	1220.36
507.42	1213.57
507.78	1218.72
508.13	1221.99
508.49	1224.10
508.85	1220.36
509.21	1215.44
509.57	1210.99
509.93	1198.82
510.28	1182.91
510.64	1187.35
511.00	1190.86
511.36	1183.14
511.72	1192.27
512.07	1196.72
512.43	1187.35
512.79	1180.57
513.15	1183.37
513.51	1175.65
513.86	1163.25
514.22	1167.23
514.58	1162.08
514.94	1151.78
515.30	1145.93
515.65	1152.95
516.01	1152.95
516.37	1144.52
516.73	1144.52
517.08	1147.10
517.44	1148.73
517.80	1142.65
518.16	1145.93
518.51	1156.69
518.87	1157.86
519.23	1149.91
519.59	1149.91
519.94	1149.67
520.30	1134.22
520.66	1134.69
521.01	1137.73
521.37	1140.07
521.73	1128.84
522.09	1135.63
522.44	1130.01
522.80	1122.05
523.16	1115.03
523.51	1130.48
523.87	1131.65
524.23	1130.01
524.58	1133.05
524.94	1132.82
525.30	1115.97
525.65	1108.48
526.01	1098.88
526.37	1100.99
526.72	1102.16
527.08	1109.18
527.44	1104.03
527.79	1104.26
528.15	1091.63
528.51	1090.22
528.86	1088.58
529.22	1091.39
529.58	1098.65
529.93	1119.95
530.29	1130.01
530.65	1137.73
531.00	1135.16
531.36	1144.52
531.71	1131.41
532.07	1113.63
532.43	1115.97
532.78	1119.48
533.14	1115.27
533.49	1118.31
533.85	1130.48
534.21	1133.29
534.56	1133.99
534.92	1125.56
535.27	1122.52
535.63	1114.09
535.98	1109.18
536.34	1116.90
536.69	1115.73
537.05	1103.56
537.41	1110.12
537.76	1106.14
538.12	1103.56
538.47	1112.46
538.83	1122.52
539.18	1127.67
539.54	1120.88
539.89	1120.41
540.25	1110.58
540.60	1101.69
540.96	1095.60
541.31	1097.01
541.67	1089.29
542.02	1086.01
542.38	1093.50
542.73	1084.60
543.09	1089.75
543.44	1100.52
543.80	1113.86
544.15	1108.71
544.51	1123.22
544.86	1120.41
545.22	1116.67
545.57	1104.26
545.93	1120.65
546.28	1111.29
546.64	1111.52
546.99	1108.71
547.35	1114.80
547.70	1105.90
548.05	1112.46
548.41	1116.90
548.76	1113.86
549.12	1112.22
549.47	1109.41
549.83	1116.44
550.18	1119.24
550.53	1126.03
550.89	1130.71
551.24	1127.90
551.60	1116.90
551.95	1107.78
552.30	1097.95
552.66	1091.86
553.01	1095.60
553.37	1097.24
553.72	1098.65
554.07	1090.46
554.43	1094.90
554.78	1097.71
555.13	1097.71
555.49	1092.80
555.84	1105.20
556.19	1100.05
556.55	1095.37
556.90	1090.22
557.26	1101.46
557.61	1107.78
557.96	1106.84
558.32	1104.97
558.67	1104.26
559.02	1100.99
559.37	1093.97
559.73	1104.73
560.08	1107.07
560.43	1103.33
560.79	1100.05
561.14	1104.50
561.49	1092.09
561.85	1095.37
562.20	1095.84
562.55	1093.03
562.90	1082.50
563.26	1084.14
563.61	1080.16
563.96	1087.41
564.32	1087.41
564.67	1095.84
565.02	1098.41
565.37	1093.03
565.73	1088.82
566.08	1085.31
566.43	1077.35
566.78	1082.73
567.14	1094.20
567.49	1094.20
567.84	1089.05
568.19	1098.41
568.54	1097.48
568.90	1092.80
569.25	1104.26
569.60	1110.58
569.95	1102.86
570.31	1099.35
570.66	1104.73
571.01	1094.43
571.36	1100.75
571.71	1103.33
572.06	1105.44
572.42	1094.43
572.77	1094.20
573.12	1090.69
573.47	1086.48
573.82	1076.88
574.18	1084.60
574.53	1083.43
574.88	1086.48
575.23	1101.69
575.58	1120.18
575.93	1118.54
576.28	1112.69
576.64	1100.05
576.99	1087.41
577.34	1082.97
577.69	1089.29
578.04	1099.58
578.39	1108.48
578.74	1105.67
579.09	1091.63
579.44	1073.14
579.80	1074.54
580.15	1073.14
580.50	1077.58
580.85	1084.14
581.20	1085.77
581.55	1082.73
581.90	1085.07
582.25	1091.39
582.60	1095.60
582.95	1104.50
583.30	1103.80
583.65	1099.82
584.00	1088.58
584.35	1073.37
584.71	1075.94
585.06	1079.46
585.41	1081.33
585.76	1078.99
586.11	1086.48
586.46	1075.94
586.81	1075.48
587.16	1081.09
587.51	1086.48
587.86	1090.22
588.21	1097.71
588.56	1097.48
588.91	1105.20
589.26	1103.33
589.61	1100.29
589.96	1098.65
590.31	1092.33
590.66	1095.60
591.01	1104.73
591.36	1104.50
591.71	1109.41
592.06	1108.95
592.41	1098.65
592.76	1098.41
593.10	1100.75
593.45	1098.41
593.80	1103.56
594.15	1093.97
594.50	1091.16
594.85	1090.69
595.20	1083.43
595.55	1077.82
595.90	1076.65
596.25	1065.41
596.60	1073.14
596.95	1076.65
597.30	1082.73
597.64	1131.41
597.99	1144.76
598.34	1140.07
598.69	1141.95
599.04	1138.67
599.39	1094.67
599.74	1090.46
600.09	1087.88
600.44	1085.77
600.78	1087.65
601.13	1092.56
601.48	1097.24
601.83	1105.44
602.18	1111.29
602.53	1104.73
602.88	1107.31
603.22	1095.37
603.57	1084.84
603.92	1093.97
604.27	1101.92
604.62	1097.95
604.97	1107.31
605.31	1109.41
605.66	1090.22
606.01	1086.24
606.36	1081.09
606.71	1084.84
607.05	1084.60
607.40	1088.12
607.75	1082.50
608.10	1080.16
608.44	1071.26
608.79	1066.11
609.14	1076.65
609.49	1082.26
609.84	1086.48
610.18	1096.78
610.53	1097.01
610.88	1097.48
611.23	1101.69
611.57	1105.44
611.92	1093.97
612.27	1105.44
612.62	1099.35
612.96	1100.29
613.31	1109.41
613.66	1113.16
614.00	1094.67
614.35	1093.26
614.70	1094.67
615.05	1086.24
615.39	1075.48
615.74	1093.26
616.09	1096.78
616.43	1100.05
616.78	1094.67
617.13	1104.03
617.47	1093.97
617.82	1097.48
618.17	1092.33
618.51	1091.63
618.86	1089.52
619.21	1096.31
619.55	1097.95
619.90	1096.78
620.25	1110.82
620.59	1111.52
620.94	1101.92
621.29	1091.16
621.63	1082.73
621.98	1064.24
622.32	1060.73
622.67	1069.86
623.02	1070.09
623.36	1075.48
623.71	1078.28
624.05	1088.35
624.40	1088.82
624.75	1096.31
625.09	1091.39
625.44	1104.26
625.78	1090.92
626.13	1088.35
626.48	1079.46
626.82	1089.05
627.17	1071.73
627.51	1083.20
627.86	1082.26
628.20	1087.88
628.55	1080.39
628.89	1090.46
629.24	1081.33
629.58	1083.67
629.93	1081.09
630.28	1083.20
630.62	1072.67
630.97	1078.05
631.31	1079.92
631.66	1083.20
632.00	1088.35
632.35	1099.12
632.69	1096.54
633.04	1089.29
633.38	1079.92
633.73	1077.58
634.07	1074.31
634.42	1076.88
634.76	1089.52
635.11	1094.90
635.45	1100.52
635.79	1099.35
636.14	1097.48
636.48	1085.54
636.83	1085.77
637.17	1080.39
637.52	1085.54
637.86	1087.18
638.21	1092.09
638.55	1093.50
638.89	1097.01
639.24	1093.50
639.58	1088.58
639.93	1086.94
640.27	1090.46
640.61	1082.97
640.96	1094.43
641.30	1097.24
641.65	1094.90
641.99	1084.37
642.33	1085.31
642.68	1081.33
643.02	1082.73
643.37	1089.05
643.71	1099.12
644.05	1100.05
644.40	1095.14
644.74	1093.50
645.08	1091.63
645.43	1087.18
645.77	1079.22
646.11	1079.69
646.46	1084.60
646.80	1082.03
647.14	1088.35
647.49	1093.50
647.83	1086.01
648.17	1094.67
648.52	1100.29
648.86	1086.94
649.20	1099.35
649.55	1103.33
649.89	1101.92
650.23	1092.80
650.57	1106.14
650.92	1097.71
651.26	1100.05
651.60	1083.67
651.95	1072.43
652.29	1067.75
652.63	1074.07
652.97	1071.73
653.32	1077.58
653.66	1100.99
654.00	1106.84
654.34	1096.54
654.69	1101.92
655.03	1097.01
655.37	1090.46
655.71	1078.28
656.05	1079.69
656.40	1075.01
656.74	1075.94
657.08	1075.48
657.42	1082.50
657.76	1083.67
658.11	1082.03
658.45	1080.86
658.79	1082.26
659.13	1076.18
659.47	1078.99
659.82	1078.28
660.16	1090.46
660.50	1090.46
660.84	1093.73
661.18	1088.12
661.52	1086.24
661.87	1077.82
662.21	1075.94
662.55	1071.97
662.89	1072.43
663.23	1075.94
663.57	1074.07
663.91	1071.97
664.25	1077.58
664.60	1089.75
664.94	1097.01
665.28	1098.41
665.62	1100.75
665.96	1094.90
666.30	1091.39
666.64	1085.31
666.98	1090.69
667.32	1092.80
667.66	1101.92
668.01	1089.75
668.35	1087.18
668.69	1080.39
669.03	1071.50
669.37	1060.50
669.71	1067.28
670.05	1072.20
670.39	1076.41
670.73	1084.60
671.07	1091.86
671.41	1094.43
671.75	1087.18
672.09	1086.01
672.43	1082.97
672.77	1083.20
673.11	1081.56
673.45	1094.20
673.79	1086.94
674.13	1087.88
674.47	1089.75
674.81	1090.46
675.15	1082.97
675.49	1091.86
675.83	1089.29
676.17	1092.33
676.51	1083.20
676.85	1087.88
677.19	1087.18
677.53	1086.48
677.87	1072.43
678.21	1087.41
678.55	1085.31
678.89	1083.20
679.23	1081.56
679.57	1091.16
679.90	1088.12
680.24	1088.35
680.58	1082.97
680.92	1085.07
681.26	1082.03
681.60	1075.48
681.94	1071.03
682.28	1075.71
682.62	1072.90
682.96	1075.71
683.29	1088.12
683.63	1090.22
683.97	1086.01
684.31	1080.86
684.65	1088.12
684.99	1077.35
685.33	1081.56
685.67	1090.92
686.00	1098.18
686.34	1080.63
686.68	1079.22
687.02	1070.33
687.36	1064.94
687.70	1072.67
688.03	1082.50
688.37	1085.77
688.71	1093.50
689.05	1099.82
689.39	1092.33
689.72	1091.16
690.06	1085.07
690.40	1080.63
690.74	1076.41
691.08	1071.97
691.41	1070.33
691.75	1075.24
692.09	1078.28
692.43	1075.94
692.76	1093.26
693.10	1102.86
693.44	1103.09
693.78	1092.09
694.11	1097.24
694.45	1090.92
694.79	1075.71
695.13	1073.60
695.46	1084.14
695.80	1079.22
696.14	1074.31
696.48	1082.73
696.81	1087.65
697.15	1089.52
697.49	1101.22
697.82	1090.92
698.16	1096.07
698.50	1093.50
698.83	1086.01
699.17	1076.18
699.51	1093.50
699.84	1089.75
700.18	1095.60
700.52	1097.48
700.85	1088.58
701.19	1082.97
701.53	1082.50
701.86	1071.03
702.20	1064.94
702.54	1069.16
702.87	1069.62
703.21	1070.80
703.55	1073.84
703.88	1089.52
704.22	1100.99
704.55	1104.97
704.89	1095.60
705.23	1093.50
705.56	1076.41
705.90	1069.86
706.23	1064.01
706.57	1072.20
706.91	1076.18
707.24	1089.05
707.58	1092.33
707.91	1097.01
708.25	1094.43
708.58	1094.67
708.92	1092.56
709.26	1093.26
709.59	1086.71
709.93	1088.58
710.26	1092.33
710.60	1087.41
710.93	1088.12
711.27	1083.20
711.60	1078.52
711.94	1075.94
712.27	1070.09
712.61	1059.33
712.94	1068.45
713.28	1066.11
713.61	1058.16
713.95	1070.80
714.28	1076.65
714.62	1080.63
714.95	1080.16
715.29	1088.58
715.62	1083.20
715.96	1078.99
716.29	1064.48
716.63	1072.90
716.96	1072.90
717.29	1079.22
717.63	1091.16
717.96	1102.63
718.30	1097.24
718.63	1086.71
718.97	1081.80
719.30	1071.26
719.63	1072.20
719.97	1074.07
720.30	1076.41
720.64	1073.60
720.97	1076.18
721.30	1060.73
721.64	1064.94
721.97	1069.86
722.31	1072.20
722.64	1068.22
722.97	1076.65
723.31	1067.05
723.64	1071.50
723.97	1074.77
724.31	1080.63
724.64	1092.80
724.98	1101.22
725.31	1092.33
725.64	1089.52
725.98	1086.24
726.31	1080.86
726.64	1076.65
726.97	1083.20
727.31	1079.69
727.64	1086.94
727.97	1076.41
728.31	1078.28
728.64	1081.09
728.97	1086.48
729.31	1080.86
729.64	1094.67
729.97	1093.03
730.30	1094.67
730.64	1095.37
730.97	1095.14
731.30	1089.99
731.63	1091.39
731.97	1086.71
732.30	1082.50
732.63	1082.03
732.96	1083.67
733.30	1085.07
733.63	1082.26
733.96	1093.73
734.29	1097.01
734.63	1093.03
734.96	1095.37
735.29	1096.78
735.62	1094.67
735.95	1084.84
736.29	1090.69
736.62	1089.05
736.95	1078.52
737.28	1066.58
737.61	1067.99
737.94	1058.86
738.28	1059.56
738.61	1067.28
738.94	1059.56
739.27	1066.58
739.60	1070.33
739.93	1072.43
740.27	1072.20
740.60	1086.71
740.93	1081.09
741.26	1081.56
741.59	1072.90
741.92	1068.92
742.25	1065.88
742.58	1065.88
742.91	1067.52
743.25	1075.94
743.58	1085.77
743.91	1085.77
744.24	1093.26
744.57	1094.90
744.90	1090.22
745.23	1086.94
745.56	1085.07
745.89	1080.63
746.22	1083.90
746.55	1087.18
746.88	1079.46
747.21	1085.77
747.54	1093.50
747.87	1085.54
748.20	1077.11
748.53	1091.39
748.87	1085.54
749.20	1084.14
749.53	1089.75
749.86	1089.75
750.19	1086.24
750.52	1087.18
750.85	1077.82
751.18	1075.71
751.51	1076.18
751.84	1076.18
752.16	1074.77
752.49	1075.24
752.82	1062.14
753.15	1061.20
753.48	1056.05
753.81	1055.35
754.14	1049.96
754.47	1060.96
754.80	1063.07
755.13	1055.35
755.46	1067.52
755.79	1079.46
756.12	1087.18
756.45	1089.05
756.78	1104.97
757.11	1102.16
757.43	1092.80
757.76	1076.41
758.09	1077.58
758.42	1068.92
758.75	1063.54
759.08	1072.67
759.41	1078.99
759.74	1083.90
760.07	1086.94
760.39	1082.50
760.72	1076.88
761.05	1083.20
761.38	1080.63
761.71	1076.88
762.04	1072.67
762.36	1062.84
762.69	1058.39
763.02	1044.11
763.35	1049.50
763.68	1055.82
764.01	1064.24
764.33	1063.77
764.66	1070.80
