SpectraSuite Data File
++++++++++++++++++++++++++++++++++++
Date: Mon Aug 26 10:24:47 PDT 2019
User: corrico
Dark Spectrum Present: No
Reference Spectrum Present: No
Number of Sampled Component Spectra: 1
Spectrometers: USB2+H06089
Integration Time (usec): 10000 (USB2+H06089)
Spectra Averaged: 2 (USB2+H06089)
Boxcar Smoothing: 2 (USB2+H06089)
Correct for Electrical Dark: No (USB2+H06089)
Strobe/Lamp Enabled: No (USB2+H06089)
Correct for Detector Non-linearity: No (USB2+H06089)
Correct for Stray Light: No (USB2+H06089)
Number of Pixels in Processed Spectrum: 2048
>>>>>Begin Processed Spectral Data<<<<<
339.70	986.54
340.07	986.54
340.45	963.13
340.82	951.43
341.19	933.64
341.57	913.98
341.94	912.81
342.31	898.77
342.69	897.36
343.06	902.98
343.43	907.43
343.81	906.96
344.18	917.72
344.55	911.87
344.93	911.17
345.30	906.49
345.67	908.60
346.04	915.85
346.42	931.53
346.79	936.92
347.16	951.19
347.54	965.00
347.91	968.28
348.28	975.30
348.65	991.68
349.03	1012.05
349.40	1021.64
349.77	1038.03
350.14	1039.20
350.52	1040.60
350.89	1042.47
351.26	1046.69
351.63	1051.13
352.01	1070.09
352.38	1075.94
352.75	1076.18
353.12	1075.01
353.50	1081.80
353.87	1073.14
354.24	1082.03
354.61	1079.92
354.98	1083.67
355.36	1082.26
355.73	1089.99
356.10	1086.94
356.47	1096.31
356.84	1097.24
357.22	1086.01
357.59	1088.82
357.96	1089.99
358.33	1086.01
358.70	1088.82
359.08	1094.20
359.45	1093.73
359.82	1095.60
360.19	1092.80
360.56	1094.67
360.94	1097.95
361.31	1099.82
361.68	1085.07
362.05	1084.37
362.42	1079.69
362.79	1081.33
363.16	1072.67
363.54	1077.11
363.91	1073.84
364.28	1068.69
364.65	1074.54
365.02	1078.28
365.39	1086.01
365.76	1090.69
366.14	1099.35
366.51	1088.12
366.88	1089.99
367.25	1084.60
367.62	1086.01
367.99	1082.73
368.36	1079.69
368.73	1079.46
369.10	1086.01
369.48	1087.88
369.85	1086.24
370.22	1093.50
370.59	1093.26
370.96	1096.07
371.33	1100.75
371.70	1108.95
372.07	1108.48
372.44	1104.26
372.81	1101.69
373.18	1100.99
373.55	1097.48
373.93	1098.65
374.30	1094.67
374.67	1089.75
375.04	1078.52
375.41	1072.43
375.78	1069.39
376.15	1073.37
376.52	1081.80
376.89	1088.35
377.26	1097.95
377.63	1110.58
378.00	1114.10
378.37	1095.84
378.74	1096.07
379.11	1097.95
379.48	1086.24
379.85	1083.20
380.22	1081.33
380.59	1083.67
380.96	1071.97
381.33	1071.97
381.70	1077.11
382.07	1096.31
382.44	1092.80
382.81	1100.52
383.18	1105.20
383.55	1102.63
383.92	1094.43
384.29	1097.71
384.66	1086.71
385.03	1086.01
385.40	1090.69
385.77	1096.54
386.14	1095.37
386.51	1111.29
386.88	1101.69
387.25	1098.65
387.62	1092.09
387.99	1089.99
388.36	1094.90
388.73	1099.12
389.10	1089.52
389.46	1104.73
389.83	1111.75
390.20	1111.75
390.57	1123.69
390.94	1136.56
391.31	1129.54
391.68	1123.46
392.05	1113.16
392.42	1106.84
392.79	1100.75
393.16	1097.71
393.53	1099.35
393.89	1102.16
394.26	1106.84
394.63	1115.73
395.00	1118.54
395.37	1124.39
395.74	1122.75
396.11	1119.71
396.48	1115.97
396.84	1113.16
397.21	1115.97
397.58	1119.48
397.95	1121.58
398.32	1117.37
398.69	1120.41
399.06	1120.65
399.42	1121.12
399.79	1128.14
400.16	1145.22
400.53	1153.18
400.90	1161.37
401.27	1172.37
401.64	1177.76
402.00	1171.44
402.37	1172.14
402.74	1175.65
403.11	1172.14
403.48	1170.03
403.84	1177.99
404.21	1188.29
404.58	1193.91
404.95	1214.97
405.32	1229.48
405.68	1244.70
406.05	1259.91
406.42	1280.04
406.79	1284.25
407.16	1303.21
407.52	1318.42
407.89	1331.30
408.26	1326.15
408.63	1353.53
408.99	1371.55
409.36	1391.68
409.73	1414.39
410.10	1456.98
410.47	1477.58
410.83	1509.41
411.20	1553.88
411.57	1595.08
411.94	1634.63
412.30	1678.63
412.67	1714.91
413.04	1762.19
413.40	1816.96
413.77	1872.90
414.14	1940.30
414.51	2011.22
414.87	2073.48
415.24	2154.23
415.61	2235.21
415.97	2322.51
416.34	2418.01
416.71	2506.01
417.08	2595.42
417.44	2705.89
417.81	2804.66
418.18	2919.58
418.54	3061.42
418.91	3219.64
419.28	3362.18
419.64	3516.89
420.01	3685.64
420.38	3841.52
420.74	3998.10
421.11	4197.75
421.48	4413.08
421.84	4623.96
422.21	4862.70
422.58	5099.09
422.94	5345.55
423.31	5591.77
423.68	5861.87
424.04	6145.54
424.41	6468.54
424.77	6765.32
425.14	7102.36
425.51	7471.46
425.87	7846.65
426.24	8207.56
426.61	8642.90
426.97	9139.56
427.34	9570.68
427.70	10069.45
428.07	10582.26
428.44	11127.37
428.80	11619.59
429.17	12160.25
429.53	12714.26
429.90	13345.73
430.27	13903.72
430.63	14483.70
431.00	15218.87
431.36	15949.35
431.73	16545.95
432.09	17244.83
432.46	18012.29
432.83	18586.66
433.19	19130.84
433.56	19855.23
433.92	20528.14
434.29	21093.61
434.65	21864.58
435.02	22539.36
435.38	23196.82
435.75	23728.59
436.11	24387.45
436.48	24798.68
436.84	25337.70
437.21	25766.26
437.57	26215.87
437.94	26625.93
438.30	27018.91
438.67	27260.22
439.03	27448.40
439.40	27640.09
439.76	27576.66
440.13	27508.78
440.49	27504.10
440.86	27292.75
441.22	26990.12
441.59	26664.09
441.95	26323.07
442.32	25788.96
442.68	25298.85
443.05	24772.46
443.41	24291.95
443.78	23674.28
444.14	23070.19
444.51	22512.91
444.87	22064.70
445.24	21537.84
445.60	21120.29
445.96	20571.44
446.33	20083.43
446.69	19438.15
447.06	18880.63
447.42	18244.71
447.79	17723.71
448.15	17276.20
448.51	16792.17
448.88	16403.41
449.24	15969.71
449.61	15679.25
449.97	15235.02
450.33	14897.04
450.70	14425.89
451.06	14103.13
451.43	13633.62
451.79	13258.90
452.15	12932.63
452.52	12630.94
452.88	12296.00
453.24	12005.54
453.61	11740.13
453.97	11424.86
454.34	11114.74
454.70	10844.40
455.06	10632.12
455.43	10316.61
455.79	9947.98
456.15	9645.11
456.52	9323.52
456.88	9019.72
457.24	8766.24
457.61	8597.96
457.97	8356.65
458.33	8086.32
458.70	7799.13
459.06	7499.54
459.42	7248.17
459.79	6997.27
460.15	6790.83
460.51	6592.82
460.88	6406.28
461.24	6169.18
461.60	5997.15
461.96	5833.55
462.33	5644.44
462.69	5497.45
463.05	5371.06
463.42	5237.42
463.78	5084.58
464.14	4961.23
464.50	4831.80
464.87	4712.20
465.23	4601.26
465.59	4499.21
465.95	4406.29
466.32	4302.14
466.68	4201.03
467.04	4088.45
467.40	3990.61
467.77	3898.63
468.13	3823.03
468.49	3757.50
468.85	3687.98
469.22	3635.32
469.58	3563.47
469.94	3512.68
470.30	3442.23
470.66	3369.90
471.03	3284.01
471.39	3235.79
471.75	3159.02
472.11	3099.10
472.47	3053.70
472.84	3012.50
473.20	2960.54
473.56	2911.86
473.92	2845.16
474.28	2794.37
474.65	2748.26
475.01	2700.28
475.37	2649.72
475.73	2624.21
476.09	2601.74
476.45	2570.38
476.81	2524.97
477.18	2483.31
477.54	2432.75
477.90	2384.30
478.26	2334.68
478.62	2301.92
478.98	2264.94
479.34	2255.11
479.71	2213.91
480.07	2199.87
480.43	2179.27
480.79	2159.85
481.15	2117.25
481.51	2111.40
481.87	2086.59
482.23	2058.74
482.59	2032.29
482.96	2024.10
483.32	1986.41
483.68	1962.31
484.04	1954.11
484.40	1941.01
484.76	1916.66
485.12	1904.49
485.48	1887.17
485.84	1858.15
486.20	1828.89
486.56	1806.66
486.92	1782.08
487.28	1757.98
487.64	1747.44
488.00	1738.55
488.37	1726.38
488.73	1726.38
489.09	1707.65
489.45	1689.16
489.81	1680.74
490.17	1662.01
490.53	1645.86
490.89	1641.18
491.25	1626.91
491.61	1601.63
491.97	1583.14
492.33	1561.14
492.69	1547.09
493.05	1525.33
493.41	1522.52
493.77	1519.94
494.13	1510.58
494.49	1500.05
494.85	1486.94
495.21	1467.28
495.57	1453.71
495.93	1443.17
496.29	1427.02
496.64	1429.37
497.00	1431.47
497.36	1417.90
497.72	1405.96
498.08	1401.75
498.44	1389.11
498.80	1376.47
499.16	1369.92
499.52	1355.64
499.88	1345.11
500.24	1332.00
500.60	1324.51
500.96	1320.53
501.32	1314.91
501.68	1306.96
502.03	1309.76
502.39	1308.59
502.75	1306.49
503.11	1302.98
503.47	1288.70
503.83	1271.14
504.19	1259.21
504.55	1243.53
504.91	1236.74
505.26	1236.74
505.62	1240.25
505.98	1226.91
506.34	1220.82
506.70	1216.14
507.06	1218.95
507.42	1205.38
507.78	1209.82
508.13	1213.57
508.49	1218.95
508.85	1214.97
509.21	1229.72
509.57	1229.48
509.93	1230.42
510.28	1235.10
510.64	1229.95
511.00	1210.29
511.36	1208.18
511.72	1196.48
512.07	1181.50
512.43	1177.06
512.79	1177.06
513.15	1165.35
513.51	1164.42
513.86	1162.08
514.22	1170.97
514.58	1179.86
514.94	1177.76
515.30	1191.80
515.65	1192.50
516.01	1178.69
516.37	1171.20
516.73	1176.82
517.08	1160.67
517.44	1155.52
517.80	1164.65
518.16	1161.37
518.51	1153.18
518.87	1152.01
519.23	1147.33
519.59	1137.27
519.94	1144.76
520.30	1142.88
520.66	1137.03
521.01	1143.59
521.37	1148.27
521.73	1146.16
522.09	1148.50
522.44	1148.27
522.80	1142.18
523.16	1138.90
523.51	1137.27
523.87	1140.31
524.23	1148.50
524.58	1143.82
524.94	1133.76
525.30	1129.31
525.65	1116.67
526.01	1111.52
526.37	1113.63
526.72	1133.05
527.08	1125.56
527.44	1126.97
527.79	1126.50
528.15	1136.56
528.51	1126.50
528.86	1128.61
529.22	1132.12
529.58	1137.97
529.93	1126.03
530.29	1118.54
530.65	1113.63
531.00	1116.20
531.36	1108.01
531.71	1111.05
532.07	1113.86
532.43	1118.31
532.78	1122.99
533.14	1118.54
533.49	1118.07
533.85	1126.97
534.21	1131.88
534.56	1124.16
534.92	1122.99
535.27	1123.22
535.63	1118.31
535.98	1110.12
536.34	1118.07
536.69	1115.97
537.05	1117.37
537.41	1112.22
537.76	1118.78
538.12	1109.65
538.47	1111.75
538.83	1101.92
539.18	1104.73
539.54	1106.14
539.89	1109.88
540.25	1122.29
540.60	1126.27
540.96	1123.69
541.31	1123.69
541.67	1114.10
542.02	1110.82
542.38	1122.05
542.73	1120.18
543.09	1112.69
543.44	1115.97
543.80	1114.10
544.15	1107.78
544.51	1119.24
544.86	1125.80
545.22	1130.24
545.57	1117.37
545.93	1117.61
546.28	1106.84
546.64	1099.58
546.99	1096.07
547.35	1107.54
547.70	1100.75
548.05	1104.73
548.41	1097.95
548.76	1103.09
549.12	1100.05
549.47	1107.31
549.83	1103.56
550.18	1107.07
550.53	1107.78
550.89	1104.97
551.24	1099.35
551.60	1096.31
551.95	1103.09
552.30	1105.67
552.66	1109.41
553.01	1122.99
553.37	1123.93
553.72	1111.29
554.07	1107.07
554.43	1099.12
554.78	1084.14
555.13	1093.03
555.49	1107.54
555.84	1100.05
556.19	1115.73
556.55	1126.50
556.90	1120.65
557.26	1112.92
557.61	1116.90
557.96	1100.75
558.32	1094.67
558.67	1096.78
559.02	1097.24
559.37	1099.35
559.73	1102.63
560.08	1103.80
560.43	1096.54
560.79	1095.84
561.14	1097.48
561.49	1100.29
561.85	1095.37
562.20	1104.50
562.55	1110.35
562.90	1099.58
563.26	1102.16
563.61	1104.97
563.96	1105.67
564.32	1096.78
564.67	1104.97
565.02	1099.12
565.37	1094.90
565.73	1080.63
566.08	1082.03
566.43	1076.88
566.78	1079.69
567.14	1073.37
567.49	1082.50
567.84	1084.37
568.19	1085.07
568.54	1079.22
568.90	1092.09
569.25	1088.82
569.60	1090.22
569.95	1095.37
570.31	1102.39
570.66	1093.50
571.01	1094.43
571.36	1092.80
571.71	1092.80
572.06	1103.56
572.42	1113.86
572.77	1113.63
573.12	1113.63
573.47	1101.69
573.82	1089.75
574.18	1087.88
574.53	1085.31
574.88	1091.63
575.23	1102.39
575.58	1104.03
575.93	1089.52
576.28	1093.97
576.64	1091.39
576.99	1089.99
577.34	1097.01
577.69	1100.75
578.04	1101.46
578.39	1097.24
578.74	1093.97
579.09	1082.73
579.44	1094.90
579.80	1102.16
580.15	1100.29
580.50	1102.86
580.85	1107.78
581.20	1099.58
581.55	1083.90
581.90	1098.41
582.25	1100.29
582.60	1094.43
582.95	1095.37
583.30	1097.24
583.65	1079.69
584.00	1082.50
584.35	1078.28
584.71	1072.43
585.06	1081.56
585.41	1090.92
585.76	1093.03
586.11	1103.56
586.46	1112.92
586.81	1106.14
587.16	1099.82
587.51	1104.97
587.86	1096.78
588.21	1091.63
588.56	1090.92
588.91	1100.75
589.26	1092.80
589.61	1100.52
589.96	1093.97
590.31	1093.26
590.66	1089.29
591.01	1084.37
591.36	1084.14
591.71	1089.75
592.06	1103.09
592.41	1093.50
592.76	1093.50
593.10	1092.56
593.45	1095.84
593.80	1091.16
594.15	1104.03
594.50	1108.71
594.85	1098.18
595.20	1099.58
595.55	1100.75
595.90	1097.95
596.25	1089.75
596.60	1094.67
596.95	1098.41
597.30	1087.41
597.64	1126.27
597.99	1138.90
598.34	1143.59
598.69	1132.12
599.04	1141.95
599.39	1098.88
599.74	1089.75
600.09	1089.52
600.44	1107.78
600.78	1108.95
601.13	1109.88
601.48	1112.92
601.83	1115.97
602.18	1108.48
602.53	1101.69
602.88	1100.52
603.22	1096.07
603.57	1093.50
603.92	1091.63
604.27	1093.97
604.62	1089.05
604.97	1094.43
605.31	1097.24
605.66	1096.78
606.01	1093.50
606.36	1095.37
606.71	1098.41
607.05	1088.12
607.40	1083.67
607.75	1082.50
608.10	1091.39
608.44	1095.14
608.79	1095.60
609.14	1100.05
609.49	1094.20
609.84	1092.33
610.18	1083.43
610.53	1099.12
610.88	1104.73
611.23	1114.56
611.57	1124.16
611.92	1114.80
612.27	1111.52
612.62	1100.52
612.96	1103.80
613.31	1097.71
613.66	1114.33
614.00	1104.97
614.35	1111.52
614.70	1107.78
615.05	1096.78
615.39	1087.65
615.74	1080.86
616.09	1080.39
616.43	1078.28
616.78	1088.82
617.13	1096.54
617.47	1111.99
617.82	1109.88
618.17	1106.84
618.51	1095.60
618.86	1083.67
619.21	1078.05
619.55	1076.65
619.90	1083.20
620.25	1080.86
620.59	1091.63
620.94	1090.22
621.29	1100.99
621.63	1102.16
621.98	1111.75
622.32	1102.16
622.67	1107.07
623.02	1099.12
623.36	1092.56
623.71	1096.54
624.05	1094.43
624.40	1089.29
624.75	1082.03
625.09	1090.92
625.44	1081.56
625.78	1085.77
626.13	1088.58
626.48	1098.88
626.82	1087.65
627.17	1096.31
627.51	1096.54
627.86	1091.39
628.20	1078.99
628.55	1082.50
628.89	1075.24
629.24	1074.54
629.58	1081.80
629.93	1097.48
630.28	1089.99
630.62	1081.56
630.97	1079.92
631.31	1075.01
631.66	1064.48
632.00	1083.20
632.35	1097.48
632.69	1102.63
633.04	1097.01
633.38	1096.78
633.73	1089.05
634.07	1084.60
634.42	1088.58
634.76	1092.09
635.11	1098.18
635.45	1094.20
635.79	1098.65
636.14	1090.46
636.48	1086.24
636.83	1075.71
637.17	1077.82
637.52	1069.62
637.86	1071.73
638.21	1083.20
638.55	1103.33
638.89	1109.41
639.24	1113.63
639.58	1113.63
639.93	1121.35
640.27	1104.97
640.61	1090.69
640.96	1094.20
641.30	1097.01
641.65	1087.18
641.99	1085.31
642.33	1097.24
642.68	1094.90
643.02	1101.46
643.37	1099.35
643.71	1105.44
644.05	1101.92
644.40	1099.12
644.74	1095.60
645.08	1092.09
645.43	1091.63
645.77	1075.71
646.11	1079.92
646.46	1076.18
646.80	1076.18
647.14	1076.41
647.49	1097.48
647.83	1101.69
648.17	1110.12
648.52	1115.73
648.86	1101.92
649.20	1099.35
649.55	1091.39
649.89	1085.54
650.23	1085.07
650.57	1098.88
650.92	1100.52
651.26	1097.71
651.60	1099.35
651.95	1090.92
652.29	1087.18
652.63	1081.80
652.97	1089.75
653.32	1082.03
653.66	1093.03
654.00	1093.03
654.34	1089.05
654.69	1087.88
655.03	1096.07
655.37	1096.54
655.71	1092.80
656.05	1079.22
656.40	1079.92
656.74	1074.07
657.08	1071.97
657.42	1082.03
657.76	1101.22
658.11	1090.69
658.45	1083.43
658.79	1083.90
659.13	1082.26
659.47	1082.50
659.82	1100.99
660.16	1111.75
660.50	1105.90
660.84	1108.01
661.18	1103.09
661.52	1097.71
661.87	1094.67
662.21	1094.90
662.55	1091.86
662.89	1093.26
663.23	1089.05
663.57	1092.09
663.91	1085.31
664.25	1087.41
664.60	1092.33
664.94	1091.16
665.28	1089.29
665.62	1099.35
665.96	1091.39
666.30	1083.43
666.64	1084.14
666.98	1077.58
667.32	1075.01
667.66	1075.71
668.01	1090.22
668.35	1084.14
668.69	1084.60
669.03	1085.31
669.37	1092.80
669.71	1086.01
670.05	1077.82
670.39	1082.26
670.73	1081.09
671.07	1069.39
671.41	1068.69
671.75	1067.28
672.09	1057.92
672.43	1054.41
672.77	1053.24
673.11	1052.07
673.45	1063.77
673.79	1075.94
674.13	1077.35
674.47	1086.71
674.81	1087.18
675.15	1088.82
675.49	1088.58
675.83	1088.58
676.17	1082.50
676.51	1079.69
676.85	1089.99
677.19	1096.07
677.53	1099.12
677.87	1101.69
678.21	1098.65
678.55	1084.14
678.89	1074.77
679.23	1083.43
679.57	1092.33
679.90	1095.84
680.24	1093.97
680.58	1088.35
680.92	1072.67
681.26	1061.90
681.60	1062.14
681.94	1065.18
682.28	1066.82
682.62	1076.65
682.96	1086.94
683.29	1086.24
683.63	1087.41
683.97	1090.92
684.31	1083.67
684.65	1081.80
684.99	1086.71
685.33	1089.29
685.67	1087.18
686.00	1100.52
686.34	1094.67
686.68	1092.80
687.02	1090.46
687.36	1100.99
687.70	1097.24
688.03	1095.60
688.37	1091.63
688.71	1090.69
689.05	1097.71
689.39	1092.09
689.72	1098.41
690.06	1098.18
690.40	1106.14
690.74	1097.48
691.08	1094.20
691.41	1084.37
691.75	1081.80
692.09	1078.52
692.43	1068.92
692.76	1074.77
693.10	1075.71
693.44	1076.88
693.78	1078.52
694.11	1085.31
694.45	1086.48
694.79	1089.99
695.13	1101.46
695.46	1094.67
695.80	1092.33
696.14	1077.35
696.48	1084.37
696.81	1069.16
697.15	1066.11
697.49	1060.50
697.82	1067.99
698.16	1066.35
698.50	1071.50
698.83	1070.80
699.17	1072.67
699.51	1078.28
699.84	1078.28
700.18	1073.14
700.52	1080.63
700.85	1077.58
701.19	1069.62
701.53	1062.84
701.86	1066.11
702.20	1066.82
702.54	1064.01
702.87	1064.94
703.21	1068.69
703.55	1075.71
703.88	1072.90
704.22	1079.69
704.55	1075.01
704.89	1077.58
705.23	1079.22
705.56	1080.16
705.90	1084.60
706.23	1090.92
706.57	1092.33
706.91	1088.12
707.24	1089.29
707.58	1089.05
707.91	1100.75
708.25	1093.03
708.58	1101.92
708.92	1109.18
709.26	1104.50
709.59	1098.88
709.93	1094.43
710.26	1083.67
710.60	1069.62
710.93	1068.92
711.27	1075.71
711.60	1086.01
711.94	1088.82
712.27	1095.84
712.61	1096.07
712.94	1090.69
713.28	1090.22
713.61	1088.35
713.95	1080.86
714.28	1074.31
714.62	1068.69
714.95	1066.82
715.29	1060.73
715.62	1062.60
715.96	1068.22
716.29	1069.39
716.63	1070.33
716.96	1072.67
717.29	1067.99
717.63	1069.86
717.96	1064.24
718.30	1059.79
718.63	1062.84
718.97	1072.43
719.30	1072.43
719.63	1083.43
719.97	1087.65
720.30	1092.80
720.64	1084.60
720.97	1085.54
721.30	1073.14
721.64	1072.20
721.97	1065.18
722.31	1069.62
722.64	1068.22
722.97	1083.67
723.31	1081.09
723.64	1080.39
723.97	1082.73
724.31	1089.99
724.64	1075.48
724.98	1080.63
725.31	1088.12
725.64	1090.69
725.98	1076.88
726.31	1079.92
726.64	1067.28
726.97	1062.37
727.31	1066.11
727.64	1071.97
727.97	1072.43
728.31	1090.46
728.64	1097.71
728.97	1095.14
729.31	1089.99
729.64	1089.29
729.97	1078.28
730.30	1071.26
730.64	1078.28
730.97	1085.07
731.30	1095.37
731.63	1099.12
731.97	1097.01
732.30	1086.24
732.63	1084.84
732.96	1084.60
733.30	1086.48
733.63	1094.43
733.96	1095.37
734.29	1098.65
734.63	1097.95
734.96	1092.80
735.29	1082.50
735.62	1084.60
735.95	1089.52
736.29	1087.65
736.62	1091.63
736.95	1100.75
737.28	1107.07
737.61	1108.24
737.94	1108.24
738.28	1106.37
738.61	1097.71
738.94	1084.37
739.27	1094.90
739.60	1092.09
739.93	1086.01
740.27	1088.35
740.60	1093.73
740.93	1078.52
741.26	1082.03
741.59	1084.84
741.92	1082.03
742.25	1080.86
742.58	1082.97
742.91	1084.37
743.25	1085.77
743.58	1091.86
743.91	1090.69
744.24	1086.71
744.57	1074.77
744.90	1077.58
745.23	1065.41
745.56	1078.75
745.89	1070.33
746.22	1075.01
746.55	1069.62
746.88	1089.99
747.21	1085.77
747.54	1090.22
747.87	1095.14
748.20	1100.52
748.53	1096.54
748.87	1089.75
749.20	1099.12
749.53	1102.16
749.86	1100.05
750.19	1091.86
750.52	1097.71
750.85	1101.46
751.18	1086.24
751.51	1096.78
751.84	1096.78
752.16	1088.35
752.49	1075.24
752.82	1085.31
753.15	1082.50
753.48	1089.05
753.81	1090.92
754.14	1081.09
754.47	1076.18
754.80	1069.62
755.13	1069.62
755.46	1073.14
755.79	1083.90
756.12	1093.73
756.45	1096.78
756.78	1094.67
757.11	1086.94
757.43	1096.31
757.76	1093.73
758.09	1099.12
758.42	1094.90
758.75	1103.56
759.08	1097.71
759.41	1097.01
759.74	1091.86
760.07	1097.01
760.39	1092.09
760.72	1087.88
761.05	1086.94
761.38	1093.03
761.71	1087.41
762.04	1086.94
762.36	1100.05
762.69	1104.50
763.02	1096.54
763.35	1099.35
763.68	1095.84
764.01	1086.01
764.33	1073.60
764.66	1077.82
