SpectraSuite Data File
++++++++++++++++++++++++++++++++++++
Date: Mon Aug 26 10:24:47 PDT 2019
User: corrico
Dark Spectrum Present: No
Reference Spectrum Present: No
Number of Sampled Component Spectra: 1
Spectrometers: USB2+H06089
Integration Time (usec): 10000 (USB2+H06089)
Spectra Averaged: 2 (USB2+H06089)
Boxcar Smoothing: 2 (USB2+H06089)
Correct for Electrical Dark: No (USB2+H06089)
Strobe/Lamp Enabled: No (USB2+H06089)
Correct for Detector Non-linearity: No (USB2+H06089)
Correct for Stray Light: No (USB2+H06089)
Number of Pixels in Processed Spectrum: 2048
>>>>>Begin Processed Spectral Data<<<<<
339.70	1016.96
340.07	1016.96
340.45	979.05
340.82	962.19
341.19	935.98
341.57	904.38
341.94	895.25
342.31	891.74
342.69	881.45
343.06	875.83
343.43	886.83
343.81	882.15
344.18	890.57
344.55	899.47
344.93	908.13
345.30	895.49
345.67	911.40
346.04	916.09
346.42	922.64
346.79	927.09
347.16	955.87
347.54	965.00
347.91	986.07
348.28	994.73
348.65	1016.73
349.03	1021.64
349.40	1031.01
349.77	1026.32
350.14	1036.39
350.52	1035.22
350.89	1048.79
351.26	1042.24
351.63	1054.88
352.01	1058.16
352.38	1072.67
352.75	1069.86
353.12	1089.99
353.50	1086.94
353.87	1089.99
354.24	1085.77
354.61	1081.80
354.98	1071.26
355.36	1076.65
355.73	1084.60
356.10	1088.12
356.47	1093.03
356.84	1105.90
357.22	1100.99
357.59	1092.80
357.96	1093.03
358.33	1098.88
358.70	1089.99
359.08	1100.75
359.45	1108.71
359.82	1112.69
360.19	1118.07
360.56	1119.01
360.94	1115.73
361.31	1112.46
361.68	1103.33
362.05	1090.69
362.42	1090.46
362.79	1086.94
363.16	1093.97
363.54	1099.35
363.91	1103.09
364.28	1105.67
364.65	1110.82
365.02	1100.75
365.39	1098.41
365.76	1094.90
366.14	1094.20
366.51	1089.05
366.88	1081.80
367.25	1078.75
367.62	1080.16
367.99	1082.03
368.36	1074.31
368.73	1075.01
369.10	1076.18
369.48	1071.26
369.85	1062.37
370.22	1078.75
370.59	1088.58
370.96	1090.69
371.33	1094.90
371.70	1099.82
372.07	1091.63
372.44	1097.48
372.81	1101.46
373.18	1104.26
373.55	1098.18
373.93	1094.20
374.30	1092.09
374.67	1081.56
375.04	1083.20
375.41	1090.22
375.78	1099.58
376.15	1097.24
376.52	1111.75
376.89	1102.39
377.26	1098.88
377.63	1087.88
378.00	1084.84
378.37	1072.90
378.74	1088.12
379.11	1095.37
379.48	1099.35
379.85	1105.20
380.22	1115.73
380.59	1118.54
380.96	1119.71
381.33	1113.86
381.70	1104.73
382.07	1092.09
382.44	1078.05
382.81	1072.20
383.18	1077.11
383.55	1080.63
383.92	1089.75
384.29	1088.82
384.66	1088.12
385.03	1088.12
385.40	1090.22
385.77	1092.56
386.14	1108.01
386.51	1110.12
386.88	1116.20
387.25	1110.35
387.62	1113.63
387.99	1113.39
388.36	1113.16
388.73	1119.24
389.10	1124.63
389.46	1119.01
389.83	1111.99
390.20	1119.71
390.57	1114.09
390.94	1115.73
391.31	1114.56
391.68	1117.61
392.05	1111.29
392.42	1113.39
392.79	1106.61
393.16	1124.39
393.53	1124.86
393.89	1136.10
394.26	1133.05
394.63	1138.20
395.00	1122.52
395.37	1123.93
395.74	1118.07
396.11	1126.27
396.48	1130.48
396.84	1132.82
397.21	1127.20
397.58	1133.05
397.95	1128.37
398.32	1124.39
398.69	1126.03
399.06	1140.07
399.42	1130.71
399.79	1128.61
400.16	1136.80
400.53	1143.82
400.90	1141.48
401.27	1151.31
401.64	1158.80
402.00	1166.52
402.37	1174.48
402.74	1181.03
403.11	1190.16
403.48	1195.08
403.84	1203.50
404.21	1205.38
404.58	1222.93
404.95	1231.36
405.32	1243.99
405.68	1252.42
406.05	1272.32
406.42	1282.85
406.79	1298.53
407.16	1328.96
407.52	1359.15
407.89	1386.53
408.26	1401.51
408.63	1430.07
408.99	1456.28
409.36	1482.03
409.73	1499.11
410.10	1532.82
410.47	1565.82
410.83	1605.61
411.20	1640.72
411.57	1687.29
411.94	1744.17
412.30	1810.87
412.67	1851.36
413.04	1924.15
413.40	1999.75
413.77	2063.42
414.14	2117.95
414.51	2206.89
414.87	2277.11
415.24	2366.28
415.61	2473.48
415.97	2586.06
416.34	2694.89
416.71	2803.96
417.08	2934.80
417.44	3052.53
417.81	3205.83
418.18	3356.33
418.54	3529.29
418.91	3687.75
419.28	3897.93
419.64	4079.55
420.01	4278.97
420.38	4506.00
420.74	4701.43
421.11	4951.17
421.48	5194.35
421.84	5492.77
422.21	5759.82
422.58	6087.73
422.94	6369.07
423.31	6696.04
423.68	6999.84
424.04	7366.84
424.41	7737.58
424.77	8112.76
425.14	8484.21
425.51	8898.25
425.87	9379.70
426.24	9852.95
426.61	10378.17
426.97	11053.41
427.34	11663.59
427.70	12243.11
428.07	12833.86
428.44	13475.17
428.80	14075.51
429.17	14732.03
429.53	15384.11
429.90	16222.96
430.27	16935.41
430.63	17672.21
431.00	18500.53
431.36	19366.76
431.73	20100.75
432.09	20963.01
432.46	21825.50
432.83	22633.21
433.19	23413.31
433.56	24276.97
433.92	25117.46
434.29	25936.18
434.65	26831.67
435.02	27603.34
435.38	28416.21
435.75	28932.30
436.11	29619.95
436.48	30195.72
436.84	30948.20
437.21	31521.40
437.57	32258.67
437.94	32778.27
438.30	33151.35
438.67	33282.65
439.03	33402.25
439.40	33579.20
439.76	33549.00
440.13	33511.32
440.49	33615.24
440.86	33383.76
441.22	32990.32
441.59	32528.06
441.95	32060.66
442.32	31377.92
442.68	30862.77
443.05	30259.15
443.41	29652.25
443.78	28930.19
444.14	28232.95
444.51	27397.14
444.87	26836.35
445.24	26183.34
445.60	25576.67
445.96	24864.92
446.33	24387.91
446.69	23599.15
447.06	22977.98
447.42	22322.39
447.79	21634.27
448.15	20981.97
448.51	20377.64
448.88	19877.70
449.24	19340.31
449.61	18981.74
449.97	18540.09
450.33	18112.47
450.70	17512.82
451.06	17051.04
451.43	16524.65
451.79	16050.69
452.15	15653.50
452.52	15296.34
452.88	14938.24
453.24	14655.73
453.61	14333.21
453.97	13958.49
454.34	13552.64
454.70	13184.94
455.06	12779.56
455.43	12371.60
455.79	11929.94
456.15	11593.84
456.52	11215.61
456.88	10880.21
457.24	10511.11
457.61	10248.50
457.97	9953.13
458.33	9627.79
458.70	9312.52
459.06	8998.19
459.42	8711.94
459.79	8402.06
460.15	8158.64
460.51	7887.61
460.88	7643.02
461.24	7373.16
461.60	7138.17
461.96	6888.66
462.33	6677.55
462.69	6492.65
463.05	6320.62
463.42	6168.95
463.78	6019.39
464.14	5850.87
464.50	5696.16
464.87	5526.47
465.23	5368.49
465.59	5222.67
465.95	5100.50
466.32	4986.51
466.68	4888.91
467.04	4771.18
467.40	4657.90
467.77	4555.15
468.13	4431.80
468.49	4339.35
468.85	4276.63
469.22	4205.01
469.58	4108.81
469.94	4037.42
470.30	3953.63
470.66	3871.01
471.03	3767.33
471.39	3702.96
471.75	3636.72
472.11	3563.23
472.47	3477.80
472.84	3438.72
473.20	3388.86
473.56	3341.82
473.92	3273.71
474.28	3212.39
474.65	3159.02
475.01	3101.21
475.37	3026.55
475.73	2975.76
476.09	2936.67
476.45	2879.56
476.81	2819.41
477.18	2757.85
477.54	2711.98
477.90	2678.28
478.26	2620.93
478.62	2579.50
478.98	2565.23
479.34	2539.72
479.71	2483.07
480.07	2476.99
480.43	2448.20
480.79	2414.03
481.15	2376.58
481.51	2348.03
481.87	2317.36
482.23	2284.13
482.59	2238.25
482.96	2208.06
483.32	2182.55
483.68	2161.48
484.04	2148.85
484.40	2131.29
484.76	2104.14
485.12	2096.89
485.48	2065.76
485.84	2036.27
486.20	2018.71
486.56	1990.86
486.92	1960.43
487.28	1927.43
487.64	1909.64
488.00	1890.45
488.37	1875.47
488.73	1849.02
489.09	1833.58
489.45	1808.30
489.81	1776.70
490.17	1759.85
490.53	1739.72
490.89	1727.32
491.25	1707.89
491.61	1688.93
491.97	1675.82
492.33	1653.82
492.69	1619.65
493.05	1600.69
493.41	1602.10
493.77	1584.07
494.13	1578.93
494.49	1571.20
494.85	1563.48
495.21	1533.99
495.57	1521.58
495.93	1505.20
496.29	1499.58
496.64	1489.75
497.00	1494.90
497.36	1480.15
497.72	1469.86
498.08	1454.41
498.44	1441.30
498.80	1422.81
499.16	1419.07
499.52	1415.79
499.88	1408.53
500.24	1397.07
500.60	1394.26
500.96	1378.11
501.32	1364.30
501.68	1360.32
502.03	1360.09
502.39	1350.02
502.75	1337.38
503.11	1324.74
503.47	1316.08
503.83	1302.98
504.19	1285.42
504.55	1284.95
504.91	1290.10
505.26	1285.89
505.62	1278.17
505.98	1279.10
506.34	1266.23
506.70	1264.12
507.06	1259.91
507.42	1262.48
507.78	1261.08
508.13	1268.34
508.49	1257.34
508.85	1255.00
509.21	1247.27
509.57	1242.82
509.93	1241.65
510.28	1230.89
510.64	1220.82
511.00	1209.12
511.36	1195.31
511.72	1197.65
512.07	1199.06
512.43	1196.72
512.79	1211.93
513.15	1224.80
513.51	1215.44
513.86	1209.82
514.22	1210.06
514.58	1200.93
514.94	1197.42
515.30	1195.55
515.65	1201.87
516.01	1193.67
516.37	1190.16
516.73	1174.95
517.08	1182.67
517.44	1164.88
517.80	1166.99
518.16	1153.65
518.51	1153.88
518.87	1140.54
519.23	1155.52
519.59	1158.57
519.94	1169.57
520.30	1174.71
520.66	1170.97
521.01	1164.18
521.37	1153.18
521.73	1148.97
522.09	1148.27
522.44	1149.91
522.80	1157.39
523.16	1169.10
523.51	1170.74
523.87	1168.63
524.23	1171.91
524.58	1168.86
524.94	1161.37
525.30	1149.91
525.65	1141.25
526.01	1128.37
526.37	1121.82
526.72	1123.69
527.08	1132.82
527.44	1136.56
527.79	1144.05
528.15	1143.82
528.51	1142.88
528.86	1139.14
529.22	1138.90
529.58	1131.41
529.93	1124.63
530.29	1115.27
530.65	1113.86
531.00	1110.12
531.36	1124.39
531.71	1133.05
532.07	1129.54
532.43	1120.41
532.78	1121.58
533.14	1106.14
533.49	1096.54
533.85	1102.16
534.21	1109.65
534.56	1102.86
534.92	1102.63
535.27	1110.58
535.63	1111.29
535.98	1112.92
536.34	1111.75
536.69	1117.84
537.05	1103.09
537.41	1096.07
537.76	1086.24
538.12	1082.73
538.47	1079.22
538.83	1093.73
539.18	1098.18
539.54	1101.69
539.89	1105.90
540.25	1106.84
540.60	1092.56
540.96	1088.82
541.31	1093.50
541.67	1105.20
542.02	1093.73
542.38	1100.52
542.73	1100.52
543.09	1094.20
543.44	1083.20
543.80	1091.86
544.15	1100.75
544.51	1101.92
544.86	1106.84
545.22	1111.75
545.57	1111.99
545.93	1105.20
546.28	1115.27
546.64	1113.63
546.99	1115.73
547.35	1117.61
547.70	1122.05
548.05	1115.50
548.41	1120.88
548.76	1117.84
549.12	1116.67
549.47	1119.24
549.83	1118.31
550.18	1107.54
550.53	1110.12
550.89	1105.90
551.24	1099.58
551.60	1097.01
551.95	1104.03
552.30	1087.65
552.66	1086.71
553.01	1086.24
553.37	1081.80
553.72	1086.48
554.07	1090.92
554.43	1100.52
554.78	1101.69
555.13	1103.56
555.49	1102.16
555.84	1105.44
556.19	1098.41
556.55	1094.90
556.90	1096.54
557.26	1089.99
557.61	1099.82
557.96	1098.65
558.32	1109.18
558.67	1118.31
559.02	1119.48
559.37	1115.97
559.73	1124.86
560.08	1119.95
560.43	1110.58
560.79	1105.20
561.14	1105.90
561.49	1089.75
561.85	1082.73
562.20	1079.69
562.55	1084.14
562.90	1076.18
563.26	1082.26
563.61	1076.65
563.96	1080.16
564.32	1078.28
564.67	1078.28
565.02	1088.58
565.37	1099.58
565.73	1095.14
566.08	1095.84
566.43	1100.29
566.78	1102.39
567.14	1104.97
567.49	1107.07
567.84	1109.41
568.19	1112.69
568.54	1107.31
568.90	1103.80
569.25	1112.92
569.60	1109.18
569.95	1107.78
570.31	1110.12
570.66	1106.84
571.01	1100.05
571.36	1104.26
571.71	1110.12
572.06	1112.22
572.42	1117.14
572.77	1114.56
573.12	1110.82
573.47	1104.03
573.82	1100.29
574.18	1092.09
574.53	1095.84
574.88	1103.33
575.23	1108.24
575.58	1104.26
575.93	1105.20
576.28	1105.90
576.64	1096.07
576.99	1086.94
577.34	1084.14
577.69	1087.65
578.04	1088.82
578.39	1098.41
578.74	1106.84
579.09	1107.54
579.44	1104.26
579.80	1097.71
580.15	1092.56
580.50	1080.63
580.85	1086.24
581.20	1090.69
581.55	1091.16
581.90	1086.01
582.25	1104.03
582.60	1107.54
582.95	1098.65
583.30	1099.35
583.65	1107.31
584.00	1103.80
584.35	1105.20
584.71	1122.29
585.06	1126.73
585.41	1120.41
585.76	1106.84
586.11	1097.71
586.46	1097.01
586.81	1091.63
587.16	1093.03
587.51	1100.52
587.86	1097.48
588.21	1086.94
588.56	1086.01
588.91	1089.75
589.26	1091.63
589.61	1099.82
589.96	1100.52
590.31	1104.50
590.66	1093.73
591.01	1093.97
591.36	1083.67
591.71	1075.48
592.06	1077.11
592.41	1084.37
592.76	1084.37
593.10	1083.43
593.45	1083.67
593.80	1082.26
594.15	1088.82
594.50	1080.86
594.85	1088.12
595.20	1100.29
595.55	1100.05
595.90	1108.95
596.25	1112.22
596.60	1114.56
596.95	1109.18
597.30	1111.75
597.64	1140.07
597.99	1139.84
598.34	1136.10
598.69	1135.16
599.04	1133.05
599.39	1081.56
599.74	1081.09
600.09	1078.52
600.44	1093.26
600.78	1091.63
601.13	1101.22
601.48	1108.24
601.83	1113.63
602.18	1102.39
602.53	1096.54
602.88	1093.73
603.22	1089.05
603.57	1089.05
603.92	1095.37
604.27	1101.69
604.62	1100.99
604.97	1104.26
605.31	1097.48
605.66	1089.75
606.01	1097.95
606.36	1092.56
606.71	1092.09
607.05	1096.78
607.40	1099.35
607.75	1098.18
608.10	1106.37
608.44	1104.50
608.79	1100.05
609.14	1099.82
609.49	1090.69
609.84	1093.03
610.18	1104.26
610.53	1114.33
610.88	1116.20
611.23	1124.86
611.57	1122.52
611.92	1107.07
612.27	1102.86
612.62	1106.84
612.96	1109.65
613.31	1115.03
613.66	1121.35
614.00	1115.50
614.35	1109.41
614.70	1103.09
615.05	1091.16
615.39	1092.09
615.74	1096.31
616.09	1084.14
616.43	1075.24
616.78	1084.37
617.13	1081.33
617.47	1086.94
617.82	1094.20
618.17	1100.75
618.51	1100.99
618.86	1096.54
619.21	1089.05
619.55	1094.67
619.90	1092.09
620.25	1099.58
620.59	1102.16
620.94	1110.58
621.29	1109.88
621.63	1104.03
621.98	1098.41
622.32	1098.41
622.67	1086.48
623.02	1075.94
623.36	1082.50
623.71	1073.84
624.05	1081.56
624.40	1086.71
624.75	1099.12
625.09	1098.65
625.44	1101.69
625.78	1108.01
626.13	1111.52
626.48	1107.31
626.82	1106.84
627.17	1107.31
627.51	1093.73
627.86	1092.09
628.20	1087.65
628.55	1086.94
628.89	1088.12
629.24	1090.92
629.58	1088.12
629.93	1087.18
630.28	1088.35
630.62	1095.14
630.97	1098.88
631.31	1098.88
631.66	1105.90
632.00	1110.58
632.35	1105.44
632.69	1095.84
633.04	1095.37
633.38	1095.84
633.73	1097.95
634.07	1096.07
634.42	1106.14
634.76	1113.86
635.11	1104.97
635.45	1090.69
635.79	1082.03
636.14	1078.99
636.48	1071.73
636.83	1080.16
637.17	1086.48
637.52	1088.82
637.86	1083.20
638.21	1083.20
638.55	1088.35
638.89	1097.48
639.24	1098.41
639.58	1110.35
639.93	1113.63
640.27	1108.95
640.61	1110.12
640.96	1115.03
641.30	1111.99
641.65	1109.41
641.99	1101.92
642.33	1101.22
642.68	1098.88
643.02	1097.71
643.37	1101.22
643.71	1107.07
644.05	1097.48
644.40	1109.65
644.74	1109.65
645.08	1104.03
645.43	1109.88
645.77	1105.44
646.11	1098.65
646.46	1085.54
646.80	1084.84
647.14	1091.39
647.49	1103.33
647.83	1102.63
648.17	1107.78
648.52	1115.03
648.86	1099.82
649.20	1092.33
649.55	1086.24
649.89	1081.56
650.23	1082.97
650.57	1082.97
650.92	1088.12
651.26	1093.73
651.60	1096.54
651.95	1083.90
652.29	1082.50
652.63	1084.14
652.97	1089.29
653.32	1084.60
653.66	1085.54
654.00	1082.50
654.34	1085.07
654.69	1071.97
655.03	1080.86
655.37	1092.80
655.71	1105.20
656.05	1101.22
656.40	1105.44
656.74	1101.22
657.08	1096.78
657.42	1089.52
657.76	1084.84
658.11	1086.71
658.45	1100.29
658.79	1100.29
659.13	1100.05
659.47	1091.63
659.82	1083.43
660.16	1073.14
660.50	1074.31
660.84	1082.26
661.18	1096.31
661.52	1097.01
661.87	1098.88
662.21	1087.41
662.55	1084.14
662.89	1086.24
663.23	1090.69
663.57	1083.20
663.91	1098.18
664.25	1092.33
664.60	1086.48
664.94	1084.37
665.28	1084.37
665.62	1074.77
665.96	1075.24
666.30	1079.46
666.64	1081.56
666.98	1093.73
667.32	1091.63
667.66	1083.67
668.01	1075.71
668.35	1080.86
668.69	1079.46
669.03	1089.52
669.37	1107.07
669.71	1112.46
670.05	1106.37
670.39	1102.16
670.73	1092.80
671.07	1086.94
671.41	1084.84
671.75	1087.18
672.09	1081.56
672.43	1083.90
672.77	1086.24
673.11	1083.90
673.45	1087.18
673.79	1097.71
674.13	1098.65
674.47	1096.31
674.81	1090.92
675.15	1097.24
675.49	1100.99
675.83	1105.44
676.17	1105.20
676.51	1110.58
676.85	1096.78
677.19	1090.46
677.53	1087.41
677.87	1081.80
678.21	1094.20
678.55	1097.95
678.89	1093.03
679.23	1097.71
679.57	1095.60
679.90	1078.05
680.24	1082.03
680.58	1073.60
680.92	1066.35
681.26	1070.33
681.60	1075.24
681.94	1074.31
682.28	1081.33
682.62	1082.50
682.96	1081.56
683.29	1078.75
683.63	1068.69
683.97	1071.97
684.31	1066.82
684.65	1072.67
684.99	1073.14
685.33	1081.33
685.67	1080.63
686.00	1078.28
686.34	1077.82
686.68	1083.90
687.02	1080.39
687.36	1080.86
687.70	1092.09
688.03	1085.31
688.37	1088.35
688.71	1090.92
689.05	1092.09
689.39	1086.71
689.72	1087.41
690.06	1079.92
690.40	1077.11
690.74	1072.67
691.08	1074.31
691.41	1063.07
691.75	1061.67
692.09	1069.86
692.43	1085.07
692.76	1085.31
693.10	1104.50
693.44	1107.07
693.78	1105.44
694.11	1096.54
694.45	1089.52
694.79	1088.82
695.13	1090.46
695.46	1083.20
695.80	1081.80
696.14	1093.26
696.48	1095.60
696.81	1086.01
697.15	1078.28
697.49	1075.48
697.82	1065.18
698.16	1063.07
698.50	1071.03
698.83	1087.65
699.17	1083.43
699.51	1091.16
699.84	1083.67
700.18	1087.88
700.52	1077.35
700.85	1076.88
701.19	1077.58
701.53	1082.03
701.86	1089.52
702.20	1093.97
702.54	1098.88
702.87	1090.92
703.21	1093.26
703.55	1086.94
703.88	1089.05
704.22	1085.77
704.55	1096.07
704.89	1094.43
705.23	1080.39
705.56	1078.28
705.90	1083.90
706.23	1083.20
706.57	1078.05
706.91	1084.14
707.24	1078.75
707.58	1071.73
707.91	1068.92
708.25	1077.58
708.58	1086.48
708.92	1087.88
709.26	1087.65
709.59	1079.69
709.93	1078.05
710.26	1077.58
710.60	1084.60
710.93	1081.33
711.27	1090.92
711.60	1080.16
711.94	1079.92
712.27	1080.39
712.61	1087.41
712.94	1081.09
713.28	1090.69
713.61	1086.01
713.95	1082.03
714.28	1082.03
714.62	1080.86
714.95	1079.46
715.29	1083.43
715.62	1077.11
715.96	1071.73
716.29	1073.60
716.63	1067.99
716.96	1070.33
717.29	1080.86
717.63	1082.03
717.96	1078.75
718.30	1081.56
718.63	1072.67
718.97	1065.65
719.30	1072.90
719.63	1079.69
719.97	1086.71
720.30	1083.43
720.64	1086.01
720.97	1086.01
721.30	1089.52
721.64	1088.58
721.97	1089.05
722.31	1085.77
722.64	1078.05
722.97	1080.63
723.31	1072.67
723.64	1071.73
723.97	1073.60
724.31	1081.33
724.64	1069.62
724.98	1070.09
725.31	1075.24
725.64	1071.97
725.98	1065.18
726.31	1066.11
726.64	1073.60
726.97	1088.35
727.31	1088.82
727.64	1087.65
727.97	1086.94
728.31	1078.28
728.64	1065.18
728.97	1071.73
729.31	1081.33
729.64	1080.16
729.97	1082.50
730.30	1073.84
730.64	1067.75
730.97	1062.14
731.30	1063.31
731.63	1072.43
731.97	1068.92
732.30	1076.18
732.63	1080.63
732.96	1086.48
733.30	1086.48
733.63	1102.86
733.96	1100.05
734.29	1095.37
734.63	1093.73
734.96	1093.03
735.29	1094.67
735.62	1088.12
735.95	1083.67
736.29	1087.41
736.62	1079.46
736.95	1073.84
737.28	1084.37
737.61	1095.14
737.94	1090.22
738.28	1096.54
738.61	1092.80
738.94	1086.48
739.27	1085.31
739.60	1090.69
739.93	1083.90
740.27	1085.54
740.60	1094.90
740.93	1093.50
741.26	1094.90
741.59	1095.37
741.92	1096.31
742.25	1092.33
742.58	1095.14
742.91	1087.41
743.25	1082.73
743.58	1084.60
743.91	1085.07
744.24	1088.12
744.57	1094.67
744.90	1100.75
745.23	1089.75
745.56	1085.77
745.89	1080.16
746.22	1081.80
746.55	1073.37
746.88	1085.07
747.21	1082.73
747.54	1079.92
747.87	1080.39
748.20	1086.94
748.53	1083.67
748.87	1084.37
749.20	1087.65
749.53	1086.24
749.86	1086.71
750.19	1091.63
750.52	1089.75
750.85	1085.77
751.18	1074.77
751.51	1083.20
751.84	1078.99
752.16	1071.26
752.49	1071.97
752.82	1075.94
753.15	1075.24
753.48	1067.75
753.81	1092.33
754.14	1093.97
754.47	1101.46
754.80	1103.09
755.13	1102.16
755.46	1083.20
755.79	1076.41
756.12	1077.11
756.45	1069.62
756.78	1084.60
757.11	1086.48
757.43	1086.24
757.76	1080.63
758.09	1080.63
758.42	1073.37
758.75	1073.60
759.08	1082.03
759.41	1077.58
759.74	1075.01
760.07	1076.65
760.39	1084.14
760.72	1083.67
761.05	1084.84
761.38	1089.99
761.71	1088.35
762.04	1085.77
762.36	1074.77
762.69	1082.03
763.02	1086.71
763.35	1091.16
763.68	1086.48
764.01	1098.88
764.33	1096.07
