SpectraSuite Data File
++++++++++++++++++++++++++++++++++++
Date: Mon Aug 26 10:24:45 PDT 2019
User: corrico
Dark Spectrum Present: No
Reference Spectrum Present: No
Number of Sampled Component Spectra: 1
Spectrometers: USB2+H06089
Integration Time (usec): 10000 (USB2+H06089)
Spectra Averaged: 2 (USB2+H06089)
Boxcar Smoothing: 2 (USB2+H06089)
Correct for Electrical Dark: No (USB2+H06089)
Strobe/Lamp Enabled: No (USB2+H06089)
Correct for Detector Non-linearity: No (USB2+H06089)
Correct for Stray Light: No (USB2+H06089)
Number of Pixels in Processed Spectrum: 2048
>>>>>Begin Processed Spectral Data<<<<<
339.70	1022.81
340.07	1022.81
340.45	987.94
340.82	964.77
341.19	941.36
341.57	924.04
341.94	923.11
342.31	909.30
342.69	911.64
343.06	910.94
343.43	899.47
343.81	893.85
344.18	899.94
344.55	891.04
344.93	895.02
345.30	905.79
345.67	915.85
346.04	924.98
346.42	943.00
346.79	946.28
347.16	949.09
347.54	953.77
347.91	959.39
348.28	967.81
348.65	990.75
349.03	1000.11
349.40	1009.00
349.77	1019.30
350.14	1030.07
350.52	1030.77
350.89	1041.77
351.26	1048.33
351.63	1058.86
352.01	1069.86
352.38	1071.03
352.75	1070.33
353.12	1072.67
353.50	1074.54
353.87	1070.33
354.24	1080.63
354.61	1096.78
354.98	1104.97
355.36	1098.18
355.73	1094.20
356.10	1087.65
356.47	1079.46
356.84	1080.63
357.22	1084.84
357.59	1089.29
357.96	1087.18
358.33	1091.63
358.70	1088.35
359.08	1090.92
359.45	1092.33
359.82	1101.22
360.19	1104.26
360.56	1103.80
360.94	1106.14
361.31	1100.52
361.68	1096.78
362.05	1097.71
362.42	1098.18
362.79	1094.67
363.16	1089.52
363.54	1089.05
363.91	1082.26
364.28	1071.97
364.65	1075.24
365.02	1082.50
365.39	1081.80
365.76	1089.99
366.14	1099.82
366.51	1100.99
366.88	1103.80
367.25	1103.33
367.62	1101.22
367.99	1095.37
368.36	1093.50
368.73	1093.73
369.10	1094.43
369.48	1095.60
369.85	1112.69
370.22	1118.31
370.59	1109.18
370.96	1103.80
371.33	1093.73
371.70	1085.77
372.07	1077.82
372.44	1091.39
372.81	1100.29
373.18	1104.50
373.55	1101.46
373.93	1098.41
374.30	1085.31
374.67	1080.16
375.04	1082.50
375.41	1085.77
375.78	1090.46
376.15	1092.56
376.52	1093.50
376.89	1096.78
377.26	1092.56
377.63	1099.58
378.00	1111.05
378.37	1118.54
378.74	1104.26
379.11	1113.86
379.48	1117.84
379.85	1116.90
380.22	1114.33
380.59	1122.52
380.96	1113.39
381.33	1097.01
381.70	1108.95
382.07	1107.07
382.44	1110.12
382.81	1124.86
383.18	1139.61
383.55	1119.71
383.92	1119.71
384.29	1121.58
384.66	1108.48
385.03	1103.33
385.40	1106.84
385.77	1104.26
386.14	1099.35
386.51	1106.14
386.88	1108.48
387.25	1122.52
387.62	1132.35
387.99	1136.80
388.36	1136.10
388.73	1131.41
389.10	1125.56
389.46	1126.03
389.83	1132.59
390.20	1126.97
390.57	1129.54
390.94	1131.65
391.31	1129.78
391.68	1122.05
392.05	1124.39
392.42	1128.37
392.79	1124.39
393.16	1130.48
393.53	1134.93
393.89	1144.99
394.26	1150.14
394.63	1150.37
395.00	1144.99
395.37	1145.46
395.74	1146.63
396.11	1139.14
396.48	1144.99
396.84	1150.37
397.21	1148.03
397.58	1144.76
397.95	1144.76
398.32	1143.82
398.69	1139.14
399.06	1140.54
399.42	1145.46
399.79	1159.27
400.16	1167.69
400.53	1178.69
400.90	1191.57
401.27	1195.08
401.64	1203.50
402.00	1210.76
402.37	1218.25
402.74	1230.89
403.11	1245.87
403.48	1247.74
403.84	1257.34
404.21	1272.08
404.58	1273.95
404.95	1277.46
405.32	1297.83
405.68	1313.51
406.05	1334.34
406.42	1370.38
406.79	1399.87
407.16	1438.73
407.52	1465.18
407.89	1484.60
408.26	1509.41
408.63	1548.97
408.99	1566.05
409.36	1603.03
409.73	1659.67
410.10	1703.44
410.47	1753.06
410.83	1810.64
411.20	1886.71
411.57	1943.35
411.94	2019.41
412.30	2083.78
412.67	2165.70
413.04	2257.91
413.40	2349.66
413.77	2457.09
414.14	2587.46
414.51	2719.00
414.87	2815.90
415.24	2944.39
415.61	3082.25
415.97	3203.26
416.34	3356.80
416.71	3539.59
417.08	3740.88
417.44	3915.25
417.81	4137.83
418.18	4350.59
418.54	4577.62
418.91	4825.72
419.28	5112.43
419.64	5405.94
420.01	5724.01
420.38	6053.56
420.74	6381.94
421.11	6757.36
421.48	7111.72
421.84	7509.37
422.21	7915.69
422.58	8372.80
422.94	8828.50
423.31	9356.53
423.68	9900.70
424.04	10486.30
424.41	11059.73
424.77	11658.44
425.14	12265.58
425.51	12870.84
425.87	13573.70
426.24	14267.20
426.61	15069.31
426.97	16017.22
427.34	16914.82
427.70	17891.76
428.07	18871.51
428.44	19836.74
428.80	20738.78
429.17	21820.81
429.53	22846.20
429.90	24039.41
430.27	25129.63
430.63	26308.56
431.00	27576.66
431.36	28954.30
431.73	30123.86
432.09	31451.18
432.46	32688.86
432.83	33908.04
433.19	34976.73
433.56	36277.37
433.92	37557.41
434.29	38887.30
434.65	40210.40
435.02	41390.74
435.38	42563.81
435.75	43491.13
436.11	44634.25
436.48	45489.48
436.84	46471.10
437.21	47426.98
437.57	48380.75
437.94	49128.31
438.30	49888.28
438.67	50395.48
439.03	50678.22
439.40	50862.88
439.76	50665.81
440.13	50394.07
440.49	50272.37
440.86	49861.84
441.22	49510.52
441.59	49041.48
441.95	48503.62
442.32	47650.03
442.68	46935.46
443.05	46002.29
443.41	45188.25
443.78	44209.44
444.14	43242.57
444.51	42038.36
444.87	41187.34
445.24	39967.46
445.60	38842.13
445.96	37741.14
446.33	36843.54
446.69	35595.34
447.06	34744.78
447.42	33813.25
447.79	32800.74
448.15	31883.25
448.51	30979.10
448.88	30151.72
449.24	29197.71
449.61	28516.38
449.97	27732.54
450.33	27054.49
450.70	26206.51
451.06	25694.40
451.43	25030.16
451.79	24564.86
452.15	24053.45
452.52	23474.87
452.88	22878.27
453.24	22311.39
453.61	21644.34
453.97	21054.76
454.34	20470.33
454.70	19897.36
455.06	19326.04
455.43	18683.09
455.79	17931.08
456.15	17372.86
456.52	16716.34
456.88	16190.89
457.24	15620.50
457.61	15186.80
457.97	14677.27
458.33	14187.63
458.70	13635.49
459.06	13128.06
459.42	12707.00
459.79	12249.43
460.15	11847.32
460.51	11441.47
460.88	11079.16
461.24	10681.74
461.60	10364.59
461.96	10033.17
462.33	9710.65
462.69	9426.74
463.05	9122.47
463.42	8810.01
463.78	8539.44
464.14	8272.62
464.50	8025.46
464.87	7787.20
465.23	7567.42
465.59	7360.52
465.95	7190.59
466.32	6979.24
466.68	6781.23
467.04	6571.05
467.40	6402.07
467.77	6234.25
468.13	6091.71
468.49	5944.26
468.85	5843.38
469.22	5720.74
469.58	5576.79
469.94	5468.90
470.30	5339.00
470.66	5236.48
471.03	5117.35
471.39	5031.68
471.75	4942.04
472.11	4867.61
472.47	4787.80
472.84	4706.58
473.20	4587.68
473.56	4480.49
473.92	4373.53
474.28	4247.37
474.65	4144.62
475.01	4078.62
475.37	3975.87
475.73	3912.44
476.09	3853.93
476.45	3773.18
476.81	3690.56
477.18	3610.51
477.54	3517.83
477.90	3440.82
478.26	3358.67
478.62	3296.88
478.98	3272.77
479.34	3238.60
479.71	3190.62
480.07	3162.06
480.43	3122.27
480.79	3055.10
481.15	2998.46
481.51	2946.27
481.87	2913.03
482.23	2872.77
482.59	2833.45
482.96	2788.51
483.32	2750.83
483.68	2691.62
484.04	2642.70
484.40	2612.74
484.76	2579.74
485.12	2541.35
485.48	2513.03
485.84	2482.61
486.20	2432.52
486.56	2384.07
486.92	2359.03
487.28	2324.85
487.64	2292.55
488.00	2258.85
488.37	2235.68
488.73	2194.25
489.09	2168.51
489.45	2148.85
489.81	2135.50
490.17	2113.27
490.53	2099.93
490.89	2063.18
491.25	2016.14
491.61	1991.09
491.97	1963.48
492.33	1926.49
492.69	1911.05
493.05	1895.60
493.41	1863.77
493.77	1827.26
494.13	1807.60
494.49	1790.04
494.85	1775.06
495.21	1769.68
495.57	1766.40
495.93	1756.10
496.29	1726.38
496.64	1694.78
497.00	1658.97
497.36	1634.63
497.72	1607.95
498.08	1603.03
498.44	1598.82
498.80	1600.46
499.16	1592.03
499.52	1578.69
499.88	1552.95
500.24	1530.71
500.60	1507.77
500.96	1495.37
501.32	1492.79
501.68	1477.11
502.03	1460.26
502.39	1453.71
502.75	1436.85
503.11	1423.75
503.47	1424.68
503.83	1412.98
504.19	1398.47
504.55	1390.98
504.91	1378.34
505.26	1372.26
505.62	1379.04
505.98	1371.09
506.34	1369.21
506.70	1360.55
507.06	1339.02
507.42	1322.64
507.78	1316.55
508.13	1302.51
508.49	1303.21
508.85	1319.36
509.21	1315.38
509.57	1305.78
509.93	1303.21
510.28	1298.53
510.64	1293.61
511.00	1294.08
511.36	1292.21
511.72	1282.15
512.07	1268.10
512.43	1251.72
512.79	1244.23
513.15	1244.23
513.51	1252.89
513.86	1253.82
514.22	1258.27
514.58	1266.00
514.94	1267.17
515.30	1262.25
515.65	1255.00
516.01	1235.80
516.37	1218.25
516.73	1217.78
517.08	1214.27
517.44	1214.74
517.80	1215.44
518.16	1228.08
518.51	1220.59
518.87	1210.76
519.23	1212.40
519.59	1212.63
519.94	1196.01
520.30	1177.29
520.66	1176.12
521.01	1168.63
521.37	1164.65
521.73	1169.80
522.09	1183.37
522.44	1186.89
522.80	1192.03
523.16	1191.80
523.51	1179.16
523.87	1174.48
524.23	1169.57
524.58	1157.39
524.94	1163.01
525.30	1168.16
525.65	1159.97
526.01	1149.44
526.37	1157.16
526.72	1155.52
527.08	1155.05
527.44	1157.39
527.79	1155.52
528.15	1148.03
528.51	1141.01
528.86	1136.56
529.22	1132.82
529.58	1139.37
529.93	1149.44
530.29	1153.88
530.65	1159.27
531.00	1156.69
531.36	1152.95
531.71	1147.33
532.07	1133.99
532.43	1138.20
532.78	1148.73
533.14	1144.76
533.49	1128.84
533.85	1144.05
534.21	1131.41
534.56	1123.22
534.92	1119.24
535.27	1129.31
535.63	1125.33
535.98	1130.48
536.34	1123.93
536.69	1122.75
537.05	1130.01
537.41	1131.41
537.76	1132.59
538.12	1132.59
538.47	1131.18
538.83	1124.63
539.18	1121.82
539.54	1112.69
539.89	1116.90
540.25	1134.46
540.60	1131.41
540.96	1128.37
541.31	1130.48
541.67	1130.48
542.02	1113.86
542.38	1121.12
542.73	1119.24
543.09	1122.99
543.44	1133.99
543.80	1146.86
544.15	1138.90
544.51	1130.48
544.86	1133.05
545.22	1124.86
545.57	1125.10
545.93	1118.54
546.28	1128.37
546.64	1124.63
546.99	1119.48
547.35	1119.48
547.70	1130.95
548.05	1134.46
548.41	1126.27
548.76	1120.41
549.12	1117.37
549.47	1107.31
549.83	1089.29
550.18	1094.67
550.53	1097.24
550.89	1085.07
551.24	1084.60
551.60	1098.41
551.95	1096.78
552.30	1106.84
552.66	1114.09
553.01	1120.41
553.37	1127.44
553.72	1130.48
554.07	1131.18
554.43	1132.82
554.78	1128.14
555.13	1118.31
555.49	1120.18
555.84	1114.10
556.19	1115.03
556.55	1111.75
556.90	1110.58
557.26	1107.31
557.61	1110.58
557.96	1111.29
558.32	1118.07
558.67	1112.22
559.02	1108.71
559.37	1110.82
559.73	1110.82
560.08	1110.82
560.43	1115.73
560.79	1121.58
561.14	1109.88
561.49	1102.39
561.85	1093.73
562.20	1091.63
562.55	1084.84
562.90	1090.92
563.26	1093.03
563.61	1103.33
563.96	1115.27
564.32	1127.67
564.67	1130.24
565.02	1132.82
565.37	1139.37
565.73	1131.18
566.08	1124.39
566.43	1126.97
566.78	1118.31
567.14	1108.48
567.49	1096.54
567.84	1088.35
568.19	1082.97
568.54	1095.37
568.90	1096.07
569.25	1108.95
569.60	1121.12
569.95	1112.22
570.31	1107.78
570.66	1104.73
571.01	1104.73
571.36	1103.80
571.71	1113.86
572.06	1111.99
572.42	1108.01
572.77	1117.14
573.12	1103.33
573.47	1092.33
573.82	1089.52
574.18	1088.82
574.53	1082.97
574.88	1091.63
575.23	1098.41
575.58	1094.67
575.93	1100.99
576.28	1082.97
576.64	1088.82
576.99	1103.33
577.34	1112.92
577.69	1107.07
578.04	1116.44
578.39	1112.92
578.74	1093.03
579.09	1080.86
579.44	1084.14
579.80	1074.77
580.15	1067.75
580.50	1079.69
580.85	1082.73
581.20	1083.67
581.55	1091.63
581.90	1104.26
582.25	1105.44
582.60	1113.63
582.95	1115.97
583.30	1117.37
583.65	1115.97
584.00	1108.24
584.35	1113.86
584.71	1115.97
585.06	1111.99
585.41	1107.07
585.76	1117.84
586.11	1112.46
586.46	1103.56
586.81	1108.24
587.16	1108.71
587.51	1100.99
587.86	1103.56
588.21	1107.31
588.56	1107.07
588.91	1105.90
589.26	1104.03
589.61	1104.50
589.96	1108.24
590.31	1107.31
590.66	1108.95
591.01	1111.75
591.36	1107.78
591.71	1100.52
592.06	1104.03
592.41	1105.44
592.76	1105.44
593.10	1115.97
593.45	1123.22
593.80	1126.50
594.15	1114.33
594.50	1104.97
594.85	1101.46
595.20	1098.88
595.55	1101.46
595.90	1103.33
596.25	1103.33
596.60	1097.48
596.95	1094.90
597.30	1086.71
597.64	1143.12
597.99	1152.48
598.34	1152.25
598.69	1155.05
599.04	1148.03
599.39	1098.65
599.74	1099.58
600.09	1104.73
600.44	1112.69
600.78	1116.20
601.13	1106.37
601.48	1105.20
601.83	1092.80
602.18	1078.05
602.53	1082.26
602.88	1082.03
603.22	1079.46
603.57	1081.56
603.92	1087.88
604.27	1085.77
604.62	1100.52
604.97	1111.99
605.31	1110.58
605.66	1112.46
606.01	1114.10
606.36	1108.01
606.71	1097.24
607.05	1088.12
607.40	1093.50
607.75	1088.82
608.10	1082.97
608.44	1082.03
608.79	1091.86
609.14	1087.18
609.49	1095.37
609.84	1100.75
610.18	1105.67
610.53	1117.84
610.88	1114.80
611.23	1126.27
611.57	1126.50
611.92	1125.33
612.27	1115.03
612.62	1118.31
612.96	1102.86
613.31	1099.35
613.66	1102.86
614.00	1108.71
614.35	1103.09
614.70	1098.88
615.05	1108.01
615.39	1102.63
615.74	1090.22
616.09	1095.60
616.43	1107.54
616.78	1100.99
617.13	1095.60
617.47	1108.48
617.82	1104.50
618.17	1086.71
618.51	1080.39
618.86	1078.05
619.21	1070.80
619.55	1072.43
619.90	1085.54
620.25	1108.71
620.59	1118.54
620.94	1126.97
621.29	1124.86
621.63	1121.35
621.98	1104.73
622.32	1112.69
622.67	1101.22
623.02	1106.61
623.36	1109.41
623.71	1108.24
624.05	1092.56
624.40	1098.65
624.75	1093.03
625.09	1083.20
625.44	1075.71
625.78	1078.52
626.13	1079.22
626.48	1082.73
626.82	1093.50
627.17	1100.29
627.51	1093.97
627.86	1100.29
628.20	1096.07
628.55	1098.18
628.89	1099.58
629.24	1108.95
629.58	1096.78
629.93	1094.67
630.28	1088.58
630.62	1095.84
630.97	1092.56
631.31	1091.86
631.66	1093.26
632.00	1094.43
632.35	1084.84
632.69	1081.80
633.04	1092.09
633.38	1093.26
633.73	1100.29
634.07	1097.48
634.42	1099.82
634.76	1096.54
635.11	1096.78
635.45	1089.29
635.79	1099.58
636.14	1095.14
636.48	1099.35
636.83	1105.20
637.17	1102.63
637.52	1089.05
637.86	1092.56
638.21	1099.58
638.55	1094.90
638.89	1098.41
639.24	1107.31
639.58	1108.95
639.93	1098.18
640.27	1094.67
640.61	1100.99
640.96	1097.48
641.30	1089.99
641.65	1091.39
641.99	1083.90
642.33	1084.37
642.68	1085.77
643.02	1094.43
643.37	1089.99
643.71	1102.39
644.05	1092.56
644.40	1086.94
644.74	1083.90
645.08	1075.94
645.43	1073.60
645.77	1064.48
646.11	1064.01
646.46	1066.11
646.80	1063.31
647.14	1058.62
647.49	1063.07
647.83	1075.48
648.17	1069.86
648.52	1078.28
648.86	1082.97
649.20	1096.54
649.55	1089.05
649.89	1099.12
650.23	1089.99
650.57	1089.99
650.92	1090.69
651.26	1096.31
651.60	1099.58
651.95	1120.41
652.29	1115.73
652.63	1098.41
652.97	1100.75
653.32	1092.09
653.66	1080.63
654.00	1086.48
654.34	1101.69
654.69	1086.01
655.03	1079.69
655.37	1081.09
655.71	1082.03
656.05	1077.82
656.40	1085.77
656.74	1095.60
657.08	1100.75
657.42	1097.71
657.76	1087.65
658.11	1082.97
658.45	1078.99
658.79	1070.80
659.13	1065.88
659.47	1078.28
659.82	1078.28
660.16	1085.54
660.50	1081.09
660.84	1089.99
661.18	1082.97
661.52	1089.99
661.87	1092.09
662.21	1097.01
662.55	1093.73
662.89	1100.75
663.23	1096.78
663.57	1084.84
663.91	1080.86
664.25	1076.41
664.60	1075.24
664.94	1075.94
665.28	1078.28
665.62	1087.18
665.96	1094.90
666.30	1089.29
666.64	1089.99
666.98	1086.24
667.32	1091.16
667.66	1084.37
668.01	1086.71
668.35	1092.33
668.69	1094.67
669.03	1081.09
669.37	1089.99
669.71	1093.03
670.05	1085.31
670.39	1087.88
670.73	1105.67
671.07	1111.29
671.41	1107.07
671.75	1100.52
672.09	1093.03
672.43	1082.26
672.77	1069.16
673.11	1073.14
673.45	1087.41
673.79	1095.37
674.13	1088.12
674.47	1086.48
674.81	1087.18
675.15	1083.20
675.49	1080.86
675.83	1085.07
676.17	1079.46
676.51	1075.48
676.85	1072.20
677.19	1056.28
677.53	1055.82
677.87	1074.54
678.21	1074.07
678.55	1075.94
678.89	1097.71
679.23	1106.37
679.57	1100.29
679.90	1104.26
680.24	1100.75
680.58	1093.03
680.92	1083.67
681.26	1084.37
681.60	1080.63
681.94	1082.73
682.28	1084.84
682.62	1100.29
682.96	1100.05
683.29	1098.18
683.63	1109.18
683.97	1111.52
684.31	1104.97
684.65	1096.54
684.99	1091.63
685.33	1084.84
685.67	1084.37
686.00	1077.58
686.34	1086.24
686.68	1094.90
687.02	1089.29
687.36	1083.67
687.70	1088.58
688.03	1077.82
688.37	1070.80
688.71	1069.86
689.05	1071.03
689.39	1067.75
689.72	1071.50
690.06	1075.24
690.40	1078.28
690.74	1081.09
691.08	1081.80
691.41	1080.86
691.75	1080.39
692.09	1080.16
692.43	1083.90
692.76	1079.46
693.10	1080.86
693.44	1082.26
693.78	1077.35
694.11	1079.22
694.45	1091.16
694.79	1091.86
695.13	1092.80
695.46	1102.39
695.80	1100.05
696.14	1083.43
696.48	1085.77
696.81	1090.22
697.15	1084.60
697.49	1075.94
697.82	1078.99
698.16	1079.46
698.50	1073.60
698.83	1077.11
699.17	1081.56
699.51	1079.69
699.84	1080.86
700.18	1085.77
700.52	1083.20
700.85	1086.48
701.19	1097.01
701.53	1093.26
701.86	1088.58
702.20	1078.99
702.54	1076.18
702.87	1066.35
703.21	1066.11
703.55	1058.86
703.88	1076.18
704.22	1083.43
704.55	1093.73
704.89	1086.71
705.23	1094.67
705.56	1079.69
705.90	1070.33
706.23	1065.41
706.57	1077.82
706.91	1069.16
707.24	1075.48
707.58	1078.99
707.91	1078.52
708.25	1074.77
708.58	1085.07
708.92	1093.50
709.26	1090.69
709.59	1097.48
709.93	1094.67
710.26	1093.26
710.60	1086.48
710.93	1079.46
711.27	1069.16
711.60	1079.92
711.94	1083.43
712.27	1076.88
712.61	1084.60
712.94	1084.37
713.28	1079.46
713.61	1081.33
713.95	1089.05
714.28	1093.03
714.62	1103.56
714.95	1104.73
715.29	1097.48
715.62	1084.84
715.96	1081.56
716.29	1081.33
716.63	1068.69
716.96	1072.67
717.29	1085.31
717.63	1082.73
717.96	1076.65
718.30	1080.39
718.63	1075.48
718.97	1074.31
719.30	1078.99
719.63	1078.75
719.97	1074.54
720.30	1071.26
720.64	1073.37
720.97	1082.50
721.30	1090.92
721.64	1095.60
721.97	1099.82
722.31	1102.86
722.64	1086.01
722.97	1071.97
723.31	1076.41
723.64	1072.67
723.97	1068.69
724.31	1074.07
724.64	1079.69
724.98	1075.71
725.31	1078.52
725.64	1077.58
725.98	1084.14
726.31	1074.77
726.64	1075.71
726.97	1079.46
727.31	1075.01
727.64	1063.31
727.97	1076.65
728.31	1083.43
728.64	1077.82
728.97	1078.05
729.31	1084.60
729.64	1082.50
729.97	1069.16
730.30	1073.14
730.64	1075.01
730.97	1086.48
731.30	1090.92
731.63	1090.92
731.97	1088.82
732.30	1086.71
732.63	1076.18
732.96	1069.62
733.30	1081.80
733.63	1076.65
733.96	1090.92
734.29	1086.24
734.63	1088.58
734.96	1087.88
735.29	1094.90
735.62	1078.28
735.95	1078.28
736.29	1086.24
736.62	1080.63
736.95	1078.28
737.28	1091.63
737.61	1099.58
737.94	1079.92
738.28	1074.54
738.61	1071.73
738.94	1057.92
739.27	1051.13
739.60	1064.94
739.93	1073.37
740.27	1077.11
740.60	1083.20
740.93	1084.84
741.26	1087.18
741.59	1092.09
741.92	1092.09
742.25	1099.82
742.58	1101.22
742.91	1085.77
743.25	1069.86
743.58	1068.45
743.91	1063.54
744.24	1063.54
744.57	1075.94
744.90	1086.94
745.23	1095.14
745.56	1089.05
745.89	1081.33
746.22	1077.35
746.55	1075.94
746.88	1063.54
747.21	1070.09
747.54	1077.11
747.87	1081.09
748.20	1088.35
748.53	1099.82
748.87	1103.56
749.20	1108.71
749.53	1107.54
749.86	1103.33
750.19	1109.41
750.52	1101.22
750.85	1096.31
751.18	1094.43
751.51	1095.60
751.84	1085.07
752.16	1095.60
752.49	1083.20
752.82	1078.75
753.15	1077.35
753.48	1070.56
753.81	1062.84
754.14	1081.56
754.47	1085.31
754.80	1083.90
755.13	1092.56
755.46	1087.88
755.79	1073.14
756.12	1077.82
756.45	1074.07
756.78	1072.90
757.11	1069.62
757.43	1073.60
757.76	1069.39
758.09	1069.86
758.42	1077.35
758.75	1085.07
759.08	1084.14
759.41	1083.20
759.74	1088.58
760.07	1075.94
760.39	1075.94
760.72	1075.71
761.05	1084.14
761.38	1083.20
761.71	1090.22
762.04	1086.24
762.36	1088.82
762.69	1089.29
763.02	1086.48
763.35	1085.77
763.68	1086.48
764.01	1088.12
