SpectraSuite Data File
++++++++++++++++++++++++++++++++++++
Date: Mon Aug 26 10:24:48 PDT 2019
User: corrico
Dark Spectrum Present: No
Reference Spectrum Present: No
Number of Sampled Component Spectra: 1
Spectrometers: USB2+H06089
Integration Time (usec): 10000 (USB2+H06089)
Spectra Averaged: 2 (USB2+H06089)
Boxcar Smoothing: 2 (USB2+H06089)
Correct for Electrical Dark: No (USB2+H06089)
Strobe/Lamp Enabled: No (USB2+H06089)
Correct for Detector Non-linearity: No (USB2+H06089)
Correct for Stray Light: No (USB2+H06089)
Number of Pixels in Processed Spectrum: 2048
>>>>>Begin Processed Spectral Data<<<<<
339.70	1021.64
340.07	1021.64
340.45	993.56
340.82	972.49
341.19	951.66
341.57	924.51
341.94	916.79
342.31	906.02
342.69	905.32
343.06	896.66
343.43	900.17
343.81	891.51
344.18	901.34
344.55	903.45
344.93	914.68
345.30	925.45
345.67	932.70
346.04	928.96
346.42	942.77
346.79	951.90
347.16	949.56
347.54	967.34
347.91	977.17
348.28	981.62
348.65	989.58
349.03	1006.20
349.40	1017.43
349.77	1027.96
350.14	1034.52
350.52	1037.33
350.89	1043.18
351.26	1051.84
351.63	1062.14
352.01	1066.58
352.38	1069.62
352.75	1070.33
353.12	1065.18
353.50	1067.05
353.87	1070.80
354.24	1078.75
354.61	1076.88
354.98	1085.77
355.36	1085.54
355.73	1086.94
356.10	1095.14
356.47	1100.99
356.84	1099.82
357.22	1097.95
357.59	1102.16
357.96	1097.01
358.33	1102.16
358.70	1100.52
359.08	1101.22
359.45	1096.31
359.82	1084.60
360.19	1083.90
360.56	1083.20
360.94	1079.46
361.31	1074.54
361.68	1090.46
362.05	1085.54
362.42	1080.39
362.79	1081.80
363.16	1087.88
363.54	1081.56
363.91	1081.33
364.28	1093.73
364.65	1098.41
365.02	1089.29
365.39	1085.07
365.76	1081.09
366.14	1071.50
366.51	1066.58
366.88	1064.48
367.25	1067.75
367.62	1071.50
367.99	1074.54
368.36	1065.41
368.73	1071.73
369.10	1067.99
369.48	1073.37
369.85	1078.28
370.22	1091.16
370.59	1092.33
370.96	1089.75
371.33	1078.52
371.70	1071.97
372.07	1067.52
372.44	1072.20
372.81	1081.80
373.18	1087.41
373.55	1093.97
373.93	1104.03
374.30	1089.75
374.67	1088.35
375.04	1088.58
375.41	1088.12
375.78	1075.94
376.15	1084.84
376.52	1089.52
376.89	1095.37
377.26	1082.50
377.63	1085.77
378.00	1089.99
378.37	1078.75
378.74	1070.80
379.11	1082.03
379.48	1084.84
379.85	1089.05
380.22	1097.48
380.59	1107.78
380.96	1106.61
381.33	1107.54
381.70	1104.73
382.07	1105.44
382.44	1096.31
382.81	1101.22
383.18	1102.86
383.55	1107.31
383.92	1106.14
384.29	1103.33
384.66	1102.16
385.03	1095.60
385.40	1089.99
385.77	1097.48
386.14	1115.50
386.51	1115.50
386.88	1120.41
387.25	1126.97
387.62	1123.93
387.99	1109.65
388.36	1108.01
388.73	1104.73
389.10	1102.86
389.46	1101.46
389.83	1104.97
390.20	1102.16
390.57	1103.09
390.94	1104.50
391.31	1101.46
391.68	1103.09
392.05	1105.44
392.42	1112.46
392.79	1101.22
393.16	1101.92
393.53	1106.61
393.89	1112.92
394.26	1110.58
394.63	1127.90
395.00	1135.86
395.37	1132.59
395.74	1124.63
396.11	1134.46
396.48	1130.95
396.84	1120.18
397.21	1129.54
397.58	1146.39
397.95	1137.73
398.32	1136.33
398.69	1144.29
399.06	1133.76
399.42	1123.69
399.79	1123.22
400.16	1129.54
400.53	1129.07
400.90	1144.76
401.27	1150.37
401.64	1162.31
402.00	1170.74
402.37	1177.99
402.74	1181.50
403.11	1192.03
403.48	1195.31
403.84	1198.12
404.21	1211.93
404.58	1221.99
404.95	1223.87
405.32	1232.76
405.68	1238.61
406.05	1234.87
406.42	1239.08
406.79	1260.38
407.16	1278.40
407.52	1295.02
407.89	1317.49
408.26	1343.70
408.63	1362.66
408.99	1378.34
409.36	1403.85
409.73	1439.66
410.10	1464.71
410.47	1497.94
410.83	1540.31
411.20	1572.61
411.57	1605.84
411.94	1645.40
412.30	1681.91
412.67	1731.06
413.04	1771.08
413.40	1821.64
413.77	1885.30
414.14	1964.18
414.51	2027.14
414.87	2125.21
415.24	2220.00
415.61	2299.81
415.97	2366.52
416.34	2467.39
416.71	2558.67
417.08	2651.12
417.44	2760.66
417.81	2881.43
418.18	3000.57
418.54	3136.79
418.91	3295.94
419.28	3449.48
419.64	3615.43
420.01	3800.09
420.38	3966.51
420.74	4128.24
421.11	4320.16
421.48	4542.98
421.84	4754.33
422.21	5009.21
422.58	5279.55
422.94	5559.71
423.31	5800.08
423.68	6101.54
424.04	6399.26
424.41	6698.85
424.77	6992.58
425.14	7326.11
425.51	7670.17
425.87	8062.91
426.24	8432.48
426.61	8866.42
426.97	9379.46
427.34	9820.42
427.70	10318.95
428.07	10883.73
428.44	11386.94
428.80	11908.18
429.17	12520.46
429.53	13069.32
429.90	13715.54
430.27	14336.72
430.63	14925.60
431.00	15566.67
431.36	16361.75
431.73	16989.95
432.09	17723.71
432.46	18519.25
432.83	19223.52
433.19	19742.18
433.56	20497.48
433.92	21242.00
434.29	21853.11
434.65	22559.02
435.02	23315.25
435.38	23944.38
435.75	24517.35
436.11	25161.70
436.48	25659.29
436.84	26160.17
437.21	26655.43
437.57	27099.89
437.94	27545.30
438.30	28026.04
438.67	28302.46
439.03	28458.57
439.40	28628.73
439.76	28570.45
440.13	28407.78
440.49	28355.36
440.86	28174.20
441.22	27879.29
441.59	27524.00
441.95	27169.87
442.32	26666.66
442.68	26207.21
443.05	25626.76
443.41	25130.33
443.78	24468.43
444.14	23906.23
444.51	23210.86
444.87	22812.97
445.24	22297.82
445.60	21850.54
445.96	21242.70
446.33	20809.23
446.69	20145.93
447.06	19590.28
447.42	19003.51
447.79	18468.70
448.15	17961.27
448.51	17473.74
448.88	17019.21
449.24	16566.08
449.61	16240.04
449.97	15829.98
450.33	15413.60
450.70	14968.90
451.06	14622.03
451.43	14121.39
451.79	13713.20
452.15	13333.56
452.52	13019.70
452.88	12659.96
453.24	12405.54
453.61	12114.38
453.97	11841.71
454.34	11495.07
454.70	11230.12
455.06	10966.11
455.43	10662.54
455.79	10329.72
456.15	10041.13
456.52	9678.58
456.88	9381.80
457.24	9062.79
457.61	8806.03
457.97	8560.04
458.33	8322.48
458.70	8027.80
459.06	7777.60
459.42	7541.67
459.79	7262.21
460.15	7049.23
460.51	6840.45
460.88	6642.21
461.24	6415.64
461.60	6244.78
461.96	6066.43
462.33	5904.24
462.69	5738.76
463.05	5577.96
463.42	5423.02
463.78	5268.31
464.14	5115.47
464.50	4977.15
464.87	4866.44
465.23	4731.39
465.59	4620.45
465.95	4492.42
466.32	4409.10
466.68	4311.50
467.04	4224.67
467.40	4135.02
467.77	4082.13
468.13	3982.42
468.49	3921.57
468.85	3859.31
469.22	3787.69
469.58	3693.83
469.94	3633.92
470.30	3561.59
470.66	3500.04
471.03	3422.80
471.39	3371.54
471.75	3307.18
472.11	3230.88
472.47	3172.60
472.84	3111.04
473.20	3038.72
473.56	2986.52
473.92	2935.27
474.28	2870.67
474.65	2827.60
475.01	2801.39
475.37	2758.32
475.73	2717.13
476.09	2683.66
476.45	2656.04
476.81	2606.42
477.18	2561.25
477.54	2515.37
477.90	2480.73
478.26	2433.92
478.62	2388.75
478.98	2357.39
479.34	2331.17
479.71	2299.11
480.07	2291.38
480.43	2280.38
480.79	2251.60
481.15	2219.76
481.51	2183.25
481.87	2149.31
482.23	2115.84
482.59	2082.14
482.96	2069.97
483.32	2067.16
483.68	2042.35
484.04	2021.52
484.40	2009.82
484.76	1982.43
485.12	1946.39
485.48	1923.69
485.84	1902.62
486.20	1886.47
486.56	1871.96
486.92	1858.39
487.28	1832.17
487.64	1817.66
488.00	1798.23
488.37	1781.62
488.73	1764.30
489.09	1761.02
489.45	1739.72
489.81	1722.87
490.17	1695.95
490.53	1681.21
490.89	1667.16
491.25	1638.38
491.61	1613.80
491.97	1595.78
492.33	1573.07
492.69	1545.22
493.05	1542.41
493.41	1525.09
493.77	1517.14
494.13	1507.54
494.49	1492.79
494.85	1495.60
495.21	1494.20
495.57	1493.73
495.93	1478.52
496.29	1473.84
496.64	1450.66
497.00	1441.30
497.36	1430.07
497.72	1428.66
498.08	1426.09
498.44	1414.62
498.80	1401.04
499.16	1378.58
499.52	1371.09
499.88	1359.62
500.24	1347.91
500.60	1335.98
500.96	1340.89
501.32	1336.68
501.68	1311.40
502.03	1317.25
502.39	1319.59
502.75	1313.04
503.11	1302.74
503.47	1313.51
503.83	1299.93
504.19	1289.64
504.55	1286.36
504.91	1276.53
505.26	1264.83
505.62	1263.89
505.98	1246.57
506.34	1233.23
506.70	1229.95
507.06	1221.53
507.42	1206.78
507.78	1210.06
508.13	1207.01
508.49	1205.61
508.85	1206.55
509.21	1211.70
509.57	1216.84
509.93	1216.38
510.28	1201.40
510.64	1207.48
511.00	1203.97
511.36	1190.63
511.72	1187.59
512.07	1196.48
512.43	1182.91
512.79	1181.27
513.15	1179.16
513.51	1171.20
513.86	1167.69
514.22	1171.44
514.58	1175.42
514.94	1184.31
515.30	1191.10
515.65	1178.23
516.01	1170.74
516.37	1165.35
516.73	1153.42
517.08	1143.59
517.44	1158.33
517.80	1161.14
518.16	1159.97
518.51	1172.37
518.87	1174.95
519.23	1168.40
519.59	1160.67
519.94	1162.54
520.30	1147.10
520.66	1141.71
521.01	1140.31
521.37	1142.88
521.73	1136.56
522.09	1133.52
522.44	1143.82
522.80	1138.44
523.16	1143.82
523.51	1140.78
523.87	1142.88
524.23	1126.73
524.58	1128.37
524.94	1123.46
525.30	1132.12
525.65	1135.86
526.01	1141.25
526.37	1130.48
526.72	1131.18
527.08	1125.56
527.44	1125.10
527.79	1130.48
528.15	1152.01
528.51	1152.48
528.86	1150.61
529.22	1155.99
529.58	1160.67
529.93	1149.91
530.29	1148.27
530.65	1141.95
531.00	1133.99
531.36	1129.54
531.71	1128.84
532.07	1126.50
532.43	1129.54
532.78	1128.14
533.14	1125.33
533.49	1125.10
533.85	1133.52
534.21	1133.29
534.56	1122.75
534.92	1120.18
535.27	1112.69
535.63	1108.01
535.98	1104.97
536.34	1119.71
536.69	1114.33
537.05	1119.95
537.41	1109.65
537.76	1116.20
538.12	1112.46
538.47	1123.46
538.83	1122.52
539.18	1117.61
539.54	1110.35
539.89	1105.90
540.25	1100.05
540.60	1097.24
540.96	1098.88
541.31	1095.60
541.67	1090.92
542.02	1084.14
542.38	1080.63
542.73	1091.16
543.09	1093.73
543.44	1110.12
543.80	1117.14
544.15	1121.12
544.51	1117.37
544.86	1124.16
545.22	1121.12
545.57	1115.73
545.93	1116.44
546.28	1115.03
546.64	1112.46
546.99	1105.90
547.35	1102.16
547.70	1109.41
548.05	1118.78
548.41	1109.88
548.76	1104.97
549.12	1102.63
549.47	1098.41
549.83	1104.97
550.18	1108.01
550.53	1104.26
550.89	1111.05
551.24	1096.31
551.60	1090.46
551.95	1098.18
552.30	1113.86
552.66	1120.88
553.01	1131.88
553.37	1119.24
553.72	1115.27
554.07	1108.71
554.43	1100.29
554.78	1105.67
555.13	1121.35
555.49	1123.69
555.84	1117.37
556.19	1118.31
556.55	1115.50
556.90	1102.63
557.26	1097.95
557.61	1102.16
557.96	1095.60
558.32	1089.99
558.67	1083.90
559.02	1082.26
559.37	1080.86
559.73	1088.12
560.08	1095.60
560.43	1099.82
560.79	1097.48
561.14	1106.37
561.49	1100.75
561.85	1093.50
562.20	1091.63
562.55	1097.95
562.90	1091.16
563.26	1093.73
563.61	1097.24
563.96	1098.65
564.32	1098.88
564.67	1099.58
565.02	1104.50
565.37	1104.26
565.73	1106.37
566.08	1110.12
566.43	1108.48
566.78	1091.39
567.14	1091.39
567.49	1094.20
567.84	1089.99
568.19	1093.03
568.54	1116.90
568.90	1114.10
569.25	1107.07
569.60	1111.99
569.95	1105.67
570.31	1089.52
570.66	1100.05
571.01	1109.41
571.36	1106.14
571.71	1108.95
572.06	1115.03
572.42	1103.33
572.77	1097.01
573.12	1100.05
573.47	1108.71
573.82	1106.14
574.18	1104.50
574.53	1102.86
574.88	1100.75
575.23	1089.29
575.58	1095.14
575.93	1105.44
576.28	1108.24
576.64	1097.95
576.99	1099.12
577.34	1097.71
577.69	1092.56
578.04	1088.35
578.39	1087.65
578.74	1086.24
579.09	1093.03
579.44	1088.58
579.80	1088.35
580.15	1094.90
580.50	1100.52
580.85	1093.97
581.20	1100.29
581.55	1103.33
581.90	1104.73
582.25	1099.35
582.60	1101.92
582.95	1100.05
583.30	1105.67
583.65	1099.35
584.00	1096.31
584.35	1090.22
584.71	1086.94
585.06	1086.24
585.41	1090.69
585.76	1101.69
586.11	1107.31
586.46	1103.56
586.81	1098.41
587.16	1089.05
587.51	1077.35
587.86	1074.31
588.21	1079.69
588.56	1080.16
588.91	1097.01
589.26	1107.07
589.61	1100.29
589.96	1105.44
590.31	1105.44
590.66	1093.97
591.01	1096.78
591.36	1103.80
591.71	1100.05
592.06	1105.44
592.41	1117.37
592.76	1109.18
593.10	1101.46
593.45	1093.50
593.80	1084.84
594.15	1074.77
594.50	1077.58
594.85	1084.84
595.20	1093.03
595.55	1090.69
595.90	1088.12
596.25	1086.24
596.60	1080.86
596.95	1086.24
597.30	1086.24
597.64	1141.48
597.99	1137.73
598.34	1137.97
598.69	1131.18
599.04	1144.99
599.39	1100.99
599.74	1111.99
600.09	1117.14
600.44	1123.93
600.78	1118.78
601.13	1122.75
601.48	1123.93
601.83	1128.14
602.18	1117.14
602.53	1117.37
602.88	1112.92
603.22	1101.92
603.57	1098.18
603.92	1098.65
604.27	1098.41
604.62	1099.35
604.97	1110.35
605.31	1108.71
605.66	1106.61
606.01	1097.71
606.36	1091.86
606.71	1093.73
607.05	1101.22
607.40	1108.01
607.75	1112.92
608.10	1111.05
608.44	1103.09
608.79	1094.90
609.14	1094.43
609.49	1092.33
609.84	1091.86
610.18	1099.35
610.53	1097.01
610.88	1105.90
611.23	1117.14
611.57	1120.18
611.92	1107.78
612.27	1107.78
612.62	1095.60
612.96	1088.82
613.31	1077.35
613.66	1081.09
614.00	1081.80
614.35	1087.65
614.70	1086.94
615.05	1093.03
615.39	1090.46
615.74	1097.95
616.09	1092.56
616.43	1095.14
616.78	1093.26
617.13	1093.97
617.47	1091.86
617.82	1099.58
618.17	1097.48
618.51	1102.16
618.86	1101.92
619.21	1094.43
619.55	1087.41
619.90	1086.48
620.25	1089.99
620.59	1092.33
620.94	1083.43
621.29	1082.73
621.63	1085.07
621.98	1086.24
622.32	1081.33
622.67	1089.52
623.02	1092.09
623.36	1084.14
623.71	1073.84
624.05	1078.28
624.40	1075.48
624.75	1068.92
625.09	1067.28
625.44	1072.67
625.78	1072.43
626.13	1083.90
626.48	1091.63
626.82	1097.95
627.17	1098.65
627.51	1093.50
627.86	1075.94
628.20	1073.14
628.55	1076.18
628.89	1071.50
629.24	1084.37
629.58	1093.73
629.93	1101.46
630.28	1098.41
630.62	1097.48
630.97	1085.77
631.31	1082.03
631.66	1072.90
632.00	1077.58
632.35	1085.54
632.69	1089.75
633.04	1100.29
633.38	1096.54
633.73	1086.94
634.07	1095.37
634.42	1097.48
634.76	1085.77
635.11	1081.56
635.45	1077.82
635.79	1063.77
636.14	1064.94
636.48	1070.80
636.83	1078.05
637.17	1081.33
637.52	1086.24
637.86	1085.07
638.21	1082.73
638.55	1074.77
638.89	1075.48
639.24	1071.50
639.58	1057.22
639.93	1063.54
640.27	1068.92
640.61	1086.94
640.96	1093.03
641.30	1100.75
641.65	1097.24
641.99	1103.33
642.33	1093.97
642.68	1084.60
643.02	1089.52
643.37	1096.54
643.71	1096.78
644.05	1095.14
644.40	1098.65
644.74	1100.05
645.08	1092.80
645.43	1092.33
645.77	1084.14
646.11	1078.28
646.46	1076.88
646.80	1072.67
647.14	1067.28
647.49	1073.14
647.83	1083.20
648.17	1083.67
648.52	1087.65
648.86	1084.37
649.20	1093.73
649.55	1094.43
649.89	1097.71
650.23	1106.84
650.57	1114.33
650.92	1111.75
651.26	1102.63
651.60	1097.01
651.95	1085.31
652.29	1083.67
652.63	1074.31
652.97	1089.29
653.32	1089.05
653.66	1088.58
654.00	1087.65
654.34	1090.22
654.69	1088.12
655.03	1087.88
655.37	1096.31
655.71	1101.69
656.05	1108.24
656.40	1099.12
656.74	1097.24
657.08	1087.41
657.42	1086.71
657.76	1083.67
658.11	1093.97
658.45	1100.52
658.79	1107.54
659.13	1106.61
659.47	1099.12
659.82	1089.29
660.16	1078.05
660.50	1082.03
660.84	1077.11
661.18	1075.94
661.52	1074.54
661.87	1085.77
662.21	1080.86
662.55	1078.99
662.89	1081.09
663.23	1066.35
663.57	1060.50
663.91	1064.48
664.25	1060.73
664.60	1074.31
664.94	1094.67
665.28	1093.50
665.62	1090.46
665.96	1093.97
666.30	1076.41
666.64	1077.35
666.98	1072.90
667.32	1071.50
667.66	1077.35
668.01	1081.80
668.35	1078.75
668.69	1087.88
669.03	1085.31
669.37	1083.90
669.71	1087.18
670.05	1078.52
670.39	1086.94
670.73	1088.58
671.07	1095.14
671.41	1087.65
671.75	1098.18
672.09	1090.46
672.43	1089.29
672.77	1079.69
673.11	1082.03
673.45	1079.69
673.79	1064.94
674.13	1069.86
674.47	1081.33
674.81	1087.41
675.15	1091.39
675.49	1097.24
675.83	1098.65
676.17	1089.29
676.51	1086.01
676.85	1077.82
677.19	1089.05
677.53	1083.90
677.87	1089.99
678.21	1087.65
678.55	1093.03
678.89	1090.69
679.23	1094.20
679.57	1087.65
679.90	1095.14
680.24	1093.26
680.58	1090.69
680.92	1090.92
681.26	1097.01
681.60	1104.03
681.94	1097.01
682.28	1094.43
682.62	1092.09
682.96	1086.01
683.29	1071.03
683.63	1077.58
683.97	1083.43
684.31	1079.22
684.65	1088.82
684.99	1092.09
685.33	1086.94
685.67	1081.33
686.00	1086.01
686.34	1082.03
686.68	1081.33
687.02	1087.65
687.36	1086.94
687.70	1086.48
688.03	1080.39
688.37	1078.99
688.71	1077.58
689.05	1081.80
689.39	1095.14
689.72	1098.41
690.06	1100.29
690.40	1098.41
690.74	1089.29
691.08	1083.90
691.41	1082.26
691.75	1089.52
692.09	1090.22
692.43	1101.92
692.76	1095.14
693.10	1094.90
693.44	1089.52
693.78	1094.67
694.11	1085.77
694.45	1072.20
694.79	1061.20
695.13	1062.14
695.46	1055.58
695.80	1056.99
696.14	1067.05
696.48	1072.67
696.81	1070.56
697.15	1067.28
697.49	1073.37
697.82	1072.67
698.16	1074.31
698.50	1077.35
698.83	1080.86
699.17	1071.73
699.51	1069.86
699.84	1076.88
700.18	1068.45
700.52	1079.69
700.85	1092.80
701.19	1101.46
701.53	1105.20
701.86	1110.82
702.20	1097.95
702.54	1094.43
702.87	1088.12
703.21	1086.94
703.55	1100.52
703.88	1100.29
704.22	1092.09
704.55	1096.78
704.89	1089.75
705.23	1076.88
705.56	1084.84
705.90	1094.20
706.23	1090.69
706.57	1094.20
706.91	1096.31
707.24	1098.41
707.58	1097.71
707.91	1100.29
708.25	1099.82
708.58	1100.52
708.92	1102.16
709.26	1101.69
709.59	1098.88
709.93	1106.61
710.26	1097.48
710.60	1098.18
710.93	1102.63
711.27	1103.56
711.60	1092.33
711.94	1095.84
712.27	1094.20
712.61	1086.01
712.94	1089.05
713.28	1095.84
713.61	1104.73
713.95	1110.12
714.28	1113.16
714.62	1109.18
714.95	1098.88
715.29	1087.18
715.62	1077.35
715.96	1076.41
716.29	1081.56
716.63	1087.88
716.96	1097.71
717.29	1101.92
717.63	1102.39
717.96	1090.22
718.30	1088.12
718.63	1082.73
718.97	1076.88
719.30	1077.11
719.63	1083.90
719.97	1083.20
720.30	1078.75
720.64	1081.09
720.97	1076.18
721.30	1081.33
721.64	1085.31
721.97	1090.92
722.31	1092.80
722.64	1097.48
722.97	1099.35
723.31	1099.58
723.64	1098.18
723.97	1096.54
724.31	1096.78
724.64	1090.22
724.98	1080.63
725.31	1064.24
725.64	1057.45
725.98	1049.03
726.31	1057.45
726.64	1066.58
726.97	1086.01
727.31	1088.12
727.64	1099.58
727.97	1087.18
728.31	1079.22
728.64	1076.65
728.97	1076.41
729.31	1071.73
729.64	1070.09
729.97	1067.05
730.30	1061.43
730.64	1065.18
730.97	1065.65
731.30	1071.97
731.63	1082.03
731.97	1094.43
732.30	1097.95
732.63	1106.61
732.96	1114.33
733.30	1108.71
733.63	1105.44
733.96	1097.48
734.29	1085.31
734.63	1075.48
734.96	1066.58
735.29	1061.43
735.62	1068.69
735.95	1064.94
736.29	1066.82
736.62	1089.05
736.95	1086.94
737.28	1082.73
737.61	1085.31
737.94	1087.88
738.28	1075.01
738.61	1073.14
738.94	1074.07
739.27	1077.35
739.60	1075.71
739.93	1083.90
740.27	1084.60
740.60	1092.09
740.93	1098.65
741.26	1102.39
741.59	1099.12
741.92	1098.18
742.25	1089.05
742.58	1075.48
742.91	1073.37
743.25	1066.35
743.58	1071.50
743.91	1069.39
744.24	1073.37
744.57	1074.31
744.90	1078.28
745.23	1074.54
745.56	1076.65
745.89	1079.69
746.22	1078.52
746.55	1071.50
746.88	1069.86
747.21	1067.99
747.54	1064.01
747.87	1057.69
748.20	1062.14
748.53	1066.82
748.87	1062.14
749.20	1071.73
749.53	1060.26
749.86	1070.33
750.19	1069.62
750.52	1077.35
750.85	1067.52
751.18	1081.80
751.51	1078.99
751.84	1083.43
752.16	1086.01
752.49	1086.48
752.82	1089.52
753.15	1087.18
753.48	1084.37
753.81	1089.05
754.14	1093.97
754.47	1089.29
754.80	1086.24
755.13	1094.90
755.46	1095.37
755.79	1098.41
756.12	1102.63
756.45	1097.01
756.78	1085.31
757.11	1079.92
757.43	1080.86
757.76	1078.99
758.09	1090.69
758.42	1093.26
758.75	1085.77
759.08	1085.31
759.41	1082.73
759.74	1080.39
760.07	1076.18
760.39	1080.39
760.72	1078.75
761.05	1081.80
761.38	1078.99
761.71	1087.18
762.04	1091.16
762.36	1094.90
762.69	1095.37
763.02	1088.58
763.35	1087.88
763.68	1082.26
764.01	1072.20
764.33	1071.73
764.66	1090.69
