SpectraSuite Data File
++++++++++++++++++++++++++++++++++++
Date: Mon Aug 26 10:24:46 PDT 2019
User: corrico
Dark Spectrum Present: No
Reference Spectrum Present: No
Number of Sampled Component Spectra: 1
Spectrometers: USB2+H06089
Integration Time (usec): 10000 (USB2+H06089)
Spectra Averaged: 2 (USB2+H06089)
Boxcar Smoothing: 2 (USB2+H06089)
Correct for Electrical Dark: No (USB2+H06089)
Strobe/Lamp Enabled: No (USB2+H06089)
Correct for Detector Non-linearity: No (USB2+H06089)
Correct for Stray Light: No (USB2+H06089)
Number of Pixels in Processed Spectrum: 2048
>>>>>Begin Processed Spectral Data<<<<<
339.70	1048.56
340.07	1048.56
340.45	1012.75
340.82	985.13
341.19	963.83
341.57	932.24
341.94	925.92
342.31	910.23
342.69	906.26
343.06	900.87
343.43	909.53
343.81	908.83
344.18	914.92
344.55	918.43
344.93	922.17
345.30	923.34
345.67	930.83
346.04	940.90
346.42	948.15
346.79	958.68
347.16	966.17
347.54	976.47
347.91	985.37
348.28	993.09
348.65	1005.49
349.03	1014.62
349.40	1019.07
349.77	1023.52
350.14	1045.52
350.52	1052.30
350.89	1056.99
351.26	1061.67
351.63	1072.43
352.01	1068.45
352.38	1069.86
352.75	1072.90
353.12	1075.01
353.50	1070.33
353.87	1077.11
354.24	1084.14
354.61	1085.54
354.98	1088.58
355.36	1102.39
355.73	1107.07
356.10	1106.14
356.47	1119.48
356.84	1127.90
357.22	1124.86
357.59	1121.12
357.96	1111.99
358.33	1113.63
358.70	1105.20
359.08	1093.50
359.45	1095.84
359.82	1106.84
360.19	1097.24
360.56	1097.48
360.94	1109.88
361.31	1109.88
361.68	1108.01
362.05	1109.18
362.42	1115.73
362.79	1109.18
363.16	1112.69
363.54	1100.05
363.91	1096.07
364.28	1090.69
364.65	1088.35
365.02	1084.37
365.39	1085.07
365.76	1084.60
366.14	1082.03
366.51	1083.20
366.88	1076.65
367.25	1076.65
367.62	1075.01
367.99	1082.50
368.36	1081.56
368.73	1079.46
369.10	1080.86
369.48	1092.09
369.85	1082.97
370.22	1081.56
370.59	1094.67
370.96	1101.22
371.33	1091.63
371.70	1096.78
372.07	1095.14
372.44	1089.99
372.81	1086.71
373.18	1093.26
373.55	1095.84
373.93	1100.29
374.30	1097.71
374.67	1099.82
375.04	1095.14
375.41	1092.56
375.78	1104.03
376.15	1100.29
376.52	1098.18
376.89	1094.20
377.26	1102.86
377.63	1097.01
378.00	1104.97
378.37	1102.39
378.74	1109.18
379.11	1105.44
379.48	1093.50
379.85	1094.43
380.22	1101.92
380.59	1111.29
380.96	1103.09
381.33	1118.31
381.70	1121.12
382.07	1120.18
382.44	1117.37
382.81	1120.65
383.18	1114.56
383.55	1103.33
383.92	1104.26
384.29	1094.90
384.66	1106.14
385.03	1109.88
385.40	1118.78
385.77	1118.54
386.14	1141.48
386.51	1132.59
386.88	1119.01
387.25	1125.10
387.62	1131.65
387.99	1109.65
388.36	1112.22
388.73	1127.90
389.10	1122.05
389.46	1123.69
389.83	1138.67
390.20	1135.63
390.57	1137.27
390.94	1132.12
391.31	1126.50
391.68	1115.97
392.05	1122.99
392.42	1113.16
392.79	1106.84
393.16	1108.71
393.53	1110.12
393.89	1119.01
394.26	1131.88
394.63	1145.22
395.00	1147.33
395.37	1161.61
395.74	1156.22
396.11	1162.31
396.48	1167.46
396.84	1163.71
397.21	1152.01
397.58	1155.99
397.95	1147.10
398.32	1144.05
398.69	1150.84
399.06	1153.65
399.42	1163.95
399.79	1169.10
400.16	1168.40
400.53	1174.48
400.90	1185.25
401.27	1192.74
401.64	1203.97
402.00	1221.76
402.37	1236.04
402.74	1239.08
403.11	1225.27
403.48	1231.82
403.84	1251.25
404.21	1258.51
404.58	1273.25
404.95	1295.02
405.32	1317.49
405.68	1328.02
406.05	1350.72
406.42	1372.02
406.79	1406.43
407.16	1420.94
407.52	1444.58
407.89	1470.79
408.26	1516.67
408.63	1545.46
408.99	1598.35
409.36	1634.63
409.73	1674.42
410.10	1719.12
410.47	1769.68
410.83	1820.94
411.20	1884.37
411.57	1953.41
411.94	2007.95
412.30	2073.48
412.67	2148.85
413.04	2239.89
413.40	2325.32
413.77	2430.88
414.14	2559.84
414.51	2695.36
414.87	2809.11
415.24	2936.20
415.61	3078.04
415.97	3191.09
416.34	3342.28
416.71	3529.76
417.08	3745.33
417.44	3945.91
417.81	4191.90
418.18	4414.48
418.54	4660.24
418.91	4901.78
419.28	5176.33
419.64	5460.00
420.01	5779.48
420.38	6092.18
420.74	6421.03
421.11	6799.96
421.48	7184.98
421.84	7593.17
422.21	7976.55
422.58	8464.31
422.94	8949.27
423.31	9433.30
423.68	9956.17
424.04	10630.48
424.41	11224.98
424.77	11836.56
425.14	12503.14
425.51	13144.21
425.87	13822.97
426.24	14520.22
426.61	15372.64
426.97	16325.94
427.34	17255.37
427.70	18223.41
428.07	19177.41
428.44	20084.37
428.80	21040.01
429.17	22103.32
429.53	23114.43
429.90	24422.79
430.27	25571.52
430.63	26739.68
431.00	28074.96
431.36	29579.69
431.73	30731.00
432.09	32022.04
432.46	33266.74
432.83	34480.07
433.19	35499.37
433.56	36849.16
433.92	38266.82
434.29	39649.38
434.65	40931.29
435.02	42202.90
435.38	43290.78
435.75	44105.52
436.11	45242.09
436.48	46226.98
436.84	47088.77
437.21	48057.52
437.57	48983.43
437.94	49665.23
438.30	50313.33
438.67	50883.01
439.03	51172.54
439.40	51462.76
439.76	51338.01
440.13	51081.72
440.49	50927.72
440.86	50505.48
441.22	50065.00
441.59	49545.40
441.95	49134.16
442.32	48327.62
442.68	47656.82
443.05	46788.01
443.41	45914.29
443.78	44717.57
444.14	43707.87
444.51	42499.68
444.87	41600.92
445.24	40447.73
445.60	39408.77
445.96	38304.97
446.33	37398.95
446.69	36245.07
447.06	35303.00
447.42	34321.38
447.79	33234.20
448.15	32303.37
448.51	31327.13
448.88	30558.03
449.24	29659.03
449.61	28994.09
449.97	28191.28
450.33	27428.27
450.70	26588.49
451.06	26048.06
451.43	25343.79
451.79	24831.91
452.15	24376.68
452.52	23808.87
452.88	23182.30
453.24	22651.70
453.61	22000.10
453.97	21352.94
454.34	20692.91
454.70	20097.95
455.06	19480.28
455.43	18831.95
455.79	18081.11
456.15	17496.44
456.52	16865.67
456.88	16346.30
457.24	15774.04
457.61	15335.66
457.97	14869.66
458.33	14360.59
458.70	13841.69
459.06	13315.54
459.42	12890.73
459.79	12384.24
460.15	11988.46
460.51	11540.71
460.88	11173.02
461.24	10743.76
461.60	10438.79
461.96	10102.45
462.33	9820.19
462.69	9531.36
463.05	9226.86
463.42	8953.95
463.78	8674.03
464.14	8402.99
464.50	8173.85
464.87	7969.06
465.23	7735.70
465.59	7511.01
465.95	7313.71
466.32	7098.61
466.68	6898.96
467.04	6688.08
467.40	6532.44
467.77	6372.11
468.13	6193.76
468.49	6023.60
468.85	5917.34
469.22	5778.55
469.58	5625.48
469.94	5514.07
470.30	5416.70
470.66	5307.63
471.03	5181.01
471.39	5096.05
471.75	4979.96
472.11	4857.78
472.47	4766.97
472.84	4677.56
473.20	4565.45
473.56	4474.64
473.92	4362.29
474.28	4240.58
474.65	4158.20
475.01	4064.34
475.37	3973.76
475.73	3927.65
476.09	3860.25
476.45	3779.97
476.81	3714.90
477.18	3653.11
477.54	3571.89
477.90	3499.33
478.26	3409.22
478.62	3341.11
478.98	3283.54
479.34	3233.22
479.71	3182.89
480.07	3167.92
480.43	3126.02
480.79	3071.25
481.15	3030.06
481.51	2978.10
481.87	2909.99
482.23	2851.47
482.59	2809.11
482.96	2753.41
483.32	2716.66
483.68	2689.74
484.04	2673.83
484.40	2634.98
484.76	2614.14
485.12	2573.18
485.48	2527.08
485.84	2486.12
486.20	2452.88
486.56	2400.92
486.92	2370.73
487.28	2348.49
487.64	2308.47
488.00	2277.81
488.37	2257.68
488.73	2215.32
489.09	2183.02
489.45	2155.87
489.81	2108.35
490.17	2068.10
490.53	2048.20
490.89	2022.46
491.25	2007.48
491.61	2002.80
491.97	1986.41
492.33	1963.71
492.69	1938.90
493.05	1909.41
493.41	1882.02
493.77	1844.81
494.13	1822.34
494.49	1803.15
494.85	1788.64
495.21	1760.55
495.57	1746.98
495.93	1725.68
496.29	1695.02
496.64	1664.59
497.00	1654.99
497.36	1639.55
497.72	1633.23
498.08	1628.08
498.44	1612.63
498.80	1592.73
499.16	1572.37
499.52	1554.35
499.88	1538.90
500.24	1526.97
500.60	1527.67
500.96	1516.43
501.32	1499.35
501.68	1480.15
502.03	1471.49
502.39	1448.09
502.75	1438.49
503.11	1430.30
503.47	1420.24
503.83	1407.36
504.19	1404.09
504.55	1405.02
504.91	1400.34
505.26	1391.68
505.62	1388.64
505.98	1377.87
506.34	1369.21
506.70	1364.77
507.06	1364.06
507.42	1351.43
507.78	1348.85
508.13	1345.57
508.49	1330.36
508.85	1325.45
509.21	1323.81
509.57	1311.40
509.93	1293.38
510.28	1291.51
510.64	1284.49
511.00	1279.57
511.36	1273.49
511.72	1287.53
512.07	1286.36
512.43	1275.12
512.79	1278.63
513.15	1275.36
513.51	1253.12
513.86	1247.97
514.22	1247.74
514.58	1222.46
514.94	1214.27
515.30	1207.01
515.65	1199.29
516.01	1196.48
516.37	1214.04
516.73	1206.08
517.08	1207.01
517.44	1202.80
517.80	1202.80
518.16	1194.38
518.51	1199.76
518.87	1207.01
519.23	1200.46
519.59	1211.70
519.94	1215.44
520.30	1212.16
520.66	1199.52
521.01	1211.46
521.37	1195.08
521.73	1180.10
522.09	1184.31
522.44	1187.82
522.80	1178.93
523.16	1179.86
523.51	1179.86
523.87	1169.33
524.23	1165.12
524.58	1158.57
524.94	1155.05
525.30	1152.71
525.65	1157.39
526.01	1155.76
526.37	1161.37
526.72	1158.80
527.08	1161.84
527.44	1165.82
527.79	1169.33
528.15	1162.54
528.51	1161.14
528.86	1153.18
529.22	1150.61
529.58	1149.44
529.93	1149.20
530.29	1144.29
530.65	1148.97
531.00	1140.31
531.36	1137.03
531.71	1143.12
532.07	1149.67
532.43	1152.95
532.78	1151.54
533.14	1151.78
533.49	1150.61
533.85	1154.12
534.21	1146.86
534.56	1145.69
534.92	1142.42
535.27	1141.95
535.63	1142.18
535.98	1152.95
536.34	1162.78
536.69	1169.33
537.05	1174.71
537.41	1171.67
537.76	1156.69
538.12	1155.05
538.47	1152.95
538.83	1142.88
539.18	1133.29
539.54	1138.90
539.89	1138.44
540.25	1132.82
540.60	1129.78
540.96	1125.10
541.31	1117.84
541.67	1110.12
542.02	1108.95
542.38	1110.82
542.73	1123.22
543.09	1132.82
543.44	1133.52
543.80	1141.25
544.15	1138.67
544.51	1138.90
544.86	1130.48
545.22	1126.50
545.57	1118.54
545.93	1119.01
546.28	1115.03
546.64	1121.82
546.99	1128.37
547.35	1131.18
547.70	1123.93
548.05	1122.99
548.41	1113.86
548.76	1124.16
549.12	1121.82
549.47	1122.99
549.83	1114.56
550.18	1114.10
550.53	1106.61
550.89	1102.63
551.24	1114.33
551.60	1127.20
551.95	1131.88
552.30	1123.22
552.66	1126.50
553.01	1113.63
553.37	1108.71
553.72	1110.82
554.07	1112.69
554.43	1119.01
554.78	1122.52
555.13	1122.52
555.49	1117.37
555.84	1118.54
556.19	1109.41
556.55	1113.86
556.90	1106.84
557.26	1115.50
557.61	1113.39
557.96	1116.20
558.32	1116.20
558.67	1118.78
559.02	1109.65
559.37	1109.65
559.73	1110.12
560.08	1102.16
560.43	1098.88
560.79	1101.92
561.14	1103.09
561.49	1107.54
561.85	1117.84
562.20	1123.46
562.55	1115.27
562.90	1117.61
563.26	1109.18
563.61	1102.16
563.96	1094.67
564.32	1106.14
564.67	1096.07
565.02	1108.01
565.37	1105.67
565.73	1108.71
566.08	1103.56
566.43	1115.27
566.78	1108.01
567.14	1107.07
567.49	1113.16
567.84	1105.20
568.19	1097.48
568.54	1100.29
568.90	1108.95
569.25	1106.14
569.60	1113.86
569.95	1111.99
570.31	1108.24
570.66	1104.50
571.01	1109.88
571.36	1112.69
571.71	1116.90
572.06	1112.69
572.42	1112.92
572.77	1100.52
573.12	1097.71
573.47	1102.63
573.82	1109.88
574.18	1109.65
574.53	1114.56
574.88	1114.80
575.23	1117.14
575.58	1105.67
575.93	1098.41
576.28	1090.46
576.64	1096.07
576.99	1096.07
577.34	1108.95
577.69	1117.37
578.04	1125.80
578.39	1129.07
578.74	1127.20
579.09	1125.33
579.44	1132.12
579.80	1133.52
580.15	1118.54
580.50	1112.46
580.85	1109.41
581.20	1103.09
581.55	1095.37
581.90	1101.46
582.25	1100.99
582.60	1089.99
582.95	1085.07
583.30	1093.03
583.65	1090.22
584.00	1093.97
584.35	1094.90
584.71	1097.71
585.06	1096.78
585.41	1098.88
585.76	1095.60
586.11	1107.78
586.46	1111.29
586.81	1115.50
587.16	1120.41
587.51	1121.82
587.86	1116.20
588.21	1114.09
588.56	1105.44
588.91	1098.88
589.26	1089.52
589.61	1082.50
589.96	1080.86
590.31	1089.99
590.66	1083.90
591.01	1087.65
591.36	1101.46
591.71	1098.65
592.06	1093.03
592.41	1104.97
592.76	1117.14
593.10	1110.58
593.45	1108.71
593.80	1102.39
594.15	1103.56
594.50	1107.54
594.85	1104.97
595.20	1109.88
595.55	1118.54
595.90	1114.33
596.25	1105.20
596.60	1123.22
596.95	1120.88
597.30	1110.35
597.64	1161.37
597.99	1157.63
598.34	1139.61
598.69	1140.07
599.04	1145.93
599.39	1086.24
599.74	1089.99
600.09	1093.26
600.44	1093.97
600.78	1096.31
601.13	1105.67
601.48	1110.58
601.83	1110.82
602.18	1111.05
602.53	1108.24
602.88	1105.90
603.22	1097.01
603.57	1102.39
603.92	1101.92
604.27	1107.78
604.62	1101.46
604.97	1102.16
605.31	1103.33
605.66	1101.69
606.01	1099.58
606.36	1105.67
606.71	1114.10
607.05	1100.75
607.40	1111.29
607.75	1107.07
608.10	1104.26
608.44	1098.18
608.79	1096.78
609.14	1081.56
609.49	1088.58
609.84	1093.97
610.18	1093.03
610.53	1098.18
610.88	1113.86
611.23	1114.33
611.57	1122.52
611.92	1116.44
612.27	1125.56
612.62	1117.61
612.96	1114.33
613.31	1095.84
613.66	1092.80
614.00	1092.80
614.35	1092.33
614.70	1094.90
615.05	1115.50
615.39	1136.56
615.74	1129.31
616.09	1130.24
616.43	1128.14
616.78	1117.61
617.13	1108.71
617.47	1115.73
617.82	1117.61
618.17	1115.50
618.51	1118.78
618.86	1122.29
619.21	1105.90
619.55	1101.69
619.90	1096.07
620.25	1086.01
620.59	1078.75
620.94	1094.20
621.29	1094.90
621.63	1091.86
621.98	1102.39
622.32	1100.29
622.67	1097.95
623.02	1094.90
623.36	1106.14
623.71	1088.58
624.05	1093.26
624.40	1086.48
624.75	1092.33
625.09	1092.33
625.44	1111.29
625.78	1103.80
626.13	1104.03
626.48	1089.99
626.82	1092.80
627.17	1076.88
627.51	1079.69
627.86	1084.14
628.20	1093.03
628.55	1080.39
628.89	1087.41
629.24	1086.48
629.58	1077.58
629.93	1079.46
630.28	1083.43
630.62	1087.88
630.97	1082.50
631.31	1093.97
631.66	1087.41
632.00	1090.69
632.35	1084.60
632.69	1089.52
633.04	1094.67
633.38	1108.48
633.73	1107.31
634.07	1106.84
634.42	1114.09
634.76	1108.48
635.11	1103.09
635.45	1109.41
635.79	1107.31
636.14	1102.39
636.48	1099.35
636.83	1086.94
637.17	1077.82
637.52	1087.18
637.86	1082.50
638.21	1082.97
638.55	1102.63
638.89	1108.48
639.24	1109.88
639.58	1111.99
639.93	1104.26
640.27	1102.39
640.61	1106.37
640.96	1106.14
641.30	1113.16
641.65	1121.58
641.99	1119.48
642.33	1109.88
642.68	1100.75
643.02	1108.01
643.37	1105.20
643.71	1090.22
644.05	1083.90
644.40	1082.73
644.74	1071.26
645.08	1066.82
645.43	1071.97
645.77	1082.97
646.11	1085.54
646.46	1083.90
646.80	1099.82
647.14	1099.12
647.49	1095.84
647.83	1095.84
648.17	1095.60
648.52	1084.84
648.86	1088.58
649.20	1090.69
649.55	1097.95
649.89	1104.73
650.23	1107.31
650.57	1104.50
650.92	1111.52
651.26	1113.39
651.60	1105.90
651.95	1108.71
652.29	1108.71
652.63	1104.03
652.97	1092.09
653.32	1084.84
653.66	1079.46
654.00	1079.69
654.34	1074.07
654.69	1073.84
655.03	1082.73
655.37	1076.41
655.71	1076.18
656.05	1082.26
656.40	1082.26
656.74	1083.90
657.08	1089.75
657.42	1095.60
657.76	1092.09
658.11	1097.95
658.45	1087.88
658.79	1092.56
659.13	1090.46
659.47	1084.14
659.82	1080.16
660.16	1088.82
660.50	1077.82
660.84	1080.16
661.18	1077.82
661.52	1078.28
661.87	1075.01
662.21	1078.99
662.55	1072.67
662.89	1074.54
663.23	1072.43
663.57	1073.14
663.91	1079.46
664.25	1086.48
664.60	1101.46
664.94	1118.31
665.28	1122.99
665.62	1115.50
665.96	1107.31
666.30	1099.58
666.64	1084.14
666.98	1073.84
667.32	1078.28
667.66	1072.43
668.01	1064.71
668.35	1067.05
668.69	1076.18
669.03	1076.88
669.37	1078.99
669.71	1083.20
670.05	1081.33
670.39	1081.56
670.73	1078.05
671.07	1089.99
671.41	1091.63
671.75	1098.65
672.09	1100.29
672.43	1101.46
672.77	1100.75
673.11	1106.84
673.45	1103.56
673.79	1092.80
674.13	1098.88
674.47	1093.73
674.81	1087.65
675.15	1088.12
675.49	1094.43
675.83	1093.97
676.17	1097.24
676.51	1095.60
676.85	1085.07
677.19	1083.67
677.53	1077.11
677.87	1070.09
678.21	1060.26
678.55	1068.45
678.89	1076.65
679.23	1071.26
679.57	1073.84
679.90	1081.09
680.24	1082.03
680.58	1084.84
680.92	1091.16
681.26	1098.41
681.60	1089.52
681.94	1080.39
682.28	1071.97
682.62	1071.50
682.96	1064.01
683.29	1067.75
683.63	1077.58
683.97	1073.84
684.31	1073.37
684.65	1073.14
684.99	1088.58
685.33	1086.24
685.67	1089.52
686.00	1088.82
686.34	1083.90
686.68	1083.43
687.02	1085.77
687.36	1074.07
687.70	1070.33
688.03	1079.69
688.37	1071.73
688.71	1064.94
689.05	1085.54
689.39	1092.56
689.72	1087.88
690.06	1093.73
690.40	1097.24
690.74	1086.94
691.08	1089.29
691.41	1093.50
691.75	1093.50
692.09	1088.58
692.43	1074.54
692.76	1055.35
693.10	1055.11
693.44	1052.54
693.78	1058.16
694.11	1071.26
694.45	1082.50
694.79	1078.99
695.13	1080.86
695.46	1072.90
695.80	1065.41
696.14	1074.77
696.48	1079.22
696.81	1081.56
697.15	1090.22
697.49	1095.84
697.82	1088.82
698.16	1088.12
698.50	1087.41
698.83	1086.71
699.17	1095.84
699.51	1094.20
699.84	1094.67
700.18	1089.05
700.52	1087.41
700.85	1073.37
701.19	1079.22
701.53	1074.77
701.86	1075.24
702.20	1070.80
702.54	1081.56
702.87	1080.16
703.21	1082.73
703.55	1078.99
703.88	1091.16
704.22	1086.48
704.55	1088.12
704.89	1091.63
705.23	1088.12
705.56	1097.01
705.90	1116.44
706.23	1117.37
706.57	1118.31
706.91	1135.39
707.24	1119.71
707.58	1100.52
707.91	1094.90
708.25	1084.84
708.58	1082.50
708.92	1081.09
709.26	1097.01
709.59	1097.95
709.93	1105.67
710.26	1097.24
710.60	1095.37
710.93	1083.67
711.27	1079.22
711.60	1065.65
711.94	1058.16
712.27	1061.90
712.61	1061.90
712.94	1071.50
713.28	1087.65
713.61	1095.84
713.95	1095.37
714.28	1097.95
714.62	1090.92
714.95	1081.80
715.29	1079.22
715.62	1078.52
715.96	1074.07
716.29	1074.31
716.63	1079.69
716.96	1078.52
717.29	1074.54
717.63	1069.86
717.96	1073.60
718.30	1076.88
718.63	1080.63
718.97	1084.37
719.30	1092.56
719.63	1082.03
719.97	1071.03
720.30	1076.41
720.64	1073.60
720.97	1064.94
721.30	1075.48
721.64	1082.03
721.97	1073.84
722.31	1073.84
722.64	1078.52
722.97	1076.41
723.31	1071.26
723.64	1073.14
723.97	1077.11
724.31	1081.80
724.64	1084.84
724.98	1087.88
725.31	1078.52
725.64	1079.92
725.98	1073.14
726.31	1073.60
726.64	1077.11
726.97	1085.31
727.31	1080.16
727.64	1085.54
727.97	1086.48
728.31	1086.24
728.64	1079.22
728.97	1076.41
729.31	1067.99
729.64	1063.54
729.97	1064.94
730.30	1076.18
730.64	1081.09
730.97	1087.65
731.30	1088.12
731.63	1086.94
731.97	1090.69
732.30	1094.90
732.63	1093.73
732.96	1099.58
733.30	1103.80
733.63	1104.73
733.96	1100.29
734.29	1095.84
734.63	1084.84
734.96	1074.54
735.29	1071.26
735.62	1074.31
735.95	1078.28
736.29	1078.75
736.62	1084.60
736.95	1082.97
737.28	1087.65
737.61	1091.63
737.94	1098.41
738.28	1099.58
738.61	1103.56
738.94	1093.26
739.27	1082.26
739.60	1075.48
739.93	1071.03
740.27	1063.77
740.60	1071.03
740.93	1075.48
741.26	1078.99
741.59	1080.63
741.92	1085.54
742.25	1079.92
742.58	1075.48
742.91	1078.05
743.25	1082.26
743.58	1082.97
743.91	1078.99
744.24	1086.01
744.57	1085.31
744.90	1083.20
745.23	1079.46
745.56	1086.24
745.89	1091.39
746.22	1093.03
746.55	1085.31
746.88	1088.35
747.21	1096.07
747.54	1093.50
747.87	1096.07
748.20	1109.41
748.53	1098.65
748.87	1093.26
749.20	1093.03
749.53	1079.92
749.86	1080.16
750.19	1082.73
750.52	1077.82
750.85	1073.14
751.18	1084.60
751.51	1069.62
751.84	1069.86
752.16	1078.75
752.49	1074.07
752.82	1073.60
753.15	1074.77
753.48	1077.11
753.81	1066.35
754.14	1068.92
754.47	1061.43
754.80	1067.52
755.13	1069.62
755.46	1070.33
755.79	1077.82
756.12	1076.41
756.45	1079.92
756.78	1075.24
757.11	1069.86
757.43	1068.45
757.76	1072.20
758.09	1076.41
758.42	1081.09
758.75	1093.73
759.08	1086.94
759.41	1094.20
759.74	1081.33
760.07	1083.67
760.39	1075.71
760.72	1085.07
761.05	1076.65
761.38	1084.37
761.71	1081.56
762.04	1080.16
762.36	1071.03
762.69	1079.46
763.02	1078.99
763.35	1078.28
763.68	1084.60
764.01	1088.12
