SpectraSuite Data File
++++++++++++++++++++++++++++++++++++
Date: Mon Aug 26 10:24:48 PDT 2019
User: corrico
Dark Spectrum Present: No
Reference Spectrum Present: No
Number of Sampled Component Spectra: 1
Spectrometers: USB2+H06089
Integration Time (usec): 10000 (USB2+H06089)
Spectra Averaged: 2 (USB2+H06089)
Boxcar Smoothing: 2 (USB2+H06089)
Correct for Electrical Dark: No (USB2+H06089)
Strobe/Lamp Enabled: No (USB2+H06089)
Correct for Detector Non-linearity: No (USB2+H06089)
Correct for Stray Light: No (USB2+H06089)
Number of Pixels in Processed Spectrum: 2048
>>>>>Begin Processed Spectral Data<<<<<
339.70	1052.07
340.07	1052.07
340.45	1017.20
340.82	998.24
341.19	972.96
341.57	944.64
341.94	923.81
342.31	911.17
342.69	898.77
343.06	888.94
343.43	894.08
343.81	889.64
344.18	899.23
344.55	909.30
344.93	917.96
345.30	905.55
345.67	924.28
346.04	920.53
346.42	922.41
346.79	935.04
347.16	948.62
347.54	965.47
347.91	976.71
348.28	990.28
348.65	989.81
349.03	1003.62
349.40	1001.28
349.77	1016.26
350.14	1024.69
350.52	1038.73
350.89	1052.77
351.26	1061.90
351.63	1061.90
352.01	1059.09
352.38	1060.03
352.75	1060.96
353.12	1063.31
353.50	1076.18
353.87	1085.54
354.24	1091.39
354.61	1085.31
354.98	1088.12
355.36	1081.56
355.73	1078.52
356.10	1079.22
356.47	1078.52
356.84	1075.94
357.22	1075.94
357.59	1071.97
357.96	1067.05
358.33	1075.01
358.70	1075.94
359.08	1073.14
359.45	1075.01
359.82	1088.82
360.19	1080.16
360.56	1085.31
360.94	1096.54
361.31	1104.97
361.68	1090.69
362.05	1097.01
362.42	1097.71
362.79	1094.43
363.16	1091.86
363.54	1104.03
363.91	1099.82
364.28	1094.67
364.65	1090.92
365.02	1097.01
365.39	1089.75
365.76	1095.14
366.14	1093.26
366.51	1094.20
366.88	1084.37
367.25	1084.60
367.62	1076.88
367.99	1083.43
368.36	1069.86
368.73	1065.88
369.10	1066.11
369.48	1074.54
369.85	1075.71
370.22	1085.54
370.59	1088.35
370.96	1091.39
371.33	1098.41
371.70	1103.09
372.07	1099.82
372.44	1100.05
372.81	1090.69
373.18	1090.92
373.55	1080.63
373.93	1080.63
374.30	1086.71
374.67	1085.31
375.04	1080.86
375.41	1081.33
375.78	1087.88
376.15	1080.39
376.52	1084.84
376.89	1083.90
377.26	1087.18
377.63	1083.90
378.00	1083.90
378.37	1076.41
378.74	1074.77
379.11	1070.56
379.48	1071.73
379.85	1080.39
380.22	1085.77
380.59	1085.77
380.96	1085.31
381.33	1078.75
381.70	1075.94
382.07	1081.80
382.44	1080.86
382.81	1085.54
383.18	1091.39
383.55	1084.37
383.92	1091.39
384.29	1103.09
384.66	1101.69
385.03	1100.29
385.40	1109.65
385.77	1109.65
386.14	1101.46
386.51	1105.44
386.88	1118.54
387.25	1112.22
387.62	1115.03
387.99	1108.01
388.36	1102.86
388.73	1085.77
389.10	1087.88
389.46	1084.60
389.83	1080.16
390.20	1084.14
390.57	1100.29
390.94	1107.07
391.31	1107.07
391.68	1113.39
392.05	1108.24
392.42	1112.92
392.79	1109.41
393.16	1101.46
393.53	1117.14
393.89	1113.16
394.26	1102.86
394.63	1099.82
395.00	1103.80
395.37	1105.20
395.74	1118.31
396.11	1123.22
396.48	1115.03
396.84	1114.33
397.21	1099.12
397.58	1092.33
397.95	1093.50
398.32	1109.41
398.69	1114.56
399.06	1120.88
399.42	1132.35
399.79	1131.41
400.16	1135.86
400.53	1139.14
400.90	1145.69
401.27	1154.12
401.64	1153.88
402.00	1155.05
402.37	1172.14
402.74	1180.57
403.11	1188.52
403.48	1190.16
403.84	1199.99
404.21	1197.89
404.58	1204.91
404.95	1201.16
405.32	1222.93
405.68	1219.19
406.05	1227.85
406.42	1238.85
406.79	1248.91
407.16	1262.95
407.52	1294.32
407.89	1309.06
408.26	1324.51
408.63	1353.77
408.99	1378.34
409.36	1398.24
409.73	1427.49
410.10	1456.05
410.47	1484.84
410.83	1511.52
411.20	1554.12
411.57	1592.27
411.94	1628.31
412.30	1667.40
412.67	1699.93
413.04	1741.36
413.40	1797.77
413.77	1861.66
414.14	1921.11
414.51	1993.90
414.87	2058.03
415.24	2113.50
415.61	2188.87
415.97	2274.77
416.34	2373.54
416.71	2465.99
417.08	2561.25
417.44	2659.32
417.81	2782.43
418.18	2899.46
418.54	3031.23
418.91	3192.96
419.28	3353.29
419.64	3502.14
420.01	3673.70
420.38	3834.27
420.74	4032.74
421.11	4207.35
421.48	4414.48
421.84	4610.62
422.21	4838.82
422.58	5063.98
422.94	5327.53
423.31	5568.84
423.68	5866.08
424.04	6175.97
424.41	6453.09
424.77	6730.21
425.14	7062.80
425.51	7371.05
425.87	7710.89
426.24	8088.89
426.61	8518.15
426.97	8999.83
427.34	9427.91
427.70	9928.08
428.07	10402.28
428.44	10945.98
428.80	11450.84
429.17	12057.04
429.53	12587.64
429.90	13254.45
430.27	13772.41
430.63	14304.65
431.00	14962.81
431.36	15732.38
431.73	16328.75
432.09	17045.42
432.46	17783.62
432.83	18398.25
433.19	18927.21
433.56	19650.67
433.92	20343.94
434.29	20971.67
434.65	21686.94
435.02	22345.56
435.38	22997.64
435.75	23489.62
436.11	24111.03
436.48	24566.73
436.84	25109.50
437.21	25507.86
437.57	25992.12
437.94	26386.73
438.30	26804.05
438.67	27039.04
439.03	27248.75
439.40	27428.74
439.76	27404.16
440.13	27296.73
440.49	27269.35
440.86	27013.06
441.22	26735.94
441.59	26371.05
441.95	26037.52
442.32	25514.88
442.68	25088.44
443.05	24534.67
443.41	24065.39
443.78	23448.19
444.14	22862.35
444.51	22247.96
444.87	21875.82
445.24	21377.52
445.60	20952.71
445.96	20462.13
446.33	20021.41
446.69	19397.89
447.06	18836.87
447.42	18203.28
447.79	17696.56
448.15	17255.60
448.51	16724.06
448.88	16322.90
449.24	15923.13
449.61	15605.99
449.97	15192.89
450.33	14815.36
450.70	14363.63
451.06	13995.00
451.43	13506.30
451.79	13129.47
452.15	12812.56
452.52	12541.06
452.88	12266.98
453.24	12011.16
453.61	11736.15
453.97	11482.43
454.34	11154.06
454.70	10911.11
455.06	10624.63
455.43	10316.61
455.79	9933.23
456.15	9661.26
456.52	9288.88
456.88	9038.91
457.24	8742.60
457.61	8536.40
457.97	8298.60
458.33	8094.04
458.70	7834.71
459.06	7562.74
459.42	7343.43
459.79	7062.10
460.15	6816.11
460.51	6577.84
460.88	6410.73
461.24	6175.97
461.60	6014.94
461.96	5857.66
462.33	5705.29
462.69	5555.03
463.05	5425.36
463.42	5287.50
463.78	5130.45
464.14	4969.66
464.50	4840.70
464.87	4716.18
465.23	4613.90
465.59	4525.66
465.95	4442.10
466.32	4337.48
466.68	4250.88
467.04	4144.85
467.40	4033.68
467.77	3932.57
468.13	3842.69
468.49	3767.33
468.85	3712.56
469.22	3650.53
469.58	3589.21
469.94	3528.12
470.30	3445.74
470.66	3387.46
471.03	3323.56
471.39	3290.79
471.75	3238.60
472.11	3193.43
472.47	3124.62
472.84	3072.66
473.20	3004.55
473.56	2937.37
473.92	2883.77
474.28	2832.98
474.65	2782.43
475.01	2732.34
475.37	2691.38
475.73	2633.57
476.09	2590.27
476.45	2551.18
476.81	2525.67
477.18	2486.82
477.54	2467.16
477.90	2429.71
478.26	2401.62
478.62	2360.90
478.98	2335.62
479.34	2297.24
479.71	2270.32
480.07	2233.34
480.43	2205.49
480.79	2179.04
481.15	2159.61
481.51	2138.78
481.87	2131.06
482.23	2104.14
482.59	2065.99
482.96	2036.27
483.32	2006.31
483.68	1967.22
484.04	1958.79
484.40	1948.96
484.76	1938.67
485.12	1929.77
485.48	1913.62
485.84	1895.13
486.20	1873.13
486.56	1854.64
486.92	1827.26
487.28	1816.02
487.64	1795.89
488.00	1793.55
488.37	1768.27
488.73	1752.59
489.09	1725.91
489.45	1699.93
489.81	1668.33
490.17	1659.91
490.53	1637.67
490.89	1623.16
491.25	1603.03
491.61	1593.44
491.97	1565.58
492.33	1571.90
492.69	1560.67
493.05	1560.20
493.41	1543.82
493.77	1535.39
494.13	1511.52
494.49	1502.86
494.85	1485.54
495.21	1468.22
495.57	1451.37
495.93	1433.34
496.29	1423.98
496.64	1401.75
497.00	1398.00
497.36	1402.21
497.72	1396.13
498.08	1389.34
498.44	1390.28
498.80	1382.32
499.16	1370.85
499.52	1368.28
499.88	1354.00
500.24	1350.26
500.60	1347.68
500.96	1333.64
501.32	1325.21
501.68	1316.55
502.03	1318.66
502.39	1313.51
502.75	1324.04
503.11	1318.19
503.47	1308.59
503.83	1291.74
504.19	1272.55
504.55	1254.53
504.91	1241.19
505.26	1236.74
505.62	1229.02
505.98	1227.38
506.34	1225.27
506.70	1229.25
507.06	1224.33
507.42	1221.53
507.78	1224.80
508.13	1223.87
508.49	1219.19
508.85	1228.78
509.21	1218.25
509.57	1210.29
509.93	1204.91
510.28	1203.04
510.64	1188.52
511.00	1196.01
511.36	1197.89
511.72	1188.99
512.07	1190.86
512.43	1193.67
512.79	1191.80
513.15	1192.03
513.51	1194.14
513.86	1188.06
514.22	1188.52
514.58	1174.48
514.94	1169.10
515.30	1161.61
515.65	1154.82
516.01	1152.01
516.37	1158.10
516.73	1155.05
517.08	1163.95
517.44	1158.10
517.80	1157.16
518.16	1159.27
518.51	1158.57
518.87	1153.65
519.23	1158.33
519.59	1150.61
519.94	1142.18
520.30	1142.88
520.66	1143.35
521.01	1147.10
521.37	1140.78
521.73	1142.88
522.09	1138.90
522.44	1125.56
522.80	1121.12
523.16	1125.33
523.51	1135.86
523.87	1124.16
524.23	1137.73
524.58	1145.69
524.94	1149.91
525.30	1138.20
525.65	1133.99
526.01	1130.71
526.37	1114.10
526.72	1107.78
527.08	1106.84
527.44	1117.37
527.79	1103.56
528.15	1104.50
528.51	1096.07
528.86	1097.01
529.22	1097.24
529.58	1102.63
529.93	1113.39
530.29	1121.58
530.65	1118.31
531.00	1118.78
531.36	1129.07
531.71	1125.80
532.07	1137.03
532.43	1133.52
532.78	1129.07
533.14	1117.37
533.49	1106.37
533.85	1095.84
534.21	1103.80
534.56	1112.22
534.92	1108.95
535.27	1110.82
535.63	1107.31
535.98	1101.22
536.34	1100.99
536.69	1115.50
537.05	1113.86
537.41	1121.12
537.76	1124.39
538.12	1119.48
538.47	1112.46
538.83	1116.44
539.18	1117.37
539.54	1118.78
539.89	1122.05
540.25	1113.86
540.60	1113.63
540.96	1108.95
541.31	1105.90
541.67	1095.37
542.02	1095.14
542.38	1096.07
542.73	1097.48
543.09	1094.43
543.44	1100.05
543.80	1116.20
544.15	1115.03
544.51	1117.37
544.86	1127.90
545.22	1126.97
545.57	1121.12
545.93	1121.58
546.28	1108.48
546.64	1100.29
546.99	1101.69
547.35	1107.78
547.70	1110.82
548.05	1120.88
548.41	1124.16
548.76	1122.29
549.12	1113.63
549.47	1121.58
549.83	1118.31
550.18	1115.50
550.53	1126.27
550.89	1122.29
551.24	1107.31
551.60	1106.37
551.95	1099.58
552.30	1091.63
552.66	1093.03
553.01	1097.24
553.37	1100.75
553.72	1106.14
554.07	1101.22
554.43	1108.24
554.78	1103.56
555.13	1107.07
555.49	1099.82
555.84	1102.39
556.19	1093.03
556.55	1093.73
556.90	1085.07
557.26	1092.80
557.61	1097.48
557.96	1100.52
558.32	1101.46
558.67	1101.46
559.02	1100.75
559.37	1099.35
559.73	1096.54
560.08	1107.07
560.43	1105.20
560.79	1098.41
561.14	1097.01
561.49	1096.78
561.85	1084.14
562.20	1089.29
562.55	1097.24
562.90	1091.86
563.26	1105.67
563.61	1118.54
563.96	1121.58
564.32	1118.31
564.67	1128.14
565.02	1112.46
565.37	1104.97
565.73	1093.97
566.08	1095.60
566.43	1082.26
566.78	1080.63
567.14	1077.11
567.49	1078.52
567.84	1076.65
568.19	1093.03
568.54	1097.24
568.90	1100.52
569.25	1111.29
569.60	1113.63
569.95	1110.12
570.31	1111.52
570.66	1117.84
571.01	1107.07
571.36	1110.82
571.71	1093.26
572.06	1092.80
572.42	1081.09
572.77	1093.26
573.12	1093.50
573.47	1108.01
573.82	1105.67
574.18	1109.18
574.53	1100.29
574.88	1098.41
575.23	1105.90
575.58	1108.95
575.93	1113.39
576.28	1111.75
576.64	1102.63
576.99	1092.56
577.34	1096.54
577.69	1101.92
578.04	1099.12
578.39	1115.03
578.74	1110.35
579.09	1105.90
579.44	1089.99
579.80	1098.41
580.15	1083.43
580.50	1093.03
580.85	1093.50
581.20	1097.48
581.55	1096.31
581.90	1094.90
582.25	1083.90
582.60	1082.50
582.95	1090.92
583.30	1092.56
583.65	1098.88
584.00	1099.82
584.35	1088.58
584.71	1086.01
585.06	1093.50
585.41	1095.84
585.76	1093.26
586.11	1103.33
586.46	1100.05
586.81	1094.67
587.16	1086.94
587.51	1097.48
587.86	1093.50
588.21	1091.63
588.56	1082.97
588.91	1084.84
589.26	1078.99
589.61	1083.67
589.96	1078.28
590.31	1083.90
590.66	1085.77
591.01	1085.77
591.36	1088.58
591.71	1092.33
592.06	1095.60
592.41	1103.80
592.76	1108.71
593.10	1108.71
593.45	1111.52
593.80	1097.48
594.15	1090.46
594.50	1085.31
594.85	1081.33
595.20	1078.75
595.55	1091.16
595.90	1080.39
596.25	1071.26
596.60	1066.11
596.95	1067.52
597.30	1072.43
597.64	1129.31
597.99	1145.93
598.34	1156.22
598.69	1153.65
599.04	1151.08
599.39	1115.50
599.74	1115.73
600.09	1116.20
600.44	1119.01
600.78	1114.80
601.13	1105.20
601.48	1100.29
601.83	1098.65
602.18	1098.88
602.53	1094.43
602.88	1090.92
603.22	1090.22
603.57	1093.50
603.92	1090.69
604.27	1086.94
604.62	1089.29
604.97	1089.29
605.31	1085.07
605.66	1085.31
606.01	1093.50
606.36	1096.78
606.71	1097.71
607.05	1092.09
607.40	1100.52
607.75	1095.14
608.10	1092.33
608.44	1095.37
608.79	1092.09
609.14	1093.73
609.49	1111.05
609.84	1116.67
610.18	1112.22
610.53	1120.18
610.88	1108.24
611.23	1092.56
611.57	1089.75
611.92	1087.88
612.27	1081.33
612.62	1079.69
612.96	1076.18
613.31	1068.69
613.66	1067.05
614.00	1077.58
614.35	1079.46
614.70	1084.84
615.05	1084.60
615.39	1091.86
615.74	1088.12
616.09	1089.52
616.43	1095.60
616.78	1106.37
617.13	1099.35
617.47	1095.37
617.82	1103.33
618.17	1093.03
618.51	1079.22
618.86	1076.88
619.21	1081.56
619.55	1081.09
619.90	1093.26
620.25	1100.99
620.59	1105.44
620.94	1105.44
621.29	1103.56
621.63	1087.18
621.98	1086.94
622.32	1086.71
622.67	1082.50
623.02	1072.67
623.36	1075.94
623.71	1079.46
624.05	1085.07
624.40	1085.77
624.75	1090.22
625.09	1094.90
625.44	1097.95
625.78	1090.69
626.13	1085.31
626.48	1079.92
626.82	1081.09
627.17	1067.99
627.51	1079.46
627.86	1090.92
628.20	1094.90
628.55	1091.39
628.89	1092.33
629.24	1084.84
629.58	1074.54
629.93	1084.37
630.28	1090.92
630.62	1095.14
630.97	1096.54
631.31	1106.61
631.66	1108.01
632.00	1100.05
632.35	1105.20
632.69	1112.22
633.04	1117.84
633.38	1121.12
633.73	1123.46
634.07	1113.86
634.42	1100.52
634.76	1085.54
635.11	1073.14
635.45	1074.07
635.79	1082.50
636.14	1081.09
636.48	1075.94
636.83	1078.52
637.17	1077.58
637.52	1079.22
637.86	1086.24
638.21	1098.65
638.55	1090.69
638.89	1088.35
639.24	1082.73
639.58	1081.09
639.93	1075.48
640.27	1084.14
640.61	1091.16
640.96	1086.01
641.30	1096.07
641.65	1101.22
641.99	1103.09
642.33	1094.43
642.68	1097.24
643.02	1097.24
643.37	1093.73
643.71	1093.73
644.05	1104.50
644.40	1094.67
644.74	1080.86
645.08	1084.37
645.43	1066.11
645.77	1061.43
646.11	1074.54
646.46	1076.88
646.80	1076.41
647.14	1086.24
647.49	1077.58
647.83	1072.43
648.17	1074.77
648.52	1075.01
648.86	1078.28
649.20	1083.67
649.55	1084.14
649.89	1090.69
650.23	1089.05
650.57	1093.03
650.92	1095.84
651.26	1108.24
651.60	1096.78
651.95	1095.37
652.29	1090.22
652.63	1082.26
652.97	1073.14
653.32	1076.41
653.66	1079.69
654.00	1081.56
654.34	1082.26
654.69	1088.82
655.03	1081.09
655.37	1074.54
655.71	1082.50
656.05	1084.14
656.40	1083.43
656.74	1085.54
657.08	1093.26
657.42	1083.90
657.76	1085.07
658.11	1078.05
658.45	1089.75
658.79	1083.67
659.13	1091.16
659.47	1100.29
659.82	1094.20
660.16	1089.29
660.50	1086.94
660.84	1086.48
661.18	1076.65
661.52	1084.37
661.87	1086.48
662.21	1088.12
662.55	1082.97
662.89	1085.54
663.23	1076.65
663.57	1071.26
663.91	1074.54
664.25	1074.77
664.60	1069.86
664.94	1068.22
665.28	1069.16
665.62	1071.50
665.96	1069.86
666.30	1074.31
666.64	1091.86
666.98	1090.22
667.32	1078.52
667.66	1077.58
668.01	1078.05
668.35	1060.73
668.69	1058.62
669.03	1073.37
669.37	1068.45
669.71	1068.45
670.05	1080.63
670.39	1077.35
670.73	1068.69
671.07	1078.28
671.41	1078.99
671.75	1073.14
672.09	1085.31
672.43	1093.03
672.77	1086.48
673.11	1084.37
673.45	1083.43
673.79	1078.99
674.13	1077.82
674.47	1087.41
674.81	1086.48
675.15	1084.84
675.49	1086.01
675.83	1083.67
676.17	1077.58
676.51	1080.39
676.85	1076.65
677.19	1077.35
677.53	1072.67
677.87	1065.18
678.21	1063.77
678.55	1074.54
678.89	1074.31
679.23	1080.86
679.57	1092.56
679.90	1096.07
680.24	1093.26
680.58	1091.16
680.92	1086.94
681.26	1077.82
681.60	1080.86
681.94	1086.48
682.28	1074.77
682.62	1075.01
682.96	1071.97
683.29	1064.24
683.63	1060.73
683.97	1075.01
684.31	1077.58
684.65	1078.99
684.99	1086.71
685.33	1085.07
685.67	1088.12
686.00	1082.50
686.34	1090.22
686.68	1079.46
687.02	1082.50
687.36	1072.67
687.70	1074.31
688.03	1071.73
688.37	1076.65
688.71	1073.84
689.05	1078.52
689.39	1080.86
689.72	1081.80
690.06	1086.24
690.40	1086.24
690.74	1086.48
691.08	1091.39
691.41	1091.86
691.75	1084.14
692.09	1083.20
692.43	1081.80
692.76	1072.20
693.10	1068.69
693.44	1070.56
693.78	1067.99
694.11	1069.62
694.45	1074.54
694.79	1075.01
695.13	1079.22
695.46	1083.90
695.80	1091.16
696.14	1091.39
696.48	1091.63
696.81	1097.71
697.15	1094.90
697.49	1096.54
697.82	1090.92
698.16	1098.88
698.50	1087.18
698.83	1091.63
699.17	1087.88
699.51	1092.56
699.84	1089.99
700.18	1094.90
700.52	1085.31
700.85	1082.50
701.19	1082.26
701.53	1081.56
701.86	1083.43
702.20	1081.80
702.54	1073.37
702.87	1079.46
703.21	1081.33
703.55	1080.63
703.88	1087.18
704.22	1088.82
704.55	1085.54
704.89	1084.37
705.23	1078.28
705.56	1079.92
705.90	1093.26
706.23	1093.03
706.57	1092.56
706.91	1097.01
707.24	1092.09
707.58	1079.92
707.91	1078.99
708.25	1089.05
708.58	1091.63
708.92	1097.24
709.26	1097.48
709.59	1100.75
709.93	1089.75
710.26	1089.52
710.60	1091.63
710.93	1096.31
711.27	1092.80
711.60	1101.69
711.94	1100.75
712.27	1092.80
712.61	1093.97
712.94	1085.77
713.28	1072.90
713.61	1066.82
713.95	1069.39
714.28	1064.94
714.62	1071.50
714.95	1075.24
715.29	1084.14
715.62	1082.73
715.96	1077.82
716.29	1075.24
716.63	1083.20
716.96	1074.77
717.29	1079.92
717.63	1093.97
717.96	1090.22
718.30	1082.03
718.63	1090.46
718.97	1087.18
719.30	1072.90
719.63	1074.07
719.97	1074.07
720.30	1068.69
720.64	1076.88
720.97	1074.54
721.30	1072.90
721.64	1075.24
721.97	1071.50
722.31	1071.50
722.64	1082.50
722.97	1088.82
723.31	1083.43
723.64	1078.28
723.97	1068.92
724.31	1069.16
724.64	1067.75
724.98	1062.14
725.31	1070.56
725.64	1078.52
725.98	1075.01
726.31	1079.69
726.64	1090.22
726.97	1082.50
727.31	1085.54
727.64	1078.28
727.97	1073.60
728.31	1072.20
728.64	1083.90
728.97	1073.84
729.31	1084.60
729.64	1097.24
729.97	1094.67
730.30	1090.69
730.64	1093.50
730.97	1096.31
731.30	1085.07
731.63	1087.65
731.97	1084.84
732.30	1078.99
732.63	1069.62
732.96	1072.90
733.30	1066.58
733.63	1065.41
733.96	1065.18
734.29	1065.18
734.63	1063.77
734.96	1075.01
735.29	1082.97
735.62	1080.86
735.95	1081.33
736.29	1075.71
736.62	1067.28
736.95	1061.20
737.28	1071.73
737.61	1070.56
737.94	1071.50
738.28	1075.24
738.61	1075.71
738.94	1078.75
739.27	1079.92
739.60	1079.69
739.93	1075.01
740.27	1081.80
740.60	1086.94
740.93	1090.92
741.26	1090.46
741.59	1101.46
741.92	1096.54
742.25	1089.99
742.58	1092.09
742.91	1095.60
743.25	1093.26
743.58	1094.43
743.91	1093.50
744.24	1100.05
744.57	1108.71
744.90	1096.07
745.23	1093.73
745.56	1088.58
745.89	1074.07
746.22	1063.77
746.55	1075.24
746.88	1076.88
747.21	1078.28
747.54	1080.63
747.87	1081.80
748.20	1077.35
748.53	1066.11
748.87	1062.60
749.20	1055.58
749.53	1056.75
749.86	1054.41
750.19	1062.37
750.52	1064.24
750.85	1075.48
751.18	1073.60
751.51	1068.45
751.84	1072.20
752.16	1073.14
752.49	1081.09
752.82	1078.05
753.15	1090.22
753.48	1090.46
753.81	1091.63
754.14	1075.94
754.47	1073.37
754.80	1065.88
755.13	1066.82
755.46	1065.88
755.79	1072.20
756.12	1081.56
756.45	1078.75
756.78	1074.77
757.11	1075.48
757.43	1072.90
757.76	1070.09
758.09	1073.84
758.42	1082.26
758.75	1080.86
759.08	1078.99
759.41	1079.92
759.74	1090.22
760.07	1086.94
760.39	1089.05
760.72	1092.80
761.05	1090.92
761.38	1089.99
761.71	1081.56
762.04	1076.41
762.36	1082.03
762.69	1086.48
763.02	1074.54
763.35	1080.16
763.68	1084.60
764.01	1078.52
764.33	1074.31
764.66	1078.52
