SpectraSuite Data File
++++++++++++++++++++++++++++++++++++
Date: Mon Aug 26 10:24:50 PDT 2019
User: corrico
Dark Spectrum Present: No
Reference Spectrum Present: No
Number of Sampled Component Spectra: 1
Spectrometers: USB2+H06089
Integration Time (usec): 10000 (USB2+H06089)
Spectra Averaged: 2 (USB2+H06089)
Boxcar Smoothing: 2 (USB2+H06089)
Correct for Electrical Dark: No (USB2+H06089)
Strobe/Lamp Enabled: No (USB2+H06089)
Correct for Detector Non-linearity: No (USB2+H06089)
Correct for Stray Light: No (USB2+H06089)
Number of Pixels in Processed Spectrum: 2048
>>>>>Begin Processed Spectral Data<<<<<
339.70	1041.54
340.07	1041.54
340.45	1005.03
340.82	984.43
341.19	953.07
341.57	919.83
341.94	898.77
342.31	888.94
342.69	877.70
343.06	878.87
343.43	880.98
343.81	894.55
344.18	896.43
344.55	900.17
344.93	907.43
345.30	921.00
345.67	919.60
346.04	936.68
346.42	950.73
346.79	957.98
347.16	959.39
347.54	975.77
347.91	984.43
348.28	993.56
348.65	1007.37
349.03	1031.01
349.40	1043.41
349.77	1054.41
350.14	1061.90
350.52	1065.88
350.89	1069.16
351.26	1067.52
351.63	1068.45
352.01	1075.01
352.38	1085.77
352.75	1086.24
353.12	1098.65
353.50	1089.05
353.87	1088.82
354.24	1095.14
354.61	1096.54
354.98	1084.84
355.36	1092.56
355.73	1092.56
356.10	1084.37
356.47	1071.03
356.84	1080.16
357.22	1086.01
357.59	1088.82
357.96	1094.90
358.33	1111.29
358.70	1107.07
359.08	1108.95
359.45	1103.33
359.82	1093.26
360.19	1078.52
360.56	1070.09
360.94	1065.18
361.31	1064.71
361.68	1062.37
362.05	1069.86
362.42	1081.09
362.79	1079.69
363.16	1084.60
363.54	1083.67
363.91	1084.84
364.28	1072.67
364.65	1065.41
365.02	1064.48
365.39	1072.67
365.76	1070.33
366.14	1081.56
366.51	1090.46
366.88	1089.29
367.25	1078.05
367.62	1086.71
367.99	1093.97
368.36	1095.14
368.73	1095.60
369.10	1096.78
369.48	1088.12
369.85	1080.39
370.22	1072.90
370.59	1078.75
370.96	1084.60
371.33	1083.90
371.70	1084.14
372.07	1089.52
372.44	1082.73
372.81	1090.92
373.18	1097.24
373.55	1098.88
373.93	1093.03
374.30	1093.26
374.67	1083.43
375.04	1078.28
375.41	1072.90
375.78	1086.48
376.15	1082.03
376.52	1091.63
376.89	1096.31
377.26	1109.65
377.63	1103.56
378.00	1108.95
378.37	1100.29
378.74	1100.29
379.11	1092.09
379.48	1089.29
379.85	1085.31
380.22	1087.41
380.59	1089.29
380.96	1091.86
381.33	1084.84
381.70	1093.50
382.07	1092.33
382.44	1082.26
382.81	1088.12
383.18	1085.31
383.55	1076.65
383.92	1084.37
384.29	1097.01
384.66	1093.26
385.03	1098.41
385.40	1104.03
385.77	1106.61
386.14	1105.90
386.51	1096.31
386.88	1100.29
387.25	1099.58
387.62	1100.29
387.99	1098.41
388.36	1109.88
388.73	1120.41
389.10	1122.29
389.46	1123.69
389.83	1120.18
390.20	1115.73
390.57	1104.26
390.94	1104.26
391.31	1093.97
391.68	1097.95
392.05	1102.63
392.42	1111.99
392.79	1113.39
393.16	1113.86
393.53	1119.95
393.89	1111.29
394.26	1108.24
394.63	1100.29
395.00	1114.10
395.37	1110.58
395.74	1121.58
396.11	1122.29
396.48	1130.71
396.84	1126.97
397.21	1136.56
397.58	1137.73
397.95	1138.44
398.32	1145.22
398.69	1146.86
399.06	1133.29
399.42	1120.18
399.79	1124.16
400.16	1125.10
400.53	1134.22
400.90	1141.95
401.27	1156.93
401.64	1156.69
402.00	1159.03
402.37	1161.37
402.74	1167.93
403.11	1166.52
403.48	1170.27
403.84	1181.27
404.21	1189.46
404.58	1196.25
404.95	1212.63
405.32	1228.55
405.68	1242.59
406.05	1242.36
406.42	1246.34
406.79	1263.89
407.16	1283.55
407.52	1294.32
407.89	1310.93
408.26	1338.55
408.63	1351.89
408.99	1369.92
409.36	1393.55
409.73	1415.79
410.10	1440.83
410.47	1468.92
410.83	1484.13
411.20	1515.26
411.57	1561.37
411.94	1596.71
412.30	1648.91
412.67	1706.48
413.04	1749.32
413.40	1804.32
413.77	1856.98
414.14	1901.22
414.51	1963.48
414.87	2032.29
415.24	2096.89
415.61	2189.57
415.97	2275.47
416.34	2349.90
416.71	2433.69
417.08	2530.82
417.44	2614.38
417.81	2747.09
418.18	2878.39
418.54	3021.40
418.91	3152.94
419.28	3326.60
419.64	3467.50
420.01	3620.81
420.38	3772.71
420.74	3956.68
421.11	4157.73
421.48	4375.40
421.84	4598.45
422.21	4828.06
422.58	5074.05
422.94	5309.27
423.31	5543.09
423.68	5833.08
424.04	6141.80
424.41	6437.88
424.77	6736.30
425.14	7074.27
425.51	7379.71
425.87	7720.26
426.24	8096.62
426.61	8505.51
426.97	8956.53
427.34	9430.02
427.70	9957.58
428.07	10455.64
428.44	10976.88
428.80	11450.13
429.17	11994.08
429.53	12485.82
429.90	13094.60
430.27	13624.96
430.63	14230.22
431.00	14885.34
431.36	15610.20
431.73	16244.02
432.09	16941.27
432.46	17631.26
432.83	18256.41
433.19	18816.27
433.56	19483.79
433.92	20199.06
434.29	20820.47
434.65	21526.61
435.02	22211.68
435.38	22876.40
435.75	23425.49
436.11	24092.07
436.48	24563.92
436.84	25083.52
437.21	25590.25
437.57	26013.18
437.94	26425.82
438.30	26822.54
438.67	27101.06
439.03	27220.66
439.40	27392.46
439.76	27337.93
440.13	27261.16
440.49	27202.17
440.86	26983.80
441.22	26713.24
441.59	26340.86
441.95	25972.69
442.32	25448.18
442.68	25016.58
443.05	24493.94
443.41	24055.09
443.78	23467.85
444.14	22924.14
444.51	22282.60
444.87	21889.86
445.24	21425.03
445.60	20954.82
445.96	20419.77
446.33	20001.75
446.69	19333.06
447.06	18798.71
447.42	18265.54
447.79	17777.07
448.15	17304.52
448.51	16841.32
448.88	16353.32
449.24	15906.28
449.61	15558.48
449.97	15160.59
450.33	14777.67
450.70	14401.32
451.06	14068.96
451.43	13605.07
451.79	13236.43
452.15	12938.25
452.52	12588.57
452.88	12285.24
453.24	12072.48
453.61	11808.70
453.97	11465.11
454.34	11192.68
454.70	10924.45
455.06	10654.59
455.43	10323.40
455.79	9993.39
456.15	9668.99
456.52	9349.50
456.88	9048.98
457.24	8778.18
457.61	8585.32
457.97	8336.05
458.33	8041.61
458.70	7781.35
459.06	7506.10
459.42	7265.73
459.79	7023.95
460.15	6846.30
460.51	6612.95
460.88	6406.51
461.24	6187.21
461.60	6015.64
461.96	5844.55
462.33	5686.57
462.69	5543.32
463.05	5388.62
463.42	5245.14
463.78	5099.56
464.14	4955.38
464.50	4827.82
464.87	4711.97
465.23	4589.56
465.59	4454.74
465.95	4354.33
466.32	4256.97
466.68	4180.90
467.04	4087.51
467.40	4005.36
467.77	3935.38
468.13	3854.16
468.49	3772.24
468.85	3710.45
469.22	3645.38
469.58	3572.83
469.94	3514.08
470.30	3451.59
470.66	3386.52
471.03	3331.05
471.39	3260.83
471.75	3203.96
472.11	3142.87
472.47	3083.89
472.84	3012.27
473.20	2965.93
473.56	2909.75
473.92	2841.88
474.28	2800.22
474.65	2784.54
475.01	2745.45
475.37	2698.64
475.73	2681.08
476.09	2649.95
476.45	2603.61
476.81	2562.65
477.18	2526.37
477.54	2468.33
477.90	2421.99
478.26	2370.03
478.62	2330.71
478.98	2296.77
479.34	2279.21
479.71	2249.02
480.07	2226.79
480.43	2200.10
480.79	2176.00
481.15	2142.06
481.51	2129.65
481.87	2105.55
482.23	2072.78
482.59	2044.93
482.96	2031.58
483.32	2013.80
483.68	1992.73
484.04	1970.03
484.40	1952.01
484.76	1908.47
485.12	1867.28
485.48	1860.96
485.84	1857.68
486.20	1846.92
486.56	1850.19
486.92	1856.75
487.28	1836.85
487.64	1810.40
488.00	1792.62
488.37	1767.34
488.73	1731.06
489.09	1703.44
489.45	1688.70
489.81	1655.69
490.17	1634.86
490.53	1622.23
490.89	1607.25
491.25	1590.63
491.61	1585.71
491.97	1572.84
492.33	1555.52
492.69	1541.48
493.05	1527.20
493.41	1511.75
493.77	1501.22
494.13	1498.65
494.49	1497.71
494.85	1492.09
495.21	1477.58
495.57	1468.69
495.93	1449.03
496.29	1414.85
496.64	1389.81
497.00	1387.70
497.36	1378.81
497.72	1370.62
498.08	1370.15
498.44	1373.43
498.80	1371.79
499.16	1359.62
499.52	1357.04
499.88	1350.49
500.24	1335.98
500.60	1313.98
500.96	1312.57
501.32	1296.19
501.68	1297.59
502.03	1288.93
502.39	1289.40
502.75	1276.53
503.11	1275.12
503.47	1269.51
503.83	1278.17
504.19	1269.27
504.55	1272.08
504.91	1265.76
505.26	1272.08
505.62	1252.42
505.98	1246.80
506.34	1244.70
506.70	1232.29
507.06	1214.50
507.42	1215.44
507.78	1220.12
508.13	1219.89
508.49	1236.27
508.85	1236.74
509.21	1246.34
509.57	1246.57
509.93	1239.78
510.28	1233.70
510.64	1225.97
511.00	1220.59
511.36	1216.84
511.72	1209.59
512.07	1206.31
512.43	1199.06
512.79	1195.78
513.15	1188.06
513.51	1186.65
513.86	1179.40
514.22	1189.23
514.58	1180.33
514.94	1187.82
515.30	1181.74
515.65	1178.23
516.01	1165.59
516.37	1159.03
516.73	1154.12
517.08	1156.69
517.44	1165.12
517.80	1166.05
518.16	1167.23
518.51	1155.99
518.87	1154.12
519.23	1136.80
519.59	1133.29
519.94	1134.93
520.30	1134.46
520.66	1139.37
521.01	1146.86
521.37	1155.99
521.73	1145.93
522.09	1140.07
522.44	1131.65
522.80	1120.65
523.16	1114.33
523.51	1127.90
523.87	1131.65
524.23	1127.90
524.58	1141.25
524.94	1143.12
525.30	1130.95
525.65	1126.50
526.01	1124.86
526.37	1119.48
526.72	1118.07
527.08	1125.10
527.44	1118.07
527.79	1121.35
528.15	1117.61
528.51	1115.03
528.86	1123.69
529.22	1134.69
529.58	1138.90
529.93	1137.50
530.29	1138.20
530.65	1121.82
531.00	1114.80
531.36	1111.52
531.71	1106.14
532.07	1107.31
532.43	1111.52
532.78	1111.52
533.14	1116.20
533.49	1120.88
533.85	1118.54
534.21	1113.63
534.56	1124.39
534.92	1119.01
535.27	1124.63
535.63	1125.80
535.98	1135.39
536.34	1130.95
536.69	1128.61
537.05	1124.16
537.41	1115.73
537.76	1107.78
538.12	1106.84
538.47	1101.92
538.83	1103.56
539.18	1113.39
539.54	1112.92
539.89	1114.56
540.25	1120.65
540.60	1118.78
540.96	1110.82
541.31	1113.86
541.67	1110.58
542.02	1111.99
542.38	1106.14
542.73	1112.22
543.09	1117.14
543.44	1112.92
543.80	1108.71
544.15	1119.24
544.51	1115.27
544.86	1108.24
545.22	1108.01
545.57	1104.97
545.93	1098.18
546.28	1096.31
546.64	1101.69
546.99	1104.26
547.35	1100.29
547.70	1097.95
548.05	1102.86
548.41	1101.22
548.76	1102.39
549.12	1110.35
549.47	1118.78
549.83	1117.14
550.18	1109.88
550.53	1107.54
550.89	1099.58
551.24	1096.54
551.60	1100.75
551.95	1105.44
552.30	1106.84
552.66	1119.24
553.01	1118.07
553.37	1114.33
553.72	1109.88
554.07	1105.90
554.43	1103.56
554.78	1099.58
555.13	1097.71
555.49	1106.84
555.84	1103.80
556.19	1106.37
556.55	1108.71
556.90	1116.44
557.26	1108.48
557.61	1114.56
557.96	1093.97
558.32	1087.18
558.67	1070.80
559.02	1070.09
559.37	1069.86
559.73	1084.84
560.08	1095.84
560.43	1095.84
560.79	1085.77
561.14	1082.03
561.49	1088.82
561.85	1093.73
562.20	1105.67
562.55	1111.29
562.90	1102.16
563.26	1094.20
563.61	1081.56
563.96	1079.92
564.32	1080.16
564.67	1094.90
565.02	1092.33
565.37	1093.97
565.73	1086.48
566.08	1093.26
566.43	1090.92
566.78	1094.20
567.14	1095.84
567.49	1094.20
567.84	1089.75
568.19	1092.80
568.54	1098.18
568.90	1097.01
569.25	1103.56
569.60	1107.07
569.95	1092.80
570.31	1082.73
570.66	1076.88
571.01	1071.50
571.36	1072.43
571.71	1083.67
572.06	1100.52
572.42	1115.27
572.77	1128.37
573.12	1129.07
573.47	1127.20
573.82	1117.37
574.18	1105.67
574.53	1102.39
574.88	1102.16
575.23	1099.58
575.58	1090.69
575.93	1090.46
576.28	1079.69
576.64	1080.63
576.99	1091.39
577.34	1092.33
577.69	1097.01
578.04	1097.48
578.39	1082.97
578.74	1065.65
579.09	1065.41
579.44	1066.11
579.80	1076.41
580.15	1084.60
580.50	1091.16
580.85	1100.99
581.20	1095.60
581.55	1089.29
581.90	1088.12
582.25	1094.20
582.60	1093.50
582.95	1091.86
583.30	1096.54
583.65	1101.92
584.00	1107.07
584.35	1098.41
584.71	1102.63
585.06	1089.29
585.41	1093.26
585.76	1087.88
586.11	1090.22
586.46	1095.37
586.81	1101.22
587.16	1091.86
587.51	1096.31
587.86	1098.18
588.21	1096.07
588.56	1099.82
588.91	1107.54
589.26	1100.99
589.61	1100.52
589.96	1101.69
590.31	1111.75
590.66	1109.18
591.01	1111.52
591.36	1120.18
591.71	1110.12
592.06	1089.75
592.41	1091.16
592.76	1080.39
593.10	1073.60
593.45	1073.84
593.80	1079.69
594.15	1077.35
594.50	1091.63
594.85	1085.07
595.20	1086.71
595.55	1084.14
595.90	1084.37
596.25	1081.09
596.60	1095.60
596.95	1097.24
597.30	1097.24
597.64	1149.20
597.99	1146.16
598.34	1142.65
598.69	1148.73
599.04	1157.16
599.39	1105.20
599.74	1104.03
600.09	1097.71
600.44	1089.52
600.78	1077.58
601.13	1082.03
601.48	1084.84
601.83	1082.26
602.18	1089.05
602.53	1093.73
602.88	1091.86
603.22	1092.09
603.57	1099.82
603.92	1097.24
604.27	1111.52
604.62	1103.80
604.97	1099.12
605.31	1103.09
605.66	1103.09
606.01	1097.01
606.36	1096.54
606.71	1096.78
607.05	1094.90
607.40	1100.29
607.75	1094.43
608.10	1094.67
608.44	1096.78
608.79	1094.90
609.14	1096.07
609.49	1107.78
609.84	1112.46
610.18	1109.41
610.53	1106.84
610.88	1105.20
611.23	1106.37
611.57	1108.48
611.92	1111.29
612.27	1111.75
612.62	1109.41
612.96	1100.29
613.31	1103.80
613.66	1104.73
614.00	1104.50
614.35	1102.63
614.70	1108.71
615.05	1108.24
615.39	1109.88
615.74	1099.82
616.09	1095.14
616.43	1084.37
616.78	1081.33
617.13	1073.14
617.47	1089.05
617.82	1086.94
618.17	1092.56
618.51	1085.31
618.86	1089.05
619.21	1080.63
619.55	1087.65
619.90	1075.94
620.25	1078.75
620.59	1088.35
620.94	1087.65
621.29	1081.09
621.63	1093.73
621.98	1091.39
622.32	1087.88
622.67	1087.88
623.02	1099.12
623.36	1095.14
623.71	1093.97
624.05	1084.84
624.40	1083.90
624.75	1073.37
625.09	1067.52
625.44	1070.56
625.78	1077.11
626.13	1083.67
626.48	1087.88
626.82	1101.69
627.17	1104.50
627.51	1108.48
627.86	1108.95
628.20	1110.12
628.55	1100.52
628.89	1097.95
629.24	1084.37
629.58	1078.28
629.93	1084.37
630.28	1081.56
630.62	1083.90
630.97	1093.97
631.31	1089.99
631.66	1075.71
632.00	1078.52
632.35	1079.92
632.69	1077.11
633.04	1078.28
633.38	1084.84
633.73	1092.09
634.07	1082.97
634.42	1097.01
634.76	1104.50
635.11	1107.07
635.45	1102.16
635.79	1110.12
636.14	1099.12
636.48	1100.05
636.83	1098.88
637.17	1096.54
637.52	1089.99
637.86	1082.03
638.21	1075.48
638.55	1071.50
638.89	1061.90
639.24	1067.28
639.58	1071.50
639.93	1073.14
640.27	1070.33
640.61	1076.41
640.96	1080.86
641.30	1075.71
641.65	1078.05
641.99	1078.28
642.33	1089.52
642.68	1083.43
643.02	1089.75
643.37	1081.33
643.71	1087.65
644.05	1085.77
644.40	1090.46
644.74	1096.78
645.08	1098.88
645.43	1099.35
645.77	1090.69
646.11	1080.39
646.46	1075.94
646.80	1079.22
647.14	1074.77
647.49	1083.20
647.83	1090.22
648.17	1083.20
648.52	1082.03
648.86	1088.58
649.20	1081.33
649.55	1086.48
649.89	1089.29
650.23	1082.97
650.57	1085.31
650.92	1086.48
651.26	1086.48
651.60	1077.82
651.95	1082.97
652.29	1082.03
652.63	1079.69
652.97	1068.22
653.32	1082.73
653.66	1079.69
654.00	1066.58
654.34	1065.65
654.69	1066.58
655.03	1057.69
655.37	1068.22
655.71	1081.33
656.05	1083.43
656.40	1086.71
656.74	1097.95
657.08	1099.58
657.42	1093.03
657.76	1101.46
658.11	1110.58
658.45	1098.65
658.79	1092.09
659.13	1093.50
659.47	1080.86
659.82	1078.52
660.16	1093.50
660.50	1083.90
660.84	1089.05
661.18	1098.65
661.52	1098.41
661.87	1089.29
662.21	1097.48
662.55	1097.48
662.89	1097.24
663.23	1094.43
663.57	1090.69
663.91	1087.41
664.25	1080.16
664.60	1073.14
664.94	1071.73
665.28	1081.80
665.62	1085.07
665.96	1082.26
666.30	1081.80
666.64	1085.07
666.98	1090.69
667.32	1091.86
667.66	1095.37
668.01	1096.78
668.35	1094.43
668.69	1073.14
669.03	1068.69
669.37	1075.24
669.71	1073.60
670.05	1074.07
670.39	1086.94
670.73	1096.78
671.07	1089.75
671.41	1098.41
671.75	1097.01
672.09	1090.22
672.43	1086.01
672.77	1081.09
673.11	1082.97
673.45	1081.56
673.79	1086.48
674.13	1092.09
674.47	1101.69
674.81	1098.18
675.15	1102.86
675.49	1107.31
675.83	1100.99
676.17	1090.92
676.51	1097.48
676.85	1096.07
677.19	1090.69
677.53	1083.90
677.87	1094.90
678.21	1088.35
678.55	1084.14
678.89	1084.14
679.23	1090.22
679.57	1083.20
679.90	1087.65
680.24	1083.67
680.58	1084.14
680.92	1078.05
681.26	1093.50
681.60	1084.60
681.94	1083.20
682.28	1088.35
682.62	1083.67
682.96	1062.14
683.29	1065.65
683.63	1080.16
683.97	1070.56
684.31	1086.71
684.65	1099.35
684.99	1099.35
685.33	1092.80
685.67	1100.75
686.00	1093.26
686.34	1081.80
686.68	1085.07
687.02	1083.90
687.36	1086.48
687.70	1080.16
688.03	1089.52
688.37	1079.92
688.71	1080.86
689.05	1057.69
689.39	1070.56
689.72	1076.88
690.06	1075.94
690.40	1079.92
690.74	1098.18
691.08	1092.56
691.41	1084.37
691.75	1093.73
692.09	1086.48
692.43	1079.46
692.76	1088.12
693.10	1087.41
693.44	1090.69
693.78	1090.46
694.11	1093.26
694.45	1088.82
694.79	1094.20
695.13	1086.48
695.46	1083.90
695.80	1084.84
696.14	1080.86
696.48	1075.48
696.81	1073.84
697.15	1075.48
697.49	1072.67
697.82	1067.28
698.16	1071.26
698.50	1072.90
698.83	1077.82
699.17	1086.94
699.51	1091.86
699.84	1087.41
700.18	1091.86
700.52	1093.50
700.85	1089.75
701.19	1087.41
701.53	1081.09
701.86	1074.77
702.20	1073.37
702.54	1069.62
702.87	1070.33
703.21	1081.56
703.55	1088.58
703.88	1089.05
704.22	1089.99
704.55	1092.80
704.89	1087.41
705.23	1083.90
705.56	1088.12
705.90	1091.16
706.23	1088.82
706.57	1097.24
706.91	1102.86
707.24	1100.99
707.58	1102.86
707.91	1102.39
708.25	1093.50
708.58	1086.71
708.92	1090.22
709.26	1089.52
709.59	1094.43
709.93	1102.86
710.26	1101.69
710.60	1093.73
710.93	1089.75
711.27	1091.16
711.60	1079.46
711.94	1085.54
712.27	1084.37
712.61	1080.86
712.94	1076.41
713.28	1084.84
713.61	1080.86
713.95	1079.69
714.28	1088.12
714.62	1085.77
714.95	1081.33
715.29	1075.24
715.62	1076.65
715.96	1072.43
716.29	1074.31
716.63	1073.60
716.96	1078.99
717.29	1071.97
717.63	1067.52
717.96	1066.58
718.30	1064.01
718.63	1064.48
718.97	1069.62
719.30	1067.52
719.63	1069.62
719.97	1068.45
720.30	1065.65
720.64	1061.20
720.97	1064.71
721.30	1069.39
721.64	1071.50
721.97	1070.33
722.31	1081.80
722.64	1077.82
722.97	1069.86
723.31	1074.31
723.64	1083.43
723.97	1089.52
724.31	1109.65
724.64	1109.18
724.98	1112.69
725.31	1107.07
725.64	1090.92
725.98	1088.35
726.31	1081.56
726.64	1068.22
726.97	1067.52
727.31	1061.43
727.64	1044.35
727.97	1052.54
728.31	1056.75
728.64	1048.33
728.97	1054.88
729.31	1054.41
729.64	1066.58
729.97	1067.99
730.30	1088.82
730.64	1098.88
730.97	1099.12
731.30	1078.99
731.63	1083.67
731.97	1075.94
732.30	1072.43
732.63	1070.56
732.96	1072.43
733.30	1074.31
733.63	1078.99
733.96	1079.46
734.29	1089.75
734.63	1101.69
734.96	1106.84
735.29	1097.71
735.62	1096.31
735.95	1091.63
736.29	1085.07
736.62	1071.03
736.95	1077.58
737.28	1085.54
737.61	1080.63
737.94	1078.28
738.28	1076.65
738.61	1070.56
738.94	1063.07
739.27	1073.60
739.60	1081.09
739.93	1082.97
740.27	1079.69
740.60	1070.09
740.93	1063.77
741.26	1066.11
741.59	1074.07
741.92	1073.84
742.25	1073.37
742.58	1079.92
742.91	1075.01
743.25	1073.37
743.58	1073.84
743.91	1077.35
744.24	1069.62
744.57	1068.69
744.90	1060.26
745.23	1060.03
745.56	1073.84
745.89	1076.65
746.22	1078.52
746.55	1088.58
746.88	1083.43
747.21	1075.71
747.54	1072.90
747.87	1072.90
748.20	1069.86
748.53	1080.86
748.87	1079.22
749.20	1090.69
749.53	1082.03
749.86	1081.80
750.19	1077.11
750.52	1078.75
750.85	1073.60
751.18	1085.77
751.51	1091.39
751.84	1093.26
752.16	1090.92
752.49	1084.84
752.82	1077.82
753.15	1071.26
753.48	1069.16
753.81	1065.65
754.14	1064.94
754.47	1061.67
754.80	1058.62
755.13	1061.67
755.46	1070.80
755.79	1074.31
756.12	1080.86
756.45	1086.01
756.78	1082.03
757.11	1086.01
757.43	1086.71
757.76	1084.60
758.09	1083.43
758.42	1081.56
758.75	1076.41
759.08	1073.14
759.41	1061.43
759.74	1055.35
760.07	1066.58
760.39	1064.01
760.72	1062.60
761.05	1081.09
761.38	1080.86
761.71	1076.41
762.04	1075.24
762.36	1080.39
762.69	1070.80
763.02	1081.33
763.35	1087.88
763.68	1084.37
764.01	1082.97
764.33	1088.58
764.66	1085.07
