SpectraSuite Data File
++++++++++++++++++++++++++++++++++++
Date: Mon Aug 26 10:24:48 PDT 2019
User: corrico
Dark Spectrum Present: No
Reference Spectrum Present: No
Number of Sampled Component Spectra: 1
Spectrometers: USB2+H06089
Integration Time (usec): 10000 (USB2+H06089)
Spectra Averaged: 2 (USB2+H06089)
Boxcar Smoothing: 2 (USB2+H06089)
Correct for Electrical Dark: No (USB2+H06089)
Strobe/Lamp Enabled: No (USB2+H06089)
Correct for Detector Non-linearity: No (USB2+H06089)
Correct for Stray Light: No (USB2+H06089)
Number of Pixels in Processed Spectrum: 2048
>>>>>Begin Processed Spectral Data<<<<<
339.70	1006.43
340.07	1006.43
340.45	977.41
340.82	955.64
341.19	938.32
341.57	911.87
341.94	902.74
342.31	894.08
342.69	889.64
343.06	882.85
343.43	891.98
343.81	889.87
344.18	904.62
344.55	920.06
344.93	930.13
345.30	935.28
345.67	951.66
346.04	946.98
346.42	940.66
346.79	957.05
347.16	965.00
347.54	971.09
347.91	988.41
348.28	1001.05
348.65	1002.92
349.03	1003.15
349.40	1003.62
349.77	1013.69
350.14	1027.73
350.52	1042.71
350.89	1048.79
351.26	1054.88
351.63	1046.45
352.01	1059.79
352.38	1053.24
352.75	1058.86
353.12	1077.11
353.50	1087.18
353.87	1074.31
354.24	1075.71
354.61	1078.75
354.98	1068.45
355.36	1069.62
355.73	1078.05
356.10	1084.60
356.47	1086.71
356.84	1089.29
357.22	1086.24
357.59	1086.24
357.96	1089.29
358.33	1095.84
358.70	1100.52
359.08	1110.58
359.45	1111.99
359.82	1108.95
360.19	1110.58
360.56	1108.01
360.94	1104.73
361.31	1108.01
361.68	1107.07
362.05	1104.73
362.42	1090.46
362.79	1086.24
363.16	1075.01
363.54	1072.43
363.91	1069.86
364.28	1074.77
364.65	1080.16
365.02	1087.18
365.39	1087.88
365.76	1093.50
366.14	1097.95
366.51	1095.37
366.88	1090.92
367.25	1093.03
367.62	1093.26
367.99	1108.24
368.36	1114.33
368.73	1121.35
369.10	1126.97
369.48	1124.63
369.85	1109.88
370.22	1111.05
370.59	1120.18
370.96	1112.92
371.33	1114.33
371.70	1108.71
372.07	1099.12
372.44	1082.03
372.81	1078.28
373.18	1079.22
373.55	1089.52
373.93	1093.03
374.30	1086.94
374.67	1081.33
375.04	1068.92
375.41	1065.18
375.78	1053.01
376.15	1059.56
376.52	1074.31
376.89	1077.82
377.26	1084.60
377.63	1097.71
378.00	1096.78
378.37	1084.14
378.74	1096.07
379.11	1089.99
379.48	1099.82
379.85	1102.86
380.22	1110.12
380.59	1105.44
380.96	1112.92
381.33	1101.92
381.70	1097.01
382.07	1095.84
382.44	1093.50
382.81	1100.29
383.18	1100.52
383.55	1104.97
383.92	1110.12
384.29	1103.80
384.66	1095.60
385.03	1097.48
385.40	1107.07
385.77	1098.18
386.14	1114.80
386.51	1111.99
386.88	1117.84
387.25	1108.48
387.62	1104.50
387.99	1097.95
388.36	1097.48
388.73	1094.20
389.10	1101.69
389.46	1107.78
389.83	1104.73
390.20	1109.41
390.57	1108.95
390.94	1107.78
391.31	1117.61
391.68	1120.41
392.05	1123.46
392.42	1121.58
392.79	1120.65
393.16	1115.73
393.53	1110.82
393.89	1105.44
394.26	1108.48
394.63	1107.07
395.00	1116.67
395.37	1122.29
395.74	1119.48
396.11	1122.29
396.48	1121.58
396.84	1119.71
397.21	1125.33
397.58	1139.14
397.95	1141.71
398.32	1146.86
398.69	1142.88
399.06	1131.65
399.42	1131.41
399.79	1137.03
400.16	1144.52
400.53	1149.20
400.90	1167.93
401.27	1164.18
401.64	1166.52
402.00	1174.95
402.37	1185.72
402.74	1186.42
403.11	1191.80
403.48	1188.99
403.84	1179.86
404.21	1179.40
404.58	1192.74
404.95	1198.59
405.32	1220.59
405.68	1238.85
406.05	1251.72
406.42	1263.19
406.79	1296.19
407.16	1306.02
407.52	1314.44
407.89	1339.25
408.26	1362.19
408.63	1365.00
408.99	1388.64
409.36	1420.71
409.73	1447.39
410.10	1468.69
410.47	1493.03
410.83	1522.52
411.20	1558.56
411.57	1589.22
411.94	1625.74
412.30	1676.29
412.67	1722.17
413.04	1763.83
413.40	1813.45
413.77	1874.30
414.14	1937.96
414.51	2011.92
414.87	2089.86
415.24	2173.42
415.61	2263.06
415.97	2345.45
416.34	2433.92
416.71	2516.54
417.08	2617.89
417.44	2709.64
417.81	2841.88
418.18	2956.56
418.54	3109.17
418.91	3238.13
419.28	3404.31
419.64	3529.06
420.01	3703.90
420.38	3868.20
420.74	4071.60
421.11	4279.67
421.48	4521.45
421.84	4751.29
422.21	5002.90
422.58	5226.88
422.94	5484.34
423.31	5763.10
423.68	6057.77
424.04	6386.15
424.41	6742.62
424.77	7074.97
425.14	7401.71
425.51	7763.09
425.87	8124.47
426.24	8475.08
426.61	8868.99
426.97	9365.65
427.34	9831.65
427.70	10307.72
428.07	10865.00
428.44	11449.20
428.80	11971.84
429.17	12551.59
429.53	13141.17
429.90	13784.59
430.27	14357.55
430.63	14971.47
431.00	15675.04
431.36	16460.99
431.73	17083.57
432.09	17826.46
432.46	18557.17
432.83	19235.22
433.19	19784.78
433.56	20601.63
433.92	21310.34
434.29	21990.04
434.65	22658.73
435.02	23389.91
435.38	24025.13
435.75	24540.75
436.11	25147.18
436.48	25696.98
436.84	26266.90
437.21	26741.79
437.57	27269.82
437.94	27792.22
438.30	28229.20
438.67	28485.26
439.03	28634.82
439.40	28804.97
439.76	28643.94
440.13	28474.72
440.49	28448.28
440.86	28213.29
441.22	27895.21
441.59	27591.87
441.95	27259.28
442.32	26672.04
442.68	26262.45
443.05	25686.21
443.41	25168.25
443.78	24507.52
444.14	23943.68
444.51	23264.22
444.87	22881.55
445.24	22402.91
445.60	21944.39
445.96	21358.32
446.33	20911.05
446.69	20236.04
447.06	19652.78
447.42	19103.45
447.79	18567.24
448.15	18081.11
448.51	17559.64
448.88	17090.83
449.24	16600.95
449.61	16301.83
449.97	15859.70
450.33	15476.79
450.70	15008.92
451.06	14663.46
451.43	14168.90
451.79	13766.33
452.15	13437.25
452.52	13118.23
452.88	12808.35
453.24	12533.57
453.61	12280.09
453.97	11991.27
454.34	11713.91
454.70	11436.33
455.06	11179.57
455.43	10838.79
455.79	10441.13
456.15	10117.43
456.52	9745.05
456.88	9439.61
457.24	9120.60
457.61	8910.89
457.97	8681.52
458.33	8398.78
458.70	8112.30
459.06	7845.48
459.42	7594.80
459.79	7320.03
460.15	7138.40
460.51	6880.94
460.88	6688.31
461.24	6470.88
461.60	6283.40
461.96	6076.26
462.33	5932.79
462.69	5771.76
463.05	5618.22
463.42	5477.56
463.78	5351.87
464.14	5200.90
464.50	5075.92
464.87	4971.06
465.23	4841.40
465.59	4706.35
465.95	4603.13
466.32	4480.02
466.68	4355.97
467.04	4262.35
467.40	4169.20
467.77	4092.19
468.13	4013.55
468.49	3949.42
468.85	3866.80
469.22	3811.09
469.58	3716.54
469.94	3634.85
470.30	3549.89
470.66	3478.50
471.03	3394.48
471.39	3341.58
471.75	3282.60
472.11	3233.22
472.47	3180.32
472.84	3128.36
473.20	3080.61
473.56	3038.95
473.92	2978.10
474.28	2931.99
474.65	2882.60
475.01	2821.28
475.37	2776.58
475.73	2722.98
476.09	2682.96
476.45	2647.61
476.81	2612.51
477.18	2571.08
477.54	2544.63
477.90	2495.01
478.26	2450.31
478.62	2410.28
478.98	2360.90
479.34	2330.71
479.71	2309.41
480.07	2282.02
480.43	2267.04
480.79	2254.17
481.15	2230.53
481.51	2196.12
481.87	2165.93
482.23	2119.59
482.59	2083.31
482.96	2055.69
483.32	2033.46
483.68	2027.84
484.04	2019.18
484.40	2005.61
484.76	1985.94
485.12	1965.35
485.48	1936.79
485.84	1923.22
486.20	1897.24
486.56	1856.04
486.92	1829.36
487.28	1809.23
487.64	1780.45
488.00	1772.49
488.37	1772.96
488.73	1760.08
489.09	1735.51
489.45	1721.46
489.81	1704.38
490.17	1683.55
490.53	1678.40
490.89	1659.67
491.25	1650.08
491.61	1620.59
491.97	1606.31
492.33	1592.97
492.69	1584.54
493.05	1566.52
493.41	1563.01
493.77	1544.29
494.13	1524.86
494.49	1510.58
494.85	1486.94
495.21	1471.96
495.57	1471.96
495.93	1461.43
496.29	1455.35
496.64	1444.34
497.00	1435.68
497.36	1417.90
497.72	1403.85
498.08	1402.45
498.44	1398.94
498.80	1388.87
499.16	1382.32
499.52	1376.94
499.88	1363.60
500.24	1350.26
500.60	1344.40
500.96	1327.79
501.32	1329.19
501.68	1310.47
502.03	1308.83
502.39	1301.34
502.75	1299.93
503.11	1290.10
503.47	1292.44
503.83	1287.76
504.19	1281.44
504.55	1287.53
504.91	1275.12
505.26	1265.29
505.62	1258.97
505.98	1257.80
506.34	1241.19
506.70	1236.04
507.06	1234.40
507.42	1229.72
507.78	1221.53
508.13	1223.40
508.49	1230.65
508.85	1228.78
509.21	1228.31
509.57	1232.53
509.93	1231.59
510.28	1221.76
510.64	1218.01
511.00	1224.10
511.36	1220.36
511.72	1214.74
512.07	1199.52
512.43	1186.18
512.79	1165.82
513.15	1164.88
513.51	1158.80
513.86	1169.57
514.22	1175.89
514.58	1178.69
514.94	1176.35
515.30	1168.86
515.65	1162.31
516.01	1158.33
516.37	1151.08
516.73	1143.12
517.08	1145.22
517.44	1155.05
517.80	1157.86
518.16	1171.20
518.51	1173.54
518.87	1182.20
519.23	1174.95
519.59	1168.40
519.94	1164.18
520.30	1159.27
520.66	1145.46
521.01	1143.59
521.37	1139.14
521.73	1122.52
522.09	1114.56
522.44	1112.69
522.80	1108.71
523.16	1106.61
523.51	1115.73
523.87	1117.61
524.23	1120.65
524.58	1114.80
524.94	1122.75
525.30	1126.27
525.65	1131.88
526.01	1135.86
526.37	1142.65
526.72	1137.97
527.08	1134.22
527.44	1129.07
527.79	1127.90
528.15	1125.10
528.51	1131.65
528.86	1129.78
529.22	1138.20
529.58	1137.73
529.93	1139.14
530.29	1135.39
530.65	1131.88
531.00	1125.80
531.36	1115.27
531.71	1118.31
532.07	1112.46
532.43	1118.78
532.78	1112.92
533.14	1130.48
533.49	1121.12
533.85	1126.97
534.21	1126.97
534.56	1132.35
534.92	1117.37
535.27	1117.84
535.63	1112.92
535.98	1121.35
536.34	1122.75
536.69	1123.22
537.05	1139.37
537.41	1139.14
537.76	1123.69
538.12	1111.75
538.47	1115.50
538.83	1106.37
539.18	1113.16
539.54	1117.14
539.89	1122.99
540.25	1112.46
540.60	1103.33
540.96	1107.78
541.31	1118.07
541.67	1111.75
542.02	1111.75
542.38	1117.84
542.73	1105.67
543.09	1090.92
543.44	1097.24
543.80	1104.97
544.15	1104.50
544.51	1098.41
544.86	1097.48
545.22	1101.46
545.57	1099.12
545.93	1098.88
546.28	1104.50
546.64	1102.63
546.99	1100.75
547.35	1109.65
547.70	1107.54
548.05	1108.01
548.41	1113.63
548.76	1113.39
549.12	1106.37
549.47	1110.35
549.83	1105.90
550.18	1107.78
550.53	1100.99
550.89	1101.69
551.24	1097.95
551.60	1097.95
551.95	1097.71
552.30	1098.41
552.66	1097.24
553.01	1089.52
553.37	1094.90
553.72	1098.88
554.07	1093.50
554.43	1095.60
554.78	1108.24
555.13	1109.18
555.49	1102.39
555.84	1111.99
556.19	1107.07
556.55	1103.33
556.90	1109.18
557.26	1117.37
557.61	1115.97
557.96	1127.67
558.32	1124.63
558.67	1116.67
559.02	1106.61
559.37	1113.63
559.73	1096.78
560.08	1098.65
560.43	1094.67
560.79	1106.37
561.14	1100.29
561.49	1110.12
561.85	1104.03
562.20	1109.41
562.55	1096.07
562.90	1094.90
563.26	1092.80
563.61	1100.29
563.96	1103.80
564.32	1117.61
564.67	1119.95
565.02	1118.54
565.37	1123.22
565.73	1118.78
566.08	1104.03
566.43	1099.58
566.78	1100.99
567.14	1088.82
567.49	1087.65
567.84	1092.56
568.19	1097.01
568.54	1093.73
568.90	1098.88
569.25	1101.92
569.60	1096.54
569.95	1097.95
570.31	1108.01
570.66	1109.88
571.01	1106.37
571.36	1112.92
571.71	1111.52
572.06	1103.80
572.42	1095.37
572.77	1092.33
573.12	1092.33
573.47	1090.22
573.82	1087.41
574.18	1078.99
574.53	1080.16
574.88	1075.01
575.23	1073.37
575.58	1071.03
575.93	1079.22
576.28	1083.20
576.64	1088.82
576.99	1084.14
577.34	1077.82
577.69	1079.46
578.04	1071.03
578.39	1068.69
578.74	1083.67
579.09	1098.41
579.44	1103.09
579.80	1115.97
580.15	1110.82
580.50	1100.52
580.85	1096.31
581.20	1099.58
581.55	1086.94
581.90	1092.33
582.25	1101.46
582.60	1112.46
582.95	1100.05
583.30	1111.52
583.65	1118.78
584.00	1115.50
584.35	1110.12
584.71	1112.69
585.06	1110.12
585.41	1097.95
585.76	1091.16
586.11	1080.39
586.46	1082.73
586.81	1085.07
587.16	1098.88
587.51	1099.82
587.86	1100.99
588.21	1107.78
588.56	1103.80
588.91	1105.67
589.26	1110.82
589.61	1118.54
589.96	1105.90
590.31	1101.46
590.66	1088.35
591.01	1082.73
591.36	1077.58
591.71	1086.24
592.06	1091.39
592.41	1091.63
592.76	1093.26
593.10	1103.56
593.45	1102.63
593.80	1104.50
594.15	1100.75
594.50	1093.03
594.85	1076.88
595.20	1076.41
595.55	1076.65
595.90	1078.75
596.25	1086.24
596.60	1091.39
596.95	1094.20
597.30	1091.86
597.64	1150.84
597.99	1157.39
598.34	1166.52
598.69	1156.69
599.04	1144.05
599.39	1080.86
599.74	1076.41
600.09	1077.35
600.44	1099.35
600.78	1110.35
601.13	1123.69
601.48	1121.12
601.83	1104.50
602.18	1100.29
602.53	1095.84
602.88	1081.80
603.22	1080.63
603.57	1090.46
603.92	1086.24
604.27	1091.39
604.62	1094.20
604.97	1096.07
605.31	1093.73
605.66	1099.58
606.01	1103.80
606.36	1112.22
606.71	1109.88
607.05	1109.18
607.40	1099.35
607.75	1095.60
608.10	1080.16
608.44	1082.73
608.79	1090.46
609.14	1088.58
609.49	1085.31
609.84	1098.65
610.18	1089.05
610.53	1082.73
610.88	1080.86
611.23	1089.52
611.57	1086.01
611.92	1096.07
612.27	1098.65
612.62	1101.92
612.96	1097.01
613.31	1100.52
613.66	1099.12
614.00	1097.71
614.35	1094.20
614.70	1098.88
615.05	1097.01
615.39	1088.82
615.74	1085.07
616.09	1091.39
616.43	1089.29
616.78	1086.48
617.13	1095.84
617.47	1095.60
617.82	1090.92
618.17	1086.48
618.51	1097.01
618.86	1093.97
619.21	1102.16
619.55	1110.35
619.90	1106.84
620.25	1092.80
620.59	1088.82
620.94	1082.26
621.29	1064.94
621.63	1070.33
621.98	1079.22
622.32	1085.54
622.67	1086.24
623.02	1092.56
623.36	1092.33
623.71	1086.24
624.05	1078.28
624.40	1088.58
624.75	1092.09
625.09	1091.16
625.44	1092.56
625.78	1102.86
626.13	1095.60
626.48	1098.65
626.82	1101.92
627.17	1096.31
627.51	1092.09
627.86	1098.41
628.20	1093.26
628.55	1091.39
628.89	1097.48
629.24	1097.95
629.58	1084.37
629.93	1080.39
630.28	1075.48
630.62	1075.94
630.97	1078.75
631.31	1075.71
631.66	1082.73
632.00	1090.22
632.35	1088.35
632.69	1075.71
633.04	1071.26
633.38	1069.86
633.73	1065.18
634.07	1076.65
634.42	1089.05
634.76	1100.29
635.11	1093.03
635.45	1093.03
635.79	1091.39
636.14	1093.97
636.48	1102.39
636.83	1110.12
637.17	1115.73
637.52	1110.82
637.86	1112.46
638.21	1103.33
638.55	1101.46
638.89	1091.86
639.24	1093.26
639.58	1086.48
639.93	1087.88
640.27	1094.90
640.61	1104.03
640.96	1095.37
641.30	1092.56
641.65	1094.43
641.99	1094.43
642.33	1089.05
642.68	1100.29
643.02	1103.56
643.37	1106.37
643.71	1101.46
644.05	1096.31
644.40	1085.77
644.74	1076.88
645.08	1067.99
645.43	1059.09
645.77	1067.28
646.11	1068.69
646.46	1077.58
646.80	1080.39
647.14	1094.67
647.49	1086.48
647.83	1087.65
648.17	1076.18
648.52	1082.50
648.86	1074.54
649.20	1086.71
649.55	1084.84
649.89	1096.78
650.23	1090.92
650.57	1092.09
650.92	1083.20
651.26	1085.77
651.60	1082.26
651.95	1082.26
652.29	1084.84
652.63	1095.14
652.97	1091.39
653.32	1093.97
653.66	1104.03
654.00	1095.84
654.34	1085.54
654.69	1090.46
655.03	1086.01
655.37	1076.41
655.71	1090.22
656.05	1088.12
656.40	1085.31
656.74	1083.90
657.08	1080.39
657.42	1080.39
657.76	1081.80
658.11	1078.05
658.45	1076.65
658.79	1072.43
659.13	1071.97
659.47	1076.88
659.82	1086.24
660.16	1090.92
660.50	1095.60
660.84	1080.39
661.18	1083.20
661.52	1076.65
661.87	1080.86
662.21	1085.07
662.55	1096.07
662.89	1086.48
663.23	1100.99
663.57	1097.24
663.91	1091.86
664.25	1089.52
664.60	1092.56
664.94	1087.18
665.28	1096.54
665.62	1108.01
665.96	1104.73
666.30	1097.95
666.64	1082.03
666.98	1069.86
667.32	1060.73
667.66	1063.07
668.01	1061.20
668.35	1059.56
668.69	1057.22
669.03	1056.99
669.37	1051.60
669.71	1056.05
670.05	1067.05
670.39	1071.50
670.73	1068.92
671.07	1058.62
671.41	1062.60
671.75	1059.09
672.09	1066.58
672.43	1078.99
672.77	1102.86
673.11	1106.84
673.45	1120.65
673.79	1114.10
674.13	1104.50
674.47	1096.54
674.81	1101.46
675.15	1095.84
675.49	1100.52
675.83	1104.03
676.17	1099.58
676.51	1089.05
676.85	1094.20
677.19	1094.90
677.53	1088.12
677.87	1096.54
678.21	1096.54
678.55	1087.18
678.89	1073.60
679.23	1073.60
679.57	1057.45
679.90	1058.39
680.24	1061.20
680.58	1071.50
680.92	1070.09
681.26	1082.97
681.60	1083.20
681.94	1084.14
682.28	1083.67
682.62	1089.52
682.96	1079.69
683.29	1090.46
683.63	1081.80
683.97	1081.56
684.31	1068.92
684.65	1080.86
684.99	1073.37
685.33	1082.26
685.67	1087.65
686.00	1098.65
686.34	1101.22
686.68	1101.22
687.02	1091.86
687.36	1077.35
687.70	1068.69
688.03	1064.48
688.37	1063.54
688.71	1072.67
689.05	1074.07
689.39	1083.20
689.72	1076.18
690.06	1075.48
690.40	1076.18
690.74	1080.16
691.08	1076.41
691.41	1082.97
691.75	1084.14
692.09	1079.92
692.43	1088.82
692.76	1095.37
693.10	1105.20
693.44	1105.90
693.78	1101.22
694.11	1100.52
694.45	1098.65
694.79	1089.52
695.13	1097.71
695.46	1104.03
695.80	1099.35
696.14	1107.54
696.48	1105.90
696.81	1097.24
697.15	1100.29
697.49	1109.18
697.82	1110.82
698.16	1114.10
698.50	1108.01
698.83	1101.46
699.17	1086.01
699.51	1078.05
699.84	1070.56
700.18	1080.63
700.52	1089.52
700.85	1090.92
701.19	1082.03
701.53	1082.26
701.86	1072.90
702.20	1067.99
702.54	1071.73
702.87	1077.11
703.21	1079.92
703.55	1083.90
703.88	1082.03
704.22	1081.33
704.55	1093.26
704.89	1093.50
705.23	1095.84
705.56	1103.09
705.90	1104.03
706.23	1093.03
706.57	1093.03
706.91	1086.24
707.24	1062.14
707.58	1068.45
707.91	1070.09
708.25	1070.56
708.58	1079.46
708.92	1091.39
709.26	1093.50
709.59	1076.65
709.93	1076.88
710.26	1073.84
710.60	1073.14
710.93	1064.01
711.27	1078.05
711.60	1071.03
711.94	1070.09
712.27	1071.97
712.61	1069.39
712.94	1069.39
713.28	1078.99
713.61	1075.24
713.95	1082.26
714.28	1093.26
714.62	1098.18
714.95	1096.31
715.29	1092.56
715.62	1088.82
715.96	1084.60
716.29	1079.92
716.63	1082.03
716.96	1091.16
717.29	1100.52
717.63	1104.97
717.96	1108.71
718.30	1103.09
718.63	1108.48
718.97	1093.97
719.30	1090.69
719.63	1089.75
719.97	1085.77
720.30	1070.09
720.64	1075.71
720.97	1072.67
721.30	1071.26
721.64	1078.05
721.97	1075.48
722.31	1080.63
722.64	1087.18
722.97	1081.56
723.31	1079.69
723.64	1093.97
723.97	1087.18
724.31	1078.52
724.64	1087.88
724.98	1090.22
725.31	1078.99
725.64	1087.41
725.98	1089.75
726.31	1085.07
726.64	1082.73
726.97	1088.58
727.31	1072.90
727.64	1063.54
727.97	1059.56
728.31	1062.14
728.64	1070.09
728.97	1075.48
729.31	1083.67
729.64	1093.97
729.97	1093.26
730.30	1086.71
730.64	1082.97
730.97	1085.54
731.30	1086.24
731.63	1084.60
731.97	1085.54
732.30	1093.97
732.63	1093.50
732.96	1087.65
733.30	1081.09
733.63	1072.67
733.96	1066.82
734.29	1066.82
734.63	1069.16
734.96	1074.77
735.29	1084.14
735.62	1088.35
735.95	1086.24
736.29	1084.14
736.62	1081.80
736.95	1084.37
737.28	1077.82
737.61	1077.11
737.94	1077.35
738.28	1071.97
738.61	1059.09
738.94	1065.65
739.27	1060.96
739.60	1069.39
739.93	1083.43
740.27	1095.60
740.60	1098.88
740.93	1101.92
741.26	1087.88
741.59	1090.69
741.92	1091.63
742.25	1094.67
742.58	1083.43
742.91	1087.41
743.25	1087.18
743.58	1080.39
743.91	1071.50
744.24	1082.03
744.57	1086.48
744.90	1077.82
745.23	1089.05
745.56	1096.78
745.89	1099.35
746.22	1097.24
746.55	1098.18
746.88	1091.39
747.21	1083.43
747.54	1078.05
747.87	1064.48
748.20	1066.11
748.53	1051.84
748.87	1054.18
749.20	1059.79
749.53	1069.39
749.86	1064.71
750.19	1076.65
750.52	1067.75
750.85	1067.28
751.18	1076.65
751.51	1082.03
751.84	1081.09
752.16	1086.24
752.49	1081.56
752.82	1073.84
753.15	1084.84
753.48	1080.86
753.81	1083.90
754.14	1085.54
754.47	1089.52
754.80	1078.52
755.13	1078.99
755.46	1080.86
755.79	1085.31
756.12	1085.07
756.45	1080.16
756.78	1084.14
757.11	1086.48
757.43	1083.90
757.76	1074.31
758.09	1073.37
758.42	1064.01
758.75	1060.96
759.08	1066.58
759.41	1069.62
759.74	1078.99
760.07	1092.80
760.39	1087.65
760.72	1087.88
761.05	1101.92
761.38	1100.52
761.71	1103.80
762.04	1104.73
762.36	1094.43
762.69	1080.63
763.02	1077.11
763.35	1072.90
763.68	1076.41
764.01	1082.26
764.33	1088.58
764.66	1093.73
