SpectraSuite Data File
++++++++++++++++++++++++++++++++++++
Date: Mon Aug 26 10:24:49 PDT 2019
User: corrico
Dark Spectrum Present: No
Reference Spectrum Present: No
Number of Sampled Component Spectra: 1
Spectrometers: USB2+H06089
Integration Time (usec): 10000 (USB2+H06089)
Spectra Averaged: 2 (USB2+H06089)
Boxcar Smoothing: 2 (USB2+H06089)
Correct for Electrical Dark: No (USB2+H06089)
Strobe/Lamp Enabled: No (USB2+H06089)
Correct for Detector Non-linearity: No (USB2+H06089)
Correct for Stray Light: No (USB2+H06089)
Number of Pixels in Processed Spectrum: 2048
>>>>>Begin Processed Spectral Data<<<<<
339.70	1019.30
340.07	1019.30
340.45	978.11
340.82	952.36
341.19	929.43
341.57	913.28
341.94	908.60
342.31	904.62
342.69	899.47
343.06	898.53
343.43	889.64
343.81	895.72
344.18	899.00
344.55	906.49
344.93	915.38
345.30	924.98
345.67	921.70
346.04	936.92
346.42	948.62
346.79	957.28
347.16	965.47
347.54	968.98
347.91	968.75
348.28	987.24
348.65	991.22
349.03	994.49
349.40	1014.86
349.77	1032.64
350.14	1032.88
350.52	1043.64
350.89	1059.09
351.26	1067.28
351.63	1067.52
352.01	1074.54
352.38	1071.50
352.75	1081.56
353.12	1083.67
353.50	1088.35
353.87	1087.88
354.24	1099.58
354.61	1087.41
354.98	1084.14
355.36	1084.60
355.73	1089.75
356.10	1090.69
356.47	1088.82
356.84	1085.07
357.22	1079.92
357.59	1072.20
357.96	1077.82
358.33	1082.50
358.70	1092.80
359.08	1090.22
359.45	1088.82
359.82	1087.65
360.19	1094.20
360.56	1090.69
360.94	1095.84
361.31	1097.01
361.68	1088.12
362.05	1073.37
362.42	1068.92
362.79	1071.97
363.16	1071.73
363.54	1064.94
363.91	1077.58
364.28	1076.18
364.65	1072.67
365.02	1077.11
365.39	1085.77
365.76	1082.26
366.14	1086.01
366.51	1082.73
366.88	1077.11
367.25	1073.37
367.62	1071.03
367.99	1077.11
368.36	1078.75
368.73	1080.63
369.10	1075.48
369.48	1076.65
369.85	1071.73
370.22	1081.09
370.59	1087.65
370.96	1090.69
371.33	1086.01
371.70	1086.24
372.07	1080.63
372.44	1074.31
372.81	1077.35
373.18	1087.65
373.55	1083.90
373.93	1084.14
374.30	1083.43
374.67	1090.92
375.04	1090.69
375.41	1099.12
375.78	1105.67
376.15	1111.05
376.52	1107.54
376.89	1105.20
377.26	1093.26
377.63	1083.43
378.00	1080.86
378.37	1072.90
378.74	1077.58
379.11	1088.82
379.48	1097.24
379.85	1098.88
380.22	1110.12
380.59	1107.54
380.96	1099.82
381.33	1085.77
381.70	1088.82
382.07	1081.80
382.44	1083.20
382.81	1089.99
383.18	1099.12
383.55	1099.82
383.92	1105.44
384.29	1101.92
384.66	1108.48
385.03	1109.88
385.40	1113.86
385.77	1113.39
386.14	1118.07
386.51	1111.29
386.88	1114.09
387.25	1113.86
387.62	1116.44
387.99	1117.14
388.36	1118.07
388.73	1111.99
389.10	1103.80
389.46	1100.52
389.83	1099.35
390.20	1103.09
390.57	1109.18
390.94	1108.48
391.31	1108.01
391.68	1106.84
392.05	1092.09
392.42	1092.33
392.79	1105.44
393.16	1112.46
393.53	1118.78
393.89	1131.41
394.26	1130.24
394.63	1123.69
395.00	1122.99
395.37	1119.24
395.74	1115.50
396.11	1113.86
396.48	1111.05
396.84	1115.97
397.21	1111.99
397.58	1114.56
397.95	1118.54
398.32	1127.20
398.69	1122.29
399.06	1130.95
399.42	1140.31
399.79	1149.91
400.16	1150.84
400.53	1158.33
400.90	1163.48
401.27	1174.95
401.64	1176.12
402.00	1176.35
402.37	1179.86
402.74	1180.10
403.11	1172.84
403.48	1173.08
403.84	1185.48
404.21	1188.29
404.58	1197.42
404.95	1214.74
405.32	1235.33
405.68	1248.21
406.05	1259.44
406.42	1270.44
406.79	1280.04
407.16	1294.08
407.52	1294.32
407.89	1304.15
408.26	1327.32
408.63	1347.45
408.99	1358.68
409.36	1389.58
409.73	1421.64
410.10	1445.75
410.47	1464.01
410.83	1507.07
411.20	1550.84
411.57	1585.24
411.94	1631.12
412.30	1678.63
412.67	1712.80
413.04	1750.72
413.40	1807.13
413.77	1862.36
414.14	1928.84
414.51	1998.58
414.87	2075.82
415.24	2143.70
415.61	2218.59
415.97	2304.49
416.34	2397.18
416.71	2483.31
417.08	2571.55
417.44	2665.64
417.81	2778.45
418.18	2892.67
418.54	3024.91
418.91	3177.98
419.28	3331.99
419.64	3476.40
420.01	3652.64
420.38	3823.97
420.74	4003.49
421.11	4210.62
421.48	4418.23
421.84	4638.47
422.21	4853.80
422.58	5110.33
422.94	5360.53
423.31	5631.80
423.68	5897.92
424.04	6218.34
424.41	6489.60
424.77	6785.68
425.14	7086.91
425.51	7406.16
425.87	7757.94
426.24	8137.81
426.61	8591.40
426.97	9104.92
427.34	9580.28
427.70	10083.03
428.07	10617.84
428.44	11092.50
428.80	11561.08
429.17	12139.89
429.53	12660.89
429.90	13294.01
430.27	13878.44
430.63	14477.15
431.00	15143.27
431.36	15892.71
431.73	16461.46
432.09	17161.74
432.46	17855.48
432.83	18464.72
433.19	19037.68
433.56	19774.48
433.92	20479.69
434.29	21128.25
434.65	21829.71
435.02	22454.16
435.38	23131.05
435.75	23652.28
436.11	24249.12
436.48	24691.25
436.84	25268.89
437.21	25630.50
437.57	26092.29
437.94	26531.14
438.30	26955.48
438.67	27227.22
439.03	27470.87
439.40	27617.15
439.76	27548.57
440.13	27519.08
440.49	27437.87
440.86	27169.87
441.22	26940.74
441.59	26627.10
441.95	26188.96
442.32	25615.99
442.68	25180.89
443.05	24650.52
443.41	24103.54
443.78	23574.34
444.14	23085.87
444.51	22490.21
444.87	22021.87
445.24	21567.80
445.60	21084.72
445.96	20542.65
446.33	20109.88
446.69	19469.75
447.06	18953.66
447.42	18413.46
447.79	17890.82
448.15	17466.72
448.51	16988.08
448.88	16580.82
449.24	16142.67
449.61	15812.19
449.97	15374.75
450.33	15049.41
450.70	14570.54
451.06	14173.58
451.43	13742.46
451.79	13347.84
452.15	12969.38
452.52	12659.49
452.88	12354.28
453.24	12057.74
453.61	11772.43
453.97	11490.39
454.34	11177.93
454.70	10898.00
455.06	10657.40
455.43	10350.55
455.79	9984.96
456.15	9727.27
456.52	9422.53
456.88	9135.58
457.24	8856.35
457.61	8652.96
457.97	8403.46
458.33	8155.60
458.70	7865.60
459.06	7600.42
459.42	7380.65
459.79	7114.06
460.15	6890.30
460.51	6689.95
460.88	6506.22
461.24	6280.13
461.60	6116.76
461.96	5920.85
462.33	5757.48
462.69	5575.39
463.05	5415.06
463.42	5268.08
463.78	5137.94
464.14	4989.55
464.50	4882.12
464.87	4790.61
465.23	4673.35
465.59	4561.00
465.95	4451.46
466.32	4333.50
466.68	4222.56
467.04	4121.22
467.40	4046.79
467.77	3966.74
468.13	3906.59
468.49	3833.80
468.85	3768.03
469.22	3696.88
469.58	3615.89
469.94	3540.29
470.30	3466.57
470.66	3402.90
471.03	3343.22
471.39	3318.88
471.75	3250.30
472.11	3177.75
472.47	3111.51
472.84	3046.68
473.20	2972.48
473.56	2934.33
473.92	2891.97
474.28	2852.88
474.65	2801.86
475.01	2755.75
475.37	2690.21
475.73	2644.10
476.09	2614.85
476.45	2570.14
476.81	2524.97
477.18	2492.20
477.54	2473.48
477.90	2434.86
478.26	2406.77
478.62	2383.37
478.98	2352.47
479.34	2323.68
479.71	2281.09
480.07	2253.70
480.43	2208.76
480.79	2180.21
481.15	2144.63
481.51	2125.21
481.87	2095.95
482.23	2090.33
482.59	2078.86
482.96	2053.82
483.32	2032.76
483.68	2022.69
484.04	1993.43
484.40	1959.73
484.76	1942.88
485.12	1913.39
485.48	1886.00
485.84	1868.45
486.20	1858.62
486.56	1836.15
486.92	1832.64
487.28	1809.94
487.64	1798.94
488.00	1785.36
488.37	1763.13
488.73	1730.59
489.09	1706.48
489.45	1677.23
489.81	1661.78
490.17	1647.50
490.53	1636.74
490.89	1624.10
491.25	1606.54
491.61	1587.82
491.97	1571.67
492.33	1563.24
492.69	1557.39
493.05	1550.37
493.41	1535.63
493.77	1525.56
494.13	1503.79
494.49	1483.20
494.85	1466.11
495.21	1448.32
495.57	1439.20
495.93	1430.54
496.29	1433.58
496.64	1437.09
497.00	1428.66
497.36	1418.83
497.72	1404.56
498.08	1398.00
498.44	1387.24
498.80	1386.30
499.16	1382.09
499.52	1366.40
499.88	1355.87
500.24	1346.04
500.60	1325.91
500.96	1318.19
501.32	1324.51
501.68	1311.40
502.03	1302.74
502.39	1302.98
502.75	1286.12
503.11	1278.87
503.47	1285.19
503.83	1282.15
504.19	1287.29
504.55	1289.17
504.91	1284.72
505.26	1265.29
505.62	1258.97
505.98	1243.99
506.34	1242.59
506.70	1234.40
507.06	1234.63
507.42	1234.16
507.78	1232.99
508.13	1225.97
508.49	1218.48
508.85	1225.27
509.21	1215.44
509.57	1211.93
509.93	1204.21
510.28	1210.53
510.64	1197.65
511.00	1196.48
511.36	1184.78
511.72	1181.27
512.07	1179.40
512.43	1171.67
512.79	1169.10
513.15	1172.84
513.51	1175.89
513.86	1167.46
514.22	1176.35
514.58	1173.54
514.94	1169.10
515.30	1164.18
515.65	1166.99
516.01	1164.18
516.37	1156.22
516.73	1154.12
517.08	1145.93
517.44	1134.69
517.80	1122.52
518.16	1125.56
518.51	1131.41
518.87	1131.18
519.23	1132.82
519.59	1136.33
519.94	1138.44
520.30	1140.54
520.66	1136.56
521.01	1134.46
521.37	1143.35
521.73	1141.25
522.09	1142.18
522.44	1142.65
522.80	1144.99
523.16	1138.44
523.51	1145.46
523.87	1124.39
524.23	1133.99
524.58	1143.82
524.94	1143.12
525.30	1117.61
525.65	1123.69
526.01	1111.99
526.37	1102.16
526.72	1090.69
527.08	1111.75
527.44	1115.50
527.79	1119.24
528.15	1128.61
528.51	1138.67
528.86	1123.46
529.22	1122.05
529.58	1123.22
529.93	1118.07
530.29	1122.05
530.65	1135.86
531.00	1139.37
531.36	1147.80
531.71	1150.37
532.07	1147.10
532.43	1131.88
532.78	1124.39
533.14	1121.12
533.49	1106.61
533.85	1103.33
534.21	1114.33
534.56	1120.88
534.92	1119.48
535.27	1127.90
535.63	1122.75
535.98	1112.22
536.34	1104.73
536.69	1095.37
537.05	1087.65
537.41	1087.65
537.76	1100.29
538.12	1109.88
538.47	1113.63
538.83	1114.80
539.18	1111.52
539.54	1103.56
539.89	1096.07
540.25	1101.92
540.60	1097.71
540.96	1112.46
541.31	1120.41
541.67	1123.22
542.02	1132.35
542.38	1146.16
542.73	1136.80
543.09	1130.01
543.44	1126.03
543.80	1120.41
544.15	1119.24
544.51	1117.37
544.86	1119.48
545.22	1119.01
545.57	1109.88
545.93	1103.80
546.28	1102.63
546.64	1090.92
546.99	1083.43
547.35	1086.48
547.70	1083.90
548.05	1084.84
548.41	1100.52
548.76	1114.33
549.12	1113.86
549.47	1116.44
549.83	1112.92
550.18	1100.75
550.53	1095.84
550.89	1091.86
551.24	1089.29
551.60	1088.35
551.95	1086.94
552.30	1088.12
552.66	1083.20
553.01	1083.90
553.37	1091.86
553.72	1094.43
554.07	1085.77
554.43	1091.39
554.78	1094.20
555.13	1095.84
555.49	1108.48
555.84	1115.97
556.19	1113.63
556.55	1106.84
556.90	1101.69
557.26	1091.16
557.61	1082.03
557.96	1089.05
558.32	1090.69
558.67	1085.54
559.02	1082.97
559.37	1090.22
559.73	1085.54
560.08	1084.84
560.43	1087.88
560.79	1095.84
561.14	1096.78
561.49	1098.18
561.85	1102.39
562.20	1102.86
562.55	1105.90
562.90	1105.90
563.26	1094.43
563.61	1094.20
563.96	1089.29
564.32	1078.75
564.67	1075.71
565.02	1096.78
565.37	1092.80
565.73	1094.90
566.08	1105.44
566.43	1109.18
566.78	1096.54
567.14	1096.54
567.49	1106.84
567.84	1100.75
568.19	1102.39
568.54	1093.50
568.90	1088.58
569.25	1076.65
569.60	1068.69
569.95	1065.65
570.31	1069.39
570.66	1078.99
571.01	1085.54
571.36	1086.94
571.71	1080.16
572.06	1086.71
572.42	1085.07
572.77	1076.18
573.12	1084.60
573.47	1086.01
573.82	1081.80
574.18	1074.77
574.53	1080.63
574.88	1080.39
575.23	1089.99
575.58	1101.22
575.93	1105.44
576.28	1109.65
576.64	1105.20
576.99	1094.90
577.34	1088.12
577.69	1087.88
578.04	1087.41
578.39	1090.69
578.74	1103.33
579.09	1102.86
579.44	1101.69
579.80	1098.41
580.15	1093.97
580.50	1088.12
580.85	1090.22
581.20	1089.29
581.55	1085.77
581.90	1078.52
582.25	1071.73
582.60	1071.73
582.95	1072.43
583.30	1069.86
583.65	1074.31
584.00	1079.92
584.35	1075.71
584.71	1083.67
585.06	1089.29
585.41	1095.14
585.76	1091.39
586.11	1093.73
586.46	1093.97
586.81	1099.35
587.16	1099.12
587.51	1113.39
587.86	1111.75
588.21	1111.75
588.56	1108.71
588.91	1106.84
589.26	1091.16
589.61	1093.73
589.96	1095.37
590.31	1091.63
590.66	1088.12
591.01	1097.95
591.36	1091.16
591.71	1086.71
592.06	1082.73
592.41	1084.84
592.76	1079.69
593.10	1087.41
593.45	1089.05
593.80	1091.16
594.15	1097.24
594.50	1099.12
594.85	1094.43
595.20	1098.65
595.55	1103.80
595.90	1089.75
596.25	1086.94
596.60	1087.88
596.95	1075.94
597.30	1074.77
597.64	1126.97
597.99	1132.59
598.34	1130.71
598.69	1141.25
599.04	1142.18
599.39	1095.84
599.74	1095.60
600.09	1101.22
600.44	1097.48
600.78	1093.03
601.13	1102.63
601.48	1097.48
601.83	1097.71
602.18	1096.31
602.53	1102.39
602.88	1096.07
603.22	1094.43
603.57	1086.01
603.92	1077.58
604.27	1072.43
604.62	1063.77
604.97	1059.09
605.31	1065.18
605.66	1067.05
606.01	1074.31
606.36	1087.88
606.71	1089.52
607.05	1091.86
607.40	1092.56
607.75	1088.58
608.10	1084.60
608.44	1085.07
608.79	1077.58
609.14	1081.33
609.49	1084.60
609.84	1081.80
610.18	1094.20
610.53	1100.99
610.88	1104.97
611.23	1108.95
611.57	1115.03
611.92	1113.39
612.27	1114.10
612.62	1104.73
612.96	1101.69
613.31	1099.12
613.66	1090.46
614.00	1095.60
614.35	1096.54
614.70	1091.39
615.05	1084.14
615.39	1087.41
615.74	1067.75
616.09	1073.14
616.43	1069.62
616.78	1070.33
617.13	1059.79
617.47	1074.54
617.82	1074.31
618.17	1076.65
618.51	1071.26
618.86	1077.58
619.21	1074.77
619.55	1080.63
619.90	1077.58
620.25	1087.88
620.59	1088.82
620.94	1098.88
621.29	1103.56
621.63	1108.01
621.98	1109.18
622.32	1113.39
622.67	1107.78
623.02	1097.95
623.36	1092.80
623.71	1091.63
624.05	1081.56
624.40	1074.31
624.75	1078.75
625.09	1087.41
625.44	1093.26
625.78	1097.48
626.13	1094.43
626.48	1087.65
626.82	1083.67
627.17	1078.28
627.51	1076.41
627.86	1071.26
628.20	1077.58
628.55	1082.03
628.89	1081.56
629.24	1089.75
629.58	1092.33
629.93	1079.22
630.28	1072.20
630.62	1086.01
630.97	1083.43
631.31	1094.43
631.66	1100.75
632.00	1098.41
632.35	1085.31
632.69	1091.63
633.04	1087.41
633.38	1096.78
633.73	1105.44
634.07	1095.14
634.42	1093.03
634.76	1083.20
635.11	1075.24
635.45	1071.97
635.79	1078.05
636.14	1069.16
636.48	1074.77
636.83	1071.03
637.17	1064.48
637.52	1075.01
637.86	1087.41
638.21	1088.35
638.55	1094.67
638.89	1102.63
639.24	1095.37
639.58	1084.37
639.93	1094.43
640.27	1089.52
640.61	1085.77
640.96	1089.52
641.30	1092.80
641.65	1085.31
641.99	1087.88
642.33	1095.84
642.68	1095.14
643.02	1094.43
643.37	1092.56
643.71	1092.09
644.05	1086.24
644.40	1092.09
644.74	1094.20
645.08	1103.80
645.43	1100.75
645.77	1095.84
646.11	1085.77
646.46	1081.80
646.80	1070.80
647.14	1061.43
647.49	1068.69
647.83	1076.18
648.17	1083.43
648.52	1097.71
648.86	1116.44
649.20	1116.44
649.55	1114.56
649.89	1108.24
650.23	1101.69
650.57	1097.48
650.92	1092.80
651.26	1082.97
651.60	1085.77
651.95	1086.71
652.29	1086.71
652.63	1085.77
652.97	1088.35
653.32	1082.03
653.66	1086.71
654.00	1085.54
654.34	1089.05
654.69	1093.73
655.03	1101.22
655.37	1090.46
655.71	1092.33
656.05	1096.78
656.40	1100.75
656.74	1102.16
657.08	1100.52
657.42	1088.82
657.76	1082.03
658.11	1076.18
658.45	1077.11
658.79	1081.33
659.13	1085.07
659.47	1079.92
659.82	1083.67
660.16	1079.92
660.50	1074.31
660.84	1083.67
661.18	1089.99
661.52	1098.41
661.87	1104.03
662.21	1110.35
662.55	1099.35
662.89	1105.90
663.23	1095.60
663.57	1080.86
663.91	1073.84
664.25	1072.90
664.60	1065.18
664.94	1064.24
665.28	1073.14
665.62	1075.71
665.96	1082.03
666.30	1078.75
666.64	1084.84
666.98	1087.88
667.32	1099.12
667.66	1089.05
668.01	1094.20
668.35	1086.01
668.69	1078.99
669.03	1074.31
669.37	1081.56
669.71	1079.22
670.05	1077.35
670.39	1083.90
670.73	1088.82
671.07	1096.31
671.41	1096.07
671.75	1093.97
672.09	1092.09
672.43	1092.09
672.77	1090.46
673.11	1083.90
673.45	1085.31
673.79	1090.69
674.13	1089.29
674.47	1086.01
674.81	1092.09
675.15	1093.97
675.49	1087.18
675.83	1076.18
676.17	1074.07
676.51	1080.63
676.85	1081.56
677.19	1079.92
677.53	1084.60
677.87	1090.92
678.21	1086.24
678.55	1091.86
678.89	1092.33
679.23	1096.78
679.57	1094.67
679.90	1101.22
680.24	1096.31
680.58	1097.01
680.92	1090.46
681.26	1092.80
681.60	1094.67
681.94	1095.37
682.28	1102.86
682.62	1100.52
682.96	1089.05
683.29	1080.86
683.63	1082.26
683.97	1081.33
684.31	1082.50
684.65	1092.09
684.99	1096.54
685.33	1101.22
685.67	1097.01
686.00	1100.99
686.34	1103.80
686.68	1105.90
687.02	1102.86
687.36	1097.71
687.70	1090.46
688.03	1081.80
688.37	1068.69
688.71	1061.90
689.05	1067.28
689.39	1071.26
689.72	1078.05
690.06	1094.67
690.40	1096.31
690.74	1094.90
691.08	1095.60
691.41	1098.88
691.75	1091.63
692.09	1093.03
692.43	1090.92
692.76	1095.37
693.10	1086.71
693.44	1088.58
693.78	1090.46
694.11	1098.88
694.45	1099.82
694.79	1102.39
695.13	1095.60
695.46	1102.16
695.80	1091.63
696.14	1087.65
696.48	1086.94
696.81	1088.82
697.15	1086.24
697.49	1094.20
697.82	1086.24
698.16	1090.46
698.50	1103.09
698.83	1096.31
699.17	1088.12
699.51	1097.48
699.84	1099.12
700.18	1090.46
700.52	1082.97
700.85	1086.01
701.19	1081.33
701.53	1071.03
701.86	1072.67
702.20	1069.62
702.54	1065.41
702.87	1070.33
703.21	1072.43
703.55	1070.33
703.88	1077.58
704.22	1086.24
704.55	1076.65
704.89	1076.41
705.23	1071.26
705.56	1073.60
705.90	1062.37
706.23	1055.82
706.57	1062.37
706.91	1069.16
707.24	1061.20
707.58	1067.28
707.91	1085.07
708.25	1075.48
708.58	1074.77
708.92	1086.24
709.26	1083.43
709.59	1075.71
709.93	1082.26
710.26	1077.35
710.60	1073.37
710.93	1074.77
711.27	1075.01
711.60	1070.80
711.94	1075.94
712.27	1091.16
712.61	1090.92
712.94	1104.97
713.28	1106.37
713.61	1093.26
713.95	1075.94
714.28	1079.69
714.62	1055.82
714.95	1057.92
715.29	1067.52
715.62	1068.69
715.96	1069.16
716.29	1080.86
716.63	1082.26
716.96	1079.46
717.29	1087.88
717.63	1080.63
717.96	1076.88
718.30	1080.39
718.63	1080.16
718.97	1075.94
719.30	1088.58
719.63	1094.90
719.97	1093.73
720.30	1098.41
720.64	1104.50
720.97	1096.78
721.30	1096.54
721.64	1097.95
721.97	1090.92
722.31	1087.18
722.64	1085.31
722.97	1079.69
723.31	1076.18
723.64	1086.01
723.97	1078.75
724.31	1074.31
724.64	1069.39
724.98	1072.67
725.31	1063.31
725.64	1063.31
725.98	1069.86
726.31	1089.75
726.64	1079.22
726.97	1081.33
727.31	1086.01
727.64	1094.67
727.97	1075.71
728.31	1083.43
728.64	1090.92
728.97	1092.33
729.31	1090.46
729.64	1111.05
729.97	1102.39
730.30	1103.09
730.64	1100.99
730.97	1090.92
731.30	1075.71
731.63	1075.71
731.97	1065.65
732.30	1066.82
732.63	1062.14
732.96	1068.69
733.30	1072.90
733.63	1083.43
733.96	1079.22
734.29	1082.26
734.63	1074.07
734.96	1077.58
735.29	1056.28
735.62	1059.56
735.95	1075.71
736.29	1080.39
736.62	1082.73
736.95	1092.33
737.28	1085.77
737.61	1077.82
737.94	1079.92
738.28	1081.09
738.61	1079.69
738.94	1086.24
739.27	1077.11
739.60	1076.18
739.93	1067.28
740.27	1072.90
740.60	1076.65
740.93	1086.48
741.26	1087.88
741.59	1084.60
741.92	1083.43
742.25	1085.31
742.58	1078.05
742.91	1080.39
743.25	1094.20
743.58	1105.67
743.91	1100.29
744.24	1097.71
744.57	1091.39
744.90	1092.80
745.23	1082.03
745.56	1079.46
745.89	1095.84
746.22	1092.09
746.55	1087.18
746.88	1085.07
747.21	1087.65
747.54	1076.65
747.87	1082.73
748.20	1082.26
748.53	1081.56
748.87	1085.77
749.20	1088.12
749.53	1089.75
749.86	1091.86
750.19	1091.63
750.52	1084.37
750.85	1080.16
751.18	1078.52
751.51	1080.16
751.84	1082.50
752.16	1078.52
752.49	1085.07
752.82	1081.80
753.15	1075.94
753.48	1081.09
753.81	1091.86
754.14	1093.26
754.47	1096.78
754.80	1093.73
755.13	1090.22
755.46	1082.73
755.79	1076.18
756.12	1075.48
756.45	1078.05
756.78	1083.67
757.11	1083.20
757.43	1086.94
757.76	1080.39
758.09	1089.29
758.42	1089.05
758.75	1084.60
759.08	1082.73
759.41	1086.01
759.74	1074.54
760.07	1072.67
760.39	1081.56
760.72	1082.50
761.05	1083.90
761.38	1086.94
761.71	1088.35
762.04	1086.01
762.36	1079.46
762.69	1089.75
763.02	1092.09
763.35	1090.92
763.68	1086.01
764.01	1089.99
764.33	1074.31
764.66	1072.67
