SpectraSuite Data File
++++++++++++++++++++++++++++++++++++
Date: Mon Aug 26 10:24:53 PDT 2019
User: corrico
Dark Spectrum Present: No
Reference Spectrum Present: No
Number of Sampled Component Spectra: 1
Spectrometers: USB2+H06089
Integration Time (usec): 10000 (USB2+H06089)
Spectra Averaged: 2 (USB2+H06089)
Boxcar Smoothing: 2 (USB2+H06089)
Correct for Electrical Dark: No (USB2+H06089)
Strobe/Lamp Enabled: No (USB2+H06089)
Correct for Detector Non-linearity: No (USB2+H06089)
Correct for Stray Light: No (USB2+H06089)
Number of Pixels in Processed Spectrum: 2048
>>>>>Begin Processed Spectral Data<<<<<
339.70	963.13
340.07	963.13
340.45	948.15
340.82	939.96
341.19	939.26
341.57	931.30
341.94	917.72
342.31	919.13
342.69	917.96
343.06	907.19
343.43	904.38
343.81	912.57
344.18	908.36
344.55	902.98
344.93	907.43
345.30	910.70
345.67	919.83
346.04	935.98
346.42	950.02
346.79	955.17
347.16	956.81
347.54	962.43
347.91	979.51
348.28	985.13
348.65	992.86
349.03	1008.30
349.40	1011.11
349.77	1010.88
350.14	1041.30
350.52	1050.67
350.89	1052.77
351.26	1063.07
351.63	1066.35
352.01	1057.45
352.38	1063.77
352.75	1075.71
353.12	1081.33
353.50	1082.73
353.87	1081.09
354.24	1079.69
354.61	1078.28
354.98	1076.41
355.36	1078.05
355.73	1069.16
356.10	1072.43
356.47	1074.07
356.84	1078.28
357.22	1081.80
357.59	1093.03
357.96	1096.78
358.33	1100.29
358.70	1106.14
359.08	1099.58
359.45	1091.63
359.82	1095.37
360.19	1099.82
360.56	1085.77
360.94	1082.73
361.31	1093.26
361.68	1080.86
362.05	1069.16
362.42	1074.54
362.79	1076.18
363.16	1074.31
363.54	1078.05
363.91	1083.20
364.28	1082.50
364.65	1087.65
365.02	1079.46
365.39	1077.58
365.76	1074.77
366.14	1067.52
366.51	1069.16
366.88	1073.37
367.25	1075.24
367.62	1074.54
367.99	1078.99
368.36	1079.46
368.73	1085.07
369.10	1094.67
369.48	1091.86
369.85	1096.78
370.22	1098.41
370.59	1095.37
370.96	1086.94
371.33	1087.18
371.70	1078.52
372.07	1077.82
372.44	1078.28
372.81	1077.82
373.18	1087.18
373.55	1102.86
373.93	1104.50
374.30	1097.71
374.67	1094.90
375.04	1090.69
375.41	1079.69
375.78	1075.94
376.15	1078.75
376.52	1082.73
376.89	1082.03
377.26	1078.99
377.63	1078.05
378.00	1089.05
378.37	1094.90
378.74	1092.09
379.11	1098.18
379.48	1104.97
379.85	1094.43
380.22	1086.24
380.59	1086.48
380.96	1076.18
381.33	1063.77
381.70	1067.75
382.07	1071.03
382.44	1078.75
382.81	1089.52
383.18	1098.65
383.55	1096.78
383.92	1099.82
384.29	1100.75
384.66	1105.67
385.03	1096.07
385.40	1100.52
385.77	1098.65
386.14	1095.14
386.51	1092.09
386.88	1108.95
387.25	1099.58
387.62	1100.52
387.99	1090.69
388.36	1095.60
388.73	1083.20
389.10	1099.12
389.46	1113.63
389.83	1131.18
390.20	1124.86
390.57	1134.46
390.94	1121.58
391.31	1113.16
391.68	1106.84
392.05	1106.14
392.42	1094.67
392.79	1097.48
393.16	1095.14
393.53	1100.99
393.89	1104.26
394.26	1111.99
394.63	1114.33
395.00	1108.24
395.37	1106.61
395.74	1115.27
396.11	1121.12
396.48	1117.37
396.84	1122.05
397.21	1112.92
397.58	1110.35
397.95	1101.92
398.32	1111.05
398.69	1119.95
399.06	1121.35
399.42	1127.90
399.79	1138.90
400.16	1138.90
400.53	1140.78
400.90	1156.22
401.27	1152.01
401.64	1155.52
402.00	1158.33
402.37	1154.82
402.74	1156.22
403.11	1164.18
403.48	1170.27
403.84	1189.93
404.21	1204.21
404.58	1213.80
404.95	1220.82
405.32	1233.70
405.68	1231.36
406.05	1234.40
406.42	1244.46
406.79	1258.04
407.16	1266.23
407.52	1284.72
407.89	1313.98
408.26	1332.70
408.63	1335.98
408.99	1352.83
409.36	1380.68
409.73	1391.45
410.10	1408.07
410.47	1446.69
410.83	1469.15
411.20	1481.56
411.57	1516.43
411.94	1543.58
412.30	1577.76
412.67	1636.50
413.04	1685.42
413.40	1741.59
413.77	1820.70
414.14	1886.00
414.51	1957.86
414.87	2029.71
415.24	2087.76
415.61	2167.34
415.97	2243.17
416.34	2320.17
416.71	2408.18
417.08	2506.95
417.44	2590.50
417.81	2706.60
418.18	2806.77
418.54	2920.75
418.91	3030.29
419.28	3162.06
419.64	3288.45
420.01	3434.74
420.38	3598.11
420.74	3772.24
421.11	3969.31
421.48	4176.45
421.84	4392.02
422.21	4593.77
422.58	4856.38
422.94	5082.71
423.31	5305.06
423.68	5574.69
424.04	5848.76
424.41	6091.24
424.77	6400.19
425.14	6699.78
425.51	6999.37
425.87	7346.24
426.24	7710.66
426.61	8071.10
426.97	8545.53
427.34	8933.82
427.70	9394.21
428.07	9849.91
428.44	10342.59
428.80	10777.70
429.17	11319.53
429.53	11840.30
429.90	12419.82
430.27	12914.37
430.63	13437.72
431.00	14030.58
431.36	14687.56
431.73	15281.12
432.09	15955.43
432.46	16648.00
432.83	17191.94
433.19	17742.90
433.56	18426.57
433.92	19068.11
434.29	19645.75
434.65	20408.07
435.02	20988.05
435.38	21528.48
435.75	22045.27
436.11	22675.11
436.48	23095.47
436.84	23653.45
437.21	24091.60
437.57	24489.03
437.94	24846.19
438.30	25206.63
438.67	25406.75
439.03	25535.48
439.40	25652.74
439.76	25559.12
440.13	25443.03
440.49	25322.49
440.86	25079.78
441.22	24859.53
441.59	24567.90
441.95	24238.35
442.32	23776.10
442.68	23428.53
443.05	22918.06
443.41	22374.82
443.78	21789.69
444.14	21302.15
444.51	20731.30
444.87	20315.85
445.24	19890.81
445.60	19487.30
445.96	18964.66
446.33	18456.53
446.69	17877.25
447.06	17410.07
447.42	16897.03
447.79	16438.28
448.15	16098.67
448.51	15646.72
448.88	15264.51
449.24	14835.02
449.61	14542.68
449.97	14201.90
450.33	13917.76
450.70	13495.29
451.06	13195.00
451.43	12778.86
451.79	12376.99
452.15	12044.63
452.52	11800.51
452.88	11524.33
453.24	11288.64
453.61	11059.73
453.97	10783.08
454.34	10470.39
454.70	10226.27
455.06	9956.64
455.43	9621.24
455.79	9290.05
456.15	8987.19
456.52	8674.73
456.88	8441.38
457.24	8203.58
457.61	8010.02
457.97	7809.20
458.33	7584.74
458.70	7289.13
459.06	7040.10
459.42	6814.00
459.79	6582.52
460.15	6355.49
460.51	6171.52
460.88	5985.69
461.24	5794.46
461.60	5633.44
461.96	5493.24
462.33	5347.89
462.69	5228.52
463.05	5084.35
463.42	4968.49
463.78	4828.29
464.14	4699.33
464.50	4571.53
464.87	4471.83
465.23	4336.78
465.59	4253.92
465.95	4167.79
466.32	4072.53
466.68	3983.36
467.04	3915.01
467.40	3820.69
467.77	3744.62
468.13	3671.83
468.49	3601.62
468.85	3544.74
469.22	3479.91
469.58	3412.03
469.94	3350.48
470.30	3285.41
470.66	3220.81
471.03	3169.32
471.39	3107.53
471.75	3047.85
472.11	2976.46
472.47	2908.82
472.84	2850.54
473.20	2800.69
473.56	2746.85
473.92	2716.89
474.28	2699.34
474.65	2663.30
475.01	2627.49
475.37	2590.74
475.73	2549.08
476.09	2511.86
476.45	2480.27
476.81	2449.14
477.18	2426.67
477.54	2382.90
477.90	2341.71
478.26	2315.49
478.62	2270.32
478.98	2239.89
479.34	2223.51
479.71	2187.70
480.07	2139.25
480.43	2113.04
480.79	2085.18
481.15	2056.86
481.51	2047.97
481.87	2032.99
482.23	2033.93
482.59	2012.86
482.96	1996.48
483.32	1982.67
483.68	1969.79
484.04	1937.50
484.40	1915.03
484.76	1884.13
485.12	1855.11
485.48	1823.98
485.84	1792.38
486.20	1774.83
486.56	1755.87
486.92	1738.32
487.28	1726.15
487.64	1718.42
488.00	1711.17
488.37	1703.68
488.73	1683.78
489.09	1669.50
489.45	1649.61
489.81	1624.33
490.17	1603.97
490.53	1583.61
490.89	1572.37
491.25	1565.12
491.61	1555.99
491.97	1547.56
492.33	1536.56
492.69	1519.48
493.05	1515.73
493.41	1506.84
493.77	1491.62
494.13	1476.64
494.49	1467.52
494.85	1457.92
495.21	1447.39
495.57	1447.62
495.93	1442.00
496.29	1427.73
496.64	1415.79
497.00	1400.81
497.36	1387.70
497.72	1385.83
498.08	1376.24
498.44	1364.06
498.80	1364.06
499.16	1370.85
499.52	1361.02
499.88	1364.30
500.24	1351.89
500.60	1346.51
500.96	1327.32
501.32	1317.02
501.68	1304.85
502.03	1299.00
502.39	1281.21
502.75	1272.78
503.11	1257.34
503.47	1260.85
503.83	1254.53
504.19	1245.63
504.55	1242.82
504.91	1248.21
505.26	1237.21
505.62	1243.29
505.98	1255.70
506.34	1244.23
506.70	1245.87
507.06	1240.48
507.42	1229.48
507.78	1215.67
508.13	1218.95
508.49	1207.48
508.85	1204.21
509.21	1201.40
509.57	1202.33
509.93	1205.61
510.28	1207.95
510.64	1210.99
511.00	1204.21
511.36	1197.65
511.72	1179.16
512.07	1175.18
512.43	1167.93
512.79	1166.76
513.15	1168.63
513.51	1174.48
513.86	1176.82
514.22	1174.48
514.58	1175.65
514.94	1174.48
515.30	1175.65
515.65	1175.42
516.01	1185.48
516.37	1177.52
516.73	1176.82
517.08	1173.08
517.44	1173.08
517.80	1155.76
518.16	1158.57
518.51	1160.44
518.87	1163.48
519.23	1153.65
519.59	1147.56
519.94	1150.84
520.30	1135.39
520.66	1122.75
521.01	1123.93
521.37	1134.93
521.73	1123.46
522.09	1135.16
522.44	1141.71
522.80	1152.25
523.16	1142.18
523.51	1141.01
523.87	1127.44
524.23	1113.16
524.58	1098.65
524.94	1100.52
525.30	1104.97
525.65	1101.46
526.01	1110.12
526.37	1100.05
526.72	1103.33
527.08	1105.67
527.44	1113.39
527.79	1114.80
528.15	1125.10
528.51	1116.20
528.86	1108.24
529.22	1107.54
529.58	1105.20
529.93	1097.01
530.29	1102.63
530.65	1100.99
531.00	1099.12
531.36	1097.48
531.71	1101.22
532.07	1091.63
532.43	1086.48
532.78	1085.31
533.14	1089.75
533.49	1084.84
533.85	1086.24
534.21	1097.71
534.56	1104.26
534.92	1106.37
535.27	1105.90
535.63	1113.39
535.98	1120.88
536.34	1117.61
536.69	1111.99
537.05	1111.52
537.41	1114.80
537.76	1110.58
538.12	1102.39
538.47	1106.61
538.83	1112.69
539.18	1104.03
539.54	1098.88
539.89	1109.65
540.25	1104.97
540.60	1112.69
540.96	1111.29
541.31	1115.50
541.67	1121.35
542.02	1120.18
542.38	1106.61
542.73	1103.80
543.09	1102.16
543.44	1090.69
543.80	1095.60
544.15	1100.29
544.51	1110.35
544.86	1109.88
545.22	1117.14
545.57	1121.35
545.93	1128.84
546.28	1127.67
546.64	1123.69
546.99	1115.73
547.35	1117.37
547.70	1118.54
548.05	1114.09
548.41	1119.24
548.76	1118.31
549.12	1109.88
549.47	1098.88
549.83	1093.50
550.18	1093.50
550.53	1095.14
550.89	1094.43
551.24	1101.46
551.60	1107.07
551.95	1104.26
552.30	1113.86
552.66	1110.82
553.01	1111.75
553.37	1102.86
553.72	1104.97
554.07	1094.90
554.43	1104.73
554.78	1089.99
555.13	1102.16
555.49	1100.52
555.84	1104.97
556.19	1097.01
556.55	1114.80
556.90	1105.90
557.26	1104.97
557.61	1096.07
557.96	1090.92
558.32	1084.60
558.67	1094.20
559.02	1087.88
559.37	1092.33
559.73	1110.35
560.08	1112.69
560.43	1106.84
560.79	1108.48
561.14	1110.12
561.49	1104.73
561.85	1099.82
562.20	1096.78
562.55	1094.20
562.90	1088.58
563.26	1079.46
563.61	1079.22
563.96	1090.46
564.32	1096.07
564.67	1101.69
565.02	1102.16
565.37	1107.54
565.73	1097.71
566.08	1104.50
566.43	1106.37
566.78	1112.69
567.14	1115.03
567.49	1126.03
567.84	1121.12
568.19	1106.14
568.54	1098.18
568.90	1083.43
569.25	1071.73
569.60	1066.82
569.95	1075.01
570.31	1067.99
570.66	1073.60
571.01	1081.56
571.36	1087.18
571.71	1082.73
572.06	1087.88
572.42	1101.92
572.77	1098.88
573.12	1096.31
573.47	1111.05
573.82	1111.05
574.18	1102.63
574.53	1097.95
574.88	1104.26
575.23	1104.73
575.58	1108.95
575.93	1103.09
576.28	1102.86
576.64	1098.88
576.99	1095.14
577.34	1100.52
577.69	1107.54
578.04	1114.09
578.39	1115.50
578.74	1105.20
579.09	1101.22
579.44	1094.20
579.80	1092.80
580.15	1082.73
580.50	1089.52
580.85	1084.84
581.20	1089.75
581.55	1090.69
581.90	1096.31
582.25	1093.50
582.60	1094.67
582.95	1089.05
583.30	1091.86
583.65	1102.86
584.00	1107.54
584.35	1108.48
584.71	1108.71
585.06	1104.50
585.41	1093.73
585.76	1097.48
586.11	1093.03
586.46	1097.95
586.81	1106.14
587.16	1107.31
587.51	1100.75
587.86	1114.80
588.21	1110.58
588.56	1105.44
588.91	1104.50
589.26	1111.52
589.61	1108.71
589.96	1103.56
590.31	1099.58
590.66	1101.92
591.01	1097.48
591.36	1093.50
591.71	1108.71
592.06	1108.48
592.41	1112.69
592.76	1099.35
593.10	1096.07
593.45	1093.97
593.80	1081.80
594.15	1073.84
594.50	1077.82
594.85	1071.26
595.20	1063.77
595.55	1075.24
595.90	1078.05
596.25	1085.54
596.60	1103.56
596.95	1101.46
597.30	1098.88
597.64	1149.67
597.99	1152.01
598.34	1140.07
598.69	1139.84
599.04	1140.07
599.39	1090.92
599.74	1087.65
600.09	1093.26
600.44	1095.37
600.78	1100.99
601.13	1097.01
601.48	1099.35
601.83	1094.43
602.18	1101.69
602.53	1101.92
602.88	1097.48
603.22	1095.60
603.57	1098.18
603.92	1088.12
604.27	1090.69
604.62	1092.09
604.97	1093.73
605.31	1092.56
605.66	1096.78
606.01	1079.92
606.36	1080.63
606.71	1069.16
607.05	1059.56
607.40	1054.18
607.75	1064.01
608.10	1069.62
608.44	1094.43
608.79	1102.86
609.14	1104.97
609.49	1104.73
609.84	1094.90
610.18	1073.37
610.53	1074.07
610.88	1078.99
611.23	1078.52
611.57	1095.37
611.92	1103.33
612.27	1094.43
612.62	1094.90
612.96	1098.65
613.31	1089.99
613.66	1083.20
614.00	1094.43
614.35	1092.80
614.70	1093.73
615.05	1092.09
615.39	1089.29
615.74	1083.43
616.09	1084.60
616.43	1088.58
616.78	1091.86
617.13	1092.09
617.47	1097.48
617.82	1086.71
618.17	1077.11
618.51	1067.99
618.86	1068.92
619.21	1067.52
619.55	1069.16
619.90	1062.84
620.25	1058.62
620.59	1067.99
620.94	1067.52
621.29	1082.03
621.63	1080.39
621.98	1095.84
622.32	1093.03
622.67	1088.35
623.02	1082.97
623.36	1093.03
623.71	1088.35
624.05	1098.65
624.40	1101.22
624.75	1092.33
625.09	1096.31
625.44	1097.24
625.78	1086.71
626.13	1096.31
626.48	1110.35
626.82	1111.75
627.17	1111.29
627.51	1106.37
627.86	1099.58
628.20	1098.65
628.55	1094.67
628.89	1083.43
629.24	1085.54
629.58	1088.82
629.93	1082.97
630.28	1082.97
630.62	1090.46
630.97	1089.99
631.31	1082.50
631.66	1080.16
632.00	1083.67
632.35	1080.86
632.69	1086.24
633.04	1086.71
633.38	1092.56
633.73	1086.24
634.07	1087.88
634.42	1085.54
634.76	1091.86
635.11	1086.24
635.45	1087.18
635.79	1099.35
636.14	1107.54
636.48	1104.26
636.83	1102.63
637.17	1104.50
637.52	1097.48
637.86	1087.41
638.21	1089.75
638.55	1097.95
638.89	1097.48
639.24	1097.01
639.58	1102.86
639.93	1109.18
640.27	1100.75
640.61	1106.37
640.96	1101.92
641.30	1099.58
641.65	1097.24
641.99	1105.90
642.33	1102.16
642.68	1111.52
643.02	1111.99
643.37	1106.37
643.71	1094.90
644.05	1090.46
644.40	1082.97
644.74	1080.16
645.08	1078.52
645.43	1084.84
645.77	1086.01
646.11	1087.41
646.46	1082.97
646.80	1082.50
647.14	1073.14
647.49	1069.86
647.83	1076.65
648.17	1078.99
648.52	1081.80
648.86	1091.16
649.20	1094.43
649.55	1076.18
649.89	1084.60
650.23	1085.31
650.57	1084.60
650.92	1077.82
651.26	1079.69
651.60	1072.43
651.95	1077.11
652.29	1078.28
652.63	1080.16
652.97	1088.35
653.32	1093.97
653.66	1080.63
654.00	1083.67
654.34	1087.88
654.69	1086.48
655.03	1082.03
655.37	1082.50
655.71	1080.86
656.05	1080.39
656.40	1078.05
656.74	1076.88
657.08	1071.73
657.42	1077.35
657.76	1081.80
658.11	1093.50
658.45	1089.29
658.79	1096.54
659.13	1093.73
659.47	1082.03
659.82	1073.37
660.16	1079.46
660.50	1074.31
660.84	1067.75
661.18	1071.03
661.52	1079.69
661.87	1073.37
662.21	1076.88
662.55	1079.69
662.89	1087.41
663.23	1076.18
663.57	1081.33
663.91	1090.92
664.25	1092.33
664.60	1091.16
664.94	1091.86
665.28	1097.71
665.62	1084.14
665.96	1067.28
666.30	1074.54
666.64	1069.16
666.98	1054.41
667.32	1061.67
667.66	1079.22
668.01	1072.20
668.35	1074.54
668.69	1092.56
669.03	1082.50
669.37	1074.77
669.71	1073.84
670.05	1080.63
670.39	1071.26
670.73	1084.84
671.07	1080.86
671.41	1086.94
671.75	1087.18
672.09	1093.97
672.43	1089.75
672.77	1096.54
673.11	1089.52
673.45	1089.99
673.79	1083.90
674.13	1077.58
674.47	1078.75
674.81	1071.50
675.15	1070.33
675.49	1067.99
675.83	1071.73
676.17	1078.28
676.51	1087.88
676.85	1086.71
677.19	1084.84
677.53	1088.12
677.87	1086.48
678.21	1086.94
678.55	1089.29
678.89	1093.97
679.23	1101.46
679.57	1103.80
679.90	1094.43
680.24	1088.12
680.58	1083.43
680.92	1077.58
681.26	1057.22
681.60	1069.39
681.94	1079.92
682.28	1086.94
682.62	1087.88
682.96	1097.48
683.29	1089.05
683.63	1075.48
683.97	1074.31
684.31	1075.48
684.65	1083.20
684.99	1080.39
685.33	1083.43
685.67	1085.77
686.00	1082.50
686.34	1078.99
686.68	1084.60
687.02	1086.01
687.36	1075.94
687.70	1072.20
688.03	1076.18
688.37	1078.99
688.71	1081.33
689.05	1088.82
689.39	1092.33
689.72	1075.94
690.06	1065.88
690.40	1063.54
690.74	1060.96
691.08	1059.09
691.41	1067.05
691.75	1078.52
692.09	1082.26
692.43	1076.41
692.76	1073.14
693.10	1075.48
693.44	1075.71
693.78	1078.75
694.11	1085.07
694.45	1087.88
694.79	1089.29
695.13	1079.92
695.46	1085.54
695.80	1072.43
696.14	1077.11
696.48	1074.77
696.81	1078.75
697.15	1064.48
697.49	1072.43
697.82	1069.16
698.16	1072.67
698.50	1064.24
698.83	1075.71
699.17	1077.11
699.51	1072.90
699.84	1061.90
700.18	1077.11
700.52	1066.35
700.85	1055.58
701.19	1063.54
701.53	1070.33
701.86	1063.31
702.20	1058.62
702.54	1061.90
702.87	1054.41
703.21	1055.58
703.55	1060.50
703.88	1069.39
704.22	1079.22
704.55	1088.58
704.89	1089.29
705.23	1086.48
705.56	1085.54
705.90	1079.69
706.23	1075.71
706.57	1075.24
706.91	1068.69
707.24	1068.22
707.58	1092.33
707.91	1091.16
708.25	1095.84
708.58	1101.69
708.92	1105.67
709.26	1091.86
709.59	1097.48
709.93	1103.09
710.26	1106.61
710.60	1105.20
710.93	1102.86
711.27	1091.86
711.60	1088.12
711.94	1096.78
712.27	1093.97
712.61	1093.03
712.94	1098.65
713.28	1088.58
713.61	1076.88
713.95	1073.37
714.28	1058.62
714.62	1053.01
714.95	1051.60
715.29	1048.79
715.62	1048.56
715.96	1066.82
716.29	1078.05
716.63	1087.65
716.96	1087.65
717.29	1088.35
717.63	1081.56
717.96	1071.03
718.30	1064.48
718.63	1056.28
718.97	1057.69
719.30	1063.77
719.63	1070.09
719.97	1077.35
720.30	1089.75
720.64	1097.48
720.97	1092.80
721.30	1086.94
721.64	1086.71
721.97	1086.48
722.31	1085.54
722.64	1087.18
722.97	1095.60
723.31	1100.75
723.64	1101.22
723.97	1094.43
724.31	1090.46
724.64	1083.43
724.98	1082.97
725.31	1083.90
725.64	1082.73
725.98	1103.80
726.31	1101.69
726.64	1094.20
726.97	1082.26
727.31	1082.50
727.64	1071.26
727.97	1078.52
728.31	1080.63
728.64	1085.77
728.97	1082.50
729.31	1069.16
729.64	1070.80
729.97	1065.88
730.30	1066.82
730.64	1075.94
730.97	1082.73
731.30	1078.52
731.63	1082.50
731.97	1088.35
732.30	1087.41
732.63	1094.43
732.96	1094.90
733.30	1088.58
733.63	1084.37
733.96	1082.50
734.29	1076.18
734.63	1073.84
734.96	1078.28
735.29	1074.31
735.62	1081.09
735.95	1084.14
736.29	1081.33
736.62	1080.63
736.95	1088.82
737.28	1089.52
737.61	1087.18
737.94	1091.39
738.28	1085.54
738.61	1089.52
738.94	1087.88
739.27	1083.67
739.60	1077.82
739.93	1083.90
740.27	1074.07
740.60	1062.84
740.93	1060.50
741.26	1060.73
741.59	1070.09
741.92	1073.37
742.25	1086.24
742.58	1098.65
742.91	1115.27
743.25	1110.12
743.58	1104.26
743.91	1094.90
744.24	1092.56
744.57	1086.01
744.90	1077.58
745.23	1082.26
745.56	1087.41
745.89	1077.82
746.22	1076.88
746.55	1087.65
746.88	1089.29
747.21	1084.60
747.54	1089.52
747.87	1086.48
748.20	1078.52
748.53	1073.84
748.87	1082.73
749.20	1078.99
749.53	1083.20
749.86	1079.69
750.19	1093.73
750.52	1091.63
750.85	1102.63
751.18	1113.16
751.51	1111.29
751.84	1108.24
752.16	1110.12
752.49	1106.61
752.82	1096.31
753.15	1104.03
753.48	1095.84
753.81	1085.07
754.14	1077.35
754.47	1078.52
754.80	1083.20
755.13	1085.07
755.46	1094.20
755.79	1094.43
756.12	1101.22
756.45	1099.12
756.78	1098.65
757.11	1094.20
757.43	1107.07
757.76	1095.60
758.09	1085.54
758.42	1081.80
758.75	1088.82
759.08	1078.99
759.41	1076.65
759.74	1077.11
760.07	1078.52
760.39	1070.33
760.72	1069.16
761.05	1071.50
761.38	1070.09
761.71	1066.58
762.04	1068.22
762.36	1075.71
762.69	1067.05
763.02	1065.88
763.35	1069.62
763.68	1073.14
764.01	1072.43
764.33	1088.82
764.66	1094.67
