SpectraSuite Data File
++++++++++++++++++++++++++++++++++++
Date: Mon Aug 26 10:24:52 PDT 2019
User: corrico
Dark Spectrum Present: No
Reference Spectrum Present: No
Number of Sampled Component Spectra: 1
Spectrometers: USB2+H06089
Integration Time (usec): 10000 (USB2+H06089)
Spectra Averaged: 2 (USB2+H06089)
Boxcar Smoothing: 2 (USB2+H06089)
Correct for Electrical Dark: No (USB2+H06089)
Strobe/Lamp Enabled: No (USB2+H06089)
Correct for Detector Non-linearity: No (USB2+H06089)
Correct for Stray Light: No (USB2+H06089)
Number of Pixels in Processed Spectrum: 2048
>>>>>Begin Processed Spectral Data<<<<<
339.70	1009.94
340.07	1009.94
340.45	984.20
340.82	971.32
341.19	947.21
341.57	927.55
341.94	917.96
342.31	914.92
342.69	903.45
343.06	908.13
343.43	907.19
343.81	909.06
344.18	910.23
344.55	915.38
344.93	913.28
345.30	923.58
345.67	931.07
346.04	938.79
346.42	952.83
346.79	967.34
347.16	970.62
347.54	975.07
347.91	985.60
348.28	997.30
348.65	1014.39
349.03	1027.26
349.40	1032.64
349.77	1045.05
350.14	1047.62
350.52	1045.99
350.89	1043.88
351.26	1060.96
351.63	1060.73
352.01	1066.35
352.38	1070.09
352.75	1077.82
353.12	1070.09
353.50	1078.75
353.87	1074.54
354.24	1078.99
354.61	1087.41
354.98	1101.92
355.36	1098.88
355.73	1103.09
356.10	1113.39
356.47	1113.16
356.84	1105.90
357.22	1107.54
357.59	1115.97
357.96	1094.90
358.33	1087.41
358.70	1085.77
359.08	1086.71
359.45	1084.84
359.82	1095.84
360.19	1101.22
360.56	1095.37
360.94	1086.24
361.31	1075.48
361.68	1071.73
362.05	1064.48
362.42	1077.82
362.79	1080.63
363.16	1080.63
363.54	1081.09
363.91	1086.94
364.28	1088.35
364.65	1095.60
365.02	1098.65
365.39	1083.43
365.76	1077.82
366.14	1067.52
366.51	1060.96
366.88	1065.41
367.25	1078.52
367.62	1079.92
367.99	1076.41
368.36	1084.60
368.73	1088.58
369.10	1083.67
369.48	1086.71
369.85	1095.60
370.22	1080.16
370.59	1076.18
370.96	1088.12
371.33	1091.39
371.70	1096.54
372.07	1107.07
372.44	1105.20
372.81	1092.80
373.18	1084.60
373.55	1078.28
373.93	1068.22
374.30	1066.82
374.67	1079.46
375.04	1077.82
375.41	1072.67
375.78	1074.77
376.15	1082.50
376.52	1085.77
376.89	1090.92
377.26	1091.63
377.63	1098.65
378.00	1090.69
378.37	1079.46
378.74	1081.56
379.11	1078.52
379.48	1078.28
379.85	1079.22
380.22	1084.60
380.59	1084.84
380.96	1091.63
381.33	1088.35
381.70	1086.71
382.07	1076.18
382.44	1076.18
382.81	1082.97
383.18	1089.29
383.55	1087.65
383.92	1093.73
384.29	1093.03
384.66	1077.35
385.03	1072.67
385.40	1075.71
385.77	1078.28
386.14	1078.05
386.51	1089.05
386.88	1097.24
387.25	1104.26
387.62	1105.20
387.99	1108.48
388.36	1108.48
388.73	1106.37
389.10	1103.09
389.46	1106.84
389.83	1111.52
390.20	1111.52
390.57	1111.52
390.94	1111.29
391.31	1107.54
391.68	1093.50
392.05	1095.60
392.42	1085.07
392.79	1086.24
393.16	1082.26
393.53	1083.90
393.89	1093.73
394.26	1099.35
394.63	1101.22
395.00	1116.44
395.37	1130.48
395.74	1119.01
396.11	1118.07
396.48	1116.90
396.84	1110.12
397.21	1110.82
397.58	1106.84
397.95	1113.39
398.32	1119.24
398.69	1123.93
399.06	1128.61
399.42	1133.99
399.79	1131.65
400.16	1130.95
400.53	1135.16
400.90	1134.93
401.27	1151.31
401.64	1165.82
402.00	1170.03
402.37	1172.84
402.74	1175.18
403.11	1172.84
403.48	1178.46
403.84	1186.18
404.21	1196.72
404.58	1208.65
404.95	1224.10
405.32	1229.95
405.68	1229.25
406.05	1236.97
406.42	1254.06
406.79	1256.17
407.16	1274.89
407.52	1305.55
407.89	1325.21
408.26	1334.34
408.63	1356.81
408.99	1377.64
409.36	1388.17
409.73	1409.00
410.10	1433.11
410.47	1453.47
410.83	1471.49
411.20	1516.67
411.57	1556.69
411.94	1596.25
412.30	1652.18
412.67	1697.12
413.04	1743.47
413.40	1809.23
413.77	1860.73
414.14	1912.45
414.51	1994.37
414.87	2059.67
415.24	2108.35
415.61	2196.36
415.97	2283.66
416.34	2343.11
416.71	2428.07
417.08	2526.14
417.44	2616.25
417.81	2727.43
418.18	2858.96
418.54	2974.82
418.91	3119.00
419.28	3264.58
419.64	3396.82
420.01	3535.15
420.38	3686.34
420.74	3847.84
421.11	4042.57
421.48	4257.43
421.84	4469.02
422.21	4710.33
422.58	4932.21
422.94	5168.61
423.31	5402.66
423.68	5699.67
424.04	5977.96
424.41	6259.53
424.77	6554.90
425.14	6867.60
425.51	7175.15
425.87	7539.57
426.24	7919.67
426.61	8322.01
426.97	8810.48
427.34	9251.67
427.70	9724.69
428.07	10221.12
428.44	10712.40
428.80	11155.46
429.17	11661.49
429.53	12153.70
429.90	12756.62
430.27	13251.18
430.63	13810.80
431.00	14442.04
431.36	15216.06
431.73	15764.91
432.09	16482.75
432.46	17113.53
432.83	17700.07
433.19	18157.88
433.56	18835.46
433.92	19484.26
434.29	20103.10
434.65	20801.75
435.02	21474.88
435.38	22097.23
435.75	22619.17
436.11	23294.88
436.48	23736.78
436.84	24214.95
437.21	24664.57
437.57	25090.54
437.94	25431.09
438.30	25884.92
438.67	26156.66
439.03	26316.52
439.40	26496.97
439.76	26481.52
440.13	26372.22
440.49	26306.92
440.86	26015.76
441.22	25718.74
441.59	25368.36
441.95	25030.86
442.32	24517.58
442.68	24203.25
443.05	23726.24
443.41	23262.35
443.78	22649.13
444.14	22120.87
444.51	21512.33
444.87	21066.93
445.24	20577.29
445.60	20198.59
445.96	19665.65
446.33	19202.93
446.69	18592.51
447.06	18086.49
447.42	17515.63
447.79	17048.93
448.15	16625.29
448.51	16170.76
448.88	15742.68
449.24	15272.46
449.61	14967.49
449.97	14557.90
450.33	14194.65
450.70	13796.52
451.06	13528.06
451.43	13082.66
451.79	12743.98
452.15	12428.71
452.52	12115.55
452.88	11790.68
453.24	11532.05
453.61	11284.19
453.97	11027.43
454.34	10756.40
454.70	10483.96
455.06	10254.82
455.43	9932.30
455.79	9577.71
456.15	9289.59
456.52	8992.81
456.88	8718.26
457.24	8461.27
457.61	8275.67
457.97	8076.25
458.33	7826.75
458.70	7561.80
459.06	7304.11
459.42	7064.91
459.79	6801.60
460.15	6603.12
460.51	6415.64
460.88	6221.85
461.24	6034.84
461.60	5882.00
461.96	5718.63
462.33	5532.79
462.69	5377.15
463.05	5216.35
463.42	5070.54
463.78	4911.85
464.14	4805.35
464.50	4704.94
464.87	4609.22
465.23	4498.28
465.59	4409.80
465.95	4290.44
466.32	4185.11
466.68	4105.07
467.04	3996.93
467.40	3917.59
467.77	3852.99
468.13	3787.92
468.49	3696.64
468.85	3663.87
469.22	3587.11
469.58	3510.34
469.94	3447.38
470.30	3391.90
470.66	3313.96
471.03	3249.83
471.39	3207.00
471.75	3134.21
472.11	3079.68
472.47	3012.50
472.84	2968.97
473.20	2903.90
473.56	2866.69
473.92	2803.03
474.28	2761.83
474.65	2717.60
475.01	2680.15
475.37	2631.00
475.73	2596.36
476.09	2561.48
476.45	2517.95
476.81	2474.65
477.18	2436.03
477.54	2405.60
477.90	2371.90
478.26	2343.81
478.62	2319.47
478.98	2302.85
479.34	2267.04
479.71	2240.13
480.07	2213.91
480.43	2183.72
480.79	2149.55
481.15	2128.25
481.51	2103.21
481.87	2084.01
482.23	2050.54
482.59	2032.05
482.96	2013.80
483.32	1987.35
483.68	1960.90
484.04	1950.60
484.40	1912.92
484.76	1877.81
485.12	1856.75
485.48	1838.72
485.84	1822.58
486.20	1806.89
486.56	1799.40
486.92	1780.21
487.28	1757.74
487.64	1734.34
488.00	1721.70
488.37	1702.74
488.73	1684.02
489.09	1665.76
489.45	1643.76
489.81	1621.99
490.17	1607.25
490.53	1603.03
490.89	1602.80
491.25	1588.52
491.61	1577.52
491.97	1577.52
492.33	1560.90
492.69	1548.26
493.05	1537.03
493.41	1524.16
493.77	1498.65
494.13	1487.88
494.49	1475.94
494.85	1468.92
495.21	1461.43
495.57	1462.83
495.93	1451.13
496.29	1425.15
496.64	1426.56
497.00	1414.85
497.36	1401.28
497.72	1404.09
498.08	1401.04
498.44	1387.00
498.80	1382.09
499.16	1359.85
499.52	1337.15
499.88	1326.85
500.24	1316.79
500.60	1306.96
500.96	1310.93
501.32	1313.74
501.68	1317.02
502.03	1316.55
502.39	1309.30
502.75	1301.10
503.11	1285.42
503.47	1277.46
503.83	1272.55
504.19	1268.80
504.55	1261.31
504.91	1269.04
505.26	1256.40
505.62	1246.57
505.98	1249.61
506.34	1257.34
506.70	1245.17
507.06	1238.14
507.42	1238.38
507.78	1224.10
508.13	1214.97
508.49	1213.80
508.85	1215.91
509.21	1207.95
509.57	1201.63
509.93	1194.14
510.28	1195.08
510.64	1196.72
511.00	1199.99
511.36	1197.65
511.72	1203.04
512.07	1187.82
512.43	1180.80
512.79	1177.52
513.15	1177.99
513.51	1174.71
513.86	1180.57
514.22	1176.59
514.58	1156.69
514.94	1154.82
515.30	1155.52
515.65	1159.74
516.01	1150.84
516.37	1159.74
516.73	1156.46
517.08	1150.84
517.44	1141.95
517.80	1144.76
518.16	1135.39
518.51	1137.73
518.87	1124.39
519.23	1118.31
519.59	1120.18
519.94	1122.75
520.30	1115.97
520.66	1134.93
521.01	1139.14
521.37	1141.95
521.73	1142.65
522.09	1159.03
522.44	1156.93
522.80	1156.46
523.16	1152.25
523.51	1157.39
523.87	1143.12
524.23	1137.50
524.58	1137.27
524.94	1130.95
525.30	1118.07
525.65	1119.01
526.01	1108.48
526.37	1105.67
526.72	1116.90
527.08	1123.93
527.44	1128.84
527.79	1130.24
528.15	1130.95
528.51	1122.75
528.86	1115.73
529.22	1098.65
529.58	1099.35
529.93	1098.88
530.29	1096.78
530.65	1097.71
531.00	1108.01
531.36	1095.14
531.71	1091.63
532.07	1096.54
532.43	1110.12
532.78	1117.37
533.14	1124.39
533.49	1127.90
533.85	1128.14
534.21	1112.46
534.56	1098.88
534.92	1097.01
535.27	1092.09
535.63	1088.35
535.98	1101.46
536.34	1108.01
536.69	1114.56
537.05	1114.10
537.41	1120.41
537.76	1119.48
538.12	1120.18
538.47	1114.80
538.83	1127.67
539.18	1129.07
539.54	1124.63
539.89	1122.99
540.25	1137.73
540.60	1126.73
540.96	1115.97
541.31	1119.24
541.67	1110.58
542.02	1104.73
542.38	1103.33
542.73	1101.92
543.09	1105.20
543.44	1118.31
543.80	1118.78
544.15	1122.52
544.51	1135.39
544.86	1121.58
545.22	1120.41
545.57	1117.14
545.93	1104.73
546.28	1092.56
546.64	1098.18
546.99	1096.31
547.35	1096.31
547.70	1107.31
548.05	1118.31
548.41	1119.01
548.76	1108.71
549.12	1108.24
549.47	1112.22
549.83	1108.48
550.18	1101.69
550.53	1099.58
550.89	1100.52
551.24	1091.63
551.60	1090.69
551.95	1099.82
552.30	1109.65
552.66	1110.82
553.01	1112.46
553.37	1110.82
553.72	1114.80
554.07	1123.46
554.43	1131.18
554.78	1126.27
555.13	1124.39
555.49	1112.92
555.84	1101.69
556.19	1094.90
556.55	1096.78
556.90	1088.58
557.26	1080.86
557.61	1075.71
557.96	1068.69
558.32	1075.71
558.67	1084.84
559.02	1095.84
559.37	1105.44
559.73	1107.78
560.08	1104.97
560.43	1101.69
560.79	1099.82
561.14	1083.67
561.49	1085.54
561.85	1083.67
562.20	1089.05
562.55	1093.50
562.90	1108.01
563.26	1095.60
563.61	1100.05
563.96	1090.22
564.32	1086.01
564.67	1078.28
565.02	1084.84
565.37	1070.80
565.73	1072.67
566.08	1068.69
566.43	1076.65
566.78	1078.99
567.14	1096.54
567.49	1098.41
567.84	1109.18
568.19	1107.31
568.54	1115.73
568.90	1111.75
569.25	1111.99
569.60	1110.35
569.95	1111.52
570.31	1103.33
570.66	1108.24
571.01	1106.14
571.36	1107.78
571.71	1103.33
572.06	1107.07
572.42	1102.39
572.77	1103.80
573.12	1095.84
573.47	1095.37
573.82	1094.67
574.18	1100.29
574.53	1107.31
574.88	1110.82
575.23	1113.39
575.58	1109.41
575.93	1096.54
576.28	1087.18
576.64	1091.86
576.99	1092.80
577.34	1093.26
577.69	1096.31
578.04	1097.95
578.39	1092.56
578.74	1089.52
579.09	1091.86
579.44	1091.63
579.80	1097.95
580.15	1096.07
580.50	1101.22
580.85	1095.60
581.20	1094.67
581.55	1093.26
581.90	1096.07
582.25	1089.52
582.60	1091.63
582.95	1097.95
583.30	1091.63
583.65	1086.01
584.00	1097.48
584.35	1096.54
584.71	1090.92
585.06	1098.65
585.41	1097.71
585.76	1095.14
586.11	1096.07
586.46	1085.31
586.81	1083.20
587.16	1086.71
587.51	1081.09
587.86	1090.46
588.21	1100.75
588.56	1093.73
588.91	1091.86
589.26	1093.26
589.61	1087.41
589.96	1089.99
590.31	1096.54
590.66	1093.73
591.01	1092.33
591.36	1091.86
591.71	1090.92
592.06	1084.84
592.41	1091.86
592.76	1093.97
593.10	1087.88
593.45	1086.94
593.80	1091.86
594.15	1082.03
594.50	1075.24
594.85	1071.97
595.20	1070.80
595.55	1071.73
595.90	1079.92
596.25	1086.94
596.60	1089.99
596.95	1099.82
597.30	1099.12
597.64	1141.48
597.99	1137.27
598.34	1139.84
598.69	1125.10
599.04	1118.78
599.39	1081.56
599.74	1075.94
600.09	1083.20
600.44	1098.18
600.78	1107.31
601.13	1110.58
601.48	1109.88
601.83	1104.73
602.18	1098.88
602.53	1092.80
602.88	1082.73
603.22	1090.69
603.57	1085.77
603.92	1076.65
604.27	1084.84
604.62	1083.43
604.97	1084.60
605.31	1095.14
605.66	1104.03
606.01	1102.63
606.36	1108.48
606.71	1115.50
607.05	1109.41
607.40	1112.46
607.75	1109.41
608.10	1102.16
608.44	1092.56
608.79	1092.09
609.14	1090.22
609.49	1084.60
609.84	1093.97
610.18	1107.07
610.53	1107.31
610.88	1111.75
611.23	1117.14
611.57	1111.29
611.92	1107.78
612.27	1103.80
612.62	1096.54
612.96	1093.50
613.31	1093.03
613.66	1083.67
614.00	1088.35
614.35	1086.71
614.70	1097.71
615.05	1100.29
615.39	1101.92
615.74	1110.12
616.09	1105.44
616.43	1101.69
616.78	1102.16
617.13	1104.03
617.47	1094.67
617.82	1098.41
618.17	1090.46
618.51	1086.71
618.86	1086.94
619.21	1081.33
619.55	1082.03
619.90	1088.12
620.25	1087.88
620.59	1092.56
620.94	1096.78
621.29	1099.58
621.63	1099.12
621.98	1099.35
622.32	1091.39
622.67	1096.78
623.02	1104.50
623.36	1102.63
623.71	1105.90
624.05	1100.99
624.40	1093.97
624.75	1087.18
625.09	1089.29
625.44	1092.56
625.78	1092.33
626.13	1096.78
626.48	1089.52
626.82	1079.92
627.17	1073.37
627.51	1085.54
627.86	1096.07
628.20	1096.78
628.55	1101.46
628.89	1102.63
629.24	1093.50
629.58	1080.63
629.93	1085.31
630.28	1093.97
630.62	1093.73
630.97	1101.92
631.31	1098.41
631.66	1097.95
632.00	1089.99
632.35	1096.54
632.69	1085.31
633.04	1092.80
633.38	1091.39
633.73	1092.80
634.07	1084.37
634.42	1082.26
634.76	1080.86
635.11	1069.16
635.45	1071.50
635.79	1070.56
636.14	1072.20
636.48	1065.41
636.83	1076.18
637.17	1077.35
637.52	1080.86
637.86	1091.16
638.21	1094.43
638.55	1092.09
638.89	1089.52
639.24	1086.94
639.58	1082.97
639.93	1091.39
640.27	1090.69
640.61	1076.41
640.96	1072.43
641.30	1062.84
641.65	1049.03
641.99	1051.13
642.33	1061.90
642.68	1070.33
643.02	1082.73
643.37	1088.35
643.71	1099.12
644.05	1103.33
644.40	1101.46
644.74	1090.69
645.08	1096.31
645.43	1090.92
645.77	1089.29
646.11	1090.69
646.46	1102.39
646.80	1102.63
647.14	1097.01
647.49	1100.05
647.83	1100.05
648.17	1094.67
648.52	1093.73
648.86	1099.58
649.20	1104.03
649.55	1101.69
649.89	1104.26
650.23	1105.20
650.57	1103.56
650.92	1099.35
651.26	1093.26
651.60	1079.92
651.95	1076.41
652.29	1068.22
652.63	1065.65
652.97	1068.69
653.32	1086.94
653.66	1082.50
654.00	1092.09
654.34	1087.88
654.69	1094.43
655.03	1087.18
655.37	1081.56
655.71	1071.97
656.05	1088.35
656.40	1088.82
656.74	1092.09
657.08	1105.67
657.42	1112.22
657.76	1092.33
658.11	1083.20
658.45	1089.05
658.79	1078.05
659.13	1073.60
659.47	1086.01
659.82	1095.84
660.16	1087.65
660.50	1101.69
660.84	1114.10
661.18	1105.67
661.52	1101.69
661.87	1101.22
662.21	1088.35
662.55	1074.77
662.89	1077.11
663.23	1070.33
663.57	1060.50
663.91	1073.84
664.25	1086.71
664.60	1079.69
664.94	1091.63
665.28	1103.09
665.62	1091.86
665.96	1084.60
666.30	1092.33
666.64	1086.01
666.98	1074.31
667.32	1065.41
667.66	1060.03
668.01	1051.60
668.35	1059.33
668.69	1065.88
669.03	1084.37
669.37	1090.92
669.71	1111.75
670.05	1107.07
670.39	1115.50
670.73	1112.22
671.07	1112.92
671.41	1105.90
671.75	1097.71
672.09	1088.82
672.43	1088.82
672.77	1089.29
673.11	1084.60
673.45	1094.90
673.79	1101.46
674.13	1097.24
674.47	1087.41
674.81	1095.60
675.15	1092.09
675.49	1086.48
675.83	1079.46
676.17	1083.43
676.51	1071.97
676.85	1072.90
677.19	1073.84
677.53	1086.71
677.87	1092.33
678.21	1088.82
678.55	1086.24
678.89	1089.29
679.23	1085.77
679.57	1082.50
679.90	1091.63
680.24	1100.99
680.58	1108.48
680.92	1108.48
681.26	1104.97
681.60	1099.12
681.94	1095.14
682.28	1086.24
682.62	1086.48
682.96	1104.97
683.29	1111.99
683.63	1108.95
683.97	1107.07
684.31	1103.56
684.65	1079.69
684.99	1075.71
685.33	1070.56
685.67	1078.52
686.00	1077.58
686.34	1084.14
686.68	1078.52
687.02	1082.26
687.36	1068.69
687.70	1075.48
688.03	1078.28
688.37	1091.39
688.71	1084.37
689.05	1097.01
689.39	1094.90
689.72	1092.80
690.06	1086.01
690.40	1094.67
690.74	1089.29
691.08	1092.56
691.41	1089.99
691.75	1086.94
692.09	1087.65
692.43	1087.65
692.76	1084.60
693.10	1096.07
693.44	1102.16
693.78	1103.09
694.11	1108.01
694.45	1106.37
694.79	1101.46
695.13	1092.56
695.46	1082.73
695.80	1079.22
696.14	1078.52
696.48	1073.37
696.81	1075.24
697.15	1075.71
697.49	1083.20
697.82	1086.24
698.16	1086.01
698.50	1086.01
698.83	1091.16
699.17	1099.12
699.51	1092.33
699.84	1099.12
700.18	1093.50
700.52	1096.78
700.85	1076.18
701.19	1078.99
701.53	1075.01
701.86	1085.07
702.20	1090.46
702.54	1098.41
702.87	1102.16
703.21	1102.39
703.55	1105.67
703.88	1092.80
704.22	1082.50
704.55	1079.69
704.89	1074.54
705.23	1059.33
705.56	1064.24
705.90	1061.67
706.23	1054.65
706.57	1053.48
706.91	1062.37
707.24	1058.86
707.58	1069.39
707.91	1071.97
708.25	1070.56
708.58	1069.39
708.92	1075.48
709.26	1077.58
709.59	1078.05
709.93	1085.07
710.26	1087.18
710.60	1076.18
710.93	1073.14
711.27	1068.69
711.60	1076.65
711.94	1076.65
712.27	1084.60
712.61	1073.60
712.94	1095.14
713.28	1086.01
713.61	1079.46
713.95	1076.18
714.28	1086.24
714.62	1065.88
714.95	1070.56
715.29	1072.67
715.62	1074.77
715.96	1080.39
716.29	1090.22
716.63	1080.16
716.96	1090.69
717.29	1087.41
717.63	1079.46
717.96	1071.03
718.30	1082.26
718.63	1075.01
718.97	1077.11
719.30	1076.18
719.63	1074.77
719.97	1071.97
720.30	1061.67
720.64	1066.58
720.97	1079.46
721.30	1091.63
721.64	1089.75
721.97	1102.16
722.31	1096.07
722.64	1094.20
722.97	1088.35
723.31	1088.35
723.64	1084.84
723.97	1091.63
724.31	1089.75
724.64	1085.31
724.98	1075.71
725.31	1080.16
725.64	1067.52
725.98	1054.18
726.31	1064.71
726.64	1074.54
726.97	1076.41
727.31	1086.01
727.64	1089.05
727.97	1081.56
728.31	1084.60
728.64	1081.33
728.97	1080.39
729.31	1084.37
729.64	1092.33
729.97	1085.77
730.30	1081.56
730.64	1091.63
730.97	1095.84
731.30	1089.75
731.63	1090.22
731.97	1099.12
732.30	1089.05
732.63	1092.09
732.96	1092.33
733.30	1098.18
733.63	1094.43
733.96	1075.94
734.29	1064.48
734.63	1067.28
734.96	1070.80
735.29	1054.88
735.62	1073.60
735.95	1081.09
736.29	1076.88
736.62	1067.28
736.95	1081.09
737.28	1072.90
737.61	1067.05
737.94	1077.58
738.28	1081.09
738.61	1079.92
738.94	1092.33
739.27	1092.33
739.60	1080.86
739.93	1075.94
740.27	1076.18
740.60	1075.48
740.93	1073.37
741.26	1075.71
741.59	1080.16
741.92	1084.60
742.25	1075.71
742.58	1084.14
742.91	1082.26
743.25	1072.90
743.58	1070.80
743.91	1079.22
744.24	1081.80
744.57	1073.60
744.90	1090.46
745.23	1089.52
745.56	1082.97
745.89	1082.73
746.22	1088.82
746.55	1080.63
746.88	1078.99
747.21	1078.52
747.54	1067.52
747.87	1075.94
748.20	1072.67
748.53	1070.33
748.87	1071.50
749.20	1074.77
749.53	1069.39
749.86	1076.88
750.19	1079.92
750.52	1087.65
750.85	1085.31
751.18	1090.92
751.51	1091.39
751.84	1087.41
752.16	1078.05
752.49	1079.22
752.82	1073.14
753.15	1073.60
753.48	1075.71
753.81	1082.97
754.14	1084.37
754.47	1082.73
754.80	1079.69
755.13	1077.11
755.46	1068.22
755.79	1070.09
756.12	1066.35
756.45	1071.03
756.78	1072.20
757.11	1072.20
757.43	1079.22
757.76	1092.09
758.09	1086.71
758.42	1087.41
758.75	1098.18
759.08	1090.92
759.41	1083.43
759.74	1079.46
760.07	1083.43
760.39	1075.71
760.72	1071.03
761.05	1062.37
761.38	1069.86
761.71	1065.65
762.04	1068.45
762.36	1071.73
762.69	1078.52
763.02	1076.88
763.35	1084.37
763.68	1086.48
764.01	1084.14
764.33	1086.94
764.66	1089.75
