SpectraSuite Data File
++++++++++++++++++++++++++++++++++++
Date: Mon Aug 26 10:24:52 PDT 2019
User: corrico
Dark Spectrum Present: No
Reference Spectrum Present: No
Number of Sampled Component Spectra: 1
Spectrometers: USB2+H06089
Integration Time (usec): 10000 (USB2+H06089)
Spectra Averaged: 2 (USB2+H06089)
Boxcar Smoothing: 2 (USB2+H06089)
Correct for Electrical Dark: No (USB2+H06089)
Strobe/Lamp Enabled: No (USB2+H06089)
Correct for Detector Non-linearity: No (USB2+H06089)
Correct for Stray Light: No (USB2+H06089)
Number of Pixels in Processed Spectrum: 2048
>>>>>Begin Processed Spectral Data<<<<<
339.70	1016.96
340.07	1016.96
340.45	995.43
340.82	974.83
341.19	944.41
341.57	923.34
341.94	904.38
342.31	889.17
342.69	883.55
343.06	884.96
343.43	876.53
343.81	879.34
344.18	881.21
344.55	881.68
344.93	891.51
345.30	907.43
345.67	919.60
346.04	929.19
346.42	938.55
346.79	937.85
347.16	945.11
347.54	961.02
347.91	977.17
348.28	998.71
348.65	1022.81
349.03	1036.39
349.40	1034.05
349.77	1034.05
350.14	1029.84
350.52	1035.92
350.89	1038.26
351.26	1047.16
351.63	1069.62
352.01	1082.26
352.38	1091.39
352.75	1092.80
353.12	1100.52
353.50	1093.50
353.87	1097.01
354.24	1096.07
354.61	1101.46
354.98	1102.86
355.36	1108.01
355.73	1108.24
356.10	1103.09
356.47	1097.01
356.84	1093.97
357.22	1094.20
357.59	1093.26
357.96	1098.41
358.33	1097.48
358.70	1097.24
359.08	1097.48
359.45	1096.31
359.82	1080.39
360.19	1079.69
360.56	1076.41
360.94	1064.24
361.31	1062.60
361.68	1073.84
362.05	1083.90
362.42	1085.77
362.79	1092.56
363.16	1088.82
363.54	1100.29
363.91	1097.71
364.28	1091.63
364.65	1087.65
365.02	1094.67
365.39	1072.67
365.76	1071.03
366.14	1081.09
366.51	1078.99
366.88	1083.90
367.25	1091.39
367.62	1089.05
367.99	1078.52
368.36	1086.01
368.73	1083.20
369.10	1083.43
369.48	1089.52
369.85	1096.54
370.22	1100.29
370.59	1099.58
370.96	1094.43
371.33	1096.54
371.70	1089.29
372.07	1081.33
372.44	1078.52
372.81	1078.75
373.18	1076.88
373.55	1080.63
373.93	1081.33
374.30	1092.09
374.67	1100.75
375.04	1095.84
375.41	1092.80
375.78	1092.33
376.15	1075.94
376.52	1080.39
376.89	1083.43
377.26	1089.05
377.63	1089.52
378.00	1097.48
378.37	1088.82
378.74	1089.99
379.11	1089.75
379.48	1090.22
379.85	1096.31
380.22	1095.60
380.59	1102.16
380.96	1103.09
381.33	1097.71
381.70	1089.52
382.07	1096.07
382.44	1096.07
382.81	1099.35
383.18	1103.56
383.55	1103.56
383.92	1100.05
384.29	1100.05
384.66	1097.01
385.03	1100.29
385.40	1102.16
385.77	1109.65
386.14	1103.56
386.51	1097.01
386.88	1097.01
387.25	1094.67
387.62	1089.99
387.99	1086.01
388.36	1085.77
388.73	1082.03
389.10	1084.60
389.46	1085.07
389.83	1081.33
390.20	1093.73
390.57	1102.16
390.94	1098.41
391.31	1104.50
391.68	1111.05
392.05	1104.73
392.42	1096.78
392.79	1111.05
393.16	1115.27
393.53	1119.95
393.89	1119.24
394.26	1121.12
394.63	1116.44
395.00	1105.20
395.37	1097.95
395.74	1105.90
396.11	1119.24
396.48	1115.97
396.84	1121.58
397.21	1130.24
397.58	1140.07
397.95	1132.59
398.32	1139.61
398.69	1132.12
399.06	1134.69
399.42	1137.27
399.79	1144.52
400.16	1144.05
400.53	1158.80
400.90	1152.48
401.27	1145.93
401.64	1149.91
402.00	1146.86
402.37	1145.46
402.74	1153.42
403.11	1163.48
403.48	1166.52
403.84	1177.52
404.21	1185.72
404.58	1192.27
404.95	1208.89
405.32	1224.33
405.68	1230.89
406.05	1232.99
406.42	1250.78
406.79	1256.17
407.16	1256.40
407.52	1272.78
407.89	1291.27
408.26	1302.74
408.63	1324.28
408.99	1359.85
409.36	1385.36
409.73	1425.85
410.10	1464.94
410.47	1487.18
410.83	1504.96
411.20	1550.60
411.57	1581.73
411.94	1614.27
412.30	1655.23
412.67	1712.34
413.04	1744.87
413.40	1795.42
413.77	1856.04
414.14	1908.00
414.51	1959.73
414.87	2033.69
415.24	2107.65
415.61	2179.27
415.97	2257.45
416.34	2338.90
416.71	2443.29
417.08	2547.21
417.44	2649.25
417.81	2777.51
418.18	2901.33
418.54	3026.55
418.91	3162.77
419.28	3314.43
419.64	3474.53
420.01	3652.64
420.38	3815.54
420.74	3982.19
421.11	4172.47
421.48	4356.67
421.84	4543.45
422.21	4753.39
422.58	5006.64
422.94	5281.65
423.31	5550.58
423.68	5860.94
424.04	6153.50
424.41	6437.41
424.77	6726.47
425.14	7008.27
425.51	7297.32
425.87	7660.11
426.24	8016.57
426.61	8388.48
426.97	8893.80
427.34	9354.89
427.70	9842.19
428.07	10383.32
428.44	10937.32
428.80	11403.56
429.17	11945.39
429.53	12468.97
429.90	13031.40
430.27	13577.45
430.63	14156.26
431.00	14835.49
431.36	15546.07
431.73	16174.51
432.09	16837.81
432.46	17541.38
432.83	18132.36
433.19	18670.22
433.56	19355.29
433.92	20046.92
434.29	20614.50
434.65	21305.66
435.02	21999.40
435.38	22617.30
435.75	23101.09
436.11	23801.38
436.48	24249.82
436.84	24698.97
437.21	25158.89
437.57	25682.00
437.94	26040.33
438.30	26465.37
438.67	26783.92
439.03	26936.29
439.40	27042.32
439.76	26976.55
440.13	26875.67
440.49	26841.73
440.86	26597.61
441.22	26327.52
441.59	26024.88
441.95	25680.83
442.32	25118.63
442.68	24718.16
443.05	24216.59
443.41	23687.39
443.78	23080.72
444.14	22597.17
444.51	21968.50
444.87	21501.80
445.24	21036.27
445.60	20620.59
445.96	20011.58
446.33	19547.69
446.69	18971.45
447.06	18457.70
447.42	17899.25
447.79	17439.80
448.15	17037.23
448.51	16612.89
448.88	16203.53
449.24	15759.53
449.61	15446.83
449.97	15035.60
450.33	14621.79
450.70	14165.16
451.06	13809.86
451.43	13337.78
451.79	13000.97
452.15	12675.64
452.52	12396.65
452.88	12124.44
453.24	11865.35
453.61	11577.69
453.97	11281.15
454.34	10999.11
454.70	10698.59
455.06	10445.58
455.43	10123.29
455.79	9765.89
456.15	9468.40
456.52	9161.32
456.88	8913.23
457.24	8637.28
457.61	8430.14
457.97	8183.22
458.33	7947.05
458.70	7667.83
459.06	7426.75
459.42	7207.91
459.79	6948.82
460.15	6723.42
460.51	6505.75
460.88	6307.98
461.24	6113.48
461.60	5970.94
461.96	5810.38
462.33	5646.78
462.69	5474.51
463.05	5321.91
463.42	5175.39
463.78	5041.28
464.14	4903.66
464.50	4814.01
464.87	4695.35
465.23	4572.47
465.59	4474.40
465.95	4362.52
466.32	4243.86
466.68	4143.68
467.04	4055.21
467.40	3958.08
467.77	3906.82
468.13	3835.44
468.49	3760.07
468.85	3697.58
469.22	3625.26
469.58	3541.70
469.94	3487.16
470.30	3444.10
470.66	3374.58
471.03	3309.99
471.39	3248.43
471.75	3166.74
472.11	3095.59
472.47	3061.42
472.84	3007.35
473.20	2959.37
473.56	2941.12
473.92	2892.20
474.28	2815.43
474.65	2771.43
475.01	2725.32
475.37	2666.57
475.73	2614.85
476.09	2594.25
476.45	2541.35
476.81	2507.42
477.18	2471.37
477.54	2443.05
477.90	2398.58
478.26	2385.24
478.62	2351.07
478.98	2304.73
479.34	2268.45
479.71	2248.55
480.07	2226.55
480.43	2205.25
480.79	2166.63
481.15	2146.74
481.51	2123.10
481.87	2084.48
482.23	2051.01
482.59	2036.97
482.96	2011.22
483.32	1977.75
483.68	1962.77
484.04	1942.18
484.40	1940.07
484.76	1922.75
485.12	1898.64
485.48	1869.39
485.84	1841.07
486.20	1808.06
486.56	1789.57
486.92	1776.00
487.28	1758.91
487.64	1760.08
488.00	1738.08
488.37	1716.31
488.73	1695.95
489.09	1679.33
489.45	1654.52
489.81	1638.38
490.17	1627.84
490.53	1626.44
490.89	1619.42
491.25	1606.54
491.61	1598.35
491.97	1579.16
492.33	1568.39
492.69	1565.58
493.05	1552.01
493.41	1550.14
493.77	1536.09
494.13	1516.67
494.49	1496.07
494.85	1483.67
495.21	1457.45
495.57	1454.17
495.93	1439.90
496.29	1419.77
496.64	1407.83
497.00	1410.41
497.36	1393.79
497.72	1376.94
498.08	1370.38
498.44	1362.43
498.80	1354.70
499.16	1355.87
499.52	1352.36
499.88	1343.00
500.24	1343.47
500.60	1333.64
500.96	1327.55
501.32	1331.76
501.68	1319.13
502.03	1309.76
502.39	1295.72
502.75	1290.57
503.11	1268.10
503.47	1280.04
503.83	1276.53
504.19	1279.10
504.55	1262.72
504.91	1265.76
505.26	1261.31
505.62	1244.70
505.98	1234.63
506.34	1231.36
506.70	1227.85
507.06	1214.27
507.42	1216.61
507.78	1221.06
508.13	1216.84
508.49	1209.82
508.85	1203.50
509.21	1200.69
509.57	1191.57
509.93	1196.95
510.28	1195.31
510.64	1193.44
511.00	1186.89
511.36	1180.57
511.72	1171.20
512.07	1174.01
512.43	1185.01
512.79	1193.21
513.15	1195.08
513.51	1198.12
513.86	1193.21
514.22	1187.12
514.58	1181.97
514.94	1185.72
515.30	1180.10
515.65	1181.50
516.01	1174.48
516.37	1170.74
516.73	1159.50
517.08	1155.99
517.44	1144.29
517.80	1143.35
518.16	1139.84
518.51	1139.14
518.87	1146.63
519.23	1154.59
519.59	1155.52
519.94	1161.14
520.30	1166.52
520.66	1155.29
521.01	1154.35
521.37	1157.39
521.73	1157.39
522.09	1152.95
522.44	1161.37
522.80	1151.78
523.16	1143.82
523.51	1137.73
523.87	1138.20
524.23	1138.67
524.58	1138.90
524.94	1135.39
525.30	1133.52
525.65	1130.24
526.01	1122.52
526.37	1129.54
526.72	1126.97
527.08	1117.61
527.44	1116.44
527.79	1119.24
528.15	1119.24
528.51	1134.69
528.86	1148.27
529.22	1152.01
529.58	1148.50
529.93	1139.14
530.29	1132.82
530.65	1123.22
531.00	1128.84
531.36	1129.07
531.71	1134.93
532.07	1125.80
532.43	1121.35
532.78	1117.14
533.14	1115.73
533.49	1111.29
533.85	1107.54
534.21	1111.29
534.56	1107.31
534.92	1108.48
535.27	1105.44
535.63	1111.52
535.98	1110.58
536.34	1111.99
536.69	1103.33
537.05	1109.41
537.41	1108.95
537.76	1111.29
538.12	1103.56
538.47	1102.86
538.83	1101.46
539.18	1098.88
539.54	1103.80
539.89	1107.78
540.25	1106.61
540.60	1105.67
540.96	1110.12
541.31	1100.05
541.67	1092.09
542.02	1098.88
542.38	1097.24
542.73	1090.46
543.09	1093.03
543.44	1098.65
543.80	1101.22
544.15	1101.69
544.51	1113.16
544.86	1126.50
545.22	1131.88
545.57	1134.93
545.93	1131.65
546.28	1127.67
546.64	1110.82
546.99	1108.71
547.35	1109.65
547.70	1117.61
548.05	1115.03
548.41	1117.14
548.76	1119.01
549.12	1116.20
549.47	1115.50
549.83	1117.61
550.18	1117.61
550.53	1115.50
550.89	1111.05
551.24	1111.99
551.60	1110.82
551.95	1116.90
552.30	1119.71
552.66	1120.65
553.01	1118.31
553.37	1122.29
553.72	1110.12
554.07	1099.58
554.43	1091.86
554.78	1087.41
555.13	1087.18
555.49	1099.82
555.84	1112.46
556.19	1113.86
556.55	1117.84
556.90	1105.44
557.26	1100.29
557.61	1094.20
557.96	1102.16
558.32	1100.05
558.67	1100.52
559.02	1102.39
559.37	1104.03
559.73	1109.41
560.08	1109.65
560.43	1111.75
560.79	1110.58
561.14	1101.22
561.49	1087.41
561.85	1087.65
562.20	1093.50
562.55	1097.95
562.90	1110.35
563.26	1116.20
563.61	1114.56
563.96	1118.07
564.32	1111.29
564.67	1104.26
565.02	1106.61
565.37	1107.31
565.73	1093.26
566.08	1088.12
566.43	1087.65
566.78	1083.20
567.14	1081.80
567.49	1088.82
567.84	1095.60
568.19	1100.99
568.54	1107.07
568.90	1109.65
569.25	1104.50
569.60	1097.48
569.95	1086.71
570.31	1085.54
570.66	1083.90
571.01	1087.88
571.36	1094.90
571.71	1103.09
572.06	1098.18
572.42	1096.07
572.77	1092.56
573.12	1086.71
573.47	1076.41
573.82	1071.50
574.18	1080.16
574.53	1083.43
574.88	1086.24
575.23	1091.63
575.58	1093.73
575.93	1089.52
576.28	1087.65
576.64	1089.75
576.99	1092.33
577.34	1093.50
577.69	1089.52
578.04	1095.60
578.39	1092.80
578.74	1104.73
579.09	1104.97
579.44	1104.26
579.80	1104.26
580.15	1107.31
580.50	1096.31
580.85	1096.54
581.20	1096.78
581.55	1084.84
581.90	1090.69
582.25	1095.60
582.60	1102.86
582.95	1106.37
583.30	1111.52
583.65	1099.35
584.00	1094.20
584.35	1090.46
584.71	1094.90
585.06	1100.52
585.41	1112.92
585.76	1115.03
586.11	1108.71
586.46	1101.69
586.81	1091.39
587.16	1086.71
587.51	1084.84
587.86	1088.12
588.21	1091.16
588.56	1096.31
588.91	1093.73
589.26	1086.01
589.61	1087.65
589.96	1086.24
590.31	1089.05
590.66	1097.48
591.01	1099.82
591.36	1096.31
591.71	1093.26
592.06	1082.03
592.41	1070.33
592.76	1075.48
593.10	1078.75
593.45	1077.82
593.80	1084.60
594.15	1091.86
594.50	1091.63
594.85	1088.82
595.20	1089.05
595.55	1086.24
595.90	1075.94
596.25	1066.58
596.60	1064.48
596.95	1075.24
597.30	1077.35
597.64	1141.25
597.99	1152.48
598.34	1163.01
598.69	1154.59
599.04	1162.31
599.39	1109.88
599.74	1102.86
600.09	1085.07
600.44	1079.69
600.78	1078.99
601.13	1073.60
601.48	1072.43
601.83	1085.31
602.18	1082.26
602.53	1082.73
602.88	1084.37
603.22	1086.94
603.57	1093.26
603.92	1100.52
604.27	1095.14
604.62	1099.82
604.97	1100.29
605.31	1094.43
605.66	1106.84
606.01	1110.35
606.36	1102.39
606.71	1107.07
607.05	1108.01
607.40	1096.54
607.75	1100.99
608.10	1097.24
608.44	1101.46
608.79	1095.60
609.14	1097.24
609.49	1091.39
609.84	1100.29
610.18	1092.80
610.53	1097.95
610.88	1097.95
611.23	1092.33
611.57	1091.63
611.92	1083.43
612.27	1081.56
612.62	1074.07
612.96	1071.26
613.31	1071.26
613.66	1085.07
614.00	1079.69
614.35	1078.75
614.70	1082.03
615.05	1081.80
615.39	1080.39
615.74	1086.24
616.09	1097.48
616.43	1105.90
616.78	1096.07
617.13	1098.18
617.47	1097.95
617.82	1086.94
618.17	1082.03
618.51	1097.24
618.86	1093.26
619.21	1089.52
619.55	1101.92
619.90	1097.71
620.25	1087.41
620.59	1093.50
620.94	1100.99
621.29	1097.95
621.63	1105.90
621.98	1110.12
622.32	1093.50
622.67	1086.01
623.02	1085.31
623.36	1083.67
623.71	1093.26
624.05	1100.99
624.40	1099.12
624.75	1099.82
625.09	1105.67
625.44	1086.01
625.78	1088.35
626.13	1090.46
626.48	1087.41
626.82	1081.33
627.17	1093.73
627.51	1095.37
627.86	1091.86
628.20	1092.09
628.55	1093.26
628.89	1102.39
629.24	1098.41
629.58	1100.99
629.93	1096.31
630.28	1097.01
630.62	1080.39
630.97	1081.80
631.31	1084.84
631.66	1097.24
632.00	1098.88
632.35	1103.56
632.69	1101.46
633.04	1098.65
633.38	1085.31
633.73	1081.33
634.07	1085.07
634.42	1079.92
634.76	1086.01
635.11	1093.03
635.45	1094.43
635.79	1093.97
636.14	1108.24
636.48	1107.07
636.83	1104.26
637.17	1101.46
637.52	1096.07
637.86	1095.60
638.21	1095.37
638.55	1099.82
638.89	1096.78
639.24	1098.18
639.58	1099.58
639.93	1097.71
640.27	1100.29
640.61	1100.29
640.96	1107.31
641.30	1091.39
641.65	1092.33
641.99	1085.77
642.33	1086.48
642.68	1086.48
643.02	1082.03
643.37	1076.88
643.71	1075.24
644.05	1067.99
644.40	1054.18
644.74	1069.39
645.08	1074.31
645.43	1072.67
645.77	1084.37
646.11	1088.58
646.46	1082.26
646.80	1086.94
647.14	1081.80
647.49	1082.03
647.83	1087.18
648.17	1091.86
648.52	1089.99
648.86	1095.84
649.20	1088.35
649.55	1085.31
649.89	1083.20
650.23	1070.09
650.57	1071.97
650.92	1089.05
651.26	1092.33
651.60	1091.86
651.95	1102.39
652.29	1104.50
652.63	1091.86
652.97	1089.52
653.32	1083.20
653.66	1082.73
654.00	1086.48
654.34	1082.73
654.69	1085.54
655.03	1089.75
655.37	1089.29
655.71	1097.01
656.05	1103.09
656.40	1084.84
656.74	1087.65
657.08	1086.24
657.42	1074.54
657.76	1075.71
658.11	1089.29
658.45	1091.39
658.79	1087.65
659.13	1088.12
659.47	1093.73
659.82	1105.67
660.16	1099.58
660.50	1101.22
660.84	1094.90
661.18	1086.01
661.52	1065.18
661.87	1060.26
662.21	1054.18
662.55	1062.14
662.89	1056.52
663.23	1070.09
663.57	1077.11
663.91	1085.07
664.25	1074.54
664.60	1075.24
664.94	1074.77
665.28	1069.16
665.62	1068.69
665.96	1077.58
666.30	1085.54
666.64	1073.37
666.98	1078.99
667.32	1085.07
667.66	1077.11
668.01	1080.39
668.35	1090.69
668.69	1091.86
669.03	1089.52
669.37	1098.88
669.71	1093.03
670.05	1095.60
670.39	1088.82
670.73	1081.33
671.07	1067.52
671.41	1065.88
671.75	1058.86
672.09	1059.79
672.43	1065.41
672.77	1082.26
673.11	1083.90
673.45	1083.90
673.79	1091.39
674.13	1083.20
674.47	1073.84
674.81	1079.22
675.15	1082.50
675.49	1073.84
675.83	1079.69
676.17	1074.07
676.51	1067.99
676.85	1074.77
677.19	1092.80
677.53	1095.60
677.87	1099.58
678.21	1093.97
678.55	1089.29
678.89	1076.88
679.23	1078.28
679.57	1084.37
679.90	1094.67
680.24	1084.14
680.58	1085.31
680.92	1078.75
681.26	1088.35
681.60	1089.52
681.94	1097.01
682.28	1101.46
682.62	1109.65
682.96	1103.33
683.29	1098.65
683.63	1084.60
683.97	1076.41
684.31	1072.20
684.65	1070.09
684.99	1062.60
685.33	1082.97
685.67	1086.48
686.00	1087.65
686.34	1082.97
686.68	1093.26
687.02	1091.16
687.36	1089.29
687.70	1081.80
688.03	1085.54
688.37	1083.43
688.71	1079.22
689.05	1081.09
689.39	1078.28
689.72	1088.12
690.06	1082.73
690.40	1081.56
690.74	1084.14
691.08	1105.67
691.41	1091.63
691.75	1094.43
692.09	1100.05
692.43	1097.01
692.76	1075.48
693.10	1085.54
693.44	1085.54
693.78	1082.03
694.11	1087.88
694.45	1095.84
694.79	1092.80
695.13	1093.26
695.46	1083.90
695.80	1074.07
696.14	1077.82
696.48	1082.03
696.81	1086.71
697.15	1092.09
697.49	1100.99
697.82	1097.01
698.16	1080.86
698.50	1083.67
698.83	1087.18
699.17	1084.60
699.51	1084.60
699.84	1088.82
700.18	1090.92
700.52	1089.52
700.85	1089.05
701.19	1097.95
701.53	1103.09
701.86	1084.60
702.20	1087.88
702.54	1088.58
702.87	1080.39
703.21	1082.97
703.55	1090.22
703.88	1086.94
704.22	1083.43
704.55	1080.39
704.89	1082.50
705.23	1081.33
705.56	1079.92
705.90	1076.41
706.23	1067.05
706.57	1063.31
706.91	1065.41
707.24	1070.56
707.58	1076.88
707.91	1089.52
708.25	1083.20
708.58	1087.88
708.92	1087.41
709.26	1085.77
709.59	1089.75
709.93	1098.41
710.26	1096.07
710.60	1096.31
710.93	1100.29
711.27	1097.01
711.60	1088.12
711.94	1089.99
712.27	1091.16
712.61	1090.46
712.94	1082.50
713.28	1078.75
713.61	1068.22
713.95	1064.94
714.28	1051.60
714.62	1052.07
714.95	1067.28
715.29	1075.71
715.62	1072.43
715.96	1084.14
716.29	1086.94
716.63	1075.71
716.96	1082.73
717.29	1081.80
717.63	1077.58
717.96	1090.22
718.30	1096.07
718.63	1088.82
718.97	1091.16
719.30	1086.01
719.63	1080.63
719.97	1082.73
720.30	1079.46
720.64	1083.20
720.97	1096.31
721.30	1086.01
721.64	1079.69
721.97	1080.16
722.31	1081.09
722.64	1084.84
722.97	1088.35
723.31	1090.46
723.64	1092.80
723.97	1087.18
724.31	1078.52
724.64	1083.20
724.98	1077.82
725.31	1081.33
725.64	1084.84
725.98	1084.37
726.31	1085.31
726.64	1081.33
726.97	1068.69
727.31	1058.86
727.64	1054.18
727.97	1055.82
728.31	1065.88
728.64	1075.24
728.97	1077.11
729.31	1078.99
729.64	1079.92
729.97	1082.03
730.30	1078.75
730.64	1095.60
730.97	1097.71
731.30	1097.71
731.63	1084.37
731.97	1087.18
732.30	1068.92
732.63	1064.48
732.96	1049.03
733.30	1059.56
733.63	1053.94
733.96	1057.69
734.29	1060.50
734.63	1063.07
734.96	1057.45
735.29	1062.60
735.62	1070.56
735.95	1066.35
736.29	1075.71
736.62	1085.54
736.95	1090.22
737.28	1088.82
737.61	1097.48
737.94	1089.52
738.28	1076.41
738.61	1072.90
738.94	1075.48
739.27	1079.22
739.60	1091.39
739.93	1107.54
740.27	1103.56
740.60	1097.01
740.93	1087.65
741.26	1071.26
741.59	1060.50
741.92	1062.37
742.25	1064.48
742.58	1062.37
742.91	1067.05
743.25	1069.62
743.58	1074.77
743.91	1075.48
744.24	1080.63
744.57	1086.24
744.90	1086.01
745.23	1079.69
745.56	1081.80
745.89	1089.05
746.22	1091.39
746.55	1090.92
746.88	1096.07
747.21	1094.20
747.54	1093.50
747.87	1094.43
748.20	1099.58
748.53	1094.43
748.87	1099.35
749.20	1092.56
749.53	1085.54
749.86	1085.77
750.19	1085.31
750.52	1077.35
750.85	1076.41
751.18	1078.28
751.51	1073.14
751.84	1080.63
752.16	1075.24
752.49	1080.16
752.82	1085.77
753.15	1080.39
753.48	1076.88
753.81	1084.84
754.14	1086.94
754.47	1077.82
754.80	1082.50
755.13	1076.41
755.46	1070.80
755.79	1064.48
756.12	1067.05
756.45	1071.03
756.78	1072.67
757.11	1079.69
757.43	1078.99
757.76	1083.67
758.09	1085.07
758.42	1081.33
758.75	1079.46
759.08	1079.69
759.41	1078.99
759.74	1068.92
760.07	1075.48
760.39	1078.28
760.72	1085.31
761.05	1090.69
761.38	1104.03
761.71	1101.92
762.04	1090.69
762.36	1088.58
762.69	1083.90
763.02	1069.16
763.35	1072.67
763.68	1077.11
764.01	1068.92
764.33	1063.07
764.66	1073.14
