SpectraSuite Data File
++++++++++++++++++++++++++++++++++++
Date: Mon Aug 26 10:24:54 PDT 2019
User: corrico
Dark Spectrum Present: No
Reference Spectrum Present: No
Number of Sampled Component Spectra: 1
Spectrometers: USB2+H06089
Integration Time (usec): 10000 (USB2+H06089)
Spectra Averaged: 2 (USB2+H06089)
Boxcar Smoothing: 2 (USB2+H06089)
Correct for Electrical Dark: No (USB2+H06089)
Strobe/Lamp Enabled: No (USB2+H06089)
Correct for Detector Non-linearity: No (USB2+H06089)
Correct for Stray Light: No (USB2+H06089)
Number of Pixels in Processed Spectrum: 2048
>>>>>Begin Processed Spectral Data<<<<<
339.70	1028.67
340.07	1028.67
340.45	990.51
340.82	967.58
341.19	942.07
341.57	924.98
341.94	911.87
342.31	913.51
342.69	913.51
343.06	907.89
343.43	898.06
343.81	894.55
344.18	896.89
344.55	891.74
344.93	901.11
345.30	910.23
345.67	925.21
346.04	931.77
346.42	947.45
346.79	963.13
347.16	976.71
347.54	987.71
347.91	1002.69
348.28	1019.54
348.65	1024.92
349.03	1021.64
349.40	1025.39
349.77	1021.88
350.14	1034.28
350.52	1036.86
350.89	1058.39
351.26	1069.86
351.63	1083.43
352.01	1076.18
352.38	1077.35
352.75	1078.99
353.12	1083.90
353.50	1078.52
353.87	1089.05
354.24	1095.84
354.61	1086.24
354.98	1085.54
355.36	1083.90
355.73	1073.60
356.10	1081.09
356.47	1087.18
356.84	1087.18
357.22	1087.18
357.59	1098.65
357.96	1099.35
358.33	1102.63
358.70	1109.18
359.08	1121.58
359.45	1113.63
359.82	1104.03
360.19	1097.24
360.56	1083.43
360.94	1079.46
361.31	1078.52
361.68	1079.22
362.05	1081.33
362.42	1088.58
362.79	1085.07
363.16	1083.20
363.54	1084.84
363.91	1089.75
364.28	1086.24
364.65	1080.16
365.02	1082.97
365.39	1091.39
365.76	1081.80
366.14	1079.46
366.51	1093.97
366.88	1086.48
367.25	1067.52
367.62	1070.80
367.99	1075.48
368.36	1065.88
368.73	1075.94
369.10	1093.73
369.48	1095.84
369.85	1089.52
370.22	1091.16
370.59	1087.88
370.96	1085.31
371.33	1084.60
371.70	1100.05
372.07	1097.01
372.44	1098.41
372.81	1084.60
373.18	1084.84
373.55	1072.67
373.93	1075.71
374.30	1067.52
374.67	1071.50
375.04	1065.65
375.41	1060.50
375.78	1060.96
376.15	1063.07
376.52	1060.50
376.89	1060.26
377.26	1062.60
377.63	1068.92
378.00	1084.14
378.37	1093.26
378.74	1103.09
379.11	1099.35
379.48	1090.22
379.85	1084.60
380.22	1082.97
380.59	1083.20
380.96	1085.77
381.33	1091.16
381.70	1089.99
382.07	1099.58
382.44	1093.73
382.81	1100.05
383.18	1103.56
383.55	1101.92
383.92	1096.31
384.29	1096.54
384.66	1091.86
385.03	1085.77
385.40	1088.12
385.77	1093.97
386.14	1091.63
386.51	1102.39
386.88	1113.39
387.25	1105.90
387.62	1105.90
387.99	1112.22
388.36	1109.65
388.73	1106.14
389.10	1110.58
389.46	1108.01
389.83	1110.82
390.20	1107.31
390.57	1108.01
390.94	1106.84
391.31	1105.44
391.68	1103.09
392.05	1110.12
392.42	1104.97
392.79	1111.52
393.16	1103.33
393.53	1100.99
393.89	1099.35
394.26	1102.63
394.63	1099.82
395.00	1105.67
395.37	1115.50
395.74	1115.97
396.11	1122.29
396.48	1120.18
396.84	1127.90
397.21	1120.41
397.58	1116.20
397.95	1113.86
398.32	1120.88
398.69	1113.16
399.06	1111.75
399.42	1121.82
399.79	1127.44
400.16	1126.73
400.53	1143.35
400.90	1158.57
401.27	1157.63
401.64	1156.46
402.00	1163.48
402.37	1166.76
402.74	1171.20
403.11	1180.57
403.48	1186.42
403.84	1197.18
404.21	1194.14
404.58	1188.99
404.95	1190.16
405.32	1196.72
405.68	1195.08
406.05	1208.18
406.42	1221.99
406.79	1237.44
407.16	1245.16
407.52	1262.02
407.89	1277.46
408.26	1294.78
408.63	1304.15
408.99	1332.47
409.36	1358.68
409.73	1377.64
410.10	1408.77
410.47	1447.39
410.83	1474.07
411.20	1493.73
411.57	1524.86
411.94	1559.97
412.30	1593.20
412.67	1636.03
413.04	1687.53
413.40	1730.83
413.77	1776.93
414.14	1838.72
414.51	1910.35
414.87	1972.37
415.24	2034.16
415.61	2110.46
415.97	2179.74
416.34	2239.42
416.71	2325.56
417.08	2413.09
417.44	2504.14
417.81	2610.17
418.18	2720.40
418.54	2849.84
418.91	2981.84
419.28	3119.23
419.64	3234.62
420.01	3388.63
420.38	3524.85
420.74	3700.86
421.11	3870.54
421.48	4065.04
421.84	4254.63
422.21	4454.27
422.58	4682.94
422.94	4924.49
423.31	5155.03
423.68	5410.15
424.04	5661.99
424.41	5904.00
424.77	6152.33
425.14	6430.86
425.51	6711.02
425.87	7061.63
426.24	7402.65
426.61	7782.52
426.97	8225.58
427.34	8641.26
427.70	9047.34
428.07	9481.98
428.44	9939.79
428.80	10362.49
429.17	10889.11
429.53	11385.77
429.90	11940.95
430.27	12412.33
430.63	12903.14
431.00	13455.04
431.36	14112.96
431.73	14703.95
432.09	15335.66
432.46	16059.12
432.83	16660.64
433.19	17136.70
433.56	17742.43
433.92	18386.31
434.29	18917.15
434.65	19557.75
435.02	20171.44
435.38	20727.32
435.75	21232.40
436.11	21830.88
436.48	22236.73
436.84	22817.88
437.21	23304.95
437.57	23696.29
437.94	24015.77
438.30	24412.26
438.67	24520.39
439.03	24613.78
439.40	24731.27
439.76	24676.27
440.13	24565.56
440.49	24546.60
440.86	24307.40
441.22	24079.67
441.59	23754.57
441.95	23410.04
442.32	22904.01
442.68	22526.95
443.05	22081.55
443.41	21691.15
443.78	21123.33
444.14	20629.01
444.51	20039.43
444.87	19632.65
445.24	19166.18
445.60	18749.10
445.96	18229.73
446.33	17831.61
446.69	17193.81
447.06	16695.28
447.42	16229.27
447.79	15812.19
448.15	15416.17
448.51	15007.98
448.88	14649.18
449.24	14237.48
449.61	13974.87
449.97	13629.88
450.33	13321.16
450.70	12913.20
451.06	12611.04
451.43	12203.79
451.79	11874.47
452.15	11588.69
452.52	11324.45
452.88	11081.50
453.24	10860.55
453.61	10643.35
453.97	10394.55
454.34	10127.26
454.70	9854.59
455.06	9590.35
455.43	9262.44
455.79	8934.29
456.15	8657.41
456.52	8365.78
456.88	8131.96
457.24	7893.46
457.61	7727.75
457.97	7523.18
458.33	7304.11
458.70	7074.97
459.06	6855.20
459.42	6659.53
459.79	6442.32
460.15	6239.17
460.51	6014.01
460.88	5812.02
461.24	5610.03
461.60	5448.53
461.96	5316.99
462.33	5183.35
462.69	5050.17
463.05	4884.46
463.42	4775.40
463.78	4622.79
464.14	4501.32
464.50	4414.25
464.87	4347.08
465.23	4233.09
465.59	4156.56
465.95	4062.94
466.32	3976.10
466.68	3871.48
467.04	3781.37
467.40	3680.73
467.77	3611.68
468.13	3538.89
468.49	3473.82
468.85	3408.76
469.22	3343.22
469.58	3291.03
469.94	3233.68
470.30	3160.19
470.66	3131.40
471.03	3084.83
471.39	3027.72
471.75	2959.61
472.11	2910.92
472.47	2840.71
472.84	2808.88
473.20	2765.11
473.56	2731.64
473.92	2693.02
474.28	2661.42
474.65	2607.12
475.01	2570.84
475.37	2522.63
475.73	2485.65
476.09	2436.73
476.45	2401.16
476.81	2363.47
477.18	2326.49
477.54	2292.09
477.90	2273.83
478.26	2240.13
478.62	2202.21
478.98	2169.91
479.34	2152.36
479.71	2128.25
480.07	2113.50
480.43	2092.91
480.79	2083.54
481.15	2061.31
481.51	2044.69
481.87	2023.16
482.23	1986.88
482.59	1973.07
482.96	1942.41
483.32	1909.88
483.68	1892.32
484.04	1880.39
484.40	1862.36
484.76	1846.92
485.12	1828.19
485.48	1804.55
485.84	1785.36
486.20	1766.40
486.56	1754.70
486.92	1727.55
487.28	1713.27
487.64	1710.46
488.00	1689.63
488.37	1668.33
488.73	1666.93
489.09	1657.57
489.45	1639.31
489.81	1625.97
490.17	1610.52
490.53	1592.73
490.89	1565.82
491.25	1559.50
491.61	1530.01
491.97	1511.99
492.33	1507.77
492.69	1505.20
493.05	1488.35
493.41	1491.62
493.77	1484.60
494.13	1456.98
494.49	1439.90
494.85	1420.47
495.21	1415.56
495.57	1414.62
495.93	1409.47
496.29	1395.66
496.64	1385.36
497.00	1377.41
497.36	1365.00
497.72	1370.38
498.08	1364.30
498.44	1357.51
498.80	1342.30
499.16	1346.04
499.52	1324.98
499.88	1326.62
500.24	1325.21
500.60	1321.47
500.96	1301.34
501.32	1307.89
501.68	1294.78
502.03	1288.70
502.39	1272.78
502.75	1261.78
503.11	1244.46
503.47	1236.97
503.83	1233.23
504.19	1234.16
504.55	1232.29
504.91	1227.61
505.26	1228.55
505.62	1218.48
505.98	1216.14
506.34	1210.29
506.70	1207.01
507.06	1210.99
507.42	1213.80
507.78	1208.18
508.13	1214.74
508.49	1214.74
508.85	1200.69
509.21	1191.80
509.57	1188.29
509.93	1183.84
510.28	1179.40
510.64	1186.18
511.00	1185.95
511.36	1188.99
511.72	1191.10
512.07	1183.61
512.43	1181.03
512.79	1173.54
513.15	1180.10
513.51	1173.78
513.86	1175.42
514.22	1164.65
514.58	1167.46
514.94	1145.93
515.30	1146.39
515.65	1146.86
516.01	1154.35
516.37	1156.93
516.73	1167.69
517.08	1163.71
517.44	1166.52
517.80	1165.59
518.16	1160.44
518.51	1157.16
518.87	1147.33
519.23	1135.16
519.59	1123.69
519.94	1123.93
520.30	1117.61
520.66	1130.95
521.01	1130.95
521.37	1127.67
521.73	1127.90
522.09	1124.16
522.44	1106.37
522.80	1106.37
523.16	1109.88
523.51	1112.92
523.87	1118.31
524.23	1131.88
524.58	1133.99
524.94	1139.84
525.30	1136.33
525.65	1134.22
526.01	1131.88
526.37	1135.63
526.72	1134.69
527.08	1139.14
527.44	1143.12
527.79	1135.63
528.15	1130.48
528.51	1126.50
528.86	1113.63
529.22	1108.24
529.58	1109.41
529.93	1111.75
530.29	1108.01
530.65	1118.78
531.00	1118.31
531.36	1118.31
531.71	1116.44
532.07	1121.35
532.43	1110.58
532.78	1110.82
533.14	1117.61
533.49	1109.41
533.85	1108.71
534.21	1112.92
534.56	1113.16
534.92	1117.37
535.27	1128.14
535.63	1130.95
535.98	1119.95
536.34	1122.99
536.69	1123.22
537.05	1117.37
537.41	1118.07
537.76	1125.56
538.12	1119.95
538.47	1108.48
538.83	1105.20
539.18	1106.61
539.54	1113.39
539.89	1107.54
540.25	1108.71
540.60	1112.92
540.96	1116.20
541.31	1117.84
541.67	1121.58
542.02	1119.48
542.38	1122.99
542.73	1118.07
543.09	1109.65
543.44	1109.41
543.80	1122.52
544.15	1119.95
544.51	1117.84
544.86	1123.69
545.22	1134.22
545.57	1126.73
545.93	1117.37
546.28	1114.56
546.64	1119.01
546.99	1118.78
547.35	1115.50
547.70	1123.46
548.05	1128.61
548.41	1122.52
548.76	1126.97
549.12	1128.61
549.47	1130.71
549.83	1112.69
550.18	1112.46
550.53	1099.82
550.89	1099.35
551.24	1096.54
551.60	1097.01
551.95	1084.60
552.30	1079.92
552.66	1081.80
553.01	1077.11
553.37	1085.77
553.72	1089.99
554.07	1099.35
554.43	1095.84
554.78	1103.33
555.13	1103.80
555.49	1111.05
555.84	1114.80
556.19	1109.65
556.55	1108.71
556.90	1111.52
557.26	1104.03
557.61	1093.03
557.96	1098.65
558.32	1087.41
558.67	1083.43
559.02	1085.07
559.37	1078.05
559.73	1073.14
560.08	1076.65
560.43	1082.97
560.79	1085.07
561.14	1090.46
561.49	1086.01
561.85	1097.71
562.20	1093.26
562.55	1094.67
562.90	1093.26
563.26	1100.52
563.61	1092.80
563.96	1092.09
564.32	1096.78
564.67	1100.99
565.02	1100.52
565.37	1103.33
565.73	1101.69
566.08	1092.56
566.43	1085.77
566.78	1081.09
567.14	1082.97
567.49	1094.90
567.84	1089.52
568.19	1095.84
568.54	1105.90
568.90	1104.97
569.25	1088.58
569.60	1093.97
569.95	1100.05
570.31	1093.97
570.66	1089.75
571.01	1096.78
571.36	1105.44
571.71	1101.92
572.06	1102.86
572.42	1100.52
572.77	1101.22
573.12	1096.54
573.47	1090.92
573.82	1087.41
574.18	1096.54
574.53	1086.94
574.88	1087.65
575.23	1083.67
575.58	1085.54
575.93	1072.43
576.28	1090.22
576.64	1093.73
576.99	1104.50
577.34	1100.05
577.69	1104.03
578.04	1087.65
578.39	1076.88
578.74	1068.69
579.09	1077.58
579.44	1084.37
579.80	1079.46
580.15	1087.41
580.50	1100.52
580.85	1093.26
581.20	1086.24
581.55	1100.99
581.90	1089.05
582.25	1078.52
582.60	1081.56
582.95	1081.33
583.30	1088.12
583.65	1098.41
584.00	1097.24
584.35	1095.37
584.71	1105.20
585.06	1093.73
585.41	1094.43
585.76	1095.60
586.11	1094.20
586.46	1094.67
586.81	1097.01
587.16	1100.99
587.51	1096.54
587.86	1100.05
588.21	1099.35
588.56	1100.75
588.91	1092.33
589.26	1098.88
589.61	1094.90
589.96	1089.75
590.31	1090.46
590.66	1092.09
591.01	1082.97
591.36	1094.67
591.71	1090.22
592.06	1084.14
592.41	1078.75
592.76	1085.54
593.10	1076.88
593.45	1082.73
593.80	1092.56
594.15	1105.90
594.50	1108.48
594.85	1108.48
595.20	1103.33
595.55	1089.05
595.90	1082.50
596.25	1075.94
596.60	1079.69
596.95	1081.09
597.30	1092.80
597.64	1144.52
597.99	1143.12
598.34	1148.73
598.69	1144.52
599.04	1141.25
599.39	1093.73
599.74	1104.26
600.09	1094.43
600.44	1097.01
600.78	1095.60
601.13	1094.43
601.48	1098.41
601.83	1095.60
602.18	1100.05
602.53	1098.18
602.88	1097.71
603.22	1087.88
603.57	1091.86
603.92	1096.07
604.27	1097.71
604.62	1097.48
604.97	1097.95
605.31	1092.33
605.66	1086.01
606.01	1083.43
606.36	1082.26
606.71	1082.26
607.05	1091.39
607.40	1085.31
607.75	1096.31
608.10	1098.88
608.44	1091.39
608.79	1094.90
609.14	1106.84
609.49	1099.58
609.84	1084.84
610.18	1105.20
610.53	1096.31
610.88	1100.29
611.23	1104.50
611.57	1121.58
611.92	1108.01
612.27	1113.63
612.62	1099.12
612.96	1093.26
613.31	1090.46
613.66	1093.26
614.00	1083.20
614.35	1092.80
614.70	1090.92
615.05	1083.20
615.39	1090.92
615.74	1104.26
616.09	1095.60
616.43	1094.20
616.78	1102.16
617.13	1095.14
617.47	1093.97
617.82	1093.73
618.17	1100.99
618.51	1101.92
618.86	1100.29
619.21	1090.69
619.55	1102.86
619.90	1094.67
620.25	1095.37
620.59	1100.52
620.94	1098.88
621.29	1093.03
621.63	1092.09
621.98	1086.01
622.32	1074.77
622.67	1083.67
623.02	1074.07
623.36	1081.56
623.71	1092.56
624.05	1099.82
624.40	1087.41
624.75	1093.50
625.09	1100.05
625.44	1085.54
625.78	1081.56
626.13	1087.65
626.48	1088.58
626.82	1075.24
627.17	1069.16
627.51	1074.54
627.86	1081.09
628.20	1086.24
628.55	1086.48
628.89	1090.46
629.24	1092.80
629.58	1092.09
629.93	1091.39
630.28	1099.58
630.62	1109.88
630.97	1110.35
631.31	1108.24
631.66	1097.71
632.00	1094.43
632.35	1084.37
632.69	1079.69
633.04	1074.77
633.38	1078.05
633.73	1072.20
634.07	1076.41
634.42	1071.97
634.76	1073.84
635.11	1075.71
635.45	1074.07
635.79	1067.05
636.14	1070.09
636.48	1070.56
636.83	1073.14
637.17	1080.16
637.52	1081.56
637.86	1086.24
638.21	1085.77
638.55	1092.33
638.89	1092.80
639.24	1107.07
639.58	1106.61
639.93	1117.84
640.27	1101.46
640.61	1099.58
640.96	1088.35
641.30	1087.18
641.65	1077.82
641.99	1087.65
642.33	1086.94
642.68	1082.50
643.02	1086.01
643.37	1092.56
643.71	1092.33
644.05	1084.14
644.40	1088.12
644.74	1080.39
645.08	1075.71
645.43	1073.37
645.77	1080.86
646.11	1078.52
646.46	1084.37
646.80	1082.50
647.14	1078.99
647.49	1069.62
647.83	1076.88
648.17	1080.39
648.52	1084.60
648.86	1082.97
649.20	1084.37
649.55	1072.20
649.89	1064.94
650.23	1056.28
650.57	1064.01
650.92	1069.16
651.26	1083.20
651.60	1085.31
651.95	1102.39
652.29	1102.16
652.63	1105.67
652.97	1110.12
653.32	1113.86
653.66	1103.80
654.00	1105.67
654.34	1108.71
654.69	1106.84
655.03	1105.90
655.37	1109.18
655.71	1109.88
656.05	1110.35
656.40	1103.56
656.74	1099.58
657.08	1100.05
657.42	1092.56
657.76	1093.73
658.11	1099.35
658.45	1103.09
658.79	1090.22
659.13	1089.75
659.47	1084.84
659.82	1082.26
660.16	1080.63
660.50	1089.52
660.84	1098.41
661.18	1103.09
661.52	1106.84
661.87	1103.09
662.21	1100.99
662.55	1091.86
662.89	1075.71
663.23	1064.24
663.57	1062.60
663.91	1063.31
664.25	1059.09
664.60	1071.50
664.94	1073.37
665.28	1082.73
665.62	1076.65
665.96	1083.67
666.30	1081.33
666.64	1088.82
666.98	1081.56
667.32	1088.12
667.66	1085.07
668.01	1090.92
668.35	1085.54
668.69	1089.75
669.03	1092.56
669.37	1094.67
669.71	1093.50
670.05	1098.18
670.39	1093.26
670.73	1085.31
671.07	1083.90
671.41	1078.75
671.75	1080.16
672.09	1090.46
672.43	1095.60
672.77	1101.22
673.11	1102.63
673.45	1099.12
673.79	1097.48
674.13	1093.97
674.47	1093.26
674.81	1093.03
675.15	1091.16
675.49	1085.31
675.83	1087.65
676.17	1095.60
676.51	1100.75
676.85	1101.69
677.19	1101.46
677.53	1108.24
677.87	1100.52
678.21	1099.58
678.55	1101.69
678.89	1096.54
679.23	1101.46
679.57	1109.41
679.90	1104.97
680.24	1108.71
680.58	1111.75
680.92	1104.26
681.26	1097.01
681.60	1105.44
681.94	1094.43
682.28	1086.71
682.62	1075.94
682.96	1068.69
683.29	1057.92
683.63	1069.86
683.97	1083.90
684.31	1092.80
684.65	1095.14
684.99	1087.65
685.33	1076.65
685.67	1072.43
686.00	1071.97
686.34	1074.31
686.68	1076.88
687.02	1077.82
687.36	1079.22
687.70	1084.37
688.03	1080.63
688.37	1097.01
688.71	1096.78
689.05	1090.22
689.39	1074.54
689.72	1071.97
690.06	1061.43
690.40	1068.45
690.74	1074.77
691.08	1079.92
691.41	1089.75
691.75	1092.56
692.09	1088.35
692.43	1090.69
692.76	1090.69
693.10	1080.86
693.44	1083.67
693.78	1085.77
694.11	1079.22
694.45	1082.03
694.79	1088.82
695.13	1078.99
695.46	1068.22
695.80	1062.60
696.14	1059.79
696.48	1064.71
696.81	1072.90
697.15	1078.28
697.49	1085.54
697.82	1093.26
698.16	1091.16
698.50	1092.09
698.83	1100.75
699.17	1097.24
699.51	1094.67
699.84	1095.37
700.18	1098.41
700.52	1097.24
700.85	1107.54
701.19	1101.69
701.53	1095.60
701.86	1091.16
702.20	1091.63
702.54	1082.73
702.87	1078.99
703.21	1073.37
703.55	1070.80
703.88	1068.92
704.22	1074.31
704.55	1080.86
704.89	1081.56
705.23	1085.77
705.56	1087.41
705.90	1075.01
706.23	1076.88
706.57	1078.28
706.91	1080.63
707.24	1077.58
707.58	1094.67
707.91	1096.78
708.25	1105.90
708.58	1108.01
708.92	1109.88
709.26	1093.50
709.59	1081.33
709.93	1073.84
710.26	1076.18
710.60	1064.01
710.93	1067.05
711.27	1076.65
711.60	1081.09
711.94	1064.48
712.27	1066.35
712.61	1081.09
712.94	1083.67
713.28	1079.46
713.61	1093.50
713.95	1101.22
714.28	1090.22
714.62	1075.94
714.95	1077.58
715.29	1060.03
715.62	1061.20
715.96	1058.86
716.29	1059.79
716.63	1061.90
716.96	1078.52
717.29	1078.28
717.63	1078.28
717.96	1090.46
718.30	1094.67
718.63	1085.54
718.97	1086.71
719.30	1091.86
719.63	1075.48
719.97	1075.94
720.30	1075.48
720.64	1074.77
720.97	1071.97
721.30	1078.99
721.64	1071.97
721.97	1082.03
722.31	1089.05
722.64	1088.12
722.97	1102.16
723.31	1108.48
723.64	1105.44
723.97	1097.01
724.31	1094.67
724.64	1078.99
724.98	1072.43
725.31	1059.56
725.64	1065.18
725.98	1066.11
726.31	1067.28
726.64	1076.18
726.97	1077.35
727.31	1060.73
727.64	1062.14
727.97	1070.09
728.31	1068.22
728.64	1070.09
728.97	1084.37
729.31	1089.99
729.64	1085.07
729.97	1076.18
730.30	1090.46
730.64	1091.86
730.97	1090.22
731.30	1093.97
731.63	1091.86
731.97	1081.80
732.30	1072.67
732.63	1077.35
732.96	1064.71
733.30	1075.24
733.63	1073.60
733.96	1083.43
734.29	1078.05
734.63	1089.05
734.96	1096.54
735.29	1107.54
735.62	1098.18
735.95	1093.97
736.29	1093.50
736.62	1078.52
736.95	1073.37
737.28	1083.43
737.61	1076.65
737.94	1074.07
738.28	1078.99
738.61	1088.35
738.94	1080.63
739.27	1082.97
739.60	1087.41
739.93	1075.94
740.27	1061.67
740.60	1066.82
740.93	1070.09
741.26	1072.67
741.59	1083.67
741.92	1089.99
742.25	1090.92
742.58	1096.54
742.91	1097.24
743.25	1091.86
743.58	1099.82
743.91	1088.58
744.24	1087.41
744.57	1086.48
744.90	1088.82
745.23	1071.73
745.56	1076.18
745.89	1073.14
746.22	1074.31
746.55	1078.28
746.88	1091.63
747.21	1085.31
747.54	1095.14
747.87	1086.94
748.20	1084.14
748.53	1078.75
748.87	1091.39
749.20	1079.46
749.53	1082.50
749.86	1078.05
750.19	1073.37
750.52	1066.82
750.85	1071.26
751.18	1076.41
751.51	1086.48
751.84	1092.09
752.16	1090.22
752.49	1093.73
752.82	1085.07
753.15	1075.48
753.48	1074.54
753.81	1073.60
754.14	1068.45
754.47	1071.03
754.80	1074.54
755.13	1077.35
755.46	1076.41
755.79	1068.22
756.12	1061.90
756.45	1057.69
756.78	1049.50
757.11	1052.77
757.43	1056.75
757.76	1059.33
758.09	1067.75
758.42	1067.28
758.75	1069.39
759.08	1059.56
759.41	1063.31
759.74	1059.79
760.07	1066.11
760.39	1067.75
760.72	1086.71
761.05	1088.58
761.38	1087.65
761.71	1078.52
762.04	1076.88
762.36	1062.37
762.69	1053.94
763.02	1062.60
763.35	1074.54
763.68	1072.67
764.01	1082.50
764.33	1096.07
764.66	1086.01
