SpectraSuite Data File
++++++++++++++++++++++++++++++++++++
Date: Mon Aug 26 10:24:53 PDT 2019
User: corrico
Dark Spectrum Present: No
Reference Spectrum Present: No
Number of Sampled Component Spectra: 1
Spectrometers: USB2+H06089
Integration Time (usec): 10000 (USB2+H06089)
Spectra Averaged: 2 (USB2+H06089)
Boxcar Smoothing: 2 (USB2+H06089)
Correct for Electrical Dark: No (USB2+H06089)
Strobe/Lamp Enabled: No (USB2+H06089)
Correct for Detector Non-linearity: No (USB2+H06089)
Correct for Stray Light: No (USB2+H06089)
Number of Pixels in Processed Spectrum: 2048
>>>>>Begin Processed Spectral Data<<<<<
339.70	1027.50
340.07	1027.50
340.45	1004.32
340.82	987.47
341.19	968.28
341.57	942.77
341.94	915.15
342.31	912.81
342.69	899.23
343.06	883.08
343.43	874.19
343.81	886.13
344.18	890.57
344.55	898.06
344.93	914.68
345.30	922.64
345.67	928.02
346.04	921.23
346.42	935.98
346.79	934.11
347.16	947.21
347.54	955.17
347.91	970.85
348.28	979.05
348.65	994.49
349.03	1014.15
349.40	1017.90
349.77	1024.92
350.14	1026.09
350.52	1038.26
350.89	1045.28
351.26	1042.47
351.63	1057.45
352.01	1062.60
352.38	1073.60
352.75	1078.75
353.12	1102.16
353.50	1098.18
353.87	1102.86
354.24	1093.03
354.61	1089.99
354.98	1088.82
355.36	1098.88
355.73	1104.50
356.10	1109.88
356.47	1112.92
356.84	1110.12
357.22	1097.01
357.59	1102.63
357.96	1095.84
358.33	1092.56
358.70	1095.60
359.08	1101.69
359.45	1090.92
359.82	1087.65
360.19	1077.82
360.56	1076.18
360.94	1073.84
361.31	1074.77
361.68	1074.07
362.05	1075.71
362.42	1081.09
362.79	1085.54
363.16	1083.90
363.54	1094.20
363.91	1095.84
364.28	1096.07
364.65	1092.80
365.02	1097.01
365.39	1098.18
365.76	1097.01
366.14	1084.60
366.51	1086.01
366.88	1085.31
367.25	1083.43
367.62	1082.73
367.99	1079.92
368.36	1083.90
368.73	1081.80
369.10	1081.80
369.48	1077.82
369.85	1080.86
370.22	1075.01
370.59	1068.45
370.96	1060.26
371.33	1066.11
371.70	1062.60
372.07	1064.94
372.44	1080.86
372.81	1093.73
373.18	1107.54
373.55	1116.20
373.93	1108.01
374.30	1097.48
374.67	1104.97
375.04	1095.84
375.41	1094.43
375.78	1094.67
376.15	1091.86
376.52	1088.58
376.89	1089.29
377.26	1083.90
377.63	1088.58
378.00	1083.67
378.37	1074.07
378.74	1074.77
379.11	1081.56
379.48	1083.67
379.85	1086.71
380.22	1085.31
380.59	1087.41
380.96	1084.37
381.33	1082.50
381.70	1091.63
382.07	1099.12
382.44	1088.58
382.81	1097.01
383.18	1114.09
383.55	1120.18
383.92	1121.58
384.29	1125.56
384.66	1123.46
385.03	1105.67
385.40	1094.20
385.77	1085.31
386.14	1082.97
386.51	1080.16
386.88	1081.33
387.25	1085.07
387.62	1087.88
387.99	1092.80
388.36	1096.54
388.73	1103.56
389.10	1101.92
389.46	1096.78
389.83	1105.67
390.20	1105.44
390.57	1097.95
390.94	1094.43
391.31	1106.14
391.68	1099.82
392.05	1092.56
392.42	1085.31
392.79	1090.92
393.16	1081.80
393.53	1088.82
393.89	1100.05
394.26	1114.80
394.63	1119.48
395.00	1129.78
395.37	1132.82
395.74	1128.61
396.11	1137.73
396.48	1139.37
396.84	1154.59
397.21	1143.59
397.58	1146.86
397.95	1138.67
398.32	1131.88
398.69	1108.95
399.06	1118.07
399.42	1110.82
399.79	1116.67
400.16	1109.88
400.53	1112.92
400.90	1112.69
401.27	1119.95
401.64	1117.14
402.00	1145.93
402.37	1158.33
402.74	1162.31
403.11	1159.97
403.48	1171.44
403.84	1170.97
404.21	1176.59
404.58	1185.72
404.95	1215.44
405.32	1218.25
405.68	1225.97
406.05	1235.80
406.42	1237.44
406.79	1240.48
407.16	1252.19
407.52	1272.32
407.89	1279.57
408.26	1312.10
408.63	1327.55
408.99	1351.19
409.36	1364.77
409.73	1380.92
410.10	1396.60
410.47	1426.56
410.83	1454.17
411.20	1484.60
411.57	1532.82
411.94	1564.18
412.30	1595.08
412.67	1632.52
413.04	1679.80
413.40	1727.08
413.77	1786.53
414.14	1845.51
414.51	1899.34
414.87	1956.92
415.24	2020.12
415.61	2086.59
415.97	2159.38
416.34	2239.66
416.71	2322.75
417.08	2395.77
417.44	2484.24
417.81	2584.19
418.18	2695.59
418.54	2817.30
418.91	2956.33
419.28	3090.68
419.64	3211.21
420.01	3356.80
420.38	3490.21
420.74	3637.66
421.11	3808.75
421.48	3995.06
421.84	4204.30
422.21	4395.76
422.58	4642.69
422.94	4878.38
423.31	5127.18
423.68	5329.63
424.04	5609.56
424.41	5830.51
424.77	6044.43
425.14	6315.70
425.51	6610.61
425.87	6915.35
426.24	7265.02
426.61	7661.98
426.97	8080.70
427.34	8476.72
427.70	8909.95
428.07	9338.04
428.44	9821.12
428.80	10255.53
429.17	10787.30
429.53	11251.42
429.90	11800.98
430.27	12263.00
430.63	12720.81
431.00	13265.69
431.36	13946.32
431.73	14520.22
432.09	15145.14
432.46	15797.68
432.83	16325.94
433.19	16830.09
433.56	17430.91
433.92	18021.89
434.29	18618.73
434.65	19269.63
435.02	19806.08
435.38	20369.21
435.75	20839.19
436.11	21453.58
436.48	21866.92
436.84	22378.10
437.21	22780.67
437.57	23217.88
437.94	23506.94
438.30	23912.79
438.67	24104.01
439.03	24233.44
439.40	24354.44
439.76	24258.25
440.13	24165.56
440.49	24092.77
440.86	23886.57
441.22	23625.13
441.59	23376.80
441.95	23006.30
442.32	22528.59
442.68	22173.07
443.05	21711.51
443.41	21253.47
443.78	20752.83
444.14	20301.57
444.51	19670.80
444.87	19232.65
445.24	18800.82
445.60	18422.59
445.96	17906.74
446.33	17551.91
446.69	17049.16
447.06	16558.82
447.42	16016.52
447.79	15599.67
448.15	15203.65
448.51	14769.01
448.88	14384.46
449.24	13990.08
449.61	13706.65
449.97	13385.06
450.33	13102.55
450.70	12744.45
451.06	12437.61
451.43	12044.86
451.79	11670.15
452.15	11337.56
452.52	11099.05
452.88	10868.98
453.24	10660.67
453.61	10435.98
453.97	10224.16
454.34	9915.45
454.70	9629.90
455.06	9364.72
455.43	9077.53
455.79	8731.60
456.15	8474.61
456.52	8208.49
456.88	7994.57
457.24	7775.96
457.61	7593.87
457.97	7385.09
458.33	7162.51
458.70	6905.98
459.06	6678.95
459.42	6503.41
459.79	6292.76
460.15	6134.08
460.51	5937.00
460.88	5764.51
461.24	5570.01
461.60	5417.87
461.96	5247.48
462.33	5106.35
462.69	4964.04
463.05	4826.65
463.42	4707.99
463.78	4593.54
464.14	4500.38
464.50	4392.95
464.87	4301.90
465.23	4208.28
465.59	4127.07
465.95	4015.89
466.32	3922.50
466.68	3831.22
467.04	3735.26
467.40	3654.98
467.77	3579.85
468.13	3511.97
468.49	3439.18
468.85	3391.90
469.22	3311.62
469.58	3261.77
469.94	3199.28
470.30	3129.53
470.66	3057.44
471.03	3017.65
471.39	2972.71
471.75	2928.71
472.11	2877.92
472.47	2831.58
472.84	2777.98
473.20	2716.43
473.56	2662.59
473.92	2628.42
474.28	2603.14
474.65	2548.84
475.01	2506.48
475.37	2468.09
475.73	2442.35
476.09	2394.13
476.45	2371.90
476.81	2339.13
477.18	2300.04
477.54	2249.96
477.90	2233.81
478.26	2200.34
478.62	2177.17
478.98	2165.93
479.34	2164.29
479.71	2133.87
480.07	2106.48
480.43	2091.03
480.79	2064.59
481.15	2024.10
481.51	2001.39
481.87	1975.65
482.23	1940.07
482.59	1918.77
482.96	1898.41
483.32	1867.98
483.68	1862.60
484.04	1845.98
484.40	1831.94
484.76	1811.11
485.12	1808.53
485.48	1785.36
485.84	1781.38
486.20	1763.13
486.56	1755.87
486.92	1734.81
487.28	1730.59
487.64	1708.12
488.00	1691.97
488.37	1673.25
488.73	1659.21
489.09	1631.82
489.45	1606.78
489.81	1592.27
490.17	1589.22
490.53	1580.10
490.89	1569.10
491.25	1563.24
491.61	1541.01
491.97	1514.79
492.33	1495.13
492.69	1496.07
493.05	1494.43
493.41	1491.62
493.77	1492.56
494.13	1480.62
494.49	1453.00
494.85	1440.37
495.21	1427.26
495.57	1411.11
495.93	1396.13
496.29	1381.38
496.64	1378.81
497.00	1379.04
497.36	1371.55
497.72	1362.43
498.08	1353.77
498.44	1342.53
498.80	1327.79
499.16	1322.64
499.52	1330.83
499.88	1331.30
500.24	1318.66
500.60	1309.30
500.96	1301.10
501.32	1285.89
501.68	1281.44
502.03	1278.17
502.39	1283.08
502.75	1273.25
503.11	1267.63
503.47	1258.27
503.83	1247.04
504.19	1234.63
504.55	1229.25
504.91	1235.80
505.26	1233.93
505.62	1217.78
505.98	1220.59
506.34	1213.33
506.70	1201.63
507.06	1200.23
507.42	1208.65
507.78	1203.74
508.13	1208.89
508.49	1205.84
508.85	1209.59
509.21	1211.46
509.57	1209.35
509.93	1199.29
510.28	1193.67
510.64	1182.67
511.00	1182.67
511.36	1174.48
511.72	1183.37
512.07	1183.14
512.43	1177.99
512.79	1178.46
513.15	1181.50
513.51	1171.44
513.86	1174.95
514.22	1184.55
514.58	1176.59
514.94	1172.14
515.30	1173.08
515.65	1153.88
516.01	1144.76
516.37	1141.25
516.73	1137.03
517.08	1143.82
517.44	1160.67
517.80	1166.52
518.16	1170.97
518.51	1163.25
518.87	1157.39
519.23	1145.22
519.59	1126.50
519.94	1115.27
520.30	1132.35
520.66	1125.80
521.01	1133.05
521.37	1147.33
521.73	1144.52
522.09	1134.22
522.44	1141.48
522.80	1141.25
523.16	1137.97
523.51	1147.80
523.87	1146.63
524.23	1143.35
524.58	1140.31
524.94	1133.76
525.30	1132.12
525.65	1132.12
526.01	1119.95
526.37	1118.31
526.72	1123.93
527.08	1125.33
527.44	1121.82
527.79	1126.50
528.15	1126.97
528.51	1115.03
528.86	1112.22
529.22	1114.09
529.58	1116.90
529.93	1111.05
530.29	1117.37
530.65	1117.84
531.00	1113.16
531.36	1106.84
531.71	1112.22
532.07	1121.35
532.43	1108.48
532.78	1112.46
533.14	1116.67
533.49	1109.65
533.85	1100.75
534.21	1113.39
534.56	1113.63
534.92	1114.33
535.27	1111.52
535.63	1107.54
535.98	1099.58
536.34	1098.88
536.69	1095.37
537.05	1102.63
537.41	1103.09
537.76	1109.18
538.12	1116.44
538.47	1117.84
538.83	1115.73
539.18	1111.29
539.54	1101.69
539.89	1102.86
540.25	1108.71
540.60	1105.90
540.96	1111.52
541.31	1119.24
541.67	1107.78
542.02	1099.12
542.38	1102.16
542.73	1104.03
543.09	1099.12
543.44	1104.03
543.80	1111.99
544.15	1113.63
544.51	1110.12
544.86	1107.31
545.22	1106.37
545.57	1101.46
545.93	1103.56
546.28	1103.80
546.64	1111.75
546.99	1098.88
547.35	1094.90
547.70	1082.26
548.05	1086.94
548.41	1084.60
548.76	1092.33
549.12	1095.60
549.47	1101.92
549.83	1097.24
550.18	1099.12
550.53	1103.80
550.89	1111.99
551.24	1114.33
551.60	1109.41
551.95	1105.44
552.30	1106.37
552.66	1102.16
553.01	1100.29
553.37	1105.90
553.72	1108.95
554.07	1105.67
554.43	1111.52
554.78	1110.35
555.13	1115.97
555.49	1102.39
555.84	1103.80
556.19	1099.35
556.55	1102.63
556.90	1102.63
557.26	1113.39
557.61	1106.61
557.96	1106.37
558.32	1112.69
558.67	1110.58
559.02	1112.69
559.37	1120.41
559.73	1123.93
560.08	1108.01
560.43	1109.18
560.79	1112.69
561.14	1112.69
561.49	1104.97
561.85	1106.14
562.20	1090.46
562.55	1082.73
562.90	1074.54
563.26	1068.22
563.61	1077.11
563.96	1088.58
564.32	1093.97
564.67	1095.60
565.02	1098.65
565.37	1095.37
565.73	1093.97
566.08	1088.35
566.43	1088.12
566.78	1089.75
567.14	1094.90
567.49	1101.92
567.84	1097.24
568.19	1108.95
568.54	1111.75
568.90	1107.54
569.25	1102.39
569.60	1113.16
569.95	1108.71
570.31	1102.86
570.66	1092.09
571.01	1096.31
571.36	1091.63
571.71	1086.94
572.06	1087.18
572.42	1100.99
572.77	1095.37
573.12	1094.67
573.47	1097.71
573.82	1105.20
574.18	1110.82
574.53	1118.78
574.88	1130.01
575.23	1121.82
575.58	1117.37
575.93	1098.65
576.28	1098.88
576.64	1083.20
576.99	1083.90
577.34	1088.12
577.69	1091.63
578.04	1089.29
578.39	1100.29
578.74	1111.29
579.09	1108.01
579.44	1112.69
579.80	1106.84
580.15	1109.65
580.50	1107.07
580.85	1108.01
581.20	1102.39
581.55	1097.24
581.90	1088.58
582.25	1079.46
582.60	1074.07
582.95	1082.97
583.30	1100.52
583.65	1098.41
584.00	1100.52
584.35	1099.12
584.71	1092.80
585.06	1095.84
585.41	1106.61
585.76	1112.92
586.11	1113.16
586.46	1105.67
586.81	1085.77
587.16	1081.33
587.51	1082.97
587.86	1082.50
588.21	1092.33
588.56	1101.22
588.91	1097.24
589.26	1089.75
589.61	1101.69
589.96	1103.80
590.31	1105.67
590.66	1107.54
591.01	1104.50
591.36	1086.24
591.71	1085.07
592.06	1076.88
592.41	1071.97
592.76	1070.80
593.10	1082.26
593.45	1082.26
593.80	1083.67
594.15	1080.86
594.50	1093.26
594.85	1097.71
595.20	1096.31
595.55	1103.56
595.90	1115.73
596.25	1115.27
596.60	1105.67
596.95	1103.33
597.30	1100.99
597.64	1139.84
597.99	1133.99
598.34	1133.76
598.69	1141.01
599.04	1139.37
599.39	1089.75
599.74	1086.71
600.09	1093.03
600.44	1081.56
600.78	1083.67
601.13	1087.41
601.48	1085.77
601.83	1083.20
602.18	1095.60
602.53	1096.54
602.88	1100.05
603.22	1102.16
603.57	1101.22
603.92	1098.41
604.27	1089.29
604.62	1079.92
604.97	1083.43
605.31	1079.92
605.66	1075.71
606.01	1080.63
606.36	1091.39
606.71	1095.14
607.05	1103.56
607.40	1105.44
607.75	1101.22
608.10	1097.48
608.44	1098.88
608.79	1100.29
609.14	1102.63
609.49	1108.24
609.84	1118.31
610.18	1109.41
610.53	1107.78
610.88	1106.14
611.23	1096.07
611.57	1082.03
611.92	1090.22
612.27	1090.92
612.62	1089.75
612.96	1100.29
613.31	1096.07
613.66	1074.77
614.00	1074.31
614.35	1075.24
614.70	1069.62
615.05	1071.50
615.39	1091.16
615.74	1086.94
616.09	1077.82
616.43	1084.14
616.78	1088.12
617.13	1076.65
617.47	1078.05
617.82	1079.46
618.17	1072.90
618.51	1070.56
618.86	1070.09
619.21	1070.80
619.55	1084.84
619.90	1080.39
620.25	1082.73
620.59	1089.29
620.94	1092.80
621.29	1088.58
621.63	1101.22
621.98	1106.14
622.32	1106.14
622.67	1108.24
623.02	1107.78
623.36	1118.31
623.71	1116.90
624.05	1123.22
624.40	1108.48
624.75	1101.22
625.09	1080.16
625.44	1073.60
625.78	1075.24
626.13	1074.54
626.48	1084.37
626.82	1097.48
627.17	1100.05
627.51	1094.43
627.86	1102.63
628.20	1093.03
628.55	1089.99
628.89	1098.65
629.24	1092.56
629.58	1102.63
629.93	1105.44
630.28	1101.22
630.62	1103.80
630.97	1112.69
631.31	1104.03
631.66	1102.86
632.00	1097.24
632.35	1093.97
632.69	1094.67
633.04	1081.33
633.38	1074.07
633.73	1082.26
634.07	1070.56
634.42	1075.48
634.76	1080.63
635.11	1097.01
635.45	1083.20
635.79	1090.22
636.14	1080.63
636.48	1092.09
636.83	1086.48
637.17	1089.52
637.52	1086.24
637.86	1082.50
638.21	1072.67
638.55	1077.82
638.89	1089.99
639.24	1097.01
639.58	1092.09
639.93	1099.58
640.27	1096.78
640.61	1095.37
640.96	1087.18
641.30	1104.03
641.65	1103.80
641.99	1093.97
642.33	1085.31
642.68	1089.52
643.02	1069.62
643.37	1064.94
643.71	1068.69
644.05	1077.82
644.40	1076.41
644.74	1089.75
645.08	1089.29
645.43	1099.58
645.77	1089.99
646.11	1093.97
646.46	1084.84
646.80	1083.67
647.14	1081.33
647.49	1091.63
647.83	1089.75
648.17	1099.82
648.52	1100.99
648.86	1099.82
649.20	1088.35
649.55	1075.71
649.89	1084.84
650.23	1091.86
650.57	1088.12
650.92	1097.71
651.26	1102.86
651.60	1089.52
651.95	1086.94
652.29	1090.69
652.63	1077.11
652.97	1089.29
653.32	1092.09
653.66	1076.18
654.00	1079.92
654.34	1096.54
654.69	1085.31
655.03	1076.88
655.37	1090.46
655.71	1091.63
656.05	1083.90
656.40	1096.07
656.74	1107.31
657.08	1102.63
657.42	1089.29
657.76	1092.80
658.11	1078.28
658.45	1078.99
658.79	1082.73
659.13	1093.97
659.47	1092.80
659.82	1108.24
660.16	1095.37
660.50	1101.22
660.84	1093.26
661.18	1085.31
661.52	1075.48
661.87	1083.67
662.21	1081.09
662.55	1089.05
662.89	1100.29
663.23	1102.16
663.57	1102.39
663.91	1104.73
664.25	1098.18
664.60	1100.52
664.94	1108.71
665.28	1101.46
665.62	1091.16
665.96	1090.46
666.30	1081.33
666.64	1070.80
666.98	1074.31
667.32	1086.71
667.66	1087.65
668.01	1093.97
668.35	1089.29
668.69	1092.56
669.03	1089.99
669.37	1087.18
669.71	1075.01
670.05	1084.14
670.39	1087.41
670.73	1089.52
671.07	1085.54
671.41	1083.90
671.75	1080.39
672.09	1075.01
672.43	1073.37
672.77	1079.92
673.11	1088.58
673.45	1082.26
673.79	1079.22
674.13	1077.11
674.47	1078.99
674.81	1079.69
675.15	1081.33
675.49	1089.52
675.83	1089.75
676.17	1093.03
676.51	1093.97
676.85	1092.56
677.19	1086.94
677.53	1087.88
677.87	1078.52
678.21	1078.52
678.55	1084.60
678.89	1091.86
679.23	1095.37
679.57	1092.09
679.90	1087.88
680.24	1078.75
680.58	1067.05
680.92	1060.26
681.26	1065.41
681.60	1071.50
681.94	1083.20
682.28	1093.73
682.62	1087.18
682.96	1084.60
683.29	1081.56
683.63	1075.24
683.97	1069.86
684.31	1071.03
684.65	1065.18
684.99	1065.88
685.33	1059.56
685.67	1060.73
686.00	1064.94
686.34	1086.48
686.68	1090.92
687.02	1099.82
687.36	1097.48
687.70	1105.90
688.03	1090.46
688.37	1081.56
688.71	1088.12
689.05	1093.97
689.39	1093.26
689.72	1102.86
690.06	1105.67
690.40	1096.31
690.74	1089.52
691.08	1087.18
691.41	1077.35
691.75	1078.52
692.09	1078.52
692.43	1081.56
692.76	1083.20
693.10	1100.29
693.44	1100.52
693.78	1105.44
694.11	1103.80
694.45	1100.99
694.79	1090.46
695.13	1085.77
695.46	1091.16
695.80	1089.52
696.14	1091.86
696.48	1087.65
696.81	1090.92
697.15	1089.75
697.49	1086.48
697.82	1078.52
698.16	1078.99
698.50	1088.82
698.83	1085.07
699.17	1089.52
699.51	1094.67
699.84	1082.50
700.18	1067.05
700.52	1065.41
700.85	1076.65
701.19	1069.86
701.53	1081.56
701.86	1093.03
702.20	1093.97
702.54	1082.26
702.87	1092.56
703.21	1096.07
703.55	1089.52
703.88	1087.18
704.22	1090.92
704.55	1076.88
704.89	1075.01
705.23	1076.41
705.56	1081.33
705.90	1071.03
706.23	1077.11
706.57	1087.65
706.91	1085.31
707.24	1076.88
707.58	1091.86
707.91	1095.37
708.25	1088.35
708.58	1097.24
708.92	1099.35
709.26	1091.86
709.59	1091.16
709.93	1090.22
710.26	1078.52
710.60	1077.82
710.93	1063.54
711.27	1049.26
711.60	1041.77
711.94	1050.43
712.27	1051.60
712.61	1071.26
712.94	1092.56
713.28	1102.16
713.61	1100.75
713.95	1107.31
714.28	1106.84
714.62	1101.92
714.95	1101.22
715.29	1103.80
715.62	1102.86
715.96	1099.35
716.29	1097.24
716.63	1094.20
716.96	1100.29
717.29	1091.86
717.63	1098.18
717.96	1094.20
718.30	1085.07
718.63	1079.92
718.97	1079.69
719.30	1064.24
719.63	1062.84
719.97	1071.03
720.30	1070.09
720.64	1075.24
720.97	1083.43
721.30	1092.33
721.64	1093.73
721.97	1090.46
722.31	1090.92
722.64	1097.24
722.97	1093.03
723.31	1080.16
723.64	1079.92
723.97	1081.09
724.31	1077.35
724.64	1075.48
724.98	1079.69
725.31	1079.69
725.64	1084.14
725.98	1080.16
726.31	1069.39
726.64	1062.14
726.97	1061.90
727.31	1053.48
727.64	1044.58
727.97	1044.58
728.31	1053.94
728.64	1053.24
728.97	1054.65
729.31	1057.22
729.64	1073.37
729.97	1078.99
730.30	1088.35
730.64	1088.58
730.97	1100.29
731.30	1098.18
731.63	1098.18
731.97	1081.80
732.30	1080.39
732.63	1077.35
732.96	1077.35
733.30	1077.35
733.63	1090.22
733.96	1093.97
734.29	1095.60
734.63	1100.05
734.96	1096.78
735.29	1085.77
735.62	1082.50
735.95	1077.58
736.29	1070.09
736.62	1065.41
736.95	1071.50
737.28	1068.22
737.61	1068.92
737.94	1062.37
738.28	1068.22
738.61	1070.56
738.94	1083.43
739.27	1083.90
739.60	1100.29
739.93	1106.37
740.27	1098.18
740.60	1083.20
740.93	1089.29
741.26	1083.43
741.59	1067.28
741.92	1077.58
742.25	1080.39
742.58	1076.88
742.91	1071.03
743.25	1089.29
743.58	1084.14
743.91	1080.63
744.24	1071.50
744.57	1068.69
744.90	1066.35
745.23	1069.39
745.56	1067.99
745.89	1072.43
746.22	1082.73
746.55	1072.67
746.88	1065.88
747.21	1074.07
747.54	1085.07
747.87	1083.43
748.20	1087.65
748.53	1097.48
748.87	1098.65
749.20	1095.84
749.53	1102.39
749.86	1098.65
750.19	1101.69
750.52	1094.90
750.85	1089.52
751.18	1089.75
751.51	1097.95
751.84	1082.97
752.16	1094.43
752.49	1090.46
752.82	1073.14
753.15	1065.88
753.48	1069.62
753.81	1067.75
754.14	1064.24
754.47	1060.26
754.80	1069.62
755.13	1054.88
755.46	1060.03
755.79	1068.69
756.12	1085.54
756.45	1085.54
756.78	1097.95
757.11	1090.69
757.43	1091.86
757.76	1089.05
758.09	1076.18
758.42	1076.88
758.75	1071.73
759.08	1065.41
759.41	1066.35
759.74	1073.60
760.07	1069.62
760.39	1085.07
760.72	1081.80
761.05	1074.31
761.38	1070.33
761.71	1093.97
762.04	1087.18
762.36	1086.94
762.69	1085.54
763.02	1085.77
763.35	1079.22
763.68	1079.69
764.01	1086.94
764.33	1089.52
764.66	1087.88
