SpectraSuite Data File
++++++++++++++++++++++++++++++++++++
Date: Mon Aug 26 10:24:53 PDT 2019
User: corrico
Dark Spectrum Present: No
Reference Spectrum Present: No
Number of Sampled Component Spectra: 1
Spectrometers: USB2+H06089
Integration Time (usec): 10000 (USB2+H06089)
Spectra Averaged: 2 (USB2+H06089)
Boxcar Smoothing: 2 (USB2+H06089)
Correct for Electrical Dark: No (USB2+H06089)
Strobe/Lamp Enabled: No (USB2+H06089)
Correct for Detector Non-linearity: No (USB2+H06089)
Correct for Stray Light: No (USB2+H06089)
Number of Pixels in Processed Spectrum: 2048
>>>>>Begin Processed Spectral Data<<<<<
339.70	1025.15
340.07	1025.15
340.45	989.58
340.82	966.41
341.19	949.09
341.57	926.38
341.94	919.36
342.31	918.89
342.69	914.92
343.06	912.11
343.43	916.32
343.81	917.02
344.18	922.41
344.55	928.72
344.93	920.77
345.30	926.85
345.67	924.51
346.04	918.66
346.42	934.34
346.79	960.56
347.16	957.05
347.54	972.96
347.91	990.98
348.28	997.77
348.65	1002.22
349.03	1008.07
349.40	1017.66
349.77	1024.69
350.14	1027.50
350.52	1039.20
350.89	1055.82
351.26	1066.11
351.63	1075.01
352.01	1074.07
352.38	1069.39
352.75	1076.88
353.12	1073.84
353.50	1076.41
353.87	1083.20
354.24	1092.56
354.61	1091.39
354.98	1101.46
355.36	1096.78
355.73	1100.99
356.10	1098.88
356.47	1102.63
356.84	1096.54
357.22	1091.86
357.59	1096.31
357.96	1093.73
358.33	1097.95
358.70	1103.56
359.08	1110.58
359.45	1097.01
359.82	1092.80
360.19	1087.88
360.56	1089.29
360.94	1094.43
361.31	1100.52
361.68	1098.88
362.05	1098.18
362.42	1088.58
362.79	1081.09
363.16	1082.97
363.54	1079.46
363.91	1067.05
364.28	1065.88
364.65	1062.14
365.02	1068.45
365.39	1075.24
365.76	1080.39
366.14	1085.31
366.51	1080.86
366.88	1068.45
367.25	1074.77
367.62	1083.67
367.99	1082.73
368.36	1086.01
368.73	1087.65
369.10	1085.31
369.48	1078.05
369.85	1082.03
370.22	1085.77
370.59	1093.73
370.96	1097.24
371.33	1106.37
371.70	1110.82
372.07	1104.73
372.44	1102.86
372.81	1094.67
373.18	1082.97
373.55	1071.26
373.93	1076.88
374.30	1073.84
374.67	1062.84
375.04	1071.97
375.41	1080.16
375.78	1084.14
376.15	1092.80
376.52	1104.97
376.89	1105.20
377.26	1106.61
377.63	1110.35
378.00	1114.56
378.37	1120.18
378.74	1120.18
379.11	1118.07
379.48	1117.14
379.85	1100.52
380.22	1093.03
380.59	1082.97
380.96	1081.56
381.33	1078.52
381.70	1087.41
382.07	1103.09
382.44	1112.22
382.81	1117.14
383.18	1116.20
383.55	1118.31
383.92	1106.37
384.29	1106.37
384.66	1102.86
385.03	1100.75
385.40	1098.65
385.77	1099.35
386.14	1104.97
386.51	1108.95
386.88	1115.73
387.25	1118.78
387.62	1120.65
387.99	1118.31
388.36	1109.41
388.73	1106.61
389.10	1096.31
389.46	1106.84
389.83	1104.73
390.20	1106.84
390.57	1109.18
390.94	1120.18
391.31	1113.63
391.68	1110.35
392.05	1110.58
392.42	1110.82
392.79	1107.07
393.16	1098.65
393.53	1101.69
393.89	1113.86
394.26	1108.71
394.63	1113.86
395.00	1116.20
395.37	1128.84
395.74	1124.39
396.11	1130.24
396.48	1127.44
396.84	1129.31
397.21	1110.35
397.58	1118.31
397.95	1122.29
398.32	1130.01
398.69	1133.05
399.06	1150.84
399.42	1146.16
399.79	1148.97
400.16	1141.95
400.53	1144.99
400.90	1140.31
401.27	1131.88
401.64	1137.73
402.00	1148.97
402.37	1151.31
402.74	1159.27
403.11	1175.89
403.48	1174.25
403.84	1179.63
404.21	1192.27
404.58	1190.86
404.95	1210.06
405.32	1221.76
405.68	1233.70
406.05	1246.57
406.42	1269.97
406.79	1272.55
407.16	1293.38
407.52	1299.93
407.89	1314.44
408.26	1333.87
408.63	1353.53
408.99	1365.23
409.36	1394.26
409.73	1411.81
410.10	1437.79
410.47	1460.03
410.83	1498.65
411.20	1526.97
411.57	1573.31
411.94	1610.99
412.30	1658.50
412.67	1696.89
413.04	1751.66
413.40	1786.76
413.77	1839.19
414.14	1889.51
414.51	1948.03
414.87	2001.39
415.24	2074.88
415.61	2133.40
415.97	2204.08
416.34	2274.06
416.71	2352.24
417.08	2448.67
417.44	2549.08
417.81	2672.66
418.18	2803.96
418.54	2939.48
418.91	3057.68
419.28	3201.62
419.64	3322.39
420.01	3479.21
420.38	3633.21
420.74	3809.22
421.11	3999.51
421.48	4198.92
421.84	4399.50
422.21	4592.60
422.58	4823.38
422.94	5046.20
423.31	5270.18
423.68	5512.66
424.04	5791.42
424.41	6045.84
424.77	6351.98
425.14	6673.34
425.51	7006.16
425.87	7360.75
426.24	7718.62
426.61	8074.38
426.97	8522.36
427.34	8908.78
427.70	9343.42
428.07	9827.21
428.44	10317.78
428.80	10789.40
429.17	11321.17
429.53	11843.34
429.90	12409.75
430.27	12926.31
430.63	13444.27
431.00	14051.41
431.36	14753.33
431.73	15354.85
432.09	16030.10
432.46	16648.46
432.83	17224.70
433.19	17705.45
433.56	18331.31
433.92	18916.68
434.29	19570.86
434.65	20214.74
435.02	20808.30
435.38	21388.52
435.75	21904.14
436.11	22526.02
436.48	23011.91
436.84	23584.64
437.21	23975.51
437.57	24430.75
437.94	24743.21
438.30	25117.46
438.67	25276.15
439.03	25457.30
439.40	25524.95
439.76	25454.73
440.13	25345.19
440.49	25263.51
440.86	25061.75
441.22	24873.34
441.59	24557.60
441.95	24230.16
442.32	23793.18
442.68	23417.53
443.05	22904.01
443.41	22441.29
443.78	21856.16
444.14	21328.37
444.51	20706.49
444.87	20272.78
445.24	19812.17
445.60	19429.26
445.96	18911.53
446.33	18487.42
446.69	17928.27
447.06	17478.89
447.42	16934.01
447.79	16493.99
448.15	16099.14
448.51	15691.89
448.88	15250.70
449.24	14811.61
449.61	14552.98
449.97	14177.09
450.33	13856.21
450.70	13478.21
451.06	13172.77
451.43	12725.73
451.79	12343.05
452.15	11990.56
452.52	11688.64
452.88	11433.75
453.24	11187.53
453.61	10945.28
453.97	10674.95
454.34	10422.87
454.70	10181.33
455.06	9942.60
455.43	9652.84
455.79	9297.31
456.15	8986.49
456.52	8647.58
456.88	8390.35
457.24	8162.85
457.61	8027.57
457.97	7809.43
458.33	7619.61
458.70	7348.81
459.06	7083.87
459.42	6842.09
459.79	6631.91
460.15	6418.45
460.51	6208.74
460.88	6021.96
461.24	5797.27
461.60	5629.69
461.96	5452.98
462.33	5307.63
462.69	5168.61
463.05	5071.47
463.42	4950.94
463.78	4806.29
464.14	4685.99
464.50	4585.11
464.87	4451.23
465.23	4322.03
465.59	4237.07
465.95	4155.86
466.32	4050.30
466.68	3983.83
467.04	3907.52
467.40	3824.44
467.77	3733.86
468.13	3660.60
468.49	3560.66
468.85	3511.04
469.22	3457.44
469.58	3390.27
469.94	3328.48
470.30	3289.62
470.66	3218.70
471.03	3153.64
471.39	3110.34
471.75	3057.68
472.11	2993.31
472.47	2952.35
472.84	2893.14
473.20	2847.26
473.56	2813.56
473.92	2770.02
474.28	2722.04
474.65	2683.66
475.01	2651.83
475.37	2606.19
475.73	2566.40
476.09	2529.18
476.45	2495.71
476.81	2443.29
477.18	2404.43
477.54	2378.69
477.90	2348.26
478.26	2302.85
478.62	2268.45
478.98	2243.40
479.34	2218.83
479.71	2183.02
480.07	2167.10
480.43	2153.06
480.79	2124.74
481.15	2100.16
481.51	2084.95
481.87	2076.76
482.23	2049.37
482.59	2028.31
482.96	2005.14
483.32	1989.69
483.68	1960.67
484.04	1940.07
484.40	1918.77
484.76	1909.64
485.12	1874.54
485.48	1845.51
485.84	1825.85
486.20	1817.66
486.56	1777.64
486.92	1770.38
487.28	1756.34
487.64	1748.15
488.00	1723.57
488.37	1708.59
488.73	1689.16
489.09	1676.06
489.45	1656.87
489.81	1640.95
490.17	1638.38
490.53	1620.82
490.89	1604.20
491.25	1579.39
491.61	1555.29
491.97	1549.20
492.33	1537.26
492.69	1522.99
493.05	1511.99
493.41	1507.07
493.77	1475.24
494.13	1467.28
494.49	1463.30
494.85	1454.88
495.21	1445.05
495.57	1432.88
495.93	1427.96
496.29	1416.73
496.64	1415.32
497.00	1410.41
497.36	1401.04
497.72	1388.17
498.08	1375.77
498.44	1358.92
498.80	1348.85
499.16	1354.00
499.52	1345.57
499.88	1346.04
500.24	1339.49
500.60	1339.72
500.96	1334.81
501.32	1336.68
501.68	1321.93
502.03	1314.91
502.39	1298.30
502.75	1283.78
503.11	1271.38
503.47	1275.83
503.83	1266.70
504.19	1272.08
504.55	1264.36
504.91	1252.19
505.26	1249.14
505.62	1240.02
505.98	1227.38
506.34	1235.80
506.70	1232.76
507.06	1226.44
507.42	1235.10
507.78	1230.42
508.13	1217.78
508.49	1215.21
508.85	1210.06
509.21	1202.10
509.57	1203.27
509.93	1204.21
510.28	1188.76
510.64	1174.25
511.00	1178.23
511.36	1173.78
511.72	1172.61
512.07	1174.01
512.43	1173.78
512.79	1161.37
513.15	1153.65
513.51	1150.37
513.86	1159.03
514.22	1158.80
514.58	1168.16
514.94	1179.63
515.30	1174.95
515.65	1166.52
516.01	1178.46
516.37	1179.40
516.73	1168.16
517.08	1162.54
517.44	1163.01
517.80	1151.31
518.16	1143.12
518.51	1139.61
518.87	1140.54
519.23	1139.61
519.59	1137.50
519.94	1132.82
520.30	1131.88
520.66	1128.61
521.01	1126.97
521.37	1130.01
521.73	1127.44
522.09	1127.67
522.44	1128.61
522.80	1129.78
523.16	1129.54
523.51	1136.80
523.87	1139.37
524.23	1141.48
524.58	1144.05
524.94	1143.12
525.30	1135.86
525.65	1137.97
526.01	1138.90
526.37	1137.27
526.72	1128.14
527.08	1130.48
527.44	1129.78
527.79	1122.05
528.15	1115.73
528.51	1120.88
528.86	1118.07
529.22	1110.35
529.58	1119.01
529.93	1120.18
530.29	1118.07
530.65	1110.12
531.00	1117.14
531.36	1104.73
531.71	1109.88
532.07	1109.88
532.43	1116.67
532.78	1120.41
533.14	1138.67
533.49	1144.52
533.85	1151.78
534.21	1150.14
534.56	1138.44
534.92	1130.24
535.27	1122.29
535.63	1116.44
535.98	1109.41
536.34	1110.12
536.69	1109.88
537.05	1104.03
537.41	1109.18
537.76	1108.71
538.12	1112.46
538.47	1111.05
538.83	1119.48
539.18	1117.14
539.54	1117.14
539.89	1115.73
540.25	1104.03
540.60	1097.95
540.96	1103.33
541.31	1111.29
541.67	1112.92
542.02	1118.07
542.38	1113.16
542.73	1105.20
543.09	1111.29
543.44	1107.31
543.80	1109.41
544.15	1108.71
544.51	1106.61
544.86	1102.86
545.22	1093.26
545.57	1092.80
545.93	1102.86
546.28	1107.31
546.64	1105.44
546.99	1118.07
547.35	1118.54
547.70	1114.33
548.05	1111.05
548.41	1114.33
548.76	1112.69
549.12	1104.97
549.47	1103.09
549.83	1104.26
550.18	1101.92
550.53	1101.46
550.89	1107.78
551.24	1107.31
551.60	1103.56
551.95	1102.63
552.30	1094.90
552.66	1099.12
553.01	1096.54
553.37	1090.92
553.72	1095.37
554.07	1102.16
554.43	1092.33
554.78	1102.63
555.13	1100.99
555.49	1097.71
555.84	1090.92
556.19	1104.03
556.55	1092.56
556.90	1097.24
557.26	1095.14
557.61	1099.82
557.96	1089.05
558.32	1090.22
558.67	1099.82
559.02	1101.22
559.37	1103.56
559.73	1106.37
560.08	1116.20
560.43	1101.46
560.79	1107.78
561.14	1110.82
561.49	1114.10
561.85	1101.69
562.20	1106.37
562.55	1096.54
562.90	1094.43
563.26	1086.94
563.61	1093.50
563.96	1099.82
564.32	1098.41
564.67	1091.86
565.02	1094.20
565.37	1084.37
565.73	1073.84
566.08	1075.01
566.43	1083.67
566.78	1085.31
567.14	1088.35
567.49	1104.50
567.84	1108.24
568.19	1106.61
568.54	1108.24
568.90	1111.29
569.25	1096.54
569.60	1089.99
569.95	1084.14
570.31	1087.65
570.66	1084.37
571.01	1091.63
571.36	1100.05
571.71	1100.05
572.06	1091.16
572.42	1096.54
572.77	1100.29
573.12	1104.73
573.47	1112.46
573.82	1106.61
574.18	1106.61
574.53	1100.52
574.88	1081.09
575.23	1080.86
575.58	1094.90
575.93	1094.67
576.28	1088.82
576.64	1097.01
576.99	1094.20
577.34	1095.37
577.69	1088.12
578.04	1097.48
578.39	1094.20
578.74	1095.60
579.09	1091.86
579.44	1095.14
579.80	1085.07
580.15	1095.37
580.50	1094.67
580.85	1098.18
581.20	1104.26
581.55	1111.75
581.90	1102.16
582.25	1111.29
582.60	1108.71
582.95	1106.14
583.30	1101.22
583.65	1103.80
584.00	1098.65
584.35	1099.12
584.71	1108.95
585.06	1113.39
585.41	1115.97
585.76	1102.86
586.11	1098.41
586.46	1086.71
586.81	1087.65
587.16	1097.01
587.51	1110.12
587.86	1113.16
588.21	1109.88
588.56	1103.56
588.91	1102.16
589.26	1100.05
589.61	1095.84
589.96	1100.29
590.31	1102.63
590.66	1091.39
591.01	1082.50
591.36	1089.75
591.71	1090.69
592.06	1097.95
592.41	1103.09
592.76	1098.88
593.10	1089.75
593.45	1092.56
593.80	1084.37
594.15	1081.80
594.50	1090.69
594.85	1093.73
595.20	1084.14
595.55	1083.43
595.90	1088.12
596.25	1093.73
596.60	1089.75
596.95	1100.75
597.30	1099.58
597.64	1142.65
597.99	1138.90
598.34	1148.27
598.69	1139.14
599.04	1150.37
599.39	1103.09
599.74	1104.73
600.09	1099.12
600.44	1100.05
600.78	1088.12
601.13	1088.82
601.48	1082.03
601.83	1088.82
602.18	1085.77
602.53	1097.48
602.88	1089.05
603.22	1090.46
603.57	1088.35
603.92	1101.46
604.27	1087.88
604.62	1095.14
604.97	1101.92
605.31	1103.09
605.66	1096.07
606.01	1092.09
606.36	1103.09
606.71	1102.63
607.05	1100.75
607.40	1105.20
607.75	1120.65
608.10	1105.90
608.44	1108.01
608.79	1109.18
609.14	1103.09
609.49	1095.14
609.84	1096.78
610.18	1079.92
610.53	1082.50
610.88	1089.29
611.23	1106.14
611.57	1109.18
611.92	1122.99
612.27	1109.65
612.62	1100.75
612.96	1085.54
613.31	1087.88
613.66	1083.90
614.00	1085.77
614.35	1095.84
614.70	1099.35
615.05	1093.03
615.39	1093.50
615.74	1103.56
616.09	1098.88
616.43	1086.94
616.78	1094.20
617.13	1087.88
617.47	1085.54
617.82	1069.62
618.17	1081.80
618.51	1069.86
618.86	1069.86
619.21	1071.03
619.55	1080.86
619.90	1080.63
620.25	1085.77
620.59	1092.56
620.94	1086.71
621.29	1087.88
621.63	1088.58
621.98	1092.80
622.32	1094.43
622.67	1099.82
623.02	1096.31
623.36	1094.90
623.71	1099.35
624.05	1097.71
624.40	1095.84
624.75	1097.95
625.09	1094.20
625.44	1094.67
625.78	1091.86
626.13	1089.52
626.48	1102.86
626.82	1099.35
627.17	1089.99
627.51	1086.48
627.86	1078.99
628.20	1069.86
628.55	1073.60
628.89	1076.41
629.24	1078.52
629.58	1077.11
629.93	1069.39
630.28	1071.73
630.62	1071.03
630.97	1070.56
631.31	1085.07
631.66	1100.29
632.00	1098.41
632.35	1100.29
632.69	1108.95
633.04	1093.97
633.38	1087.88
633.73	1084.84
634.07	1087.18
634.42	1075.24
634.76	1078.75
635.11	1074.31
635.45	1080.39
635.79	1072.20
636.14	1080.63
636.48	1091.63
636.83	1097.48
637.17	1090.69
637.52	1086.94
637.86	1085.54
638.21	1083.67
638.55	1075.94
638.89	1082.73
639.24	1090.69
639.58	1085.54
639.93	1077.58
640.27	1078.75
640.61	1082.50
640.96	1088.58
641.30	1089.29
641.65	1087.18
641.99	1089.29
642.33	1084.84
642.68	1081.80
643.02	1099.82
643.37	1111.99
643.71	1108.01
644.05	1105.90
644.40	1099.12
644.74	1080.63
645.08	1078.52
645.43	1091.16
645.77	1107.54
646.11	1108.71
646.46	1114.56
646.80	1110.12
647.14	1111.05
647.49	1105.44
647.83	1103.80
648.17	1114.80
648.52	1107.07
648.86	1097.48
649.20	1083.90
649.55	1088.82
649.89	1075.01
650.23	1084.14
650.57	1084.14
650.92	1089.05
651.26	1088.82
651.60	1088.12
651.95	1090.22
652.29	1094.90
652.63	1091.16
652.97	1096.78
653.32	1090.92
653.66	1081.33
654.00	1064.48
654.34	1066.58
654.69	1063.07
655.03	1069.62
655.37	1075.24
655.71	1093.50
656.05	1100.29
656.40	1093.03
656.74	1101.92
657.08	1106.14
657.42	1103.56
657.76	1104.50
658.11	1104.26
658.45	1090.69
658.79	1103.09
659.13	1094.90
659.47	1079.92
659.82	1085.07
660.16	1091.63
660.50	1072.67
660.84	1075.01
661.18	1078.52
661.52	1084.60
661.87	1077.11
662.21	1074.07
662.55	1073.84
662.89	1079.22
663.23	1072.90
663.57	1069.39
663.91	1081.56
664.25	1084.60
664.60	1084.37
664.94	1082.03
665.28	1095.84
665.62	1092.09
665.96	1098.88
666.30	1088.82
666.64	1089.75
666.98	1081.09
667.32	1081.80
667.66	1072.20
668.01	1077.58
668.35	1089.29
668.69	1093.73
669.03	1094.90
669.37	1094.20
669.71	1096.07
670.05	1084.37
670.39	1072.67
670.73	1071.03
671.07	1067.28
671.41	1069.86
671.75	1065.88
672.09	1074.07
672.43	1076.65
672.77	1092.56
673.11	1089.05
673.45	1097.24
673.79	1096.07
674.13	1088.35
674.47	1081.09
674.81	1088.58
675.15	1091.16
675.49	1093.50
675.83	1097.95
676.17	1097.01
676.51	1091.39
676.85	1088.58
677.19	1086.48
677.53	1089.05
677.87	1093.50
678.21	1091.63
678.55	1077.58
678.89	1074.31
679.23	1071.73
679.57	1062.84
679.90	1064.48
680.24	1069.39
680.58	1078.99
680.92	1078.52
681.26	1080.86
681.60	1080.86
681.94	1086.48
682.28	1082.50
682.62	1084.84
682.96	1086.48
683.29	1092.80
683.63	1091.86
683.97	1086.71
684.31	1080.39
684.65	1080.16
684.99	1076.41
685.33	1080.39
685.67	1089.52
686.00	1097.01
686.34	1095.84
686.68	1099.58
687.02	1088.12
687.36	1081.80
687.70	1085.07
688.03	1086.24
688.37	1084.60
688.71	1082.73
689.05	1087.41
689.39	1086.48
689.72	1094.67
690.06	1093.50
690.40	1099.82
690.74	1093.73
691.08	1079.69
691.41	1073.37
691.75	1069.86
692.09	1071.26
692.43	1073.84
692.76	1070.33
693.10	1063.54
693.44	1069.39
693.78	1071.03
694.11	1075.94
694.45	1084.37
694.79	1089.52
695.13	1082.73
695.46	1080.86
695.80	1078.75
696.14	1082.26
696.48	1079.92
696.81	1085.07
697.15	1093.03
697.49	1087.18
697.82	1090.69
698.16	1090.22
698.50	1086.94
698.83	1080.86
699.17	1087.41
699.51	1076.65
699.84	1076.65
700.18	1081.09
700.52	1090.46
700.85	1089.75
701.19	1097.01
701.53	1100.05
701.86	1099.58
702.20	1093.50
702.54	1091.63
702.87	1075.48
703.21	1083.43
703.55	1088.82
703.88	1097.01
704.22	1096.31
704.55	1104.50
704.89	1096.78
705.23	1087.41
705.56	1077.11
705.90	1085.54
706.23	1093.26
706.57	1102.63
706.91	1104.26
707.24	1100.75
707.58	1090.92
707.91	1085.77
708.25	1065.88
708.58	1070.09
708.92	1082.03
709.26	1080.39
709.59	1084.14
709.93	1097.95
710.26	1091.86
710.60	1091.16
710.93	1100.05
711.27	1098.65
711.60	1091.39
711.94	1093.26
712.27	1085.07
712.61	1086.01
712.94	1081.80
713.28	1090.69
713.61	1089.05
713.95	1089.05
714.28	1082.03
714.62	1084.84
714.95	1077.35
715.29	1075.94
715.62	1074.77
715.96	1088.12
716.29	1089.75
716.63	1090.92
716.96	1096.31
717.29	1093.73
717.63	1086.24
717.96	1086.24
718.30	1083.20
718.63	1074.54
718.97	1079.46
719.30	1079.46
719.63	1087.18
719.97	1093.73
720.30	1095.14
720.64	1091.63
720.97	1086.48
721.30	1088.35
721.64	1086.24
721.97	1085.31
722.31	1082.97
722.64	1091.16
722.97	1080.39
723.31	1079.46
723.64	1080.16
723.97	1080.39
724.31	1076.41
724.64	1084.84
724.98	1079.46
725.31	1075.24
725.64	1084.60
725.98	1077.82
726.31	1073.84
726.64	1080.39
726.97	1087.88
727.31	1086.48
727.64	1092.09
727.97	1090.69
728.31	1094.90
728.64	1089.99
728.97	1088.58
729.31	1095.84
729.64	1098.18
729.97	1092.56
730.30	1091.63
730.64	1085.07
730.97	1080.86
731.30	1074.54
731.63	1074.54
731.97	1080.16
732.30	1080.86
732.63	1071.97
732.96	1075.24
733.30	1072.67
733.63	1078.99
733.96	1080.86
734.29	1082.26
734.63	1085.07
734.96	1088.82
735.29	1088.58
735.62	1092.33
735.95	1099.58
736.29	1094.43
736.62	1093.26
736.95	1089.05
737.28	1081.56
737.61	1069.39
737.94	1071.50
738.28	1076.88
738.61	1076.65
738.94	1079.46
739.27	1078.75
739.60	1074.31
739.93	1060.73
740.27	1058.62
740.60	1058.16
740.93	1062.60
741.26	1058.86
741.59	1059.56
741.92	1063.77
742.25	1064.71
742.58	1077.35
742.91	1081.09
743.25	1084.60
743.58	1081.09
743.91	1086.48
744.24	1067.75
744.57	1076.65
744.90	1081.56
745.23	1078.99
745.56	1074.54
745.89	1091.16
746.22	1075.94
746.55	1079.69
746.88	1088.58
747.21	1084.14
747.54	1087.18
747.87	1103.33
748.20	1096.31
748.53	1099.58
748.87	1108.01
749.20	1092.33
749.53	1083.43
749.86	1083.67
750.19	1069.39
750.52	1067.75
750.85	1074.77
751.18	1080.63
751.51	1082.50
751.84	1084.14
752.16	1072.20
752.49	1071.03
752.82	1072.90
753.15	1072.67
753.48	1077.82
753.81	1078.28
754.14	1075.48
754.47	1077.82
754.80	1082.26
755.13	1078.52
755.46	1089.75
755.79	1096.78
756.12	1090.92
756.45	1090.22
756.78	1093.73
757.11	1085.77
757.43	1088.12
757.76	1086.94
758.09	1086.24
758.42	1084.60
758.75	1086.71
759.08	1085.31
759.41	1084.14
759.74	1078.75
760.07	1070.80
760.39	1082.97
760.72	1080.63
761.05	1080.16
761.38	1081.80
761.71	1089.05
762.04	1096.31
762.36	1095.14
762.69	1088.12
763.02	1088.12
763.35	1096.54
763.68	1080.63
764.01	1080.39
764.33	1087.65
764.66	1086.48
