SpectraSuite Data File
++++++++++++++++++++++++++++++++++++
Date: Mon Aug 26 10:24:54 PDT 2019
User: corrico
Dark Spectrum Present: No
Reference Spectrum Present: No
Number of Sampled Component Spectra: 1
Spectrometers: USB2+H06089
Integration Time (usec): 10000 (USB2+H06089)
Spectra Averaged: 2 (USB2+H06089)
Boxcar Smoothing: 2 (USB2+H06089)
Correct for Electrical Dark: No (USB2+H06089)
Strobe/Lamp Enabled: No (USB2+H06089)
Correct for Detector Non-linearity: No (USB2+H06089)
Correct for Stray Light: No (USB2+H06089)
Number of Pixels in Processed Spectrum: 2048
>>>>>Begin Processed Spectral Data<<<<<
339.70	1059.09
340.07	1059.09
340.45	1011.11
340.82	981.85
341.19	961.26
341.57	936.92
341.94	926.85
342.31	917.49
342.69	911.17
343.06	903.45
343.43	895.96
343.81	890.57
344.18	908.13
344.55	912.34
344.93	918.19
345.30	924.04
345.67	931.77
346.04	934.58
346.42	950.02
346.79	951.66
347.16	966.88
347.54	975.54
347.91	983.26
348.28	992.15
348.65	1005.73
349.03	1013.69
349.40	1021.88
349.77	1032.18
350.14	1030.77
350.52	1025.86
350.89	1033.58
351.26	1038.26
351.63	1048.79
352.01	1057.92
352.38	1077.35
352.75	1071.73
353.12	1078.75
353.50	1082.50
353.87	1089.52
354.24	1099.35
354.61	1109.65
354.98	1110.82
355.36	1108.95
355.73	1110.35
356.10	1100.75
356.47	1098.41
356.84	1101.22
357.22	1090.92
357.59	1082.97
357.96	1082.73
358.33	1086.94
358.70	1090.69
359.08	1095.60
359.45	1094.90
359.82	1102.39
360.19	1107.31
360.56	1106.84
360.94	1100.29
361.31	1108.95
361.68	1092.33
362.05	1078.52
362.42	1071.97
362.79	1084.37
363.16	1082.97
363.54	1093.97
363.91	1100.75
364.28	1097.48
364.65	1084.37
365.02	1080.63
365.39	1069.39
365.76	1070.56
366.14	1072.43
366.51	1080.86
366.88	1082.50
367.25	1092.33
367.62	1080.63
367.99	1091.86
368.36	1090.69
368.73	1096.07
369.10	1091.63
369.48	1102.63
369.85	1093.73
370.22	1089.52
370.59	1079.46
370.96	1078.05
371.33	1070.56
371.70	1064.94
372.07	1073.84
372.44	1075.24
372.81	1080.16
373.18	1082.03
373.55	1091.63
373.93	1085.77
374.30	1087.41
374.67	1088.58
375.04	1097.71
375.41	1092.80
375.78	1085.77
376.15	1085.54
376.52	1085.31
376.89	1080.63
377.26	1080.16
377.63	1086.24
378.00	1102.39
378.37	1098.65
378.74	1096.54
379.11	1101.22
379.48	1101.22
379.85	1086.48
380.22	1095.14
380.59	1093.50
380.96	1091.86
381.33	1095.60
381.70	1093.50
382.07	1080.86
382.44	1082.50
382.81	1079.46
383.18	1076.18
383.55	1075.24
383.92	1087.88
384.29	1082.73
384.66	1079.22
385.03	1084.14
385.40	1083.67
385.77	1083.20
386.14	1085.77
386.51	1094.20
386.88	1094.90
387.25	1101.46
387.62	1100.99
387.99	1107.31
388.36	1106.84
388.73	1111.99
389.10	1102.63
389.46	1100.52
389.83	1100.05
390.20	1103.80
390.57	1093.50
390.94	1108.01
391.31	1110.35
391.68	1112.69
392.05	1102.39
392.42	1102.16
392.79	1093.50
393.16	1086.24
393.53	1080.63
393.89	1088.82
394.26	1091.16
394.63	1090.46
395.00	1103.80
395.37	1104.73
395.74	1113.16
396.11	1122.52
396.48	1134.69
396.84	1135.63
397.21	1134.46
397.58	1130.71
397.95	1125.33
398.32	1118.78
398.69	1118.31
399.06	1132.82
399.42	1133.05
399.79	1147.10
400.16	1149.44
400.53	1146.39
400.90	1143.35
401.27	1152.71
401.64	1150.61
402.00	1152.71
402.37	1162.78
402.74	1165.59
403.11	1162.54
403.48	1162.54
403.84	1169.57
404.21	1163.95
404.58	1178.69
404.95	1187.12
405.32	1194.14
405.68	1210.29
406.05	1228.78
406.42	1243.53
406.79	1249.85
407.16	1260.14
407.52	1280.04
407.89	1288.93
408.26	1288.70
408.63	1314.21
408.99	1348.38
409.36	1360.55
409.73	1390.51
410.10	1416.73
410.47	1442.00
410.83	1466.11
411.20	1500.28
411.57	1538.20
411.94	1575.41
412.30	1606.78
412.67	1645.16
413.04	1683.31
413.40	1718.66
413.77	1774.36
414.14	1828.66
414.51	1882.73
414.87	1941.71
415.24	2013.09
415.61	2080.50
415.97	2161.72
416.34	2245.98
416.71	2329.30
417.08	2413.56
417.44	2499.22
417.81	2600.57
418.18	2692.55
418.54	2810.75
418.91	2938.07
419.28	3079.91
419.64	3212.62
420.01	3368.73
420.38	3519.23
420.74	3658.49
421.11	3832.86
421.48	4010.51
421.84	4205.47
422.21	4418.70
422.58	4665.86
422.94	4892.42
423.31	5110.79
423.68	5350.70
424.04	5577.73
424.41	5837.30
424.77	6084.69
425.14	6379.36
425.51	6678.02
425.87	7022.31
426.24	7332.90
426.61	7687.26
426.97	8105.98
427.34	8491.00
427.70	8926.57
428.07	9375.25
428.44	9846.63
428.80	10277.76
429.17	10772.32
429.53	11206.25
429.90	11757.45
430.27	12229.53
430.63	12739.54
431.00	13296.12
431.36	13974.87
431.73	14514.13
432.09	15121.97
432.46	15738.93
432.83	16274.92
433.19	16739.04
433.56	17296.56
433.92	17902.06
434.29	18508.25
434.65	19187.95
435.02	19766.29
435.38	20328.72
435.75	20798.23
436.11	21323.92
436.48	21749.90
436.84	22291.73
437.21	22745.09
437.57	23150.94
437.94	23467.38
438.30	23756.20
438.67	23923.32
439.03	24063.05
439.40	24215.18
439.76	24166.50
440.13	24120.86
440.49	24016.00
440.86	23744.73
441.22	23559.83
441.59	23234.03
441.95	22881.78
442.32	22452.99
442.68	22148.72
443.05	21660.96
443.41	21291.15
443.78	20728.02
444.14	20251.95
444.51	19664.01
444.87	19237.57
445.24	18748.16
445.60	18388.18
445.96	17913.52
446.33	17544.42
446.69	16983.86
447.06	16522.31
447.42	16040.16
447.79	15617.22
448.15	15206.23
448.51	14785.40
448.88	14410.91
449.24	13991.96
449.61	13697.05
449.97	13369.37
450.33	13102.08
450.70	12742.34
451.06	12441.59
451.43	12003.44
451.79	11686.29
452.15	11344.58
452.52	11101.16
452.88	10894.49
453.24	10681.27
453.61	10439.96
453.97	10202.16
454.34	9895.55
454.70	9612.35
455.06	9369.63
455.43	9046.40
455.79	8730.67
456.15	8482.57
456.52	8217.39
456.88	7999.95
457.24	7755.13
457.61	7575.14
457.97	7390.71
458.33	7194.57
458.70	6964.03
459.06	6742.15
459.42	6519.56
459.79	6279.19
460.15	6075.33
460.51	5893.94
460.88	5740.40
461.24	5569.07
461.60	5408.74
461.96	5235.31
462.33	5087.39
462.69	4935.25
463.05	4791.54
463.42	4688.09
463.78	4585.11
464.14	4454.74
464.50	4363.69
464.87	4275.69
465.23	4172.00
465.59	4068.32
465.95	3973.29
466.32	3873.82
466.68	3783.24
467.04	3683.77
467.40	3591.79
467.77	3523.44
468.13	3460.01
468.49	3408.29
468.85	3361.01
469.22	3327.77
469.58	3272.54
469.94	3202.09
470.30	3151.06
470.66	3085.76
471.03	3001.27
471.39	2952.59
471.75	2909.52
472.11	2856.62
472.47	2818.00
472.84	2776.81
473.20	2722.51
473.56	2684.83
473.92	2618.59
474.28	2570.61
474.65	2539.95
475.01	2516.78
475.37	2481.44
475.73	2452.41
476.09	2429.01
476.45	2396.94
476.81	2342.17
477.18	2288.11
477.54	2264.47
477.90	2242.94
478.26	2209.00
478.62	2199.40
478.98	2183.72
479.34	2152.36
479.71	2106.25
480.07	2079.10
480.43	2045.86
480.79	2020.58
481.15	2003.26
481.51	1996.24
481.87	1979.16
482.23	1962.07
482.59	1935.62
482.96	1905.90
483.32	1879.92
483.68	1863.30
484.04	1842.00
484.40	1837.09
484.76	1833.34
485.12	1810.64
485.48	1789.57
485.84	1770.15
486.20	1757.51
486.56	1726.38
486.92	1723.34
487.28	1706.95
487.64	1698.29
488.00	1667.40
488.37	1666.46
488.73	1640.48
489.09	1631.35
489.45	1618.25
489.81	1606.78
490.17	1592.27
490.53	1583.14
490.89	1566.05
491.25	1555.29
491.61	1553.18
491.97	1530.48
492.33	1527.67
492.69	1520.18
493.05	1498.88
493.41	1466.81
493.77	1451.60
494.13	1424.22
494.49	1409.47
494.85	1391.21
495.21	1395.43
495.57	1394.96
495.93	1392.38
496.29	1387.94
496.64	1396.36
497.00	1402.45
497.36	1390.98
497.72	1388.17
498.08	1382.55
498.44	1361.72
498.80	1339.96
499.16	1325.68
499.52	1313.51
499.88	1301.81
500.24	1302.04
500.60	1302.51
500.96	1296.42
501.32	1282.38
501.68	1280.04
502.03	1278.63
502.39	1272.08
502.75	1265.53
503.11	1267.17
503.47	1245.40
503.83	1237.91
504.19	1231.82
504.55	1229.95
504.91	1223.40
505.26	1223.16
505.62	1213.10
505.98	1206.55
506.34	1199.76
506.70	1199.76
507.06	1202.33
507.42	1205.61
507.78	1200.69
508.13	1215.44
508.49	1206.78
508.85	1200.46
509.21	1184.31
509.57	1177.99
509.93	1160.91
510.28	1161.37
510.64	1169.57
511.00	1172.84
511.36	1171.44
511.72	1167.23
512.07	1148.50
512.43	1149.67
512.79	1145.93
513.15	1157.86
513.51	1168.40
513.86	1180.10
514.22	1172.84
514.58	1172.84
514.94	1162.31
515.30	1160.20
515.65	1152.71
516.01	1147.56
516.37	1145.93
516.73	1132.35
517.08	1133.52
517.44	1148.27
517.80	1153.65
518.16	1159.50
518.51	1172.14
518.87	1164.88
519.23	1160.91
519.59	1148.03
519.94	1147.33
520.30	1134.22
520.66	1134.93
521.01	1115.27
521.37	1119.71
521.73	1107.78
522.09	1118.07
522.44	1118.31
522.80	1130.24
523.16	1127.44
523.51	1137.27
523.87	1139.14
524.23	1141.71
524.58	1134.46
524.94	1140.31
525.30	1133.29
525.65	1134.93
526.01	1133.05
526.37	1139.61
526.72	1130.48
527.08	1129.54
527.44	1128.61
527.79	1126.73
528.15	1116.67
528.51	1115.27
528.86	1121.35
529.22	1118.54
529.58	1114.10
529.93	1117.84
530.29	1112.92
530.65	1106.84
531.00	1098.41
531.36	1094.90
531.71	1105.20
532.07	1108.01
532.43	1113.16
532.78	1120.88
533.14	1122.75
533.49	1120.65
533.85	1129.07
534.21	1131.65
534.56	1137.27
534.92	1145.46
535.27	1137.50
535.63	1139.84
535.98	1121.35
536.34	1110.12
536.69	1090.92
537.05	1091.16
537.41	1091.86
537.76	1107.54
538.12	1111.52
538.47	1121.35
538.83	1135.86
539.18	1116.67
539.54	1115.03
539.89	1111.99
540.25	1119.01
540.60	1115.97
540.96	1129.31
541.31	1130.01
541.67	1132.59
542.02	1124.86
542.38	1118.54
542.73	1112.92
543.09	1114.33
543.44	1111.29
543.80	1107.54
544.15	1111.29
544.51	1114.33
544.86	1107.54
545.22	1114.33
545.57	1129.07
545.93	1130.24
546.28	1135.16
546.64	1137.50
546.99	1138.44
547.35	1131.18
547.70	1118.31
548.05	1112.92
548.41	1108.95
548.76	1101.22
549.12	1087.18
549.47	1094.67
549.83	1098.88
550.18	1099.58
550.53	1097.01
550.89	1104.03
551.24	1097.95
551.60	1087.88
551.95	1087.65
552.30	1091.39
552.66	1093.50
553.01	1100.52
553.37	1111.29
553.72	1112.69
554.07	1105.44
554.43	1097.24
554.78	1089.29
555.13	1081.80
555.49	1089.99
555.84	1094.43
556.19	1109.18
556.55	1110.12
556.90	1113.86
557.26	1108.48
557.61	1108.95
557.96	1096.07
558.32	1096.78
558.67	1085.77
559.02	1075.94
559.37	1082.97
559.73	1089.99
560.08	1086.71
560.43	1094.67
560.79	1100.52
561.14	1087.88
561.49	1087.88
561.85	1093.03
562.20	1097.48
562.55	1094.43
562.90	1096.78
563.26	1086.71
563.61	1077.82
563.96	1077.82
564.32	1084.14
564.67	1087.18
565.02	1093.26
565.37	1097.48
565.73	1096.07
566.08	1093.50
566.43	1096.31
566.78	1094.90
567.14	1096.07
567.49	1087.41
567.84	1083.90
568.19	1086.71
568.54	1100.99
568.90	1106.37
569.25	1110.82
569.60	1107.78
569.95	1098.41
570.31	1075.71
570.66	1074.54
571.01	1075.71
571.36	1086.24
571.71	1093.26
572.06	1104.26
572.42	1110.82
572.77	1120.65
573.12	1111.75
573.47	1106.37
573.82	1102.86
574.18	1086.48
574.53	1082.97
574.88	1085.77
575.23	1097.24
575.58	1097.71
575.93	1103.80
576.28	1094.20
576.64	1096.78
576.99	1088.12
577.34	1091.63
577.69	1089.99
578.04	1092.80
578.39	1087.18
578.74	1079.22
579.09	1075.24
579.44	1080.16
579.80	1078.75
580.15	1089.99
580.50	1092.09
580.85	1097.01
581.20	1098.18
581.55	1090.92
581.90	1093.26
582.25	1099.58
582.60	1100.52
582.95	1099.35
583.30	1111.29
583.65	1101.92
584.00	1099.82
584.35	1101.46
584.71	1095.37
585.06	1098.18
585.41	1102.16
585.76	1107.78
586.11	1095.37
586.46	1103.80
586.81	1106.14
587.16	1105.44
587.51	1095.84
587.86	1096.78
588.21	1089.05
588.56	1085.77
588.91	1070.33
589.26	1080.39
589.61	1093.26
589.96	1107.07
590.31	1106.84
590.66	1115.97
591.01	1108.01
591.36	1101.46
591.71	1091.86
592.06	1086.94
592.41	1090.46
592.76	1089.99
593.10	1093.50
593.45	1089.75
593.80	1100.05
594.15	1098.65
594.50	1100.05
594.85	1098.88
595.20	1096.31
595.55	1082.03
595.90	1075.71
596.25	1086.01
596.60	1088.82
596.95	1092.33
597.30	1091.86
597.64	1151.31
597.99	1149.91
598.34	1140.54
598.69	1144.05
599.04	1148.03
599.39	1102.63
599.74	1093.73
600.09	1095.37
600.44	1096.07
600.78	1092.80
601.13	1089.52
601.48	1090.69
601.83	1100.52
602.18	1099.58
602.53	1108.24
602.88	1104.73
603.22	1100.99
603.57	1097.48
603.92	1090.92
604.27	1089.05
604.62	1090.46
604.97	1096.78
605.31	1093.50
605.66	1098.65
606.01	1087.88
606.36	1086.24
606.71	1082.97
607.05	1089.52
607.40	1100.29
607.75	1116.20
608.10	1119.71
608.44	1127.20
608.79	1119.71
609.14	1104.26
609.49	1105.67
609.84	1105.90
610.18	1101.46
610.53	1102.63
610.88	1106.84
611.23	1106.37
611.57	1104.50
611.92	1105.67
612.27	1113.86
612.62	1106.61
612.96	1092.33
613.31	1086.94
613.66	1079.46
614.00	1073.37
614.35	1081.33
614.70	1086.01
615.05	1086.01
615.39	1084.14
615.74	1084.84
616.09	1085.54
616.43	1085.07
616.78	1071.26
617.13	1079.46
617.47	1079.92
617.82	1085.77
618.17	1086.94
618.51	1104.03
618.86	1100.99
619.21	1099.12
619.55	1096.78
619.90	1099.58
620.25	1092.80
620.59	1093.73
620.94	1092.09
621.29	1088.35
621.63	1088.82
621.98	1093.73
622.32	1098.18
622.67	1088.58
623.02	1094.20
623.36	1091.39
623.71	1094.43
624.05	1094.43
624.40	1101.69
624.75	1096.07
625.09	1097.48
625.44	1098.88
625.78	1091.86
626.13	1094.67
626.48	1097.71
626.82	1097.48
627.17	1093.50
627.51	1093.03
627.86	1093.73
628.20	1089.52
628.55	1082.73
628.89	1088.12
629.24	1082.50
629.58	1083.20
629.93	1086.24
630.28	1090.22
630.62	1086.24
630.97	1097.95
631.31	1095.37
631.66	1093.97
632.00	1096.54
632.35	1097.71
632.69	1099.82
633.04	1092.56
633.38	1089.75
633.73	1078.52
634.07	1074.31
634.42	1063.54
634.76	1066.82
635.11	1072.90
635.45	1089.05
635.79	1090.22
636.14	1096.31
636.48	1104.73
636.83	1103.09
637.17	1089.52
637.52	1093.50
637.86	1087.65
638.21	1086.71
638.55	1084.14
638.89	1090.69
639.24	1084.84
639.58	1088.35
639.93	1082.73
640.27	1076.41
640.61	1077.58
640.96	1080.63
641.30	1077.58
641.65	1067.75
641.99	1069.86
642.33	1071.26
642.68	1071.03
643.02	1076.41
643.37	1090.22
643.71	1098.41
644.05	1088.82
644.40	1094.90
644.74	1094.67
645.08	1094.90
645.43	1088.12
645.77	1094.43
646.11	1082.97
646.46	1079.92
646.80	1077.11
647.14	1082.26
647.49	1082.26
647.83	1091.39
648.17	1094.20
648.52	1091.86
648.86	1090.22
649.20	1091.86
649.55	1090.69
649.89	1083.67
650.23	1082.97
650.57	1084.84
650.92	1082.03
651.26	1085.07
651.60	1087.41
651.95	1089.29
652.29	1092.33
652.63	1103.56
652.97	1094.20
653.32	1096.31
653.66	1101.22
654.00	1091.63
654.34	1083.90
654.69	1080.63
655.03	1079.46
655.37	1079.46
655.71	1081.56
656.05	1081.80
656.40	1083.67
656.74	1086.01
657.08	1089.29
657.42	1096.31
657.76	1086.94
658.11	1094.67
658.45	1095.84
658.79	1092.33
659.13	1094.20
659.47	1102.63
659.82	1110.12
660.16	1106.61
660.50	1104.73
660.84	1100.75
661.18	1100.05
661.52	1078.05
661.87	1078.99
662.21	1084.14
662.55	1085.54
662.89	1086.71
663.23	1100.75
663.57	1105.67
663.91	1090.92
664.25	1079.46
664.60	1074.07
664.94	1073.37
665.28	1074.07
665.62	1081.80
665.96	1086.94
666.30	1098.88
666.64	1092.33
666.98	1098.65
667.32	1098.88
667.66	1097.24
668.01	1085.77
668.35	1093.26
668.69	1087.88
669.03	1088.82
669.37	1091.39
669.71	1088.12
670.05	1077.58
670.39	1072.20
670.73	1073.84
671.07	1068.45
671.41	1071.26
671.75	1084.60
672.09	1080.63
672.43	1076.88
672.77	1079.22
673.11	1097.24
673.45	1090.92
673.79	1093.73
674.13	1098.65
674.47	1094.43
674.81	1081.56
675.15	1086.01
675.49	1093.03
675.83	1084.60
676.17	1089.29
676.51	1082.26
676.85	1077.35
677.19	1073.60
677.53	1077.11
677.87	1076.88
678.21	1081.33
678.55	1082.03
678.89	1076.65
679.23	1081.56
679.57	1079.46
679.90	1080.16
680.24	1075.94
680.58	1069.62
680.92	1066.58
681.26	1063.31
681.60	1060.03
681.94	1065.18
682.28	1075.94
682.62	1065.18
682.96	1071.03
683.29	1077.58
683.63	1077.35
683.97	1075.48
684.31	1083.43
684.65	1090.46
684.99	1093.50
685.33	1088.12
685.67	1088.58
686.00	1090.22
686.34	1080.39
686.68	1071.97
687.02	1066.35
687.36	1072.20
687.70	1074.07
688.03	1085.77
688.37	1089.05
688.71	1096.07
689.05	1089.75
689.39	1090.92
689.72	1088.12
690.06	1083.90
690.40	1086.94
690.74	1091.39
691.08	1088.82
691.41	1087.41
691.75	1100.05
692.09	1102.39
692.43	1093.50
692.76	1088.35
693.10	1083.43
693.44	1078.05
693.78	1079.46
694.11	1085.31
694.45	1081.80
694.79	1083.43
695.13	1073.84
695.46	1070.09
695.80	1068.45
696.14	1081.09
696.48	1089.29
696.81	1103.33
697.15	1097.01
697.49	1099.82
697.82	1100.75
698.16	1085.77
698.50	1087.41
698.83	1085.07
699.17	1084.14
699.51	1088.12
699.84	1104.97
700.18	1096.78
700.52	1104.26
700.85	1106.14
701.19	1102.86
701.53	1096.78
701.86	1096.54
702.20	1102.16
702.54	1095.37
702.87	1089.52
703.21	1077.58
703.55	1066.58
703.88	1059.56
704.22	1067.28
704.55	1058.39
704.89	1064.48
705.23	1065.41
705.56	1071.50
705.90	1064.71
706.23	1074.07
706.57	1079.69
706.91	1088.12
707.24	1084.84
707.58	1086.94
707.91	1091.39
708.25	1093.73
708.58	1086.01
708.92	1086.71
709.26	1093.73
709.59	1084.60
709.93	1081.80
710.26	1086.71
710.60	1089.05
710.93	1089.75
711.27	1088.82
711.60	1082.73
711.94	1083.90
712.27	1076.65
712.61	1078.05
712.94	1086.94
713.28	1086.48
713.61	1085.07
713.95	1088.82
714.28	1081.56
714.62	1075.01
714.95	1080.86
715.29	1079.92
715.62	1080.39
715.96	1082.26
716.29	1087.41
716.63	1083.90
716.96	1080.86
717.29	1082.50
717.63	1076.88
717.96	1082.26
718.30	1082.50
718.63	1087.41
718.97	1078.05
719.30	1082.97
719.63	1077.35
719.97	1073.84
720.30	1071.26
720.64	1079.69
720.97	1079.92
721.30	1076.41
721.64	1083.20
721.97	1095.37
722.31	1089.05
722.64	1087.65
722.97	1091.63
723.31	1089.05
723.64	1076.18
723.97	1081.33
724.31	1076.65
724.64	1077.11
724.98	1074.54
725.31	1086.71
725.64	1095.37
725.98	1097.01
726.31	1091.63
726.64	1091.86
726.97	1078.05
727.31	1060.26
727.64	1052.77
727.97	1049.73
728.31	1040.37
728.64	1041.54
728.97	1053.48
729.31	1064.01
729.64	1072.43
729.97	1073.37
730.30	1073.60
730.64	1070.80
730.97	1070.09
731.30	1069.62
731.63	1073.37
731.97	1078.28
732.30	1085.77
732.63	1092.80
732.96	1084.84
733.30	1091.86
733.63	1089.75
733.96	1079.46
734.29	1071.26
734.63	1072.90
734.96	1080.63
735.29	1089.29
735.62	1095.84
735.95	1092.56
736.29	1104.26
736.62	1094.20
736.95	1086.94
737.28	1084.84
737.61	1085.31
737.94	1069.62
738.28	1067.52
738.61	1064.71
738.94	1063.07
739.27	1059.09
739.60	1059.33
739.93	1061.90
740.27	1064.48
740.60	1067.99
740.93	1076.65
741.26	1082.03
741.59	1087.18
741.92	1087.18
742.25	1087.88
742.58	1079.22
742.91	1083.20
743.25	1083.90
743.58	1088.82
743.91	1086.01
744.24	1095.84
744.57	1094.90
744.90	1089.52
745.23	1084.37
745.56	1083.43
745.89	1077.58
746.22	1075.01
746.55	1078.05
746.88	1080.86
747.21	1086.24
747.54	1081.09
747.87	1078.52
748.20	1075.01
748.53	1071.97
748.87	1068.45
749.20	1081.56
749.53	1084.84
749.86	1084.14
750.19	1085.31
750.52	1082.03
750.85	1074.77
751.18	1067.52
751.51	1081.33
751.84	1082.03
752.16	1089.99
752.49	1099.82
752.82	1105.44
753.15	1093.26
753.48	1091.63
753.81	1088.12
754.14	1078.99
754.47	1077.11
754.80	1076.18
755.13	1076.41
755.46	1074.07
755.79	1079.22
756.12	1095.60
756.45	1089.99
756.78	1094.20
757.11	1096.31
757.43	1087.41
757.76	1065.18
758.09	1069.16
758.42	1071.97
758.75	1064.24
759.08	1076.65
759.41	1085.77
759.74	1085.31
760.07	1078.75
760.39	1082.26
760.72	1077.35
761.05	1070.80
761.38	1076.65
761.71	1084.37
762.04	1079.22
762.36	1070.56
762.69	1072.67
763.02	1076.18
763.35	1069.39
763.68	1086.01
764.01	1096.07
764.33	1091.86
764.66	1086.24
