SpectraSuite Data File
++++++++++++++++++++++++++++++++++++
Date: Mon Aug 26 10:24:53 PDT 2019
User: corrico
Dark Spectrum Present: No
Reference Spectrum Present: No
Number of Sampled Component Spectra: 1
Spectrometers: USB2+H06089
Integration Time (usec): 10000 (USB2+H06089)
Spectra Averaged: 2 (USB2+H06089)
Boxcar Smoothing: 2 (USB2+H06089)
Correct for Electrical Dark: No (USB2+H06089)
Strobe/Lamp Enabled: No (USB2+H06089)
Correct for Detector Non-linearity: No (USB2+H06089)
Correct for Stray Light: No (USB2+H06089)
Number of Pixels in Processed Spectrum: 2048
>>>>>Begin Processed Spectral Data<<<<<
339.70	1008.77
340.07	1008.77
340.45	984.66
340.82	964.53
341.19	942.07
341.57	924.98
341.94	921.23
342.31	905.09
342.69	907.89
343.06	909.77
343.43	902.74
343.81	903.68
344.18	904.85
344.55	904.15
344.93	909.06
345.30	914.92
345.67	912.57
346.04	912.81
346.42	919.13
346.79	930.83
347.16	937.85
347.54	957.51
347.91	975.07
348.28	986.07
348.65	990.51
349.03	1009.00
349.40	1014.86
349.77	1024.45
350.14	1043.64
350.52	1046.92
350.89	1053.48
351.26	1062.84
351.63	1075.24
352.01	1071.50
352.38	1075.48
352.75	1069.16
353.12	1073.14
353.50	1065.41
353.87	1064.94
354.24	1071.73
354.61	1086.48
354.98	1093.03
355.36	1097.01
355.73	1100.52
356.10	1110.82
356.47	1109.18
356.84	1114.56
357.22	1115.73
357.59	1120.41
357.96	1110.58
358.33	1090.69
358.70	1078.28
359.08	1075.24
359.45	1065.88
359.82	1066.11
360.19	1080.39
360.56	1088.58
360.94	1088.82
361.31	1081.09
361.68	1086.94
362.05	1081.09
362.42	1071.97
362.79	1064.24
363.16	1068.22
363.54	1064.94
363.91	1073.60
364.28	1078.99
364.65	1080.86
365.02	1087.41
365.39	1076.65
365.76	1082.26
366.14	1070.56
366.51	1080.63
366.88	1083.90
367.25	1102.39
367.62	1096.78
367.99	1107.54
368.36	1102.63
368.73	1104.03
369.10	1100.99
369.48	1096.78
369.85	1095.37
370.22	1094.67
370.59	1093.97
370.96	1082.97
371.33	1081.56
371.70	1090.92
372.07	1093.26
372.44	1096.31
372.81	1085.77
373.18	1089.99
373.55	1084.60
373.93	1086.01
374.30	1079.92
374.67	1092.80
375.04	1090.69
375.41	1087.18
375.78	1083.90
376.15	1081.09
376.52	1082.26
376.89	1080.39
377.26	1076.88
377.63	1085.54
378.00	1088.58
378.37	1091.39
378.74	1094.20
379.11	1105.20
379.48	1104.03
379.85	1097.24
380.22	1096.54
380.59	1113.39
380.96	1115.27
381.33	1112.46
381.70	1117.37
382.07	1127.90
382.44	1109.65
382.81	1093.97
383.18	1088.35
383.55	1089.99
383.92	1078.52
384.29	1084.84
384.66	1096.07
385.03	1105.44
385.40	1102.39
385.77	1112.22
386.14	1114.80
386.51	1113.63
386.88	1112.69
387.25	1108.24
387.62	1101.69
387.99	1096.31
388.36	1090.69
388.73	1084.14
389.10	1094.20
389.46	1089.05
389.83	1095.14
390.20	1100.75
390.57	1114.56
390.94	1117.84
391.31	1120.41
391.68	1115.97
392.05	1109.18
392.42	1108.48
392.79	1112.46
393.16	1113.86
393.53	1113.86
393.89	1120.88
394.26	1108.24
394.63	1105.90
395.00	1111.75
395.37	1106.14
395.74	1106.37
396.11	1115.97
396.48	1119.48
396.84	1117.84
397.21	1123.22
397.58	1131.41
397.95	1138.44
398.32	1140.31
398.69	1140.54
399.06	1141.71
399.42	1137.27
399.79	1130.24
400.16	1118.31
400.53	1131.41
400.90	1137.97
401.27	1142.88
401.64	1157.39
402.00	1166.52
402.37	1158.10
402.74	1167.93
403.11	1170.27
403.48	1166.99
403.84	1179.63
404.21	1192.97
404.58	1204.67
404.95	1207.95
405.32	1217.55
405.68	1225.97
406.05	1236.04
406.42	1244.23
406.79	1257.34
407.16	1275.12
407.52	1289.64
407.89	1294.08
408.26	1297.83
408.63	1326.15
408.99	1340.89
409.36	1358.21
409.73	1392.38
410.10	1433.11
410.47	1451.60
410.83	1479.45
411.20	1517.60
411.57	1544.99
411.94	1581.73
412.30	1627.37
412.67	1668.57
413.04	1711.87
413.40	1761.02
413.77	1822.11
414.14	1877.34
414.51	1942.64
414.87	2020.58
415.24	2099.23
415.61	2167.34
415.97	2247.85
416.34	2335.85
416.71	2414.96
417.08	2501.10
417.44	2592.61
417.81	2704.25
418.18	2815.43
418.54	2954.93
418.91	3093.02
419.28	3226.19
419.64	3359.37
420.01	3533.51
420.38	3672.53
420.74	3838.01
421.11	4038.83
421.48	4245.26
421.84	4449.12
422.21	4670.07
422.58	4938.76
422.94	5193.41
423.31	5450.17
423.68	5715.12
424.04	6023.37
424.41	6290.66
424.77	6564.73
425.14	6880.71
425.51	7199.02
425.87	7572.57
426.24	7913.35
426.61	8317.33
426.97	8771.16
427.34	9194.33
427.70	9598.54
428.07	10103.16
428.44	10602.86
428.80	11068.39
429.17	11596.42
429.53	12132.17
429.90	12706.77
430.27	13246.50
430.63	13817.82
431.00	14484.17
431.36	15208.33
431.73	15833.02
432.09	16496.33
432.46	17193.34
432.83	17758.35
433.19	18267.18
433.56	18921.59
433.92	19550.49
434.29	20114.10
434.65	20827.73
435.02	21439.07
435.38	22039.42
435.75	22586.40
436.11	23202.43
436.48	23599.62
436.84	24098.86
437.21	24532.79
437.57	24936.77
437.94	25318.51
438.30	25756.43
438.67	26085.27
439.03	26213.06
439.40	26404.29
439.76	26365.90
440.13	26274.62
440.49	26155.72
440.86	25939.22
441.22	25645.02
441.59	25275.91
441.95	24886.45
442.32	24385.81
442.68	23946.25
443.05	23418.00
443.41	22952.23
443.78	22394.25
444.14	21862.71
444.51	21312.45
444.87	20915.50
445.24	20426.79
445.60	19974.60
445.96	19488.70
446.33	19014.28
446.69	18424.70
447.06	17926.40
447.42	17401.65
447.79	16882.75
448.15	16540.57
448.51	16069.88
448.88	15683.70
449.24	15251.63
449.61	14964.45
449.97	14539.64
450.33	14178.03
450.70	13742.22
451.06	13414.08
451.43	12975.93
451.79	12636.55
452.15	12339.07
452.52	12057.97
452.88	11733.81
453.24	11478.22
453.61	11195.72
453.97	10912.98
454.34	10626.27
454.70	10397.36
455.06	10139.20
455.43	9828.38
455.79	9515.21
456.15	9235.99
456.52	8902.70
456.88	8614.81
457.24	8352.67
457.61	8163.79
457.97	7924.35
458.33	7740.15
458.70	7520.38
459.06	7272.98
459.42	7032.14
459.79	6792.23
460.15	6572.69
460.51	6368.60
460.88	6183.23
461.24	5964.62
461.60	5819.04
461.96	5656.84
462.33	5468.43
462.69	5313.02
463.05	5158.31
463.42	5014.36
463.78	4877.21
464.14	4766.97
464.50	4649.01
464.87	4551.87
465.23	4433.21
465.59	4322.74
465.95	4223.03
466.32	4146.49
466.68	4067.85
467.04	3974.70
467.40	3881.31
467.77	3817.88
468.13	3714.66
468.49	3629.00
468.85	3580.32
469.22	3542.17
469.58	3465.16
469.94	3438.01
470.30	3376.46
470.66	3308.35
471.03	3232.98
471.39	3171.66
471.75	3081.08
472.11	3030.29
472.47	2976.23
472.84	2917.48
473.20	2861.07
473.56	2827.13
473.92	2769.79
474.28	2719.70
474.65	2678.98
475.01	2646.21
475.37	2601.97
475.73	2575.76
476.09	2529.89
476.45	2496.65
476.81	2453.35
477.18	2405.84
477.54	2363.47
477.90	2350.13
478.26	2316.19
478.62	2300.98
478.98	2276.41
479.34	2255.34
479.71	2223.27
480.07	2194.02
480.43	2153.06
480.79	2135.74
481.15	2109.76
481.51	2084.72
481.87	2051.95
482.23	2032.52
482.59	1995.07
482.96	1977.28
483.32	1960.90
483.68	1952.71
484.04	1928.13
484.40	1926.03
484.76	1902.15
485.12	1880.62
485.48	1857.92
485.84	1836.62
486.20	1821.40
486.56	1803.62
486.92	1785.36
487.28	1756.34
487.64	1738.55
488.00	1709.29
488.37	1690.80
488.73	1677.93
489.09	1673.95
489.45	1655.46
489.81	1651.48
490.17	1632.06
490.53	1614.27
490.89	1596.25
491.25	1593.44
491.61	1572.61
491.97	1559.03
492.33	1542.65
492.69	1526.97
493.05	1516.67
493.41	1506.13
493.77	1490.45
494.13	1482.50
494.49	1485.77
494.85	1468.69
495.21	1457.69
495.57	1454.88
495.93	1439.43
496.29	1419.07
496.64	1414.62
497.00	1399.87
497.36	1396.83
497.72	1398.94
498.08	1384.19
498.44	1375.53
498.80	1365.94
499.16	1351.89
499.52	1332.00
499.88	1335.04
500.24	1325.91
500.60	1312.57
500.96	1310.00
501.32	1314.91
501.68	1307.42
502.03	1299.70
502.39	1302.74
502.75	1288.93
503.11	1280.27
503.47	1269.04
503.83	1267.17
504.19	1274.89
504.55	1278.87
504.91	1276.29
505.26	1282.61
505.62	1279.57
505.98	1264.83
506.34	1259.91
506.70	1249.38
507.06	1231.36
507.42	1215.21
507.78	1218.25
508.13	1207.95
508.49	1208.89
508.85	1212.63
509.21	1224.10
509.57	1206.08
509.93	1198.59
510.28	1202.57
510.64	1199.52
511.00	1186.65
511.36	1182.20
511.72	1185.01
512.07	1177.06
512.43	1179.40
512.79	1178.23
513.15	1187.82
513.51	1185.01
513.86	1185.01
514.22	1186.42
514.58	1180.10
514.94	1179.63
515.30	1177.76
515.65	1163.01
516.01	1153.65
516.37	1152.95
516.73	1131.65
517.08	1133.99
517.44	1139.14
517.80	1140.07
518.16	1144.05
518.51	1156.69
518.87	1147.10
519.23	1133.99
519.59	1120.88
519.94	1119.01
520.30	1113.86
520.66	1126.73
521.01	1142.42
521.37	1141.71
521.73	1141.25
522.09	1148.73
522.44	1141.48
522.80	1134.22
523.16	1145.22
523.51	1137.27
523.87	1138.90
524.23	1136.10
524.58	1133.05
524.94	1120.88
525.30	1121.35
525.65	1109.18
526.01	1108.71
526.37	1115.97
526.72	1119.24
527.08	1129.31
527.44	1129.54
527.79	1130.01
528.15	1112.69
528.51	1118.54
528.86	1108.48
529.22	1107.31
529.58	1111.05
529.93	1119.24
530.29	1119.48
530.65	1124.86
531.00	1129.54
531.36	1126.50
531.71	1131.41
532.07	1123.22
532.43	1118.31
532.78	1121.12
533.14	1105.90
533.49	1095.60
533.85	1108.71
534.21	1108.01
534.56	1098.88
534.92	1099.82
535.27	1112.69
535.63	1106.61
535.98	1110.35
536.34	1115.27
536.69	1128.61
537.05	1120.88
537.41	1111.75
537.76	1113.86
538.12	1112.92
538.47	1102.63
538.83	1109.41
539.18	1118.07
539.54	1112.46
539.89	1108.71
540.25	1109.18
540.60	1102.63
540.96	1097.48
541.31	1103.09
541.67	1108.95
542.02	1111.05
542.38	1119.01
542.73	1124.86
543.09	1130.95
543.44	1136.33
543.80	1137.73
544.15	1137.73
544.51	1143.59
544.86	1137.03
545.22	1131.65
545.57	1138.67
545.93	1135.86
546.28	1127.20
546.64	1117.84
546.99	1120.18
547.35	1107.54
547.70	1100.75
548.05	1097.95
548.41	1103.80
548.76	1093.50
549.12	1100.99
549.47	1100.75
549.83	1091.63
550.18	1093.50
550.53	1097.01
550.89	1091.39
551.24	1087.88
551.60	1095.84
551.95	1094.90
552.30	1096.07
552.66	1092.56
553.01	1098.88
553.37	1096.31
553.72	1094.67
554.07	1091.39
554.43	1100.99
554.78	1111.75
555.13	1108.01
555.49	1104.03
555.84	1102.86
556.19	1099.58
556.55	1088.12
556.90	1094.20
557.26	1096.07
557.61	1104.26
557.96	1102.39
558.32	1104.73
558.67	1106.37
559.02	1113.86
559.37	1109.88
559.73	1108.95
560.08	1099.35
560.43	1093.03
560.79	1080.86
561.14	1078.99
561.49	1077.35
561.85	1091.16
562.20	1097.95
562.55	1102.16
562.90	1102.86
563.26	1107.78
563.61	1098.18
563.96	1094.20
564.32	1097.48
564.67	1094.90
565.02	1095.84
565.37	1093.03
565.73	1096.31
566.08	1083.43
566.43	1083.43
566.78	1083.20
567.14	1083.43
567.49	1070.09
567.84	1082.50
568.19	1089.29
568.54	1083.90
568.90	1099.12
569.25	1120.18
569.60	1125.56
569.95	1117.14
570.31	1117.61
570.66	1106.37
571.01	1087.65
571.36	1075.94
571.71	1083.90
572.06	1086.71
572.42	1089.29
572.77	1095.84
573.12	1098.65
573.47	1091.16
573.82	1094.20
574.18	1094.43
574.53	1090.69
574.88	1088.82
575.23	1090.69
575.58	1090.69
575.93	1081.56
576.28	1080.16
576.64	1082.73
576.99	1081.56
577.34	1078.28
577.69	1081.56
578.04	1092.56
578.39	1084.37
578.74	1097.95
579.09	1093.26
579.44	1094.20
579.80	1092.80
580.15	1107.31
580.50	1099.58
580.85	1102.39
581.20	1096.78
581.55	1092.33
581.90	1081.09
582.25	1083.67
582.60	1082.03
582.95	1082.50
583.30	1079.92
583.65	1085.07
584.00	1083.67
584.35	1090.92
584.71	1092.33
585.06	1097.95
585.41	1100.75
585.76	1090.46
586.11	1086.94
586.46	1092.56
586.81	1097.01
587.16	1095.84
587.51	1097.24
587.86	1092.09
588.21	1082.97
588.56	1081.80
588.91	1076.65
589.26	1076.18
589.61	1078.99
589.96	1083.20
590.31	1081.80
590.66	1088.35
591.01	1095.84
591.36	1101.22
591.71	1113.16
592.06	1117.37
592.41	1113.39
592.76	1112.22
593.10	1107.07
593.45	1100.05
593.80	1099.12
594.15	1104.03
594.50	1106.14
594.85	1105.67
595.20	1107.54
595.55	1109.18
595.90	1107.78
596.25	1113.39
596.60	1112.92
596.95	1107.31
597.30	1093.97
597.64	1142.88
597.99	1144.05
598.34	1147.56
598.69	1145.69
599.04	1150.84
599.39	1103.33
599.74	1096.07
600.09	1100.05
600.44	1109.41
600.78	1095.84
601.13	1086.24
601.48	1089.29
601.83	1077.35
602.18	1072.43
602.53	1092.56
602.88	1100.29
603.22	1102.63
603.57	1111.29
603.92	1104.73
604.27	1107.54
604.62	1106.61
604.97	1096.54
605.31	1091.16
605.66	1097.01
606.01	1087.65
606.36	1079.22
606.71	1082.26
607.05	1086.48
607.40	1082.03
607.75	1081.80
608.10	1083.20
608.44	1091.16
608.79	1087.18
609.14	1093.73
609.49	1092.56
609.84	1105.67
610.18	1101.92
610.53	1105.90
610.88	1105.67
611.23	1103.33
611.57	1098.41
611.92	1095.14
612.27	1098.41
612.62	1103.56
612.96	1103.09
613.31	1100.29
613.66	1105.44
614.00	1098.18
614.35	1086.94
614.70	1079.22
615.05	1086.94
615.39	1078.28
615.74	1074.31
616.09	1079.46
616.43	1095.60
616.78	1082.50
617.13	1087.88
617.47	1091.16
617.82	1084.60
618.17	1082.73
618.51	1088.58
618.86	1086.71
619.21	1082.26
619.55	1088.58
619.90	1085.07
620.25	1080.16
620.59	1076.18
620.94	1078.75
621.29	1069.39
621.63	1078.28
621.98	1084.84
622.32	1079.22
622.67	1080.63
623.02	1081.09
623.36	1059.56
623.71	1057.69
624.05	1063.54
624.40	1067.99
624.75	1071.03
625.09	1088.12
625.44	1091.16
625.78	1087.41
626.13	1088.82
626.48	1086.71
626.82	1091.39
627.17	1094.67
627.51	1097.01
627.86	1099.35
628.20	1107.54
628.55	1101.22
628.89	1091.16
629.24	1100.52
629.58	1098.41
629.93	1102.16
630.28	1099.12
630.62	1101.22
630.97	1091.86
631.31	1089.05
631.66	1087.18
632.00	1088.35
632.35	1090.22
632.69	1087.18
633.04	1086.24
633.38	1081.09
633.73	1083.90
634.07	1083.90
634.42	1090.69
634.76	1085.07
635.11	1086.01
635.45	1084.14
635.79	1081.56
636.14	1076.65
636.48	1081.56
636.83	1088.82
637.17	1088.58
637.52	1091.39
637.86	1098.41
638.21	1092.80
638.55	1084.60
638.89	1088.35
639.24	1099.35
639.58	1095.14
639.93	1099.58
640.27	1092.33
640.61	1096.78
640.96	1087.18
641.30	1090.22
641.65	1087.65
641.99	1104.26
642.33	1091.63
642.68	1086.24
643.02	1080.39
643.37	1079.22
643.71	1070.56
644.05	1072.43
644.40	1077.35
644.74	1079.92
645.08	1087.18
645.43	1090.46
645.77	1101.92
646.11	1103.56
646.46	1093.97
646.80	1094.90
647.14	1096.07
647.49	1077.82
647.83	1067.52
648.17	1087.18
648.52	1081.80
648.86	1087.88
649.20	1099.82
649.55	1117.61
649.89	1108.95
650.23	1106.61
650.57	1099.58
650.92	1083.20
651.26	1075.94
651.60	1075.01
651.95	1081.56
652.29	1083.43
652.63	1104.50
652.97	1100.99
653.32	1106.61
653.66	1103.56
654.00	1093.73
654.34	1088.12
654.69	1087.41
655.03	1089.29
655.37	1091.86
655.71	1096.78
656.05	1093.03
656.40	1098.65
656.74	1091.16
657.08	1092.56
657.42	1094.90
657.76	1090.92
658.11	1086.71
658.45	1080.63
658.79	1086.94
659.13	1091.16
659.47	1094.90
659.82	1096.07
660.16	1099.82
660.50	1093.50
660.84	1078.99
661.18	1072.67
661.52	1075.01
661.87	1073.84
662.21	1071.73
662.55	1082.03
662.89	1088.58
663.23	1080.16
663.57	1081.09
663.91	1075.94
664.25	1082.50
664.60	1087.18
664.94	1086.01
665.28	1091.86
665.62	1099.12
665.96	1093.03
666.30	1093.50
666.64	1094.43
666.98	1092.33
667.32	1088.12
667.66	1087.18
668.01	1083.20
668.35	1077.82
668.69	1076.88
669.03	1076.18
669.37	1078.28
669.71	1078.99
670.05	1079.92
670.39	1077.11
670.73	1077.11
671.07	1070.56
671.41	1075.24
671.75	1083.90
672.09	1090.46
672.43	1089.75
672.77	1089.75
673.11	1080.86
673.45	1077.11
673.79	1077.11
674.13	1085.07
674.47	1092.80
674.81	1093.73
675.15	1091.16
675.49	1088.35
675.83	1076.41
676.17	1075.48
676.51	1074.54
676.85	1078.05
677.19	1077.82
677.53	1089.05
677.87	1085.31
678.21	1088.12
678.55	1091.39
678.89	1088.35
679.23	1081.80
679.57	1089.75
679.90	1090.92
680.24	1080.86
680.58	1076.65
680.92	1074.31
681.26	1070.80
681.60	1065.88
681.94	1075.71
682.28	1087.65
682.62	1098.18
682.96	1093.73
683.29	1090.46
683.63	1089.99
683.97	1080.39
684.31	1073.60
684.65	1074.77
684.99	1083.67
685.33	1084.84
685.67	1089.99
686.00	1089.75
686.34	1092.09
686.68	1096.07
687.02	1096.31
687.36	1097.71
687.70	1102.86
688.03	1101.22
688.37	1094.43
688.71	1089.99
689.05	1094.43
689.39	1092.09
689.72	1090.22
690.06	1094.20
690.40	1097.01
690.74	1082.97
691.08	1084.14
691.41	1081.33
691.75	1076.88
692.09	1067.52
692.43	1077.11
692.76	1072.43
693.10	1072.90
693.44	1077.11
693.78	1087.41
694.11	1071.97
694.45	1059.33
694.79	1067.28
695.13	1067.05
695.46	1067.75
695.80	1079.22
696.14	1095.37
696.48	1089.99
696.81	1078.75
697.15	1074.07
697.49	1072.20
697.82	1066.35
698.16	1082.73
698.50	1085.31
698.83	1083.67
699.17	1085.31
699.51	1097.48
699.84	1082.50
700.18	1084.14
700.52	1095.60
700.85	1102.63
701.19	1079.69
701.53	1076.88
701.86	1081.33
702.20	1076.18
702.54	1069.62
702.87	1086.24
703.21	1088.12
703.55	1081.33
703.88	1073.60
704.22	1070.80
704.55	1070.33
704.89	1064.24
705.23	1064.24
705.56	1067.99
705.90	1068.45
706.23	1060.26
706.57	1065.88
706.91	1077.11
707.24	1074.54
707.58	1073.14
707.91	1078.75
708.25	1077.82
708.58	1075.48
708.92	1077.82
709.26	1086.71
709.59	1089.52
709.93	1088.82
710.26	1088.35
710.60	1093.03
710.93	1091.86
711.27	1084.60
711.60	1090.46
711.94	1089.52
712.27	1083.43
712.61	1075.71
712.94	1082.03
713.28	1082.97
713.61	1086.24
713.95	1091.86
714.28	1093.03
714.62	1097.71
714.95	1091.39
715.29	1087.65
715.62	1078.05
715.96	1084.37
716.29	1080.63
716.63	1076.18
716.96	1086.24
717.29	1099.58
717.63	1095.84
717.96	1094.67
718.30	1108.24
718.63	1098.65
718.97	1088.58
719.30	1084.60
719.63	1093.03
719.97	1092.33
720.30	1091.63
720.64	1100.75
720.97	1101.69
721.30	1103.09
721.64	1095.37
721.97	1092.33
722.31	1088.35
722.64	1093.03
722.97	1086.94
723.31	1090.22
723.64	1086.01
723.97	1089.52
724.31	1094.67
724.64	1101.69
724.98	1105.67
725.31	1110.82
725.64	1110.35
725.98	1105.67
726.31	1092.56
726.64	1091.63
726.97	1094.90
727.31	1104.26
727.64	1105.67
727.97	1104.26
728.31	1099.12
728.64	1102.39
728.97	1093.26
729.31	1092.80
729.64	1097.71
729.97	1097.01
730.30	1089.05
730.64	1081.33
730.97	1078.28
731.30	1073.84
731.63	1064.24
731.97	1070.80
732.30	1068.92
732.63	1068.69
732.96	1071.97
733.30	1076.88
733.63	1077.58
733.96	1086.24
734.29	1092.80
734.63	1099.58
734.96	1109.18
735.29	1099.82
735.62	1100.99
735.95	1102.16
736.29	1095.37
736.62	1093.73
736.95	1092.09
737.28	1077.11
737.61	1079.92
737.94	1075.71
738.28	1073.37
738.61	1076.41
738.94	1089.99
739.27	1082.97
739.60	1091.39
739.93	1095.37
740.27	1103.56
740.60	1100.29
740.93	1096.07
741.26	1089.75
741.59	1078.75
741.92	1081.33
742.25	1085.77
742.58	1089.99
742.91	1086.94
743.25	1094.20
743.58	1089.75
743.91	1078.52
744.24	1079.46
744.57	1089.29
744.90	1083.67
745.23	1083.90
745.56	1097.71
745.89	1089.75
746.22	1078.52
746.55	1078.52
746.88	1071.97
747.21	1066.58
747.54	1069.62
747.87	1074.77
748.20	1067.52
748.53	1073.14
748.87	1070.80
749.20	1071.26
749.53	1072.20
749.86	1068.69
750.19	1063.07
750.52	1065.65
750.85	1062.84
751.18	1068.45
751.51	1083.67
751.84	1090.22
752.16	1091.16
752.49	1100.52
752.82	1097.24
753.15	1095.60
753.48	1088.58
753.81	1093.73
754.14	1081.56
754.47	1082.50
754.80	1085.31
755.13	1090.69
755.46	1078.99
755.79	1081.09
756.12	1088.12
756.45	1092.56
756.78	1087.88
757.11	1097.24
757.43	1105.67
757.76	1098.18
758.09	1094.43
758.42	1101.22
758.75	1097.71
759.08	1096.31
759.41	1088.82
759.74	1083.90
760.07	1085.54
760.39	1078.99
760.72	1068.22
761.05	1076.18
761.38	1076.88
761.71	1067.75
762.04	1066.35
762.36	1064.48
762.69	1064.48
763.02	1073.84
763.35	1073.14
763.68	1079.46
764.01	1091.63
764.33	1092.56
764.66	1085.31
