SpectraSuite Data File
++++++++++++++++++++++++++++++++++++
Date: Mon Aug 26 10:24:53 PDT 2019
User: corrico
Dark Spectrum Present: No
Reference Spectrum Present: No
Number of Sampled Component Spectra: 1
Spectrometers: USB2+H06089
Integration Time (usec): 10000 (USB2+H06089)
Spectra Averaged: 2 (USB2+H06089)
Boxcar Smoothing: 2 (USB2+H06089)
Correct for Electrical Dark: No (USB2+H06089)
Strobe/Lamp Enabled: No (USB2+H06089)
Correct for Detector Non-linearity: No (USB2+H06089)
Correct for Stray Light: No (USB2+H06089)
Number of Pixels in Processed Spectrum: 2048
>>>>>Begin Processed Spectral Data<<<<<
339.70	1100.05
340.07	1100.05
340.45	1034.28
340.82	998.24
341.19	961.26
341.57	922.87
341.94	919.83
342.31	920.53
342.69	913.51
343.06	906.02
343.43	908.13
343.81	897.83
344.18	890.11
344.55	893.62
344.93	909.30
345.30	910.94
345.67	919.36
346.04	929.19
346.42	940.19
346.79	950.26
347.16	952.83
347.54	964.77
347.91	972.02
348.28	993.09
348.65	995.66
349.03	1016.26
349.40	1021.18
349.77	1041.77
350.14	1033.58
350.52	1033.58
350.89	1036.39
351.26	1044.58
351.63	1041.54
352.01	1055.35
352.38	1067.28
352.75	1069.39
353.12	1078.75
353.50	1082.26
353.87	1081.33
354.24	1083.43
354.61	1077.35
354.98	1068.22
355.36	1075.94
355.73	1067.52
356.10	1073.37
356.47	1081.80
356.84	1097.71
357.22	1096.78
357.59	1104.03
357.96	1099.82
358.33	1105.44
358.70	1104.73
359.08	1101.92
359.45	1102.86
359.82	1106.14
360.19	1109.65
360.56	1111.75
360.94	1117.14
361.31	1118.54
361.68	1105.67
362.05	1100.29
362.42	1087.18
362.79	1080.86
363.16	1076.88
363.54	1088.35
363.91	1084.60
364.28	1083.20
364.65	1081.56
365.02	1087.65
365.39	1081.56
365.76	1086.71
366.14	1085.77
366.51	1082.50
366.88	1068.45
367.25	1071.50
367.62	1070.33
367.99	1076.18
368.36	1083.20
368.73	1096.54
369.10	1100.52
369.48	1096.54
369.85	1094.67
370.22	1091.86
370.59	1091.63
370.96	1086.24
371.33	1087.18
371.70	1092.33
372.07	1096.78
372.44	1095.37
372.81	1107.78
373.18	1115.27
373.55	1115.97
373.93	1112.92
374.30	1108.48
374.67	1109.18
375.04	1103.33
375.41	1092.80
375.78	1097.24
376.15	1100.52
376.52	1087.65
376.89	1099.12
377.26	1110.82
377.63	1099.58
378.00	1096.78
378.37	1101.92
378.74	1086.01
379.11	1084.84
379.48	1089.29
379.85	1088.82
380.22	1087.88
380.59	1089.52
380.96	1087.65
381.33	1098.41
381.70	1099.35
382.07	1096.07
382.44	1093.26
382.81	1088.35
383.18	1084.84
383.55	1093.26
383.92	1101.92
384.29	1111.52
384.66	1114.33
385.03	1108.24
385.40	1105.44
385.77	1090.22
386.14	1084.84
386.51	1087.65
386.88	1091.39
387.25	1085.54
387.62	1099.82
387.99	1097.71
388.36	1101.22
388.73	1097.48
389.10	1110.12
389.46	1106.37
389.83	1117.61
390.20	1113.63
390.57	1115.50
390.94	1110.35
391.31	1110.82
391.68	1098.88
392.05	1104.97
392.42	1111.75
392.79	1114.09
393.16	1108.95
393.53	1109.18
393.89	1104.97
394.26	1102.16
394.63	1097.24
395.00	1104.26
395.37	1109.18
395.74	1113.86
396.11	1108.71
396.48	1119.71
396.84	1109.65
397.21	1117.84
397.58	1118.07
397.95	1128.61
398.32	1127.67
398.69	1140.54
399.06	1138.44
399.42	1136.80
399.79	1144.76
400.16	1157.16
400.53	1154.12
400.90	1160.44
401.27	1163.48
401.64	1155.05
402.00	1148.73
402.37	1160.44
402.74	1171.44
403.11	1192.03
403.48	1205.84
403.84	1215.21
404.21	1217.08
404.58	1210.29
404.95	1209.82
405.32	1215.67
405.68	1218.48
406.05	1233.23
406.42	1264.36
406.79	1277.70
407.16	1289.64
407.52	1302.51
407.89	1320.53
408.26	1331.53
408.63	1343.23
408.99	1358.68
409.36	1376.24
409.73	1398.70
410.10	1412.75
410.47	1434.28
410.83	1471.03
411.20	1510.11
411.57	1542.65
411.94	1580.56
412.30	1625.03
412.67	1663.65
413.04	1706.95
413.40	1753.30
413.77	1809.47
414.14	1873.83
414.51	1945.69
414.87	2020.35
415.24	2092.91
415.61	2160.31
415.97	2228.19
416.34	2293.26
416.71	2363.24
417.08	2455.92
417.44	2542.29
417.81	2662.83
418.18	2777.28
418.54	2904.14
418.91	3014.14
419.28	3166.98
419.64	3292.90
420.01	3441.52
420.38	3614.49
420.74	3801.50
421.11	3989.44
421.48	4188.39
421.84	4410.27
422.21	4602.20
422.58	4827.35
422.94	5068.20
423.31	5301.08
423.68	5523.66
424.04	5791.19
424.41	6051.69
424.77	6306.34
425.14	6584.63
425.51	6906.45
425.87	7258.24
426.24	7610.72
426.61	8004.16
426.97	8495.68
427.34	8928.44
427.70	9391.40
428.07	9889.93
428.44	10384.96
428.80	10833.64
429.17	11373.13
429.53	11852.24
429.90	12398.29
430.27	12951.12
430.63	13476.34
431.00	14066.85
431.36	14754.03
431.73	15354.15
432.09	15926.64
432.46	16558.12
432.83	17105.81
433.19	17652.32
433.56	18313.52
433.92	18977.30
434.29	19629.60
434.65	20324.28
435.02	20921.35
435.38	21491.50
435.75	22014.38
436.11	22682.37
436.48	23221.39
436.84	23788.74
437.21	24219.16
437.57	24654.50
437.94	24907.28
438.30	25227.70
438.67	25385.22
439.03	25544.84
439.40	25689.25
439.76	25625.36
440.13	25501.07
440.49	25422.43
440.86	25173.40
441.22	24869.60
441.59	24537.47
441.95	24200.20
442.32	23675.92
442.68	23339.35
443.05	22855.80
443.41	22365.46
443.78	21738.43
444.14	21256.28
444.51	20614.74
444.87	20256.17
445.24	19852.89
445.60	19472.09
445.96	18971.21
446.33	18543.13
446.69	17928.27
447.06	17424.82
447.42	16903.58
447.79	16462.86
448.15	16090.01
448.51	15679.25
448.88	15300.78
449.24	14879.49
449.61	14611.50
449.97	14251.05
450.33	13915.19
450.70	13536.02
451.06	13247.90
451.43	12802.50
451.79	12394.54
452.15	12058.67
452.52	11739.19
452.88	11444.52
453.24	11219.12
453.61	11004.96
453.97	10742.82
454.34	10477.64
454.70	10218.78
455.06	9944.70
455.43	9624.52
455.79	9286.78
456.15	8986.95
456.52	8686.90
456.88	8445.82
457.24	8205.45
457.61	8007.91
457.97	7796.56
458.33	7579.36
458.70	7290.77
459.06	7046.18
459.42	6836.24
459.79	6600.78
460.15	6389.90
460.51	6200.08
460.88	6014.47
461.24	5806.40
461.60	5664.56
461.96	5515.71
462.33	5369.66
462.69	5232.03
463.05	5117.35
463.42	4977.15
463.78	4843.97
464.14	4720.39
464.50	4597.75
464.87	4501.08
465.23	4392.72
465.59	4287.39
465.95	4182.54
466.32	4086.81
466.68	3970.25
467.04	3878.27
467.40	3798.92
467.77	3731.05
468.13	3645.15
468.49	3579.15
468.85	3521.80
469.22	3440.35
469.58	3387.22
469.94	3341.35
470.30	3252.64
470.66	3187.11
471.03	3139.13
471.39	3082.02
471.75	3018.82
472.11	2991.20
472.47	2949.54
472.84	2901.56
473.20	2853.35
473.56	2807.00
473.92	2737.49
474.28	2694.19
474.65	2651.83
475.01	2609.93
475.37	2572.72
475.73	2542.76
476.09	2506.71
476.45	2479.10
476.81	2447.50
477.18	2406.30
477.54	2365.58
477.90	2328.36
478.26	2289.75
478.62	2249.49
478.98	2217.42
479.34	2199.64
479.71	2173.66
480.07	2140.42
480.43	2115.84
480.79	2094.78
481.15	2075.35
481.51	2042.35
481.87	2021.52
482.23	2002.33
482.59	1982.20
482.96	1950.84
483.32	1948.03
483.68	1937.50
484.04	1913.86
484.40	1895.83
484.76	1886.94
485.12	1866.11
485.48	1844.11
485.84	1822.58
486.20	1805.72
486.56	1782.79
486.92	1768.27
487.28	1767.10
487.64	1761.72
488.00	1742.29
488.37	1723.80
488.73	1704.14
489.09	1669.04
489.45	1656.63
489.81	1648.21
490.17	1639.31
490.53	1621.52
490.89	1615.67
491.25	1585.71
491.61	1572.37
491.97	1558.09
492.33	1542.41
492.69	1529.54
493.05	1517.14
493.41	1499.35
493.77	1485.07
494.13	1486.94
494.49	1466.81
494.85	1461.66
495.21	1458.62
495.57	1456.98
495.93	1424.68
496.29	1402.21
496.64	1396.36
497.00	1382.79
497.36	1359.38
497.72	1363.36
498.08	1377.41
498.44	1362.19
498.80	1358.92
499.16	1354.94
499.52	1342.77
499.88	1328.49
500.24	1329.42
500.60	1317.49
500.96	1317.72
501.32	1324.04
501.68	1313.98
502.03	1305.08
502.39	1295.95
502.75	1287.06
503.11	1270.68
503.47	1268.57
503.83	1257.34
504.19	1255.46
504.55	1248.44
504.91	1243.06
505.26	1245.87
505.62	1246.10
505.98	1242.12
506.34	1247.04
506.70	1242.36
507.06	1227.38
507.42	1223.16
507.78	1224.80
508.13	1220.12
508.49	1210.29
508.85	1212.16
509.21	1218.95
509.57	1212.40
509.93	1203.74
510.28	1210.99
510.64	1210.53
511.00	1203.74
511.36	1212.16
511.72	1218.01
512.07	1213.57
512.43	1206.31
512.79	1200.23
513.15	1178.46
513.51	1172.61
513.86	1174.48
514.22	1181.27
514.58	1172.14
514.94	1175.89
515.30	1173.31
515.65	1161.84
516.01	1145.69
516.37	1142.42
516.73	1138.67
517.08	1131.88
517.44	1126.50
517.80	1132.59
518.16	1132.35
518.51	1133.76
518.87	1131.41
519.23	1146.16
519.59	1147.80
519.94	1152.71
520.30	1154.82
520.66	1166.76
521.01	1155.29
521.37	1152.48
521.73	1151.08
522.09	1140.78
522.44	1131.65
522.80	1133.05
523.16	1130.95
523.51	1127.90
523.87	1128.84
524.23	1122.75
524.58	1129.31
524.94	1135.39
525.30	1133.29
525.65	1134.46
526.01	1130.71
526.37	1116.20
526.72	1111.75
527.08	1118.54
527.44	1122.05
527.79	1130.01
528.15	1136.56
528.51	1140.54
528.86	1133.52
529.22	1126.03
529.58	1126.50
529.93	1124.86
530.29	1115.97
530.65	1117.84
531.00	1124.16
531.36	1122.75
531.71	1126.50
532.07	1126.27
532.43	1124.16
532.78	1119.24
533.14	1107.54
533.49	1103.80
533.85	1106.37
534.21	1110.58
534.56	1109.41
534.92	1117.14
535.27	1113.39
535.63	1115.50
535.98	1109.65
536.34	1120.41
536.69	1122.75
537.05	1129.78
537.41	1130.48
537.76	1134.93
538.12	1126.27
538.47	1119.01
538.83	1115.73
539.18	1115.73
539.54	1121.58
539.89	1119.24
540.25	1122.99
540.60	1116.90
540.96	1120.65
541.31	1117.37
541.67	1125.10
542.02	1137.03
542.38	1143.12
542.73	1129.31
543.09	1121.58
543.44	1107.54
543.80	1101.22
544.15	1101.22
544.51	1110.35
544.86	1109.88
545.22	1117.14
545.57	1108.48
545.93	1104.50
546.28	1103.56
546.64	1108.71
546.99	1116.20
547.35	1125.33
547.70	1129.31
548.05	1117.84
548.41	1122.99
548.76	1112.69
549.12	1103.80
549.47	1109.88
549.83	1113.86
550.18	1109.65
550.53	1118.78
550.89	1123.22
551.24	1110.58
551.60	1100.99
551.95	1095.84
552.30	1081.33
552.66	1079.46
553.01	1085.77
553.37	1089.29
553.72	1089.05
554.07	1087.65
554.43	1104.03
554.78	1103.33
555.13	1102.39
555.49	1109.41
555.84	1112.92
556.19	1096.31
556.55	1086.71
556.90	1092.56
557.26	1077.11
557.61	1078.28
557.96	1084.84
558.32	1085.54
558.67	1097.01
559.02	1105.67
559.37	1112.69
559.73	1108.71
560.08	1114.10
560.43	1099.12
560.79	1106.61
561.14	1096.31
561.49	1089.52
561.85	1094.90
562.20	1088.35
562.55	1083.67
562.90	1094.67
563.26	1097.24
563.61	1090.22
563.96	1105.20
564.32	1098.41
564.67	1099.35
565.02	1095.14
565.37	1094.43
565.73	1099.35
566.08	1106.37
566.43	1100.05
566.78	1107.54
567.14	1106.37
567.49	1097.48
567.84	1099.82
568.19	1098.41
568.54	1098.18
568.90	1094.20
569.25	1086.94
569.60	1080.16
569.95	1087.41
570.31	1083.20
570.66	1089.05
571.01	1098.65
571.36	1100.52
571.71	1095.14
572.06	1089.52
572.42	1095.60
572.77	1091.63
573.12	1096.78
573.47	1104.50
573.82	1112.92
574.18	1109.88
574.53	1109.18
574.88	1095.14
575.23	1086.24
575.58	1085.77
575.93	1082.03
576.28	1087.41
576.64	1095.14
576.99	1095.14
577.34	1094.20
577.69	1090.69
578.04	1091.63
578.39	1093.26
578.74	1099.58
579.09	1091.39
579.44	1101.46
579.80	1088.58
580.15	1085.31
580.50	1078.99
580.85	1089.29
581.20	1085.07
581.55	1090.46
581.90	1083.67
582.25	1080.16
582.60	1078.05
582.95	1081.33
583.30	1092.09
583.65	1100.05
584.00	1101.69
584.35	1099.58
584.71	1088.82
585.06	1077.11
585.41	1076.88
585.76	1071.97
586.11	1077.82
586.46	1079.69
586.81	1091.16
587.16	1088.35
587.51	1095.37
587.86	1093.03
588.21	1089.75
588.56	1073.37
588.91	1075.94
589.26	1087.88
589.61	1081.80
589.96	1093.50
590.31	1108.95
590.66	1104.50
591.01	1097.71
591.36	1099.12
591.71	1099.82
592.06	1098.65
592.41	1101.46
592.76	1093.26
593.10	1101.92
593.45	1099.12
593.80	1102.86
594.15	1100.52
594.50	1101.69
594.85	1096.07
595.20	1089.75
595.55	1070.33
595.90	1075.48
596.25	1070.56
596.60	1067.28
596.95	1077.35
597.30	1084.60
597.64	1131.65
597.99	1134.22
598.34	1142.42
598.69	1140.31
599.04	1152.48
599.39	1112.22
599.74	1112.22
600.09	1105.67
600.44	1099.58
600.78	1088.82
601.13	1082.03
601.48	1091.16
601.83	1098.88
602.18	1102.63
602.53	1097.48
602.88	1097.71
603.22	1090.92
603.57	1080.16
603.92	1091.86
604.27	1097.71
604.62	1102.86
604.97	1105.67
605.31	1110.35
605.66	1095.84
606.01	1099.58
606.36	1086.94
606.71	1078.52
607.05	1072.90
607.40	1075.94
607.75	1074.77
608.10	1073.60
608.44	1084.84
608.79	1085.07
609.14	1081.56
609.49	1082.26
609.84	1097.71
610.18	1101.22
610.53	1108.24
610.88	1105.20
611.23	1100.29
611.57	1102.86
611.92	1095.37
612.27	1093.97
612.62	1110.12
612.96	1121.12
613.31	1112.69
613.66	1119.24
614.00	1121.35
614.35	1111.05
614.70	1108.01
615.05	1106.37
615.39	1103.09
615.74	1097.48
616.09	1099.35
616.43	1100.05
616.78	1104.26
617.13	1105.67
617.47	1113.16
617.82	1107.07
618.17	1101.92
618.51	1100.29
618.86	1089.75
619.21	1083.90
619.55	1091.39
619.90	1086.48
620.25	1084.37
620.59	1086.94
620.94	1090.46
621.29	1086.01
621.63	1090.22
621.98	1084.84
622.32	1085.07
622.67	1083.90
623.02	1077.58
623.36	1081.33
623.71	1085.54
624.05	1089.99
624.40	1088.35
624.75	1090.22
625.09	1080.16
625.44	1088.35
625.78	1089.05
626.13	1083.43
626.48	1097.24
626.82	1096.78
627.17	1075.94
627.51	1069.62
627.86	1079.22
628.20	1072.67
628.55	1079.22
628.89	1093.97
629.24	1095.84
629.58	1087.41
629.93	1084.60
630.28	1092.56
630.62	1095.14
630.97	1096.07
631.31	1100.99
631.66	1103.80
632.00	1099.35
632.35	1095.60
632.69	1094.43
633.04	1091.39
633.38	1090.22
633.73	1090.69
634.07	1094.20
634.42	1090.46
634.76	1086.01
635.11	1086.24
635.45	1079.46
635.79	1075.94
636.14	1084.14
636.48	1096.78
636.83	1094.90
637.17	1093.03
637.52	1088.58
637.86	1090.22
638.21	1074.07
638.55	1073.84
638.89	1080.86
639.24	1080.16
639.58	1078.52
639.93	1083.43
640.27	1091.63
640.61	1086.01
640.96	1087.65
641.30	1090.22
641.65	1099.58
641.99	1089.05
642.33	1091.86
642.68	1095.14
643.02	1089.75
643.37	1086.01
643.71	1089.52
644.05	1093.50
644.40	1090.46
644.74	1098.88
645.08	1100.75
645.43	1095.60
645.77	1096.31
646.11	1088.82
646.46	1074.07
646.80	1062.84
647.14	1067.75
647.49	1068.69
647.83	1077.35
648.17	1079.46
648.52	1085.31
648.86	1083.90
649.20	1081.56
649.55	1085.54
649.89	1082.03
650.23	1081.80
650.57	1079.22
650.92	1073.84
651.26	1069.62
651.60	1073.14
651.95	1079.46
652.29	1076.41
652.63	1076.88
652.97	1076.88
653.32	1082.97
653.66	1077.58
654.00	1087.18
654.34	1092.09
654.69	1090.69
655.03	1090.46
655.37	1096.78
655.71	1108.24
656.05	1114.10
656.40	1117.61
656.74	1115.50
657.08	1103.33
657.42	1089.75
657.76	1082.03
658.11	1082.03
658.45	1080.16
658.79	1087.65
659.13	1091.63
659.47	1088.82
659.82	1090.22
660.16	1094.20
660.50	1101.22
660.84	1104.03
661.18	1099.12
661.52	1104.03
661.87	1109.41
662.21	1096.07
662.55	1079.69
662.89	1083.20
663.23	1066.35
663.57	1061.90
663.91	1069.16
664.25	1077.35
664.60	1079.92
664.94	1093.50
665.28	1087.41
665.62	1089.99
665.96	1084.14
666.30	1079.92
666.64	1080.39
666.98	1089.29
667.32	1086.48
667.66	1091.39
668.01	1097.95
668.35	1092.33
668.69	1090.69
669.03	1097.01
669.37	1102.86
669.71	1097.95
670.05	1100.75
670.39	1088.58
670.73	1083.67
671.07	1082.26
671.41	1096.07
671.75	1088.35
672.09	1097.24
672.43	1086.71
672.77	1083.20
673.11	1065.88
673.45	1069.16
673.79	1053.01
674.13	1064.48
674.47	1068.22
674.81	1082.97
675.15	1088.58
675.49	1107.31
675.83	1112.69
676.17	1102.16
676.51	1087.88
676.85	1084.60
677.19	1079.22
677.53	1070.80
677.87	1075.71
678.21	1078.28
678.55	1081.33
678.89	1076.18
679.23	1070.33
679.57	1076.18
679.90	1076.88
680.24	1076.41
680.58	1081.56
680.92	1096.07
681.26	1093.97
681.60	1097.01
681.94	1092.56
682.28	1094.20
682.62	1082.03
682.96	1077.82
683.29	1071.73
683.63	1068.69
683.97	1070.33
684.31	1071.97
684.65	1067.28
684.99	1073.14
685.33	1074.77
685.67	1076.88
686.00	1082.03
686.34	1089.29
686.68	1090.69
687.02	1098.88
687.36	1096.31
687.70	1088.12
688.03	1086.48
688.37	1084.14
688.71	1083.90
689.05	1092.09
689.39	1100.99
689.72	1098.88
690.06	1088.35
690.40	1085.07
690.74	1075.01
691.08	1071.73
691.41	1083.90
691.75	1097.48
692.09	1094.90
692.43	1092.56
692.76	1097.95
693.10	1093.26
693.44	1090.92
693.78	1099.82
694.11	1107.78
694.45	1107.78
694.79	1106.84
695.13	1105.67
695.46	1096.07
695.80	1085.07
696.14	1081.56
696.48	1078.99
696.81	1078.75
697.15	1078.75
697.49	1084.37
697.82	1080.39
698.16	1070.80
698.50	1072.90
698.83	1076.41
699.17	1079.92
699.51	1088.12
699.84	1093.97
700.18	1096.78
700.52	1089.29
700.85	1089.75
701.19	1080.39
701.53	1078.75
701.86	1075.94
702.20	1086.94
702.54	1077.11
702.87	1080.16
703.21	1088.82
703.55	1075.24
703.88	1076.41
704.22	1084.84
704.55	1074.54
704.89	1072.43
705.23	1090.22
705.56	1081.09
705.90	1077.82
706.23	1085.77
706.57	1086.01
706.91	1075.71
707.24	1080.16
707.58	1085.77
707.91	1091.63
708.25	1088.35
708.58	1093.50
708.92	1094.67
709.26	1094.90
709.59	1092.33
709.93	1097.71
710.26	1095.37
710.60	1094.20
710.93	1088.82
711.27	1092.56
711.60	1087.65
711.94	1094.90
712.27	1093.97
712.61	1089.29
712.94	1085.31
713.28	1075.24
713.61	1071.03
713.95	1081.09
714.28	1083.90
714.62	1083.67
714.95	1095.84
715.29	1091.39
715.62	1074.07
715.96	1083.90
716.29	1085.77
716.63	1092.09
716.96	1098.88
717.29	1100.05
717.63	1093.26
717.96	1089.99
718.30	1072.67
718.63	1056.52
718.97	1065.65
719.30	1069.86
719.63	1067.75
719.97	1075.94
720.30	1080.39
720.64	1073.84
720.97	1067.99
721.30	1071.26
721.64	1073.60
721.97	1078.28
722.31	1082.97
722.64	1078.99
722.97	1080.39
723.31	1075.24
723.64	1075.24
723.97	1075.94
724.31	1088.12
724.64	1086.24
724.98	1089.05
725.31	1099.58
725.64	1094.43
725.98	1082.97
726.31	1086.01
726.64	1087.41
726.97	1077.82
727.31	1080.39
727.64	1092.33
727.97	1088.58
728.31	1093.26
728.64	1097.71
728.97	1093.73
729.31	1083.90
729.64	1085.54
729.97	1080.39
730.30	1069.39
730.64	1077.11
730.97	1079.22
731.30	1089.75
731.63	1088.82
731.97	1102.39
732.30	1098.88
732.63	1098.65
732.96	1077.11
733.30	1087.18
733.63	1075.24
733.96	1077.35
734.29	1077.11
734.63	1086.48
734.96	1081.56
735.29	1093.73
735.62	1096.78
735.95	1104.73
736.29	1105.67
736.62	1100.99
736.95	1097.48
737.28	1094.67
737.61	1088.35
737.94	1087.18
738.28	1089.52
738.61	1089.29
738.94	1089.52
739.27	1090.22
739.60	1089.52
739.93	1092.33
740.27	1086.94
740.60	1081.56
740.93	1080.39
741.26	1082.73
741.59	1082.50
741.92	1092.09
742.25	1096.78
742.58	1097.71
742.91	1095.84
743.25	1077.11
743.58	1072.20
743.91	1064.01
744.24	1069.39
744.57	1073.84
744.90	1086.01
745.23	1084.84
745.56	1094.67
745.89	1084.14
746.22	1082.50
746.55	1085.54
746.88	1084.37
747.21	1086.48
747.54	1089.52
747.87	1086.71
748.20	1073.84
748.53	1065.18
748.87	1059.33
749.20	1058.16
749.53	1053.94
749.86	1061.20
750.19	1067.99
750.52	1067.99
750.85	1071.73
751.18	1083.43
751.51	1088.35
751.84	1091.16
752.16	1087.65
752.49	1085.54
752.82	1091.16
753.15	1089.29
753.48	1087.65
753.81	1092.09
754.14	1087.65
754.47	1069.62
754.80	1076.41
755.13	1088.35
755.46	1090.69
755.79	1099.35
756.12	1111.75
756.45	1118.78
756.78	1104.73
757.11	1097.48
757.43	1089.75
757.76	1080.39
758.09	1066.11
758.42	1076.41
758.75	1090.46
759.08	1087.65
759.41	1084.14
759.74	1082.50
760.07	1075.01
760.39	1065.41
760.72	1074.07
761.05	1087.65
761.38	1089.29
761.71	1100.05
762.04	1103.33
762.36	1099.58
762.69	1087.88
763.02	1086.24
763.35	1081.56
763.68	1083.20
764.01	1085.31
764.33	1086.94
764.66	1096.78
