SpectraSuite Data File
++++++++++++++++++++++++++++++++++++
Date: Mon Aug 26 10:24:51 PDT 2019
User: corrico
Dark Spectrum Present: No
Reference Spectrum Present: No
Number of Sampled Component Spectra: 1
Spectrometers: USB2+H06089
Integration Time (usec): 10000 (USB2+H06089)
Spectra Averaged: 2 (USB2+H06089)
Boxcar Smoothing: 2 (USB2+H06089)
Correct for Electrical Dark: No (USB2+H06089)
Strobe/Lamp Enabled: No (USB2+H06089)
Correct for Detector Non-linearity: No (USB2+H06089)
Correct for Stray Light: No (USB2+H06089)
Number of Pixels in Processed Spectrum: 2048
>>>>>Begin Processed Spectral Data<<<<<
339.70	1066.11
340.07	1066.11
340.45	1015.32
340.82	989.81
341.19	956.81
341.57	918.19
341.94	899.94
342.31	892.45
342.69	889.87
343.06	891.51
343.43	899.70
343.81	900.87
344.18	901.11
344.55	903.21
344.93	916.79
345.30	920.06
345.67	924.75
346.04	931.07
346.42	931.30
346.79	925.92
347.16	941.60
347.54	965.00
347.91	995.20
348.28	1010.18
348.65	1029.84
349.03	1025.15
349.40	1032.18
349.77	1027.26
350.14	1036.86
350.52	1034.05
350.89	1046.45
351.26	1045.28
351.63	1059.56
352.01	1058.86
352.38	1072.43
352.75	1075.48
353.12	1080.86
353.50	1078.52
353.87	1088.58
354.24	1090.22
354.61	1099.35
354.98	1109.88
355.36	1109.88
355.73	1112.22
356.10	1112.46
356.47	1104.03
356.84	1097.48
357.22	1101.46
357.59	1090.92
357.96	1099.12
358.33	1096.31
358.70	1097.24
359.08	1091.39
359.45	1093.73
359.82	1080.63
360.19	1089.05
360.56	1084.60
360.94	1092.80
361.31	1086.94
361.68	1089.75
362.05	1089.29
362.42	1094.20
362.79	1092.09
363.16	1097.24
363.54	1088.12
363.91	1083.90
364.28	1072.20
364.65	1059.56
365.02	1063.31
365.39	1071.97
365.76	1066.11
366.14	1075.71
366.51	1078.75
366.88	1080.63
367.25	1071.73
367.62	1077.58
367.99	1087.18
368.36	1085.77
368.73	1078.05
369.10	1081.80
369.48	1086.01
369.85	1066.58
370.22	1072.67
370.59	1072.67
370.96	1071.73
371.33	1071.97
371.70	1075.01
372.07	1075.48
372.44	1085.77
372.81	1086.71
373.18	1091.86
373.55	1100.05
373.93	1093.97
374.30	1089.29
374.67	1086.94
375.04	1082.03
375.41	1071.50
375.78	1071.03
376.15	1071.26
376.52	1073.14
376.89	1067.05
377.26	1072.43
377.63	1078.99
378.00	1083.43
378.37	1087.41
378.74	1086.24
379.11	1092.80
379.48	1095.60
379.85	1096.07
380.22	1095.60
380.59	1104.97
380.96	1108.24
381.33	1100.52
381.70	1092.80
382.07	1089.75
382.44	1088.58
382.81	1080.16
383.18	1085.07
383.55	1097.24
383.92	1104.50
384.29	1106.14
384.66	1104.26
385.03	1112.92
385.40	1103.56
385.77	1102.63
386.14	1108.71
386.51	1124.39
386.88	1109.65
387.25	1103.33
387.62	1108.48
387.99	1104.50
388.36	1095.84
388.73	1105.90
389.10	1113.63
389.46	1108.95
389.83	1108.71
390.20	1104.03
390.57	1108.71
390.94	1112.69
391.31	1116.90
391.68	1114.80
392.05	1118.31
392.42	1109.18
392.79	1100.29
393.16	1092.80
393.53	1097.24
393.89	1100.29
394.26	1100.29
394.63	1107.31
395.00	1115.27
395.37	1111.75
395.74	1113.16
396.11	1121.12
396.48	1124.16
396.84	1129.31
397.21	1132.82
397.58	1143.35
397.95	1145.93
398.32	1141.95
398.69	1131.41
399.06	1139.84
399.42	1144.05
399.79	1133.05
400.16	1143.59
400.53	1141.25
400.90	1144.05
401.27	1132.35
401.64	1146.16
402.00	1133.52
402.37	1138.20
402.74	1123.69
403.11	1136.56
403.48	1144.76
403.84	1174.71
404.21	1199.76
404.58	1217.31
404.95	1220.82
405.32	1229.72
405.68	1234.87
406.05	1244.93
406.42	1268.80
406.79	1285.89
407.16	1295.95
407.52	1303.68
407.89	1317.72
408.26	1331.53
408.63	1346.28
408.99	1377.41
409.36	1415.79
409.73	1433.81
410.10	1456.98
410.47	1477.35
410.83	1506.37
411.20	1534.92
411.57	1579.16
411.94	1626.67
412.30	1695.72
412.67	1734.10
413.04	1777.40
413.40	1837.79
413.77	1898.88
414.14	1942.41
414.51	2012.86
414.87	2076.76
415.24	2138.31
415.61	2201.98
415.97	2284.83
416.34	2374.94
416.71	2480.97
417.08	2584.89
417.44	2686.47
417.81	2810.52
418.18	2933.63
418.54	3071.25
418.91	3204.90
419.28	3372.01
419.64	3513.61
420.01	3676.75
420.38	3813.67
420.74	3993.19
421.11	4195.18
421.48	4411.21
421.84	4619.98
422.21	4843.97
422.58	5091.37
422.94	5328.00
423.31	5586.86
423.68	5856.25
424.04	6179.72
424.41	6453.79
424.77	6741.21
425.14	7049.69
425.51	7378.54
425.87	7740.39
426.24	8113.47
426.61	8569.40
426.97	9055.06
427.34	9493.92
427.70	9960.62
428.07	10462.66
428.44	10941.30
428.80	11459.03
429.17	12033.63
429.53	12540.36
429.90	13190.56
430.27	13756.03
430.63	14315.65
431.00	14993.24
431.36	15801.19
431.73	16407.16
432.09	17092.46
432.46	17763.26
432.83	18400.82
433.19	18915.98
433.56	19646.92
433.92	20369.21
434.29	21070.20
434.65	21776.34
435.02	22412.50
435.38	23010.27
435.75	23525.19
436.11	24063.98
436.48	24516.88
436.84	25116.05
437.21	25579.25
437.57	26073.57
437.94	26503.76
438.30	26932.08
438.67	27146.94
439.03	27303.52
439.40	27431.78
439.76	27387.54
440.13	27249.92
440.49	27181.58
440.86	26949.16
441.22	26604.17
441.59	26256.13
441.95	25869.71
442.32	25339.81
442.68	24942.39
443.05	24432.15
443.41	24018.11
443.78	23391.78
444.14	22850.88
444.51	22240.94
444.87	21845.62
445.24	21311.51
445.60	20969.33
445.96	20417.20
446.33	19935.51
446.69	19325.57
447.06	18759.39
447.42	18164.90
447.79	17690.24
448.15	17217.68
448.51	16747.47
448.88	16326.17
449.24	15847.30
449.61	15534.37
449.97	15158.01
450.33	14754.27
450.70	14303.95
451.06	14000.85
451.43	13538.83
451.79	13152.64
452.15	12828.01
452.52	12547.14
452.88	12204.49
453.24	11932.75
453.61	11695.19
453.97	11433.99
454.34	11146.80
454.70	10908.77
455.06	10646.16
455.43	10285.25
455.79	9907.96
456.15	9628.26
456.52	9284.44
456.88	9004.04
457.24	8736.99
457.61	8534.53
457.97	8293.92
458.33	8054.72
458.70	7791.64
459.06	7528.80
459.42	7290.53
459.79	7009.90
460.15	6807.68
460.51	6575.27
460.88	6385.68
461.24	6182.76
461.60	6017.99
461.96	5818.81
462.33	5683.52
462.69	5518.75
463.05	5368.02
463.42	5223.84
463.78	5098.15
464.14	4948.83
464.50	4846.31
464.87	4742.86
465.23	4620.92
465.59	4513.26
465.95	4404.65
466.32	4309.16
466.68	4195.41
467.04	4101.79
467.40	4018.93
467.77	3972.59
468.13	3880.61
468.49	3812.73
468.85	3768.26
469.22	3696.88
469.58	3592.25
469.94	3530.46
470.30	3468.67
470.66	3390.73
471.03	3333.63
471.39	3296.18
471.75	3225.49
472.11	3157.15
472.47	3103.32
472.84	3050.42
473.20	2994.95
473.56	2947.44
473.92	2885.41
474.28	2839.30
474.65	2783.83
475.01	2737.72
475.37	2696.06
475.73	2661.89
476.09	2626.32
476.45	2583.95
476.81	2531.76
477.18	2489.16
477.54	2464.35
477.90	2431.82
478.26	2389.69
478.62	2358.09
478.98	2340.07
479.34	2301.45
479.71	2268.68
480.07	2250.43
480.43	2229.83
480.79	2191.44
481.15	2172.95
481.51	2141.59
481.87	2119.36
482.23	2085.18
482.59	2060.37
482.96	2021.29
483.32	2007.48
483.68	1981.26
484.04	1963.71
484.40	1948.50
484.76	1943.58
485.12	1907.54
485.48	1882.96
485.84	1868.22
486.20	1858.15
486.56	1832.17
486.92	1819.30
487.28	1811.81
487.64	1782.32
488.00	1747.68
488.37	1731.53
488.73	1712.10
489.09	1687.06
489.45	1686.12
489.81	1689.40
490.17	1671.38
490.53	1650.78
490.89	1640.95
491.25	1617.31
491.61	1599.05
491.97	1586.42
492.33	1584.31
492.69	1563.24
493.05	1552.71
493.41	1532.35
493.77	1517.84
494.13	1511.05
494.49	1497.71
494.85	1488.35
495.21	1469.39
495.57	1467.98
495.93	1461.66
496.29	1458.39
496.64	1450.90
497.00	1435.68
497.36	1417.66
497.72	1385.36
498.08	1378.34
498.44	1369.92
498.80	1374.60
499.16	1368.28
499.52	1367.34
499.88	1365.70
500.24	1353.77
500.60	1339.49
500.96	1342.53
501.32	1336.91
501.68	1326.85
502.03	1321.93
502.39	1314.68
502.75	1295.95
503.11	1295.72
503.47	1291.27
503.83	1288.46
504.19	1287.53
504.55	1282.85
504.91	1262.48
505.26	1262.25
505.62	1259.68
505.98	1259.68
506.34	1254.29
506.70	1263.66
507.06	1250.31
507.42	1240.95
507.78	1226.44
508.13	1224.10
508.49	1218.95
508.85	1209.82
509.21	1201.40
509.57	1212.63
509.93	1206.31
510.28	1203.97
510.64	1203.97
511.00	1204.44
511.36	1200.93
511.72	1201.63
512.07	1198.12
512.43	1186.89
512.79	1185.72
513.15	1170.27
513.51	1170.50
513.86	1155.99
514.22	1160.44
514.58	1158.33
514.94	1160.20
515.30	1162.08
515.65	1164.88
516.01	1174.95
516.37	1166.99
516.73	1165.82
517.08	1163.48
517.44	1156.93
517.80	1154.59
518.16	1163.48
518.51	1168.16
518.87	1158.80
519.23	1159.97
519.59	1155.52
519.94	1148.73
520.30	1152.48
520.66	1145.46
521.01	1155.05
521.37	1144.52
521.73	1144.29
522.09	1133.52
522.44	1143.12
522.80	1145.22
523.16	1152.48
523.51	1148.03
523.87	1152.01
524.23	1150.37
524.58	1143.59
524.94	1131.18
525.30	1128.61
525.65	1117.61
526.01	1119.95
526.37	1117.14
526.72	1118.54
527.08	1120.41
527.44	1126.50
527.79	1113.39
528.15	1113.16
528.51	1115.97
528.86	1107.54
529.22	1102.39
529.58	1119.71
529.93	1118.31
530.29	1123.22
530.65	1130.95
531.00	1127.20
531.36	1121.35
531.71	1119.01
532.07	1117.84
532.43	1124.63
532.78	1141.01
533.14	1142.18
533.49	1148.73
533.85	1146.86
534.21	1142.65
534.56	1136.80
534.92	1131.41
535.27	1122.99
535.63	1124.63
535.98	1116.67
536.34	1112.69
536.69	1108.71
537.05	1106.61
537.41	1100.99
537.76	1114.80
538.12	1116.44
538.47	1119.24
538.83	1118.78
539.18	1111.05
539.54	1097.71
539.89	1099.35
540.25	1104.97
540.60	1119.48
540.96	1129.31
541.31	1135.39
541.67	1130.95
542.02	1119.95
542.38	1116.44
542.73	1119.48
543.09	1119.24
543.44	1110.82
543.80	1115.97
544.15	1111.52
544.51	1108.48
544.86	1100.75
545.22	1098.65
545.57	1096.31
545.93	1102.63
546.28	1103.80
546.64	1112.69
546.99	1117.84
547.35	1116.90
547.70	1115.50
548.05	1113.86
548.41	1112.46
548.76	1109.41
549.12	1113.86
549.47	1106.37
549.83	1100.75
550.18	1101.22
550.53	1096.54
550.89	1094.67
551.24	1099.35
551.60	1102.86
551.95	1102.63
552.30	1116.44
552.66	1118.07
553.01	1115.27
553.37	1111.52
553.72	1109.88
554.07	1103.56
554.43	1102.63
554.78	1101.22
555.13	1099.35
555.49	1097.01
555.84	1106.37
556.19	1101.69
556.55	1107.07
556.90	1114.10
557.26	1116.90
557.61	1114.10
557.96	1117.37
558.32	1116.20
558.67	1110.82
559.02	1102.63
559.37	1099.12
559.73	1097.48
560.08	1095.60
560.43	1106.61
560.79	1112.46
561.14	1106.37
561.49	1105.20
561.85	1103.80
562.20	1100.29
562.55	1106.37
562.90	1109.65
563.26	1108.71
563.61	1108.71
563.96	1107.54
564.32	1103.56
564.67	1103.09
565.02	1102.86
565.37	1104.26
565.73	1097.95
566.08	1089.99
566.43	1091.86
566.78	1093.03
567.14	1090.46
567.49	1096.31
567.84	1095.37
568.19	1095.14
568.54	1090.92
568.90	1082.73
569.25	1084.84
569.60	1087.65
569.95	1088.12
570.31	1093.97
570.66	1095.14
571.01	1091.63
571.36	1095.60
571.71	1095.84
572.06	1091.63
572.42	1097.71
572.77	1092.09
573.12	1103.09
573.47	1098.65
573.82	1102.86
574.18	1096.07
574.53	1095.60
574.88	1085.07
575.23	1088.58
575.58	1087.88
575.93	1089.29
576.28	1096.31
576.64	1095.37
576.99	1096.31
577.34	1092.80
577.69	1095.37
578.04	1097.01
578.39	1099.12
578.74	1098.65
579.09	1112.92
579.44	1113.63
579.80	1110.58
580.15	1108.48
580.50	1122.52
580.85	1109.88
581.20	1119.71
581.55	1115.50
581.90	1117.37
582.25	1099.12
582.60	1096.78
582.95	1091.39
583.30	1095.60
583.65	1094.43
584.00	1100.29
584.35	1101.46
584.71	1100.99
585.06	1106.61
585.41	1102.16
585.76	1099.35
586.11	1100.05
586.46	1099.12
586.81	1096.78
587.16	1102.63
587.51	1098.18
587.86	1102.63
588.21	1103.33
588.56	1097.71
588.91	1082.03
589.26	1076.65
589.61	1081.80
589.96	1083.90
590.31	1085.31
590.66	1102.39
591.01	1110.58
591.36	1110.58
591.71	1106.61
592.06	1102.86
592.41	1098.88
592.76	1096.54
593.10	1091.39
593.45	1099.12
593.80	1091.16
594.15	1093.26
594.50	1094.20
594.85	1099.35
595.20	1086.01
595.55	1093.97
595.90	1084.14
596.25	1099.35
596.60	1092.33
596.95	1095.84
597.30	1091.39
597.64	1150.14
597.99	1140.78
598.34	1132.35
598.69	1138.90
599.04	1147.10
599.39	1096.07
599.74	1095.14
600.09	1108.24
600.44	1104.73
600.78	1106.37
601.13	1108.95
601.48	1112.92
601.83	1100.99
602.18	1104.03
602.53	1100.99
602.88	1097.95
603.22	1093.97
603.57	1093.97
603.92	1090.92
604.27	1082.73
604.62	1083.43
604.97	1080.16
605.31	1087.88
605.66	1085.31
606.01	1082.03
606.36	1084.37
606.71	1088.12
607.05	1086.01
607.40	1077.35
607.75	1087.18
608.10	1081.09
608.44	1074.54
608.79	1070.56
609.14	1083.20
609.49	1077.58
609.84	1081.09
610.18	1085.77
610.53	1091.63
610.88	1084.37
611.23	1090.46
611.57	1084.84
611.92	1074.07
612.27	1072.90
612.62	1073.60
612.96	1073.84
613.31	1079.22
613.66	1092.80
614.00	1089.29
614.35	1085.77
614.70	1083.43
615.05	1084.37
615.39	1076.18
615.74	1079.92
616.09	1088.82
616.43	1099.35
616.78	1095.37
617.13	1095.60
617.47	1103.80
617.82	1106.84
618.17	1105.44
618.51	1107.07
618.86	1117.14
619.21	1113.39
619.55	1113.16
619.90	1107.54
620.25	1104.26
620.59	1095.37
620.94	1089.29
621.29	1081.56
621.63	1086.01
621.98	1091.63
622.32	1090.69
622.67	1092.56
623.02	1094.20
623.36	1081.80
623.71	1083.90
624.05	1088.12
624.40	1088.58
624.75	1078.99
625.09	1081.09
625.44	1087.88
625.78	1095.60
626.13	1086.94
626.48	1098.65
626.82	1097.24
627.17	1090.46
627.51	1084.37
627.86	1092.56
628.20	1093.26
628.55	1100.05
628.89	1101.22
629.24	1101.69
629.58	1099.35
629.93	1091.86
630.28	1091.16
630.62	1091.63
630.97	1087.65
631.31	1092.33
631.66	1101.69
632.00	1093.97
632.35	1083.67
632.69	1083.20
633.04	1078.28
633.38	1073.60
633.73	1078.99
634.07	1083.67
634.42	1085.77
634.76	1084.84
635.11	1089.52
635.45	1095.14
635.79	1092.33
636.14	1090.69
636.48	1093.26
636.83	1088.82
637.17	1086.48
637.52	1082.03
637.86	1078.52
638.21	1075.94
638.55	1080.86
638.89	1076.88
639.24	1079.22
639.58	1085.31
639.93	1079.92
640.27	1079.22
640.61	1080.86
640.96	1087.18
641.30	1083.43
641.65	1080.16
641.99	1082.26
642.33	1077.58
642.68	1070.80
643.02	1068.45
643.37	1076.18
643.71	1073.14
644.05	1082.97
644.40	1086.94
644.74	1093.50
645.08	1100.29
645.43	1095.37
645.77	1097.48
646.11	1106.14
646.46	1099.12
646.80	1095.84
647.14	1097.95
647.49	1095.14
647.83	1083.20
648.17	1076.88
648.52	1071.26
648.86	1074.54
649.20	1075.01
649.55	1079.46
649.89	1094.67
650.23	1099.82
650.57	1097.95
650.92	1087.65
651.26	1080.39
651.60	1076.18
651.95	1076.18
652.29	1072.67
652.63	1075.48
652.97	1086.94
653.32	1087.18
653.66	1094.20
654.00	1103.80
654.34	1108.48
654.69	1099.35
655.03	1089.52
655.37	1081.80
655.71	1073.14
656.05	1070.33
656.40	1078.52
656.74	1087.65
657.08	1086.48
657.42	1083.90
657.76	1087.65
658.11	1077.35
658.45	1081.56
658.79	1086.71
659.13	1086.48
659.47	1082.73
659.82	1099.82
660.16	1088.82
660.50	1088.35
660.84	1097.01
661.18	1094.43
661.52	1082.50
661.87	1092.33
662.21	1081.33
662.55	1075.94
662.89	1080.39
663.23	1091.86
663.57	1092.09
663.91	1100.05
664.25	1100.29
664.60	1088.82
664.94	1075.24
665.28	1063.54
665.62	1068.92
665.96	1068.92
666.30	1068.92
666.64	1078.75
666.98	1086.71
667.32	1082.50
667.66	1082.73
668.01	1089.52
668.35	1089.05
668.69	1091.86
669.03	1085.54
669.37	1086.48
669.71	1092.80
670.05	1083.20
670.39	1077.58
670.73	1079.69
671.07	1077.82
671.41	1070.56
671.75	1074.31
672.09	1075.01
672.43	1084.37
672.77	1093.97
673.11	1098.88
673.45	1093.97
673.79	1097.71
674.13	1091.86
674.47	1080.86
674.81	1082.50
675.15	1083.67
675.49	1083.67
675.83	1073.84
676.17	1072.67
676.51	1057.92
676.85	1054.65
677.19	1052.54
677.53	1057.22
677.87	1059.33
678.21	1066.58
678.55	1075.01
678.89	1079.46
679.23	1083.90
679.57	1084.37
679.90	1089.99
680.24	1089.05
680.58	1083.67
680.92	1069.39
681.26	1069.39
681.60	1070.80
681.94	1072.90
682.28	1079.92
682.62	1095.14
682.96	1098.18
683.29	1097.24
683.63	1102.63
683.97	1095.60
684.31	1101.92
684.65	1103.80
684.99	1093.73
685.33	1089.05
685.67	1085.31
686.00	1081.56
686.34	1070.80
686.68	1080.39
687.02	1072.90
687.36	1073.14
687.70	1066.35
688.03	1071.50
688.37	1069.62
688.71	1075.24
689.05	1083.67
689.39	1093.73
689.72	1101.22
690.06	1107.54
690.40	1100.99
690.74	1096.78
691.08	1087.41
691.41	1086.24
691.75	1078.28
692.09	1081.09
692.43	1080.39
692.76	1085.31
693.10	1081.56
693.44	1082.50
693.78	1086.94
694.11	1082.50
694.45	1083.67
694.79	1074.77
695.13	1074.54
695.46	1066.82
695.80	1065.18
696.14	1051.60
696.48	1066.35
696.81	1075.71
697.15	1078.75
697.49	1082.26
697.82	1093.73
698.16	1088.12
698.50	1079.69
698.83	1083.20
699.17	1089.99
699.51	1090.46
699.84	1093.03
700.18	1097.95
700.52	1095.84
700.85	1095.84
701.19	1106.37
701.53	1107.54
701.86	1098.65
702.20	1100.52
702.54	1095.60
702.87	1084.84
703.21	1086.01
703.55	1090.46
703.88	1080.63
704.22	1084.60
704.55	1081.80
704.89	1071.26
705.23	1072.67
705.56	1068.92
705.90	1064.01
706.23	1066.35
706.57	1071.03
706.91	1070.09
707.24	1082.50
707.58	1072.43
707.91	1073.60
708.25	1075.71
708.58	1071.97
708.92	1068.69
709.26	1086.24
709.59	1077.11
709.93	1082.73
710.26	1093.97
710.60	1102.39
710.93	1100.05
711.27	1107.54
711.60	1099.35
711.94	1089.29
712.27	1084.14
712.61	1079.22
712.94	1072.43
713.28	1073.37
713.61	1081.80
713.95	1076.88
714.28	1084.84
714.62	1091.16
714.95	1097.95
715.29	1091.16
715.62	1095.84
715.96	1087.88
716.29	1083.20
716.63	1075.94
716.96	1077.58
717.29	1070.09
717.63	1063.54
717.96	1060.50
718.30	1066.11
718.63	1068.92
718.97	1077.35
719.30	1089.29
719.63	1093.03
719.97	1083.90
720.30	1082.73
720.64	1085.77
720.97	1086.48
721.30	1082.03
721.64	1082.50
721.97	1075.01
722.31	1079.22
722.64	1079.69
722.97	1081.33
723.31	1085.77
723.64	1093.03
723.97	1079.69
724.31	1084.84
724.64	1093.73
724.98	1090.46
725.31	1088.58
725.64	1101.69
725.98	1087.88
726.31	1083.20
726.64	1091.16
726.97	1095.14
727.31	1089.29
727.64	1090.92
727.97	1094.43
728.31	1085.77
728.64	1083.20
728.97	1081.80
729.31	1080.86
729.64	1080.16
729.97	1073.37
730.30	1071.03
730.64	1063.31
730.97	1069.16
731.30	1070.09
731.63	1073.84
731.97	1069.86
732.30	1073.60
732.63	1072.20
732.96	1066.58
733.30	1059.09
733.63	1071.73
733.96	1080.39
734.29	1082.50
734.63	1089.99
734.96	1119.95
735.29	1110.35
735.62	1108.71
735.95	1111.75
736.29	1105.44
736.62	1085.07
736.95	1089.29
737.28	1082.73
737.61	1082.50
737.94	1084.60
738.28	1086.48
738.61	1088.58
738.94	1089.52
739.27	1076.41
739.60	1067.52
739.93	1060.73
740.27	1049.26
740.60	1050.67
740.93	1059.79
741.26	1063.31
741.59	1072.67
741.92	1078.05
742.25	1082.26
742.58	1076.18
742.91	1082.50
743.25	1088.35
743.58	1084.84
743.91	1082.50
744.24	1091.63
744.57	1086.94
744.90	1082.97
745.23	1088.58
745.56	1077.58
745.89	1075.01
746.22	1077.11
746.55	1072.20
746.88	1072.67
747.21	1080.39
747.54	1082.03
747.87	1080.16
748.20	1080.39
748.53	1064.94
748.87	1069.86
749.20	1066.11
749.53	1067.28
749.86	1071.03
750.19	1095.37
750.52	1094.67
750.85	1095.84
751.18	1091.86
751.51	1079.22
751.84	1063.77
752.16	1063.07
752.49	1060.96
752.82	1073.14
753.15	1093.03
753.48	1094.43
753.81	1092.80
754.14	1087.18
754.47	1079.46
754.80	1077.11
755.13	1075.24
755.46	1064.94
755.79	1072.90
756.12	1071.26
756.45	1067.75
756.78	1076.88
757.11	1085.77
757.43	1082.03
757.76	1087.41
758.09	1082.03
758.42	1077.11
758.75	1078.05
759.08	1080.16
759.41	1080.86
759.74	1087.41
760.07	1088.82
760.39	1078.99
760.72	1080.16
761.05	1080.39
761.38	1075.24
761.71	1064.71
762.04	1072.43
762.36	1074.77
762.69	1069.16
763.02	1070.80
763.35	1087.18
763.68	1086.24
764.01	1080.86
764.33	1086.24
764.66	1082.50
