SpectraSuite Data File
++++++++++++++++++++++++++++++++++++
Date: Mon Aug 26 10:24:52 PDT 2019
User: corrico
Dark Spectrum Present: No
Reference Spectrum Present: No
Number of Sampled Component Spectra: 1
Spectrometers: USB2+H06089
Integration Time (usec): 10000 (USB2+H06089)
Spectra Averaged: 2 (USB2+H06089)
Boxcar Smoothing: 2 (USB2+H06089)
Correct for Electrical Dark: No (USB2+H06089)
Strobe/Lamp Enabled: No (USB2+H06089)
Correct for Detector Non-linearity: No (USB2+H06089)
Correct for Stray Light: No (USB2+H06089)
Number of Pixels in Processed Spectrum: 2048
>>>>>Begin Processed Spectral Data<<<<<
339.70	985.37
340.07	985.37
340.45	954.00
340.82	938.55
341.19	924.75
341.57	907.43
341.94	907.89
342.31	915.38
342.69	919.83
343.06	911.40
343.43	915.15
343.81	909.06
344.18	896.19
344.55	888.23
344.93	907.66
345.30	898.77
345.67	914.68
346.04	923.11
346.42	934.58
346.79	942.30
347.16	959.39
347.54	959.62
347.91	978.11
348.28	990.05
348.65	998.00
349.03	1004.32
349.40	1023.28
349.77	1027.03
350.14	1034.28
350.52	1040.84
350.89	1070.09
351.26	1064.71
351.63	1075.01
352.01	1082.73
352.38	1088.82
352.75	1080.63
353.12	1093.73
353.50	1088.35
353.87	1089.29
354.24	1080.16
354.61	1070.33
354.98	1066.58
355.36	1072.20
355.73	1077.35
356.10	1070.09
356.47	1071.26
356.84	1077.11
357.22	1082.26
357.59	1077.58
357.96	1092.80
358.33	1098.88
358.70	1103.33
359.08	1093.97
359.45	1098.18
359.82	1096.78
360.19	1097.24
360.56	1083.90
360.94	1089.29
361.31	1077.82
361.68	1082.50
362.05	1082.97
362.42	1083.67
362.79	1082.03
363.16	1088.12
363.54	1090.69
363.91	1085.31
364.28	1086.71
364.65	1084.37
365.02	1094.20
365.39	1074.31
365.76	1068.92
366.14	1071.03
366.51	1074.31
366.88	1074.07
367.25	1084.84
367.62	1097.48
367.99	1100.52
368.36	1100.52
368.73	1092.09
369.10	1078.05
369.48	1072.67
369.85	1060.03
370.22	1056.99
370.59	1060.96
370.96	1075.71
371.33	1081.56
371.70	1096.78
372.07	1100.29
372.44	1091.86
372.81	1096.07
373.18	1092.80
373.55	1093.97
373.93	1093.26
374.30	1090.92
374.67	1088.58
375.04	1090.46
375.41	1085.31
375.78	1084.84
376.15	1093.03
376.52	1086.94
376.89	1079.22
377.26	1086.94
377.63	1090.22
378.00	1093.97
378.37	1100.52
378.74	1106.84
379.11	1105.44
379.48	1100.29
379.85	1093.73
380.22	1087.41
380.59	1089.52
380.96	1077.11
381.33	1086.94
381.70	1080.86
382.07	1089.52
382.44	1089.52
382.81	1101.46
383.18	1097.01
383.55	1108.48
383.92	1097.95
384.29	1091.86
384.66	1084.37
385.03	1077.58
385.40	1080.86
385.77	1087.41
386.14	1097.01
386.51	1101.22
386.88	1099.58
387.25	1092.09
387.62	1103.80
387.99	1102.63
388.36	1101.22
388.73	1109.65
389.10	1112.92
389.46	1106.84
389.83	1106.14
390.20	1108.48
390.57	1111.29
390.94	1115.73
391.31	1115.73
391.68	1106.37
392.05	1108.95
392.42	1106.61
392.79	1108.01
393.16	1106.61
393.53	1109.18
393.89	1113.86
394.26	1117.14
394.63	1104.26
395.00	1100.75
395.37	1110.82
395.74	1110.82
396.11	1113.86
396.48	1120.88
396.84	1118.07
397.21	1110.82
397.58	1108.24
397.95	1108.48
398.32	1116.90
398.69	1123.46
399.06	1135.39
399.42	1137.27
399.79	1145.93
400.16	1147.10
400.53	1151.78
400.90	1152.48
401.27	1155.76
401.64	1157.86
402.00	1157.63
402.37	1161.61
402.74	1160.67
403.11	1158.33
403.48	1149.91
403.84	1158.10
404.21	1155.99
404.58	1159.50
404.95	1182.91
405.32	1202.33
405.68	1217.08
406.05	1250.78
406.42	1276.06
406.79	1274.89
407.16	1284.72
407.52	1296.42
407.89	1295.72
408.26	1311.17
408.63	1338.32
408.99	1369.68
409.36	1391.68
409.73	1415.56
410.10	1437.56
410.47	1462.37
410.83	1490.92
411.20	1526.97
411.57	1560.90
411.94	1603.74
412.30	1646.33
412.67	1685.42
413.04	1728.49
413.40	1789.57
413.77	1832.64
414.14	1893.03
414.51	1954.35
414.87	2008.65
415.24	2073.95
415.61	2152.59
415.97	2235.21
416.34	2307.77
416.71	2423.39
417.08	2522.86
417.44	2626.32
417.81	2730.70
418.18	2859.90
418.54	2994.01
418.91	3127.42
419.28	3265.75
419.64	3411.56
420.01	3570.25
420.38	3709.28
420.74	3897.23
421.11	4081.43
421.48	4282.48
421.84	4495.47
422.21	4708.46
422.58	4932.44
422.94	5206.52
423.31	5465.85
423.68	5727.52
424.04	5996.45
424.41	6295.81
424.77	6558.65
425.14	6866.20
425.51	7173.27
425.87	7536.76
426.24	7859.75
426.61	8289.01
426.97	8752.20
427.34	9178.88
427.70	9713.46
428.07	10201.93
428.44	10686.42
428.80	11160.14
429.17	11673.42
429.53	12152.30
429.90	12792.20
430.27	13350.65
430.63	13893.42
431.00	14564.45
431.36	15262.87
431.73	15843.79
432.09	16478.78
432.46	17142.08
432.83	17746.18
433.19	18273.50
433.56	18941.02
433.92	19640.84
434.29	20263.66
434.65	20996.71
435.02	21613.21
435.38	22228.30
435.75	22712.09
436.11	23354.80
436.48	23778.20
436.84	24318.17
437.21	24763.80
437.57	25250.40
437.94	25580.65
438.30	25972.46
438.67	26226.40
439.03	26345.77
439.40	26448.76
439.76	26450.39
440.13	26342.50
440.49	26266.66
440.86	26047.12
441.22	25763.45
441.59	25351.75
441.95	24988.50
442.32	24476.39
442.68	24049.47
443.05	23562.41
443.41	23107.41
443.78	22522.98
444.14	22053.00
444.51	21492.67
444.87	21047.27
445.24	20605.61
445.60	20185.48
445.96	19624.46
446.33	19206.67
446.69	18646.81
447.06	18155.07
447.42	17642.72
447.79	17107.91
448.15	16660.17
448.51	16169.83
448.88	15760.00
449.24	15315.76
449.61	15058.77
449.97	14648.01
450.33	14291.08
450.70	13834.91
451.06	13481.72
451.43	13015.72
451.79	12676.11
452.15	12387.75
452.52	12153.23
452.88	11869.09
453.24	11641.12
453.61	11371.73
453.97	11107.01
454.34	10809.53
454.70	10556.99
455.06	10308.89
455.43	10005.09
455.79	9649.33
456.15	9345.06
456.52	9032.60
456.88	8786.61
457.24	8524.70
457.61	8301.41
457.97	8063.85
458.33	7828.16
458.70	7533.95
459.06	7292.17
459.42	7064.67
459.79	6819.62
460.15	6617.63
460.51	6395.05
460.88	6182.76
461.24	5989.66
461.60	5851.81
461.96	5671.82
462.33	5520.86
462.69	5384.40
463.05	5259.89
463.42	5106.35
463.78	4958.66
464.14	4840.93
464.50	4737.71
464.87	4625.13
465.23	4496.17
465.59	4390.14
465.95	4271.24
466.32	4139.94
466.68	4038.59
467.04	3963.93
467.40	3893.01
467.77	3833.80
468.13	3757.96
468.49	3699.22
468.85	3625.02
469.22	3559.49
469.58	3491.85
469.94	3451.35
470.30	3381.37
470.66	3326.84
471.03	3280.73
471.39	3237.19
471.75	3183.83
472.11	3114.78
472.47	3061.19
472.84	3008.76
473.20	2937.37
473.56	2883.54
473.92	2828.54
474.28	2777.05
474.65	2724.38
475.01	2688.11
475.37	2634.98
475.73	2604.08
476.09	2556.10
476.45	2515.37
476.81	2473.71
477.18	2437.43
477.54	2410.75
477.90	2387.35
478.26	2344.05
478.62	2314.32
478.98	2272.66
479.34	2234.74
479.71	2207.13
480.07	2200.34
480.43	2187.23
480.79	2172.02
481.15	2136.21
481.51	2101.80
481.87	2060.84
482.23	2014.27
482.59	1979.86
482.96	1965.11
483.32	1970.26
483.68	1950.60
484.04	1928.13
484.40	1922.98
484.76	1909.64
485.12	1882.02
485.48	1866.81
485.84	1854.64
486.20	1824.92
486.56	1793.32
486.92	1765.00
487.28	1746.04
487.64	1736.21
488.00	1732.93
488.37	1723.57
488.73	1707.65
489.09	1691.97
489.45	1682.38
489.81	1659.21
490.17	1660.38
490.53	1653.59
490.89	1634.86
491.25	1598.59
491.61	1584.07
491.97	1551.31
492.33	1533.75
492.69	1522.28
493.05	1521.35
493.41	1515.50
493.77	1503.33
494.13	1490.69
494.49	1485.07
494.85	1480.62
495.21	1475.71
495.57	1477.81
495.93	1453.71
496.29	1436.62
496.64	1417.19
497.00	1394.26
497.36	1380.21
497.72	1372.02
498.08	1354.23
498.44	1353.77
498.80	1346.51
499.16	1341.60
499.52	1339.96
499.88	1348.38
500.24	1331.30
500.60	1327.32
500.96	1315.38
501.32	1310.47
501.68	1298.06
502.03	1310.70
502.39	1304.61
502.75	1299.00
503.11	1294.78
503.47	1305.32
503.83	1286.36
504.19	1278.87
504.55	1268.80
504.91	1267.87
505.26	1252.19
505.62	1251.48
505.98	1246.10
506.34	1243.06
506.70	1230.65
507.06	1220.59
507.42	1210.53
507.78	1207.25
508.13	1214.50
508.49	1209.82
508.85	1213.10
509.21	1213.33
509.57	1208.18
509.93	1195.78
510.28	1203.97
510.64	1199.06
511.00	1192.27
511.36	1197.89
511.72	1193.67
512.07	1189.46
512.43	1178.23
512.79	1172.61
513.15	1169.10
513.51	1159.74
513.86	1149.67
514.22	1152.01
514.58	1152.01
514.94	1147.33
515.30	1154.82
515.65	1155.52
516.01	1159.74
516.37	1160.91
516.73	1167.93
517.08	1164.18
517.44	1181.97
517.80	1177.06
518.16	1174.48
518.51	1168.40
518.87	1168.86
519.23	1151.54
519.59	1155.99
519.94	1162.08
520.30	1153.88
520.66	1157.16
521.01	1164.42
521.37	1163.71
521.73	1161.61
522.09	1165.59
522.44	1156.93
522.80	1147.56
523.16	1147.33
523.51	1129.31
523.87	1120.65
524.23	1119.24
524.58	1114.10
524.94	1113.39
525.30	1125.56
525.65	1128.61
526.01	1126.27
526.37	1125.80
526.72	1124.86
527.08	1124.39
527.44	1122.29
527.79	1122.99
528.15	1128.14
528.51	1121.35
528.86	1122.99
529.22	1115.97
529.58	1114.80
529.93	1116.90
530.29	1121.58
530.65	1118.31
531.00	1130.95
531.36	1141.25
531.71	1142.65
532.07	1140.54
532.43	1129.31
532.78	1122.05
533.14	1118.31
533.49	1101.22
533.85	1100.05
534.21	1114.09
534.56	1111.52
534.92	1106.14
535.27	1117.14
535.63	1114.80
535.98	1116.20
536.34	1120.41
536.69	1122.52
537.05	1123.22
537.41	1130.01
537.76	1116.90
538.12	1113.39
538.47	1118.54
538.83	1111.99
539.18	1115.50
539.54	1125.56
539.89	1122.75
540.25	1116.20
540.60	1120.41
540.96	1115.27
541.31	1113.39
541.67	1117.84
542.02	1119.95
542.38	1115.97
542.73	1104.03
543.09	1099.12
543.44	1103.09
543.80	1107.78
544.15	1106.37
544.51	1122.29
544.86	1120.41
545.22	1108.95
545.57	1108.01
545.93	1115.97
546.28	1106.61
546.64	1108.95
546.99	1110.82
547.35	1107.54
547.70	1100.05
548.05	1091.63
548.41	1088.58
548.76	1090.46
549.12	1087.88
549.47	1095.14
549.83	1097.01
550.18	1092.80
550.53	1099.12
550.89	1099.82
551.24	1100.05
551.60	1107.07
551.95	1114.80
552.30	1108.71
552.66	1097.71
553.01	1100.75
553.37	1093.73
553.72	1089.52
554.07	1092.56
554.43	1101.46
554.78	1100.05
555.13	1098.41
555.49	1106.84
555.84	1106.14
556.19	1108.01
556.55	1104.73
556.90	1118.07
557.26	1110.12
557.61	1109.65
557.96	1111.52
558.32	1109.41
558.67	1104.97
559.02	1100.75
559.37	1098.88
559.73	1095.84
560.08	1086.94
560.43	1075.71
560.79	1080.63
561.14	1079.46
561.49	1074.54
561.85	1074.31
562.20	1078.52
562.55	1078.05
562.90	1084.14
563.26	1099.58
563.61	1117.61
563.96	1117.84
564.32	1132.35
564.67	1122.75
565.02	1108.95
565.37	1091.16
565.73	1097.95
566.08	1082.50
566.43	1083.67
566.78	1078.52
567.14	1091.63
567.49	1086.94
567.84	1081.33
568.19	1082.50
568.54	1095.14
568.90	1096.31
569.25	1105.44
569.60	1107.78
569.95	1108.95
570.31	1104.50
570.66	1090.46
571.01	1089.05
571.36	1096.78
571.71	1100.52
572.06	1092.80
572.42	1098.65
572.77	1095.37
573.12	1097.71
573.47	1102.63
573.82	1106.84
574.18	1102.86
574.53	1096.07
574.88	1090.69
575.23	1083.67
575.58	1078.28
575.93	1081.80
576.28	1088.12
576.64	1100.75
576.99	1107.54
577.34	1105.90
577.69	1102.16
578.04	1098.18
578.39	1087.18
578.74	1082.26
579.09	1090.46
579.44	1090.69
579.80	1090.46
580.15	1095.84
580.50	1094.67
580.85	1091.86
581.20	1089.05
581.55	1082.26
581.90	1089.05
582.25	1092.33
582.60	1104.26
582.95	1108.95
583.30	1117.84
583.65	1109.18
584.00	1106.37
584.35	1096.07
584.71	1091.63
585.06	1091.86
585.41	1091.39
585.76	1087.88
586.11	1087.18
586.46	1096.31
586.81	1097.01
587.16	1090.92
587.51	1100.75
587.86	1103.56
588.21	1098.18
588.56	1089.52
588.91	1092.09
589.26	1076.65
589.61	1075.01
589.96	1062.37
590.31	1065.88
590.66	1072.67
591.01	1084.84
591.36	1090.69
591.71	1098.88
592.06	1107.78
592.41	1108.71
592.76	1111.05
593.10	1109.41
593.45	1104.73
593.80	1093.26
594.15	1077.58
594.50	1081.09
594.85	1082.03
595.20	1095.37
595.55	1103.33
595.90	1113.39
596.25	1095.14
596.60	1096.54
596.95	1093.50
597.30	1091.39
597.64	1132.12
597.99	1140.07
598.34	1133.05
598.69	1129.31
599.04	1130.95
599.39	1089.05
599.74	1093.03
600.09	1095.60
600.44	1100.29
600.78	1100.29
601.13	1097.48
601.48	1094.43
601.83	1092.80
602.18	1093.73
602.53	1081.80
602.88	1079.92
603.22	1081.33
603.57	1079.92
603.92	1075.48
604.27	1078.28
604.62	1083.43
604.97	1079.92
605.31	1087.18
605.66	1087.88
606.01	1091.63
606.36	1086.24
606.71	1091.16
607.05	1084.37
607.40	1078.05
607.75	1083.90
608.10	1097.48
608.44	1090.46
608.79	1089.99
609.14	1103.56
609.49	1097.95
609.84	1093.97
610.18	1097.48
610.53	1093.73
610.88	1085.54
611.23	1086.01
611.57	1082.97
611.92	1082.97
612.27	1088.12
612.62	1097.95
612.96	1099.12
613.31	1090.92
613.66	1094.20
614.00	1099.82
614.35	1101.92
614.70	1094.43
615.05	1101.46
615.39	1103.33
615.74	1099.82
616.09	1090.22
616.43	1092.56
616.78	1091.63
617.13	1084.84
617.47	1081.09
617.82	1085.54
618.17	1089.99
618.51	1079.22
618.86	1074.54
619.21	1082.26
619.55	1071.03
619.90	1081.56
620.25	1088.58
620.59	1102.39
620.94	1087.65
621.29	1096.07
621.63	1100.99
621.98	1107.31
622.32	1100.52
622.67	1100.75
623.02	1094.90
623.36	1086.48
623.71	1084.84
624.05	1086.71
624.40	1099.12
624.75	1104.50
625.09	1101.46
625.44	1093.50
625.78	1087.18
626.13	1080.16
626.48	1078.99
626.82	1070.80
627.17	1072.67
627.51	1084.60
627.86	1084.37
628.20	1079.69
628.55	1086.94
628.89	1093.50
629.24	1073.60
629.58	1073.14
629.93	1075.24
630.28	1075.94
630.62	1080.16
630.97	1088.35
631.31	1089.29
631.66	1094.20
632.00	1086.24
632.35	1089.52
632.69	1094.90
633.04	1094.90
633.38	1089.29
633.73	1090.69
634.07	1078.05
634.42	1080.63
634.76	1075.71
635.11	1085.54
635.45	1077.58
635.79	1083.43
636.14	1077.58
636.48	1086.94
636.83	1076.88
637.17	1091.39
637.52	1082.03
637.86	1076.65
638.21	1078.28
638.55	1086.48
638.89	1082.03
639.24	1087.18
639.58	1102.86
639.93	1096.07
640.27	1095.14
640.61	1085.07
640.96	1088.35
641.30	1085.54
641.65	1094.43
641.99	1089.29
642.33	1111.75
642.68	1115.73
643.02	1104.26
643.37	1105.67
643.71	1102.63
644.05	1094.43
644.40	1092.80
644.74	1097.95
645.08	1090.22
645.43	1098.18
645.77	1091.39
646.11	1087.41
646.46	1083.67
646.80	1082.50
647.14	1077.11
647.49	1077.11
647.83	1063.31
648.17	1070.09
648.52	1078.28
648.86	1082.97
649.20	1086.71
649.55	1082.73
649.89	1082.73
650.23	1071.03
650.57	1068.22
650.92	1064.48
651.26	1076.88
651.60	1073.60
651.95	1091.86
652.29	1086.01
652.63	1079.92
652.97	1083.43
653.32	1075.01
653.66	1057.69
654.00	1069.62
654.34	1076.88
654.69	1085.77
655.03	1097.01
655.37	1089.99
655.71	1076.41
656.05	1084.14
656.40	1079.46
656.74	1075.48
657.08	1088.58
657.42	1106.84
657.76	1107.78
658.11	1100.99
658.45	1097.24
658.79	1094.90
659.13	1079.92
659.47	1072.43
659.82	1076.18
660.16	1078.99
660.50	1074.07
660.84	1078.75
661.18	1089.05
661.52	1080.39
661.87	1083.67
662.21	1083.20
662.55	1081.09
662.89	1073.60
663.23	1083.67
663.57	1094.43
663.91	1104.03
664.25	1104.03
664.60	1104.97
664.94	1101.69
665.28	1100.29
665.62	1091.63
665.96	1096.54
666.30	1092.33
666.64	1097.71
666.98	1084.14
667.32	1086.71
667.66	1089.52
668.01	1080.86
668.35	1080.39
668.69	1093.03
669.03	1101.46
669.37	1091.86
669.71	1106.84
670.05	1099.58
670.39	1092.56
670.73	1086.48
671.07	1093.73
671.41	1089.75
671.75	1092.56
672.09	1096.31
672.43	1097.71
672.77	1105.67
673.11	1111.05
673.45	1110.35
673.79	1103.80
674.13	1098.88
674.47	1089.29
674.81	1085.07
675.15	1081.09
675.49	1086.48
675.83	1088.12
676.17	1085.31
676.51	1074.54
676.85	1083.20
677.19	1085.77
677.53	1086.94
677.87	1085.77
678.21	1090.22
678.55	1086.01
678.89	1078.52
679.23	1081.09
679.57	1076.41
679.90	1086.71
680.24	1092.33
680.58	1098.88
680.92	1095.37
681.26	1106.14
681.60	1100.52
681.94	1090.69
682.28	1084.37
682.62	1087.18
682.96	1083.90
683.29	1088.12
683.63	1094.67
683.97	1089.52
684.31	1084.37
684.65	1078.52
684.99	1067.99
685.33	1073.14
685.67	1081.09
686.00	1083.43
686.34	1079.92
686.68	1086.24
687.02	1082.97
687.36	1079.46
687.70	1072.90
688.03	1076.18
688.37	1076.41
688.71	1074.31
689.05	1082.50
689.39	1083.20
689.72	1089.05
690.06	1093.03
690.40	1090.22
690.74	1071.73
691.08	1068.69
691.41	1080.16
691.75	1077.11
692.09	1074.54
692.43	1080.86
692.76	1093.26
693.10	1083.43
693.44	1075.94
693.78	1069.39
694.11	1068.69
694.45	1070.33
694.79	1075.24
695.13	1077.11
695.46	1083.43
695.80	1086.71
696.14	1086.48
696.48	1074.77
696.81	1074.31
697.15	1077.35
697.49	1083.67
697.82	1086.24
698.16	1095.14
698.50	1095.60
698.83	1092.56
699.17	1081.33
699.51	1075.01
699.84	1075.01
700.18	1078.05
700.52	1091.39
700.85	1098.41
701.19	1101.92
701.53	1090.69
701.86	1094.90
702.20	1084.37
702.54	1089.52
702.87	1085.77
703.21	1088.58
703.55	1081.09
703.88	1077.82
704.22	1064.01
704.55	1063.77
704.89	1070.56
705.23	1061.67
705.56	1067.99
705.90	1077.82
706.23	1080.86
706.57	1076.65
706.91	1091.16
707.24	1092.56
707.58	1082.97
707.91	1081.09
708.25	1078.28
708.58	1070.80
708.92	1064.71
709.26	1079.46
709.59	1071.73
709.93	1072.67
710.26	1074.77
710.60	1082.97
710.93	1077.11
711.27	1087.88
711.60	1097.24
711.94	1098.18
712.27	1091.39
712.61	1091.39
712.94	1086.01
713.28	1075.01
713.61	1074.07
713.95	1081.09
714.28	1071.26
714.62	1072.43
714.95	1083.67
715.29	1082.50
715.62	1079.22
715.96	1089.05
716.29	1089.52
716.63	1078.52
716.96	1088.12
717.29	1087.41
717.63	1085.31
717.96	1088.82
718.30	1095.60
718.63	1081.33
718.97	1071.73
719.30	1073.14
719.63	1067.52
719.97	1074.07
720.30	1075.71
720.64	1084.60
720.97	1072.67
721.30	1072.90
721.64	1075.94
721.97	1081.09
722.31	1081.56
722.64	1091.16
722.97	1082.03
723.31	1064.48
723.64	1071.03
723.97	1078.28
724.31	1078.75
724.64	1083.67
724.98	1077.35
725.31	1069.39
725.64	1059.09
725.98	1069.16
726.31	1079.22
726.64	1088.12
726.97	1089.75
727.31	1085.07
727.64	1069.86
727.97	1070.09
728.31	1072.67
728.64	1075.94
728.97	1090.46
729.31	1087.65
729.64	1076.41
729.97	1073.84
730.30	1072.20
730.64	1060.50
730.97	1075.01
731.30	1076.88
731.63	1087.18
731.97	1080.39
732.30	1080.39
732.63	1074.77
732.96	1088.82
733.30	1081.56
733.63	1083.67
733.96	1086.01
734.29	1089.29
734.63	1075.01
734.96	1064.48
735.29	1072.20
735.62	1068.22
735.95	1066.82
736.29	1076.65
736.62	1090.69
736.95	1085.31
737.28	1086.01
737.61	1081.33
737.94	1076.18
738.28	1083.43
738.61	1079.92
738.94	1092.80
739.27	1089.05
739.60	1082.26
739.93	1068.69
740.27	1078.75
740.60	1062.14
740.93	1073.14
741.26	1073.37
741.59	1081.33
741.92	1084.60
742.25	1103.09
742.58	1097.71
742.91	1108.01
743.25	1104.73
743.58	1095.84
743.91	1087.18
744.24	1092.09
744.57	1088.82
744.90	1082.97
745.23	1088.35
745.56	1092.33
745.89	1093.26
746.22	1090.92
746.55	1099.35
746.88	1091.39
747.21	1091.39
747.54	1086.71
747.87	1093.50
748.20	1092.56
748.53	1105.67
748.87	1097.71
749.20	1086.24
749.53	1081.56
749.86	1070.09
750.19	1064.48
750.52	1066.82
750.85	1075.24
751.18	1065.88
751.51	1070.80
751.84	1083.67
752.16	1082.03
752.49	1075.94
752.82	1079.69
753.15	1080.63
753.48	1069.39
753.81	1073.14
754.14	1081.56
754.47	1093.73
754.80	1094.43
755.13	1094.20
755.46	1090.46
755.79	1098.18
756.12	1092.09
756.45	1094.43
756.78	1093.03
757.11	1094.43
757.43	1084.60
757.76	1087.65
758.09	1079.92
758.42	1079.22
758.75	1080.39
759.08	1077.35
759.41	1073.84
759.74	1079.46
760.07	1072.20
760.39	1077.11
760.72	1084.84
761.05	1079.69
761.38	1068.22
761.71	1072.67
762.04	1068.69
762.36	1065.88
762.69	1071.73
763.02	1087.18
763.35	1084.84
763.68	1082.26
764.01	1081.80
764.33	1076.18
764.66	1069.62
