SpectraSuite Data File
++++++++++++++++++++++++++++++++++++
Date: Mon Aug 26 10:24:52 PDT 2019
User: corrico
Dark Spectrum Present: No
Reference Spectrum Present: No
Number of Sampled Component Spectra: 1
Spectrometers: USB2+H06089
Integration Time (usec): 10000 (USB2+H06089)
Spectra Averaged: 2 (USB2+H06089)
Boxcar Smoothing: 2 (USB2+H06089)
Correct for Electrical Dark: No (USB2+H06089)
Strobe/Lamp Enabled: No (USB2+H06089)
Correct for Detector Non-linearity: No (USB2+H06089)
Correct for Stray Light: No (USB2+H06089)
Number of Pixels in Processed Spectrum: 2048
>>>>>Begin Processed Spectral Data<<<<<
339.70	1023.98
340.07	1023.98
340.45	996.60
340.82	983.02
341.19	958.68
341.57	936.45
341.94	924.98
342.31	911.87
342.69	910.23
343.06	914.68
343.43	916.32
343.81	918.66
344.18	918.66
344.55	916.09
344.93	911.64
345.30	920.77
345.67	928.96
346.04	950.49
346.42	961.49
346.79	966.41
347.16	966.17
347.54	965.94
347.91	980.45
348.28	980.22
348.65	991.22
349.03	1000.11
349.40	1021.64
349.77	1024.92
350.14	1036.39
350.52	1045.05
350.89	1051.37
351.26	1052.07
351.63	1048.79
352.01	1061.43
352.38	1071.97
352.75	1081.56
353.12	1074.31
353.50	1076.18
353.87	1077.35
354.24	1074.77
354.61	1075.71
354.98	1082.03
355.36	1084.84
355.73	1079.92
356.10	1099.35
356.47	1101.69
356.84	1108.95
357.22	1108.95
357.59	1111.75
357.96	1099.12
358.33	1093.73
358.70	1084.60
359.08	1101.69
359.45	1088.35
359.82	1084.84
360.19	1085.54
360.56	1085.07
360.94	1067.52
361.31	1091.86
361.68	1092.80
362.05	1084.37
362.42	1088.12
362.79	1095.14
363.16	1095.60
363.54	1099.12
363.91	1112.22
364.28	1098.41
364.65	1097.48
365.02	1081.33
365.39	1081.33
365.76	1074.77
366.14	1092.80
366.51	1089.99
366.88	1090.22
367.25	1091.16
367.62	1085.77
367.99	1084.37
368.36	1086.48
368.73	1088.82
369.10	1071.50
369.48	1073.84
369.85	1074.54
370.22	1067.05
370.59	1054.65
370.96	1060.73
371.33	1066.11
371.70	1071.50
372.07	1078.75
372.44	1089.05
372.81	1098.18
373.18	1100.29
373.55	1091.86
373.93	1092.09
374.30	1094.67
374.67	1087.41
375.04	1083.20
375.41	1076.65
375.78	1079.92
376.15	1082.50
376.52	1084.84
376.89	1090.22
377.26	1101.22
377.63	1096.07
378.00	1088.35
378.37	1093.97
378.74	1094.67
379.11	1101.69
379.48	1110.82
379.85	1126.27
380.22	1120.18
380.59	1120.88
380.96	1112.69
381.33	1108.48
381.70	1095.14
382.07	1102.16
382.44	1104.03
382.81	1107.07
383.18	1109.88
383.55	1112.22
383.92	1107.31
384.29	1106.37
384.66	1102.39
385.03	1092.33
385.40	1093.73
385.77	1095.37
386.14	1093.03
386.51	1094.67
386.88	1098.18
387.25	1095.60
387.62	1098.18
387.99	1100.05
388.36	1093.50
388.73	1098.18
389.10	1110.58
389.46	1108.24
389.83	1108.24
390.20	1107.78
390.57	1107.31
390.94	1098.41
391.31	1102.86
391.68	1100.99
392.05	1109.88
392.42	1108.01
392.79	1116.20
393.16	1116.90
393.53	1127.20
393.89	1121.82
394.26	1133.52
394.63	1126.50
395.00	1124.16
395.37	1118.31
395.74	1129.54
396.11	1117.37
396.48	1121.58
396.84	1128.37
397.21	1125.33
397.58	1119.24
397.95	1122.75
398.32	1119.48
398.69	1119.48
399.06	1119.01
399.42	1126.73
399.79	1141.01
400.16	1160.20
400.53	1170.50
400.90	1169.33
401.27	1163.48
401.64	1152.25
402.00	1135.63
402.37	1129.78
402.74	1141.95
403.11	1145.22
403.48	1162.08
403.84	1182.20
404.21	1189.69
404.58	1205.14
404.95	1227.38
405.32	1233.70
405.68	1241.42
406.05	1250.08
406.42	1260.14
406.79	1274.89
407.16	1284.95
407.52	1302.51
407.89	1320.30
408.26	1343.94
408.63	1358.68
408.99	1376.47
409.36	1399.17
409.73	1427.02
410.10	1443.88
410.47	1467.05
410.83	1504.26
411.20	1532.35
411.57	1581.73
411.94	1623.16
412.30	1667.87
412.67	1715.14
413.04	1754.00
413.40	1797.77
413.77	1865.64
414.14	1933.28
414.51	1992.03
414.87	2082.37
415.24	2148.38
415.61	2228.42
415.97	2305.19
416.34	2399.28
416.71	2489.63
417.08	2593.08
417.44	2668.91
417.81	2780.79
418.18	2900.86
418.54	3027.95
418.91	3161.83
419.28	3340.41
419.64	3506.82
420.01	3669.96
420.38	3827.01
420.74	4017.30
421.11	4205.71
421.48	4430.63
421.84	4646.43
422.21	4890.08
422.58	5136.07
422.94	5390.25
423.31	5610.73
423.68	5892.30
424.04	6194.46
424.41	6498.03
424.77	6789.43
425.14	7119.68
425.51	7426.99
425.87	7800.07
426.24	8142.96
426.61	8582.51
426.97	9059.04
427.34	9536.98
427.70	9984.26
428.07	10512.52
428.44	11030.48
428.80	11514.97
429.17	12064.53
429.53	12604.96
429.90	13244.86
430.27	13800.73
430.63	14419.57
431.00	15101.14
431.36	15865.56
431.73	16457.48
432.09	17132.25
432.46	17818.97
432.83	18467.53
433.19	19007.96
433.56	19728.61
433.92	20432.88
434.29	21043.99
434.65	21691.15
435.02	22361.48
435.38	23018.00
435.75	23538.30
436.11	24195.29
436.48	24648.42
436.84	25205.46
437.21	25627.46
437.57	26077.55
437.94	26515.70
438.30	26963.67
438.67	27200.77
439.03	27385.91
439.40	27527.51
439.76	27409.55
440.13	27325.75
440.49	27266.30
440.86	27044.42
441.22	26797.26
441.59	26466.31
441.95	26102.36
442.32	25553.50
442.68	25139.46
443.05	24638.59
443.41	24148.95
443.78	23541.58
444.14	22994.59
444.51	22339.24
444.87	21831.11
445.24	21326.49
445.60	20923.69
445.96	20413.22
446.33	19972.96
446.69	19378.93
447.06	18882.97
447.42	18260.16
447.79	17757.41
448.15	17317.39
448.51	16852.79
448.88	16419.56
449.24	15975.56
449.61	15635.95
449.97	15206.93
450.33	14867.79
450.70	14413.96
451.06	14103.83
451.43	13631.05
451.79	13244.39
452.15	12898.46
452.52	12642.40
452.88	12305.60
453.24	12031.29
453.61	11781.32
453.97	11498.82
454.34	11136.97
454.70	10856.34
455.06	10624.16
455.43	10274.72
455.79	9913.34
456.15	9641.60
456.52	9327.27
456.88	9025.57
457.24	8776.77
457.61	8538.98
457.97	8294.86
458.33	8038.80
458.70	7797.73
459.06	7526.23
459.42	7313.00
459.79	7066.08
460.15	6863.15
460.51	6641.97
460.88	6443.96
461.24	6241.27
461.60	6068.54
461.96	5885.28
462.33	5701.08
462.69	5531.39
463.05	5384.64
463.42	5238.59
463.78	5111.73
464.14	4990.72
464.50	4867.38
464.87	4757.61
465.23	4635.67
465.59	4514.43
465.95	4405.12
466.32	4314.54
466.68	4195.64
467.04	4099.68
467.40	4024.32
467.77	3959.25
468.13	3864.93
468.49	3796.82
468.85	3735.73
469.22	3661.77
469.58	3586.64
469.94	3540.53
470.30	3478.97
470.66	3424.67
471.03	3363.35
471.39	3306.47
471.75	3232.75
472.11	3169.09
472.47	3105.89
472.84	3039.19
473.20	2973.65
473.56	2942.52
473.92	2886.58
474.28	2834.15
474.65	2788.75
475.01	2761.83
475.37	2692.79
475.73	2638.95
476.09	2605.48
476.45	2580.21
476.81	2526.61
477.18	2504.61
477.54	2474.88
477.90	2434.86
478.26	2381.73
478.62	2352.00
478.98	2315.02
479.34	2283.89
479.71	2245.51
480.07	2248.08
480.43	2219.76
480.79	2189.81
481.15	2151.65
481.51	2137.85
481.87	2107.42
482.23	2079.10
482.59	2062.48
482.96	2056.16
483.32	2030.18
483.68	1986.41
484.04	1976.35
484.40	1952.94
484.76	1931.41
485.12	1910.35
485.48	1912.92
485.84	1882.02
486.20	1853.24
486.56	1831.70
486.92	1818.13
487.28	1793.08
487.64	1775.30
488.00	1763.83
488.37	1746.51
488.73	1731.06
489.09	1707.89
489.45	1692.21
489.81	1686.12
490.17	1677.93
490.53	1666.23
490.89	1654.52
491.25	1635.33
491.61	1600.69
491.97	1581.27
492.33	1559.97
492.69	1551.07
493.05	1537.73
493.41	1540.77
493.77	1527.67
494.13	1512.92
494.49	1491.16
494.85	1481.33
495.21	1463.77
495.57	1449.73
495.93	1444.11
496.29	1442.94
496.64	1427.49
497.00	1417.66
497.36	1410.41
497.72	1401.28
498.08	1387.70
498.44	1388.87
498.80	1380.92
499.16	1379.98
499.52	1372.96
499.88	1361.96
500.24	1356.57
500.60	1350.02
500.96	1338.32
501.32	1320.30
501.68	1311.40
502.03	1305.78
502.39	1300.17
502.75	1308.83
503.11	1317.49
503.47	1317.72
503.83	1315.38
504.19	1309.06
504.55	1286.12
504.91	1278.63
505.26	1269.51
505.62	1258.27
505.98	1256.87
506.34	1259.68
506.70	1251.95
507.06	1248.91
507.42	1240.25
507.78	1238.38
508.13	1228.08
508.49	1225.04
508.85	1222.70
509.21	1210.99
509.57	1199.99
509.93	1198.35
510.28	1195.31
510.64	1193.67
511.00	1199.99
511.36	1187.35
511.72	1185.72
512.07	1192.27
512.43	1188.52
512.79	1180.57
513.15	1188.99
513.51	1190.86
513.86	1185.01
514.22	1182.44
514.58	1188.99
514.94	1185.48
515.30	1175.18
515.65	1169.33
516.01	1168.40
516.37	1166.76
516.73	1167.93
517.08	1171.67
517.44	1152.95
517.80	1144.99
518.16	1138.20
518.51	1133.99
518.87	1133.99
519.23	1150.61
519.59	1158.57
519.94	1158.33
520.30	1154.59
520.66	1150.14
521.01	1140.31
521.37	1144.05
521.73	1137.50
522.09	1147.10
522.44	1147.80
522.80	1148.50
523.16	1140.54
523.51	1145.69
523.87	1136.56
524.23	1119.24
524.58	1119.71
524.94	1117.61
525.30	1127.20
525.65	1131.41
526.01	1151.78
526.37	1148.50
526.72	1152.71
527.08	1143.35
527.44	1134.93
527.79	1123.46
528.15	1115.97
528.51	1104.73
528.86	1100.05
529.22	1088.35
529.58	1086.94
529.93	1089.05
530.29	1102.63
530.65	1107.07
531.00	1128.84
531.36	1130.48
531.71	1134.46
532.07	1121.12
532.43	1112.22
532.78	1102.86
533.14	1104.97
533.49	1103.80
533.85	1118.07
534.21	1119.48
534.56	1116.90
534.92	1119.48
535.27	1117.14
535.63	1104.03
535.98	1098.18
536.34	1104.50
536.69	1097.24
537.05	1098.65
537.41	1109.41
537.76	1128.14
538.12	1122.52
538.47	1122.29
538.83	1120.65
539.18	1112.46
539.54	1097.95
539.89	1103.09
540.25	1110.82
540.60	1108.24
540.96	1110.35
541.31	1118.54
541.67	1123.46
542.02	1119.48
542.38	1124.86
542.73	1119.95
543.09	1115.27
543.44	1100.99
543.80	1097.01
544.15	1099.12
544.51	1098.88
544.86	1098.88
545.22	1104.03
545.57	1096.07
545.93	1091.63
546.28	1097.71
546.64	1104.50
546.99	1093.97
547.35	1104.97
547.70	1108.24
548.05	1103.80
548.41	1104.26
548.76	1111.99
549.12	1111.75
549.47	1106.61
549.83	1100.75
550.18	1097.48
550.53	1105.90
550.89	1107.54
551.24	1116.20
551.60	1116.90
551.95	1112.22
552.30	1106.84
552.66	1097.71
553.01	1093.97
553.37	1097.24
553.72	1096.78
554.07	1089.75
554.43	1097.24
554.78	1089.75
555.13	1089.29
555.49	1093.97
555.84	1105.90
556.19	1098.65
556.55	1102.63
556.90	1103.80
557.26	1102.39
557.61	1087.41
557.96	1095.60
558.32	1097.71
558.67	1095.14
559.02	1096.31
559.37	1101.22
559.73	1105.67
560.08	1097.01
560.43	1089.52
560.79	1087.88
561.14	1089.29
561.49	1081.80
561.85	1087.65
562.20	1093.73
562.55	1101.69
562.90	1103.80
563.26	1110.12
563.61	1113.39
563.96	1106.61
564.32	1106.37
564.67	1099.82
565.02	1089.99
565.37	1096.31
565.73	1111.75
566.08	1093.50
566.43	1096.54
566.78	1093.97
567.14	1087.41
567.49	1084.14
567.84	1096.31
568.19	1096.31
568.54	1105.44
568.90	1106.37
569.25	1090.92
569.60	1082.50
569.95	1085.31
570.31	1076.41
570.66	1078.05
571.01	1093.03
571.36	1092.56
571.71	1092.56
572.06	1100.29
572.42	1091.39
572.77	1087.88
573.12	1093.97
573.47	1093.73
573.82	1088.82
574.18	1104.03
574.53	1110.82
574.88	1107.54
575.23	1109.65
575.58	1108.01
575.93	1096.31
576.28	1086.48
576.64	1089.29
576.99	1081.33
577.34	1083.43
577.69	1083.67
578.04	1080.63
578.39	1078.99
578.74	1086.48
579.09	1094.20
579.44	1085.77
579.80	1089.99
580.15	1095.37
580.50	1093.73
580.85	1091.63
581.20	1108.95
581.55	1103.09
581.90	1099.58
582.25	1111.29
582.60	1106.14
582.95	1098.88
583.30	1099.12
583.65	1108.48
584.00	1111.05
584.35	1107.54
584.71	1107.54
585.06	1106.84
585.41	1097.48
585.76	1073.37
586.11	1073.60
586.46	1075.71
586.81	1082.03
587.16	1088.12
587.51	1099.12
587.86	1107.54
588.21	1104.03
588.56	1105.90
588.91	1098.18
589.26	1105.20
589.61	1098.65
589.96	1091.16
590.31	1097.01
590.66	1107.07
591.01	1095.14
591.36	1100.52
591.71	1113.63
592.06	1104.26
592.41	1098.88
592.76	1089.52
593.10	1084.60
593.45	1081.33
593.80	1084.84
594.15	1080.39
594.50	1091.63
594.85	1089.99
595.20	1086.94
595.55	1087.41
595.90	1089.05
596.25	1088.82
596.60	1093.50
596.95	1089.99
597.30	1087.18
597.64	1127.67
597.99	1130.71
598.34	1128.14
598.69	1133.76
599.04	1131.88
599.39	1092.56
599.74	1095.14
600.09	1092.33
600.44	1095.37
600.78	1108.01
601.13	1106.84
601.48	1101.92
601.83	1107.78
602.18	1102.86
602.53	1085.77
602.88	1084.14
603.22	1087.88
603.57	1087.65
603.92	1086.94
604.27	1086.71
604.62	1092.56
604.97	1088.35
605.31	1082.73
605.66	1088.82
606.01	1094.43
606.36	1088.35
606.71	1081.80
607.05	1086.24
607.40	1078.75
607.75	1080.63
608.10	1085.77
608.44	1093.26
608.79	1089.29
609.14	1097.95
609.49	1102.39
609.84	1095.60
610.18	1097.24
610.53	1091.16
610.88	1095.14
611.23	1090.46
611.57	1091.63
611.92	1086.01
612.27	1096.78
612.62	1086.24
612.96	1090.92
613.31	1093.03
613.66	1096.78
614.00	1090.69
614.35	1088.12
614.70	1078.75
615.05	1075.48
615.39	1082.97
615.74	1082.26
616.09	1080.39
616.43	1083.43
616.78	1085.54
617.13	1079.69
617.47	1084.60
617.82	1090.46
618.17	1086.71
618.51	1083.67
618.86	1091.63
619.21	1094.67
619.55	1090.92
619.90	1089.05
620.25	1091.86
620.59	1094.67
620.94	1088.82
621.29	1097.24
621.63	1110.12
621.98	1113.16
622.32	1095.37
622.67	1095.37
623.02	1084.14
623.36	1084.60
623.71	1088.82
624.05	1093.73
624.40	1097.48
624.75	1101.92
625.09	1093.97
625.44	1081.80
625.78	1084.84
626.13	1077.58
626.48	1075.94
626.82	1083.20
627.17	1087.41
627.51	1080.16
627.86	1082.97
628.20	1088.12
628.55	1088.35
628.89	1096.78
629.24	1104.73
629.58	1112.92
629.93	1116.20
630.28	1109.18
630.62	1094.67
630.97	1093.97
631.31	1090.69
631.66	1082.50
632.00	1083.20
632.35	1086.24
632.69	1083.67
633.04	1079.22
633.38	1078.99
633.73	1080.39
634.07	1076.41
634.42	1064.48
634.76	1068.92
635.11	1073.84
635.45	1075.24
635.79	1081.56
636.14	1095.60
636.48	1098.18
636.83	1095.37
637.17	1103.33
637.52	1110.35
637.86	1114.10
638.21	1115.50
638.55	1117.61
638.89	1107.54
639.24	1108.24
639.58	1094.67
639.93	1086.48
640.27	1085.77
640.61	1089.29
640.96	1079.92
641.30	1081.80
641.65	1082.03
641.99	1085.07
642.33	1085.54
642.68	1087.88
643.02	1096.54
643.37	1099.58
643.71	1094.90
644.05	1087.88
644.40	1092.80
644.74	1095.84
645.08	1097.01
645.43	1097.95
645.77	1097.24
646.11	1096.54
646.46	1090.69
646.80	1076.65
647.14	1069.62
647.49	1076.88
647.83	1076.18
648.17	1083.20
648.52	1102.39
648.86	1113.86
649.20	1114.80
649.55	1104.50
649.89	1091.16
650.23	1078.52
650.57	1077.58
650.92	1079.92
651.26	1088.12
651.60	1090.69
651.95	1094.90
652.29	1082.50
652.63	1070.33
652.97	1065.88
653.32	1062.84
653.66	1060.03
654.00	1059.79
654.34	1068.69
654.69	1065.65
655.03	1071.26
655.37	1073.14
655.71	1075.71
656.05	1057.45
656.40	1060.26
656.74	1065.18
657.08	1065.65
657.42	1073.14
657.76	1086.94
658.11	1095.37
658.45	1086.94
658.79	1076.41
659.13	1077.35
659.47	1080.39
659.82	1070.80
660.16	1081.09
660.50	1097.71
660.84	1088.12
661.18	1086.94
661.52	1086.01
661.87	1075.24
662.21	1069.16
662.55	1071.97
662.89	1061.43
663.23	1069.39
663.57	1078.99
663.91	1087.18
664.25	1089.29
664.60	1096.54
664.94	1085.07
665.28	1077.82
665.62	1069.39
665.96	1065.88
666.30	1062.60
666.64	1070.09
666.98	1074.54
667.32	1083.67
667.66	1096.54
668.01	1100.75
668.35	1092.56
668.69	1087.65
669.03	1074.77
669.37	1083.43
669.71	1085.54
670.05	1093.50
670.39	1092.33
670.73	1096.54
671.07	1076.18
671.41	1072.67
671.75	1076.18
672.09	1071.03
672.43	1071.97
672.77	1073.37
673.11	1070.80
673.45	1064.48
673.79	1070.56
674.13	1060.73
674.47	1068.69
674.81	1075.71
675.15	1082.03
675.49	1077.82
675.83	1084.37
676.17	1083.90
676.51	1083.43
676.85	1076.18
677.19	1089.05
677.53	1093.03
677.87	1096.78
678.21	1098.41
678.55	1106.84
678.89	1101.92
679.23	1102.16
679.57	1094.67
679.90	1089.52
680.24	1078.52
680.58	1075.71
680.92	1068.69
681.26	1064.94
681.60	1055.58
681.94	1063.31
682.28	1065.88
682.62	1071.97
682.96	1074.77
683.29	1090.92
683.63	1089.29
683.97	1091.16
684.31	1085.77
684.65	1080.86
684.99	1082.97
685.33	1083.43
685.67	1085.54
686.00	1096.31
686.34	1097.48
686.68	1084.60
687.02	1085.77
687.36	1085.31
687.70	1086.94
688.03	1088.12
688.37	1085.77
688.71	1082.26
689.05	1078.05
689.39	1067.99
689.72	1069.16
690.06	1064.48
690.40	1062.37
690.74	1054.18
691.08	1048.33
691.41	1051.60
691.75	1060.50
692.09	1068.22
692.43	1075.94
692.76	1077.58
693.10	1072.43
693.44	1074.31
693.78	1074.77
694.11	1082.50
694.45	1086.48
694.79	1089.99
695.13	1082.73
695.46	1084.84
695.80	1069.86
696.14	1073.37
696.48	1075.01
696.81	1082.50
697.15	1083.90
697.49	1090.22
697.82	1093.50
698.16	1085.54
698.50	1089.29
698.83	1085.54
699.17	1090.46
699.51	1083.43
699.84	1086.94
700.18	1083.67
700.52	1075.71
700.85	1062.84
701.19	1056.05
701.53	1046.45
701.86	1051.60
702.20	1055.11
702.54	1065.65
702.87	1069.86
703.21	1083.90
703.55	1077.82
703.88	1078.75
704.22	1082.50
704.55	1082.03
704.89	1090.22
705.23	1088.82
705.56	1089.75
705.90	1084.37
706.23	1099.35
706.57	1090.46
706.91	1092.09
707.24	1091.63
707.58	1093.26
707.91	1067.05
708.25	1071.26
708.58	1073.84
708.92	1081.09
709.26	1078.75
709.59	1097.95
709.93	1095.37
710.26	1093.26
710.60	1084.14
710.93	1081.80
711.27	1080.63
711.60	1073.84
711.94	1074.07
712.27	1075.48
712.61	1073.60
712.94	1079.92
713.28	1081.56
713.61	1082.97
713.95	1086.01
714.28	1095.60
714.62	1088.35
714.95	1090.92
715.29	1089.29
715.62	1082.50
715.96	1082.03
716.29	1085.31
716.63	1079.46
716.96	1082.03
717.29	1085.54
717.63	1082.73
717.96	1089.05
718.30	1092.09
718.63	1095.60
718.97	1087.88
719.30	1089.75
719.63	1077.11
719.97	1079.22
720.30	1072.67
720.64	1083.90
720.97	1079.69
721.30	1077.58
721.64	1078.99
721.97	1079.92
722.31	1075.48
722.64	1075.94
722.97	1075.71
723.31	1071.26
723.64	1075.01
723.97	1072.20
724.31	1071.50
724.64	1079.46
724.98	1078.28
725.31	1079.22
725.64	1078.75
725.98	1087.41
726.31	1086.48
726.64	1086.24
726.97	1078.05
727.31	1078.99
727.64	1067.75
727.97	1064.48
728.31	1065.88
728.64	1066.82
728.97	1068.92
729.31	1066.82
729.64	1070.80
729.97	1072.43
730.30	1077.35
730.64	1076.41
730.97	1078.05
731.30	1073.37
731.63	1073.84
731.97	1068.22
732.30	1071.73
732.63	1076.41
732.96	1082.50
733.30	1089.99
733.63	1083.43
733.96	1081.80
734.29	1079.46
734.63	1072.20
734.96	1058.62
735.29	1062.60
735.62	1060.03
735.95	1066.35
736.29	1063.07
736.62	1074.77
736.95	1079.46
737.28	1081.33
737.61	1075.01
737.94	1081.33
738.28	1073.14
738.61	1076.18
738.94	1079.92
739.27	1082.26
739.60	1086.48
739.93	1088.35
740.27	1088.12
740.60	1086.71
740.93	1080.39
741.26	1088.58
741.59	1089.99
741.92	1091.63
742.25	1089.05
742.58	1099.58
742.91	1084.84
743.25	1082.03
743.58	1076.18
743.91	1081.33
744.24	1080.39
744.57	1081.09
744.90	1078.75
745.23	1092.80
745.56	1083.67
745.89	1081.33
746.22	1090.22
746.55	1097.24
746.88	1093.73
747.21	1102.63
747.54	1096.54
747.87	1084.84
748.20	1082.73
748.53	1075.71
748.87	1080.16
749.20	1075.01
749.53	1079.46
749.86	1077.58
750.19	1073.60
750.52	1053.48
750.85	1060.73
751.18	1061.20
751.51	1060.26
751.84	1057.22
752.16	1066.11
752.49	1071.26
752.82	1067.99
753.15	1075.24
753.48	1083.67
753.81	1085.07
754.14	1087.65
754.47	1082.73
754.80	1072.90
755.13	1073.84
755.46	1076.65
755.79	1065.18
756.12	1076.41
756.45	1078.75
756.78	1068.22
757.11	1061.90
757.43	1064.94
757.76	1058.86
758.09	1057.22
758.42	1058.86
758.75	1061.67
759.08	1067.75
759.41	1070.56
759.74	1078.28
760.07	1077.35
760.39	1085.54
760.72	1074.07
761.05	1077.11
761.38	1077.11
761.71	1083.43
762.04	1084.84
762.36	1091.16
762.69	1089.75
763.02	1081.80
763.35	1078.28
763.68	1075.01
764.01	1077.82
764.33	1078.52
764.66	1081.56
