SpectraSuite Data File
++++++++++++++++++++++++++++++++++++
Date: Mon Aug 26 10:24:52 PDT 2019
User: corrico
Dark Spectrum Present: No
Reference Spectrum Present: No
Number of Sampled Component Spectra: 1
Spectrometers: USB2+H06089
Integration Time (usec): 10000 (USB2+H06089)
Spectra Averaged: 2 (USB2+H06089)
Boxcar Smoothing: 2 (USB2+H06089)
Correct for Electrical Dark: No (USB2+H06089)
Strobe/Lamp Enabled: No (USB2+H06089)
Correct for Detector Non-linearity: No (USB2+H06089)
Correct for Stray Light: No (USB2+H06089)
Number of Pixels in Processed Spectrum: 2048
>>>>>Begin Processed Spectral Data<<<<<
339.70	992.39
340.07	992.39
340.45	970.15
340.82	959.85
341.19	942.30
341.57	923.58
341.94	921.70
342.31	917.96
342.69	909.06
343.06	908.13
343.43	899.94
343.81	885.42
344.18	884.72
344.55	891.28
344.93	903.68
345.30	920.77
345.67	940.43
346.04	948.39
346.42	947.68
346.79	947.45
347.16	952.36
347.54	954.47
347.91	975.54
348.28	989.58
348.65	1007.83
349.03	1018.60
349.40	1028.90
349.77	1027.96
350.14	1035.45
350.52	1033.35
350.89	1045.75
351.26	1054.18
351.63	1055.35
352.01	1065.18
352.38	1075.01
352.75	1074.07
353.12	1072.43
353.50	1079.46
353.87	1087.88
354.24	1085.54
354.61	1082.50
354.98	1081.80
355.36	1088.58
355.73	1072.67
356.10	1078.28
356.47	1093.50
356.84	1091.16
357.22	1079.46
357.59	1090.22
357.96	1079.22
358.33	1065.41
358.70	1078.52
359.08	1080.86
359.45	1078.75
359.82	1089.29
360.19	1093.97
360.56	1096.07
360.94	1103.09
361.31	1094.20
361.68	1091.86
362.05	1094.90
362.42	1081.80
362.79	1078.75
363.16	1082.97
363.54	1092.09
363.91	1085.07
364.28	1096.07
364.65	1094.43
365.02	1106.14
365.39	1092.09
365.76	1098.41
366.14	1098.18
366.51	1095.60
366.88	1088.12
367.25	1089.29
367.62	1079.22
367.99	1070.09
368.36	1072.20
368.73	1078.52
369.10	1076.18
369.48	1086.48
369.85	1092.33
370.22	1088.58
370.59	1080.16
370.96	1088.12
371.33	1077.58
371.70	1071.03
372.07	1078.52
372.44	1083.20
372.81	1075.48
373.18	1081.56
373.55	1091.39
373.93	1089.99
374.30	1084.37
374.67	1099.12
375.04	1098.88
375.41	1089.52
375.78	1090.22
376.15	1092.09
376.52	1089.05
376.89	1090.92
377.26	1092.56
377.63	1106.14
378.00	1100.99
378.37	1103.33
378.74	1095.60
379.11	1094.20
379.48	1084.14
379.85	1101.92
380.22	1090.69
380.59	1107.54
380.96	1111.05
381.33	1112.22
381.70	1094.67
382.07	1091.39
382.44	1087.41
382.81	1089.99
383.18	1075.94
383.55	1084.14
383.92	1096.07
384.29	1094.90
384.66	1091.16
385.03	1096.54
385.40	1087.65
385.77	1082.50
386.14	1082.73
386.51	1081.09
386.88	1085.77
387.25	1104.03
387.62	1099.12
387.99	1103.80
388.36	1100.75
388.73	1100.29
389.10	1089.75
389.46	1095.14
389.83	1092.80
390.20	1102.39
390.57	1108.01
390.94	1109.65
391.31	1121.82
391.68	1114.80
392.05	1116.44
392.42	1110.12
392.79	1117.84
393.16	1108.71
393.53	1116.90
393.89	1119.48
394.26	1129.31
394.63	1120.65
395.00	1117.14
395.37	1107.07
395.74	1095.37
396.11	1097.48
396.48	1102.39
396.84	1106.14
397.21	1116.67
397.58	1117.61
397.95	1113.16
398.32	1115.97
398.69	1120.65
399.06	1122.29
399.42	1134.22
399.79	1144.76
400.16	1152.25
400.53	1146.86
400.90	1145.22
401.27	1145.22
401.64	1146.63
402.00	1134.69
402.37	1134.93
402.74	1147.80
403.11	1160.44
403.48	1163.01
403.84	1181.74
404.21	1195.55
404.58	1195.08
404.95	1201.16
405.32	1210.53
405.68	1217.08
406.05	1227.85
406.42	1243.53
406.79	1258.97
407.16	1270.21
407.52	1291.74
407.89	1308.36
408.26	1321.00
408.63	1340.19
408.99	1372.26
409.36	1384.89
409.73	1410.64
410.10	1440.37
410.47	1465.88
410.83	1490.92
411.20	1530.48
411.57	1558.33
411.94	1599.52
412.30	1630.65
412.67	1671.61
413.04	1711.63
413.40	1787.00
413.77	1827.49
414.14	1891.86
414.51	1959.96
414.87	2033.93
415.24	2096.42
415.61	2200.34
415.97	2278.04
416.34	2357.15
416.71	2446.09
417.08	2544.40
417.44	2619.06
417.81	2731.87
418.18	2863.65
418.54	2975.76
418.91	3102.15
419.28	3266.22
419.64	3418.35
420.01	3552.23
420.38	3731.05
420.74	3906.82
421.11	4108.81
421.48	4326.71
421.84	4564.75
422.21	4783.82
422.58	5021.39
422.94	5242.57
423.31	5481.53
423.68	5720.97
424.04	5984.05
424.41	6246.19
424.77	6535.24
425.14	6815.64
425.51	7118.97
425.87	7502.82
426.24	7875.90
426.61	8277.30
426.97	8734.65
427.34	9194.09
427.70	9645.58
428.07	10137.56
428.44	10615.50
428.80	11123.16
429.17	11657.51
429.53	12165.17
429.90	12798.52
430.27	13346.44
430.63	13854.33
431.00	14466.38
431.36	15191.72
431.73	15723.25
432.09	16407.62
432.46	17097.38
432.83	17670.81
433.19	18172.15
433.56	18880.87
433.92	19528.73
434.29	20198.36
434.65	20955.99
435.02	21590.51
435.38	22212.15
435.75	22738.54
436.11	23377.74
436.48	23799.04
436.84	24314.89
437.21	24680.01
437.57	25129.63
437.94	25425.24
438.30	25833.43
438.67	26117.80
439.03	26307.39
439.40	26481.76
439.76	26454.84
440.13	26342.50
440.49	26281.64
440.86	26107.04
441.22	25777.02
441.59	25456.60
441.95	25093.82
442.32	24617.05
442.68	24220.33
443.05	23726.24
443.41	23252.75
443.78	22691.96
444.14	22137.25
444.51	21486.59
444.87	21066.23
445.24	20560.67
445.60	20180.10
445.96	19647.16
446.33	19232.65
446.69	18604.22
447.06	18086.72
447.42	17508.85
447.79	17026.23
448.15	16581.53
448.51	16151.33
448.88	15794.40
449.24	15365.38
449.61	15072.82
449.97	14691.54
450.33	14338.12
450.70	13884.53
451.06	13544.68
451.43	13094.13
451.79	12724.32
452.15	12416.54
452.52	12149.49
452.88	11853.41
453.24	11603.67
453.61	11361.43
453.97	11097.42
454.34	10781.44
454.70	10546.69
455.06	10296.72
455.43	9994.09
455.79	9654.71
456.15	9398.42
456.52	9083.85
456.88	8809.31
457.24	8520.72
457.61	8308.20
457.97	8061.27
458.33	7808.26
458.70	7550.80
459.06	7302.00
459.42	7087.38
459.79	6841.39
460.15	6631.91
460.51	6409.56
460.88	6230.97
461.24	6014.94
461.60	5859.30
461.96	5689.37
462.33	5545.20
462.69	5376.91
463.05	5248.18
463.42	5128.35
463.78	4995.41
464.14	4850.76
464.50	4742.63
464.87	4614.60
465.23	4465.74
465.59	4357.14
465.95	4260.95
466.32	4172.47
466.68	4075.81
467.04	3993.42
467.40	3913.38
467.77	3850.65
468.13	3762.18
468.49	3710.22
468.85	3651.24
469.22	3579.62
469.58	3506.36
469.94	3464.23
470.30	3386.52
470.66	3310.22
471.03	3240.71
471.39	3178.21
471.75	3091.85
472.11	3027.48
472.47	3006.18
472.84	2955.63
473.20	2902.73
473.56	2870.90
473.92	2822.22
474.28	2765.58
474.65	2740.77
475.01	2702.62
475.37	2637.08
475.73	2594.95
476.09	2546.50
476.45	2507.88
476.81	2462.01
477.18	2442.11
477.54	2420.82
477.90	2398.35
478.26	2349.90
478.62	2324.85
478.98	2299.11
479.34	2265.40
479.71	2229.83
480.07	2212.98
480.43	2191.68
480.79	2160.31
481.15	2141.36
481.51	2112.57
481.87	2076.99
482.23	2037.90
482.59	2012.63
482.96	1978.69
483.32	1959.26
483.68	1942.41
484.04	1927.90
484.40	1918.54
484.76	1907.54
485.12	1896.54
485.48	1884.60
485.84	1864.47
486.20	1845.75
486.56	1830.53
486.92	1810.40
487.28	1785.13
487.64	1776.00
488.00	1748.85
488.37	1720.29
488.73	1695.02
489.09	1676.29
489.45	1648.67
489.81	1629.72
490.17	1619.65
490.53	1622.23
490.89	1606.31
491.25	1597.65
491.61	1589.93
491.97	1570.50
492.33	1552.71
492.69	1544.05
493.05	1525.33
493.41	1518.07
493.77	1509.65
494.13	1493.03
494.49	1479.92
494.85	1469.62
495.21	1445.28
495.57	1442.00
495.93	1433.81
496.29	1435.68
496.64	1428.19
497.00	1427.73
497.36	1420.71
497.72	1404.79
498.08	1388.41
498.44	1390.28
498.80	1374.60
499.16	1360.32
499.52	1357.74
499.88	1342.30
500.24	1335.74
500.60	1327.32
500.96	1327.32
501.32	1312.34
501.68	1301.10
502.03	1291.98
502.39	1285.89
502.75	1261.08
503.11	1251.95
503.47	1255.46
503.83	1250.55
504.19	1252.19
504.55	1253.59
504.91	1256.40
505.26	1255.46
505.62	1248.21
505.98	1232.99
506.34	1229.72
506.70	1224.10
507.06	1221.06
507.42	1211.46
507.78	1217.55
508.13	1210.06
508.49	1196.48
508.85	1190.86
509.21	1197.65
509.57	1200.46
509.93	1199.76
510.28	1205.84
510.64	1210.29
511.00	1204.91
511.36	1200.23
511.72	1212.40
512.07	1212.16
512.43	1195.55
512.79	1188.76
513.15	1185.01
513.51	1166.29
513.86	1168.16
514.22	1172.84
514.58	1172.84
514.94	1165.12
515.30	1173.31
515.65	1166.05
516.01	1163.25
516.37	1164.88
516.73	1164.65
517.08	1163.48
517.44	1166.05
517.80	1162.08
518.16	1155.76
518.51	1159.27
518.87	1149.20
519.23	1145.46
519.59	1146.86
519.94	1149.91
520.30	1142.88
520.66	1139.37
521.01	1123.93
521.37	1126.03
521.73	1127.67
522.09	1127.90
522.44	1135.63
522.80	1141.95
523.16	1140.31
523.51	1134.22
523.87	1123.46
524.23	1117.37
524.58	1122.05
524.94	1125.10
525.30	1121.82
525.65	1127.67
526.01	1130.71
526.37	1130.01
526.72	1124.16
527.08	1123.93
527.44	1123.93
527.79	1129.31
528.15	1130.71
528.51	1120.88
528.86	1108.95
529.22	1105.44
529.58	1108.01
529.93	1113.86
530.29	1125.56
530.65	1138.44
531.00	1131.65
531.36	1124.39
531.71	1118.31
532.07	1118.78
532.43	1116.67
532.78	1131.41
533.14	1129.31
533.49	1129.07
533.85	1129.31
534.21	1136.33
534.56	1127.44
534.92	1119.24
535.27	1106.84
535.63	1097.01
535.98	1084.37
536.34	1087.18
536.69	1089.52
537.05	1098.41
537.41	1112.46
537.76	1124.86
538.12	1128.37
538.47	1129.31
538.83	1133.05
539.18	1118.31
539.54	1116.90
539.89	1104.50
540.25	1100.99
540.60	1099.82
540.96	1104.97
541.31	1104.50
541.67	1126.27
542.02	1135.63
542.38	1129.78
542.73	1123.93
543.09	1120.18
543.44	1113.86
543.80	1113.16
544.15	1119.48
544.51	1117.61
544.86	1108.48
545.22	1104.73
545.57	1100.75
545.93	1097.71
546.28	1095.84
546.64	1106.14
546.99	1104.73
547.35	1096.31
547.70	1089.99
548.05	1102.86
548.41	1098.18
548.76	1092.80
549.12	1099.12
549.47	1099.35
549.83	1096.31
550.18	1100.75
550.53	1103.33
550.89	1103.56
551.24	1106.61
551.60	1102.16
551.95	1104.50
552.30	1108.71
552.66	1115.73
553.01	1117.37
553.37	1112.69
553.72	1106.61
554.07	1095.84
554.43	1089.99
554.78	1095.14
555.13	1095.37
555.49	1100.05
555.84	1103.09
556.19	1106.14
556.55	1101.92
556.90	1105.20
557.26	1104.73
557.61	1112.92
557.96	1111.29
558.32	1105.90
558.67	1108.24
559.02	1108.24
559.37	1108.95
559.73	1123.22
560.08	1133.76
560.43	1134.22
560.79	1123.46
561.14	1111.99
561.49	1089.52
561.85	1082.50
562.20	1082.73
562.55	1091.39
562.90	1098.41
563.26	1104.50
563.61	1107.31
563.96	1099.82
564.32	1111.99
564.67	1108.71
565.02	1101.22
565.37	1098.88
565.73	1100.75
566.08	1092.56
566.43	1093.97
566.78	1097.71
567.14	1089.99
567.49	1087.18
567.84	1081.09
568.19	1080.63
568.54	1071.03
568.90	1078.75
569.25	1089.05
569.60	1091.16
569.95	1086.94
570.31	1104.26
570.66	1103.33
571.01	1096.78
571.36	1093.03
571.71	1100.99
572.06	1094.43
572.42	1089.29
572.77	1092.80
573.12	1096.78
573.47	1084.37
573.82	1087.65
574.18	1086.71
574.53	1080.63
574.88	1071.50
575.23	1084.60
575.58	1083.90
575.93	1081.80
576.28	1093.26
576.64	1097.01
576.99	1094.90
577.34	1100.29
577.69	1105.90
578.04	1103.56
578.39	1107.07
578.74	1111.99
579.09	1105.90
579.44	1099.82
579.80	1094.20
580.15	1086.71
580.50	1083.43
580.85	1090.69
581.20	1098.65
581.55	1092.09
581.90	1105.44
582.25	1099.35
582.60	1092.80
582.95	1096.78
583.30	1104.26
583.65	1098.41
584.00	1113.16
584.35	1109.65
584.71	1111.75
585.06	1115.27
585.41	1115.27
585.76	1097.24
586.11	1097.24
586.46	1090.46
586.81	1086.94
587.16	1076.65
587.51	1086.94
587.86	1090.22
588.21	1089.29
588.56	1090.69
588.91	1104.26
589.26	1094.43
589.61	1099.12
589.96	1099.12
590.31	1100.29
590.66	1096.31
591.01	1097.95
591.36	1089.99
591.71	1080.86
592.06	1069.62
592.41	1069.39
592.76	1068.45
593.10	1068.92
593.45	1077.82
593.80	1086.24
594.15	1083.90
594.50	1095.84
594.85	1098.88
595.20	1103.56
595.55	1103.09
595.90	1105.20
596.25	1096.31
596.60	1096.31
596.95	1092.09
597.30	1092.33
597.64	1137.03
597.99	1145.46
598.34	1146.63
598.69	1144.05
599.04	1141.25
599.39	1079.69
599.74	1072.20
600.09	1073.84
600.44	1078.75
600.78	1084.37
601.13	1095.37
601.48	1097.95
601.83	1087.65
602.18	1086.24
602.53	1086.01
602.88	1088.58
603.22	1078.99
603.57	1086.48
603.92	1086.94
604.27	1084.14
604.62	1090.69
604.97	1098.88
605.31	1098.18
605.66	1089.75
606.01	1093.73
606.36	1094.20
606.71	1093.73
607.05	1093.26
607.40	1103.56
607.75	1102.16
608.10	1101.92
608.44	1097.24
608.79	1093.50
609.14	1084.60
609.49	1078.75
609.84	1075.71
610.18	1085.77
610.53	1088.12
610.88	1091.63
611.23	1097.48
611.57	1103.80
611.92	1098.88
612.27	1104.50
612.62	1104.03
612.96	1101.69
613.31	1087.88
613.66	1093.03
614.00	1089.29
614.35	1097.71
614.70	1100.75
615.05	1099.58
615.39	1100.75
615.74	1108.01
616.09	1107.78
616.43	1101.92
616.78	1108.71
617.13	1104.73
617.47	1100.99
617.82	1097.71
618.17	1101.92
618.51	1105.44
618.86	1097.48
619.21	1091.16
619.55	1095.14
619.90	1098.18
620.25	1093.50
620.59	1095.37
620.94	1089.99
621.29	1074.07
621.63	1073.84
621.98	1072.90
622.32	1078.75
622.67	1080.16
623.02	1095.14
623.36	1092.33
623.71	1094.90
624.05	1089.75
624.40	1100.75
624.75	1092.80
625.09	1091.86
625.44	1089.99
625.78	1094.20
626.13	1093.73
626.48	1091.39
626.82	1090.92
627.17	1083.67
627.51	1085.31
627.86	1079.22
628.20	1085.54
628.55	1086.24
628.89	1104.50
629.24	1098.65
629.58	1099.58
629.93	1097.01
630.28	1085.77
630.62	1081.56
630.97	1075.94
631.31	1070.56
631.66	1075.48
632.00	1082.97
632.35	1086.24
632.69	1096.54
633.04	1107.31
633.38	1097.71
633.73	1097.01
634.07	1085.54
634.42	1082.03
634.76	1073.84
635.11	1079.92
635.45	1076.88
635.79	1089.75
636.14	1098.41
636.48	1093.03
636.83	1091.86
637.17	1098.65
637.52	1086.71
637.86	1078.75
638.21	1084.60
638.55	1083.43
638.89	1085.77
639.24	1083.20
639.58	1083.90
639.93	1090.92
640.27	1095.37
640.61	1102.39
640.96	1102.86
641.30	1104.26
641.65	1095.60
641.99	1093.50
642.33	1086.48
642.68	1086.48
643.02	1085.07
643.37	1089.29
643.71	1092.33
644.05	1089.29
644.40	1094.43
644.74	1092.33
645.08	1085.31
645.43	1081.56
645.77	1080.86
646.11	1077.11
646.46	1071.97
646.80	1072.67
647.14	1080.63
647.49	1075.94
647.83	1076.65
648.17	1078.28
648.52	1084.60
648.86	1077.58
649.20	1079.46
649.55	1075.01
649.89	1081.80
650.23	1076.41
650.57	1068.92
650.92	1078.52
651.26	1088.12
651.60	1084.60
651.95	1092.33
652.29	1096.54
652.63	1086.94
652.97	1065.65
653.32	1059.56
653.66	1054.41
654.00	1042.47
654.34	1046.22
654.69	1059.79
655.03	1068.69
655.37	1061.43
655.71	1068.92
656.05	1068.69
656.40	1071.50
656.74	1076.88
657.08	1091.16
657.42	1098.88
657.76	1102.63
658.11	1104.26
658.45	1099.12
658.79	1092.33
659.13	1086.71
659.47	1082.26
659.82	1081.80
660.16	1080.39
660.50	1073.14
660.84	1073.84
661.18	1078.75
661.52	1078.05
661.87	1085.77
662.21	1095.14
662.55	1093.50
662.89	1091.86
663.23	1095.60
663.57	1082.03
663.91	1091.63
664.25	1096.78
664.60	1092.09
664.94	1093.26
665.28	1106.14
665.62	1093.97
665.96	1083.90
666.30	1088.82
666.64	1088.58
666.98	1075.71
667.32	1067.99
667.66	1079.22
668.01	1076.65
668.35	1067.52
668.69	1076.88
669.03	1089.52
669.37	1087.41
669.71	1086.94
670.05	1081.09
670.39	1078.75
670.73	1069.62
671.07	1075.71
671.41	1076.65
671.75	1083.67
672.09	1086.48
672.43	1093.73
672.77	1079.46
673.11	1070.80
673.45	1072.20
673.79	1071.03
674.13	1075.94
674.47	1078.28
674.81	1092.80
675.15	1103.09
675.49	1097.71
675.83	1096.07
676.17	1095.14
676.51	1086.48
676.85	1082.50
677.19	1089.05
677.53	1087.18
677.87	1097.01
678.21	1101.69
678.55	1098.65
678.89	1090.22
679.23	1084.37
679.57	1082.50
679.90	1086.71
680.24	1084.37
680.58	1079.22
680.92	1081.56
681.26	1082.97
681.60	1081.33
681.94	1079.69
682.28	1087.65
682.62	1090.46
682.96	1097.95
683.29	1099.35
683.63	1103.56
683.97	1101.22
684.31	1090.92
684.65	1080.63
684.99	1076.88
685.33	1074.07
685.67	1079.46
686.00	1081.80
686.34	1093.26
686.68	1089.99
687.02	1071.97
687.36	1065.65
687.70	1078.75
688.03	1059.79
688.37	1061.20
688.71	1084.14
689.05	1091.86
689.39	1084.60
689.72	1088.12
690.06	1087.65
690.40	1083.20
690.74	1077.11
691.08	1072.67
691.41	1077.35
691.75	1074.54
692.09	1070.09
692.43	1071.73
692.76	1068.92
693.10	1074.31
693.44	1084.37
693.78	1087.41
694.11	1084.60
694.45	1087.41
694.79	1074.07
695.13	1069.16
695.46	1076.18
695.80	1080.86
696.14	1088.35
696.48	1100.99
696.81	1096.07
697.15	1084.37
697.49	1086.71
697.82	1086.24
698.16	1084.84
698.50	1085.54
698.83	1089.29
699.17	1092.56
699.51	1094.43
699.84	1086.24
700.18	1084.84
700.52	1079.22
700.85	1067.52
701.19	1071.26
701.53	1078.28
701.86	1078.28
702.20	1084.14
702.54	1094.90
702.87	1080.63
703.21	1076.18
703.55	1072.67
703.88	1070.33
704.22	1058.16
704.55	1060.26
704.89	1058.62
705.23	1062.14
705.56	1071.73
705.90	1074.54
706.23	1080.16
706.57	1082.03
706.91	1085.77
707.24	1083.20
707.58	1091.86
707.91	1087.41
708.25	1098.88
708.58	1100.05
708.92	1098.65
709.26	1095.60
709.59	1101.46
709.93	1083.20
710.26	1080.63
710.60	1074.54
710.93	1068.22
711.27	1064.94
711.60	1065.65
711.94	1064.24
712.27	1066.82
712.61	1058.16
712.94	1060.03
713.28	1061.20
713.61	1061.90
713.95	1065.18
714.28	1073.60
714.62	1079.46
714.95	1082.03
715.29	1080.63
715.62	1077.11
715.96	1088.12
716.29	1081.80
716.63	1084.37
716.96	1088.58
717.29	1091.16
717.63	1079.22
717.96	1081.80
718.30	1075.48
718.63	1068.92
718.97	1068.22
719.30	1068.69
719.63	1069.62
719.97	1071.97
720.30	1081.09
720.64	1082.26
720.97	1085.77
721.30	1087.18
721.64	1090.69
721.97	1075.71
722.31	1069.86
722.64	1075.01
722.97	1073.14
723.31	1077.58
723.64	1089.75
723.97	1100.05
724.31	1091.39
724.64	1085.77
724.98	1094.90
725.31	1097.71
725.64	1104.26
725.98	1111.05
726.31	1118.78
726.64	1104.26
726.97	1102.86
727.31	1095.60
727.64	1093.03
727.97	1089.29
728.31	1091.16
728.64	1092.33
728.97	1094.20
729.31	1094.43
729.64	1089.75
729.97	1088.35
730.30	1086.01
730.64	1072.20
730.97	1064.71
731.30	1063.77
731.63	1066.35
731.97	1073.84
732.30	1077.58
732.63	1078.05
732.96	1074.54
733.30	1075.94
733.63	1071.97
733.96	1078.75
734.29	1080.16
734.63	1085.54
734.96	1086.94
735.29	1079.69
735.62	1079.69
735.95	1098.88
736.29	1100.52
736.62	1099.82
736.95	1108.95
737.28	1104.03
737.61	1098.65
737.94	1098.65
738.28	1092.56
738.61	1086.24
738.94	1083.90
739.27	1073.84
739.60	1072.20
739.93	1078.99
740.27	1084.60
740.60	1088.82
740.93	1093.97
741.26	1098.65
741.59	1089.75
741.92	1085.54
742.25	1088.35
742.58	1080.86
742.91	1074.54
743.25	1078.52
743.58	1075.48
743.91	1064.94
744.24	1064.94
744.57	1059.56
744.90	1062.14
745.23	1061.43
745.56	1072.67
745.89	1078.52
746.22	1082.73
746.55	1077.35
746.88	1078.75
747.21	1081.09
747.54	1089.52
747.87	1097.01
748.20	1108.71
748.53	1107.78
748.87	1100.99
749.20	1097.01
749.53	1098.65
749.86	1090.22
750.19	1094.43
750.52	1096.31
750.85	1095.14
751.18	1089.29
751.51	1087.88
751.84	1087.65
752.16	1082.73
752.49	1078.05
752.82	1084.14
753.15	1090.22
753.48	1084.84
753.81	1088.58
754.14	1078.05
754.47	1072.20
754.80	1067.05
755.13	1067.75
755.46	1071.50
755.79	1084.14
756.12	1084.60
756.45	1082.50
756.78	1073.84
757.11	1066.35
757.43	1059.56
757.76	1051.13
758.09	1060.73
758.42	1071.26
758.75	1071.73
759.08	1070.33
759.41	1072.20
759.74	1062.84
760.07	1064.71
760.39	1072.43
760.72	1081.09
761.05	1080.86
761.38	1087.18
761.71	1086.94
762.04	1079.22
762.36	1082.26
762.69	1092.09
763.02	1089.99
763.35	1079.69
763.68	1085.54
764.01	1085.31
764.33	1082.50
764.66	1084.14
