SpectraSuite Data File
++++++++++++++++++++++++++++++++++++
Date: Mon Aug 26 10:24:54 PDT 2019
User: corrico
Dark Spectrum Present: No
Reference Spectrum Present: No
Number of Sampled Component Spectra: 1
Spectrometers: USB2+H06089
Integration Time (usec): 10000 (USB2+H06089)
Spectra Averaged: 2 (USB2+H06089)
Boxcar Smoothing: 2 (USB2+H06089)
Correct for Electrical Dark: No (USB2+H06089)
Strobe/Lamp Enabled: No (USB2+H06089)
Correct for Detector Non-linearity: No (USB2+H06089)
Correct for Stray Light: No (USB2+H06089)
Number of Pixels in Processed Spectrum: 2048
>>>>>Begin Processed Spectral Data<<<<<
339.70	1034.52
340.07	1034.52
340.45	987.24
340.82	965.24
341.19	944.41
341.57	916.09
341.94	908.36
342.31	913.28
342.69	903.21
343.06	896.66
343.43	892.91
343.81	889.17
344.18	894.32
344.55	901.81
344.93	901.57
345.30	909.06
345.67	920.77
346.04	911.17
346.42	922.64
346.79	925.68
347.16	937.15
347.54	939.96
347.91	966.64
348.28	970.62
348.65	991.68
349.03	1000.58
349.40	1023.98
349.77	1025.15
350.14	1034.28
350.52	1049.73
350.89	1055.11
351.26	1053.01
351.63	1067.05
352.01	1077.58
352.38	1072.20
352.75	1079.22
353.12	1090.46
353.50	1084.84
353.87	1086.71
354.24	1095.14
354.61	1098.88
354.98	1097.71
355.36	1104.03
355.73	1103.80
356.10	1102.16
356.47	1104.50
356.84	1099.82
357.22	1094.67
357.59	1094.90
357.96	1099.12
358.33	1107.78
358.70	1110.35
359.08	1104.97
359.45	1099.12
359.82	1098.65
360.19	1091.16
360.56	1088.58
360.94	1096.07
361.31	1099.58
361.68	1086.48
362.05	1082.73
362.42	1081.80
362.79	1086.24
363.16	1085.31
363.54	1093.97
363.91	1089.75
364.28	1088.35
364.65	1076.41
365.02	1079.46
365.39	1075.48
365.76	1081.56
366.14	1072.20
366.51	1080.16
366.88	1076.65
367.25	1069.16
367.62	1057.92
367.99	1065.18
368.36	1066.35
368.73	1065.88
369.10	1065.88
369.48	1078.05
369.85	1073.14
370.22	1069.39
370.59	1071.03
370.96	1080.86
371.33	1080.63
371.70	1086.01
372.07	1086.24
372.44	1087.65
372.81	1084.84
373.18	1085.31
373.55	1081.09
373.93	1079.69
374.30	1077.35
374.67	1080.39
375.04	1084.14
375.41	1088.35
375.78	1095.84
376.15	1094.90
376.52	1098.41
376.89	1100.05
377.26	1105.44
377.63	1103.80
378.00	1110.58
378.37	1106.37
378.74	1092.80
379.11	1084.60
379.48	1080.16
379.85	1072.43
380.22	1071.26
380.59	1078.05
380.96	1084.84
381.33	1080.63
381.70	1086.48
382.07	1083.67
382.44	1078.05
382.81	1077.11
383.18	1085.54
383.55	1084.84
383.92	1092.80
384.29	1096.54
384.66	1092.33
385.03	1095.60
385.40	1099.58
385.77	1102.63
386.14	1104.73
386.51	1109.18
386.88	1100.05
387.25	1094.43
387.62	1093.03
387.99	1092.33
388.36	1093.73
388.73	1106.37
389.10	1104.97
389.46	1103.33
389.83	1101.22
390.20	1098.41
390.57	1094.67
390.94	1093.73
391.31	1092.56
391.68	1100.05
392.05	1110.12
392.42	1109.88
392.79	1118.07
393.16	1130.48
393.53	1126.50
393.89	1126.73
394.26	1134.46
394.63	1140.31
395.00	1122.29
395.37	1122.99
395.74	1119.48
396.11	1111.29
396.48	1108.95
396.84	1122.75
397.21	1115.27
397.58	1114.56
397.95	1115.73
398.32	1112.69
398.69	1108.01
399.06	1111.52
399.42	1108.01
399.79	1118.54
400.16	1125.80
400.53	1133.76
400.90	1145.22
401.27	1159.27
401.64	1156.22
402.00	1156.93
402.37	1167.23
402.74	1172.61
403.11	1174.25
403.48	1184.78
403.84	1192.50
404.21	1188.76
404.58	1188.29
404.95	1199.29
405.32	1209.35
405.68	1212.40
406.05	1215.91
406.42	1231.82
406.79	1240.72
407.16	1242.59
407.52	1257.10
407.89	1284.02
408.26	1296.89
408.63	1316.79
408.99	1342.30
409.36	1370.38
409.73	1379.51
410.10	1406.19
410.47	1418.60
410.83	1445.98
411.20	1474.54
411.57	1515.96
411.94	1560.90
412.30	1623.63
412.67	1652.42
413.04	1686.36
413.40	1734.10
413.77	1772.96
414.14	1812.04
414.51	1883.66
414.87	1940.30
415.24	1989.22
415.61	2061.54
415.97	2127.08
416.34	2184.89
416.71	2271.96
417.08	2382.20
417.44	2473.24
417.81	2583.48
418.18	2700.98
418.54	2817.54
418.91	2919.35
419.28	3040.59
419.64	3159.49
420.01	3302.50
420.38	3428.88
420.74	3586.87
421.11	3775.05
421.48	3949.65
421.84	4119.58
422.21	4317.82
422.58	4529.40
422.94	4751.76
423.31	4963.34
423.68	5209.56
424.04	5466.09
424.41	5729.63
424.77	5977.03
425.14	6267.95
425.51	6557.95
425.87	6900.37
426.24	7182.40
426.61	7510.08
426.97	7941.67
427.34	8331.60
427.70	8743.07
428.07	9204.39
428.44	9655.88
428.80	10046.98
429.17	10540.37
429.53	10979.45
429.90	11581.20
430.27	12049.08
430.63	12568.44
431.00	13127.60
431.36	13747.37
431.73	14213.37
432.09	14834.32
432.46	15472.81
432.83	16001.54
433.19	16514.12
433.56	17093.63
433.92	17693.75
434.29	18192.75
434.65	18800.59
435.02	19315.97
435.38	19884.72
435.75	20326.15
436.11	20925.33
436.48	21396.71
436.84	21972.25
437.21	22423.50
437.57	22823.50
437.94	23140.88
438.30	23450.53
438.67	23597.05
439.03	23743.33
439.40	23859.42
439.76	23786.86
440.13	23652.52
440.49	23600.09
440.86	23288.56
441.22	23051.94
441.59	22734.09
441.95	22443.63
442.32	21962.65
442.68	21658.15
443.05	21229.83
443.41	20817.89
443.78	20275.59
444.14	19803.04
444.51	19215.56
444.87	18814.86
445.24	18389.36
445.60	18012.06
445.96	17545.83
446.33	17150.98
446.69	16603.53
447.06	16129.80
447.42	15639.23
447.79	15213.72
448.15	14852.34
448.51	14489.32
448.88	14158.84
449.24	13800.03
449.61	13561.06
449.97	13227.07
450.33	12889.10
450.70	12459.84
451.06	12136.85
451.43	11716.02
451.79	11387.41
452.15	11072.37
452.52	10883.02
452.88	10644.05
453.24	10432.47
453.61	10192.33
453.97	9973.96
454.34	9697.31
454.70	9467.70
455.06	9216.56
455.43	8917.68
455.79	8603.11
456.15	8327.63
456.52	8036.46
456.88	7812.47
457.24	7599.95
457.61	7431.20
457.97	7241.15
458.33	7035.42
458.70	6816.58
459.06	6595.86
459.42	6405.11
459.79	6187.44
460.15	6011.67
460.51	5803.83
460.88	5633.44
461.24	5450.17
461.60	5303.89
461.96	5164.86
462.33	5034.02
462.69	4902.95
463.05	4777.74
463.42	4656.96
463.78	4504.13
464.14	4400.68
464.50	4315.01
464.87	4211.33
465.23	4118.87
465.59	4035.32
465.95	3940.06
466.32	3840.12
466.68	3747.43
467.04	3654.75
467.40	3577.74
467.77	3509.17
468.13	3441.29
468.49	3394.71
468.85	3343.92
469.22	3299.92
469.58	3239.54
469.94	3181.96
470.30	3110.34
470.66	3057.44
471.03	3004.31
471.39	2955.86
471.75	2895.71
472.11	2834.39
472.47	2776.58
472.84	2725.79
473.20	2667.04
473.56	2628.19
473.92	2577.63
474.28	2533.86
474.65	2493.37
475.01	2467.39
475.37	2425.26
475.73	2403.73
476.09	2375.18
476.45	2347.56
476.81	2310.58
477.18	2282.26
477.54	2260.72
477.90	2246.91
478.26	2209.93
478.62	2189.57
478.98	2165.23
479.34	2144.63
479.71	2106.48
480.07	2089.86
480.43	2059.44
480.79	2037.44
481.15	2005.37
481.51	1981.97
481.87	1946.86
482.23	1923.92
482.59	1907.07
482.96	1891.39
483.32	1875.24
483.68	1863.77
484.04	1859.09
484.40	1835.92
484.76	1810.40
485.12	1791.45
485.48	1774.36
485.84	1753.76
486.20	1733.63
486.56	1725.91
486.92	1709.53
487.28	1694.78
487.64	1665.76
488.00	1651.95
488.37	1632.06
488.73	1608.42
489.09	1596.95
489.45	1585.01
489.81	1581.03
490.17	1581.50
490.53	1579.16
490.89	1559.26
491.25	1547.09
491.61	1530.24
491.97	1513.39
492.33	1506.60
492.69	1502.62
493.05	1490.22
493.41	1479.22
493.77	1461.66
494.13	1438.03
494.49	1426.56
494.85	1414.62
495.21	1398.24
495.57	1389.34
495.93	1384.89
496.29	1377.41
496.64	1372.49
497.00	1374.60
497.36	1366.17
497.72	1354.00
498.08	1331.53
498.44	1327.32
498.80	1327.08
499.16	1320.53
499.52	1329.19
499.88	1330.36
500.24	1323.57
500.60	1301.34
500.96	1291.51
501.32	1280.74
501.68	1272.08
502.03	1272.08
502.39	1283.55
502.75	1282.85
503.11	1265.53
503.47	1258.04
503.83	1246.10
504.19	1232.06
504.55	1221.76
504.91	1222.93
505.26	1229.48
505.62	1226.21
505.98	1231.59
506.34	1231.12
506.70	1226.21
507.06	1216.84
507.42	1214.74
507.78	1211.70
508.13	1206.31
508.49	1192.74
508.85	1196.95
509.21	1195.78
509.57	1189.23
509.93	1197.89
510.28	1209.35
510.64	1209.82
511.00	1208.18
511.36	1195.31
511.72	1192.27
512.07	1185.72
512.43	1175.65
512.79	1166.52
513.15	1164.42
513.51	1160.91
513.86	1170.74
514.22	1167.93
514.58	1167.23
514.94	1160.67
515.30	1150.84
515.65	1142.65
516.01	1148.73
516.37	1150.84
516.73	1154.12
517.08	1160.67
517.44	1156.69
517.80	1146.63
518.16	1147.10
518.51	1152.25
518.87	1145.22
519.23	1145.22
519.59	1148.03
519.94	1151.78
520.30	1150.61
520.66	1152.71
521.01	1152.48
521.37	1158.80
521.73	1155.05
522.09	1141.48
522.44	1138.67
522.80	1147.80
523.16	1143.35
523.51	1128.61
523.87	1139.84
524.23	1135.39
524.58	1116.67
524.94	1111.52
525.30	1118.78
525.65	1111.75
526.01	1102.39
526.37	1108.95
526.72	1109.88
527.08	1112.92
527.44	1123.46
527.79	1134.46
528.15	1139.37
528.51	1141.48
528.86	1138.90
529.22	1126.03
529.58	1122.75
529.93	1113.63
530.29	1107.78
530.65	1106.61
531.00	1105.67
531.36	1112.22
531.71	1119.01
532.07	1115.73
532.43	1119.71
532.78	1119.71
533.14	1114.33
533.49	1110.12
533.85	1116.44
534.21	1112.46
534.56	1125.56
534.92	1128.84
535.27	1129.54
535.63	1131.41
535.98	1131.65
536.34	1125.56
536.69	1118.07
537.05	1105.67
537.41	1097.24
537.76	1097.48
538.12	1093.73
538.47	1094.20
538.83	1101.92
539.18	1104.50
539.54	1097.01
539.89	1095.14
540.25	1096.07
540.60	1088.35
540.96	1078.99
541.31	1087.88
541.67	1092.09
542.02	1097.71
542.38	1116.67
542.73	1132.82
543.09	1122.05
543.44	1120.88
543.80	1112.22
544.15	1104.50
544.51	1105.67
544.86	1110.35
545.22	1107.07
545.57	1109.65
545.93	1107.78
546.28	1097.24
546.64	1100.52
546.99	1100.29
547.35	1112.69
547.70	1113.39
548.05	1117.61
548.41	1122.99
548.76	1122.29
549.12	1101.92
549.47	1098.88
549.83	1097.71
550.18	1089.99
550.53	1086.01
550.89	1097.01
551.24	1095.60
551.60	1093.26
551.95	1088.58
552.30	1086.71
552.66	1093.26
553.01	1089.05
553.37	1090.69
553.72	1101.92
554.07	1109.41
554.43	1095.84
554.78	1104.73
555.13	1105.20
555.49	1098.65
555.84	1099.82
556.19	1103.56
556.55	1103.33
556.90	1102.63
557.26	1107.54
557.61	1109.88
557.96	1114.80
558.32	1124.39
558.67	1126.27
559.02	1119.01
559.37	1109.41
559.73	1099.35
560.08	1088.58
560.43	1082.73
560.79	1093.03
561.14	1102.16
561.49	1108.01
561.85	1112.69
562.20	1111.52
562.55	1105.67
562.90	1100.75
563.26	1099.35
563.61	1099.35
563.96	1098.18
564.32	1089.99
564.67	1078.75
565.02	1082.03
565.37	1083.20
565.73	1089.75
566.08	1092.09
566.43	1111.75
566.78	1117.84
567.14	1110.35
567.49	1111.05
567.84	1120.65
568.19	1112.92
568.54	1112.69
568.90	1104.50
569.25	1103.80
569.60	1094.67
569.95	1092.56
570.31	1089.75
570.66	1095.37
571.01	1100.99
571.36	1102.86
571.71	1110.35
572.06	1102.16
572.42	1108.48
572.77	1100.05
573.12	1108.24
573.47	1103.56
573.82	1108.48
574.18	1104.73
574.53	1104.73
574.88	1102.63
575.23	1104.50
575.58	1097.71
575.93	1097.71
576.28	1094.20
576.64	1088.58
576.99	1087.41
577.34	1090.22
577.69	1092.56
578.04	1100.75
578.39	1106.37
578.74	1110.82
579.09	1115.27
579.44	1117.14
579.80	1111.29
580.15	1109.41
580.50	1100.05
580.85	1091.86
581.20	1088.82
581.55	1087.88
581.90	1077.11
582.25	1079.46
582.60	1079.92
582.95	1075.71
583.30	1081.33
583.65	1090.46
584.00	1093.26
584.35	1095.37
584.71	1104.03
585.06	1098.65
585.41	1100.52
585.76	1085.54
586.11	1089.29
586.46	1089.29
586.81	1093.03
587.16	1087.18
587.51	1102.86
587.86	1104.50
588.21	1093.26
588.56	1092.33
588.91	1085.54
589.26	1084.14
589.61	1087.88
589.96	1099.12
590.31	1114.33
590.66	1121.82
591.01	1119.71
591.36	1117.14
591.71	1117.84
592.06	1103.09
592.41	1099.82
592.76	1098.88
593.10	1097.01
593.45	1094.67
593.80	1090.69
594.15	1099.82
594.50	1095.60
594.85	1089.52
595.20	1081.33
595.55	1078.05
595.90	1078.75
596.25	1078.75
596.60	1087.18
596.95	1091.16
597.30	1082.26
597.64	1113.63
597.99	1121.82
598.34	1113.16
598.69	1101.22
599.04	1117.61
599.39	1071.97
599.74	1066.58
600.09	1066.58
600.44	1071.03
600.78	1075.94
601.13	1076.18
601.48	1079.46
601.83	1079.22
602.18	1084.14
602.53	1077.82
602.88	1090.22
603.22	1086.24
603.57	1089.99
603.92	1100.52
604.27	1105.90
604.62	1103.33
604.97	1110.35
605.31	1101.46
605.66	1088.58
606.01	1090.22
606.36	1097.95
606.71	1091.39
607.05	1105.44
607.40	1116.44
607.75	1114.10
608.10	1107.31
608.44	1113.63
608.79	1103.33
609.14	1100.99
609.49	1098.88
609.84	1101.92
610.18	1096.31
610.53	1107.07
610.88	1113.16
611.23	1107.31
611.57	1110.82
611.92	1111.52
612.27	1109.18
612.62	1101.92
612.96	1106.14
613.31	1094.20
613.66	1090.92
614.00	1092.80
614.35	1084.84
614.70	1081.56
615.05	1084.60
615.39	1086.01
615.74	1081.56
616.09	1082.73
616.43	1082.50
616.78	1077.35
617.13	1084.37
617.47	1085.31
617.82	1088.35
618.17	1090.69
618.51	1088.82
618.86	1093.73
619.21	1094.43
619.55	1094.67
619.90	1091.86
620.25	1102.16
620.59	1093.03
620.94	1098.88
621.29	1099.12
621.63	1103.33
621.98	1103.56
622.32	1106.37
622.67	1096.54
623.02	1093.50
623.36	1093.26
623.71	1090.92
624.05	1089.99
624.40	1086.48
624.75	1093.97
625.09	1089.99
625.44	1086.48
625.78	1084.60
626.13	1084.60
626.48	1077.11
626.82	1080.86
627.17	1077.11
627.51	1076.65
627.86	1088.58
628.20	1093.50
628.55	1087.18
628.89	1086.24
629.24	1089.75
629.58	1089.29
629.93	1084.84
630.28	1085.31
630.62	1093.03
630.97	1094.20
631.31	1093.97
631.66	1097.95
632.00	1104.50
632.35	1103.33
632.69	1102.16
633.04	1104.26
633.38	1110.58
633.73	1111.52
634.07	1106.37
634.42	1106.84
634.76	1099.58
635.11	1096.54
635.45	1089.29
635.79	1084.84
636.14	1086.94
636.48	1078.75
636.83	1078.99
637.17	1082.73
637.52	1095.84
637.86	1078.99
638.21	1082.03
638.55	1085.54
638.89	1093.26
639.24	1090.69
639.58	1093.97
639.93	1096.78
640.27	1090.69
640.61	1075.94
640.96	1076.18
641.30	1081.80
641.65	1073.60
641.99	1075.24
642.33	1077.11
642.68	1075.24
643.02	1080.63
643.37	1088.58
643.71	1083.67
644.05	1090.46
644.40	1088.35
644.74	1092.80
645.08	1088.82
645.43	1093.73
645.77	1098.88
646.11	1100.99
646.46	1094.43
646.80	1100.52
647.14	1088.12
647.49	1079.92
647.83	1086.94
648.17	1088.35
648.52	1083.90
648.86	1090.22
649.20	1089.29
649.55	1087.65
649.89	1088.35
650.23	1086.01
650.57	1086.01
650.92	1095.37
651.26	1094.90
651.60	1088.35
651.95	1097.48
652.29	1096.31
652.63	1090.22
652.97	1086.71
653.32	1076.65
653.66	1072.67
654.00	1072.20
654.34	1069.16
654.69	1053.94
655.03	1063.54
655.37	1063.07
655.71	1076.65
656.05	1080.16
656.40	1094.43
656.74	1090.46
657.08	1089.52
657.42	1076.41
657.76	1069.86
658.11	1058.39
658.45	1068.69
658.79	1069.39
659.13	1070.33
659.47	1079.22
659.82	1084.14
660.16	1078.99
660.50	1074.77
660.84	1076.65
661.18	1070.09
661.52	1069.86
661.87	1076.18
662.21	1077.82
662.55	1081.80
662.89	1084.14
663.23	1090.46
663.57	1071.73
663.91	1072.90
664.25	1069.16
664.60	1063.31
664.94	1063.07
665.28	1080.63
665.62	1075.01
665.96	1062.60
666.30	1065.41
666.64	1073.14
666.98	1072.90
667.32	1087.18
667.66	1105.67
668.01	1113.16
668.35	1110.82
668.69	1112.46
669.03	1101.46
669.37	1094.67
669.71	1097.71
670.05	1089.29
670.39	1083.90
670.73	1075.48
671.07	1072.43
671.41	1066.35
671.75	1069.16
672.09	1068.92
672.43	1078.99
672.77	1081.33
673.11	1083.90
673.45	1080.63
673.79	1085.31
674.13	1093.97
674.47	1100.05
674.81	1093.03
675.15	1100.52
675.49	1094.67
675.83	1090.69
676.17	1080.16
676.51	1083.90
676.85	1075.24
677.19	1083.20
677.53	1067.28
677.87	1076.18
678.21	1078.05
678.55	1090.46
678.89	1088.58
679.23	1098.41
679.57	1104.26
679.90	1101.92
680.24	1090.46
680.58	1079.69
680.92	1086.71
681.26	1073.14
681.60	1070.80
681.94	1069.86
682.28	1079.46
682.62	1074.07
682.96	1080.86
683.29	1079.92
683.63	1080.63
683.97	1074.77
684.31	1076.88
684.65	1077.58
684.99	1078.28
685.33	1078.52
685.67	1085.07
686.00	1087.65
686.34	1079.46
686.68	1078.99
687.02	1080.63
687.36	1074.07
687.70	1072.43
688.03	1072.90
688.37	1077.58
688.71	1087.88
689.05	1090.92
689.39	1094.67
689.72	1103.56
690.06	1097.48
690.40	1084.14
690.74	1086.94
691.08	1080.86
691.41	1078.05
691.75	1084.37
692.09	1088.58
692.43	1098.65
692.76	1098.65
693.10	1097.95
693.44	1101.69
693.78	1094.20
694.11	1089.29
694.45	1088.82
694.79	1092.09
695.13	1086.01
695.46	1093.73
695.80	1083.90
696.14	1089.29
696.48	1088.35
696.81	1087.88
697.15	1087.65
697.49	1086.71
697.82	1085.31
698.16	1082.73
698.50	1078.99
698.83	1078.05
699.17	1086.01
699.51	1084.60
699.84	1086.94
700.18	1096.31
700.52	1104.26
700.85	1098.88
701.19	1098.41
701.53	1093.26
701.86	1088.35
702.20	1072.43
702.54	1067.52
702.87	1058.39
703.21	1060.50
703.55	1061.90
703.88	1074.54
704.22	1082.73
704.55	1077.82
704.89	1075.71
705.23	1071.97
705.56	1067.52
705.90	1060.73
706.23	1071.26
706.57	1066.11
706.91	1075.24
707.24	1068.92
707.58	1070.09
707.91	1070.80
708.25	1083.43
708.58	1078.75
708.92	1071.50
709.26	1069.86
709.59	1072.67
709.93	1071.26
710.26	1074.77
710.60	1088.58
710.93	1091.63
711.27	1090.69
711.60	1083.20
711.94	1073.60
712.27	1071.73
712.61	1070.33
712.94	1064.94
713.28	1070.33
713.61	1072.67
713.95	1074.54
714.28	1074.07
714.62	1085.31
714.95	1078.75
715.29	1077.58
715.62	1081.09
715.96	1085.07
716.29	1093.50
716.63	1094.67
716.96	1099.35
717.29	1092.09
717.63	1088.58
717.96	1082.50
718.30	1086.71
718.63	1075.48
718.97	1081.80
719.30	1085.54
719.63	1082.50
719.97	1082.26
720.30	1094.20
720.64	1090.22
720.97	1084.37
721.30	1078.28
721.64	1081.33
721.97	1078.99
722.31	1086.01
722.64	1096.78
722.97	1094.90
723.31	1094.67
723.64	1088.82
723.97	1080.63
724.31	1071.97
724.64	1068.69
724.98	1063.31
725.31	1067.28
725.64	1063.31
725.98	1067.28
726.31	1073.60
726.64	1076.41
726.97	1077.58
727.31	1088.12
727.64	1089.99
727.97	1086.01
728.31	1091.39
728.64	1090.22
728.97	1081.33
729.31	1082.73
729.64	1095.14
729.97	1089.05
730.30	1092.33
730.64	1102.86
730.97	1098.65
731.30	1086.24
731.63	1086.01
731.97	1084.37
732.30	1079.46
732.63	1086.01
732.96	1097.01
733.30	1100.99
733.63	1104.03
733.96	1099.35
734.29	1088.82
734.63	1074.31
734.96	1064.71
735.29	1060.03
735.62	1067.28
735.95	1063.77
736.29	1072.90
736.62	1078.75
736.95	1074.77
737.28	1071.97
737.61	1076.65
737.94	1072.20
738.28	1070.33
738.61	1076.88
738.94	1080.63
739.27	1077.82
739.60	1086.01
739.93	1080.16
740.27	1088.12
740.60	1089.99
740.93	1091.86
741.26	1089.75
741.59	1095.60
741.92	1091.86
742.25	1085.31
742.58	1089.75
742.91	1077.82
743.25	1083.20
743.58	1078.28
743.91	1073.84
744.24	1076.41
744.57	1077.11
744.90	1067.52
745.23	1059.09
745.56	1061.20
745.89	1069.86
746.22	1075.71
746.55	1084.60
746.88	1093.73
747.21	1092.56
747.54	1075.24
747.87	1076.41
748.20	1073.14
748.53	1067.52
748.87	1071.97
749.20	1080.63
749.53	1081.33
749.86	1078.05
750.19	1079.69
750.52	1068.92
750.85	1057.69
751.18	1057.69
751.51	1059.33
751.84	1074.77
752.16	1085.77
752.49	1089.99
752.82	1089.05
753.15	1087.88
753.48	1072.43
753.81	1072.43
754.14	1078.28
754.47	1081.09
754.80	1084.60
755.13	1089.75
755.46	1088.58
755.79	1084.14
756.12	1077.82
756.45	1074.54
756.78	1066.82
757.11	1065.88
757.43	1059.79
757.76	1068.69
758.09	1071.03
758.42	1068.92
758.75	1069.62
759.08	1075.48
759.41	1077.58
759.74	1075.01
760.07	1077.11
760.39	1078.75
760.72	1084.14
761.05	1078.52
761.38	1082.97
761.71	1091.16
762.04	1083.67
762.36	1079.92
762.69	1081.33
763.02	1080.39
763.35	1077.82
763.68	1084.84
764.01	1083.20
764.33	1076.18
764.66	1069.39
764.99	1069.62
