SpectraSuite Data File
++++++++++++++++++++++++++++++++++++
Date: Mon Aug 26 10:24:53 PDT 2019
User: corrico
Dark Spectrum Present: No
Reference Spectrum Present: No
Number of Sampled Component Spectra: 1
Spectrometers: USB2+H06089
Integration Time (usec): 10000 (USB2+H06089)
Spectra Averaged: 2 (USB2+H06089)
Boxcar Smoothing: 2 (USB2+H06089)
Correct for Electrical Dark: No (USB2+H06089)
Strobe/Lamp Enabled: No (USB2+H06089)
Correct for Detector Non-linearity: No (USB2+H06089)
Correct for Stray Light: No (USB2+H06089)
Number of Pixels in Processed Spectrum: 2048
>>>>>Begin Processed Spectral Data<<<<<
339.70	1035.69
340.07	1035.69
340.45	1012.28
340.82	991.92
341.19	968.28
341.57	934.81
341.94	914.68
342.31	903.45
342.69	892.91
343.06	896.19
343.43	906.49
343.81	905.55
344.18	908.60
344.55	904.38
344.93	913.75
345.30	913.28
345.67	924.04
346.04	927.55
346.42	947.21
346.79	942.77
347.16	957.75
347.54	974.83
347.91	990.98
348.28	997.07
348.65	997.30
349.03	1004.09
349.40	1008.07
349.77	1022.81
350.14	1044.35
350.52	1054.65
350.89	1057.69
351.26	1054.65
351.63	1053.71
352.01	1038.26
352.38	1048.09
352.75	1055.11
353.12	1055.35
353.50	1055.82
353.87	1075.48
354.24	1080.86
354.61	1082.73
354.98	1092.09
355.36	1096.54
355.73	1089.99
356.10	1098.18
356.47	1104.73
356.84	1097.48
357.22	1092.56
357.59	1088.82
357.96	1078.05
358.33	1069.86
358.70	1070.09
359.08	1065.41
359.45	1068.45
359.82	1078.05
360.19	1085.77
360.56	1095.37
360.94	1102.86
361.31	1110.35
361.68	1103.56
362.05	1099.58
362.42	1097.24
362.79	1102.86
363.16	1096.54
363.54	1090.46
363.91	1078.99
364.28	1079.22
364.65	1076.88
365.02	1070.09
365.39	1075.24
365.76	1088.35
366.14	1090.92
366.51	1089.99
366.88	1093.03
367.25	1089.52
367.62	1081.56
367.99	1070.80
368.36	1064.94
368.73	1063.54
369.10	1064.94
369.48	1064.24
369.85	1067.99
370.22	1072.20
370.59	1074.77
370.96	1079.69
371.33	1077.11
371.70	1083.20
372.07	1077.35
372.44	1086.24
372.81	1088.58
373.18	1099.12
373.55	1097.24
373.93	1099.82
374.30	1085.31
374.67	1079.46
375.04	1083.43
375.41	1086.71
375.78	1085.77
376.15	1093.03
376.52	1096.78
376.89	1093.26
377.26	1089.52
377.63	1089.52
378.00	1092.80
378.37	1089.05
378.74	1087.18
379.11	1089.05
379.48	1100.29
379.85	1101.92
380.22	1100.05
380.59	1099.12
380.96	1094.90
381.33	1086.71
381.70	1080.39
382.07	1093.26
382.44	1090.92
382.81	1096.07
383.18	1093.73
383.55	1104.50
383.92	1107.31
384.29	1112.22
384.66	1115.97
385.03	1128.14
385.40	1119.71
385.77	1110.12
386.14	1114.33
386.51	1110.12
386.88	1102.39
387.25	1100.75
387.62	1090.22
387.99	1083.20
388.36	1080.86
388.73	1089.29
389.10	1100.29
389.46	1107.31
389.83	1107.78
390.20	1110.35
390.57	1104.50
390.94	1101.22
391.31	1097.71
391.68	1106.61
392.05	1108.01
392.42	1103.56
392.79	1109.65
393.16	1114.33
393.53	1105.20
393.89	1115.03
394.26	1114.56
394.63	1111.99
395.00	1116.90
395.37	1124.39
395.74	1115.50
396.11	1133.52
396.48	1130.48
396.84	1133.52
397.21	1136.33
397.58	1135.86
397.95	1126.50
398.32	1124.39
398.69	1119.95
399.06	1120.88
399.42	1133.52
399.79	1127.44
400.16	1126.03
400.53	1123.46
400.90	1128.37
401.27	1121.35
401.64	1133.29
402.00	1145.93
402.37	1159.03
402.74	1164.88
403.11	1172.14
403.48	1187.82
403.84	1197.18
404.21	1204.91
404.58	1206.78
404.95	1216.61
405.32	1215.67
405.68	1227.38
406.05	1234.63
406.42	1240.72
406.79	1252.42
407.16	1263.66
407.52	1267.40
407.89	1290.10
408.26	1321.70
408.63	1335.28
408.99	1362.19
409.36	1393.32
409.73	1419.53
410.10	1437.79
410.47	1467.28
410.83	1510.11
411.20	1537.73
411.57	1570.50
411.94	1606.54
412.30	1657.57
412.67	1680.74
413.04	1730.36
413.40	1788.64
413.77	1854.17
414.14	1895.13
414.51	1967.45
414.87	2029.24
415.24	2082.84
415.61	2147.91
415.97	2241.77
416.34	2331.64
416.71	2429.48
417.08	2537.84
417.44	2633.57
417.81	2734.92
418.18	2838.13
418.54	2959.61
418.91	3089.74
419.28	3229.94
419.64	3375.99
420.01	3526.49
420.38	3686.81
420.74	3851.82
421.11	4064.34
421.48	4281.31
421.84	4500.85
422.21	4729.75
422.58	4978.55
422.94	5210.03
423.31	5429.11
423.68	5692.18
424.04	5954.09
424.41	6221.14
424.77	6503.18
425.14	6803.70
425.51	7142.61
425.87	7519.44
426.24	7879.88
426.61	8287.84
426.97	8791.05
427.34	9195.96
427.70	9656.58
428.07	10113.22
428.44	10615.50
428.80	11082.20
429.17	11603.21
429.53	12103.61
429.90	12731.11
430.27	13252.58
430.63	13752.99
431.00	14427.06
431.36	15140.93
431.73	15725.59
432.09	16374.15
432.46	17048.23
432.83	17606.91
433.19	18119.96
433.56	18757.99
433.92	19381.98
434.29	19998.94
434.65	20689.63
435.02	21301.22
435.38	21958.20
435.75	22474.76
436.11	23113.49
436.48	23529.64
436.84	24054.62
437.21	24449.94
437.57	24908.22
437.94	25250.40
438.30	25635.65
438.67	25844.43
439.03	26003.82
439.40	26130.44
439.76	26089.72
440.13	26013.88
440.49	25963.33
440.86	25711.96
441.22	25426.18
441.59	25067.84
441.95	24661.05
442.32	24169.31
442.68	23763.46
443.05	23283.65
443.41	22833.33
443.78	22315.60
444.14	21777.75
444.51	21168.27
444.87	20748.15
445.24	20285.66
445.60	19916.79
445.96	19415.68
446.33	19019.66
446.69	18420.02
447.06	17890.12
447.42	17288.60
447.79	16851.15
448.15	16454.90
448.51	16039.22
448.88	15659.12
449.24	15242.04
449.61	14904.77
449.97	14490.26
450.33	14100.32
450.70	13648.37
451.06	13259.13
451.43	12805.07
451.79	12453.05
452.15	12136.15
452.52	11855.75
452.88	11607.89
453.24	11370.79
453.61	11118.95
453.97	10868.28
454.34	10595.37
454.70	10373.02
455.06	10098.48
455.43	9788.12
455.79	9459.51
456.15	9187.54
456.52	8875.78
456.88	8639.39
457.24	8359.69
457.61	8158.17
457.97	7931.14
458.33	7672.74
458.70	7424.88
459.06	7182.64
459.42	6940.16
459.79	6695.34
460.15	6486.79
460.51	6251.80
460.88	6077.67
461.24	5887.62
461.60	5709.74
461.96	5548.71
462.33	5415.06
462.69	5254.74
463.05	5130.22
463.42	4998.68
463.78	4867.38
464.14	4751.29
464.50	4649.94
464.87	4524.26
465.23	4432.74
465.59	4325.08
465.95	4216.94
466.32	4097.58
466.68	4013.32
467.04	3918.76
467.40	3839.41
467.77	3745.79
468.13	3698.75
468.49	3611.21
468.85	3560.19
469.22	3515.25
469.58	3450.89
469.94	3377.39
470.30	3338.77
470.66	3275.35
471.03	3193.66
471.39	3146.62
471.75	3089.51
472.11	3019.76
472.47	2950.48
472.84	2912.80
473.20	2858.96
473.56	2811.45
473.92	2766.28
474.28	2723.68
474.65	2668.91
475.01	2633.34
475.37	2589.10
475.73	2545.10
476.09	2510.93
476.45	2481.90
476.81	2435.80
477.18	2400.92
477.54	2367.22
477.90	2336.79
478.26	2291.62
478.62	2256.04
478.98	2226.79
479.34	2207.36
479.71	2181.15
480.07	2162.66
480.43	2142.06
480.79	2117.95
481.15	2083.54
481.51	2066.69
481.87	2047.03
482.23	2027.14
482.59	2001.63
482.96	1980.09
483.32	1952.24
483.68	1922.28
484.04	1904.03
484.40	1889.05
484.76	1870.09
485.12	1860.26
485.48	1849.49
485.84	1837.55
486.20	1822.11
486.56	1806.66
486.92	1781.38
487.28	1759.85
487.64	1737.85
488.00	1712.10
488.37	1702.97
488.73	1683.31
489.09	1669.74
489.45	1651.25
489.81	1641.89
490.17	1627.37
490.53	1601.86
490.89	1585.95
491.25	1582.67
491.61	1568.86
491.97	1555.05
492.33	1550.14
492.69	1542.65
493.05	1520.88
493.41	1503.09
493.77	1481.33
494.13	1470.09
494.49	1453.71
494.85	1449.73
495.21	1448.79
495.57	1442.24
495.93	1432.64
496.29	1430.07
496.64	1412.98
497.00	1391.21
497.36	1371.55
497.72	1361.26
498.08	1343.00
498.44	1333.64
498.80	1329.42
499.16	1335.28
499.52	1342.53
499.88	1338.79
500.24	1335.04
500.60	1328.02
500.96	1318.42
501.32	1311.64
501.68	1320.06
502.03	1306.02
502.39	1300.87
502.75	1293.85
503.11	1285.19
503.47	1258.74
503.83	1258.74
504.19	1248.44
504.55	1241.89
504.91	1241.19
505.26	1237.91
505.62	1240.25
505.98	1237.68
506.34	1240.02
506.70	1224.10
507.06	1229.02
507.42	1218.25
507.78	1214.74
508.13	1211.70
508.49	1206.55
508.85	1205.61
509.21	1202.80
509.57	1203.97
509.93	1210.06
510.28	1206.31
510.64	1198.35
511.00	1187.82
511.36	1187.82
511.72	1171.44
512.07	1165.59
512.43	1164.88
512.79	1171.91
513.15	1160.20
513.51	1157.86
513.86	1169.10
514.22	1170.97
514.58	1169.57
514.94	1169.57
515.30	1167.69
515.65	1159.74
516.01	1170.03
516.37	1170.97
516.73	1171.20
517.08	1171.20
517.44	1170.50
517.80	1154.59
518.16	1155.05
518.51	1152.48
518.87	1153.88
519.23	1150.14
519.59	1144.99
519.94	1142.65
520.30	1141.25
520.66	1142.18
521.01	1146.86
521.37	1144.76
521.73	1132.35
522.09	1133.76
522.44	1124.86
522.80	1120.41
523.16	1119.01
523.51	1121.35
523.87	1118.78
524.23	1126.27
524.58	1128.84
524.94	1137.97
525.30	1140.07
525.65	1140.78
526.01	1142.88
526.37	1138.44
526.72	1131.65
527.08	1131.18
527.44	1123.69
527.79	1118.54
528.15	1117.14
528.51	1119.48
528.86	1116.20
529.22	1126.03
529.58	1113.16
529.93	1110.58
530.29	1102.86
530.65	1097.01
531.00	1091.63
531.36	1099.35
531.71	1112.22
532.07	1109.65
532.43	1114.33
532.78	1111.05
533.14	1105.90
533.49	1100.99
533.85	1108.95
534.21	1112.46
534.56	1115.50
534.92	1113.16
535.27	1108.95
535.63	1100.99
535.98	1102.63
536.34	1102.16
536.69	1111.05
537.05	1100.29
537.41	1104.50
537.76	1112.22
538.12	1114.33
538.47	1115.50
538.83	1129.54
539.18	1126.97
539.54	1122.75
539.89	1116.20
540.25	1107.31
540.60	1105.20
540.96	1113.63
541.31	1110.58
541.67	1117.84
542.02	1114.80
542.38	1114.80
542.73	1111.52
543.09	1101.69
543.44	1089.05
543.80	1093.97
544.15	1088.58
544.51	1076.18
544.86	1082.73
545.22	1092.56
545.57	1092.80
545.93	1088.35
546.28	1103.09
546.64	1104.97
546.99	1099.58
547.35	1097.95
547.70	1100.99
548.05	1103.80
548.41	1100.29
548.76	1104.50
549.12	1112.46
549.47	1122.29
549.83	1102.39
550.18	1103.09
550.53	1117.61
550.89	1116.20
551.24	1111.29
551.60	1114.80
551.95	1108.48
552.30	1101.46
552.66	1098.88
553.01	1097.71
553.37	1105.67
553.72	1105.20
554.07	1101.69
554.43	1098.18
554.78	1100.05
555.13	1100.29
555.49	1104.97
555.84	1102.86
556.19	1095.84
556.55	1084.37
556.90	1083.67
557.26	1079.69
557.61	1074.31
557.96	1080.16
558.32	1075.94
558.67	1071.97
559.02	1074.54
559.37	1078.05
559.73	1078.05
560.08	1086.94
560.43	1095.37
560.79	1096.07
561.14	1100.99
561.49	1118.54
561.85	1130.01
562.20	1125.33
562.55	1128.61
562.90	1129.07
563.26	1116.44
563.61	1103.33
563.96	1096.07
564.32	1089.05
564.67	1085.07
565.02	1085.54
565.37	1101.92
565.73	1109.18
566.08	1114.80
566.43	1116.20
566.78	1110.12
567.14	1098.18
567.49	1103.09
567.84	1101.22
568.19	1107.31
568.54	1122.29
568.90	1117.84
569.25	1109.65
569.60	1112.92
569.95	1105.20
570.31	1093.03
570.66	1092.56
571.01	1094.43
571.36	1093.73
571.71	1091.39
572.06	1102.63
572.42	1100.99
572.77	1107.78
573.12	1101.92
573.47	1102.39
573.82	1096.54
574.18	1100.99
574.53	1096.54
574.88	1106.61
575.23	1102.39
575.58	1102.16
575.93	1112.46
576.28	1110.12
576.64	1101.69
576.99	1109.65
577.34	1104.50
577.69	1084.37
578.04	1085.54
578.39	1091.63
578.74	1088.82
579.09	1088.82
579.44	1105.90
579.80	1102.39
580.15	1101.46
580.50	1092.56
580.85	1092.09
581.20	1084.60
581.55	1088.35
581.90	1071.50
582.25	1081.09
582.60	1078.75
582.95	1082.97
583.30	1076.88
583.65	1088.82
584.00	1083.67
584.35	1084.60
584.71	1078.75
585.06	1093.97
585.41	1095.37
585.76	1102.86
586.11	1113.63
586.46	1119.71
586.81	1111.05
587.16	1103.09
587.51	1100.05
587.86	1087.41
588.21	1076.88
588.56	1079.22
588.91	1089.75
589.26	1084.37
589.61	1085.07
589.96	1089.29
590.31	1087.88
590.66	1083.43
591.01	1100.75
591.36	1104.73
591.71	1101.46
592.06	1093.03
592.41	1103.09
592.76	1096.54
593.10	1095.84
593.45	1101.22
593.80	1112.46
594.15	1103.09
594.50	1088.35
594.85	1085.77
595.20	1085.77
595.55	1074.77
595.90	1075.71
596.25	1081.80
596.60	1079.22
596.95	1070.56
597.30	1073.14
597.64	1131.65
597.99	1138.90
598.34	1143.82
598.69	1148.73
599.04	1150.84
599.39	1086.24
599.74	1082.97
600.09	1081.56
600.44	1084.60
600.78	1079.92
601.13	1087.41
601.48	1094.90
601.83	1086.71
602.18	1080.86
602.53	1091.16
602.88	1083.90
603.22	1059.79
603.57	1069.62
603.92	1077.35
604.27	1070.09
604.62	1077.11
604.97	1096.07
605.31	1096.31
605.66	1097.24
606.01	1095.60
606.36	1099.12
606.71	1102.16
607.05	1114.33
607.40	1120.65
607.75	1127.20
608.10	1128.61
608.44	1117.84
608.79	1103.80
609.14	1096.78
609.49	1093.26
609.84	1095.14
610.18	1101.22
610.53	1105.44
610.88	1091.16
611.23	1089.52
611.57	1081.33
611.92	1074.31
612.27	1067.75
612.62	1085.77
612.96	1086.01
613.31	1091.86
613.66	1096.78
614.00	1091.16
614.35	1079.46
614.70	1087.65
615.05	1082.73
615.39	1082.50
615.74	1087.65
616.09	1093.26
616.43	1085.07
616.78	1082.97
617.13	1081.09
617.47	1089.05
617.82	1093.03
618.17	1099.58
618.51	1096.54
618.86	1104.50
619.21	1098.88
619.55	1094.20
619.90	1077.58
620.25	1075.24
620.59	1075.01
620.94	1075.48
621.29	1068.22
621.63	1073.37
621.98	1082.73
622.32	1083.67
622.67	1091.63
623.02	1099.82
623.36	1106.14
623.71	1107.31
624.05	1095.84
624.40	1093.26
624.75	1097.95
625.09	1090.46
625.44	1093.73
625.78	1098.65
626.13	1092.33
626.48	1077.82
626.82	1087.65
627.17	1083.20
627.51	1084.60
627.86	1079.46
628.20	1090.46
628.55	1079.69
628.89	1076.18
629.24	1065.41
629.58	1071.03
629.93	1063.54
630.28	1062.84
630.62	1066.58
630.97	1068.22
631.31	1069.62
631.66	1081.56
632.00	1086.71
632.35	1087.88
632.69	1093.26
633.04	1097.95
633.38	1095.84
633.73	1098.65
634.07	1097.71
634.42	1101.22
634.76	1097.48
635.11	1085.54
635.45	1089.75
635.79	1089.52
636.14	1086.48
636.48	1084.37
636.83	1092.80
637.17	1084.14
637.52	1072.90
637.86	1078.52
638.21	1077.82
638.55	1076.88
638.89	1086.48
639.24	1094.67
639.58	1092.80
639.93	1091.86
640.27	1095.14
640.61	1087.88
640.96	1087.65
641.30	1089.52
641.65	1081.56
641.99	1079.22
642.33	1080.39
642.68	1080.86
643.02	1073.14
643.37	1083.43
643.71	1075.94
644.05	1071.50
644.40	1074.31
644.74	1083.67
645.08	1079.69
645.43	1086.01
645.77	1095.37
646.11	1093.03
646.46	1086.71
646.80	1099.58
647.14	1109.41
647.49	1102.86
647.83	1110.82
648.17	1116.44
648.52	1115.73
648.86	1113.39
649.20	1118.54
649.55	1108.95
649.89	1107.78
650.23	1098.65
650.57	1097.71
650.92	1100.29
651.26	1101.92
651.60	1091.39
651.95	1090.92
652.29	1085.77
652.63	1081.09
652.97	1084.84
653.32	1101.46
653.66	1106.37
654.00	1104.97
654.34	1094.90
654.69	1090.92
655.03	1090.92
655.37	1090.92
655.71	1083.20
656.05	1091.86
656.40	1094.20
656.74	1080.63
657.08	1074.54
657.42	1079.22
657.76	1085.31
658.11	1074.54
658.45	1083.43
658.79	1078.28
659.13	1077.35
659.47	1071.03
659.82	1083.90
660.16	1080.63
660.50	1078.99
660.84	1074.54
661.18	1078.28
661.52	1073.14
661.87	1066.35
662.21	1079.46
662.55	1101.46
662.89	1107.54
663.23	1112.22
663.57	1108.95
663.91	1111.52
664.25	1094.90
664.60	1089.75
664.94	1089.75
665.28	1103.09
665.62	1100.29
665.96	1093.26
666.30	1090.69
666.64	1087.41
666.98	1086.48
667.32	1080.16
667.66	1092.09
668.01	1089.05
668.35	1094.43
668.69	1093.26
669.03	1089.75
669.37	1086.94
669.71	1082.73
670.05	1080.86
670.39	1075.24
670.73	1080.86
671.07	1079.69
671.41	1077.35
671.75	1075.24
672.09	1082.73
672.43	1086.94
672.77	1081.56
673.11	1092.09
673.45	1088.12
673.79	1089.52
674.13	1087.41
674.47	1097.71
674.81	1091.63
675.15	1093.50
675.49	1078.28
675.83	1067.05
676.17	1066.58
676.51	1067.99
676.85	1062.37
677.19	1070.80
677.53	1079.46
677.87	1077.82
678.21	1082.73
678.55	1087.18
678.89	1082.73
679.23	1082.03
679.57	1086.24
679.90	1078.99
680.24	1081.09
680.58	1086.94
680.92	1087.18
681.26	1080.39
681.60	1086.24
681.94	1088.58
682.28	1078.99
682.62	1074.54
682.96	1078.05
683.29	1075.01
683.63	1071.50
683.97	1073.60
684.31	1083.20
684.65	1088.12
684.99	1090.22
685.33	1093.97
685.67	1101.46
686.00	1092.80
686.34	1085.77
686.68	1089.75
687.02	1091.63
687.36	1086.01
687.70	1082.26
688.03	1069.86
688.37	1062.84
688.71	1059.33
689.05	1066.82
689.39	1077.35
689.72	1089.29
690.06	1086.94
690.40	1083.67
690.74	1080.63
691.08	1074.54
691.41	1075.24
691.75	1082.50
692.09	1083.20
692.43	1080.16
692.76	1075.94
693.10	1082.50
693.44	1080.63
693.78	1078.75
694.11	1071.50
694.45	1080.86
694.79	1076.88
695.13	1069.39
695.46	1073.60
695.80	1084.84
696.14	1091.86
696.48	1097.24
696.81	1102.86
697.15	1100.29
697.49	1102.63
697.82	1088.82
698.16	1074.77
698.50	1075.24
698.83	1068.69
699.17	1065.18
699.51	1070.09
699.84	1074.77
700.18	1081.09
700.52	1088.35
700.85	1093.26
701.19	1088.35
701.53	1093.97
701.86	1083.43
702.20	1082.73
702.54	1077.82
702.87	1080.39
703.21	1076.88
703.55	1085.07
703.88	1087.18
704.22	1086.24
704.55	1082.73
704.89	1092.56
705.23	1088.12
705.56	1086.48
705.90	1081.56
706.23	1090.46
706.57	1079.46
706.91	1079.69
707.24	1082.50
707.58	1095.37
707.91	1103.56
708.25	1117.14
708.58	1124.16
708.92	1120.18
709.26	1114.80
709.59	1108.71
709.93	1097.95
710.26	1092.33
710.60	1084.60
710.93	1084.14
711.27	1075.48
711.60	1080.39
711.94	1084.84
712.27	1090.46
712.61	1089.99
712.94	1097.48
713.28	1093.97
713.61	1097.95
713.95	1093.50
714.28	1105.67
714.62	1102.16
714.95	1095.60
715.29	1085.07
715.62	1089.29
715.96	1069.16
716.29	1067.05
716.63	1059.09
716.96	1056.05
717.29	1057.22
717.63	1072.20
717.96	1074.77
718.30	1082.03
718.63	1082.50
718.97	1080.63
719.30	1064.71
719.63	1065.88
719.97	1068.69
720.30	1070.09
720.64	1070.33
720.97	1074.54
721.30	1064.48
721.64	1058.16
721.97	1063.77
722.31	1067.99
722.64	1065.18
722.97	1070.56
723.31	1078.28
723.64	1073.84
723.97	1067.99
724.31	1067.99
724.64	1075.24
724.98	1077.35
725.31	1075.01
725.64	1076.88
725.98	1078.05
726.31	1082.03
726.64	1084.14
726.97	1085.54
727.31	1084.60
727.64	1090.22
727.97	1075.48
728.31	1074.77
728.64	1081.09
728.97	1087.18
729.31	1084.60
729.64	1087.18
729.97	1080.39
730.30	1082.73
730.64	1078.52
730.97	1078.05
731.30	1083.20
731.63	1089.05
731.97	1078.75
732.30	1073.14
732.63	1065.88
732.96	1065.88
733.30	1060.96
733.63	1063.07
733.96	1070.80
734.29	1079.22
734.63	1074.07
734.96	1077.82
735.29	1079.46
735.62	1079.69
735.95	1086.01
736.29	1088.82
736.62	1078.52
736.95	1076.41
737.28	1073.60
737.61	1074.07
737.94	1080.63
738.28	1089.75
738.61	1092.56
738.94	1096.54
739.27	1092.80
739.60	1079.22
739.93	1076.41
740.27	1080.39
740.60	1071.73
740.93	1066.35
741.26	1074.54
741.59	1075.48
741.92	1067.05
742.25	1071.26
742.58	1073.14
742.91	1067.52
743.25	1070.80
743.58	1071.50
743.91	1069.16
744.24	1070.56
744.57	1069.16
744.90	1058.39
745.23	1057.22
745.56	1059.79
745.89	1057.22
746.22	1063.77
746.55	1080.16
746.88	1078.28
747.21	1080.16
747.54	1079.92
747.87	1081.33
748.20	1066.58
748.53	1066.35
748.87	1065.65
749.20	1068.45
749.53	1061.90
749.86	1072.90
750.19	1078.75
750.52	1082.26
750.85	1081.09
751.18	1082.50
751.51	1081.80
751.84	1080.86
752.16	1073.37
752.49	1077.11
752.82	1084.84
753.15	1081.33
753.48	1078.05
753.81	1075.24
754.14	1065.41
754.47	1057.92
754.80	1053.71
755.13	1053.94
755.46	1065.18
755.79	1079.69
756.12	1086.01
756.45	1091.16
756.78	1092.56
757.11	1080.86
757.43	1071.03
757.76	1071.97
758.09	1070.09
758.42	1075.24
758.75	1089.05
759.08	1094.67
759.41	1088.12
759.74	1092.80
760.07	1093.73
760.39	1087.88
760.72	1085.54
761.05	1086.01
761.38	1077.58
761.71	1067.52
762.04	1066.58
762.36	1066.58
762.69	1071.26
763.02	1077.35
763.35	1095.37
763.68	1093.26
764.01	1101.22
764.33	1105.44
764.66	1098.18
