SpectraSuite Data File
++++++++++++++++++++++++++++++++++++
Date: Mon Aug 26 10:24:54 PDT 2019
User: corrico
Dark Spectrum Present: No
Reference Spectrum Present: No
Number of Sampled Component Spectra: 1
Spectrometers: USB2+H06089
Integration Time (usec): 10000 (USB2+H06089)
Spectra Averaged: 2 (USB2+H06089)
Boxcar Smoothing: 2 (USB2+H06089)
Correct for Electrical Dark: No (USB2+H06089)
Strobe/Lamp Enabled: No (USB2+H06089)
Correct for Detector Non-linearity: No (USB2+H06089)
Correct for Stray Light: No (USB2+H06089)
Number of Pixels in Processed Spectrum: 2048
>>>>>Begin Processed Spectral Data<<<<<
339.70	1041.54
340.07	1041.54
340.45	995.43
340.82	965.00
341.19	939.26
341.57	903.68
341.94	891.04
342.31	893.85
342.69	900.40
343.06	894.08
343.43	902.51
343.81	909.06
344.18	902.04
344.55	908.60
344.93	911.40
345.30	914.21
345.67	913.98
346.04	921.47
346.42	918.66
346.79	929.43
347.16	930.60
347.54	943.94
347.91	962.19
348.28	973.66
348.65	990.75
349.03	1011.35
349.40	1027.50
349.77	1031.47
350.14	1033.58
350.52	1034.28
350.89	1040.13
351.26	1038.73
351.63	1051.84
352.01	1062.60
352.38	1073.84
352.75	1086.48
353.12	1094.67
353.50	1098.18
353.87	1095.14
354.24	1090.46
354.61	1093.73
354.98	1089.52
355.36	1102.39
355.73	1114.33
356.10	1118.78
356.47	1117.61
356.84	1119.24
357.22	1108.48
357.59	1097.48
357.96	1097.48
358.33	1082.26
358.70	1084.14
359.08	1078.05
359.45	1081.09
359.82	1073.84
360.19	1072.43
360.56	1078.28
360.94	1077.11
361.31	1080.86
361.68	1092.33
362.05	1102.63
362.42	1105.20
362.79	1099.58
363.16	1096.78
363.54	1087.18
363.91	1080.63
364.28	1078.05
364.65	1079.69
365.02	1086.48
365.39	1080.86
365.76	1074.07
366.14	1068.22
366.51	1064.01
366.88	1064.01
367.25	1079.69
367.62	1082.73
367.99	1078.75
368.36	1078.99
368.73	1073.14
369.10	1068.69
369.48	1077.82
369.85	1081.80
370.22	1095.14
370.59	1095.84
370.96	1093.97
371.33	1091.86
371.70	1083.43
372.07	1082.50
372.44	1093.73
372.81	1096.31
373.18	1091.63
373.55	1100.75
373.93	1098.41
374.30	1084.84
374.67	1078.05
375.04	1082.97
375.41	1078.75
375.78	1080.86
376.15	1094.67
376.52	1102.16
376.89	1111.75
377.26	1119.01
377.63	1117.61
378.00	1115.03
378.37	1113.39
378.74	1107.54
379.11	1113.16
379.48	1116.44
379.85	1110.35
380.22	1102.39
380.59	1091.39
380.96	1089.29
381.33	1082.73
381.70	1074.54
382.07	1093.03
382.44	1099.58
382.81	1089.52
383.18	1093.97
383.55	1103.33
383.92	1091.63
384.29	1092.09
384.66	1097.01
385.03	1084.84
385.40	1084.37
385.77	1089.99
386.14	1089.52
386.51	1093.03
386.88	1107.07
387.25	1106.84
387.62	1108.24
387.99	1114.80
388.36	1108.48
388.73	1106.84
389.10	1114.10
389.46	1108.95
389.83	1097.48
390.20	1104.50
390.57	1108.48
390.94	1101.69
391.31	1112.92
391.68	1120.18
392.05	1112.22
392.42	1105.44
392.79	1106.61
393.16	1095.84
393.53	1088.82
393.89	1093.26
394.26	1100.99
394.63	1108.24
395.00	1108.01
395.37	1125.10
395.74	1125.10
396.11	1122.05
396.48	1118.78
396.84	1127.20
397.21	1129.07
397.58	1131.65
397.95	1128.84
398.32	1130.48
398.69	1141.71
399.06	1137.27
399.42	1137.03
399.79	1148.03
400.16	1148.97
400.53	1126.97
400.90	1130.95
401.27	1136.80
401.64	1136.56
402.00	1142.42
402.37	1158.10
402.74	1157.63
403.11	1159.50
403.48	1160.91
403.84	1165.82
404.21	1169.80
404.58	1182.20
404.95	1188.29
405.32	1203.04
405.68	1214.50
406.05	1228.31
406.42	1244.23
406.79	1257.80
407.16	1264.59
407.52	1283.32
407.89	1297.12
408.26	1312.81
408.63	1323.81
408.99	1335.51
409.36	1350.72
409.73	1373.19
410.10	1391.92
410.47	1429.83
410.83	1474.54
411.20	1503.79
411.57	1541.71
411.94	1570.27
412.30	1606.31
412.67	1645.16
413.04	1688.70
413.40	1727.78
413.77	1786.76
414.14	1840.60
414.51	1888.81
414.87	1953.18
415.24	2015.67
415.61	2093.61
415.97	2154.23
416.34	2234.28
416.71	2304.49
417.08	2398.35
417.44	2469.97
417.81	2583.95
418.18	2699.81
418.54	2818.47
418.91	2935.27
419.28	3075.46
419.64	3200.45
420.01	3333.63
420.38	3495.82
420.74	3661.53
421.11	3839.18
421.48	4034.38
421.84	4223.26
422.21	4393.42
422.58	4612.03
422.94	4840.70
423.31	5049.71
423.68	5298.74
424.04	5566.03
424.41	5807.57
424.77	6060.82
425.14	6365.32
425.51	6633.55
425.87	6961.69
426.24	7273.68
426.61	7663.85
426.97	8070.40
427.34	8490.06
427.70	8906.21
428.07	9384.61
428.44	9822.99
428.80	10266.99
429.17	10727.85
429.53	11199.23
429.90	11709.23
430.27	12186.47
430.63	12662.30
431.00	13282.07
431.36	13978.15
431.73	14524.19
432.09	15117.29
432.46	15782.23
432.83	16355.43
433.19	16791.47
433.56	17429.50
433.92	18078.77
434.29	18647.75
434.65	19222.12
435.02	19784.08
435.38	20331.53
435.75	20756.34
436.11	21321.11
436.48	21785.00
436.84	22379.27
437.21	22826.78
437.57	23226.07
437.94	23568.73
438.30	23865.97
438.67	23960.53
439.03	24052.75
439.40	24228.52
439.76	24159.01
440.13	24102.37
440.49	24092.07
440.86	23866.68
441.22	23586.51
441.59	23286.22
441.95	22931.87
442.32	22411.57
442.68	22021.40
443.05	21579.27
443.41	21119.12
443.78	20591.33
444.14	20117.37
444.51	19590.52
444.87	19198.48
445.24	18751.67
445.60	18376.72
445.96	17878.65
446.33	17493.63
446.69	16927.22
447.06	16452.33
447.42	15945.13
447.79	15583.05
448.15	15216.29
448.51	14828.70
448.88	14462.64
449.24	14072.24
449.61	13758.14
449.97	13378.97
450.33	13046.38
450.70	12682.89
451.06	12378.39
451.43	11980.03
451.79	11641.12
452.15	11311.11
452.52	11046.86
452.88	10812.81
453.24	10606.14
453.61	10387.30
453.97	10151.84
454.34	9891.81
454.70	9625.45
455.06	9365.65
455.43	9055.06
455.79	8772.09
456.15	8503.63
456.52	8211.30
456.88	7972.10
457.24	7747.64
457.61	7562.04
457.97	7351.15
458.33	7138.63
458.70	6916.52
459.06	6677.78
459.42	6453.09
459.79	6224.42
460.15	6045.14
460.51	5858.36
460.88	5709.50
461.24	5537.71
461.60	5396.81
461.96	5258.25
462.33	5110.79
462.69	4968.49
463.05	4846.08
463.42	4741.22
463.78	4607.81
464.14	4489.62
464.50	4383.36
464.87	4270.31
465.23	4149.54
465.59	4046.79
465.95	3952.70
466.32	3862.12
466.68	3784.65
467.04	3709.28
467.40	3636.72
467.77	3563.00
468.13	3500.27
468.49	3431.46
468.85	3383.01
469.22	3334.09
469.58	3264.81
469.94	3228.30
470.30	3169.79
470.66	3103.32
471.03	3051.82
471.39	3014.84
471.75	2936.90
472.11	2887.52
472.47	2838.60
472.84	2797.41
473.20	2748.26
473.56	2708.23
473.92	2659.78
474.28	2602.68
474.65	2545.33
475.01	2504.37
475.37	2453.35
475.73	2430.88
476.09	2414.03
476.45	2372.37
476.81	2345.92
477.18	2318.07
477.54	2275.23
477.90	2243.64
478.26	2213.68
478.62	2175.06
478.98	2146.04
479.34	2114.91
479.71	2096.65
480.07	2092.20
480.43	2086.12
480.79	2062.25
481.15	2053.59
481.51	2013.56
481.87	1983.14
482.23	1953.41
482.59	1932.81
482.96	1914.09
483.32	1907.54
483.68	1878.28
484.04	1850.90
484.40	1839.43
484.76	1810.87
485.12	1800.34
485.48	1797.30
485.84	1782.32
486.20	1762.19
486.56	1750.95
486.92	1728.25
487.28	1694.55
487.64	1677.46
488.00	1669.04
488.37	1651.72
488.73	1638.38
489.09	1637.67
489.45	1631.82
489.81	1617.08
490.17	1609.12
490.53	1581.27
490.89	1560.20
491.25	1545.22
491.61	1534.92
491.97	1521.35
492.33	1525.80
492.69	1515.73
493.05	1498.18
493.41	1483.67
493.77	1464.01
494.13	1445.75
494.49	1430.54
494.85	1420.47
495.21	1402.21
495.57	1395.66
495.93	1382.79
496.29	1381.62
496.64	1384.89
497.00	1385.13
497.36	1374.13
497.72	1354.23
498.08	1344.17
498.44	1333.17
498.80	1317.49
499.16	1307.42
499.52	1322.40
499.88	1323.34
500.24	1313.27
500.60	1311.40
500.96	1323.81
501.32	1306.96
501.68	1300.87
502.03	1294.32
502.39	1295.25
502.75	1280.27
503.11	1282.15
503.47	1264.83
503.83	1262.95
504.19	1258.97
504.55	1255.23
504.91	1248.68
505.26	1253.59
505.62	1241.19
505.98	1238.38
506.34	1242.59
506.70	1241.89
507.06	1240.48
507.42	1252.65
507.78	1239.55
508.13	1225.50
508.49	1224.10
508.85	1221.06
509.21	1212.87
509.57	1217.55
509.93	1216.14
510.28	1204.44
510.64	1197.18
511.00	1192.50
511.36	1184.08
511.72	1179.16
512.07	1181.03
512.43	1182.20
512.79	1181.74
513.15	1181.03
513.51	1181.03
513.86	1190.86
514.22	1188.29
514.58	1187.12
514.94	1177.29
515.30	1182.67
515.65	1168.16
516.01	1169.33
516.37	1159.97
516.73	1165.12
517.08	1156.22
517.44	1151.54
517.80	1143.12
518.16	1139.84
518.51	1137.73
518.87	1127.20
519.23	1132.82
519.59	1140.31
519.94	1144.76
520.30	1141.25
520.66	1150.14
521.01	1144.99
521.37	1133.52
521.73	1132.82
522.09	1129.54
522.44	1130.95
522.80	1133.05
523.16	1137.73
523.51	1141.25
523.87	1141.95
524.23	1139.37
524.58	1141.01
524.94	1143.35
525.30	1136.56
525.65	1133.52
526.01	1124.86
526.37	1114.09
526.72	1107.31
527.08	1106.61
527.44	1105.44
527.79	1102.16
528.15	1106.37
528.51	1115.03
528.86	1120.88
529.22	1128.84
529.58	1134.69
529.93	1133.05
530.29	1117.14
530.65	1114.56
531.00	1103.80
531.36	1107.78
531.71	1113.86
532.07	1133.99
532.43	1126.50
532.78	1130.24
533.14	1118.54
533.49	1104.73
533.85	1086.94
534.21	1086.71
534.56	1089.52
534.92	1095.60
535.27	1098.65
535.63	1097.48
535.98	1100.52
536.34	1098.65
536.69	1102.16
537.05	1105.20
537.41	1113.86
537.76	1108.48
538.12	1107.07
538.47	1106.37
538.83	1105.67
539.18	1103.09
539.54	1113.63
539.89	1119.48
540.25	1113.63
540.60	1103.80
540.96	1098.41
541.31	1081.09
541.67	1074.77
542.02	1082.26
542.38	1091.86
542.73	1098.88
543.09	1103.80
543.44	1114.33
543.80	1109.65
544.15	1111.05
544.51	1113.16
544.86	1130.71
545.22	1127.90
545.57	1122.05
545.93	1122.99
546.28	1116.44
546.64	1108.71
546.99	1111.75
547.35	1119.01
547.70	1116.20
548.05	1119.48
548.41	1118.31
548.76	1117.84
549.12	1116.44
549.47	1110.35
549.83	1098.41
550.18	1087.88
550.53	1083.90
550.89	1087.65
551.24	1095.60
551.60	1097.71
551.95	1095.84
552.30	1099.35
552.66	1091.63
553.01	1097.95
553.37	1103.80
553.72	1108.48
554.07	1106.84
554.43	1105.20
554.78	1103.80
555.13	1109.18
555.49	1103.33
555.84	1103.56
556.19	1114.10
556.55	1107.78
556.90	1107.07
557.26	1111.52
557.61	1097.95
557.96	1093.97
558.32	1102.63
558.67	1098.18
559.02	1099.35
559.37	1104.97
559.73	1099.58
560.08	1088.58
560.43	1095.84
560.79	1102.16
561.14	1105.67
561.49	1105.90
561.85	1094.43
562.20	1097.01
562.55	1094.43
562.90	1098.18
563.26	1105.44
563.61	1115.97
563.96	1097.48
564.32	1089.05
564.67	1082.50
565.02	1071.73
565.37	1071.26
565.73	1076.65
566.08	1085.77
566.43	1088.12
566.78	1094.90
567.14	1105.44
567.49	1105.44
567.84	1104.73
568.19	1105.90
568.54	1099.82
568.90	1091.16
569.25	1089.29
569.60	1091.86
569.95	1094.90
570.31	1105.90
570.66	1107.54
571.01	1112.46
571.36	1101.46
571.71	1093.03
572.06	1096.54
572.42	1092.80
572.77	1097.71
573.12	1107.78
573.47	1111.29
573.82	1101.69
574.18	1105.90
574.53	1092.80
574.88	1076.88
575.23	1082.97
575.58	1077.58
575.93	1076.88
576.28	1088.12
576.64	1103.33
576.99	1096.78
577.34	1108.24
577.69	1102.16
578.04	1089.75
578.39	1086.71
578.74	1076.18
579.09	1068.45
579.44	1071.50
579.80	1081.09
580.15	1085.07
580.50	1086.71
580.85	1088.82
581.20	1092.80
581.55	1090.92
581.90	1087.88
582.25	1094.20
582.60	1092.56
582.95	1078.99
583.30	1080.86
583.65	1084.84
584.00	1086.01
584.35	1087.65
584.71	1092.56
585.06	1096.54
585.41	1093.73
585.76	1093.97
586.11	1093.50
586.46	1097.24
586.81	1085.07
587.16	1081.33
587.51	1080.16
587.86	1077.82
588.21	1081.33
588.56	1096.07
588.91	1102.63
589.26	1101.46
589.61	1103.33
589.96	1104.03
590.31	1095.37
590.66	1096.54
591.01	1103.80
591.36	1112.22
591.71	1105.20
592.06	1103.56
592.41	1096.31
592.76	1085.77
593.10	1084.14
593.45	1087.41
593.80	1097.71
594.15	1102.63
594.50	1116.90
594.85	1104.97
595.20	1099.82
595.55	1088.82
595.90	1083.20
596.25	1072.90
596.60	1074.07
596.95	1073.60
597.30	1077.11
597.64	1139.84
597.99	1153.88
598.34	1153.42
598.69	1158.10
599.04	1157.16
599.39	1092.33
599.74	1075.01
600.09	1075.94
600.44	1083.90
600.78	1086.24
601.13	1082.26
601.48	1078.05
601.83	1090.46
602.18	1094.90
602.53	1092.33
602.88	1097.48
603.22	1104.73
603.57	1097.01
603.92	1090.69
604.27	1087.41
604.62	1096.78
604.97	1096.54
605.31	1110.82
605.66	1117.14
606.01	1129.78
606.36	1115.97
606.71	1107.07
607.05	1085.77
607.40	1083.67
607.75	1076.65
608.10	1093.03
608.44	1102.86
608.79	1105.20
609.14	1092.80
609.49	1094.43
609.84	1088.35
610.18	1090.92
610.53	1100.05
610.88	1111.29
611.23	1108.71
611.57	1112.69
611.92	1121.12
612.27	1117.37
612.62	1107.78
612.96	1103.56
613.31	1097.24
613.66	1086.71
614.00	1086.71
614.35	1088.82
614.70	1093.73
615.05	1092.56
615.39	1096.31
615.74	1095.60
616.09	1092.33
616.43	1087.41
616.78	1090.22
617.13	1100.99
617.47	1099.35
617.82	1095.84
618.17	1100.29
618.51	1104.50
618.86	1096.31
619.21	1103.33
619.55	1105.90
619.90	1103.80
620.25	1102.63
620.59	1098.88
620.94	1086.94
621.29	1085.77
621.63	1083.67
621.98	1076.88
622.32	1066.11
622.67	1079.22
623.02	1084.37
623.36	1086.71
623.71	1087.41
624.05	1099.35
624.40	1089.99
624.75	1094.43
625.09	1089.75
625.44	1094.67
625.78	1090.69
626.13	1088.82
626.48	1083.43
626.82	1087.18
627.17	1082.73
627.51	1079.92
627.86	1087.88
628.20	1090.92
628.55	1096.78
628.89	1098.18
629.24	1111.29
629.58	1113.16
629.93	1116.90
630.28	1120.88
630.62	1122.75
630.97	1107.07
631.31	1097.01
631.66	1085.77
632.00	1080.39
632.35	1089.99
632.69	1094.20
633.04	1093.73
633.38	1096.78
633.73	1082.26
634.07	1071.50
634.42	1065.41
634.76	1062.37
635.11	1057.22
635.45	1065.65
635.79	1062.84
636.14	1068.69
636.48	1074.54
636.83	1075.94
637.17	1074.77
637.52	1075.01
637.86	1074.07
638.21	1072.67
638.55	1077.58
638.89	1070.56
639.24	1071.26
639.58	1077.35
639.93	1072.20
640.27	1071.73
640.61	1083.90
640.96	1078.99
641.30	1075.94
641.65	1082.26
641.99	1091.39
642.33	1089.05
642.68	1096.07
643.02	1099.35
643.37	1098.88
643.71	1088.58
644.05	1086.48
644.40	1081.80
644.74	1080.16
645.08	1077.82
645.43	1079.22
645.77	1083.67
646.11	1087.88
646.46	1091.39
646.80	1088.35
647.14	1094.67
647.49	1089.99
647.83	1087.88
648.17	1086.94
648.52	1094.20
648.86	1088.12
649.20	1091.86
649.55	1100.99
649.89	1099.12
650.23	1101.46
650.57	1094.90
650.92	1086.71
651.26	1076.65
651.60	1078.75
651.95	1076.88
652.29	1092.33
652.63	1095.60
652.97	1091.63
653.32	1080.63
653.66	1079.46
654.00	1071.50
654.34	1070.56
654.69	1074.07
655.03	1074.77
655.37	1075.01
655.71	1074.54
656.05	1092.33
656.40	1094.20
656.74	1100.99
657.08	1097.48
657.42	1090.46
657.76	1075.48
658.11	1075.24
658.45	1073.84
658.79	1077.58
659.13	1088.82
659.47	1097.95
659.82	1100.05
660.16	1099.82
660.50	1101.92
660.84	1089.52
661.18	1092.09
661.52	1090.69
661.87	1086.71
662.21	1082.73
662.55	1091.39
662.89	1082.26
663.23	1088.35
663.57	1093.97
663.91	1093.26
664.25	1093.73
664.60	1092.80
664.94	1078.52
665.28	1073.14
665.62	1077.58
665.96	1078.05
666.30	1071.03
666.64	1076.18
666.98	1072.67
667.32	1070.09
667.66	1064.01
668.01	1071.03
668.35	1072.67
668.69	1082.73
669.03	1075.01
669.37	1080.16
669.71	1072.67
670.05	1070.09
670.39	1065.88
670.73	1069.62
671.07	1062.37
671.41	1072.20
671.75	1080.86
672.09	1092.09
672.43	1099.12
672.77	1114.80
673.11	1109.41
673.45	1094.20
673.79	1085.07
674.13	1082.73
674.47	1065.88
674.81	1077.35
675.15	1082.03
675.49	1082.26
675.83	1079.22
676.17	1079.69
676.51	1077.82
676.85	1087.18
677.19	1081.56
677.53	1088.35
677.87	1095.84
678.21	1093.97
678.55	1091.39
678.89	1086.01
679.23	1075.24
679.57	1079.46
679.90	1078.75
680.24	1072.90
680.58	1078.52
680.92	1078.52
681.26	1090.22
681.60	1095.60
681.94	1097.48
682.28	1100.29
682.62	1102.86
682.96	1089.52
683.29	1067.99
683.63	1069.86
683.97	1076.65
684.31	1078.75
684.65	1076.41
684.99	1086.01
685.33	1083.90
685.67	1067.52
686.00	1064.94
686.34	1073.14
686.68	1067.28
687.02	1071.97
687.36	1083.67
687.70	1081.09
688.03	1070.33
688.37	1074.54
688.71	1074.54
689.05	1072.43
689.39	1081.09
689.72	1087.41
690.06	1086.01
690.40	1087.18
690.74	1087.41
691.08	1093.26
691.41	1094.20
691.75	1100.05
692.09	1097.71
692.43	1105.20
692.76	1091.86
693.10	1082.50
693.44	1070.33
693.78	1070.09
694.11	1058.39
694.45	1051.84
694.79	1060.26
695.13	1071.26
695.46	1072.67
695.80	1079.46
696.14	1091.39
696.48	1084.60
696.81	1077.58
697.15	1068.69
697.49	1062.14
697.82	1058.16
698.16	1053.01
698.50	1063.54
698.83	1062.84
699.17	1057.69
699.51	1057.92
699.84	1074.77
700.18	1082.50
700.52	1087.18
700.85	1094.90
701.19	1099.12
701.53	1088.58
701.86	1078.28
702.20	1082.03
702.54	1085.54
702.87	1083.43
703.21	1083.20
703.55	1083.20
703.88	1069.86
704.22	1060.96
704.55	1062.84
704.89	1073.14
705.23	1075.24
705.56	1092.56
705.90	1092.09
706.23	1092.56
706.57	1089.29
706.91	1090.69
707.24	1079.92
707.58	1087.65
707.91	1087.88
708.25	1084.37
708.58	1083.20
708.92	1101.46
709.26	1102.63
709.59	1095.60
709.93	1089.05
710.26	1087.18
710.60	1080.39
710.93	1086.94
711.27	1088.35
711.60	1094.43
711.94	1096.54
712.27	1087.65
712.61	1083.20
712.94	1095.14
713.28	1092.33
713.61	1089.05
713.95	1095.14
714.28	1094.90
714.62	1092.80
714.95	1092.09
715.29	1092.33
715.62	1086.01
715.96	1087.88
716.29	1089.29
716.63	1092.80
716.96	1091.16
717.29	1090.46
717.63	1073.84
717.96	1064.71
718.30	1066.58
718.63	1063.54
718.97	1073.37
719.30	1090.22
719.63	1091.39
719.97	1092.33
720.30	1100.29
720.64	1100.29
720.97	1096.07
721.30	1092.56
721.64	1092.09
721.97	1087.65
722.31	1073.60
722.64	1068.69
722.97	1086.01
723.31	1075.01
723.64	1078.05
723.97	1090.22
724.31	1090.22
724.64	1075.48
724.98	1087.18
725.31	1081.09
725.64	1077.11
725.98	1085.54
726.31	1082.97
726.64	1078.28
726.97	1082.03
727.31	1078.05
727.64	1073.60
727.97	1079.92
728.31	1087.88
728.64	1086.71
728.97	1090.69
729.31	1088.35
729.64	1090.22
729.97	1080.39
730.30	1073.84
730.64	1074.31
730.97	1081.09
731.30	1079.92
731.63	1084.60
731.97	1093.73
732.30	1091.63
732.63	1080.39
732.96	1082.97
733.30	1072.67
733.63	1060.03
733.96	1055.35
734.29	1059.79
734.63	1050.90
734.96	1053.48
735.29	1060.26
735.62	1060.26
735.95	1064.94
736.29	1067.28
736.62	1066.58
736.95	1072.20
737.28	1080.86
737.61	1081.33
737.94	1075.94
738.28	1080.86
738.61	1076.41
738.94	1074.31
739.27	1080.16
739.60	1092.09
739.93	1094.43
740.27	1105.20
740.60	1099.82
740.93	1091.16
741.26	1084.37
741.59	1071.26
741.92	1069.16
742.25	1074.31
742.58	1076.41
742.91	1074.07
743.25	1084.60
743.58	1073.84
743.91	1075.01
744.24	1058.62
744.57	1054.88
744.90	1050.43
745.23	1064.94
745.56	1051.84
745.89	1065.41
746.22	1072.90
746.55	1079.46
746.88	1064.24
747.21	1080.39
747.54	1074.31
747.87	1065.18
748.20	1060.03
748.53	1068.45
748.87	1053.48
749.20	1064.94
749.53	1071.50
749.86	1078.75
750.19	1075.48
750.52	1082.73
750.85	1071.73
751.18	1065.65
751.51	1060.50
751.84	1065.41
752.16	1067.52
752.49	1076.18
752.82	1080.39
753.15	1078.52
753.48	1071.73
753.81	1071.03
754.14	1062.14
754.47	1071.26
754.80	1070.80
755.13	1076.65
755.46	1072.20
755.79	1086.71
756.12	1083.20
756.45	1084.84
756.78	1085.77
757.11	1091.86
757.43	1082.73
757.76	1078.28
758.09	1083.43
758.42	1075.71
758.75	1068.45
759.08	1074.31
759.41	1069.39
759.74	1069.62
760.07	1076.88
760.39	1080.63
760.72	1083.43
761.05	1100.52
761.38	1103.09
761.71	1099.35
762.04	1099.35
762.36	1094.20
762.69	1087.18
763.02	1074.07
763.35	1078.28
763.68	1076.18
764.01	1066.11
764.33	1067.52
764.66	1074.07
