SpectraSuite Data File
++++++++++++++++++++++++++++++++++++
Date: Mon Aug 26 10:24:51 PDT 2019
User: corrico
Dark Spectrum Present: No
Reference Spectrum Present: No
Number of Sampled Component Spectra: 1
Spectrometers: USB2+H06089
Integration Time (usec): 10000 (USB2+H06089)
Spectra Averaged: 2 (USB2+H06089)
Boxcar Smoothing: 2 (USB2+H06089)
Correct for Electrical Dark: No (USB2+H06089)
Strobe/Lamp Enabled: No (USB2+H06089)
Correct for Detector Non-linearity: No (USB2+H06089)
Correct for Stray Light: No (USB2+H06089)
Number of Pixels in Processed Spectrum: 2048
>>>>>Begin Processed Spectral Data<<<<<
339.70	1057.92
340.07	1057.92
340.45	1007.13
340.82	975.07
341.19	948.62
341.57	919.60
341.94	910.70
342.31	906.96
342.69	900.64
343.06	899.00
343.43	897.83
343.81	889.87
344.18	891.74
344.55	894.08
344.93	886.36
345.30	895.02
345.67	914.21
346.04	925.92
346.42	947.45
346.79	960.56
347.16	972.26
347.54	980.92
347.91	995.90
348.28	1006.20
348.65	1018.37
349.03	1027.50
349.40	1042.47
349.77	1042.24
350.14	1042.24
350.52	1047.16
350.89	1045.99
351.26	1043.18
351.63	1054.88
352.01	1051.13
352.38	1064.48
352.75	1070.09
353.12	1075.94
353.50	1075.71
353.87	1089.29
354.24	1083.67
354.61	1084.60
354.98	1082.26
355.36	1082.03
355.73	1079.69
356.10	1080.86
356.47	1079.46
356.84	1078.99
357.22	1078.99
357.59	1071.03
357.96	1072.67
358.33	1071.50
358.70	1071.50
359.08	1062.60
359.45	1075.71
359.82	1072.20
360.19	1073.84
360.56	1080.39
360.94	1081.56
361.31	1085.31
361.68	1093.03
362.05	1097.24
362.42	1091.63
362.79	1095.60
363.16	1086.48
363.54	1081.80
363.91	1080.63
364.28	1081.80
364.65	1076.65
365.02	1078.05
365.39	1071.73
365.76	1066.11
366.14	1065.88
366.51	1077.58
366.88	1077.11
367.25	1086.01
367.62	1088.35
367.99	1094.67
368.36	1086.94
368.73	1088.58
369.10	1080.63
369.48	1085.54
369.85	1081.09
370.22	1086.48
370.59	1094.90
370.96	1093.97
371.33	1093.73
371.70	1095.37
372.07	1100.52
372.44	1089.05
372.81	1091.86
373.18	1082.26
373.55	1079.22
373.93	1074.77
374.30	1075.94
374.67	1082.97
375.04	1101.46
375.41	1098.65
375.78	1085.54
376.15	1082.50
376.52	1082.03
376.89	1067.05
377.26	1073.14
377.63	1088.35
378.00	1086.48
378.37	1083.67
378.74	1094.67
379.11	1087.88
379.48	1072.43
379.85	1092.80
380.22	1087.65
380.59	1084.14
380.96	1094.43
381.33	1102.86
381.70	1090.22
382.07	1100.99
382.44	1089.29
382.81	1080.86
383.18	1086.24
383.55	1091.16
383.92	1083.67
384.29	1088.35
384.66	1097.01
385.03	1099.35
385.40	1096.54
385.77	1093.03
386.14	1098.65
386.51	1095.37
386.88	1093.03
387.25	1093.97
387.62	1108.01
387.99	1112.69
388.36	1109.65
388.73	1114.10
389.10	1111.75
389.46	1108.01
389.83	1109.41
390.20	1118.78
390.57	1108.48
390.94	1114.10
391.31	1104.50
391.68	1098.41
392.05	1097.71
392.42	1098.18
392.79	1093.50
393.16	1107.31
393.53	1100.05
393.89	1098.41
394.26	1099.12
394.63	1107.54
395.00	1102.16
395.37	1112.46
395.74	1107.07
396.11	1115.73
396.48	1111.05
396.84	1119.95
397.21	1123.93
397.58	1124.63
397.95	1116.20
398.32	1126.97
398.69	1128.37
399.06	1124.86
399.42	1130.24
399.79	1134.46
400.16	1129.54
400.53	1133.29
400.90	1134.69
401.27	1136.33
401.64	1144.76
402.00	1148.03
402.37	1146.16
402.74	1154.12
403.11	1155.52
403.48	1161.14
403.84	1172.37
404.21	1177.29
404.58	1185.48
404.95	1195.08
405.32	1210.76
405.68	1215.21
406.05	1223.63
406.42	1236.27
406.79	1258.74
407.16	1262.25
407.52	1277.00
407.89	1307.19
408.26	1325.68
408.63	1352.13
408.99	1377.41
409.36	1403.15
409.73	1414.85
410.10	1436.85
410.47	1454.88
410.83	1489.52
411.20	1518.07
411.57	1560.90
411.94	1609.12
412.30	1642.82
412.67	1699.23
413.04	1749.78
413.40	1792.15
413.77	1850.66
414.14	1929.77
414.51	1980.80
414.87	2033.46
415.24	2111.40
415.61	2185.36
415.97	2241.77
416.34	2319.70
416.71	2418.94
417.08	2512.80
417.44	2605.02
417.81	2738.43
418.18	2860.84
418.54	2988.16
418.91	3130.23
419.28	3289.39
419.64	3431.69
420.01	3597.17
420.38	3750.71
420.74	3901.91
421.11	4081.43
421.48	4271.95
421.84	4467.38
422.21	4685.99
422.58	4923.32
422.94	5163.92
423.31	5415.06
423.68	5705.76
424.04	6021.50
424.41	6332.09
424.77	6627.23
425.14	6941.09
425.51	7251.92
425.87	7558.53
426.24	7891.35
426.61	8256.47
426.97	8739.56
427.34	9156.64
427.70	9646.05
428.07	10155.35
428.44	10674.48
428.80	11121.76
429.17	11670.61
429.53	12183.19
429.90	12796.18
430.27	13346.20
430.63	13932.27
431.00	14580.84
431.36	15297.98
431.73	15879.36
432.09	16543.61
432.46	17186.79
432.83	17747.11
433.19	18269.99
433.56	18944.53
433.92	19591.45
434.29	20218.72
434.65	20913.39
435.02	21579.27
435.38	22203.02
435.75	22746.96
436.11	23358.78
436.48	23800.91
436.84	24303.89
437.21	24762.17
437.57	25236.83
437.94	25606.40
438.30	26054.38
438.67	26286.79
439.03	26440.56
439.40	26546.82
439.76	26469.12
440.13	26346.94
440.49	26335.94
440.86	26087.14
441.22	25815.87
441.59	25512.78
441.95	25140.63
442.32	24596.92
442.68	24181.71
443.05	23680.14
443.41	23197.28
443.78	22594.36
444.14	22104.96
444.51	21500.63
444.87	21062.48
445.24	20607.95
445.60	20245.63
445.96	19695.84
446.33	19248.57
446.69	18640.96
447.06	18164.66
447.42	17602.00
447.79	17110.02
448.15	16724.06
448.51	16321.26
448.88	15874.45
449.24	15458.54
449.61	15156.14
449.97	14766.21
450.33	14359.42
450.70	13947.02
451.06	13614.90
451.43	13159.66
451.79	12756.39
452.15	12439.25
452.52	12128.89
452.88	11832.34
453.24	11601.33
453.61	11345.04
453.97	11096.71
454.34	10827.08
454.70	10560.73
455.06	10310.76
455.43	10013.05
455.79	9686.07
456.15	9386.95
456.52	9052.49
456.88	8747.05
457.24	8471.33
457.61	8266.54
457.97	8038.34
458.33	7826.75
458.70	7599.95
459.06	7349.98
459.42	7104.46
459.79	6860.58
460.15	6639.87
460.51	6443.03
460.88	6250.87
461.24	6046.77
461.60	5876.15
461.96	5725.89
462.33	5536.54
462.69	5405.00
463.05	5257.31
463.42	5120.62
463.78	4968.72
464.14	4849.12
464.50	4710.09
464.87	4607.58
465.23	4489.15
465.59	4371.89
465.95	4260.24
466.32	4158.66
466.68	4065.51
467.04	3990.38
467.40	3914.55
467.77	3844.33
468.13	3780.20
468.49	3702.26
468.85	3631.58
469.22	3555.51
469.58	3474.76
469.94	3401.97
470.30	3336.90
470.66	3264.11
471.03	3217.07
471.39	3177.04
471.75	3122.74
472.11	3061.65
472.47	3023.27
472.84	2970.84
473.20	2909.75
473.56	2877.69
473.92	2831.35
474.28	2786.88
474.65	2741.24
475.01	2709.40
475.37	2654.87
475.73	2616.48
476.09	2567.10
476.45	2524.50
476.81	2478.39
477.18	2437.43
477.54	2396.47
477.90	2356.92
478.26	2329.77
478.62	2294.19
478.98	2260.49
479.34	2231.70
479.71	2216.02
480.07	2176.93
480.43	2159.14
480.79	2137.14
481.15	2119.59
481.51	2093.38
481.87	2072.54
482.23	2044.69
482.59	2032.29
482.96	2001.16
483.32	1974.94
483.68	1949.43
484.04	1941.47
484.40	1906.83
484.76	1905.90
485.12	1892.09
485.48	1888.11
485.84	1850.66
486.20	1842.47
486.56	1813.68
486.92	1805.96
487.28	1775.76
487.64	1755.40
488.00	1724.04
488.37	1702.27
488.73	1672.31
489.09	1668.57
489.45	1661.31
489.81	1647.50
490.17	1633.69
490.53	1624.57
490.89	1616.37
491.25	1607.01
491.61	1596.01
491.97	1587.82
492.33	1564.65
492.69	1543.12
493.05	1523.69
493.41	1508.71
493.77	1493.50
494.13	1486.24
494.49	1466.58
494.85	1458.86
495.21	1454.41
495.57	1450.43
495.93	1439.20
496.29	1437.09
496.64	1430.77
497.00	1420.00
497.36	1393.32
497.72	1380.68
498.08	1372.02
498.44	1357.28
498.80	1348.62
499.16	1352.36
499.52	1352.83
499.88	1340.19
500.24	1329.66
500.60	1319.59
500.96	1318.89
501.32	1308.13
501.68	1319.36
502.03	1311.40
502.39	1309.30
502.75	1299.23
503.11	1299.47
503.47	1288.93
503.83	1297.36
504.19	1296.66
504.55	1289.17
504.91	1280.27
505.26	1262.48
505.62	1264.12
505.98	1248.91
506.34	1233.93
506.70	1232.06
507.06	1228.78
507.42	1212.63
507.78	1213.80
508.13	1210.53
508.49	1199.06
508.85	1213.10
509.21	1210.53
509.57	1207.72
509.93	1217.08
510.28	1232.76
510.64	1217.31
511.00	1205.38
511.36	1199.52
511.72	1189.46
512.07	1173.54
512.43	1173.31
512.79	1183.37
513.15	1191.10
513.51	1199.06
513.86	1192.27
514.22	1188.29
514.58	1186.89
514.94	1174.95
515.30	1161.14
515.65	1166.52
516.01	1158.57
516.37	1150.61
516.73	1147.56
517.08	1145.69
517.44	1143.35
517.80	1147.10
518.16	1149.91
518.51	1166.76
518.87	1168.16
519.23	1161.37
519.59	1168.86
519.94	1167.69
520.30	1147.56
520.66	1154.59
521.01	1149.20
521.37	1126.97
521.73	1118.54
522.09	1120.65
522.44	1114.09
522.80	1113.16
523.16	1127.90
523.51	1131.88
523.87	1131.65
524.23	1123.69
524.58	1127.20
524.94	1133.29
525.30	1136.33
525.65	1139.14
526.01	1147.33
526.37	1148.73
526.72	1137.73
527.08	1129.78
527.44	1127.67
527.79	1118.31
528.15	1114.56
528.51	1110.82
528.86	1111.99
529.22	1115.27
529.58	1118.07
529.93	1120.88
530.29	1119.48
530.65	1120.18
531.00	1111.99
531.36	1116.44
531.71	1112.92
532.07	1109.41
532.43	1101.92
532.78	1103.56
533.14	1100.75
533.49	1105.20
533.85	1104.50
534.21	1103.09
534.56	1099.12
534.92	1098.65
535.27	1098.88
535.63	1111.99
535.98	1124.63
536.34	1122.52
536.69	1122.75
537.05	1122.99
537.41	1112.92
537.76	1106.84
538.12	1104.03
538.47	1098.88
538.83	1103.80
539.18	1100.29
539.54	1094.90
539.89	1101.46
540.25	1112.69
540.60	1094.90
540.96	1098.88
541.31	1104.73
541.67	1099.58
542.02	1090.22
542.38	1106.37
542.73	1100.05
543.09	1099.12
543.44	1109.88
543.80	1113.16
544.15	1111.75
544.51	1114.80
544.86	1113.86
545.22	1110.82
545.57	1108.71
545.93	1099.12
546.28	1101.46
546.64	1106.14
546.99	1105.67
547.35	1102.63
547.70	1106.37
548.05	1111.05
548.41	1107.07
548.76	1101.22
549.12	1105.20
549.47	1108.01
549.83	1097.71
550.18	1094.67
550.53	1102.63
550.89	1098.41
551.24	1097.01
551.60	1105.20
551.95	1106.61
552.30	1092.56
552.66	1089.75
553.01	1091.86
553.37	1096.07
553.72	1092.33
554.07	1103.09
554.43	1109.18
554.78	1103.09
555.13	1098.88
555.49	1098.18
555.84	1091.86
556.19	1094.43
556.55	1101.22
556.90	1099.35
557.26	1095.84
557.61	1102.16
557.96	1096.78
558.32	1101.46
558.67	1097.71
559.02	1094.90
559.37	1084.37
559.73	1097.01
560.08	1080.86
560.43	1080.16
560.79	1090.69
561.14	1092.80
561.49	1081.56
561.85	1087.65
562.20	1086.94
562.55	1077.58
562.90	1083.43
563.26	1092.33
563.61	1102.39
563.96	1107.54
564.32	1114.33
564.67	1126.97
565.02	1116.20
565.37	1100.52
565.73	1102.86
566.08	1108.95
566.43	1102.63
566.78	1100.05
567.14	1098.88
567.49	1093.73
567.84	1086.24
568.19	1083.43
568.54	1074.77
568.90	1083.43
569.25	1080.86
569.60	1081.33
569.95	1074.77
570.31	1078.99
570.66	1071.26
571.01	1086.71
571.36	1087.65
571.71	1095.37
572.06	1107.31
572.42	1109.88
572.77	1109.18
573.12	1109.18
573.47	1117.37
573.82	1113.86
574.18	1117.37
574.53	1111.29
574.88	1108.95
575.23	1092.09
575.58	1087.65
575.93	1075.24
576.28	1069.62
576.64	1071.26
576.99	1078.28
577.34	1083.90
577.69	1097.48
578.04	1088.12
578.39	1094.43
578.74	1092.56
579.09	1089.99
579.44	1086.24
579.80	1095.60
580.15	1081.33
580.50	1081.33
580.85	1086.01
581.20	1089.52
581.55	1082.73
581.90	1092.09
582.25	1092.80
582.60	1084.14
582.95	1072.43
583.30	1081.09
583.65	1077.35
584.00	1077.11
584.35	1085.31
584.71	1097.48
585.06	1107.31
585.41	1123.46
585.76	1119.48
586.11	1114.33
586.46	1108.48
586.81	1106.84
587.16	1094.90
587.51	1090.22
587.86	1100.75
588.21	1103.09
588.56	1089.29
588.91	1086.24
589.26	1098.41
589.61	1095.37
589.96	1092.09
590.31	1105.90
590.66	1115.97
591.01	1116.67
591.36	1111.99
591.71	1116.67
592.06	1111.29
592.41	1111.05
592.76	1108.48
593.10	1100.52
593.45	1096.54
593.80	1084.14
594.15	1073.14
594.50	1066.11
594.85	1076.18
595.20	1078.05
595.55	1085.54
595.90	1087.41
596.25	1092.80
596.60	1091.39
596.95	1088.12
597.30	1082.97
597.64	1130.95
597.99	1128.61
598.34	1126.50
598.69	1132.82
599.04	1139.14
599.39	1084.14
599.74	1086.01
600.09	1089.75
600.44	1085.54
600.78	1079.22
601.13	1082.50
601.48	1081.09
601.83	1082.50
602.18	1087.18
602.53	1097.71
602.88	1090.92
603.22	1092.80
603.57	1082.97
603.92	1088.12
604.27	1078.99
604.62	1092.09
604.97	1093.50
605.31	1105.90
605.66	1091.63
606.01	1095.84
606.36	1091.63
606.71	1086.71
607.05	1075.48
607.40	1093.26
607.75	1090.92
608.10	1091.63
608.44	1098.65
608.79	1096.07
609.14	1090.22
609.49	1086.24
609.84	1091.63
610.18	1090.92
610.53	1092.09
610.88	1084.60
611.23	1086.94
611.57	1079.69
611.92	1080.86
612.27	1083.20
612.62	1085.54
612.96	1097.01
613.31	1100.29
613.66	1093.97
614.00	1096.07
614.35	1099.82
614.70	1095.14
615.05	1093.26
615.39	1093.50
615.74	1100.29
616.09	1095.14
616.43	1091.86
616.78	1090.46
617.13	1093.73
617.47	1075.71
617.82	1071.26
618.17	1066.35
618.51	1073.37
618.86	1072.20
619.21	1087.88
619.55	1095.14
619.90	1100.99
620.25	1104.50
620.59	1095.37
620.94	1086.94
621.29	1080.63
621.63	1082.03
621.98	1067.99
622.32	1078.05
622.67	1090.92
623.02	1093.97
623.36	1095.37
623.71	1109.41
624.05	1102.63
624.40	1092.56
624.75	1093.26
625.09	1086.94
625.44	1077.11
625.78	1082.97
626.13	1090.92
626.48	1090.46
626.82	1088.58
627.17	1085.54
627.51	1089.75
627.86	1084.60
628.20	1100.75
628.55	1099.35
628.89	1107.31
629.24	1093.03
629.58	1093.26
629.93	1080.39
630.28	1084.84
630.62	1087.18
630.97	1088.35
631.31	1092.56
631.66	1096.78
632.00	1089.75
632.35	1084.84
632.69	1090.69
633.04	1082.03
633.38	1077.82
633.73	1086.24
634.07	1094.43
634.42	1095.37
634.76	1091.63
635.11	1096.07
635.45	1089.75
635.79	1083.20
636.14	1084.60
636.48	1092.33
636.83	1087.88
637.17	1083.43
637.52	1074.54
637.86	1069.39
638.21	1074.07
638.55	1071.50
638.89	1081.33
639.24	1086.48
639.58	1088.35
639.93	1089.05
640.27	1086.01
640.61	1085.07
640.96	1082.97
641.30	1082.50
641.65	1076.88
641.99	1080.16
642.33	1083.43
642.68	1093.26
643.02	1092.33
643.37	1092.09
643.71	1088.82
644.05	1089.75
644.40	1087.65
644.74	1090.92
645.08	1093.50
645.43	1098.18
645.77	1097.01
646.11	1088.82
646.46	1088.12
646.80	1087.41
647.14	1085.31
647.49	1083.43
647.83	1087.88
648.17	1090.69
648.52	1087.65
648.86	1086.48
649.20	1088.12
649.55	1087.18
649.89	1086.48
650.23	1101.22
650.57	1102.63
650.92	1099.58
651.26	1106.14
651.60	1107.31
651.95	1088.58
652.29	1089.52
652.63	1083.20
652.97	1084.84
653.32	1079.46
653.66	1089.05
654.00	1084.14
654.34	1103.09
654.69	1100.75
655.03	1103.56
655.37	1096.54
655.71	1102.63
656.05	1092.09
656.40	1072.90
656.74	1070.33
657.08	1073.60
657.42	1063.54
657.76	1050.43
658.11	1066.35
658.45	1065.18
658.79	1064.48
659.13	1071.73
659.47	1081.09
659.82	1083.90
660.16	1088.82
660.50	1093.03
660.84	1097.24
661.18	1092.80
661.52	1088.82
661.87	1071.73
662.21	1057.69
662.55	1047.86
662.89	1055.11
663.23	1054.41
663.57	1065.65
663.91	1075.24
664.25	1081.56
664.60	1086.48
664.94	1093.97
665.28	1100.75
665.62	1097.24
665.96	1099.58
666.30	1100.75
666.64	1090.69
666.98	1100.05
667.32	1107.07
667.66	1102.16
668.01	1091.63
668.35	1099.82
668.69	1093.73
669.03	1094.90
669.37	1104.26
669.71	1113.39
670.05	1114.56
670.39	1114.10
670.73	1113.63
671.07	1100.29
671.41	1089.75
671.75	1092.09
672.09	1089.52
672.43	1078.28
672.77	1082.26
673.11	1087.41
673.45	1080.16
673.79	1071.73
674.13	1086.48
674.47	1085.77
674.81	1094.20
675.15	1092.56
675.49	1093.73
675.83	1085.07
676.17	1085.77
676.51	1076.18
676.85	1064.48
677.19	1066.11
677.53	1064.48
677.87	1073.37
678.21	1073.14
678.55	1089.05
678.89	1088.58
679.23	1086.71
679.57	1074.31
679.90	1077.11
680.24	1070.33
680.58	1076.88
680.92	1085.54
681.26	1091.39
681.60	1091.63
681.94	1098.65
682.28	1101.69
682.62	1093.03
682.96	1090.69
683.29	1088.58
683.63	1085.07
683.97	1073.60
684.31	1075.71
684.65	1075.48
684.99	1074.07
685.33	1077.58
685.67	1082.26
686.00	1091.16
686.34	1091.86
686.68	1092.56
687.02	1086.94
687.36	1083.43
687.70	1080.39
688.03	1071.50
688.37	1074.31
688.71	1074.07
689.05	1075.71
689.39	1080.16
689.72	1089.52
690.06	1080.39
690.40	1078.52
690.74	1082.50
691.08	1072.20
691.41	1068.92
691.75	1070.09
692.09	1071.73
692.43	1067.28
692.76	1065.65
693.10	1073.84
693.44	1086.01
693.78	1092.09
694.11	1096.78
694.45	1098.65
694.79	1101.22
695.13	1101.46
695.46	1100.75
695.80	1096.07
696.14	1094.20
696.48	1086.94
696.81	1085.54
697.15	1087.41
697.49	1076.88
697.82	1085.07
698.16	1089.05
698.50	1081.09
698.83	1070.56
699.17	1082.03
699.51	1076.18
699.84	1070.80
700.18	1073.84
700.52	1082.73
700.85	1078.28
701.19	1082.73
701.53	1073.60
701.86	1072.43
702.20	1071.03
702.54	1082.73
702.87	1080.63
703.21	1085.31
703.55	1076.18
703.88	1074.54
704.22	1073.37
704.55	1069.86
704.89	1079.46
705.23	1091.63
705.56	1095.84
705.90	1093.03
706.23	1090.92
706.57	1086.94
706.91	1090.69
707.24	1083.43
707.58	1081.56
707.91	1081.33
708.25	1086.94
708.58	1076.88
708.92	1085.31
709.26	1083.20
709.59	1088.35
709.93	1083.43
710.26	1082.26
710.60	1076.65
710.93	1082.97
711.27	1077.11
711.60	1080.16
711.94	1086.01
712.27	1080.63
712.61	1081.80
712.94	1080.86
713.28	1068.69
713.61	1063.77
713.95	1073.14
714.28	1074.07
714.62	1076.18
714.95	1087.65
715.29	1093.97
715.62	1089.29
715.96	1079.22
716.29	1082.26
716.63	1082.73
716.96	1079.69
717.29	1083.67
717.63	1088.58
717.96	1087.65
718.30	1091.63
718.63	1084.60
718.97	1088.58
719.30	1088.58
719.63	1090.46
719.97	1088.35
720.30	1104.73
720.64	1094.67
720.97	1100.05
721.30	1104.03
721.64	1098.65
721.97	1088.58
722.31	1097.95
722.64	1095.37
722.97	1073.84
723.31	1081.09
723.64	1087.65
723.97	1079.22
724.31	1071.73
724.64	1092.33
724.98	1089.52
725.31	1089.29
725.64	1107.07
725.98	1113.39
726.31	1111.29
726.64	1102.63
726.97	1100.52
727.31	1086.71
727.64	1075.94
727.97	1066.11
728.31	1076.41
728.64	1069.62
728.97	1070.09
729.31	1069.86
729.64	1074.77
729.97	1070.56
730.30	1070.09
730.64	1067.05
730.97	1078.05
731.30	1088.35
731.63	1094.90
731.97	1097.48
732.30	1095.14
732.63	1084.60
732.96	1078.99
733.30	1071.73
733.63	1073.14
733.96	1072.20
734.29	1077.58
734.63	1082.03
734.96	1083.67
735.29	1089.75
735.62	1083.67
735.95	1083.20
736.29	1078.28
736.62	1071.73
736.95	1066.11
737.28	1074.54
737.61	1082.26
737.94	1082.97
738.28	1079.46
738.61	1086.01
738.94	1088.58
739.27	1082.50
739.60	1077.11
739.93	1084.60
740.27	1085.07
740.60	1090.22
740.93	1094.20
741.26	1100.52
741.59	1098.65
741.92	1083.90
742.25	1071.73
742.58	1063.77
742.91	1063.31
743.25	1069.16
743.58	1084.84
743.91	1082.73
744.24	1092.80
744.57	1090.46
744.90	1095.84
745.23	1084.60
745.56	1096.31
745.89	1100.75
746.22	1100.52
746.55	1082.03
746.88	1081.09
747.21	1067.99
747.54	1050.20
747.87	1056.52
748.20	1066.11
748.53	1074.31
748.87	1083.90
749.20	1087.65
749.53	1072.90
749.86	1065.88
750.19	1062.84
750.52	1062.37
750.85	1060.50
751.18	1071.97
751.51	1078.75
751.84	1071.73
752.16	1067.99
752.49	1075.71
752.82	1089.05
753.15	1092.09
753.48	1099.35
753.81	1100.29
754.14	1102.63
754.47	1086.94
754.80	1079.69
755.13	1075.24
755.46	1076.88
755.79	1074.54
756.12	1081.56
756.45	1082.26
756.78	1091.39
757.11	1083.43
757.43	1082.03
757.76	1077.58
758.09	1080.63
758.42	1075.71
758.75	1090.46
759.08	1089.29
759.41	1086.48
759.74	1089.29
760.07	1098.88
760.39	1097.24
760.72	1100.99
761.05	1104.50
761.38	1095.14
761.71	1087.65
762.04	1088.58
762.36	1081.56
762.69	1078.28
763.02	1083.43
763.35	1072.20
763.68	1075.01
764.01	1085.31
764.33	1081.09
764.66	1077.11
