SpectraSuite Data File
++++++++++++++++++++++++++++++++++++
Date: Mon Aug 26 10:24:51 PDT 2019
User: corrico
Dark Spectrum Present: No
Reference Spectrum Present: No
Number of Sampled Component Spectra: 1
Spectrometers: USB2+H06089
Integration Time (usec): 10000 (USB2+H06089)
Spectra Averaged: 2 (USB2+H06089)
Boxcar Smoothing: 2 (USB2+H06089)
Correct for Electrical Dark: No (USB2+H06089)
Strobe/Lamp Enabled: No (USB2+H06089)
Correct for Detector Non-linearity: No (USB2+H06089)
Correct for Stray Light: No (USB2+H06089)
Number of Pixels in Processed Spectrum: 2048
>>>>>Begin Processed Spectral Data<<<<<
339.70	1021.64
340.07	1021.64
340.45	984.66
340.82	961.02
341.19	932.94
341.57	905.32
341.94	897.36
342.31	893.15
342.69	889.87
343.06	891.28
343.43	896.19
343.81	901.81
344.18	901.11
344.55	905.79
344.93	909.06
345.30	915.62
345.67	918.43
346.04	935.04
346.42	938.09
346.79	952.36
347.16	968.98
347.54	981.39
347.91	981.85
348.28	997.07
348.65	998.24
349.03	991.92
349.40	1005.96
349.77	1018.37
350.14	1037.79
350.52	1048.33
350.89	1061.20
351.26	1059.09
351.63	1060.26
352.01	1060.96
352.38	1072.67
352.75	1086.01
353.12	1090.92
353.50	1092.80
353.87	1089.29
354.24	1081.09
354.61	1077.82
354.98	1078.05
355.36	1088.12
355.73	1086.24
356.10	1090.92
356.47	1088.35
356.84	1092.09
357.22	1083.67
357.59	1084.37
357.96	1083.67
358.33	1090.22
358.70	1087.18
359.08	1087.65
359.45	1086.01
359.82	1098.88
360.19	1096.07
360.56	1088.82
360.94	1089.99
361.31	1091.63
361.68	1081.09
362.05	1077.82
362.42	1082.03
362.79	1075.94
363.16	1068.45
363.54	1069.62
363.91	1073.60
364.28	1076.88
364.65	1089.99
365.02	1096.07
365.39	1097.01
365.76	1092.80
366.14	1095.60
366.51	1097.71
366.88	1110.82
367.25	1102.39
367.62	1095.37
367.99	1091.86
368.36	1087.41
368.73	1078.99
369.10	1085.54
369.48	1086.01
369.85	1085.07
370.22	1076.65
370.59	1078.99
370.96	1071.73
371.33	1079.22
371.70	1082.50
372.07	1090.69
372.44	1083.90
372.81	1095.37
373.18	1091.39
373.55	1083.20
373.93	1078.52
374.30	1074.07
374.67	1075.24
375.04	1077.82
375.41	1090.46
375.78	1098.88
376.15	1107.31
376.52	1108.95
376.89	1107.31
377.26	1111.99
377.63	1093.50
378.00	1083.90
378.37	1070.33
378.74	1065.41
379.11	1053.48
379.48	1062.14
379.85	1068.45
380.22	1075.01
380.59	1081.33
380.96	1084.37
381.33	1095.60
381.70	1094.67
382.07	1102.39
382.44	1106.61
382.81	1108.24
383.18	1108.24
383.55	1109.88
383.92	1101.46
384.29	1098.18
384.66	1098.18
385.03	1087.88
385.40	1102.16
385.77	1107.07
386.14	1109.65
386.51	1110.58
386.88	1121.35
387.25	1111.05
387.62	1110.58
387.99	1116.90
388.36	1119.95
388.73	1115.73
389.10	1119.48
389.46	1130.71
389.83	1122.75
390.20	1113.16
390.57	1115.97
390.94	1110.12
391.31	1105.20
391.68	1113.39
392.05	1121.58
392.42	1114.10
392.79	1112.69
393.16	1115.03
393.53	1112.22
393.89	1107.54
394.26	1108.01
394.63	1121.12
395.00	1117.37
395.37	1113.63
395.74	1122.52
396.11	1126.97
396.48	1129.54
396.84	1120.18
397.21	1122.75
397.58	1130.48
397.95	1140.31
398.32	1130.48
398.69	1140.31
399.06	1147.33
399.42	1137.97
399.79	1136.33
400.16	1145.22
400.53	1153.42
400.90	1155.76
401.27	1157.86
401.64	1163.95
402.00	1159.27
402.37	1170.03
402.74	1162.54
403.11	1176.82
403.48	1175.42
403.84	1190.40
404.21	1178.69
404.58	1188.29
404.95	1183.14
405.32	1193.44
405.68	1206.08
406.05	1226.21
406.42	1247.97
406.79	1264.12
407.16	1290.10
407.52	1305.78
407.89	1317.96
408.26	1342.77
408.63	1370.62
408.99	1397.53
409.36	1416.26
409.73	1446.45
410.10	1456.75
410.47	1464.71
410.83	1485.54
411.20	1525.80
411.57	1567.22
411.94	1615.91
412.30	1682.38
412.67	1729.89
413.04	1779.51
413.40	1828.43
413.77	1888.34
414.14	1940.54
414.51	1987.11
414.87	2053.12
415.24	2129.42
415.61	2212.98
415.97	2288.11
416.34	2397.64
416.71	2481.44
417.08	2583.02
417.44	2671.02
417.81	2794.83
418.18	2910.69
418.54	3045.27
418.91	3191.55
419.28	3365.22
419.64	3526.02
420.01	3711.62
420.38	3887.86
420.74	4055.21
421.11	4235.67
421.48	4419.40
421.84	4622.09
422.21	4844.44
422.58	5084.11
422.94	5358.19
423.31	5640.69
423.68	5920.85
424.04	6257.19
424.41	6561.69
424.77	6851.68
425.14	7146.12
425.51	7457.88
425.87	7778.54
426.24	8140.15
426.61	8558.64
426.97	9066.30
427.34	9518.72
427.70	10025.68
428.07	10551.84
428.44	11077.52
428.80	11542.35
429.17	12136.85
429.53	12626.25
429.90	13227.54
430.27	13748.31
430.63	14321.97
431.00	14962.58
431.36	15728.40
431.73	16336.47
432.09	17025.52
432.46	17756.71
432.83	18378.35
433.19	18959.74
433.56	19636.86
433.92	20299.93
434.29	20924.16
434.65	21663.76
435.02	22263.64
435.38	22933.74
435.75	23505.53
436.11	24169.54
436.48	24655.44
436.84	25190.72
437.21	25671.46
437.57	26179.59
437.94	26560.87
438.30	26958.76
438.67	27252.26
439.03	27423.35
439.40	27511.36
439.76	27461.27
440.13	27347.99
440.49	27255.77
440.86	26993.16
441.22	26773.39
441.59	26401.71
441.95	26020.91
442.32	25552.10
442.68	25153.50
443.05	24610.73
443.41	24170.71
443.78	23564.05
444.14	23046.32
444.51	22394.25
444.87	21924.03
445.24	21434.63
445.60	20984.54
445.96	20411.81
446.33	19934.81
446.69	19287.42
447.06	18739.97
447.42	18161.39
447.79	17657.47
448.15	17262.15
448.51	16825.88
448.88	16386.79
449.24	15975.79
449.61	15653.27
449.97	15161.76
450.33	14834.08
450.70	14392.42
451.06	14028.23
451.43	13539.06
451.79	13219.58
452.15	12856.80
452.52	12561.66
452.88	12266.51
453.24	12006.48
453.61	11767.98
453.97	11488.29
454.34	11187.06
454.70	10903.62
455.06	10620.65
455.43	10284.55
455.79	9933.23
456.15	9638.56
456.52	9300.12
456.88	9060.92
457.24	8771.86
457.61	8551.15
457.97	8307.26
458.33	8064.55
458.70	7785.56
459.06	7529.74
459.42	7296.15
459.79	7052.97
460.15	6850.28
460.51	6610.84
460.88	6397.15
461.24	6177.14
461.60	5984.52
461.96	5787.44
462.33	5658.71
462.69	5521.09
463.05	5353.27
463.42	5216.59
463.78	5094.64
464.14	4938.30
464.50	4811.44
464.87	4721.09
465.23	4607.11
465.59	4502.96
465.95	4389.44
466.32	4271.71
466.68	4182.54
467.04	4092.89
467.40	3998.81
467.77	3929.76
468.13	3879.20
468.49	3796.11
468.85	3728.47
469.22	3659.90
469.58	3587.81
469.94	3506.59
470.30	3443.86
470.66	3366.39
471.03	3316.07
471.39	3280.49
471.75	3222.92
472.11	3138.89
472.47	3097.70
472.84	3040.12
473.20	2958.20
473.56	2919.35
473.92	2884.94
474.28	2818.47
474.65	2765.58
475.01	2745.45
475.37	2678.51
475.73	2634.04
476.09	2606.89
476.45	2575.06
476.81	2522.63
477.18	2501.56
477.54	2458.03
477.90	2440.01
478.26	2404.20
478.62	2365.58
478.98	2325.79
479.34	2314.56
479.71	2270.09
480.07	2244.34
480.43	2234.28
480.79	2215.55
481.15	2179.74
481.51	2151.89
481.87	2121.23
482.23	2089.16
482.59	2061.78
482.96	2047.97
483.32	2018.71
483.68	1999.99
484.04	1977.99
484.40	1958.33
484.76	1932.11
485.12	1922.98
485.48	1900.28
485.84	1869.85
486.20	1849.02
486.56	1827.02
486.92	1810.17
487.28	1789.34
487.64	1770.85
488.00	1760.32
488.37	1747.91
488.73	1730.12
489.09	1719.36
489.45	1711.40
489.81	1697.36
490.17	1670.91
490.53	1650.31
490.89	1627.37
491.25	1616.37
491.61	1587.12
491.97	1585.24
492.33	1571.44
492.69	1562.31
493.05	1548.97
493.41	1545.69
493.77	1526.97
494.13	1529.07
494.49	1518.07
494.85	1502.86
495.21	1483.43
495.57	1486.94
495.93	1460.49
496.29	1440.13
496.64	1428.66
497.00	1422.34
497.36	1403.85
497.72	1398.47
498.08	1396.60
498.44	1390.98
498.80	1380.45
499.16	1368.51
499.52	1357.51
499.88	1362.66
500.24	1351.89
500.60	1343.94
500.96	1336.68
501.32	1338.55
501.68	1324.04
502.03	1313.51
502.39	1318.89
502.75	1316.55
503.11	1302.04
503.47	1292.68
503.83	1296.42
504.19	1274.19
504.55	1266.70
504.91	1266.23
505.26	1269.51
505.62	1262.48
505.98	1267.87
506.34	1270.91
506.70	1250.31
507.06	1236.27
507.42	1224.80
507.78	1213.80
508.13	1194.61
508.49	1201.40
508.85	1196.48
509.21	1189.93
509.57	1187.82
509.93	1197.89
510.28	1190.40
510.64	1190.40
511.00	1193.44
511.36	1194.84
511.72	1188.76
512.07	1194.84
512.43	1180.57
512.79	1179.86
513.15	1179.63
513.51	1170.74
513.86	1166.29
514.22	1178.93
514.58	1186.65
514.94	1182.67
515.30	1184.08
515.65	1177.29
516.01	1173.78
516.37	1162.31
516.73	1163.48
517.08	1159.74
517.44	1168.40
517.80	1159.74
518.16	1154.12
518.51	1144.52
518.87	1142.65
519.23	1134.46
519.59	1141.25
519.94	1144.76
520.30	1145.22
520.66	1148.97
521.01	1141.48
521.37	1143.35
521.73	1142.88
522.09	1146.63
522.44	1141.48
522.80	1152.71
523.16	1153.88
523.51	1147.33
523.87	1148.03
524.23	1146.63
524.58	1142.42
524.94	1133.76
525.30	1137.27
525.65	1135.39
526.01	1137.50
526.37	1138.90
526.72	1139.37
527.08	1123.93
527.44	1115.73
527.79	1118.07
528.15	1105.90
528.51	1095.60
528.86	1111.75
529.22	1108.01
529.58	1102.39
529.93	1107.78
530.29	1108.48
530.65	1108.01
531.00	1112.69
531.36	1111.75
531.71	1110.12
532.07	1107.78
532.43	1103.09
532.78	1107.31
533.14	1106.84
533.49	1112.69
533.85	1123.46
534.21	1122.05
534.56	1115.03
534.92	1115.27
535.27	1102.86
535.63	1108.01
535.98	1108.71
536.34	1107.54
536.69	1107.07
537.05	1118.54
537.41	1108.71
537.76	1107.78
538.12	1113.86
538.47	1114.09
538.83	1105.44
539.18	1125.56
539.54	1116.44
539.89	1107.07
540.25	1111.99
540.60	1111.99
540.96	1090.69
541.31	1098.88
541.67	1107.78
542.02	1105.67
542.38	1106.14
542.73	1105.67
543.09	1108.95
543.44	1111.05
543.80	1111.52
544.15	1116.44
544.51	1121.12
544.86	1118.07
545.22	1120.88
545.57	1120.88
545.93	1132.59
546.28	1122.52
546.64	1126.27
546.99	1122.29
547.35	1113.63
547.70	1103.09
548.05	1107.07
548.41	1110.58
548.76	1119.48
549.12	1126.03
549.47	1134.69
549.83	1139.37
550.18	1141.71
550.53	1118.78
550.89	1115.97
551.24	1100.52
551.60	1094.90
551.95	1089.52
552.30	1098.41
552.66	1100.05
553.01	1108.95
553.37	1111.75
553.72	1108.71
554.07	1105.67
554.43	1103.56
554.78	1099.35
555.13	1108.01
555.49	1110.12
555.84	1122.05
556.19	1121.58
556.55	1122.52
556.90	1115.73
557.26	1115.50
557.61	1104.50
557.96	1097.48
558.32	1094.67
558.67	1085.31
559.02	1071.03
559.37	1067.75
559.73	1079.92
560.08	1086.24
560.43	1090.46
560.79	1107.78
561.14	1114.33
561.49	1110.82
561.85	1104.03
562.20	1110.12
562.55	1096.78
562.90	1094.43
563.26	1096.31
563.61	1094.90
563.96	1093.26
564.32	1091.86
564.67	1098.65
565.02	1104.73
565.37	1111.75
565.73	1116.90
566.08	1122.99
566.43	1119.71
566.78	1119.71
567.14	1116.67
567.49	1105.44
567.84	1112.69
568.19	1113.16
568.54	1097.48
568.90	1096.07
569.25	1096.54
569.60	1084.60
569.95	1088.35
570.31	1088.58
570.66	1088.58
571.01	1090.69
571.36	1103.09
571.71	1097.71
572.06	1104.73
572.42	1104.03
572.77	1097.01
573.12	1089.75
573.47	1096.54
573.82	1097.24
574.18	1096.54
574.53	1100.99
574.88	1091.16
575.23	1086.94
575.58	1078.52
575.93	1089.75
576.28	1093.26
576.64	1104.73
576.99	1102.63
577.34	1112.69
577.69	1112.69
578.04	1112.22
578.39	1111.52
578.74	1115.97
579.09	1105.44
579.44	1100.99
579.80	1112.22
580.15	1114.56
580.50	1111.29
580.85	1114.80
581.20	1112.69
581.55	1103.09
581.90	1102.86
582.25	1095.60
582.60	1100.75
582.95	1097.48
583.30	1093.03
583.65	1093.73
584.00	1100.52
584.35	1099.35
584.71	1102.39
585.06	1097.95
585.41	1089.52
585.76	1091.16
586.11	1087.65
586.46	1082.97
586.81	1085.07
587.16	1086.48
587.51	1081.33
587.86	1087.18
588.21	1088.82
588.56	1092.80
588.91	1095.60
589.26	1090.46
589.61	1092.56
589.96	1085.07
590.31	1083.90
590.66	1077.82
591.01	1089.99
591.36	1086.01
591.71	1097.71
592.06	1102.39
592.41	1101.92
592.76	1087.88
593.10	1084.37
593.45	1080.86
593.80	1068.69
594.15	1079.92
594.50	1087.88
594.85	1089.29
595.20	1078.52
595.55	1085.77
595.90	1086.24
596.25	1095.60
596.60	1097.95
596.95	1121.82
597.30	1120.65
597.64	1164.18
597.99	1150.37
598.34	1154.12
598.69	1145.46
599.04	1159.74
599.39	1108.95
599.74	1116.44
600.09	1116.67
600.44	1115.50
600.78	1104.97
601.13	1113.16
601.48	1105.20
601.83	1103.09
602.18	1096.07
602.53	1092.80
602.88	1091.39
603.22	1096.54
603.57	1091.86
603.92	1084.60
604.27	1098.65
604.62	1096.78
604.97	1095.60
605.31	1085.07
605.66	1089.75
606.01	1077.82
606.36	1068.45
606.71	1063.77
607.05	1074.54
607.40	1074.07
607.75	1072.43
608.10	1093.73
608.44	1095.37
608.79	1104.50
609.14	1104.73
609.49	1108.48
609.84	1094.67
610.18	1098.41
610.53	1097.24
610.88	1098.18
611.23	1102.63
611.57	1105.67
611.92	1104.97
612.27	1099.58
612.62	1102.63
612.96	1090.22
613.31	1084.37
613.66	1080.63
614.00	1078.05
614.35	1077.11
614.70	1081.56
615.05	1071.03
615.39	1071.73
615.74	1069.16
616.09	1070.56
616.43	1067.28
616.78	1085.54
617.13	1091.63
617.47	1092.09
617.82	1090.22
618.17	1100.99
618.51	1104.26
618.86	1101.22
619.21	1103.09
619.55	1108.71
619.90	1108.71
620.25	1095.60
620.59	1091.86
620.94	1096.31
621.29	1085.07
621.63	1083.20
621.98	1092.56
622.32	1096.78
622.67	1093.73
623.02	1100.75
623.36	1085.31
623.71	1079.92
624.05	1082.26
624.40	1078.28
624.75	1084.84
625.09	1095.37
625.44	1099.35
625.78	1098.88
626.13	1098.65
626.48	1083.43
626.82	1079.46
627.17	1077.11
627.51	1071.97
627.86	1079.46
628.20	1091.16
628.55	1085.31
628.89	1076.65
629.24	1085.07
629.58	1082.73
629.93	1081.33
630.28	1097.24
630.62	1100.05
630.97	1096.07
631.31	1095.60
631.66	1101.92
632.00	1096.54
632.35	1099.82
632.69	1097.01
633.04	1086.01
633.38	1079.69
633.73	1080.86
634.07	1082.26
634.42	1091.86
634.76	1100.05
635.11	1100.75
635.45	1094.67
635.79	1085.54
636.14	1073.37
636.48	1075.01
636.83	1074.07
637.17	1078.05
637.52	1081.33
637.86	1078.99
638.21	1077.11
638.55	1079.69
638.89	1082.03
639.24	1084.37
639.58	1081.80
639.93	1088.58
640.27	1083.67
640.61	1077.11
640.96	1085.31
641.30	1092.33
641.65	1080.63
641.99	1087.65
642.33	1092.09
642.68	1081.56
643.02	1078.99
643.37	1085.77
643.71	1083.43
644.05	1087.65
644.40	1101.92
644.74	1102.63
645.08	1107.07
645.43	1111.99
645.77	1108.24
646.11	1094.90
646.46	1093.50
646.80	1091.16
647.14	1087.41
647.49	1086.24
647.83	1095.14
648.17	1105.90
648.52	1096.54
648.86	1092.56
649.20	1095.60
649.55	1090.69
649.89	1083.20
650.23	1085.54
650.57	1081.33
650.92	1083.67
651.26	1084.84
651.60	1086.48
651.95	1090.69
652.29	1096.07
652.63	1091.16
652.97	1096.31
653.32	1099.58
653.66	1104.03
654.00	1103.09
654.34	1097.01
654.69	1089.75
655.03	1091.39
655.37	1093.73
655.71	1092.56
656.05	1092.09
656.40	1092.33
656.74	1087.65
657.08	1092.56
657.42	1090.69
657.76	1092.33
658.11	1092.56
658.45	1085.07
658.79	1067.99
659.13	1064.01
659.47	1072.20
659.82	1069.86
660.16	1079.22
660.50	1078.75
660.84	1078.28
661.18	1077.82
661.52	1075.71
661.87	1073.84
662.21	1082.73
662.55	1083.67
662.89	1084.60
663.23	1092.56
663.57	1088.12
663.91	1080.86
664.25	1093.26
664.60	1094.43
664.94	1095.84
665.28	1092.33
665.62	1096.07
665.96	1092.56
666.30	1086.01
666.64	1089.05
666.98	1091.63
667.32	1095.14
667.66	1093.26
668.01	1089.99
668.35	1083.20
668.69	1084.84
669.03	1083.20
669.37	1074.31
669.71	1073.60
670.05	1060.50
670.39	1054.18
670.73	1055.82
671.07	1055.58
671.41	1056.52
671.75	1068.92
672.09	1090.92
672.43	1085.54
672.77	1092.80
673.11	1095.37
673.45	1095.37
673.79	1078.99
674.13	1086.24
674.47	1085.07
674.81	1086.48
675.15	1090.22
675.49	1089.29
675.83	1092.09
676.17	1102.86
676.51	1100.52
676.85	1098.88
677.19	1104.50
677.53	1095.37
677.87	1085.77
678.21	1090.22
678.55	1082.73
678.89	1081.56
679.23	1075.48
679.57	1074.31
679.90	1077.82
680.24	1083.43
680.58	1081.33
680.92	1086.71
681.26	1087.18
681.60	1081.56
681.94	1080.63
682.28	1084.37
682.62	1085.54
682.96	1086.94
683.29	1088.12
683.63	1092.09
683.97	1092.09
684.31	1098.41
684.65	1093.50
684.99	1090.92
685.33	1083.67
685.67	1078.05
686.00	1071.26
686.34	1083.43
686.68	1087.88
687.02	1091.86
687.36	1091.16
687.70	1091.63
688.03	1083.67
688.37	1081.33
688.71	1079.92
689.05	1085.54
689.39	1084.37
689.72	1081.80
690.06	1075.24
690.40	1068.69
690.74	1066.11
691.08	1071.50
691.41	1073.37
691.75	1075.01
692.09	1081.09
692.43	1077.58
692.76	1078.05
693.10	1076.88
693.44	1071.26
693.78	1067.75
694.11	1070.80
694.45	1068.69
694.79	1063.31
695.13	1070.80
695.46	1071.97
695.80	1071.73
696.14	1077.82
696.48	1089.75
696.81	1093.03
697.15	1097.71
697.49	1097.24
697.82	1092.56
698.16	1087.18
698.50	1093.73
698.83	1093.03
699.17	1093.97
699.51	1083.20
699.84	1081.33
700.18	1071.26
700.52	1069.16
700.85	1070.80
701.19	1081.56
701.53	1077.35
701.86	1077.11
702.20	1074.54
702.54	1076.18
702.87	1074.77
703.21	1074.07
703.55	1082.50
703.88	1083.90
704.22	1081.56
704.55	1082.26
704.89	1091.63
705.23	1095.14
705.56	1099.12
705.90	1114.33
706.23	1111.29
706.57	1115.50
706.91	1107.31
707.24	1098.65
707.58	1086.71
707.91	1093.73
708.25	1088.82
708.58	1086.94
708.92	1098.18
709.26	1093.50
709.59	1080.39
709.93	1075.24
710.26	1082.97
710.60	1082.50
710.93	1085.07
711.27	1101.69
711.60	1104.97
711.94	1096.07
712.27	1101.22
712.61	1103.09
712.94	1097.71
713.28	1099.12
713.61	1100.75
713.95	1100.75
714.28	1097.48
714.62	1086.24
714.95	1091.86
715.29	1089.52
715.62	1081.56
715.96	1079.69
716.29	1087.88
716.63	1080.63
716.96	1076.18
717.29	1070.56
717.63	1072.67
717.96	1074.07
718.30	1081.33
718.63	1092.33
718.97	1097.24
719.30	1097.01
719.63	1087.88
719.97	1082.26
720.30	1072.90
720.64	1073.37
720.97	1074.54
721.30	1079.69
721.64	1083.67
721.97	1094.43
722.31	1093.26
722.64	1095.14
722.97	1091.39
723.31	1086.71
723.64	1074.31
723.97	1081.80
724.31	1083.20
724.64	1096.07
724.98	1100.75
725.31	1109.18
725.64	1100.05
725.98	1098.88
726.31	1082.97
726.64	1080.63
726.97	1084.84
727.31	1078.99
727.64	1082.73
727.97	1093.97
728.31	1087.88
728.64	1092.80
728.97	1104.97
729.31	1105.90
729.64	1102.16
729.97	1115.03
730.30	1107.78
730.64	1102.39
730.97	1098.88
731.30	1093.73
731.63	1096.78
731.97	1093.50
732.30	1087.65
732.63	1082.50
732.96	1088.82
733.30	1082.97
733.63	1085.54
733.96	1094.90
734.29	1104.26
734.63	1112.46
734.96	1111.99
735.29	1102.39
735.62	1093.03
735.95	1085.77
736.29	1072.67
736.62	1064.24
736.95	1076.88
737.28	1088.12
737.61	1080.16
737.94	1085.31
738.28	1085.07
738.61	1086.71
738.94	1079.22
739.27	1086.94
739.60	1087.41
739.93	1092.80
740.27	1078.75
740.60	1083.43
740.93	1089.52
741.26	1088.58
741.59	1079.46
741.92	1083.67
742.25	1086.01
742.58	1070.33
742.91	1062.84
743.25	1075.71
743.58	1075.71
743.91	1067.28
744.24	1081.56
744.57	1085.07
744.90	1075.48
745.23	1071.26
745.56	1073.14
745.89	1068.45
746.22	1064.01
746.55	1066.35
746.88	1076.18
747.21	1079.69
747.54	1078.52
747.87	1095.60
748.20	1104.97
748.53	1097.95
748.87	1097.01
749.20	1104.50
749.53	1091.16
749.86	1079.46
750.19	1075.94
750.52	1082.03
750.85	1075.01
751.18	1074.54
751.51	1077.11
751.84	1087.65
752.16	1077.11
752.49	1072.20
752.82	1075.24
753.15	1065.41
753.48	1054.41
753.81	1066.11
754.14	1073.14
754.47	1069.86
754.80	1088.12
755.13	1091.86
755.46	1083.43
755.79	1075.48
756.12	1091.39
756.45	1086.94
756.78	1086.94
757.11	1089.29
757.43	1090.46
757.76	1079.69
758.09	1069.39
758.42	1079.46
758.75	1068.92
759.08	1072.90
759.41	1072.90
759.74	1078.75
760.07	1074.54
760.39	1088.82
760.72	1092.56
761.05	1083.67
761.38	1084.14
761.71	1078.05
762.04	1077.11
762.36	1072.43
762.69	1078.52
763.02	1075.71
763.35	1081.80
763.68	1068.69
764.01	1066.11
764.33	1068.92
764.66	1071.97
