SpectraSuite Data File
++++++++++++++++++++++++++++++++++++
Date: Mon Aug 26 10:24:54 PDT 2019
User: corrico
Dark Spectrum Present: No
Reference Spectrum Present: No
Number of Sampled Component Spectra: 1
Spectrometers: USB2+H06089
Integration Time (usec): 10000 (USB2+H06089)
Spectra Averaged: 2 (USB2+H06089)
Boxcar Smoothing: 2 (USB2+H06089)
Correct for Electrical Dark: No (USB2+H06089)
Strobe/Lamp Enabled: No (USB2+H06089)
Correct for Detector Non-linearity: No (USB2+H06089)
Correct for Stray Light: No (USB2+H06089)
Number of Pixels in Processed Spectrum: 2048
>>>>>Begin Processed Spectral Data<<<<<
339.70	1042.71
340.07	1042.71
340.45	999.41
340.82	983.26
341.19	956.34
341.57	931.07
341.94	923.58
342.31	910.94
342.69	899.23
343.06	902.74
343.43	900.40
343.81	912.11
344.18	913.51
344.55	921.00
344.93	926.38
345.30	929.89
345.67	927.79
346.04	941.13
346.42	938.55
346.79	938.55
347.16	949.09
347.54	962.90
347.91	968.28
348.28	982.79
348.65	997.77
349.03	1010.18
349.40	1007.13
349.77	1013.45
350.14	1026.79
350.52	1035.22
350.89	1043.18
351.26	1052.54
351.63	1065.88
352.01	1070.56
352.38	1071.73
352.75	1071.03
353.12	1077.58
353.50	1071.73
353.87	1067.99
354.24	1070.09
354.61	1064.24
354.98	1057.22
355.36	1061.43
355.73	1056.75
356.10	1045.28
356.47	1058.86
356.84	1063.07
357.22	1066.58
357.59	1077.82
357.96	1101.92
358.33	1099.82
358.70	1109.18
359.08	1110.35
359.45	1105.44
359.82	1089.05
360.19	1086.71
360.56	1086.71
360.94	1078.99
361.31	1072.67
361.68	1074.07
362.05	1056.05
362.42	1049.73
362.79	1044.82
363.16	1049.73
363.54	1059.79
363.91	1072.90
364.28	1073.37
364.65	1083.43
365.02	1077.82
365.39	1070.33
365.76	1071.73
366.14	1078.99
366.51	1077.35
366.88	1090.69
367.25	1091.16
367.62	1091.16
367.99	1076.41
368.36	1072.90
368.73	1068.69
369.10	1071.03
369.48	1083.20
369.85	1093.73
370.22	1098.88
370.59	1102.39
370.96	1103.56
371.33	1093.26
371.70	1089.29
372.07	1081.33
372.44	1077.35
372.81	1072.20
373.18	1077.35
373.55	1085.77
373.93	1090.46
374.30	1085.77
374.67	1092.56
375.04	1086.24
375.41	1085.31
375.78	1090.92
376.15	1093.97
376.52	1090.46
376.89	1097.71
377.26	1099.58
377.63	1099.35
378.00	1098.18
378.37	1100.29
378.74	1096.31
379.11	1095.84
379.48	1098.65
379.85	1106.84
380.22	1114.10
380.59	1106.61
380.96	1101.22
381.33	1088.82
381.70	1080.39
382.07	1066.82
382.44	1080.39
382.81	1085.07
383.18	1096.78
383.55	1089.75
383.92	1092.56
384.29	1085.07
384.66	1086.71
385.03	1078.52
385.40	1089.05
385.77	1081.80
386.14	1084.14
386.51	1073.60
386.88	1085.07
387.25	1084.37
387.62	1101.69
387.99	1105.67
388.36	1121.12
388.73	1124.63
389.10	1125.80
389.46	1121.58
389.83	1117.37
390.20	1107.07
390.57	1092.80
390.94	1095.37
391.31	1090.46
391.68	1095.14
392.05	1097.24
392.42	1107.07
392.79	1105.90
393.16	1111.52
393.53	1111.29
393.89	1112.22
394.26	1104.50
394.63	1105.44
395.00	1100.99
395.37	1099.12
395.74	1103.33
396.11	1107.31
396.48	1111.52
396.84	1112.92
397.21	1120.65
397.58	1121.12
397.95	1121.58
398.32	1123.69
398.69	1120.65
399.06	1128.37
399.42	1132.12
399.79	1141.48
400.16	1142.18
400.53	1155.05
400.90	1143.82
401.27	1141.01
401.64	1141.71
402.00	1142.42
402.37	1146.63
402.74	1156.93
403.11	1167.46
403.48	1177.76
403.84	1188.06
404.21	1195.78
404.58	1201.87
404.95	1206.55
405.32	1207.25
405.68	1219.65
406.05	1231.59
406.42	1244.93
406.79	1259.21
407.16	1282.15
407.52	1284.02
407.89	1296.89
408.26	1306.25
408.63	1321.93
408.99	1321.47
409.36	1346.98
409.73	1368.28
410.10	1394.26
410.47	1421.41
410.83	1460.96
411.20	1505.20
411.57	1537.73
411.94	1573.54
412.30	1614.27
412.67	1666.23
413.04	1700.40
413.40	1745.81
413.77	1800.57
414.14	1857.22
414.51	1908.24
414.87	1973.07
415.24	2039.78
415.61	2106.95
415.97	2176.93
416.34	2251.60
416.71	2326.49
417.08	2416.60
417.44	2517.48
417.81	2635.68
418.18	2748.49
418.54	2874.41
418.91	3005.72
419.28	3137.02
419.64	3266.45
420.01	3420.46
420.38	3569.32
420.74	3717.71
421.11	3899.80
421.48	4072.30
421.84	4260.71
422.21	4474.40
422.58	4706.12
422.94	4936.66
423.31	5151.29
423.68	5390.96
424.04	5637.18
424.41	5872.40
424.77	6114.42
425.14	6435.54
425.51	6753.15
425.87	7097.21
426.24	7460.46
426.61	7853.43
426.97	8278.47
427.34	8680.11
427.70	9124.11
428.07	9562.26
428.44	10033.88
428.80	10475.30
429.17	10953.94
429.53	11421.11
429.90	11996.18
430.27	12497.76
430.63	13003.78
431.00	13624.26
431.36	14314.48
431.73	14876.21
432.09	15509.09
432.46	16182.46
432.83	16740.45
433.19	17223.53
433.56	17836.05
433.92	18421.42
434.29	18993.21
434.65	19609.94
435.02	20204.91
435.38	20787.94
435.75	21271.02
436.11	21895.01
436.48	22360.31
436.84	22917.82
437.21	23336.78
437.57	23740.05
437.94	24007.58
438.30	24428.87
438.67	24566.73
439.03	24734.31
439.40	24912.66
439.76	24872.40
440.13	24707.63
440.49	24649.12
440.86	24353.27
441.22	24104.94
441.59	23826.19
441.95	23497.11
442.32	23010.98
442.68	22699.69
443.05	22204.90
443.41	21714.79
443.78	21135.51
444.14	20618.25
444.51	20011.58
444.87	19595.20
445.24	19136.69
445.60	18755.88
445.96	18293.63
446.33	17901.35
446.69	17340.80
447.06	16859.11
447.42	16313.30
447.79	15874.68
448.15	15454.09
448.51	15050.35
448.88	14705.82
449.24	14320.10
449.61	14040.41
449.97	13730.75
450.33	13411.50
450.70	13002.85
451.06	12695.30
451.43	12225.79
451.79	11812.68
452.15	11494.60
452.52	11219.12
452.88	10982.03
453.24	10806.02
453.61	10627.90
453.97	10376.06
454.34	10128.67
454.70	9882.91
455.06	9613.28
455.43	9318.61
455.79	8969.40
456.15	8668.41
456.52	8339.56
456.88	8101.30
457.24	7826.28
457.61	7669.94
457.97	7479.18
458.33	7280.00
458.70	7049.23
459.06	6835.77
459.42	6624.89
459.79	6379.36
460.15	6168.48
460.51	5975.86
460.88	5772.00
461.24	5590.84
461.60	5478.49
461.96	5357.95
462.33	5213.31
462.69	5083.64
463.05	4929.17
463.42	4772.82
463.78	4634.49
464.14	4523.79
464.50	4430.40
464.87	4330.23
465.23	4238.24
465.59	4179.03
465.95	4067.38
466.32	3974.46
466.68	3907.29
467.04	3809.69
467.40	3691.96
467.77	3621.04
468.13	3559.95
468.49	3479.67
468.85	3426.31
469.22	3369.44
469.58	3322.86
469.94	3254.98
470.30	3192.26
470.66	3137.49
471.03	3100.98
471.39	3035.21
471.75	2973.88
472.11	2922.39
472.47	2882.84
472.84	2815.66
473.20	2754.81
473.56	2717.13
473.92	2670.79
474.28	2620.46
474.65	2585.82
475.01	2554.23
475.37	2500.63
475.73	2465.99
476.09	2429.94
476.45	2395.30
476.81	2361.83
477.18	2338.43
477.54	2307.07
477.90	2283.66
478.26	2242.23
478.62	2230.53
478.98	2207.59
479.34	2195.42
479.71	2170.61
480.07	2155.63
480.43	2115.14
480.79	2090.33
481.15	2050.08
481.51	2013.56
481.87	1995.07
482.23	1980.80
482.59	1954.11
482.96	1945.69
483.32	1941.01
483.68	1911.28
484.04	1895.60
484.40	1874.77
484.76	1843.64
485.12	1825.15
485.48	1807.83
485.84	1789.57
486.20	1774.36
486.56	1763.36
486.92	1734.10
487.28	1718.19
487.64	1705.78
488.00	1693.85
488.37	1681.21
488.73	1666.93
489.09	1653.82
489.45	1610.52
489.81	1594.14
490.17	1568.63
490.53	1559.50
490.89	1551.54
491.25	1559.03
491.61	1545.22
491.97	1544.29
492.33	1531.41
492.69	1518.77
493.05	1505.67
493.41	1502.39
493.77	1496.77
494.13	1478.05
494.49	1461.90
494.85	1450.43
495.21	1441.54
495.57	1421.64
495.93	1416.26
496.29	1406.66
496.64	1394.02
497.00	1382.32
497.36	1383.02
497.72	1377.64
498.08	1369.45
498.44	1363.60
498.80	1347.21
499.16	1329.42
499.52	1315.85
499.88	1308.83
500.24	1301.10
500.60	1308.83
500.96	1302.98
501.32	1295.02
501.68	1285.42
502.03	1288.00
502.39	1277.00
502.75	1273.02
503.11	1272.32
503.47	1270.91
503.83	1273.72
504.19	1257.34
504.55	1255.70
504.91	1257.80
505.26	1251.95
505.62	1235.57
505.98	1237.91
506.34	1233.23
506.70	1222.70
507.06	1218.48
507.42	1201.16
507.78	1200.69
508.13	1195.08
508.49	1199.29
508.85	1197.18
509.21	1210.53
509.57	1198.59
509.93	1193.91
510.28	1185.72
510.64	1181.27
511.00	1164.88
511.36	1178.46
511.72	1185.25
512.07	1182.44
512.43	1174.48
512.79	1183.61
513.15	1165.82
513.51	1157.63
513.86	1146.39
514.22	1161.14
514.58	1161.61
514.94	1168.16
515.30	1165.12
515.65	1165.59
516.01	1142.88
516.37	1134.93
516.73	1127.67
517.08	1124.16
517.44	1131.18
517.80	1138.90
518.16	1137.03
518.51	1134.69
518.87	1138.44
519.23	1130.01
519.59	1122.75
519.94	1121.82
520.30	1115.97
520.66	1107.07
521.01	1106.84
521.37	1120.18
521.73	1131.18
522.09	1137.97
522.44	1143.35
522.80	1153.42
523.16	1148.27
523.51	1134.93
523.87	1138.44
524.23	1138.90
524.58	1135.39
524.94	1128.61
525.30	1139.61
525.65	1137.03
526.01	1129.07
526.37	1119.95
526.72	1130.48
527.08	1135.16
527.44	1131.18
527.79	1128.14
528.15	1137.97
528.51	1133.52
528.86	1125.10
529.22	1118.07
529.58	1118.07
529.93	1107.31
530.29	1095.84
530.65	1080.86
531.00	1081.09
531.36	1083.67
531.71	1097.24
532.07	1104.50
532.43	1116.90
532.78	1119.48
533.14	1121.12
533.49	1108.71
533.85	1120.88
534.21	1117.37
534.56	1121.58
534.92	1136.80
535.27	1139.61
535.63	1133.29
535.98	1134.22
536.34	1123.69
536.69	1101.22
537.05	1095.37
537.41	1086.01
537.76	1093.03
538.12	1102.16
538.47	1118.31
538.83	1133.29
539.18	1135.39
539.54	1135.16
539.89	1135.86
540.25	1126.03
540.60	1111.99
540.96	1114.10
541.31	1106.84
541.67	1109.41
542.02	1102.39
542.38	1106.84
542.73	1109.65
543.09	1112.69
543.44	1098.18
543.80	1111.75
544.15	1113.86
544.51	1124.63
544.86	1120.18
545.22	1129.31
545.57	1121.82
545.93	1115.97
546.28	1095.84
546.64	1093.26
546.99	1094.20
547.35	1093.26
547.70	1092.80
548.05	1103.80
548.41	1108.95
548.76	1111.52
549.12	1110.58
549.47	1108.48
549.83	1095.37
550.18	1092.09
550.53	1091.63
550.89	1087.88
551.24	1090.69
551.60	1103.33
551.95	1108.01
552.30	1113.86
552.66	1116.67
553.01	1115.97
553.37	1105.67
553.72	1105.20
554.07	1087.88
554.43	1088.82
554.78	1095.60
555.13	1097.01
555.49	1102.39
555.84	1111.29
556.19	1118.78
556.55	1116.20
556.90	1113.63
557.26	1100.52
557.61	1095.60
557.96	1080.86
558.32	1076.18
558.67	1071.03
559.02	1065.18
559.37	1070.09
559.73	1080.63
560.08	1076.18
560.43	1087.18
560.79	1102.63
561.14	1099.82
561.49	1099.58
561.85	1109.88
562.20	1105.67
562.55	1093.26
562.90	1100.52
563.26	1095.14
563.61	1089.75
563.96	1092.33
564.32	1096.54
564.67	1094.43
565.02	1094.90
565.37	1097.48
565.73	1090.22
566.08	1094.90
566.43	1092.56
566.78	1097.71
567.14	1090.69
567.49	1104.26
567.84	1101.69
568.19	1097.01
568.54	1099.12
568.90	1108.95
569.25	1095.84
569.60	1086.71
569.95	1097.48
570.31	1097.24
570.66	1082.73
571.01	1085.31
571.36	1097.48
571.71	1092.80
572.06	1090.46
572.42	1101.22
572.77	1091.16
573.12	1088.12
573.47	1074.54
573.82	1074.77
574.18	1079.46
574.53	1094.43
574.88	1097.48
575.23	1106.37
575.58	1100.29
575.93	1096.07
576.28	1094.43
576.64	1094.20
576.99	1096.78
577.34	1103.33
577.69	1100.52
578.04	1102.63
578.39	1098.88
578.74	1093.97
579.09	1097.71
579.44	1100.29
579.80	1093.03
580.15	1095.14
580.50	1092.80
580.85	1091.86
581.20	1088.35
581.55	1099.82
581.90	1103.33
582.25	1107.54
582.60	1105.90
582.95	1115.50
583.30	1110.58
583.65	1098.88
584.00	1094.90
584.35	1097.48
584.71	1091.86
585.06	1087.41
585.41	1099.82
585.76	1109.88
586.11	1105.44
586.46	1114.33
586.81	1119.95
587.16	1110.35
587.51	1102.86
587.86	1111.05
588.21	1093.50
588.56	1089.52
588.91	1094.67
589.26	1098.41
589.61	1087.18
589.96	1091.86
590.31	1087.18
590.66	1074.31
591.01	1077.11
591.36	1078.99
591.71	1082.73
592.06	1094.67
592.41	1097.24
592.76	1098.65
593.10	1094.90
593.45	1090.22
593.80	1090.46
594.15	1091.63
594.50	1073.37
594.85	1077.58
595.20	1080.86
595.55	1074.54
595.90	1082.97
596.25	1093.50
596.60	1099.12
596.95	1092.09
597.30	1096.54
597.64	1135.16
597.99	1137.97
598.34	1141.01
598.69	1146.63
599.04	1144.76
599.39	1110.12
599.74	1108.48
600.09	1104.50
600.44	1101.92
600.78	1103.80
601.13	1094.90
601.48	1097.01
601.83	1086.01
602.18	1088.82
602.53	1086.24
602.88	1091.16
603.22	1089.75
603.57	1099.58
603.92	1092.09
604.27	1088.12
604.62	1086.71
604.97	1086.94
605.31	1086.94
605.66	1095.37
606.01	1098.18
606.36	1090.92
606.71	1080.86
607.05	1075.24
607.40	1073.60
607.75	1069.39
608.10	1076.18
608.44	1087.18
608.79	1092.09
609.14	1092.33
609.49	1098.65
609.84	1102.63
610.18	1104.97
610.53	1099.82
610.88	1099.35
611.23	1088.58
611.57	1089.29
611.92	1094.43
612.27	1109.18
612.62	1112.22
612.96	1123.93
613.31	1124.16
613.66	1113.63
614.00	1106.14
614.35	1108.24
614.70	1100.29
615.05	1108.71
615.39	1106.14
615.74	1097.01
616.09	1100.75
616.43	1108.95
616.78	1092.56
617.13	1094.90
617.47	1095.84
617.82	1086.71
618.17	1080.16
618.51	1082.03
618.86	1087.18
619.21	1097.95
619.55	1097.71
619.90	1103.33
620.25	1092.56
620.59	1073.84
620.94	1064.01
621.29	1072.20
621.63	1068.22
621.98	1080.16
622.32	1095.37
622.67	1092.80
623.02	1081.80
623.36	1087.18
623.71	1090.69
624.05	1095.84
624.40	1091.63
624.75	1087.41
625.09	1078.75
625.44	1089.29
625.78	1087.41
626.13	1099.35
626.48	1112.69
626.82	1109.65
627.17	1088.35
627.51	1094.20
627.86	1089.05
628.20	1080.63
628.55	1080.86
628.89	1090.92
629.24	1083.90
629.58	1091.16
629.93	1085.07
630.28	1088.82
630.62	1093.97
630.97	1096.54
631.31	1098.41
631.66	1106.84
632.00	1111.05
632.35	1101.22
632.69	1103.09
633.04	1103.33
633.38	1103.56
633.73	1101.92
634.07	1102.86
634.42	1089.29
634.76	1088.58
635.11	1089.75
635.45	1083.67
635.79	1080.86
636.14	1091.16
636.48	1091.39
636.83	1097.48
637.17	1105.44
637.52	1111.52
637.86	1116.90
638.21	1111.29
638.55	1101.92
638.89	1102.39
639.24	1093.03
639.58	1085.77
639.93	1089.05
640.27	1080.16
640.61	1077.82
640.96	1078.75
641.30	1072.43
641.65	1064.71
641.99	1072.67
642.33	1067.05
642.68	1077.82
643.02	1083.20
643.37	1091.63
643.71	1090.22
644.05	1101.22
644.40	1096.54
644.74	1096.78
645.08	1095.84
645.43	1103.09
645.77	1103.80
646.11	1103.09
646.46	1101.69
646.80	1097.71
647.14	1090.69
647.49	1076.41
647.83	1070.09
648.17	1068.69
648.52	1068.92
648.86	1068.69
649.20	1078.75
649.55	1086.01
649.89	1094.43
650.23	1089.29
650.57	1093.50
650.92	1086.48
651.26	1082.50
651.60	1077.82
651.95	1076.18
652.29	1077.35
652.63	1077.82
652.97	1075.94
653.32	1071.26
653.66	1076.18
654.00	1079.92
654.34	1087.65
654.69	1096.54
655.03	1097.71
655.37	1099.12
655.71	1094.20
656.05	1086.48
656.40	1077.58
656.74	1084.60
657.08	1084.84
657.42	1084.37
657.76	1087.18
658.11	1095.60
658.45	1090.46
658.79	1096.78
659.13	1089.52
659.47	1089.05
659.82	1093.97
660.16	1101.46
660.50	1095.60
660.84	1100.05
661.18	1097.95
661.52	1089.05
661.87	1084.14
662.21	1082.03
662.55	1085.07
662.89	1079.22
663.23	1075.71
663.57	1073.37
663.91	1071.50
664.25	1068.22
664.60	1071.03
664.94	1081.56
665.28	1082.50
665.62	1083.20
665.96	1087.88
666.30	1096.31
666.64	1087.18
666.98	1087.41
667.32	1086.71
667.66	1085.54
668.01	1093.73
668.35	1099.12
668.69	1093.73
669.03	1086.01
669.37	1084.37
669.71	1073.84
670.05	1068.92
670.39	1071.73
670.73	1085.54
671.07	1089.29
671.41	1082.50
671.75	1084.14
672.09	1086.94
672.43	1074.54
672.77	1067.28
673.11	1069.39
673.45	1072.90
673.79	1070.09
674.13	1078.05
674.47	1082.50
674.81	1086.48
675.15	1082.26
675.49	1080.39
675.83	1078.05
676.17	1078.99
676.51	1085.07
676.85	1086.24
677.19	1090.92
677.53	1089.29
677.87	1095.60
678.21	1089.29
678.55	1086.94
678.89	1090.22
679.23	1090.22
679.57	1090.92
679.90	1088.82
680.24	1091.16
680.58	1082.03
680.92	1081.33
681.26	1062.14
681.60	1063.31
681.94	1056.52
682.28	1070.56
682.62	1072.20
682.96	1081.80
683.29	1083.67
683.63	1090.69
683.97	1079.69
684.31	1078.05
684.65	1078.75
684.99	1084.84
685.33	1086.48
685.67	1085.77
686.00	1078.52
686.34	1072.43
686.68	1072.20
687.02	1069.39
687.36	1067.52
687.70	1078.99
688.03	1093.26
688.37	1090.92
688.71	1093.26
689.05	1097.48
689.39	1088.82
689.72	1086.01
690.06	1076.88
690.40	1078.75
690.74	1076.18
691.08	1079.22
691.41	1089.05
691.75	1100.99
692.09	1082.97
692.43	1090.46
692.76	1101.69
693.10	1090.46
693.44	1078.99
693.78	1082.97
694.11	1082.73
694.45	1079.69
694.79	1066.35
695.13	1076.65
695.46	1091.39
695.80	1086.01
696.14	1080.39
696.48	1084.14
696.81	1080.39
697.15	1072.20
697.49	1066.58
697.82	1066.58
698.16	1068.45
698.50	1063.77
698.83	1071.97
699.17	1077.11
699.51	1076.41
699.84	1085.31
700.18	1096.31
700.52	1097.71
700.85	1094.67
701.19	1099.35
701.53	1091.86
701.86	1086.24
702.20	1086.01
702.54	1091.63
702.87	1093.97
703.21	1092.80
703.55	1086.94
703.88	1090.22
704.22	1086.01
704.55	1091.63
704.89	1091.39
705.23	1099.82
705.56	1090.69
705.90	1105.90
706.23	1102.63
706.57	1099.12
706.91	1099.82
707.24	1101.69
707.58	1090.92
707.91	1082.50
708.25	1081.80
708.58	1083.43
708.92	1085.07
709.26	1081.09
709.59	1083.67
709.93	1097.48
710.26	1085.31
710.60	1082.26
710.93	1085.31
711.27	1087.18
711.60	1081.56
711.94	1084.60
712.27	1089.29
712.61	1092.33
712.94	1090.92
713.28	1098.65
713.61	1102.86
713.95	1106.61
714.28	1100.05
714.62	1099.82
714.95	1091.16
715.29	1082.73
715.62	1077.58
715.96	1071.50
716.29	1067.05
716.63	1070.33
716.96	1070.09
717.29	1062.37
717.63	1072.43
717.96	1077.11
718.30	1078.99
718.63	1089.52
718.97	1094.90
719.30	1091.39
719.63	1097.24
719.97	1095.84
720.30	1083.67
720.64	1081.56
720.97	1076.88
721.30	1058.62
721.64	1052.77
721.97	1060.73
722.31	1062.60
722.64	1074.31
722.97	1086.71
723.31	1091.16
723.64	1085.07
723.97	1087.65
724.31	1075.01
724.64	1082.03
724.98	1082.26
725.31	1093.26
725.64	1080.63
725.98	1085.54
726.31	1073.37
726.64	1065.88
726.97	1057.45
727.31	1061.20
727.64	1061.20
727.97	1064.24
728.31	1074.07
728.64	1073.14
728.97	1076.65
729.31	1073.60
729.64	1065.88
729.97	1053.48
730.30	1062.37
730.64	1060.96
730.97	1069.62
731.30	1080.39
731.63	1082.26
731.97	1077.82
732.30	1081.09
732.63	1073.37
732.96	1074.54
733.30	1086.71
733.63	1085.07
733.96	1085.54
734.29	1086.24
734.63	1077.11
734.96	1072.90
735.29	1073.37
735.62	1072.67
735.95	1073.14
736.29	1079.22
736.62	1078.28
736.95	1087.41
737.28	1090.46
737.61	1083.20
737.94	1087.18
738.28	1086.94
738.61	1070.56
738.94	1075.94
739.27	1085.31
739.60	1091.16
739.93	1100.29
740.27	1106.14
740.60	1099.82
740.93	1096.54
741.26	1086.24
741.59	1069.62
741.92	1074.07
742.25	1068.45
742.58	1077.58
742.91	1082.26
743.25	1080.86
743.58	1070.33
743.91	1070.56
744.24	1068.22
744.57	1062.14
744.90	1069.39
745.23	1065.41
745.56	1072.43
745.89	1064.71
746.22	1069.16
746.55	1070.33
746.88	1077.82
747.21	1067.28
747.54	1076.18
747.87	1075.01
748.20	1073.60
748.53	1074.77
748.87	1085.07
749.20	1084.60
749.53	1090.22
749.86	1094.20
750.19	1096.31
750.52	1090.69
750.85	1089.05
751.18	1083.43
751.51	1084.60
751.84	1082.50
752.16	1079.69
752.49	1084.14
752.82	1082.73
753.15	1073.37
753.48	1078.05
753.81	1092.80
754.14	1078.28
754.47	1077.11
754.80	1078.52
755.13	1076.41
755.46	1064.94
755.79	1072.43
756.12	1072.20
756.45	1077.82
756.78	1079.22
757.11	1070.80
757.43	1069.39
757.76	1065.41
758.09	1066.35
758.42	1071.50
758.75	1073.37
759.08	1079.22
759.41	1088.35
759.74	1086.94
760.07	1082.97
760.39	1093.97
760.72	1081.56
761.05	1082.73
761.38	1078.28
761.71	1073.84
762.04	1065.18
762.36	1079.22
762.69	1075.01
763.02	1083.43
763.35	1084.14
763.68	1090.92
764.01	1083.67
764.33	1077.35
764.66	1072.67
