SpectraSuite Data File
++++++++++++++++++++++++++++++++++++
Date: Mon Aug 26 10:24:51 PDT 2019
User: corrico
Dark Spectrum Present: No
Reference Spectrum Present: No
Number of Sampled Component Spectra: 1
Spectrometers: USB2+H06089
Integration Time (usec): 10000 (USB2+H06089)
Spectra Averaged: 2 (USB2+H06089)
Boxcar Smoothing: 2 (USB2+H06089)
Correct for Electrical Dark: No (USB2+H06089)
Strobe/Lamp Enabled: No (USB2+H06089)
Correct for Detector Non-linearity: No (USB2+H06089)
Correct for Stray Light: No (USB2+H06089)
Number of Pixels in Processed Spectrum: 2048
>>>>>Begin Processed Spectral Data<<<<<
339.70	1031.01
340.07	1031.01
340.45	1007.60
340.82	986.54
341.19	965.24
341.57	956.11
341.94	935.75
342.31	930.13
342.69	919.83
343.06	910.70
343.43	895.25
343.81	896.43
344.18	895.25
344.55	903.45
344.93	912.11
345.30	917.72
345.67	925.21
346.04	925.92
346.42	927.09
346.79	935.75
347.16	947.92
347.54	956.58
347.91	980.92
348.28	996.37
348.65	1009.47
349.03	1024.22
349.40	1034.05
349.77	1034.28
350.14	1041.30
350.52	1044.11
350.89	1045.99
351.26	1048.33
351.63	1052.07
352.01	1061.90
352.38	1073.14
352.75	1074.07
353.12	1087.65
353.50	1095.84
353.87	1096.54
354.24	1095.14
354.61	1091.63
354.98	1091.63
355.36	1096.78
355.73	1093.97
356.10	1090.92
356.47	1090.22
356.84	1086.24
357.22	1083.43
357.59	1079.69
357.96	1088.82
358.33	1094.20
358.70	1086.71
359.08	1078.99
359.45	1084.84
359.82	1071.73
360.19	1080.16
360.56	1093.73
360.94	1105.44
361.31	1113.16
361.68	1123.46
362.05	1108.01
362.42	1093.97
362.79	1082.03
363.16	1081.56
363.54	1074.54
363.91	1089.29
364.28	1101.69
364.65	1104.26
365.02	1097.24
365.39	1092.33
365.76	1083.90
366.14	1083.43
366.51	1080.39
366.88	1080.63
367.25	1081.80
367.62	1086.01
367.99	1077.11
368.36	1085.31
368.73	1086.24
369.10	1085.54
369.48	1077.11
369.85	1083.67
370.22	1080.86
370.59	1086.24
370.96	1093.97
371.33	1100.29
371.70	1099.58
372.07	1100.29
372.44	1094.90
372.81	1092.33
373.18	1091.63
373.55	1091.86
373.93	1087.65
374.30	1077.82
374.67	1086.94
375.04	1082.03
375.41	1075.24
375.78	1076.65
376.15	1089.29
376.52	1088.35
376.89	1095.84
377.26	1099.12
377.63	1093.73
378.00	1089.52
378.37	1081.56
378.74	1078.28
379.11	1073.60
379.48	1078.28
379.85	1089.75
380.22	1091.16
380.59	1093.97
380.96	1099.58
381.33	1104.03
381.70	1099.58
382.07	1097.48
382.44	1095.84
382.81	1087.18
383.18	1089.99
383.55	1082.73
383.92	1084.14
384.29	1091.39
384.66	1101.69
385.03	1103.09
385.40	1103.09
385.77	1099.82
386.14	1093.26
386.51	1097.01
386.88	1079.46
387.25	1093.97
387.62	1103.80
387.99	1100.29
388.36	1093.73
388.73	1108.01
389.10	1096.78
389.46	1099.82
389.83	1113.39
390.20	1112.69
390.57	1114.56
390.94	1129.31
391.31	1131.18
391.68	1114.80
392.05	1123.46
392.42	1122.29
392.79	1105.67
393.16	1098.18
393.53	1108.95
393.89	1111.75
394.26	1111.99
394.63	1123.93
395.00	1127.67
395.37	1124.86
395.74	1122.29
396.11	1128.14
396.48	1125.80
396.84	1123.22
397.21	1129.07
397.58	1134.46
397.95	1136.33
398.32	1135.39
398.69	1139.61
399.06	1138.67
399.42	1130.48
399.79	1137.50
400.16	1145.69
400.53	1148.27
400.90	1153.88
401.27	1170.03
401.64	1165.12
402.00	1168.16
402.37	1186.89
402.74	1192.97
403.11	1193.67
403.48	1196.72
403.84	1194.61
404.21	1188.99
404.58	1189.23
404.95	1193.44
405.32	1206.08
405.68	1210.06
406.05	1219.19
406.42	1232.76
406.79	1255.00
407.16	1270.68
407.52	1298.30
407.89	1308.36
408.26	1331.30
408.63	1346.98
408.99	1361.96
409.36	1375.30
409.73	1401.04
410.10	1421.64
410.47	1446.45
410.83	1472.43
411.20	1514.09
411.57	1551.54
411.94	1594.37
412.30	1638.14
412.67	1683.31
413.04	1717.49
413.40	1785.59
413.77	1845.28
414.14	1905.90
414.51	1971.90
414.87	2040.95
415.24	2098.29
415.61	2175.06
415.97	2254.64
416.34	2339.13
416.71	2428.07
417.08	2522.40
417.44	2615.08
417.81	2723.45
418.18	2851.94
418.54	2983.48
418.91	3122.51
419.28	3249.60
419.64	3392.84
420.01	3551.53
420.38	3712.56
420.74	3877.33
421.11	4096.87
421.48	4317.82
421.84	4513.02
422.21	4732.33
422.58	4983.00
422.94	5217.05
423.31	5431.68
423.68	5714.42
424.04	5996.69
424.41	6271.93
424.77	6546.48
425.14	6849.81
425.51	7141.21
425.87	7497.91
426.24	7861.16
426.61	8275.67
426.97	8781.22
427.34	9237.86
427.70	9728.67
428.07	10220.18
428.44	10730.42
428.80	11187.76
429.17	11722.11
429.53	12202.38
429.90	12782.60
430.27	13291.67
430.63	13870.72
431.00	14499.62
431.36	15266.85
431.73	15916.81
432.09	16608.44
432.46	17266.13
432.83	17881.69
433.19	18379.52
433.56	19007.26
433.92	19602.45
434.29	20208.19
434.65	20923.22
435.02	21503.91
435.38	22107.06
435.75	22635.79
436.11	23253.46
436.48	23665.62
436.84	24201.37
437.21	24634.14
437.57	25114.42
437.94	25483.75
438.30	25898.73
438.67	26133.49
439.03	26293.58
439.40	26481.52
439.76	26450.39
440.13	26337.81
440.49	26289.60
440.86	26110.08
441.22	25772.11
441.59	25423.60
441.95	25081.65
442.32	24599.73
442.68	24155.26
443.05	23699.56
443.41	23224.43
443.78	22640.70
444.14	22102.15
444.51	21545.57
444.87	21154.00
445.24	20703.91
445.60	20296.42
445.96	19786.19
446.33	19286.25
446.69	18629.49
447.06	18129.56
447.42	17545.59
447.79	17027.40
448.15	16605.63
448.51	16169.12
448.88	15730.27
449.24	15297.27
449.61	15026.24
449.97	14616.88
450.33	14272.35
450.70	13853.16
451.06	13534.15
451.43	13087.34
451.79	12765.75
452.15	12450.95
452.52	12141.29
452.88	11839.37
453.24	11566.69
453.61	11305.49
453.97	11008.24
454.34	10720.82
454.70	10472.73
455.06	10239.14
455.43	9961.32
455.79	9630.37
456.15	9349.74
456.52	9012.00
456.88	8727.39
457.24	8434.82
457.61	8223.24
457.97	8008.85
458.33	7793.75
458.70	7561.33
459.06	7293.11
459.42	7081.29
459.79	6813.77
460.15	6604.52
460.51	6406.05
460.88	6223.95
461.24	5990.84
461.60	5851.34
461.96	5681.42
462.33	5521.56
462.69	5361.93
463.05	5237.42
463.42	5094.64
463.78	4941.81
464.14	4780.54
464.50	4670.30
464.87	4555.15
465.23	4445.15
465.59	4352.46
465.95	4285.75
466.32	4189.79
466.68	4111.15
467.04	4021.51
467.40	3937.02
467.77	3846.90
468.13	3769.20
468.49	3672.53
468.85	3605.83
469.22	3548.95
469.58	3495.36
469.94	3449.95
470.30	3395.88
470.66	3330.35
471.03	3270.90
471.39	3199.28
471.75	3116.42
472.11	3058.14
472.47	3011.80
472.84	2968.74
473.20	2930.82
473.56	2896.18
473.92	2846.56
474.28	2789.92
474.65	2726.49
475.01	2681.55
475.37	2636.15
475.73	2599.16
476.09	2564.76
476.45	2535.03
476.81	2482.37
477.18	2436.03
477.54	2397.18
477.90	2358.09
478.26	2327.66
478.62	2295.36
478.98	2280.62
479.34	2253.94
479.71	2227.72
480.07	2204.55
480.43	2177.17
480.79	2141.59
481.15	2114.21
481.51	2090.10
481.87	2074.88
482.23	2053.59
482.59	2033.69
482.96	2020.82
483.32	1993.90
483.68	1963.71
484.04	1941.71
484.40	1910.58
484.76	1880.39
485.12	1870.79
485.48	1852.30
485.84	1841.77
486.20	1834.51
486.56	1828.19
486.92	1806.66
487.28	1774.83
487.64	1761.49
488.00	1745.57
488.37	1724.51
488.73	1701.80
489.09	1688.23
489.45	1671.38
489.81	1647.97
490.17	1633.93
490.53	1612.16
490.89	1606.31
491.25	1583.84
491.61	1568.16
491.97	1556.46
492.33	1551.07
492.69	1534.69
493.05	1528.60
493.41	1529.31
493.77	1515.26
494.13	1521.35
494.49	1512.92
494.85	1500.52
495.21	1483.43
495.57	1470.56
495.93	1452.30
496.29	1437.32
496.64	1421.64
497.00	1401.98
497.36	1398.94
497.72	1378.81
498.08	1372.02
498.44	1364.30
498.80	1362.66
499.16	1346.74
499.52	1345.57
499.88	1339.72
500.24	1329.42
500.60	1315.38
500.96	1304.15
501.32	1291.74
501.68	1290.81
502.03	1286.36
502.39	1292.21
502.75	1281.91
503.11	1275.36
503.47	1267.17
503.83	1270.44
504.19	1263.42
504.55	1269.27
504.91	1261.78
505.26	1249.14
505.62	1238.85
505.98	1228.78
506.34	1216.38
506.70	1224.80
507.06	1215.67
507.42	1210.53
507.78	1213.10
508.13	1207.01
508.49	1200.93
508.85	1205.84
509.21	1199.52
509.57	1198.59
509.93	1208.18
510.28	1199.52
510.64	1200.69
511.00	1201.87
511.36	1203.74
511.72	1201.16
512.07	1210.53
512.43	1199.99
512.79	1181.97
513.15	1173.78
513.51	1170.27
513.86	1165.35
514.22	1170.50
514.58	1185.01
514.94	1184.08
515.30	1175.65
515.65	1159.27
516.01	1150.14
516.37	1147.33
516.73	1127.67
517.08	1130.01
517.44	1133.52
517.80	1132.12
518.16	1134.46
518.51	1144.52
518.87	1140.31
519.23	1128.61
519.59	1129.78
519.94	1125.80
520.30	1137.03
520.66	1141.48
521.01	1152.48
521.37	1157.63
521.73	1148.73
522.09	1129.07
522.44	1123.69
522.80	1118.78
523.16	1109.65
523.51	1114.09
523.87	1117.61
524.23	1118.54
524.58	1116.90
524.94	1107.54
525.30	1104.26
525.65	1099.35
526.01	1091.86
526.37	1094.20
526.72	1102.86
527.08	1109.18
527.44	1111.52
527.79	1107.07
528.15	1111.99
528.51	1110.58
528.86	1109.65
529.22	1118.54
529.58	1127.20
529.93	1128.14
530.29	1129.54
530.65	1122.29
531.00	1109.41
531.36	1106.84
531.71	1096.31
532.07	1093.26
532.43	1092.33
532.78	1101.46
533.14	1096.78
533.49	1100.29
533.85	1108.24
534.21	1107.31
534.56	1099.35
534.92	1106.84
535.27	1111.52
535.63	1113.39
535.98	1122.52
536.34	1124.86
536.69	1116.44
537.05	1110.35
537.41	1104.73
537.76	1100.52
538.12	1100.99
538.47	1112.69
538.83	1119.01
539.18	1122.52
539.54	1119.71
539.89	1125.10
540.25	1111.05
540.60	1111.99
540.96	1103.80
541.31	1106.61
541.67	1105.90
542.02	1112.22
542.38	1099.35
542.73	1102.63
543.09	1112.22
543.44	1110.35
543.80	1113.86
544.15	1115.03
544.51	1121.35
544.86	1107.78
545.22	1104.50
545.57	1097.01
545.93	1093.97
546.28	1091.39
546.64	1096.31
546.99	1095.14
547.35	1088.82
547.70	1094.90
548.05	1084.84
548.41	1085.31
548.76	1081.56
549.12	1086.01
549.47	1089.99
549.83	1093.26
550.18	1073.84
550.53	1075.48
550.89	1081.56
551.24	1082.50
551.60	1086.01
551.95	1098.65
552.30	1112.22
552.66	1114.80
553.01	1108.95
553.37	1103.80
553.72	1106.14
554.07	1088.12
554.43	1070.33
554.78	1069.16
555.13	1067.99
555.49	1069.16
555.84	1075.24
556.19	1088.58
556.55	1096.54
556.90	1101.22
557.26	1099.35
557.61	1103.33
557.96	1105.90
558.32	1101.22
558.67	1105.20
559.02	1105.44
559.37	1101.69
559.73	1103.80
560.08	1110.12
560.43	1105.67
560.79	1100.99
561.14	1106.37
561.49	1097.71
561.85	1093.97
562.20	1094.67
562.55	1097.71
562.90	1099.82
563.26	1110.12
563.61	1109.65
563.96	1105.20
564.32	1106.61
564.67	1110.12
565.02	1103.56
565.37	1101.46
565.73	1102.16
566.08	1104.03
566.43	1097.01
566.78	1103.09
567.14	1106.61
567.49	1109.65
567.84	1115.03
568.19	1107.54
568.54	1101.69
568.90	1098.41
569.25	1100.05
569.60	1093.03
569.95	1092.33
570.31	1093.26
570.66	1100.75
571.01	1107.31
571.36	1112.46
571.71	1119.48
572.06	1125.56
572.42	1117.84
572.77	1103.80
573.12	1094.20
573.47	1094.20
573.82	1089.99
574.18	1089.05
574.53	1100.75
574.88	1108.95
575.23	1115.27
575.58	1111.99
575.93	1114.10
576.28	1119.01
576.64	1110.82
576.99	1103.56
577.34	1107.54
577.69	1107.78
578.04	1088.35
578.39	1095.14
578.74	1096.78
579.09	1087.41
579.44	1086.01
579.80	1097.01
580.15	1087.18
580.50	1086.24
580.85	1088.58
581.20	1077.58
581.55	1073.84
581.90	1083.67
582.25	1083.20
582.60	1090.92
582.95	1101.92
583.30	1100.99
583.65	1094.20
584.00	1095.84
584.35	1087.65
584.71	1082.73
585.06	1078.52
585.41	1079.92
585.76	1084.37
586.11	1088.35
586.46	1093.50
586.81	1097.95
587.16	1097.71
587.51	1093.73
587.86	1096.54
588.21	1093.03
588.56	1095.84
588.91	1094.43
589.26	1089.52
589.61	1080.16
589.96	1085.31
590.31	1084.37
590.66	1081.56
591.01	1088.82
591.36	1098.41
591.71	1092.09
592.06	1087.18
592.41	1097.24
592.76	1096.78
593.10	1096.54
593.45	1109.18
593.80	1113.39
594.15	1109.65
594.50	1109.88
594.85	1111.99
595.20	1096.54
595.55	1095.14
595.90	1098.88
596.25	1093.26
596.60	1085.54
596.95	1099.82
597.30	1103.09
597.64	1151.54
597.99	1152.95
598.34	1161.84
598.69	1159.27
599.04	1163.48
599.39	1099.82
599.74	1087.88
600.09	1081.33
600.44	1082.97
600.78	1074.07
601.13	1089.52
601.48	1097.01
601.83	1089.52
602.18	1074.77
602.53	1078.99
602.88	1071.97
603.22	1069.39
603.57	1082.03
603.92	1089.75
604.27	1073.84
604.62	1080.16
604.97	1085.07
605.31	1086.24
605.66	1087.65
606.01	1097.95
606.36	1097.01
606.71	1095.60
607.05	1089.05
607.40	1083.43
607.75	1084.37
608.10	1080.16
608.44	1081.09
608.79	1087.65
609.14	1093.50
609.49	1103.33
609.84	1107.31
610.18	1112.22
610.53	1105.20
610.88	1111.99
611.23	1107.78
611.57	1108.24
611.92	1109.18
612.27	1115.27
612.62	1108.95
612.96	1109.65
613.31	1104.50
613.66	1101.22
614.00	1093.73
614.35	1099.35
614.70	1096.31
615.05	1107.78
615.39	1104.73
615.74	1103.80
616.09	1090.69
616.43	1091.39
616.78	1079.92
617.13	1083.43
617.47	1082.03
617.82	1085.77
618.17	1086.24
618.51	1094.90
618.86	1094.20
619.21	1109.88
619.55	1114.80
619.90	1112.46
620.25	1104.73
620.59	1096.78
620.94	1077.82
621.29	1073.37
621.63	1075.48
621.98	1072.43
622.32	1083.43
622.67	1088.58
623.02	1082.97
623.36	1077.82
623.71	1084.60
624.05	1073.84
624.40	1075.71
624.75	1082.73
625.09	1088.58
625.44	1085.07
625.78	1092.80
626.13	1096.31
626.48	1089.75
626.82	1083.90
627.17	1079.92
627.51	1080.39
627.86	1074.54
628.20	1083.43
628.55	1091.86
628.89	1097.71
629.24	1093.97
629.58	1092.33
629.93	1090.92
630.28	1090.22
630.62	1087.88
630.97	1090.69
631.31	1091.39
631.66	1095.14
632.00	1084.37
632.35	1086.94
632.69	1085.07
633.04	1089.52
633.38	1089.29
633.73	1092.56
634.07	1087.65
634.42	1085.77
634.76	1088.82
635.11	1082.50
635.45	1087.41
635.79	1091.39
636.14	1099.58
636.48	1093.26
636.83	1096.78
637.17	1089.29
637.52	1091.39
637.86	1092.09
638.21	1093.50
638.55	1094.67
638.89	1092.56
639.24	1096.31
639.58	1089.29
639.93	1085.77
640.27	1078.28
640.61	1084.60
640.96	1081.09
641.30	1078.28
641.65	1079.22
641.99	1070.56
642.33	1071.73
642.68	1072.43
643.02	1074.31
643.37	1080.39
643.71	1092.56
644.05	1084.84
644.40	1082.03
644.74	1094.20
645.08	1087.88
645.43	1088.82
645.77	1097.95
646.11	1091.63
646.46	1084.84
646.80	1090.46
647.14	1085.54
647.49	1082.50
647.83	1087.18
648.17	1080.63
648.52	1070.80
648.86	1075.48
649.20	1075.94
649.55	1077.58
649.89	1086.94
650.23	1098.41
650.57	1098.18
650.92	1098.88
651.26	1100.29
651.60	1093.97
651.95	1083.43
652.29	1084.60
652.63	1084.14
652.97	1082.26
653.32	1080.86
653.66	1086.48
654.00	1081.09
654.34	1078.05
654.69	1080.63
655.03	1086.94
655.37	1085.54
655.71	1088.82
656.05	1097.24
656.40	1099.58
656.74	1085.07
657.08	1076.88
657.42	1076.41
657.76	1067.05
658.11	1058.86
658.45	1074.07
658.79	1082.97
659.13	1084.84
659.47	1091.86
659.82	1088.82
660.16	1076.65
660.50	1079.46
660.84	1078.99
661.18	1078.99
661.52	1089.52
661.87	1093.97
662.21	1090.92
662.55	1089.05
662.89	1082.03
663.23	1080.16
663.57	1082.03
663.91	1089.05
664.25	1090.46
664.60	1093.03
664.94	1085.77
665.28	1086.94
665.62	1081.80
665.96	1085.54
666.30	1088.12
666.64	1093.50
666.98	1075.24
667.32	1072.67
667.66	1061.67
668.01	1055.58
668.35	1053.71
668.69	1081.33
669.03	1080.39
669.37	1080.39
669.71	1084.14
670.05	1086.94
670.39	1080.16
670.73	1076.65
671.07	1092.56
671.41	1092.33
671.75	1090.92
672.09	1081.09
672.43	1091.16
672.77	1084.84
673.11	1087.65
673.45	1085.07
673.79	1080.63
674.13	1079.69
674.47	1073.60
674.81	1069.62
675.15	1069.16
675.49	1083.43
675.83	1075.48
676.17	1085.31
676.51	1087.41
676.85	1093.50
677.19	1084.37
677.53	1087.65
677.87	1074.54
678.21	1080.16
678.55	1073.84
678.89	1075.71
679.23	1086.71
679.57	1090.69
679.90	1078.52
680.24	1076.41
680.58	1073.60
680.92	1067.75
681.26	1062.37
681.60	1075.48
681.94	1076.88
682.28	1079.69
682.62	1074.54
682.96	1077.82
683.29	1061.90
683.63	1063.31
683.97	1069.39
684.31	1068.69
684.65	1063.77
684.99	1074.31
685.33	1075.48
685.67	1069.39
686.00	1081.56
686.34	1098.41
686.68	1091.39
687.02	1085.77
687.36	1087.65
687.70	1084.14
688.03	1076.65
688.37	1088.58
688.71	1092.09
689.05	1086.71
689.39	1080.63
689.72	1081.09
690.06	1064.01
690.40	1063.77
690.74	1066.82
691.08	1061.43
691.41	1062.84
691.75	1076.18
692.09	1074.54
692.43	1082.50
692.76	1082.73
693.10	1078.28
693.44	1077.58
693.78	1082.97
694.11	1071.26
694.45	1071.73
694.79	1077.11
695.13	1085.31
695.46	1096.31
695.80	1103.56
696.14	1104.26
696.48	1104.50
696.81	1104.73
697.15	1101.22
697.49	1107.07
697.82	1108.95
698.16	1111.29
698.50	1100.52
698.83	1096.31
699.17	1090.92
699.51	1098.65
699.84	1084.84
700.18	1083.67
700.52	1076.65
700.85	1072.67
701.19	1075.94
701.53	1090.22
701.86	1086.48
702.20	1089.29
702.54	1094.90
702.87	1092.56
703.21	1098.65
703.55	1098.65
703.88	1101.46
704.22	1098.88
704.55	1092.56
704.89	1078.75
705.23	1083.90
705.56	1075.01
705.90	1078.28
706.23	1069.39
706.57	1072.20
706.91	1073.60
707.24	1075.94
707.58	1069.16
707.91	1078.75
708.25	1081.09
708.58	1070.80
708.92	1063.54
709.26	1066.82
709.59	1066.82
709.93	1069.62
710.26	1084.60
710.60	1100.75
710.93	1097.24
711.27	1095.37
711.60	1097.24
711.94	1099.58
712.27	1092.09
712.61	1094.67
712.94	1101.46
713.28	1090.22
713.61	1069.86
713.95	1064.48
714.28	1064.71
714.62	1058.86
714.95	1048.79
715.29	1053.48
715.62	1067.05
715.96	1063.31
716.29	1063.31
716.63	1080.16
716.96	1089.29
717.29	1084.37
717.63	1082.03
717.96	1078.99
718.30	1081.09
718.63	1081.56
718.97	1085.31
719.30	1083.20
719.63	1084.37
719.97	1082.97
720.30	1080.39
720.64	1079.22
720.97	1093.26
721.30	1089.99
721.64	1082.73
721.97	1078.52
722.31	1071.50
722.64	1077.11
722.97	1086.24
723.31	1085.31
723.64	1086.48
723.97	1095.84
724.31	1088.35
724.64	1083.67
724.98	1080.63
725.31	1078.75
725.64	1070.33
725.98	1066.35
726.31	1067.75
726.64	1074.07
726.97	1078.75
727.31	1087.65
727.64	1086.48
727.97	1088.12
728.31	1090.92
728.64	1087.88
728.97	1067.99
729.31	1066.35
729.64	1068.69
729.97	1074.77
730.30	1085.07
730.64	1100.52
730.97	1095.37
731.30	1085.54
731.63	1077.82
731.97	1073.14
732.30	1074.54
732.63	1086.94
732.96	1101.46
733.30	1092.33
733.63	1084.14
733.96	1080.39
734.29	1064.01
734.63	1051.37
734.96	1070.80
735.29	1067.52
735.62	1070.80
735.95	1086.71
736.29	1088.58
736.62	1078.75
736.95	1091.16
737.28	1088.35
737.61	1087.65
737.94	1095.14
738.28	1093.50
738.61	1094.67
738.94	1092.56
739.27	1097.24
739.60	1098.41
739.93	1101.92
740.27	1103.33
740.60	1109.41
740.93	1105.44
741.26	1095.84
741.59	1101.46
741.92	1093.03
742.25	1090.22
742.58	1091.63
742.91	1093.50
743.25	1083.67
743.58	1077.11
743.91	1072.43
744.24	1074.31
744.57	1079.46
744.90	1086.71
745.23	1090.69
745.56	1099.35
745.89	1084.37
746.22	1084.60
746.55	1079.46
746.88	1085.77
747.21	1082.97
747.54	1093.50
747.87	1079.46
748.20	1081.33
748.53	1077.35
748.87	1077.35
749.20	1079.69
749.53	1091.16
749.86	1089.05
750.19	1092.80
750.52	1094.20
750.85	1095.37
751.18	1089.99
751.51	1092.09
751.84	1093.50
752.16	1090.92
752.49	1083.43
752.82	1088.12
753.15	1087.41
753.48	1082.50
753.81	1081.80
754.14	1085.54
754.47	1078.28
754.80	1078.75
755.13	1088.12
755.46	1083.67
755.79	1086.24
756.12	1096.07
756.45	1094.90
756.78	1088.82
757.11	1096.31
757.43	1101.92
757.76	1090.22
758.09	1081.09
758.42	1072.90
758.75	1061.20
759.08	1055.11
759.41	1070.09
759.74	1074.54
760.07	1079.92
760.39	1083.90
760.72	1082.50
761.05	1072.43
761.38	1076.65
761.71	1076.18
762.04	1077.58
762.36	1069.39
762.69	1062.14
763.02	1058.39
763.35	1057.69
763.68	1056.28
764.01	1059.56
764.33	1066.11
764.66	1063.31
