SpectraSuite Data File
++++++++++++++++++++++++++++++++++++
Date: Mon Aug 26 10:24:52 PDT 2019
User: corrico
Dark Spectrum Present: No
Reference Spectrum Present: No
Number of Sampled Component Spectra: 1
Spectrometers: USB2+H06089
Integration Time (usec): 10000 (USB2+H06089)
Spectra Averaged: 2 (USB2+H06089)
Boxcar Smoothing: 2 (USB2+H06089)
Correct for Electrical Dark: No (USB2+H06089)
Strobe/Lamp Enabled: No (USB2+H06089)
Correct for Detector Non-linearity: No (USB2+H06089)
Correct for Stray Light: No (USB2+H06089)
Number of Pixels in Processed Spectrum: 2048
>>>>>Begin Processed Spectral Data<<<<<
339.70	1023.98
340.07	1023.98
340.45	996.37
340.82	980.92
341.19	957.98
341.57	932.94
341.94	919.83
342.31	905.79
342.69	896.43
343.06	893.85
343.43	891.51
343.81	888.94
344.18	886.36
344.55	891.51
344.93	892.68
345.30	903.91
345.67	914.45
346.04	929.19
346.42	933.87
346.79	950.02
347.16	955.87
347.54	966.64
347.91	972.26
348.28	981.62
348.65	995.66
349.03	1010.64
349.40	1014.86
349.77	1035.92
350.14	1054.88
350.52	1052.54
350.89	1053.01
351.26	1059.56
351.63	1057.69
352.01	1056.52
352.38	1053.94
352.75	1075.71
353.12	1083.43
353.50	1083.43
353.87	1089.52
354.24	1111.99
354.61	1100.05
354.98	1106.61
355.36	1105.44
355.73	1100.05
356.10	1091.86
356.47	1090.46
356.84	1092.56
357.22	1096.07
357.59	1093.73
357.96	1087.41
358.33	1083.43
358.70	1072.43
359.08	1078.05
359.45	1077.35
359.82	1083.43
360.19	1083.90
360.56	1090.22
360.94	1086.71
361.31	1091.39
361.68	1085.07
362.05	1084.14
362.42	1079.22
362.79	1071.26
363.16	1058.16
363.54	1065.41
363.91	1078.52
364.28	1076.88
364.65	1076.41
365.02	1080.39
365.39	1065.41
365.76	1062.84
366.14	1074.31
366.51	1073.37
366.88	1075.71
367.25	1090.92
367.62	1089.75
367.99	1079.46
368.36	1086.94
368.73	1090.92
369.10	1094.43
369.48	1084.37
369.85	1087.88
370.22	1079.92
370.59	1096.07
370.96	1087.41
371.33	1091.16
371.70	1101.22
372.07	1113.39
372.44	1100.29
372.81	1113.86
373.18	1114.56
373.55	1108.95
373.93	1098.41
374.30	1094.43
374.67	1083.43
375.04	1083.90
375.41	1084.37
375.78	1088.12
376.15	1090.46
376.52	1095.14
376.89	1093.50
377.26	1084.84
377.63	1085.31
378.00	1088.82
378.37	1091.39
378.74	1095.14
379.11	1105.67
379.48	1109.88
379.85	1101.69
380.22	1087.65
380.59	1092.33
380.96	1085.31
381.33	1076.18
381.70	1078.99
382.07	1082.03
382.44	1079.22
382.81	1084.60
383.18	1097.48
383.55	1096.78
383.92	1110.35
384.29	1106.61
384.66	1109.88
385.03	1100.05
385.40	1114.33
385.77	1102.63
386.14	1104.50
386.51	1100.29
386.88	1100.29
387.25	1084.37
387.62	1098.65
387.99	1096.31
388.36	1090.46
388.73	1099.12
389.10	1108.71
389.46	1100.99
389.83	1106.37
390.20	1106.37
390.57	1097.71
390.94	1098.18
391.31	1098.41
391.68	1101.69
392.05	1110.35
392.42	1118.07
392.79	1126.27
393.16	1131.18
393.53	1122.52
393.89	1119.71
394.26	1120.41
394.63	1108.48
395.00	1108.24
395.37	1110.82
395.74	1112.92
396.11	1111.29
396.48	1116.44
396.84	1115.27
397.21	1112.92
397.58	1114.33
397.95	1114.33
398.32	1117.61
398.69	1115.73
399.06	1125.56
399.42	1125.80
399.79	1134.46
400.16	1137.50
400.53	1133.99
400.90	1131.41
401.27	1134.69
401.64	1144.99
402.00	1149.44
402.37	1170.27
402.74	1185.25
403.11	1194.14
403.48	1199.29
403.84	1210.99
404.21	1210.76
404.58	1217.55
404.95	1232.29
405.32	1225.74
405.68	1226.44
406.05	1236.74
406.42	1251.25
406.79	1251.25
407.16	1273.49
407.52	1295.02
407.89	1300.64
408.26	1315.38
408.63	1345.81
408.99	1378.34
409.36	1398.70
409.73	1438.73
410.10	1462.83
410.47	1478.52
410.83	1495.13
411.20	1527.20
411.57	1556.22
411.94	1590.63
412.30	1642.12
412.67	1696.42
413.04	1740.89
413.40	1804.08
413.77	1852.53
414.14	1909.64
414.51	1955.52
414.87	2026.20
415.24	2096.89
415.61	2178.57
415.97	2253.94
416.34	2358.09
416.71	2439.31
417.08	2531.29
417.44	2644.81
417.81	2776.58
418.18	2895.94
418.54	3037.55
418.91	3191.55
419.28	3330.82
419.64	3466.80
420.01	3625.26
420.38	3785.82
420.74	3915.25
421.11	4121.92
421.48	4344.27
421.84	4566.85
422.21	4777.27
422.58	5064.92
422.94	5300.14
423.31	5523.66
423.68	5788.61
424.04	6118.39
424.41	6387.79
424.77	6694.63
425.14	7037.05
425.51	7358.88
425.87	7730.09
426.24	8115.34
426.61	8505.04
426.97	8939.91
427.34	9337.10
427.70	9799.35
428.07	10292.51
428.44	10788.00
428.80	11302.45
429.17	11877.05
429.53	12390.09
429.90	13000.04
430.27	13564.11
430.63	14104.07
431.00	14769.72
431.36	15494.11
431.73	16068.01
432.09	16794.05
432.46	17523.12
432.83	18113.17
433.19	18660.62
433.56	19392.51
433.92	20071.26
434.29	20672.08
434.65	21420.58
435.02	22044.57
435.38	22626.19
435.75	23072.06
436.11	23723.90
436.48	24132.80
436.84	24708.57
437.21	25160.06
437.57	25665.85
437.94	26076.38
438.30	26480.12
438.67	26717.22
439.03	26924.12
439.40	27050.51
439.76	26954.31
440.13	26890.18
440.49	26824.41
440.86	26610.02
441.22	26358.88
441.59	26020.44
441.95	25630.74
442.32	25085.63
442.68	24609.33
443.05	24073.35
443.41	23597.05
443.78	23085.41
444.14	22608.40
444.51	22034.27
444.87	21628.89
445.24	21182.78
445.60	20744.64
445.96	20136.56
446.33	19658.63
446.69	19037.92
447.06	18505.21
447.42	17889.42
447.79	17429.97
448.15	17032.78
448.51	16566.08
448.88	16124.65
449.24	15712.02
449.61	15418.98
449.97	14982.24
450.33	14649.88
450.70	14211.73
451.06	13873.76
451.43	13388.10
451.79	13016.89
452.15	12651.53
452.52	12347.96
452.88	12036.20
453.24	11800.51
453.61	11521.52
453.97	11277.87
454.34	10999.11
454.70	10701.16
455.06	10441.13
455.43	10164.71
455.79	9804.97
456.15	9517.32
456.52	9228.26
456.88	8965.66
457.24	8694.15
457.61	8458.46
457.97	8236.35
458.33	7995.27
458.70	7707.38
459.06	7452.03
459.42	7236.00
459.79	6950.92
460.15	6736.30
460.51	6532.20
460.88	6302.59
461.24	6079.31
461.60	5927.87
461.96	5749.53
462.33	5576.09
462.69	5452.28
463.05	5312.55
463.42	5182.41
463.78	5058.13
464.14	4927.30
464.50	4810.97
464.87	4708.69
465.23	4585.34
465.59	4467.38
465.95	4373.53
466.32	4272.65
466.68	4180.66
467.04	4091.26
467.40	3991.32
467.77	3914.55
468.13	3830.29
468.49	3756.33
468.85	3676.98
469.22	3622.45
469.58	3544.51
469.94	3479.67
470.30	3400.10
470.66	3352.82
471.03	3293.60
471.39	3243.28
471.75	3177.51
472.11	3132.34
472.47	3091.85
472.84	3027.95
473.20	2971.54
473.56	2922.16
473.92	2857.09
474.28	2784.54
474.65	2750.13
475.01	2711.74
475.37	2660.02
475.73	2616.72
476.09	2578.10
476.45	2542.29
476.81	2491.97
477.18	2468.09
477.54	2433.69
477.90	2400.45
478.26	2357.62
478.62	2327.43
478.98	2298.87
479.34	2267.28
479.71	2238.96
480.07	2219.76
480.43	2187.23
480.79	2145.10
481.15	2128.25
481.51	2101.10
481.87	2076.76
482.23	2052.65
482.59	2037.67
482.96	2010.05
483.32	1997.41
483.68	1965.58
484.04	1952.94
484.40	1929.54
484.76	1907.77
485.12	1883.43
485.48	1863.53
485.84	1842.24
486.20	1822.34
486.56	1802.91
486.92	1779.28
487.28	1761.72
487.64	1750.02
488.00	1736.91
488.37	1721.70
488.73	1711.63
489.09	1703.21
489.45	1682.38
489.81	1662.48
490.17	1652.89
490.53	1640.95
490.89	1633.69
491.25	1619.18
491.61	1605.14
491.97	1596.48
492.33	1572.14
492.69	1548.03
493.05	1541.01
493.41	1534.46
493.77	1518.31
494.13	1508.48
494.49	1497.71
494.85	1481.56
495.21	1465.88
495.57	1451.60
495.93	1448.56
496.29	1432.64
496.64	1425.39
497.00	1417.43
497.36	1402.92
497.72	1379.75
498.08	1376.94
498.44	1358.21
498.80	1340.42
499.16	1338.55
499.52	1337.85
499.88	1335.74
500.24	1337.85
500.60	1339.25
500.96	1336.45
501.32	1328.96
501.68	1321.70
502.03	1317.72
502.39	1309.76
502.75	1301.57
503.11	1301.57
503.47	1286.59
503.83	1266.23
504.19	1258.27
504.55	1256.40
504.91	1250.55
505.26	1249.85
505.62	1254.29
505.98	1247.51
506.34	1230.65
506.70	1225.74
507.06	1215.44
507.42	1212.87
507.78	1207.25
508.13	1210.29
508.49	1208.42
508.85	1212.40
509.21	1204.21
509.57	1205.38
509.93	1196.01
510.28	1192.74
510.64	1189.69
511.00	1190.40
511.36	1195.55
511.72	1193.91
512.07	1178.93
512.43	1170.97
512.79	1171.91
513.15	1157.86
513.51	1159.74
513.86	1168.16
514.22	1161.14
514.58	1157.39
514.94	1174.95
515.30	1173.78
515.65	1177.29
516.01	1190.16
516.37	1183.37
516.73	1168.40
517.08	1163.71
517.44	1157.63
517.80	1146.86
518.16	1147.80
518.51	1141.48
518.87	1140.07
519.23	1128.14
519.59	1128.37
519.94	1125.33
520.30	1122.99
520.66	1122.75
521.01	1131.18
521.37	1133.29
521.73	1133.52
522.09	1135.63
522.44	1137.03
522.80	1129.07
523.16	1128.14
523.51	1125.33
523.87	1138.20
524.23	1139.84
524.58	1144.05
524.94	1141.71
525.30	1144.52
525.65	1138.90
526.01	1140.78
526.37	1137.03
526.72	1141.01
527.08	1136.80
527.44	1132.35
527.79	1121.35
528.15	1125.80
528.51	1123.22
528.86	1128.61
529.22	1131.41
529.58	1133.99
529.93	1120.88
530.29	1119.24
530.65	1122.99
531.00	1122.29
531.36	1120.41
531.71	1130.01
532.07	1134.93
532.43	1125.10
532.78	1115.50
533.14	1118.78
533.49	1112.92
533.85	1109.65
534.21	1108.24
534.56	1105.44
534.92	1104.50
535.27	1111.99
535.63	1109.41
535.98	1112.46
536.34	1120.41
536.69	1118.07
537.05	1112.46
537.41	1111.29
537.76	1107.31
538.12	1108.95
538.47	1117.14
538.83	1124.16
539.18	1127.90
539.54	1141.01
539.89	1138.20
540.25	1138.67
540.60	1130.01
540.96	1125.10
541.31	1112.46
541.67	1107.78
542.02	1089.52
542.38	1093.50
542.73	1102.16
543.09	1108.01
543.44	1116.20
543.80	1121.82
544.15	1118.54
544.51	1113.63
544.86	1112.69
545.22	1104.73
545.57	1114.80
545.93	1125.33
546.28	1121.82
546.64	1123.46
546.99	1124.16
547.35	1120.18
547.70	1111.52
548.05	1112.92
548.41	1108.48
548.76	1117.84
549.12	1110.35
549.47	1111.99
549.83	1113.86
550.18	1118.78
550.53	1112.22
550.89	1127.20
551.24	1132.12
551.60	1129.07
551.95	1124.16
552.30	1122.75
552.66	1122.75
553.01	1116.44
553.37	1109.65
553.72	1099.12
554.07	1104.50
554.43	1101.92
554.78	1103.56
555.13	1106.14
555.49	1115.73
555.84	1111.99
556.19	1105.90
556.55	1109.65
556.90	1115.27
557.26	1119.48
557.61	1114.56
557.96	1116.67
558.32	1115.03
558.67	1111.29
559.02	1103.56
559.37	1102.39
559.73	1092.80
560.08	1091.16
560.43	1088.58
560.79	1086.94
561.14	1094.90
561.49	1100.75
561.85	1091.16
562.20	1095.60
562.55	1097.48
562.90	1087.88
563.26	1090.69
563.61	1086.71
563.96	1082.26
564.32	1074.77
564.67	1077.58
565.02	1069.86
565.37	1075.71
565.73	1075.01
566.08	1078.52
566.43	1078.52
566.78	1080.63
567.14	1082.26
567.49	1090.22
567.84	1098.41
568.19	1108.24
568.54	1102.39
568.90	1104.03
569.25	1101.46
569.60	1093.97
569.95	1095.84
570.31	1104.26
570.66	1103.56
571.01	1098.65
571.36	1102.63
571.71	1098.18
572.06	1097.95
572.42	1101.22
572.77	1098.65
573.12	1095.37
573.47	1085.31
573.82	1083.90
574.18	1085.07
574.53	1098.18
574.88	1100.29
575.23	1103.80
575.58	1105.20
575.93	1101.46
576.28	1097.71
576.64	1095.14
576.99	1092.09
577.34	1077.35
577.69	1075.94
578.04	1071.97
578.39	1079.69
578.74	1090.46
579.09	1109.88
579.44	1115.50
579.80	1122.75
580.15	1118.07
580.50	1114.33
580.85	1103.80
581.20	1091.86
581.55	1081.56
581.90	1086.01
582.25	1087.41
582.60	1090.69
582.95	1098.88
583.30	1101.22
583.65	1097.71
584.00	1087.88
584.35	1090.46
584.71	1089.52
585.06	1087.65
585.41	1085.77
585.76	1084.60
586.11	1078.05
586.46	1081.80
586.81	1083.43
587.16	1087.88
587.51	1096.31
587.86	1093.73
588.21	1093.03
588.56	1100.29
588.91	1093.50
589.26	1084.84
589.61	1092.56
589.96	1079.69
590.31	1067.05
590.66	1075.48
591.01	1088.35
591.36	1083.90
591.71	1097.48
592.06	1107.78
592.41	1100.99
592.76	1089.05
593.10	1094.20
593.45	1095.37
593.80	1093.50
594.15	1090.46
594.50	1093.97
594.85	1104.50
595.20	1101.46
595.55	1102.86
595.90	1107.31
596.25	1100.75
596.60	1091.39
596.95	1087.41
597.30	1084.14
597.64	1137.03
597.99	1147.10
598.34	1152.48
598.69	1150.84
599.04	1144.99
599.39	1096.31
599.74	1089.99
600.09	1080.16
600.44	1085.07
600.78	1094.67
601.13	1098.41
601.48	1102.63
601.83	1095.14
602.18	1086.94
602.53	1086.24
602.88	1080.39
603.22	1073.84
603.57	1083.20
603.92	1087.88
604.27	1080.39
604.62	1075.24
604.97	1073.84
605.31	1065.65
605.66	1069.62
606.01	1069.39
606.36	1069.39
606.71	1082.73
607.05	1086.24
607.40	1082.50
607.75	1083.67
608.10	1091.86
608.44	1088.82
608.79	1088.82
609.14	1089.99
609.49	1090.69
609.84	1079.46
610.18	1075.48
610.53	1077.35
610.88	1078.75
611.23	1077.58
611.57	1078.28
611.92	1077.11
612.27	1083.67
612.62	1085.54
612.96	1093.03
613.31	1097.24
613.66	1098.18
614.00	1085.54
614.35	1087.65
614.70	1083.43
615.05	1088.58
615.39	1094.20
615.74	1105.67
616.09	1094.43
616.43	1091.63
616.78	1089.29
617.13	1083.67
617.47	1071.97
617.82	1085.31
618.17	1089.05
618.51	1082.97
618.86	1090.69
619.21	1098.65
619.55	1091.63
619.90	1091.63
620.25	1102.16
620.59	1098.65
620.94	1094.90
621.29	1091.86
621.63	1090.46
621.98	1073.84
622.32	1071.26
622.67	1068.92
623.02	1073.60
623.36	1075.71
623.71	1079.69
624.05	1075.71
624.40	1083.90
624.75	1081.80
625.09	1082.73
625.44	1091.86
625.78	1099.58
626.13	1102.16
626.48	1106.61
626.82	1095.84
627.17	1105.20
627.51	1100.52
627.86	1097.01
628.20	1087.88
628.55	1091.16
628.89	1083.67
629.24	1079.22
629.58	1076.88
629.93	1087.65
630.28	1095.84
630.62	1089.52
630.97	1096.31
631.31	1106.37
631.66	1103.09
632.00	1097.01
632.35	1093.97
632.69	1090.46
633.04	1081.80
633.38	1076.18
633.73	1073.60
634.07	1083.90
634.42	1092.33
634.76	1088.12
635.11	1085.77
635.45	1089.52
635.79	1082.97
636.14	1074.77
636.48	1076.88
636.83	1080.16
637.17	1081.80
637.52	1077.35
637.86	1071.26
638.21	1076.65
638.55	1076.18
638.89	1079.92
639.24	1089.52
639.58	1094.43
639.93	1099.58
640.27	1105.20
640.61	1100.75
640.96	1094.67
641.30	1093.03
641.65	1077.11
641.99	1073.37
642.33	1069.16
642.68	1059.56
643.02	1066.58
643.37	1066.11
643.71	1068.22
644.05	1069.62
644.40	1081.80
644.74	1092.33
645.08	1099.82
645.43	1102.16
645.77	1108.48
646.11	1102.39
646.46	1090.46
646.80	1093.50
647.14	1093.03
647.49	1088.12
647.83	1087.41
648.17	1086.48
648.52	1080.39
648.86	1069.16
649.20	1072.43
649.55	1071.50
649.89	1066.11
650.23	1068.22
650.57	1078.75
650.92	1074.77
651.26	1084.84
651.60	1099.58
651.95	1095.60
652.29	1085.07
652.63	1084.84
652.97	1083.90
653.32	1076.18
653.66	1090.46
654.00	1104.73
654.34	1119.48
654.69	1105.90
655.03	1107.31
655.37	1102.63
655.71	1102.16
656.05	1085.54
656.40	1090.69
656.74	1096.07
657.08	1087.18
657.42	1076.88
657.76	1082.26
658.11	1081.56
658.45	1067.99
658.79	1072.90
659.13	1072.20
659.47	1073.14
659.82	1083.20
660.16	1090.92
660.50	1090.22
660.84	1095.14
661.18	1091.16
661.52	1089.75
661.87	1076.41
662.21	1085.77
662.55	1090.92
662.89	1105.67
663.23	1105.44
663.57	1112.92
663.91	1104.26
664.25	1097.71
664.60	1077.82
664.94	1077.82
665.28	1077.58
665.62	1083.20
665.96	1078.05
666.30	1082.97
666.64	1084.84
666.98	1083.67
667.32	1071.03
667.66	1077.35
668.01	1071.97
668.35	1068.22
668.69	1065.41
669.03	1068.69
669.37	1071.50
669.71	1074.77
670.05	1079.22
670.39	1082.26
670.73	1086.01
671.07	1072.67
671.41	1079.46
671.75	1080.63
672.09	1082.97
672.43	1078.75
672.77	1091.63
673.11	1087.65
673.45	1085.07
673.79	1084.14
674.13	1086.71
674.47	1079.22
674.81	1078.52
675.15	1073.37
675.49	1071.50
675.83	1076.88
676.17	1078.75
676.51	1087.41
676.85	1091.16
677.19	1094.90
677.53	1092.09
677.87	1094.20
678.21	1086.48
678.55	1086.71
678.89	1089.52
679.23	1083.20
679.57	1078.05
679.90	1072.20
680.24	1071.26
680.58	1068.92
680.92	1074.31
681.26	1078.05
681.60	1077.58
681.94	1078.99
682.28	1071.26
682.62	1071.03
682.96	1069.39
683.29	1076.65
683.63	1071.50
683.97	1067.99
684.31	1067.05
684.65	1070.09
684.99	1078.05
685.33	1081.56
685.67	1091.39
686.00	1092.56
686.34	1089.05
686.68	1086.48
687.02	1079.46
687.36	1068.92
687.70	1064.94
688.03	1062.14
688.37	1050.43
688.71	1051.37
689.05	1065.18
689.39	1062.14
689.72	1071.26
690.06	1072.20
690.40	1065.65
690.74	1054.65
691.08	1064.94
691.41	1061.43
691.75	1062.84
692.09	1071.97
692.43	1078.05
692.76	1071.73
693.10	1062.14
693.44	1071.73
693.78	1070.56
694.11	1072.20
694.45	1070.80
694.79	1087.41
695.13	1081.80
695.46	1078.05
695.80	1077.11
696.14	1081.09
696.48	1082.97
696.81	1070.80
697.15	1068.69
697.49	1070.09
697.82	1068.92
698.16	1061.90
698.50	1070.33
698.83	1079.46
699.17	1078.05
699.51	1085.77
699.84	1082.50
700.18	1092.80
700.52	1097.24
700.85	1090.92
701.19	1089.29
701.53	1087.18
701.86	1073.84
702.20	1067.52
702.54	1075.01
702.87	1071.26
703.21	1079.69
703.55	1087.88
703.88	1080.39
704.22	1072.20
704.55	1067.52
704.89	1071.73
705.23	1065.65
705.56	1078.28
705.90	1095.60
706.23	1096.31
706.57	1092.33
706.91	1098.65
707.24	1098.41
707.58	1098.18
707.91	1095.37
708.25	1088.58
708.58	1073.84
708.92	1069.39
709.26	1065.41
709.59	1075.71
709.93	1082.97
710.26	1090.46
710.60	1088.82
710.93	1067.28
711.27	1056.99
711.60	1052.07
711.94	1054.18
712.27	1059.79
712.61	1081.56
712.94	1091.39
713.28	1089.05
713.61	1089.05
713.95	1089.99
714.28	1084.84
714.62	1084.60
714.95	1086.94
715.29	1084.37
715.62	1082.26
715.96	1085.31
716.29	1075.01
716.63	1075.94
716.96	1084.37
717.29	1079.69
717.63	1070.09
717.96	1083.90
718.30	1089.29
718.63	1094.43
718.97	1100.52
719.30	1117.61
719.63	1114.80
719.97	1108.24
720.30	1096.78
720.64	1096.78
720.97	1079.92
721.30	1067.75
721.64	1067.52
721.97	1067.28
722.31	1062.84
722.64	1063.31
722.97	1066.58
723.31	1069.16
723.64	1071.50
723.97	1078.28
724.31	1084.14
724.64	1092.80
724.98	1093.97
725.31	1099.35
725.64	1098.88
725.98	1101.22
726.31	1094.20
726.64	1093.03
726.97	1083.67
727.31	1072.67
727.64	1075.48
727.97	1076.18
728.31	1080.16
728.64	1086.71
728.97	1090.22
729.31	1081.80
729.64	1075.24
729.97	1070.33
730.30	1069.16
730.64	1071.26
730.97	1070.80
731.30	1074.77
731.63	1078.75
731.97	1068.45
732.30	1064.01
732.63	1062.84
732.96	1076.18
733.30	1063.07
733.63	1075.24
733.96	1074.54
734.29	1074.31
734.63	1060.96
734.96	1071.97
735.29	1067.99
735.62	1065.65
735.95	1064.71
736.29	1068.22
736.62	1070.33
736.95	1066.11
737.28	1072.67
737.61	1075.48
737.94	1073.60
738.28	1069.39
738.61	1081.56
738.94	1090.46
739.27	1086.94
739.60	1086.01
739.93	1090.46
740.27	1084.60
740.60	1078.52
740.93	1075.01
741.26	1082.26
741.59	1087.41
741.92	1085.31
742.25	1090.92
742.58	1105.90
742.91	1102.39
743.25	1090.92
743.58	1081.09
743.91	1073.60
744.24	1066.35
744.57	1059.33
744.90	1065.65
745.23	1077.82
745.56	1068.22
745.89	1068.92
746.22	1075.48
746.55	1075.48
746.88	1069.39
747.21	1081.09
747.54	1084.37
747.87	1080.86
748.20	1075.24
748.53	1082.50
748.87	1081.80
749.20	1077.82
749.53	1081.56
749.86	1080.63
750.19	1067.05
750.52	1062.84
750.85	1064.01
751.18	1064.94
751.51	1069.16
751.84	1084.84
752.16	1092.80
752.49	1092.56
752.82	1092.80
753.15	1086.24
753.48	1082.03
753.81	1079.22
754.14	1078.52
754.47	1085.07
754.80	1085.77
755.13	1087.18
755.46	1087.41
755.79	1088.12
756.12	1086.24
756.45	1084.84
756.78	1092.09
757.11	1094.67
757.43	1097.48
757.76	1091.86
758.09	1091.16
758.42	1078.52
758.75	1075.48
759.08	1066.58
759.41	1065.88
759.74	1071.50
760.07	1080.86
760.39	1074.31
760.72	1076.18
761.05	1074.07
761.38	1073.37
761.71	1074.31
762.04	1075.94
762.36	1073.84
762.69	1080.39
763.02	1082.73
763.35	1070.80
763.68	1085.31
764.01	1097.24
764.33	1087.88
764.66	1084.14
