SpectraSuite Data File
++++++++++++++++++++++++++++++++++++
Date: Mon Aug 26 10:24:52 PDT 2019
User: corrico
Dark Spectrum Present: No
Reference Spectrum Present: No
Number of Sampled Component Spectra: 1
Spectrometers: USB2+H06089
Integration Time (usec): 10000 (USB2+H06089)
Spectra Averaged: 2 (USB2+H06089)
Boxcar Smoothing: 2 (USB2+H06089)
Correct for Electrical Dark: No (USB2+H06089)
Strobe/Lamp Enabled: No (USB2+H06089)
Correct for Detector Non-linearity: No (USB2+H06089)
Correct for Stray Light: No (USB2+H06089)
Number of Pixels in Processed Spectrum: 2048
>>>>>Begin Processed Spectral Data<<<<<
339.70	1019.30
340.07	1019.30
340.45	983.73
340.82	959.15
341.19	942.07
341.57	922.17
341.94	924.28
342.31	916.55
342.69	919.36
343.06	904.38
343.43	903.45
343.81	890.57
344.18	900.17
344.55	900.87
344.93	908.83
345.30	912.57
345.67	917.96
346.04	917.02
346.42	919.83
346.79	927.32
347.16	939.02
347.54	952.60
347.91	961.49
348.28	985.60
348.65	1001.05
349.03	1011.11
349.40	1025.15
349.77	1034.75
350.14	1047.86
350.52	1059.56
350.89	1063.54
351.26	1064.01
351.63	1076.65
352.01	1081.09
352.38	1083.90
352.75	1086.24
353.12	1093.97
353.50	1097.95
353.87	1098.65
354.24	1100.75
354.61	1104.97
354.98	1103.80
355.36	1111.75
355.73	1101.69
356.10	1108.48
356.47	1113.16
356.84	1114.80
357.22	1116.90
357.59	1122.05
357.96	1111.75
358.33	1103.09
358.70	1105.20
359.08	1098.88
359.45	1095.84
359.82	1107.07
360.19	1112.92
360.56	1111.75
360.94	1105.44
361.31	1098.88
361.68	1090.92
362.05	1101.92
362.42	1098.65
362.79	1100.52
363.16	1098.41
363.54	1092.80
363.91	1076.18
364.28	1074.77
364.65	1072.20
365.02	1073.84
365.39	1065.65
365.76	1069.39
366.14	1075.71
366.51	1081.33
366.88	1083.43
367.25	1089.75
367.62	1086.01
367.99	1075.24
368.36	1079.22
368.73	1073.84
369.10	1078.05
369.48	1078.75
369.85	1081.33
370.22	1074.54
370.59	1089.75
370.96	1090.46
371.33	1097.48
371.70	1099.58
372.07	1093.03
372.44	1080.39
372.81	1070.56
373.18	1065.88
373.55	1060.96
373.93	1066.35
374.30	1079.69
374.67	1091.16
375.04	1084.37
375.41	1089.52
375.78	1095.37
376.15	1085.54
376.52	1084.37
376.89	1084.60
377.26	1083.90
377.63	1072.90
378.00	1080.63
378.37	1080.39
378.74	1088.12
379.11	1089.52
379.48	1100.29
379.85	1092.09
380.22	1097.71
380.59	1096.07
380.96	1093.26
381.33	1088.82
381.70	1093.97
382.07	1093.03
382.44	1089.99
382.81	1100.52
383.18	1098.88
383.55	1094.20
383.92	1095.14
384.29	1092.80
384.66	1092.33
385.03	1101.69
385.40	1109.88
385.77	1112.46
386.14	1120.18
386.51	1109.18
386.88	1103.09
387.25	1099.12
387.62	1093.97
387.99	1100.75
388.36	1112.69
388.73	1111.29
389.10	1106.61
389.46	1111.52
389.83	1107.78
390.20	1102.86
390.57	1098.65
390.94	1093.26
391.31	1088.82
391.68	1091.86
392.05	1086.71
392.42	1087.88
392.79	1094.90
393.16	1096.78
393.53	1084.84
393.89	1089.75
394.26	1097.48
394.63	1101.46
395.00	1103.33
395.37	1107.31
395.74	1120.65
396.11	1119.71
396.48	1120.88
396.84	1128.14
397.21	1133.76
397.58	1128.84
397.95	1124.16
398.32	1127.90
398.69	1123.93
399.06	1128.61
399.42	1123.93
399.79	1137.97
400.16	1144.05
400.53	1145.46
400.90	1143.59
401.27	1159.50
401.64	1152.71
402.00	1155.29
402.37	1164.65
402.74	1170.74
403.11	1170.97
403.48	1181.97
403.84	1191.10
404.21	1194.14
404.58	1205.14
404.95	1205.38
405.32	1212.40
405.68	1212.16
406.05	1229.48
406.42	1234.40
406.79	1245.63
407.16	1263.66
407.52	1288.00
407.89	1303.68
408.26	1335.28
408.63	1354.00
408.99	1368.75
409.36	1380.68
409.73	1403.62
410.10	1404.32
410.47	1433.81
410.83	1465.18
411.20	1511.99
411.57	1536.09
411.94	1586.65
412.30	1628.78
412.67	1680.27
413.04	1720.76
413.40	1771.55
413.77	1838.26
414.14	1902.15
414.51	1952.01
414.87	2014.73
415.24	2098.06
415.61	2176.23
415.97	2253.47
416.34	2343.11
416.71	2440.48
417.08	2526.61
417.44	2608.76
417.81	2721.81
418.18	2830.64
418.54	2978.33
418.91	3111.51
419.28	3257.32
419.64	3385.58
420.01	3564.64
420.38	3686.81
420.74	3860.48
421.11	4051.47
421.48	4268.20
421.84	4470.19
422.21	4688.80
422.58	4934.79
422.94	5184.29
423.31	5429.11
423.68	5680.25
424.04	5970.00
424.41	6245.02
424.77	6508.80
425.14	6804.87
425.51	7126.46
425.87	7487.61
426.24	7812.24
426.61	8222.77
426.97	8678.71
427.34	9114.28
427.70	9596.43
428.07	10096.84
428.44	10602.39
428.80	11101.86
429.17	11653.76
429.53	12150.42
429.90	12750.77
430.27	13279.73
430.63	13809.86
431.00	14473.40
431.36	15187.03
431.73	15760.47
432.09	16445.77
432.46	17117.98
432.83	17685.09
433.19	18185.49
433.56	18844.59
433.92	19485.66
434.29	20087.18
434.65	20719.12
435.02	21347.32
435.38	21994.95
435.75	22458.61
436.11	23054.28
436.48	23530.58
436.84	24050.64
437.21	24479.43
437.57	24958.77
437.94	25395.28
438.30	25812.60
438.67	26090.42
439.03	26211.89
439.40	26353.96
439.76	26216.11
440.13	26085.04
440.49	25984.16
440.86	25812.60
441.22	25531.27
441.59	25234.95
441.95	24904.47
442.32	24441.28
442.68	24010.85
443.05	23564.98
443.41	23122.39
443.78	22538.89
444.14	21997.76
444.51	21387.35
444.87	20934.69
445.24	20464.71
445.60	20059.80
445.96	19527.79
446.33	19073.73
446.69	18456.06
447.06	17929.91
447.42	17363.26
447.79	16875.96
448.15	16511.54
448.51	16091.18
448.88	15683.70
449.24	15257.02
449.61	14975.68
449.97	14573.35
450.33	14200.50
450.70	13814.78
451.06	13493.42
451.43	13043.81
451.79	12697.41
452.15	12375.82
452.52	12091.21
452.88	11802.62
453.24	11573.72
453.61	11301.74
453.97	11054.12
454.34	10766.93
454.70	10505.49
455.06	10244.06
455.43	9954.30
455.79	9622.18
456.15	9304.80
456.52	8990.00
456.88	8706.32
457.24	8429.91
457.61	8225.34
457.97	8020.55
458.33	7802.64
458.70	7567.89
459.06	7317.68
459.42	7071.46
459.79	6808.15
460.15	6594.69
460.51	6399.96
460.88	6214.82
461.24	6017.99
461.60	5868.66
461.96	5696.63
462.33	5522.96
462.69	5343.21
463.05	5198.80
463.42	5068.66
463.78	4940.17
464.14	4796.23
464.50	4704.71
464.87	4592.83
465.23	4467.15
465.59	4366.04
465.95	4282.95
466.32	4180.66
466.68	4099.92
467.04	4013.08
467.40	3926.01
467.77	3850.18
468.13	3770.37
468.49	3695.71
468.85	3628.77
469.22	3558.32
469.58	3476.40
469.94	3425.14
470.30	3349.77
470.66	3280.49
471.03	3206.77
471.39	3142.17
471.75	3077.57
472.11	3034.97
472.47	3000.33
472.84	2947.67
473.20	2899.46
473.56	2847.26
473.92	2790.39
474.28	2734.45
474.65	2705.89
475.01	2675.23
475.37	2633.80
475.73	2602.21
476.09	2565.93
476.45	2517.48
476.81	2485.88
477.18	2456.16
477.54	2415.43
477.90	2383.84
478.26	2353.41
478.62	2298.64
478.98	2267.51
479.34	2238.25
479.71	2204.78
480.07	2179.97
480.43	2154.93
480.79	2117.25
481.15	2105.78
481.51	2092.91
481.87	2062.95
482.23	2054.99
482.59	2034.16
482.96	1998.12
483.32	1967.22
483.68	1942.18
484.04	1906.60
484.40	1891.15
484.76	1867.05
485.12	1855.34
485.48	1844.34
485.84	1837.09
486.20	1834.75
486.56	1821.64
486.92	1790.04
487.28	1778.10
487.64	1750.95
488.00	1723.80
488.37	1704.61
488.73	1699.70
489.09	1674.42
489.45	1665.99
489.81	1642.12
490.17	1625.97
490.53	1607.25
490.89	1597.65
491.25	1574.01
491.61	1551.78
491.97	1543.35
492.33	1531.65
492.69	1520.18
493.05	1505.20
493.41	1511.05
493.77	1490.69
494.13	1475.71
494.49	1459.32
494.85	1462.60
495.21	1443.17
495.57	1438.73
495.93	1426.09
496.29	1424.68
496.64	1412.05
497.00	1402.45
497.36	1386.53
497.72	1376.00
498.08	1364.77
498.44	1367.11
498.80	1372.26
499.16	1371.55
499.52	1369.45
499.88	1356.34
500.24	1349.08
500.60	1336.91
500.96	1337.38
501.32	1328.49
501.68	1324.51
502.03	1317.02
502.39	1300.17
502.75	1278.63
503.11	1275.83
503.47	1265.76
503.83	1250.78
504.19	1252.19
504.55	1257.10
504.91	1247.51
505.26	1249.14
505.62	1240.95
505.98	1240.95
506.34	1229.72
506.70	1221.53
507.06	1216.38
507.42	1215.91
507.78	1200.69
508.13	1195.78
508.49	1186.18
508.85	1191.10
509.21	1191.33
509.57	1198.12
509.93	1213.10
510.28	1227.14
510.64	1218.25
511.00	1211.93
511.36	1206.31
511.72	1193.21
512.07	1183.84
512.43	1197.18
512.79	1195.08
513.15	1188.52
513.51	1185.72
513.86	1192.50
514.22	1175.89
514.58	1175.18
514.94	1174.01
515.30	1171.91
515.65	1159.03
516.01	1149.91
516.37	1151.78
516.73	1148.50
517.08	1150.61
517.44	1162.31
517.80	1167.93
518.16	1159.03
518.51	1169.33
518.87	1164.65
519.23	1159.74
519.59	1160.91
519.94	1163.95
520.30	1155.05
520.66	1155.52
521.01	1148.73
521.37	1143.12
521.73	1143.82
522.09	1136.33
522.44	1125.80
522.80	1117.37
523.16	1105.67
523.51	1109.18
523.87	1112.69
524.23	1118.31
524.58	1129.07
524.94	1144.99
525.30	1139.14
525.65	1131.41
526.01	1131.65
526.37	1122.52
526.72	1122.99
527.08	1111.99
527.44	1122.29
527.79	1123.69
528.15	1122.05
528.51	1105.67
528.86	1111.75
529.22	1111.75
529.58	1119.24
529.93	1134.93
530.29	1138.90
530.65	1134.22
531.00	1126.03
531.36	1119.24
531.71	1111.75
532.07	1106.37
532.43	1102.39
532.78	1103.33
533.14	1104.97
533.49	1097.01
533.85	1112.46
534.21	1122.05
534.56	1124.63
534.92	1115.03
535.27	1116.67
535.63	1114.33
535.98	1097.71
536.34	1086.24
536.69	1090.46
537.05	1085.07
537.41	1079.46
537.76	1089.99
538.12	1106.84
538.47	1097.71
538.83	1106.14
539.18	1106.61
539.54	1112.69
539.89	1108.48
540.25	1111.29
540.60	1110.82
540.96	1109.88
541.31	1104.97
541.67	1087.41
542.02	1088.35
542.38	1087.65
542.73	1083.43
543.09	1089.29
543.44	1109.41
543.80	1104.26
544.15	1109.18
544.51	1116.20
544.86	1110.35
545.22	1111.75
545.57	1119.95
545.93	1116.90
546.28	1117.14
546.64	1123.22
546.99	1116.67
547.35	1122.99
547.70	1119.95
548.05	1117.61
548.41	1112.22
548.76	1111.29
549.12	1098.88
549.47	1104.73
549.83	1111.05
550.18	1116.67
550.53	1118.31
550.89	1127.20
551.24	1128.37
551.60	1108.71
551.95	1110.35
552.30	1110.58
552.66	1105.67
553.01	1096.31
553.37	1104.73
553.72	1098.88
554.07	1102.63
554.43	1107.31
554.78	1108.95
555.13	1118.78
555.49	1122.52
555.84	1120.41
556.19	1114.80
556.55	1120.65
556.90	1109.88
557.26	1101.46
557.61	1097.01
557.96	1093.26
558.32	1092.33
558.67	1095.37
559.02	1104.97
559.37	1110.12
559.73	1119.48
560.08	1114.56
560.43	1111.75
560.79	1109.65
561.14	1100.99
561.49	1094.43
561.85	1094.43
562.20	1095.37
562.55	1086.24
562.90	1078.05
563.26	1077.11
563.61	1074.77
563.96	1079.22
564.32	1077.58
564.67	1082.03
565.02	1083.43
565.37	1075.48
565.73	1069.86
566.08	1077.11
566.43	1083.20
566.78	1084.84
567.14	1097.95
567.49	1104.97
567.84	1108.95
568.19	1107.54
568.54	1104.73
568.90	1102.39
569.25	1096.31
569.60	1078.28
569.95	1086.94
570.31	1095.14
570.66	1096.31
571.01	1098.41
571.36	1104.50
571.71	1097.24
572.06	1088.35
572.42	1084.14
572.77	1083.20
573.12	1100.29
573.47	1103.09
573.82	1102.86
574.18	1112.92
574.53	1113.86
574.88	1098.65
575.23	1095.60
575.58	1096.54
575.93	1101.46
576.28	1097.01
576.64	1097.48
576.99	1094.67
577.34	1098.88
577.69	1082.97
578.04	1074.07
578.39	1084.37
578.74	1094.90
579.09	1092.80
579.44	1099.12
579.80	1108.01
580.15	1101.69
580.50	1095.37
580.85	1100.52
581.20	1105.44
581.55	1098.65
581.90	1100.75
582.25	1091.63
582.60	1096.78
582.95	1093.03
583.30	1099.12
583.65	1097.01
584.00	1104.97
584.35	1090.22
584.71	1080.39
585.06	1082.97
585.41	1085.31
585.76	1095.84
586.11	1108.71
586.46	1115.97
586.81	1129.07
587.16	1124.63
587.51	1114.10
587.86	1117.84
588.21	1111.75
588.56	1094.90
588.91	1097.48
589.26	1093.73
589.61	1086.01
589.96	1089.29
590.31	1098.18
590.66	1095.37
591.01	1099.82
591.36	1096.78
591.71	1097.01
592.06	1094.20
592.41	1098.88
592.76	1093.26
593.10	1084.84
593.45	1082.26
593.80	1077.11
594.15	1074.31
594.50	1088.58
594.85	1093.73
595.20	1093.50
595.55	1093.26
595.90	1093.03
596.25	1083.90
596.60	1086.01
596.95	1085.07
597.30	1089.52
597.64	1135.63
597.99	1133.05
598.34	1132.82
598.69	1131.65
599.04	1134.93
599.39	1098.41
599.74	1094.43
600.09	1092.80
600.44	1096.54
600.78	1103.80
601.13	1095.37
601.48	1110.35
601.83	1114.09
602.18	1111.05
602.53	1100.99
602.88	1107.54
603.22	1089.99
603.57	1084.37
603.92	1084.37
604.27	1082.97
604.62	1071.03
604.97	1078.52
605.31	1079.92
605.66	1090.22
606.01	1092.80
606.36	1092.56
606.71	1089.52
607.05	1099.12
607.40	1090.92
607.75	1087.65
608.10	1091.86
608.44	1089.05
608.79	1089.52
609.14	1079.69
609.49	1078.05
609.84	1080.39
610.18	1083.43
610.53	1073.60
610.88	1082.03
611.23	1087.65
611.57	1087.41
611.92	1095.60
612.27	1093.26
612.62	1091.16
612.96	1089.52
613.31	1091.86
613.66	1090.22
614.00	1103.56
614.35	1106.84
614.70	1106.14
615.05	1096.78
615.39	1096.07
615.74	1091.16
616.09	1088.35
616.43	1088.35
616.78	1088.82
617.13	1084.37
617.47	1081.80
617.82	1083.43
618.17	1080.16
618.51	1086.48
618.86	1081.33
619.21	1071.50
619.55	1073.37
619.90	1080.16
620.25	1069.16
620.59	1082.26
620.94	1093.73
621.29	1080.39
621.63	1072.67
621.98	1081.09
622.32	1074.77
622.67	1074.07
623.02	1090.46
623.36	1089.99
623.71	1082.73
624.05	1077.11
624.40	1077.11
624.75	1078.52
625.09	1093.26
625.44	1104.73
625.78	1112.22
626.13	1103.80
626.48	1104.73
626.82	1101.22
627.17	1109.65
627.51	1115.27
627.86	1117.61
628.20	1112.22
628.55	1104.97
628.89	1088.12
629.24	1077.11
629.58	1084.37
629.93	1076.65
630.28	1083.90
630.62	1091.16
630.97	1096.31
631.31	1092.33
631.66	1101.92
632.00	1093.73
632.35	1089.05
632.69	1081.09
633.04	1075.48
633.38	1075.01
633.73	1085.07
634.07	1079.46
634.42	1082.97
634.76	1080.39
635.11	1085.54
635.45	1080.86
635.79	1086.94
636.14	1086.48
636.48	1089.99
636.83	1087.88
637.17	1084.60
637.52	1084.14
637.86	1088.35
638.21	1093.26
638.55	1093.73
638.89	1093.03
639.24	1094.67
639.58	1087.88
639.93	1091.39
640.27	1089.52
640.61	1083.67
640.96	1080.16
641.30	1088.82
641.65	1094.90
641.99	1089.75
642.33	1098.41
642.68	1095.14
643.02	1089.75
643.37	1077.82
643.71	1078.99
644.05	1079.69
644.40	1087.41
644.74	1093.50
645.08	1099.82
645.43	1102.63
645.77	1112.92
646.11	1114.10
646.46	1104.73
646.80	1096.31
647.14	1092.09
647.49	1075.71
647.83	1075.48
648.17	1079.46
648.52	1080.16
648.86	1078.99
649.20	1080.16
649.55	1081.09
649.89	1090.69
650.23	1088.12
650.57	1085.77
650.92	1082.50
651.26	1079.69
651.60	1070.09
651.95	1073.60
652.29	1079.69
652.63	1089.52
652.97	1087.41
653.32	1097.24
653.66	1099.35
654.00	1102.39
654.34	1102.16
654.69	1114.09
655.03	1100.05
655.37	1096.78
655.71	1086.71
656.05	1074.07
656.40	1069.39
656.74	1079.22
657.08	1087.65
657.42	1092.09
657.76	1096.78
658.11	1098.41
658.45	1100.99
658.79	1093.97
659.13	1102.16
659.47	1110.35
659.82	1107.78
660.16	1098.18
660.50	1105.90
660.84	1110.12
661.18	1098.41
661.52	1097.24
661.87	1098.88
662.21	1089.52
662.55	1082.97
662.89	1088.58
663.23	1091.63
663.57	1100.29
663.91	1097.48
664.25	1097.01
664.60	1098.41
664.94	1091.16
665.28	1078.28
665.62	1084.84
665.96	1086.24
666.30	1079.92
666.64	1081.80
666.98	1086.48
667.32	1089.29
667.66	1086.48
668.01	1095.37
668.35	1097.48
668.69	1089.99
669.03	1092.33
669.37	1084.14
669.71	1079.22
670.05	1073.60
670.39	1079.22
670.73	1068.92
671.07	1068.69
671.41	1071.97
671.75	1073.84
672.09	1074.77
672.43	1076.18
672.77	1078.28
673.11	1075.48
673.45	1074.54
673.79	1078.99
674.13	1077.11
674.47	1086.94
674.81	1092.09
675.15	1094.20
675.49	1092.33
675.83	1101.22
676.17	1097.95
676.51	1093.50
676.85	1084.37
677.19	1076.41
677.53	1070.80
677.87	1056.75
678.21	1050.43
678.55	1058.16
678.89	1065.41
679.23	1062.84
679.57	1075.71
679.90	1083.43
680.24	1083.20
680.58	1075.71
680.92	1080.16
681.26	1068.45
681.60	1064.48
681.94	1068.45
682.28	1078.52
682.62	1084.37
682.96	1094.43
683.29	1087.18
683.63	1084.37
683.97	1078.99
684.31	1075.94
684.65	1076.88
684.99	1085.07
685.33	1075.94
685.67	1074.77
686.00	1078.05
686.34	1076.41
686.68	1078.99
687.02	1088.12
687.36	1097.24
687.70	1089.05
688.03	1087.88
688.37	1079.46
688.71	1078.75
689.05	1077.11
689.39	1087.65
689.72	1095.60
690.06	1105.90
690.40	1108.24
690.74	1106.14
691.08	1098.41
691.41	1093.97
691.75	1093.50
692.09	1088.58
692.43	1083.20
692.76	1083.43
693.10	1086.71
693.44	1094.20
693.78	1099.12
694.11	1106.14
694.45	1103.09
694.79	1095.60
695.13	1081.33
695.46	1083.67
695.80	1077.58
696.14	1079.46
696.48	1089.99
696.81	1094.67
697.15	1092.09
697.49	1089.99
697.82	1082.50
698.16	1070.33
698.50	1063.54
698.83	1062.60
699.17	1064.94
699.51	1073.84
699.84	1073.60
700.18	1078.05
700.52	1077.82
700.85	1083.20
701.19	1078.75
701.53	1082.97
701.86	1088.35
702.20	1079.22
702.54	1073.84
702.87	1079.92
703.21	1081.33
703.55	1074.54
703.88	1076.65
704.22	1069.62
704.55	1062.60
704.89	1062.84
705.23	1068.69
705.56	1074.07
705.90	1079.92
706.23	1083.43
706.57	1075.71
706.91	1068.69
707.24	1058.86
707.58	1051.60
707.91	1053.01
708.25	1053.01
708.58	1052.54
708.92	1063.54
709.26	1075.01
709.59	1066.35
709.93	1078.05
710.26	1087.88
710.60	1097.48
710.93	1095.60
711.27	1100.75
711.60	1099.82
711.94	1092.33
712.27	1083.90
712.61	1087.88
712.94	1092.56
713.28	1091.16
713.61	1088.82
713.95	1089.99
714.28	1084.14
714.62	1086.94
714.95	1082.73
715.29	1084.37
715.62	1087.65
715.96	1097.48
716.29	1082.26
716.63	1082.26
716.96	1081.80
717.29	1068.69
717.63	1058.16
717.96	1075.48
718.30	1072.67
718.63	1079.92
718.97	1087.88
719.30	1083.43
719.63	1069.62
719.97	1065.88
720.30	1062.14
720.64	1064.01
720.97	1073.60
721.30	1074.77
721.64	1075.24
721.97	1073.60
722.31	1072.20
722.64	1071.73
722.97	1079.69
723.31	1084.37
723.64	1082.26
723.97	1082.26
724.31	1078.75
724.64	1079.46
724.98	1082.50
725.31	1090.92
725.64	1084.14
725.98	1087.65
726.31	1079.69
726.64	1079.69
726.97	1077.11
727.31	1088.12
727.64	1086.71
727.97	1087.88
728.31	1085.07
728.64	1074.31
728.97	1074.54
729.31	1075.71
729.64	1077.58
729.97	1082.73
730.30	1086.24
730.64	1082.73
730.97	1086.94
731.30	1093.03
731.63	1088.58
731.97	1095.37
732.30	1088.58
732.63	1081.33
732.96	1070.09
733.30	1069.39
733.63	1066.82
733.96	1078.28
734.29	1087.41
734.63	1099.58
734.96	1103.09
735.29	1105.20
735.62	1101.92
735.95	1100.29
736.29	1098.88
736.62	1099.58
736.95	1091.39
737.28	1087.65
737.61	1083.67
737.94	1087.18
738.28	1087.18
738.61	1090.22
738.94	1099.58
739.27	1102.86
739.60	1098.18
739.93	1102.39
740.27	1099.82
740.60	1093.26
740.93	1089.75
741.26	1078.28
741.59	1064.01
741.92	1074.31
742.25	1075.01
742.58	1075.71
742.91	1080.16
743.25	1092.09
743.58	1095.84
743.91	1095.14
744.24	1079.69
744.57	1086.01
744.90	1084.14
745.23	1069.62
745.56	1073.60
745.89	1089.05
746.22	1087.88
746.55	1086.48
746.88	1089.29
747.21	1083.67
747.54	1090.22
747.87	1082.97
748.20	1079.22
748.53	1075.01
748.87	1075.94
749.20	1073.37
749.53	1076.18
749.86	1075.24
750.19	1088.58
750.52	1081.56
750.85	1074.54
751.18	1074.31
751.51	1076.41
751.84	1074.54
752.16	1081.80
752.49	1075.48
752.82	1071.03
753.15	1066.82
753.48	1058.62
753.81	1049.96
754.14	1062.14
754.47	1068.22
754.80	1061.67
755.13	1069.16
755.46	1077.58
755.79	1072.67
756.12	1066.82
756.45	1075.01
756.78	1059.09
757.11	1061.20
757.43	1057.69
757.76	1062.60
758.09	1064.71
758.42	1072.20
758.75	1065.18
759.08	1075.01
759.41	1085.31
759.74	1082.50
760.07	1078.52
760.39	1076.65
760.72	1082.50
761.05	1073.14
761.38	1082.73
761.71	1093.73
762.04	1106.84
762.36	1097.48
762.69	1103.80
763.02	1094.43
763.35	1091.63
763.68	1094.90
764.01	1095.14
764.33	1098.65
764.66	1103.80
