SpectraSuite Data File
++++++++++++++++++++++++++++++++++++
Date: Mon Aug 26 10:24:51 PDT 2019
User: corrico
Dark Spectrum Present: No
Reference Spectrum Present: No
Number of Sampled Component Spectra: 1
Spectrometers: USB2+H06089
Integration Time (usec): 10000 (USB2+H06089)
Spectra Averaged: 2 (USB2+H06089)
Boxcar Smoothing: 2 (USB2+H06089)
Correct for Electrical Dark: No (USB2+H06089)
Strobe/Lamp Enabled: No (USB2+H06089)
Correct for Detector Non-linearity: No (USB2+H06089)
Correct for Stray Light: No (USB2+H06089)
Number of Pixels in Processed Spectrum: 2048
>>>>>Begin Processed Spectral Data<<<<<
339.70	1002.92
340.07	1002.92
340.45	978.58
340.82	961.49
341.19	939.49
341.57	914.92
341.94	893.38
342.31	883.32
342.69	875.13
343.06	878.17
343.43	871.38
343.81	879.57
344.18	883.55
344.55	892.68
344.93	889.87
345.30	898.30
345.67	915.62
346.04	918.89
346.42	929.43
346.79	946.04
347.16	958.92
347.54	974.60
347.91	995.90
348.28	1004.79
348.65	1011.58
349.03	1030.30
349.40	1029.13
349.77	1029.37
350.14	1037.09
350.52	1041.77
350.89	1044.11
351.26	1052.07
351.63	1067.75
352.01	1070.33
352.38	1078.05
352.75	1082.26
353.12	1085.77
353.50	1081.80
353.87	1085.07
354.24	1080.39
354.61	1081.56
354.98	1074.07
355.36	1070.56
355.73	1074.07
356.10	1085.31
356.47	1092.56
356.84	1105.20
357.22	1106.84
357.59	1098.88
357.96	1098.18
358.33	1089.05
358.70	1083.67
359.08	1090.92
359.45	1097.95
359.82	1094.20
360.19	1101.46
360.56	1104.97
360.94	1099.82
361.31	1089.05
361.68	1085.31
362.05	1082.26
362.42	1082.26
362.79	1087.41
363.16	1088.58
363.54	1101.92
363.91	1097.95
364.28	1093.97
364.65	1092.56
365.02	1100.05
365.39	1088.58
365.76	1092.09
366.14	1082.26
366.51	1071.97
366.88	1075.24
367.25	1079.46
367.62	1076.88
367.99	1078.05
368.36	1079.69
368.73	1076.18
369.10	1070.09
369.48	1072.90
369.85	1079.69
370.22	1089.29
370.59	1085.54
370.96	1097.71
371.33	1098.88
371.70	1105.44
372.07	1107.07
372.44	1116.44
372.81	1114.33
373.18	1119.01
373.55	1111.99
373.93	1110.58
374.30	1101.69
374.67	1099.82
375.04	1098.65
375.41	1104.26
375.78	1109.65
376.15	1113.16
376.52	1111.29
376.89	1103.80
377.26	1095.37
377.63	1079.92
378.00	1084.84
378.37	1077.58
378.74	1078.75
379.11	1092.80
379.48	1091.39
379.85	1081.56
380.22	1083.20
380.59	1094.67
380.96	1087.88
381.33	1080.63
381.70	1081.80
382.07	1088.12
382.44	1082.26
382.81	1080.63
383.18	1095.60
383.55	1100.05
383.92	1108.95
384.29	1098.41
384.66	1098.41
385.03	1096.54
385.40	1094.67
385.77	1075.94
386.14	1080.16
386.51	1073.60
386.88	1079.92
387.25	1085.77
387.62	1099.58
387.99	1101.69
388.36	1102.16
388.73	1093.73
389.10	1088.58
389.46	1085.77
389.83	1094.20
390.20	1104.03
390.57	1099.35
390.94	1111.75
391.31	1119.01
391.68	1108.95
392.05	1099.12
392.42	1117.84
392.79	1104.50
393.16	1098.41
393.53	1098.41
393.89	1104.26
394.26	1090.92
394.63	1103.09
395.00	1109.41
395.37	1125.10
395.74	1121.35
396.11	1130.95
396.48	1137.03
396.84	1128.37
397.21	1121.58
397.58	1138.20
397.95	1147.10
398.32	1141.71
398.69	1145.46
399.06	1144.52
399.42	1145.69
399.79	1144.52
400.16	1141.71
400.53	1146.86
400.90	1159.03
401.27	1154.35
401.64	1145.69
402.00	1147.33
402.37	1158.10
402.74	1159.50
403.11	1165.35
403.48	1169.10
403.84	1180.33
404.21	1180.57
404.58	1183.37
404.95	1186.65
405.32	1210.53
405.68	1218.72
406.05	1231.59
406.42	1256.87
406.79	1273.72
407.16	1292.91
407.52	1315.62
407.89	1328.96
408.26	1336.45
408.63	1357.74
408.99	1362.66
409.36	1396.13
409.73	1419.53
410.10	1438.26
410.47	1470.32
410.83	1506.13
411.20	1526.50
411.57	1569.33
411.94	1631.12
412.30	1678.87
412.67	1723.57
413.04	1765.47
413.40	1814.38
413.77	1863.77
414.14	1921.81
414.51	1985.94
414.87	2052.65
415.24	2131.06
415.61	2194.95
415.97	2262.60
416.34	2359.26
416.71	2453.82
417.08	2546.74
417.44	2668.21
417.81	2789.22
418.18	2890.33
418.54	3020.46
418.91	3157.15
419.28	3293.60
419.64	3436.14
420.01	3605.60
420.38	3761.01
420.74	3953.63
421.11	4157.03
421.48	4368.14
421.84	4583.00
422.21	4846.55
422.58	5080.83
422.94	5295.70
423.31	5539.11
423.68	5821.85
424.04	6099.20
424.41	6390.36
424.77	6709.38
425.14	7045.71
425.51	7351.62
425.87	7708.79
426.24	8066.19
426.61	8470.87
426.97	8968.23
427.34	9429.78
427.70	9892.04
428.07	10402.75
428.44	10910.17
428.80	11371.02
429.17	11874.01
429.53	12448.61
429.90	13065.81
430.27	13607.87
430.63	14176.39
431.00	14886.51
431.36	15571.35
431.73	16143.61
432.09	16864.50
432.46	17563.15
432.83	18141.26
433.19	18670.69
433.56	19354.36
433.92	20019.30
434.29	20612.86
434.65	21311.51
435.02	21984.89
435.38	22596.23
435.75	23134.32
436.11	23758.31
436.48	24248.89
436.84	24752.57
437.21	25242.44
437.57	25649.46
437.94	26097.91
438.30	26496.50
438.67	26791.64
439.03	26944.01
439.40	27185.32
439.76	27101.53
440.13	27022.19
440.49	26949.16
440.86	26726.11
441.22	26434.48
441.59	26097.21
441.95	25703.53
442.32	25174.10
442.68	24791.89
443.05	24233.20
443.41	23757.14
443.78	23188.86
444.14	22646.79
444.51	22011.10
444.87	21602.91
445.24	21132.46
445.60	20688.70
445.96	20164.65
446.33	19693.27
446.69	19059.45
447.06	18486.25
447.42	17959.40
447.79	17446.82
448.15	17022.01
448.51	16556.72
448.88	16188.78
449.24	15739.87
449.61	15427.88
449.97	15000.73
450.33	14624.60
450.70	14168.43
451.06	13806.59
451.43	13358.37
451.79	13033.51
452.15	12715.90
452.52	12406.01
452.88	12108.06
453.24	11850.60
453.61	11589.63
453.97	11316.96
454.34	11027.67
454.70	10769.51
455.06	10508.07
455.43	10170.33
455.79	9804.50
456.15	9518.49
456.52	9188.94
456.88	8916.74
457.24	8644.53
457.61	8448.16
457.97	8202.64
458.33	7971.86
458.70	7711.36
459.06	7438.69
459.42	7175.85
459.79	6928.45
460.15	6707.74
460.51	6501.31
460.88	6309.15
461.24	6125.18
461.60	5954.79
461.96	5763.57
462.33	5590.84
462.69	5465.15
463.05	5320.97
463.42	5182.65
463.78	5058.60
464.14	4916.53
464.50	4786.16
464.87	4669.13
465.23	4560.07
465.59	4465.51
465.95	4360.42
466.32	4245.73
466.68	4144.85
467.04	4062.23
467.40	3964.40
467.77	3887.86
468.13	3826.07
468.49	3754.45
468.85	3677.92
469.22	3618.70
469.58	3562.53
469.94	3493.95
470.30	3428.65
470.66	3367.09
471.03	3294.77
471.39	3232.98
471.75	3169.79
472.11	3111.74
472.47	3069.14
472.84	3011.33
473.20	2964.05
473.56	2911.86
473.92	2875.82
474.28	2815.20
474.65	2778.45
475.01	2731.41
475.37	2675.23
475.73	2625.85
476.09	2586.06
476.45	2550.95
476.81	2509.99
477.18	2480.97
477.54	2438.37
477.90	2396.24
478.26	2357.39
478.62	2309.87
478.98	2286.24
479.34	2264.00
479.71	2246.68
480.07	2214.85
480.43	2201.04
480.79	2173.42
481.15	2146.74
481.51	2121.93
481.87	2104.84
482.23	2087.06
482.59	2056.63
482.96	2020.12
483.32	2008.65
483.68	1975.18
484.04	1941.94
484.40	1925.09
484.76	1921.35
485.12	1884.13
485.48	1866.58
485.84	1856.98
486.20	1837.32
486.56	1815.79
486.92	1803.85
487.28	1794.25
487.64	1785.59
488.00	1768.27
488.37	1754.93
488.73	1728.02
489.09	1704.14
489.45	1676.99
489.81	1673.95
490.17	1649.14
490.53	1646.33
490.89	1627.61
491.25	1612.40
491.61	1589.22
491.97	1575.41
492.33	1559.73
492.69	1541.94
493.05	1533.52
493.41	1522.52
493.77	1511.28
494.13	1491.62
494.49	1487.41
494.85	1477.35
495.21	1461.66
495.57	1441.30
495.93	1438.96
496.29	1438.03
496.64	1437.09
497.00	1417.66
497.36	1418.83
497.72	1401.28
498.08	1383.02
498.44	1347.68
498.80	1355.64
499.16	1350.72
499.52	1335.04
499.88	1332.23
500.24	1335.98
500.60	1336.21
500.96	1322.64
501.32	1336.68
501.68	1330.83
502.03	1332.23
502.39	1312.81
502.75	1316.08
503.11	1306.96
503.47	1294.78
503.83	1287.53
504.19	1282.61
504.55	1266.23
504.91	1258.97
505.26	1251.72
505.62	1239.08
505.98	1244.46
506.34	1244.70
506.70	1244.23
507.06	1247.27
507.42	1248.68
507.78	1239.55
508.13	1245.87
508.49	1236.74
508.85	1219.19
509.21	1225.04
509.57	1221.53
509.93	1204.21
510.28	1197.42
510.64	1204.91
511.00	1197.42
511.36	1183.37
511.72	1182.20
512.07	1181.27
512.43	1176.35
512.79	1169.57
513.15	1174.95
513.51	1174.71
513.86	1161.37
514.22	1161.61
514.58	1149.91
514.94	1147.33
515.30	1144.05
515.65	1145.46
516.01	1151.31
516.37	1152.01
516.73	1149.44
517.08	1152.01
517.44	1164.65
517.80	1147.80
518.16	1153.65
518.51	1148.97
518.87	1135.16
519.23	1129.31
519.59	1137.27
519.94	1130.24
520.30	1134.22
520.66	1135.86
521.01	1138.67
521.37	1140.31
521.73	1142.18
522.09	1145.69
522.44	1157.39
522.80	1149.44
523.16	1136.56
523.51	1130.48
523.87	1112.69
524.23	1099.82
524.58	1084.14
524.94	1091.63
525.30	1096.54
525.65	1101.22
526.01	1106.61
526.37	1123.69
526.72	1127.20
527.08	1131.88
527.44	1137.27
527.79	1133.52
528.15	1126.73
528.51	1113.63
528.86	1111.75
529.22	1108.95
529.58	1107.78
529.93	1102.39
530.29	1111.75
530.65	1111.05
531.00	1119.24
531.36	1122.52
531.71	1127.44
532.07	1118.07
532.43	1110.35
532.78	1107.31
533.14	1113.39
533.49	1125.33
533.85	1134.69
534.21	1139.37
534.56	1126.03
534.92	1123.69
535.27	1115.50
535.63	1117.14
535.98	1124.63
536.34	1125.80
536.69	1116.20
537.05	1120.18
537.41	1120.18
537.76	1102.16
538.12	1114.80
538.47	1112.46
538.83	1102.16
539.18	1108.48
539.54	1116.44
539.89	1109.88
540.25	1113.16
540.60	1116.44
540.96	1090.92
541.31	1093.03
541.67	1101.46
542.02	1108.71
542.38	1110.12
542.73	1117.37
543.09	1121.58
543.44	1105.20
543.80	1111.52
544.15	1118.31
544.51	1126.50
544.86	1123.22
545.22	1132.35
545.57	1117.84
545.93	1103.33
546.28	1104.03
546.64	1098.88
546.99	1095.37
547.35	1098.65
547.70	1110.35
548.05	1107.31
548.41	1107.54
548.76	1107.31
549.12	1110.82
549.47	1108.24
549.83	1108.24
550.18	1113.16
550.53	1116.90
550.89	1110.82
551.24	1110.12
551.60	1122.05
551.95	1116.90
552.30	1117.61
552.66	1122.99
553.01	1120.41
553.37	1122.52
553.72	1124.39
554.07	1125.80
554.43	1128.84
554.78	1119.01
555.13	1113.86
555.49	1111.52
555.84	1093.73
556.19	1079.46
556.55	1081.09
556.90	1071.73
557.26	1071.03
557.61	1082.97
557.96	1088.58
558.32	1089.75
558.67	1091.63
559.02	1100.75
559.37	1101.46
559.73	1108.95
560.08	1111.99
560.43	1112.46
560.79	1107.07
561.14	1116.90
561.49	1104.03
561.85	1097.24
562.20	1094.90
562.55	1091.39
562.90	1075.94
563.26	1077.11
563.61	1080.16
563.96	1084.14
564.32	1079.46
564.67	1082.26
565.02	1087.65
565.37	1090.92
565.73	1097.71
566.08	1103.80
566.43	1099.58
566.78	1092.80
567.14	1098.88
567.49	1087.18
567.84	1087.65
568.19	1079.92
568.54	1089.29
568.90	1089.05
569.25	1098.18
569.60	1099.82
569.95	1111.05
570.31	1102.39
570.66	1094.20
571.01	1086.01
571.36	1076.65
571.71	1093.73
572.06	1098.41
572.42	1113.86
572.77	1116.44
573.12	1126.50
573.47	1118.78
573.82	1122.99
574.18	1108.48
574.53	1101.22
574.88	1103.56
575.23	1098.41
575.58	1097.95
575.93	1100.99
576.28	1109.18
576.64	1104.73
576.99	1109.88
577.34	1107.07
577.69	1113.16
578.04	1109.88
578.39	1116.20
578.74	1108.71
579.09	1105.20
579.44	1096.78
579.80	1096.07
580.15	1085.31
580.50	1091.39
580.85	1096.31
581.20	1103.56
581.55	1098.41
581.90	1108.24
582.25	1100.99
582.60	1098.18
582.95	1093.97
583.30	1096.31
583.65	1090.46
584.00	1093.03
584.35	1103.56
584.71	1101.46
585.06	1106.84
585.41	1110.82
585.76	1105.67
586.11	1098.88
586.46	1098.18
586.81	1094.43
587.16	1090.92
587.51	1102.39
587.86	1104.26
588.21	1108.48
588.56	1124.63
588.91	1132.59
589.26	1130.01
589.61	1122.75
589.96	1121.35
590.31	1093.97
590.66	1079.92
591.01	1077.58
591.36	1072.67
591.71	1067.28
592.06	1073.37
592.41	1079.22
592.76	1080.63
593.10	1088.12
593.45	1098.41
593.80	1109.41
594.15	1105.44
594.50	1099.12
594.85	1093.26
595.20	1099.82
595.55	1100.75
595.90	1105.20
596.25	1109.65
596.60	1117.84
596.95	1104.97
597.30	1107.31
597.64	1157.63
597.99	1161.61
598.34	1162.54
598.69	1173.54
599.04	1160.91
599.39	1116.67
599.74	1111.75
600.09	1102.39
600.44	1094.43
600.78	1096.31
601.13	1088.35
601.48	1081.09
601.83	1089.29
602.18	1083.67
602.53	1085.54
602.88	1083.20
603.22	1097.24
603.57	1090.69
603.92	1093.73
604.27	1094.67
604.62	1094.43
604.97	1091.16
605.31	1095.84
605.66	1100.29
606.01	1101.69
606.36	1100.05
606.71	1098.65
607.05	1098.41
607.40	1088.58
607.75	1085.77
608.10	1087.65
608.44	1086.01
608.79	1096.78
609.14	1104.73
609.49	1107.07
609.84	1111.52
610.18	1111.05
610.53	1097.95
610.88	1100.52
611.23	1099.35
611.57	1104.26
611.92	1104.50
612.27	1107.07
612.62	1105.20
612.96	1101.46
613.31	1100.75
613.66	1102.63
614.00	1104.03
614.35	1092.80
614.70	1100.29
615.05	1101.46
615.39	1099.35
615.74	1104.50
616.09	1114.80
616.43	1108.01
616.78	1101.22
617.13	1104.73
617.47	1098.88
617.82	1104.26
618.17	1103.09
618.51	1098.65
618.86	1091.16
619.21	1088.35
619.55	1072.67
619.90	1071.26
620.25	1076.41
620.59	1080.63
620.94	1088.82
621.29	1105.20
621.63	1108.48
621.98	1110.12
622.32	1114.09
622.67	1113.16
623.02	1097.48
623.36	1097.01
623.71	1101.22
624.05	1093.73
624.40	1091.86
624.75	1093.73
625.09	1099.12
625.44	1089.75
625.78	1086.24
626.13	1069.62
626.48	1070.56
626.82	1069.62
627.17	1074.54
627.51	1087.18
627.86	1097.01
628.20	1102.39
628.55	1100.05
628.89	1101.92
629.24	1094.90
629.58	1100.52
629.93	1099.35
630.28	1094.67
630.62	1089.29
630.97	1086.94
631.31	1078.05
631.66	1075.94
632.00	1076.18
632.35	1067.99
632.69	1063.07
633.04	1067.75
633.38	1058.62
633.73	1062.14
634.07	1066.58
634.42	1074.07
634.76	1062.14
635.11	1070.80
635.45	1070.33
635.79	1060.50
636.14	1050.67
636.48	1058.39
636.83	1060.50
637.17	1068.22
637.52	1077.35
637.86	1084.37
638.21	1089.29
638.55	1091.86
638.89	1076.18
639.24	1079.92
639.58	1074.54
639.93	1069.62
640.27	1064.48
640.61	1071.03
640.96	1075.01
641.30	1090.92
641.65	1096.07
641.99	1099.35
642.33	1108.24
642.68	1104.03
643.02	1093.50
643.37	1095.14
643.71	1106.61
644.05	1103.56
644.40	1102.86
644.74	1107.78
645.08	1110.12
645.43	1102.16
645.77	1094.20
646.11	1094.67
646.46	1098.65
646.80	1094.43
647.14	1089.99
647.49	1098.65
647.83	1101.92
648.17	1090.22
648.52	1090.46
648.86	1089.29
649.20	1088.12
649.55	1083.90
649.89	1086.24
650.23	1075.01
650.57	1081.80
650.92	1076.65
651.26	1090.22
651.60	1096.54
651.95	1110.12
652.29	1101.69
652.63	1099.35
652.97	1082.97
653.32	1078.52
653.66	1083.20
654.00	1086.94
654.34	1096.07
654.69	1102.16
655.03	1112.46
655.37	1096.78
655.71	1097.24
656.05	1087.65
656.40	1089.75
656.74	1071.97
657.08	1082.50
657.42	1076.65
657.76	1080.39
658.11	1074.31
658.45	1080.63
658.79	1075.71
659.13	1080.39
659.47	1078.99
659.82	1075.71
660.16	1079.92
660.50	1088.58
660.84	1087.65
661.18	1088.82
661.52	1100.99
661.87	1101.22
662.21	1100.52
662.55	1098.18
662.89	1097.01
663.23	1089.99
663.57	1086.94
663.91	1075.71
664.25	1068.45
664.60	1082.03
664.94	1082.26
665.28	1077.11
665.62	1078.75
665.96	1089.05
666.30	1068.45
666.64	1059.09
666.98	1064.01
667.32	1066.58
667.66	1058.86
668.01	1074.07
668.35	1092.80
668.69	1093.97
669.03	1092.56
669.37	1105.20
669.71	1107.31
670.05	1091.63
670.39	1089.99
670.73	1092.80
671.07	1098.41
671.41	1086.24
671.75	1097.24
672.09	1098.65
672.43	1104.97
672.77	1086.71
673.11	1093.03
673.45	1084.84
673.79	1082.03
674.13	1077.35
674.47	1077.58
674.81	1068.92
675.15	1067.75
675.49	1077.35
675.83	1078.05
676.17	1081.33
676.51	1076.65
676.85	1081.09
677.19	1073.60
677.53	1066.82
677.87	1066.58
678.21	1073.37
678.55	1074.31
678.89	1068.45
679.23	1072.67
679.57	1077.82
679.90	1081.09
680.24	1086.24
680.58	1089.29
680.92	1091.63
681.26	1093.26
681.60	1089.99
681.94	1079.69
682.28	1078.05
682.62	1076.88
682.96	1071.97
683.29	1074.07
683.63	1089.52
683.97	1086.71
684.31	1087.88
684.65	1084.60
684.99	1087.65
685.33	1084.37
685.67	1086.01
686.00	1079.46
686.34	1079.69
686.68	1083.90
687.02	1077.11
687.36	1085.07
687.70	1101.46
688.03	1109.65
688.37	1096.31
688.71	1093.50
689.05	1091.16
689.39	1079.69
689.72	1075.24
690.06	1084.60
690.40	1087.88
690.74	1099.82
691.08	1108.01
691.41	1109.18
691.75	1107.31
692.09	1099.82
692.43	1084.60
692.76	1071.50
693.10	1070.80
693.44	1068.92
693.78	1074.07
694.11	1073.60
694.45	1078.52
694.79	1080.39
695.13	1074.77
695.46	1075.71
695.80	1077.11
696.14	1080.39
696.48	1077.82
696.81	1077.82
697.15	1077.35
697.49	1083.43
697.82	1085.54
698.16	1087.65
698.50	1090.92
698.83	1085.31
699.17	1073.60
699.51	1066.82
699.84	1067.75
700.18	1075.01
700.52	1079.92
700.85	1094.43
701.19	1089.75
701.53	1085.77
701.86	1079.69
702.20	1084.37
702.54	1069.16
702.87	1078.52
703.21	1070.33
703.55	1071.03
703.88	1064.71
704.22	1074.07
704.55	1068.92
704.89	1084.14
705.23	1095.60
705.56	1095.60
705.90	1097.71
706.23	1101.69
706.57	1100.52
706.91	1082.73
707.24	1087.41
707.58	1083.90
707.91	1076.88
708.25	1071.97
708.58	1088.58
708.92	1085.07
709.26	1077.58
709.59	1078.99
709.93	1089.52
710.26	1087.18
710.60	1085.07
710.93	1085.77
711.27	1085.07
711.60	1077.58
711.94	1068.69
712.27	1071.03
712.61	1080.86
712.94	1082.50
713.28	1082.97
713.61	1094.43
713.95	1093.26
714.28	1091.86
714.62	1091.63
714.95	1092.80
715.29	1090.69
715.62	1092.09
715.96	1090.46
716.29	1088.12
716.63	1079.22
716.96	1074.54
717.29	1078.52
717.63	1084.14
717.96	1095.84
718.30	1105.67
718.63	1108.01
718.97	1104.73
719.30	1098.88
719.63	1094.43
719.97	1095.14
720.30	1092.80
720.64	1096.31
720.97	1093.97
721.30	1097.71
721.64	1089.52
721.97	1089.99
722.31	1093.50
722.64	1102.39
722.97	1090.69
723.31	1097.95
723.64	1089.99
723.97	1082.03
724.31	1073.60
724.64	1079.92
724.98	1069.86
725.31	1084.37
725.64	1091.16
725.98	1090.69
726.31	1087.65
726.64	1088.35
726.97	1078.99
727.31	1066.58
727.64	1072.90
727.97	1071.73
728.31	1071.97
728.64	1062.60
728.97	1081.09
729.31	1080.39
729.64	1087.18
729.97	1090.46
730.30	1090.46
730.64	1085.54
730.97	1077.35
731.30	1072.67
731.63	1071.26
731.97	1073.37
732.30	1067.05
732.63	1073.37
732.96	1066.11
733.30	1074.77
733.63	1078.28
733.96	1072.90
734.29	1071.73
734.63	1078.75
734.96	1067.99
735.29	1073.14
735.62	1076.18
735.95	1084.14
736.29	1089.52
736.62	1100.52
736.95	1102.86
737.28	1101.92
737.61	1095.60
737.94	1082.50
738.28	1081.09
738.61	1076.18
738.94	1081.09
739.27	1084.60
739.60	1090.22
739.93	1085.07
740.27	1080.86
740.60	1077.35
740.93	1072.43
741.26	1078.28
741.59	1073.37
741.92	1075.48
742.25	1075.71
742.58	1070.80
742.91	1056.52
743.25	1060.96
743.58	1062.14
743.91	1065.41
744.24	1065.65
744.57	1067.75
744.90	1062.14
745.23	1075.01
745.56	1082.03
745.89	1083.43
746.22	1099.35
746.55	1106.84
746.88	1102.63
747.21	1097.48
747.54	1093.50
747.87	1092.80
748.20	1086.94
748.53	1076.65
748.87	1070.09
749.20	1073.60
749.53	1069.39
749.86	1070.56
750.19	1080.39
750.52	1091.63
750.85	1097.01
751.18	1091.86
751.51	1095.60
751.84	1097.71
752.16	1091.86
752.49	1085.77
752.82	1095.14
753.15	1098.18
753.48	1087.18
753.81	1081.56
754.14	1080.16
754.47	1072.67
754.80	1064.94
755.13	1065.88
755.46	1075.24
755.79	1078.52
756.12	1088.35
756.45	1085.77
756.78	1098.88
757.11	1095.60
757.43	1096.54
757.76	1092.80
758.09	1104.26
758.42	1100.05
758.75	1100.29
759.08	1095.84
759.41	1091.16
759.74	1090.92
760.07	1086.01
760.39	1076.41
760.72	1089.29
761.05	1087.65
761.38	1082.97
761.71	1075.71
762.04	1081.80
762.36	1067.28
762.69	1067.75
763.02	1065.65
763.35	1078.05
763.68	1073.84
764.01	1074.07
764.33	1073.37
764.66	1071.03
