SpectraSuite Data File
++++++++++++++++++++++++++++++++++++
Date: Mon Aug 26 10:24:52 PDT 2019
User: corrico
Dark Spectrum Present: No
Reference Spectrum Present: No
Number of Sampled Component Spectra: 1
Spectrometers: USB2+H06089
Integration Time (usec): 10000 (USB2+H06089)
Spectra Averaged: 2 (USB2+H06089)
Boxcar Smoothing: 2 (USB2+H06089)
Correct for Electrical Dark: No (USB2+H06089)
Strobe/Lamp Enabled: No (USB2+H06089)
Correct for Detector Non-linearity: No (USB2+H06089)
Correct for Stray Light: No (USB2+H06089)
Number of Pixels in Processed Spectrum: 2048
>>>>>Begin Processed Spectral Data<<<<<
339.70	1029.84
340.07	1029.84
340.45	999.88
340.82	978.81
341.19	944.41
341.57	918.19
341.94	910.00
342.31	907.19
342.69	906.26
343.06	913.04
343.43	911.87
343.81	912.81
344.18	917.49
344.55	927.32
344.93	933.17
345.30	933.41
345.67	943.24
346.04	937.85
346.42	928.72
346.79	927.32
347.16	942.77
347.54	941.36
347.91	944.64
348.28	956.11
348.65	970.39
349.03	984.43
349.40	1003.15
349.77	1022.81
350.14	1036.86
350.52	1039.90
350.89	1042.71
351.26	1041.07
351.63	1036.62
352.01	1033.35
352.38	1052.54
352.75	1060.73
353.12	1068.69
353.50	1085.54
353.87	1099.58
354.24	1096.07
354.61	1095.60
354.98	1083.43
355.36	1079.69
355.73	1075.94
356.10	1082.73
356.47	1077.82
356.84	1095.84
357.22	1092.56
357.59	1092.56
357.96	1084.37
358.33	1083.20
358.70	1074.77
359.08	1076.65
359.45	1071.50
359.82	1066.58
360.19	1066.11
360.56	1061.90
360.94	1058.62
361.31	1063.07
361.68	1074.31
362.05	1077.35
362.42	1089.05
362.79	1082.97
363.16	1082.73
363.54	1082.26
363.91	1083.90
364.28	1072.90
364.65	1073.60
365.02	1073.60
365.39	1071.50
365.76	1071.26
366.14	1073.14
366.51	1076.88
366.88	1072.90
367.25	1080.16
367.62	1085.54
367.99	1089.05
368.36	1094.90
368.73	1106.61
369.10	1095.60
369.48	1093.03
369.85	1098.18
370.22	1098.88
370.59	1083.43
370.96	1080.16
371.33	1083.67
371.70	1074.54
372.07	1071.73
372.44	1080.63
372.81	1086.48
373.18	1073.37
373.55	1074.77
373.93	1076.41
374.30	1069.86
374.67	1075.01
375.04	1083.67
375.41	1082.03
375.78	1078.75
376.15	1087.88
376.52	1084.14
376.89	1082.50
377.26	1089.29
377.63	1089.52
378.00	1089.99
378.37	1093.50
378.74	1095.37
379.11	1091.16
379.48	1098.65
379.85	1107.07
380.22	1116.20
380.59	1124.86
380.96	1120.41
381.33	1119.01
381.70	1108.48
382.07	1097.01
382.44	1095.60
382.81	1097.48
383.18	1097.01
383.55	1093.73
383.92	1085.77
384.29	1086.71
384.66	1089.05
385.03	1092.33
385.40	1098.18
385.77	1108.71
386.14	1102.63
386.51	1104.03
386.88	1102.63
387.25	1095.84
387.62	1086.48
387.99	1084.37
388.36	1086.01
388.73	1081.56
389.10	1092.09
389.46	1103.09
389.83	1100.99
390.20	1103.33
390.57	1111.52
390.94	1112.46
391.31	1113.86
391.68	1119.95
392.05	1116.67
392.42	1118.31
392.79	1113.39
393.16	1112.69
393.53	1115.03
393.89	1122.52
394.26	1113.39
394.63	1114.33
395.00	1114.09
395.37	1104.03
395.74	1102.39
396.11	1111.75
396.48	1116.44
396.84	1114.56
397.21	1122.05
397.58	1131.41
397.95	1129.78
398.32	1126.03
398.69	1139.61
399.06	1141.01
399.42	1134.46
399.79	1139.37
400.16	1148.27
400.53	1144.52
400.90	1148.50
401.27	1155.76
401.64	1159.27
402.00	1169.57
402.37	1165.12
402.74	1168.86
403.11	1164.18
403.48	1169.57
403.84	1173.08
404.21	1188.06
404.58	1203.27
404.95	1227.38
405.32	1235.10
405.68	1243.06
406.05	1256.40
406.42	1262.02
406.79	1261.78
407.16	1270.91
407.52	1282.61
407.89	1298.53
408.26	1322.17
408.63	1352.83
408.99	1379.51
409.36	1405.49
409.73	1427.73
410.10	1454.88
410.47	1488.81
410.83	1519.48
411.20	1557.86
411.57	1589.93
411.94	1633.23
412.30	1674.42
412.67	1721.23
413.04	1767.81
413.40	1831.70
413.77	1874.07
414.14	1932.81
414.51	2010.05
414.87	2076.29
415.24	2139.72
415.61	2227.25
415.97	2301.21
416.34	2379.86
416.71	2462.24
417.08	2565.46
417.44	2649.02
417.81	2776.11
418.18	2901.33
418.54	3043.16
418.91	3177.75
419.28	3347.67
419.64	3487.63
420.01	3642.81
420.38	3819.99
420.74	3981.49
421.11	4168.73
421.48	4364.40
421.84	4581.60
422.21	4799.27
422.58	5069.83
422.94	5338.06
423.31	5625.01
423.68	5886.45
424.04	6186.27
424.41	6491.01
424.77	6769.06
425.14	7057.89
425.51	7414.58
425.87	7777.83
426.24	8107.62
426.61	8515.57
426.97	9004.74
427.34	9439.15
427.70	9938.15
428.07	10468.98
428.44	11005.67
428.80	11514.97
429.17	12064.29
429.53	12579.68
429.90	13202.73
430.27	13759.07
430.63	14318.46
431.00	15022.03
431.36	15777.79
431.73	16384.69
432.09	17089.19
432.46	17779.88
432.83	18341.37
433.19	18883.91
433.56	19552.60
433.92	20239.08
434.29	20878.98
434.65	21565.46
435.02	22191.56
435.38	22847.14
435.75	23360.89
436.11	24005.00
436.48	24489.03
436.84	25010.73
437.21	25479.31
437.57	25959.58
437.94	26331.49
438.30	26775.49
438.67	27117.21
439.03	27216.92
439.40	27314.99
439.76	27285.97
440.13	27198.43
440.49	27096.38
440.86	26907.03
441.22	26684.45
441.59	26317.22
441.95	25934.31
442.32	25399.73
442.68	25001.60
443.05	24458.36
443.41	23997.04
443.78	23386.63
444.14	22859.54
444.51	22204.43
444.87	21806.77
445.24	21327.90
445.60	20883.43
445.96	20312.81
446.33	19850.08
446.69	19180.46
447.06	18633.00
447.42	18115.51
447.79	17631.26
448.15	17243.43
448.51	16827.28
448.88	16400.37
449.24	15902.54
449.61	15574.63
449.97	15173.69
450.33	14805.29
450.70	14382.59
451.06	14046.96
451.43	13598.28
451.79	13172.54
452.15	12791.03
452.52	12440.18
452.88	12179.91
453.24	11903.50
453.61	11667.57
453.97	11404.26
454.34	11129.25
454.70	10842.06
455.06	10554.65
455.43	10230.48
455.79	9875.89
456.15	9557.81
456.52	9237.86
456.88	8979.00
457.24	8699.30
457.61	8486.55
457.97	8294.16
458.33	8038.80
458.70	7779.47
459.06	7535.82
459.42	7289.83
459.79	7028.16
460.15	6803.24
460.51	6602.18
460.88	6383.34
461.24	6178.55
461.60	6007.92
461.96	5811.55
462.33	5658.95
462.69	5507.75
463.05	5362.40
463.42	5228.99
463.78	5122.50
464.14	4960.30
464.50	4842.33
464.87	4713.14
465.23	4587.45
465.59	4470.19
465.95	4385.70
466.32	4307.05
466.68	4222.79
467.04	4133.15
467.40	4039.30
467.77	3958.31
468.13	3860.48
468.49	3776.69
468.85	3706.94
469.22	3648.66
469.58	3578.68
469.94	3511.04
470.30	3449.01
470.66	3382.54
471.03	3338.54
471.39	3279.09
471.75	3218.47
472.11	3149.66
472.47	3090.44
472.84	3025.61
473.20	2972.95
473.56	2922.39
473.92	2886.11
474.28	2842.11
474.65	2778.92
475.01	2736.32
475.37	2706.13
475.73	2659.32
476.09	2616.95
476.45	2597.76
476.81	2554.23
477.18	2499.46
477.54	2459.90
477.90	2415.43
478.26	2362.77
478.62	2315.49
478.98	2296.53
479.34	2267.28
479.71	2261.43
480.07	2239.66
480.43	2215.79
480.79	2172.25
481.15	2148.38
481.51	2109.06
481.87	2084.72
482.23	2065.05
482.59	2044.46
482.96	2019.18
483.32	2002.09
483.68	1984.54
484.04	1969.33
484.40	1961.84
484.76	1950.37
485.12	1932.11
485.48	1911.98
485.84	1879.68
486.20	1848.56
486.56	1819.53
486.92	1807.83
487.28	1782.08
487.64	1765.47
488.00	1757.98
488.37	1752.36
488.73	1725.91
489.09	1717.25
489.45	1707.42
489.81	1688.23
490.17	1662.95
490.53	1644.46
490.89	1618.95
491.25	1597.88
491.61	1579.86
491.97	1576.82
492.33	1566.99
492.69	1564.18
493.05	1549.90
493.41	1546.16
493.77	1523.92
494.13	1502.16
494.49	1493.26
494.85	1489.28
495.21	1464.71
495.57	1455.81
495.93	1461.20
496.29	1442.71
496.64	1427.49
497.00	1422.11
497.36	1409.94
497.72	1392.85
498.08	1380.21
498.44	1379.75
498.80	1369.68
499.16	1370.85
499.52	1366.17
499.88	1365.23
500.24	1346.04
500.60	1339.25
500.96	1322.64
501.32	1317.96
501.68	1321.47
502.03	1316.55
502.39	1309.06
502.75	1309.06
503.11	1295.02
503.47	1282.85
503.83	1282.15
504.19	1283.32
504.55	1267.17
504.91	1270.44
505.26	1267.87
505.62	1262.95
505.98	1255.46
506.34	1264.36
506.70	1259.44
507.06	1250.08
507.42	1240.25
507.78	1228.31
508.13	1217.78
508.49	1217.08
508.85	1211.70
509.21	1214.27
509.57	1216.14
509.93	1212.63
510.28	1195.31
510.64	1191.80
511.00	1181.27
511.36	1175.42
511.72	1178.69
512.07	1179.16
512.43	1181.50
512.79	1177.29
513.15	1187.12
513.51	1179.40
513.86	1184.78
514.22	1175.65
514.58	1188.29
514.94	1185.48
515.30	1190.63
515.65	1189.46
516.01	1188.76
516.37	1179.16
516.73	1173.31
517.08	1164.88
517.44	1157.39
517.80	1158.33
518.16	1156.22
518.51	1150.37
518.87	1142.42
519.23	1138.67
519.59	1131.88
519.94	1126.50
520.30	1133.76
520.66	1133.05
521.01	1141.71
521.37	1142.18
521.73	1153.65
522.09	1143.82
522.44	1146.39
522.80	1134.46
523.16	1137.03
523.51	1133.76
523.87	1134.46
524.23	1128.61
524.58	1125.33
524.94	1127.20
525.30	1117.61
525.65	1127.44
526.01	1134.69
526.37	1143.35
526.72	1141.01
527.08	1134.46
527.44	1127.20
527.79	1126.73
528.15	1113.39
528.51	1105.44
528.86	1115.73
529.22	1110.82
529.58	1115.03
529.93	1123.93
530.29	1125.56
530.65	1121.35
531.00	1123.69
531.36	1123.22
531.71	1129.07
532.07	1134.93
532.43	1134.93
532.78	1128.37
533.14	1126.50
533.49	1119.48
533.85	1110.58
534.21	1113.86
534.56	1107.54
534.92	1110.12
535.27	1110.58
535.63	1103.56
535.98	1101.46
536.34	1106.84
536.69	1093.97
537.05	1092.09
537.41	1111.29
537.76	1101.46
538.12	1107.31
538.47	1111.99
538.83	1106.37
539.18	1106.84
539.54	1119.24
539.89	1108.71
540.25	1102.39
540.60	1102.86
540.96	1093.03
541.31	1091.86
541.67	1100.75
542.02	1109.65
542.38	1119.24
542.73	1127.20
543.09	1124.63
543.44	1119.71
543.80	1122.29
544.15	1121.35
544.51	1104.50
544.86	1101.92
545.22	1112.22
545.57	1113.63
545.93	1108.71
546.28	1120.65
546.64	1124.63
546.99	1117.14
547.35	1106.37
547.70	1110.82
548.05	1111.75
548.41	1119.71
548.76	1118.07
549.12	1120.41
549.47	1109.88
549.83	1105.44
550.18	1097.48
550.53	1097.71
550.89	1102.86
551.24	1101.69
551.60	1100.29
551.95	1090.46
552.30	1094.20
552.66	1081.33
553.01	1080.16
553.37	1089.05
553.72	1094.90
554.07	1090.69
554.43	1092.09
554.78	1113.39
555.13	1108.01
555.49	1106.84
555.84	1116.20
556.19	1125.80
556.55	1118.07
556.90	1116.44
557.26	1115.97
557.61	1104.50
557.96	1101.22
558.32	1093.73
558.67	1098.88
559.02	1107.31
559.37	1106.84
559.73	1097.24
560.08	1096.31
560.43	1080.86
560.79	1072.43
561.14	1076.18
561.49	1080.63
561.85	1082.73
562.20	1090.92
562.55	1097.24
562.90	1095.37
563.26	1096.78
563.61	1100.75
563.96	1093.97
564.32	1086.24
564.67	1089.75
565.02	1096.54
565.37	1087.88
565.73	1093.26
566.08	1097.71
566.43	1084.60
566.78	1082.50
567.14	1089.29
567.49	1086.94
567.84	1088.82
568.19	1104.26
568.54	1097.95
568.90	1095.60
569.25	1099.82
569.60	1099.58
569.95	1094.43
570.31	1103.33
570.66	1107.78
571.01	1106.37
571.36	1105.44
571.71	1107.07
572.06	1094.43
572.42	1086.71
572.77	1081.56
573.12	1088.12
573.47	1088.35
573.82	1097.24
574.18	1093.97
574.53	1093.73
574.88	1092.33
575.23	1100.05
575.58	1097.48
575.93	1097.71
576.28	1096.78
576.64	1082.26
576.99	1068.69
577.34	1069.86
577.69	1072.43
578.04	1079.46
578.39	1086.94
578.74	1092.56
579.09	1095.14
579.44	1088.58
579.80	1088.58
580.15	1078.52
580.50	1081.33
580.85	1088.35
581.20	1096.07
581.55	1096.07
581.90	1100.99
582.25	1098.88
582.60	1087.65
582.95	1089.75
583.30	1093.97
583.65	1095.37
584.00	1078.28
584.35	1079.22
584.71	1084.37
585.06	1084.14
585.41	1084.60
585.76	1094.20
586.11	1100.52
586.46	1095.14
586.81	1091.86
587.16	1089.75
587.51	1094.67
587.86	1093.26
588.21	1092.33
588.56	1091.63
588.91	1094.43
589.26	1091.39
589.61	1086.24
589.96	1086.01
590.31	1082.26
590.66	1079.92
591.01	1080.16
591.36	1081.56
591.71	1087.18
592.06	1087.18
592.41	1094.90
592.76	1098.18
593.10	1088.35
593.45	1078.05
593.80	1086.24
594.15	1077.82
594.50	1077.58
594.85	1083.90
595.20	1090.69
595.55	1084.14
595.90	1087.41
596.25	1080.86
596.60	1084.14
596.95	1081.09
597.30	1083.67
597.64	1127.90
597.99	1142.88
598.34	1143.59
598.69	1144.99
599.04	1142.88
599.39	1100.99
599.74	1084.14
600.09	1082.73
600.44	1093.50
600.78	1088.82
601.13	1091.86
601.48	1100.99
601.83	1104.26
602.18	1089.52
602.53	1088.12
602.88	1090.22
603.22	1095.37
603.57	1094.67
603.92	1093.26
604.27	1092.80
604.62	1083.20
604.97	1069.86
605.31	1074.31
605.66	1085.31
606.01	1089.99
606.36	1094.90
606.71	1100.75
607.05	1097.48
607.40	1092.80
607.75	1091.63
608.10	1085.77
608.44	1082.97
608.79	1082.26
609.14	1085.31
609.49	1097.48
609.84	1103.33
610.18	1111.52
610.53	1108.95
610.88	1097.95
611.23	1091.39
611.57	1090.22
611.92	1080.39
612.27	1080.86
612.62	1086.94
612.96	1086.94
613.31	1085.77
613.66	1087.65
614.00	1082.97
614.35	1086.01
614.70	1089.05
615.05	1090.92
615.39	1091.39
615.74	1102.86
616.09	1096.54
616.43	1090.69
616.78	1086.94
617.13	1091.39
617.47	1076.65
617.82	1077.11
618.17	1080.86
618.51	1080.86
618.86	1083.43
619.21	1088.58
619.55	1092.33
619.90	1094.43
620.25	1091.86
620.59	1091.39
620.94	1091.63
621.29	1097.24
621.63	1087.65
621.98	1087.88
622.32	1089.52
622.67	1084.14
623.02	1079.22
623.36	1086.94
623.71	1091.86
624.05	1086.24
624.40	1088.35
624.75	1083.20
625.09	1087.88
625.44	1075.48
625.78	1071.97
626.13	1081.33
626.48	1093.26
626.82	1080.39
627.17	1099.58
627.51	1096.07
627.86	1100.29
628.20	1097.24
628.55	1101.46
628.89	1090.69
629.24	1100.99
629.58	1090.22
629.93	1090.69
630.28	1082.97
630.62	1086.24
630.97	1084.37
631.31	1088.12
631.66	1081.33
632.00	1097.01
632.35	1100.29
632.69	1110.35
633.04	1105.20
633.38	1109.88
633.73	1106.84
634.07	1110.58
634.42	1099.35
634.76	1102.39
635.11	1101.22
635.45	1100.75
635.79	1095.60
636.14	1093.03
636.48	1083.20
636.83	1075.48
637.17	1076.88
637.52	1079.69
637.86	1086.71
638.21	1091.86
638.55	1098.41
638.89	1090.46
639.24	1081.09
639.58	1072.90
639.93	1072.90
640.27	1072.67
640.61	1080.39
640.96	1079.69
641.30	1081.09
641.65	1077.35
641.99	1071.73
642.33	1060.03
642.68	1066.58
643.02	1060.03
643.37	1062.37
643.71	1069.39
644.05	1087.18
644.40	1088.35
644.74	1097.48
645.08	1102.39
645.43	1100.99
645.77	1089.99
646.11	1093.73
646.46	1083.90
646.80	1079.46
647.14	1073.84
647.49	1069.39
647.83	1057.69
648.17	1067.52
648.52	1067.99
648.86	1068.69
649.20	1072.90
649.55	1073.84
649.89	1074.31
650.23	1078.28
650.57	1084.60
650.92	1086.48
651.26	1087.88
651.60	1084.60
651.95	1093.97
652.29	1080.63
652.63	1073.84
652.97	1077.58
653.32	1076.88
653.66	1065.18
654.00	1080.86
654.34	1093.73
654.69	1093.50
655.03	1093.50
655.37	1097.24
655.71	1093.26
656.05	1090.92
656.40	1097.71
656.74	1104.03
657.08	1100.99
657.42	1099.82
657.76	1079.69
658.11	1082.97
658.45	1079.22
658.79	1087.65
659.13	1090.69
659.47	1102.16
659.82	1094.67
660.16	1098.18
660.50	1097.01
660.84	1095.60
661.18	1099.35
661.52	1102.86
661.87	1098.41
662.21	1088.35
662.55	1091.16
662.89	1082.73
663.23	1088.58
663.57	1093.97
663.91	1100.05
664.25	1097.95
664.60	1111.29
664.94	1103.33
665.28	1106.61
665.62	1098.41
665.96	1098.88
666.30	1091.39
666.64	1086.01
666.98	1077.35
667.32	1086.48
667.66	1079.22
668.01	1083.90
668.35	1084.60
668.69	1086.71
669.03	1094.20
669.37	1101.92
669.71	1099.35
670.05	1099.58
670.39	1094.90
670.73	1082.03
671.07	1078.52
671.41	1074.77
671.75	1077.11
672.09	1065.18
672.43	1057.45
672.77	1056.99
673.11	1052.07
673.45	1049.50
673.79	1065.18
674.13	1073.14
674.47	1071.97
674.81	1085.31
675.15	1086.48
675.49	1091.39
675.83	1100.75
676.17	1098.18
676.51	1095.84
676.85	1094.43
677.19	1082.73
677.53	1074.54
677.87	1081.80
678.21	1078.99
678.55	1079.69
678.89	1083.90
679.23	1086.48
679.57	1078.52
679.90	1088.12
680.24	1085.31
680.58	1087.65
680.92	1083.20
681.26	1091.39
681.60	1080.39
681.94	1084.37
682.28	1085.54
682.62	1097.48
682.96	1092.09
683.29	1097.71
683.63	1092.09
683.97	1093.50
684.31	1088.12
684.65	1097.01
684.99	1092.80
685.33	1096.07
685.67	1081.56
686.00	1083.43
686.34	1076.65
686.68	1072.20
687.02	1075.01
687.36	1084.60
687.70	1080.39
688.03	1080.63
688.37	1089.05
688.71	1086.48
689.05	1087.41
689.39	1077.35
689.72	1076.18
690.06	1072.90
690.40	1067.28
690.74	1066.58
691.08	1071.97
691.41	1073.60
691.75	1064.71
692.09	1071.97
692.43	1073.84
692.76	1085.54
693.10	1090.46
693.44	1095.14
693.78	1093.73
694.11	1090.22
694.45	1087.65
694.79	1079.92
695.13	1085.07
695.46	1086.01
695.80	1090.69
696.14	1084.84
696.48	1085.31
696.81	1082.97
697.15	1069.39
697.49	1056.75
697.82	1056.99
698.16	1061.20
698.50	1058.86
698.83	1077.35
699.17	1084.84
699.51	1084.60
699.84	1087.88
700.18	1100.99
700.52	1098.88
700.85	1101.92
701.19	1102.16
701.53	1104.26
701.86	1092.09
702.20	1086.94
702.54	1082.97
702.87	1086.48
703.21	1075.24
703.55	1074.54
703.88	1081.09
704.22	1077.58
704.55	1070.09
704.89	1067.05
705.23	1062.37
705.56	1060.73
705.90	1072.90
706.23	1073.84
706.57	1093.97
706.91	1104.97
707.24	1105.90
707.58	1105.90
707.91	1110.12
708.25	1096.31
708.58	1099.35
708.92	1090.22
709.26	1083.90
709.59	1080.86
709.93	1073.14
710.26	1062.84
710.60	1070.80
710.93	1072.90
711.27	1077.11
711.60	1085.31
711.94	1084.84
712.27	1077.35
712.61	1084.14
712.94	1087.88
713.28	1086.01
713.61	1092.33
713.95	1102.16
714.28	1092.33
714.62	1088.35
714.95	1093.26
715.29	1085.54
715.62	1072.90
715.96	1076.88
716.29	1074.54
716.63	1067.75
716.96	1075.71
717.29	1083.90
717.63	1090.92
717.96	1098.41
718.30	1100.05
718.63	1097.48
718.97	1089.05
719.30	1078.99
719.63	1068.45
719.97	1068.45
720.30	1071.03
720.64	1081.09
720.97	1086.48
721.30	1097.24
721.64	1097.71
721.97	1098.18
722.31	1089.29
722.64	1090.92
722.97	1087.88
723.31	1099.82
723.64	1090.92
723.97	1090.22
724.31	1082.73
724.64	1083.67
724.98	1072.20
725.31	1078.75
725.64	1077.82
725.98	1075.71
726.31	1070.80
726.64	1075.24
726.97	1071.50
727.31	1071.73
727.64	1070.09
727.97	1067.52
728.31	1064.71
728.64	1055.11
728.97	1060.26
729.31	1068.69
729.64	1070.56
729.97	1067.05
730.30	1086.01
730.64	1094.20
730.97	1090.69
731.30	1093.73
731.63	1096.07
731.97	1081.09
732.30	1071.73
732.63	1077.58
732.96	1073.14
733.30	1070.56
733.63	1082.50
733.96	1090.92
734.29	1076.18
734.63	1086.94
734.96	1093.73
735.29	1092.56
735.62	1087.88
735.95	1092.80
736.29	1082.97
736.62	1081.56
736.95	1064.94
737.28	1061.43
737.61	1055.82
737.94	1054.65
738.28	1049.26
738.61	1061.20
738.94	1062.14
739.27	1068.92
739.60	1078.75
739.93	1086.24
740.27	1089.29
740.60	1085.31
740.93	1096.07
741.26	1084.14
741.59	1078.75
741.92	1075.01
742.25	1079.92
742.58	1071.97
742.91	1063.07
743.25	1062.37
743.58	1059.56
743.91	1062.37
744.24	1069.16
744.57	1088.58
744.90	1092.33
745.23	1089.05
745.56	1086.71
745.89	1082.26
746.22	1064.71
746.55	1065.88
746.88	1084.37
747.21	1084.84
747.54	1087.18
747.87	1104.50
748.20	1100.52
748.53	1089.75
748.87	1082.73
749.20	1088.12
749.53	1079.46
749.86	1078.52
750.19	1075.71
750.52	1080.16
750.85	1075.71
751.18	1072.43
751.51	1063.77
751.84	1064.71
752.16	1060.26
752.49	1051.37
752.82	1060.50
753.15	1077.11
753.48	1072.43
753.81	1080.86
754.14	1092.56
754.47	1089.99
754.80	1076.88
755.13	1083.20
755.46	1085.07
755.79	1071.26
756.12	1070.33
756.45	1073.84
756.78	1077.58
757.11	1069.39
757.43	1072.90
757.76	1071.97
758.09	1077.58
758.42	1075.71
758.75	1084.37
759.08	1078.28
759.41	1076.88
759.74	1070.80
760.07	1064.48
760.39	1063.07
760.72	1067.99
761.05	1072.43
761.38	1072.67
761.71	1076.41
762.04	1068.45
762.36	1071.50
762.69	1067.75
763.02	1070.80
763.35	1070.33
763.68	1084.14
764.01	1072.43
764.33	1070.56
764.66	1066.82
