SpectraSuite Data File
++++++++++++++++++++++++++++++++++++
Date: Mon Aug 26 10:24:53 PDT 2019
User: corrico
Dark Spectrum Present: No
Reference Spectrum Present: No
Number of Sampled Component Spectra: 1
Spectrometers: USB2+H06089
Integration Time (usec): 10000 (USB2+H06089)
Spectra Averaged: 2 (USB2+H06089)
Boxcar Smoothing: 2 (USB2+H06089)
Correct for Electrical Dark: No (USB2+H06089)
Strobe/Lamp Enabled: No (USB2+H06089)
Correct for Detector Non-linearity: No (USB2+H06089)
Correct for Stray Light: No (USB2+H06089)
Number of Pixels in Processed Spectrum: 2048
>>>>>Begin Processed Spectral Data<<<<<
339.70	1019.30
340.07	1019.30
340.45	978.81
340.82	962.90
341.19	945.11
341.57	921.94
341.94	911.17
342.31	891.51
342.69	889.40
343.06	882.85
343.43	882.15
343.81	898.06
344.18	917.26
344.55	916.55
344.93	923.34
345.30	930.60
345.67	927.32
346.04	936.92
346.42	946.98
346.79	953.30
347.16	965.47
347.54	979.75
347.91	973.19
348.28	977.41
348.65	988.41
349.03	990.05
349.40	997.30
349.77	1031.47
350.14	1038.50
350.52	1037.09
350.89	1052.54
351.26	1049.26
351.63	1038.50
352.01	1047.39
352.38	1069.86
352.75	1064.24
353.12	1071.73
353.50	1071.03
353.87	1078.75
354.24	1064.94
354.61	1078.05
354.98	1079.92
355.36	1086.48
355.73	1079.46
356.10	1087.41
356.47	1081.33
356.84	1086.24
357.22	1085.07
357.59	1090.22
357.96	1091.16
358.33	1089.29
358.70	1092.80
359.08	1097.95
359.45	1106.14
359.82	1101.69
360.19	1100.29
360.56	1095.37
360.94	1091.39
361.31	1079.46
361.68	1078.28
362.05	1090.92
362.42	1094.90
362.79	1101.69
363.16	1108.24
363.54	1104.97
363.91	1095.60
364.28	1084.84
364.65	1075.01
365.02	1065.41
365.39	1074.54
365.76	1079.46
366.14	1094.43
366.51	1104.50
366.88	1100.05
367.25	1093.97
367.62	1091.39
367.99	1080.86
368.36	1078.28
368.73	1080.16
369.10	1081.80
369.48	1078.05
369.85	1077.82
370.22	1081.80
370.59	1082.73
370.96	1082.03
371.33	1082.03
371.70	1086.48
372.07	1070.56
372.44	1071.97
372.81	1081.33
373.18	1087.88
373.55	1085.54
373.93	1086.48
374.30	1082.97
374.67	1081.09
375.04	1070.33
375.41	1071.26
375.78	1072.67
376.15	1078.05
376.52	1069.62
376.89	1073.60
377.26	1070.09
377.63	1074.77
378.00	1073.14
378.37	1075.24
378.74	1073.14
379.11	1074.31
379.48	1081.56
379.85	1077.11
380.22	1074.07
380.59	1078.05
380.96	1082.03
381.33	1078.05
381.70	1092.80
382.07	1103.80
382.44	1102.63
382.81	1101.22
383.18	1103.56
383.55	1091.16
383.92	1083.67
384.29	1082.03
384.66	1088.82
385.03	1089.29
385.40	1096.78
385.77	1100.99
386.14	1111.05
386.51	1102.86
386.88	1093.50
387.25	1086.71
387.62	1078.75
387.99	1068.92
388.36	1079.92
388.73	1092.33
389.10	1097.71
389.46	1104.26
389.83	1102.63
390.20	1098.65
390.57	1098.88
390.94	1101.22
391.31	1100.05
391.68	1110.58
392.05	1105.20
392.42	1094.43
392.79	1091.86
393.16	1091.86
393.53	1090.92
393.89	1105.67
394.26	1119.71
394.63	1129.78
395.00	1129.07
395.37	1122.99
395.74	1113.86
396.11	1116.67
396.48	1109.41
396.84	1105.90
397.21	1107.07
397.58	1108.24
397.95	1102.86
398.32	1104.97
398.69	1122.05
399.06	1129.07
399.42	1126.50
399.79	1129.07
400.16	1131.65
400.53	1127.67
400.90	1123.69
401.27	1125.33
401.64	1123.69
402.00	1136.10
402.37	1145.93
402.74	1165.82
403.11	1173.54
403.48	1178.69
403.84	1182.44
404.21	1179.86
404.58	1185.95
404.95	1189.93
405.32	1207.01
405.68	1202.80
406.05	1214.97
406.42	1203.74
406.79	1223.16
407.16	1230.19
407.52	1267.17
407.89	1287.06
408.26	1321.23
408.63	1333.40
408.99	1356.57
409.36	1360.32
409.73	1367.11
410.10	1386.30
410.47	1420.94
410.83	1453.71
411.20	1494.20
411.57	1521.82
411.94	1552.95
412.30	1583.14
412.67	1616.37
413.04	1645.63
413.40	1713.74
413.77	1770.62
414.14	1840.36
414.51	1895.37
414.87	1962.77
415.24	2029.48
415.61	2103.91
415.97	2164.06
416.34	2238.49
416.71	2310.34
417.08	2407.71
417.44	2487.05
417.81	2597.99
418.18	2707.53
418.54	2826.66
418.91	2922.86
419.28	3072.19
419.64	3191.32
420.01	3337.14
420.38	3500.97
420.74	3669.96
421.11	3844.56
421.48	4030.64
421.84	4223.26
422.21	4410.04
422.58	4639.64
422.94	4842.57
423.31	5067.49
423.68	5303.19
424.04	5569.30
424.41	5798.44
424.77	6063.39
425.14	6349.41
425.51	6647.12
425.87	6980.65
426.24	7321.66
426.61	7705.98
426.97	8144.83
427.34	8545.53
427.70	8969.64
428.07	9396.08
428.44	9841.25
428.80	10285.72
429.17	10776.53
429.53	11251.19
429.90	11812.22
430.27	12270.02
430.63	12784.94
431.00	13362.59
431.36	14034.55
431.73	14611.96
432.09	15267.08
432.46	15843.79
432.83	16406.92
433.19	16900.31
433.56	17539.04
433.92	18152.73
434.29	18777.42
434.65	19439.09
435.02	19991.22
435.38	20506.37
435.75	20960.20
436.11	21489.16
436.48	21929.65
436.84	22467.27
437.21	22900.97
437.57	23361.82
437.94	23705.41
438.30	24009.45
438.67	24185.69
439.03	24288.21
439.40	24371.06
439.76	24317.70
440.13	24219.86
440.49	24118.05
440.86	23893.83
441.22	23681.31
441.59	23368.38
441.95	23045.85
442.32	22582.42
442.68	22227.37
443.05	21718.53
443.41	21276.87
443.78	20721.00
444.14	20247.27
444.51	19731.89
444.87	19379.64
445.24	18972.38
445.60	18629.26
445.96	18183.62
446.33	17728.86
446.69	17140.45
447.06	16626.70
447.42	16125.12
447.79	15656.08
448.15	15273.87
448.51	14873.40
448.88	14524.66
449.24	14115.07
449.61	13847.08
449.97	13507.47
450.33	13200.86
450.70	12804.37
451.06	12475.99
451.43	12028.72
451.79	11696.83
452.15	11379.68
452.52	11137.91
452.88	10915.09
453.24	10729.25
453.61	10500.81
453.97	10250.84
454.34	9989.17
454.70	9704.80
455.06	9483.38
455.43	9180.99
455.79	8881.86
456.15	8604.75
456.52	8332.78
456.88	8049.57
457.24	7801.24
457.61	7599.25
457.97	7368.01
458.33	7155.49
458.70	6926.35
459.06	6693.46
459.42	6483.99
459.79	6277.08
460.15	6068.31
460.51	5876.85
460.88	5711.61
461.24	5541.92
461.60	5415.06
461.96	5279.08
462.33	5148.01
462.69	5033.56
463.05	4884.00
463.42	4738.88
463.78	4621.15
464.14	4498.51
464.50	4380.78
464.87	4276.16
465.23	4186.75
465.59	4095.00
465.95	4007.23
466.32	3917.82
466.68	3840.82
467.04	3754.45
467.40	3673.94
467.77	3606.30
468.13	3546.38
468.49	3498.87
468.85	3422.33
469.22	3362.18
469.58	3292.67
469.94	3230.88
470.30	3149.89
470.66	3093.25
471.03	3026.55
471.39	2968.97
471.75	2907.88
472.11	2866.92
472.47	2828.77
472.84	2777.75
473.20	2729.77
473.56	2687.87
473.92	2636.15
474.28	2600.10
474.65	2561.25
475.01	2531.29
475.37	2486.59
475.73	2435.80
476.09	2388.05
476.45	2363.94
476.81	2320.17
477.18	2283.19
477.54	2284.60
477.90	2257.21
478.26	2217.66
478.62	2197.06
478.98	2178.10
479.34	2138.55
479.71	2120.99
480.07	2116.55
480.43	2102.74
480.79	2077.69
481.15	2061.31
481.51	2021.52
481.87	1995.07
482.23	1959.50
482.59	1937.96
482.96	1915.73
483.32	1902.39
483.68	1871.26
484.04	1858.62
484.40	1851.60
484.76	1827.02
485.12	1815.79
485.48	1794.25
485.84	1777.64
486.20	1753.53
486.56	1732.93
486.92	1713.51
487.28	1699.46
487.64	1690.57
488.00	1675.36
488.37	1666.23
488.73	1645.63
489.09	1637.67
489.45	1617.54
489.81	1601.63
490.17	1590.63
490.53	1589.22
490.89	1578.93
491.25	1563.48
491.61	1542.88
491.97	1534.46
492.33	1509.18
492.69	1496.07
493.05	1486.47
493.41	1493.50
493.77	1479.45
494.13	1482.73
494.49	1469.39
494.85	1456.28
495.21	1440.13
495.57	1424.92
495.93	1413.45
496.29	1401.98
496.64	1396.83
497.00	1373.89
497.36	1368.51
497.72	1350.02
498.08	1342.77
498.44	1332.94
498.80	1349.55
499.16	1343.23
499.52	1350.02
499.88	1342.30
500.24	1337.15
500.60	1318.66
500.96	1317.49
501.32	1311.17
501.68	1309.30
502.03	1304.61
502.39	1287.53
502.75	1277.70
503.11	1264.36
503.47	1257.34
503.83	1248.44
504.19	1253.36
504.55	1248.91
504.91	1239.31
505.26	1235.80
505.62	1233.93
505.98	1226.91
506.34	1221.76
506.70	1222.70
507.06	1217.31
507.42	1212.63
507.78	1203.27
508.13	1203.74
508.49	1200.93
508.85	1206.78
509.21	1199.52
509.57	1199.52
509.93	1181.97
510.28	1182.20
510.64	1166.52
511.00	1157.16
511.36	1158.80
511.72	1167.46
512.07	1161.61
512.43	1167.23
512.79	1167.23
513.15	1173.78
513.51	1172.14
513.86	1182.44
514.22	1171.67
514.58	1178.69
514.94	1165.82
515.30	1161.37
515.65	1137.73
516.01	1141.01
516.37	1141.71
516.73	1155.76
517.08	1161.14
517.44	1172.14
517.80	1170.50
518.16	1162.54
518.51	1151.78
518.87	1130.24
519.23	1130.71
519.59	1122.99
519.94	1127.90
520.30	1125.56
520.66	1127.67
521.01	1121.58
521.37	1125.33
521.73	1119.48
522.09	1111.99
522.44	1121.58
522.80	1120.41
523.16	1124.16
523.51	1114.56
523.87	1122.99
524.23	1111.52
524.58	1109.41
524.94	1103.09
525.30	1107.54
525.65	1098.65
526.01	1107.07
526.37	1112.92
526.72	1127.67
527.08	1129.78
527.44	1139.37
527.79	1141.71
528.15	1136.56
528.51	1121.12
528.86	1118.78
529.22	1113.86
529.58	1120.41
529.93	1126.27
530.29	1135.39
530.65	1144.05
531.00	1149.67
531.36	1141.48
531.71	1131.65
532.07	1128.14
532.43	1129.07
532.78	1128.14
533.14	1129.54
533.49	1128.61
533.85	1122.75
534.21	1124.39
534.56	1116.20
534.92	1109.18
535.27	1108.95
535.63	1114.10
535.98	1105.90
536.34	1101.22
536.69	1111.75
537.05	1114.56
537.41	1112.69
537.76	1119.95
538.12	1131.41
538.47	1126.50
538.83	1135.86
539.18	1134.22
539.54	1126.73
539.89	1117.37
540.25	1115.03
540.60	1111.29
540.96	1106.84
541.31	1099.35
541.67	1096.31
542.02	1095.14
542.38	1096.78
542.73	1105.44
543.09	1108.95
543.44	1120.41
543.80	1119.24
544.15	1111.75
544.51	1111.75
544.86	1113.86
545.22	1113.86
545.57	1117.61
545.93	1133.52
546.28	1134.46
546.64	1127.44
546.99	1110.12
547.35	1113.16
547.70	1092.56
548.05	1079.69
548.41	1093.50
548.76	1099.12
549.12	1102.39
549.47	1110.35
549.83	1117.61
550.18	1108.24
550.53	1112.69
550.89	1099.58
551.24	1099.58
551.60	1094.43
551.95	1088.82
552.30	1082.03
552.66	1086.48
553.01	1087.65
553.37	1088.58
553.72	1097.24
554.07	1099.82
554.43	1098.65
554.78	1100.99
555.13	1108.01
555.49	1110.82
555.84	1112.69
556.19	1117.84
556.55	1115.73
556.90	1113.63
557.26	1110.58
557.61	1114.56
557.96	1113.39
558.32	1101.69
558.67	1099.58
559.02	1102.39
559.37	1094.67
559.73	1091.63
560.08	1102.63
560.43	1110.58
560.79	1100.29
561.14	1092.80
561.49	1093.26
561.85	1081.80
562.20	1069.62
562.55	1079.46
562.90	1084.37
563.26	1082.50
563.61	1086.48
563.96	1087.41
564.32	1082.50
564.67	1096.31
565.02	1095.37
565.37	1093.97
565.73	1092.33
566.08	1100.75
566.43	1099.82
566.78	1100.52
567.14	1109.18
567.49	1113.86
567.84	1109.41
568.19	1102.39
568.54	1102.16
568.90	1100.52
569.25	1101.22
569.60	1104.73
569.95	1111.05
570.31	1111.05
570.66	1105.67
571.01	1102.63
571.36	1095.14
571.71	1088.82
572.06	1090.92
572.42	1086.48
572.77	1097.24
573.12	1102.39
573.47	1093.03
573.82	1082.03
574.18	1088.58
574.53	1075.01
574.88	1064.01
575.23	1080.63
575.58	1091.86
575.93	1093.26
576.28	1107.07
576.64	1125.80
576.99	1116.44
577.34	1113.16
577.69	1117.14
578.04	1106.37
578.39	1094.67
578.74	1106.37
579.09	1101.92
579.44	1091.63
579.80	1086.48
580.15	1093.97
580.50	1088.35
580.85	1086.94
581.20	1085.31
581.55	1087.18
581.90	1082.97
582.25	1071.03
582.60	1075.01
582.95	1078.75
583.30	1082.97
583.65	1081.80
584.00	1082.26
584.35	1078.75
584.71	1071.73
585.06	1068.69
585.41	1064.01
585.76	1074.07
586.11	1081.56
586.46	1089.75
586.81	1095.84
587.16	1110.12
587.51	1109.18
587.86	1112.46
588.21	1114.33
588.56	1113.16
588.91	1110.82
589.26	1104.97
589.61	1097.48
589.96	1096.07
590.31	1093.50
590.66	1078.28
591.01	1084.84
591.36	1088.58
591.71	1088.82
592.06	1087.41
592.41	1088.82
592.76	1087.41
593.10	1084.14
593.45	1087.65
593.80	1094.90
594.15	1095.84
594.50	1093.03
594.85	1093.50
595.20	1085.07
595.55	1084.37
595.90	1089.05
596.25	1084.60
596.60	1078.28
596.95	1084.14
597.30	1077.35
597.64	1134.22
597.99	1145.22
598.34	1148.50
598.69	1139.37
599.04	1135.39
599.39	1077.82
599.74	1073.84
600.09	1081.56
600.44	1091.86
600.78	1090.22
601.13	1094.43
601.48	1088.82
601.83	1084.14
602.18	1079.92
602.53	1086.24
602.88	1078.05
603.22	1076.18
603.57	1070.09
603.92	1067.28
604.27	1071.50
604.62	1068.69
604.97	1073.37
605.31	1084.84
605.66	1082.50
606.01	1077.35
606.36	1082.97
606.71	1081.33
607.05	1078.05
607.40	1083.67
607.75	1089.99
608.10	1098.88
608.44	1101.92
608.79	1103.09
609.14	1113.16
609.49	1107.07
609.84	1104.50
610.18	1104.03
610.53	1098.88
610.88	1093.73
611.23	1107.31
611.57	1105.90
611.92	1111.99
612.27	1116.20
612.62	1115.27
612.96	1108.48
613.31	1102.86
613.66	1103.09
614.00	1100.52
614.35	1096.31
614.70	1091.86
615.05	1091.63
615.39	1083.67
615.74	1077.35
616.09	1076.18
616.43	1068.92
616.78	1068.45
617.13	1077.11
617.47	1083.20
617.82	1089.75
618.17	1096.78
618.51	1102.86
618.86	1090.92
619.21	1091.39
619.55	1089.75
619.90	1092.09
620.25	1084.14
620.59	1093.26
620.94	1103.56
621.29	1108.71
621.63	1105.20
621.98	1110.12
622.32	1103.80
622.67	1094.67
623.02	1080.63
623.36	1079.46
623.71	1084.14
624.05	1088.12
624.40	1086.48
624.75	1096.78
625.09	1102.39
625.44	1091.86
625.78	1094.90
626.13	1101.22
626.48	1098.18
626.82	1089.52
627.17	1094.43
627.51	1083.90
627.86	1076.41
628.20	1086.01
628.55	1092.33
628.89	1096.54
629.24	1101.22
629.58	1108.71
629.93	1102.86
630.28	1100.29
630.62	1096.31
630.97	1096.78
631.31	1093.03
631.66	1097.48
632.00	1087.88
632.35	1091.86
632.69	1091.39
633.04	1091.16
633.38	1085.07
633.73	1097.01
634.07	1090.92
634.42	1088.35
634.76	1089.99
635.11	1079.92
635.45	1079.22
635.79	1070.56
636.14	1073.37
636.48	1074.31
636.83	1080.39
637.17	1078.52
637.52	1089.29
637.86	1086.24
638.21	1082.97
638.55	1083.90
638.89	1089.75
639.24	1082.26
639.58	1084.60
639.93	1085.77
640.27	1090.22
640.61	1082.50
640.96	1083.20
641.30	1092.80
641.65	1093.97
641.99	1097.71
642.33	1091.16
642.68	1097.24
643.02	1089.75
643.37	1098.18
643.71	1091.39
644.05	1101.46
644.40	1094.90
644.74	1098.18
645.08	1083.67
645.43	1079.46
645.77	1077.82
646.11	1085.54
646.46	1082.50
646.80	1079.46
647.14	1076.18
647.49	1078.75
647.83	1074.07
648.17	1074.54
648.52	1083.43
648.86	1087.65
649.20	1097.95
649.55	1100.52
649.89	1097.71
650.23	1088.35
650.57	1090.22
650.92	1078.75
651.26	1082.50
651.60	1079.46
651.95	1074.07
652.29	1078.52
652.63	1082.03
652.97	1074.54
653.32	1079.92
653.66	1085.77
654.00	1076.18
654.34	1072.43
654.69	1071.50
655.03	1077.82
655.37	1079.69
655.71	1087.18
656.05	1087.65
656.40	1095.37
656.74	1089.52
657.08	1093.50
657.42	1095.37
657.76	1101.22
658.11	1109.18
658.45	1104.26
658.79	1113.16
659.13	1110.82
659.47	1101.92
659.82	1092.80
660.16	1088.58
660.50	1077.58
660.84	1077.35
661.18	1081.80
661.52	1086.01
661.87	1094.67
662.21	1103.56
662.55	1092.33
662.89	1082.26
663.23	1069.16
663.57	1071.97
663.91	1061.43
664.25	1071.73
664.60	1081.80
664.94	1084.84
665.28	1081.56
665.62	1082.73
665.96	1090.69
666.30	1082.26
666.64	1088.82
666.98	1095.14
667.32	1100.05
667.66	1089.52
668.01	1092.80
668.35	1086.01
668.69	1080.86
669.03	1082.03
669.37	1091.39
669.71	1094.43
670.05	1097.48
670.39	1091.16
670.73	1081.33
671.07	1079.69
671.41	1071.97
671.75	1084.60
672.09	1089.05
672.43	1100.99
672.77	1086.48
673.11	1088.58
673.45	1071.97
673.79	1078.28
674.13	1068.22
674.47	1079.92
674.81	1090.22
675.15	1099.82
675.49	1093.26
675.83	1093.26
676.17	1092.80
676.51	1085.77
676.85	1078.28
677.19	1068.92
677.53	1066.58
677.87	1063.54
678.21	1058.39
678.55	1055.82
678.89	1059.33
679.23	1070.56
679.57	1069.86
679.90	1074.77
680.24	1079.22
680.58	1086.24
680.92	1076.41
681.26	1079.92
681.60	1082.03
681.94	1079.46
682.28	1076.65
682.62	1082.50
682.96	1083.20
683.29	1086.24
683.63	1084.60
683.97	1083.67
684.31	1085.07
684.65	1078.52
684.99	1077.11
685.33	1074.54
685.67	1077.35
686.00	1075.01
686.34	1072.20
686.68	1072.90
687.02	1085.31
687.36	1088.35
687.70	1081.56
688.03	1082.26
688.37	1078.75
688.71	1072.90
689.05	1064.48
689.39	1067.75
689.72	1076.41
690.06	1081.09
690.40	1081.80
690.74	1087.41
691.08	1097.71
691.41	1088.35
691.75	1082.97
692.09	1076.18
692.43	1081.80
692.76	1085.54
693.10	1087.18
693.44	1093.73
693.78	1100.75
694.11	1091.63
694.45	1068.69
694.79	1071.26
695.13	1072.90
695.46	1081.33
695.80	1085.77
696.14	1095.84
696.48	1097.95
696.81	1093.50
697.15	1078.28
697.49	1071.97
697.82	1068.92
698.16	1070.09
698.50	1074.54
698.83	1087.65
699.17	1092.80
699.51	1093.97
699.84	1086.48
700.18	1080.39
700.52	1073.14
700.85	1062.84
701.19	1065.65
701.53	1074.07
701.86	1069.62
702.20	1074.07
702.54	1077.11
702.87	1079.92
703.21	1076.88
703.55	1084.60
703.88	1078.28
704.22	1076.65
704.55	1070.33
704.89	1072.20
705.23	1068.69
705.56	1073.37
705.90	1075.01
706.23	1080.63
706.57	1073.14
706.91	1078.05
707.24	1078.75
707.58	1084.37
707.91	1081.09
708.25	1090.46
708.58	1086.24
708.92	1083.43
709.26	1077.82
709.59	1081.09
709.93	1081.09
710.26	1086.01
710.60	1078.28
710.93	1088.12
711.27	1087.41
711.60	1085.31
711.94	1084.14
712.27	1094.67
712.61	1084.37
712.94	1078.75
713.28	1080.86
713.61	1073.60
713.95	1067.28
714.28	1071.97
714.62	1075.48
714.95	1079.92
715.29	1084.60
715.62	1084.37
715.96	1088.58
716.29	1089.05
716.63	1086.94
716.96	1081.56
717.29	1085.07
717.63	1083.90
717.96	1089.05
718.30	1085.07
718.63	1093.03
718.97	1090.92
719.30	1091.39
719.63	1091.39
719.97	1098.41
720.30	1098.88
720.64	1103.09
720.97	1108.01
721.30	1106.14
721.64	1100.29
721.97	1091.16
722.31	1082.26
722.64	1065.65
722.97	1059.79
723.31	1053.24
723.64	1064.48
723.97	1071.26
724.31	1082.50
724.64	1083.90
724.98	1091.86
725.31	1088.82
725.64	1083.43
725.98	1088.12
726.31	1087.65
726.64	1082.73
726.97	1080.16
727.31	1080.63
727.64	1079.46
727.97	1092.56
728.31	1085.77
728.64	1082.26
728.97	1086.48
729.31	1084.14
729.64	1074.07
729.97	1078.99
730.30	1081.56
730.64	1097.01
730.97	1089.05
731.30	1082.50
731.63	1086.01
731.97	1087.65
732.30	1078.99
732.63	1085.77
732.96	1090.69
733.30	1084.37
733.63	1084.14
733.96	1078.28
734.29	1073.60
734.63	1075.48
734.96	1079.92
735.29	1075.48
735.62	1077.35
735.95	1085.31
736.29	1082.26
736.62	1081.80
736.95	1086.24
737.28	1084.84
737.61	1079.92
737.94	1084.37
738.28	1082.97
738.61	1077.82
738.94	1075.71
739.27	1080.16
739.60	1078.75
739.93	1068.69
740.27	1069.16
740.60	1073.84
740.93	1064.71
741.26	1064.24
741.59	1073.60
741.92	1074.07
742.25	1073.84
742.58	1082.03
742.91	1080.39
743.25	1078.28
743.58	1082.03
743.91	1081.80
744.24	1093.97
744.57	1095.37
744.90	1107.78
745.23	1107.31
745.56	1106.84
745.89	1096.78
746.22	1095.84
746.55	1087.41
746.88	1083.20
747.21	1078.52
747.54	1082.26
747.87	1081.33
748.20	1083.90
748.53	1086.48
748.87	1086.71
749.20	1065.65
749.53	1067.28
749.86	1067.52
750.19	1074.77
750.52	1071.50
750.85	1081.56
751.18	1079.22
751.51	1072.90
751.84	1066.35
752.16	1074.31
752.49	1072.90
752.82	1075.71
753.15	1081.80
753.48	1078.28
753.81	1068.92
754.14	1061.43
754.47	1059.09
754.80	1063.31
755.13	1060.50
755.46	1066.58
755.79	1075.94
756.12	1073.37
756.45	1060.03
756.78	1065.41
757.11	1067.99
757.43	1073.37
757.76	1078.75
758.09	1085.31
758.42	1091.86
758.75	1089.05
759.08	1085.54
759.41	1090.69
759.74	1100.99
760.07	1091.16
760.39	1089.52
760.72	1087.88
761.05	1078.28
761.38	1070.56
761.71	1070.33
762.04	1065.41
762.36	1057.45
762.69	1061.67
763.02	1055.58
763.35	1059.79
763.68	1060.26
764.01	1068.45
764.33	1072.20
764.66	1080.86
764.99	1078.05
