SpectraSuite Data File
++++++++++++++++++++++++++++++++++++
Date: Mon Aug 26 10:24:51 PDT 2019
User: corrico
Dark Spectrum Present: No
Reference Spectrum Present: No
Number of Sampled Component Spectra: 1
Spectrometers: USB2+H06089
Integration Time (usec): 10000 (USB2+H06089)
Spectra Averaged: 2 (USB2+H06089)
Boxcar Smoothing: 2 (USB2+H06089)
Correct for Electrical Dark: No (USB2+H06089)
Strobe/Lamp Enabled: No (USB2+H06089)
Correct for Detector Non-linearity: No (USB2+H06089)
Correct for Stray Light: No (USB2+H06089)
Number of Pixels in Processed Spectrum: 2048
>>>>>Begin Processed Spectral Data<<<<<
339.70	1032.18
340.07	1032.18
340.45	994.03
340.82	970.85
341.19	956.81
341.57	931.77
341.94	924.98
342.31	917.72
342.69	910.47
343.06	897.36
343.43	891.74
343.81	878.17
344.18	886.83
344.55	888.94
344.93	894.55
345.30	900.17
345.67	916.09
346.04	920.30
346.42	936.21
346.79	943.47
347.16	957.51
347.54	980.68
347.91	989.58
348.28	1001.75
348.65	1013.92
349.03	1025.62
349.40	1022.35
349.77	1040.84
350.14	1041.07
350.52	1038.96
350.89	1043.64
351.26	1055.35
351.63	1053.01
352.01	1056.52
352.38	1066.82
352.75	1078.75
353.12	1086.24
353.50	1084.60
353.87	1085.54
354.24	1086.71
354.61	1082.26
354.98	1071.03
355.36	1085.31
355.73	1085.31
356.10	1090.69
356.47	1089.29
356.84	1098.88
357.22	1089.29
357.59	1106.14
357.96	1104.50
358.33	1107.31
358.70	1112.69
359.08	1117.61
359.45	1105.20
359.82	1111.52
360.19	1107.54
360.56	1109.65
360.94	1115.27
361.31	1119.01
361.68	1115.73
362.05	1117.37
362.42	1108.95
362.79	1096.78
363.16	1096.78
363.54	1091.16
363.91	1086.71
364.28	1083.20
364.65	1078.75
365.02	1077.11
365.39	1074.07
365.76	1076.88
366.14	1082.73
366.51	1082.73
366.88	1076.65
367.25	1089.52
367.62	1092.09
367.99	1086.01
368.36	1084.37
368.73	1094.90
369.10	1088.35
369.48	1088.35
369.85	1077.58
370.22	1084.14
370.59	1081.56
370.96	1076.65
371.33	1074.54
371.70	1081.09
372.07	1086.71
372.44	1085.77
372.81	1088.82
373.18	1088.58
373.55	1103.33
373.93	1090.92
374.30	1091.86
374.67	1092.33
375.04	1096.07
375.41	1095.60
375.78	1100.29
376.15	1090.92
376.52	1092.56
376.89	1092.56
377.26	1084.37
377.63	1085.31
378.00	1087.65
378.37	1096.31
378.74	1103.33
379.11	1102.63
379.48	1114.10
379.85	1124.63
380.22	1120.88
380.59	1113.16
380.96	1117.61
381.33	1117.61
381.70	1115.27
382.07	1114.56
382.44	1116.44
382.81	1109.65
383.18	1093.73
383.55	1091.63
383.92	1088.82
384.29	1090.69
384.66	1096.31
385.03	1111.29
385.40	1112.46
385.77	1110.82
386.14	1114.10
386.51	1115.73
386.88	1111.29
387.25	1115.97
387.62	1117.84
387.99	1107.54
388.36	1096.07
388.73	1087.65
389.10	1090.92
389.46	1093.50
389.83	1099.35
390.20	1104.26
390.57	1108.24
390.94	1106.61
391.31	1109.88
391.68	1108.95
392.05	1114.56
392.42	1122.05
392.79	1120.41
393.16	1129.54
393.53	1126.27
393.89	1129.07
394.26	1128.61
394.63	1126.27
395.00	1118.31
395.37	1116.67
395.74	1116.67
396.11	1119.01
396.48	1115.97
396.84	1101.46
397.21	1111.05
397.58	1115.50
397.95	1112.92
398.32	1115.27
398.69	1136.80
399.06	1129.07
399.42	1119.24
399.79	1126.97
400.16	1136.10
400.53	1128.84
400.90	1144.52
401.27	1149.20
401.64	1148.27
402.00	1155.52
402.37	1166.52
402.74	1166.05
403.11	1181.97
403.48	1192.03
403.84	1196.95
404.21	1196.25
404.58	1209.35
404.95	1212.87
405.32	1216.61
405.68	1225.97
406.05	1239.31
406.42	1251.72
406.79	1262.02
407.16	1271.38
407.52	1297.83
407.89	1317.96
408.26	1341.36
408.63	1364.77
408.99	1396.36
409.36	1396.36
409.73	1410.17
410.10	1436.85
410.47	1462.13
410.83	1495.13
411.20	1550.14
411.57	1602.80
411.94	1630.89
412.30	1668.33
412.67	1708.83
413.04	1739.72
413.40	1779.28
413.77	1827.72
414.14	1909.17
414.51	1967.69
414.87	2033.46
415.24	2119.59
415.61	2210.64
415.97	2272.43
416.34	2363.94
416.71	2469.73
417.08	2550.01
417.44	2654.87
417.81	2783.83
418.18	2907.41
418.54	3034.04
418.91	3192.26
419.28	3330.11
419.64	3473.82
420.01	3634.62
420.38	3792.60
420.74	3951.06
421.11	4152.11
421.48	4363.93
421.84	4569.43
422.21	4809.10
422.58	5055.56
422.94	5322.14
423.31	5566.03
423.68	5841.74
424.04	6124.95
424.41	6412.37
424.77	6679.89
425.14	6983.69
425.51	7292.88
425.87	7630.85
426.24	8004.87
426.61	8430.84
426.97	8918.14
427.34	9351.84
427.70	9827.68
428.07	10329.49
428.44	10804.15
428.80	11301.98
429.17	11848.73
429.53	12353.82
429.90	12937.55
430.27	13507.47
430.63	14050.24
431.00	14722.44
431.36	15515.88
431.73	16139.87
432.09	16841.09
432.46	17524.29
432.83	18134.24
433.19	18638.86
433.56	19324.17
433.92	20009.71
434.29	20600.69
434.65	21266.34
435.02	21905.31
435.38	22515.95
435.75	23024.32
436.11	23693.01
436.48	24161.82
436.84	24666.67
437.21	25087.27
437.57	25525.41
437.94	25883.05
438.30	26272.51
438.67	26591.29
439.03	26809.20
439.40	26977.95
439.76	26949.40
440.13	26888.54
440.49	26793.75
440.86	26534.89
441.22	26261.04
441.59	25926.82
441.95	25554.67
442.32	25011.67
442.68	24585.92
443.05	24027.24
443.41	23538.30
443.78	22975.63
444.14	22493.25
444.51	21843.99
444.87	21374.94
445.24	20906.37
445.60	20449.03
445.96	19890.57
446.33	19497.60
446.69	18948.74
447.06	18417.91
447.42	17862.03
447.79	17366.07
448.15	16941.03
448.51	16440.63
448.88	16006.46
449.24	15611.14
449.61	15305.93
449.97	14872.47
450.33	14520.45
450.70	14093.54
451.06	13745.50
451.43	13259.13
451.79	12918.35
452.15	12624.62
452.52	12307.24
452.88	11969.50
453.24	11738.72
453.61	11470.26
453.97	11178.87
454.34	10900.11
454.70	10655.29
455.06	10429.19
455.43	10118.84
455.79	9770.10
456.15	9533.70
456.52	9230.60
456.88	8923.06
457.24	8651.32
457.61	8454.02
457.97	8209.19
458.33	7955.95
458.70	7681.64
459.06	7425.58
459.42	7184.98
459.79	6903.18
460.15	6658.82
460.51	6470.65
460.88	6249.23
461.24	6035.77
461.60	5870.77
461.96	5716.52
462.33	5551.75
462.69	5412.72
463.05	5277.67
463.42	5134.20
463.78	5002.66
464.14	4882.36
464.50	4772.59
464.87	4660.71
465.23	4554.45
465.59	4461.30
465.95	4329.29
466.32	4241.28
466.68	4146.96
467.04	4052.87
467.40	3948.25
467.77	3885.52
468.13	3801.97
468.49	3728.94
468.85	3673.24
469.22	3604.89
469.58	3541.00
469.94	3466.57
470.30	3394.71
470.66	3328.01
471.03	3278.15
471.39	3231.11
471.75	3166.74
472.11	3101.44
472.47	3046.44
472.84	2994.25
473.20	2920.75
473.56	2880.97
473.92	2816.37
474.28	2773.77
474.65	2722.98
475.01	2685.06
475.37	2658.15
475.73	2634.74
476.09	2583.25
476.45	2545.80
476.81	2501.56
477.18	2443.99
477.54	2405.37
477.90	2371.66
478.26	2317.13
478.62	2286.94
478.98	2260.96
479.34	2243.40
479.71	2220.23
480.07	2213.21
480.43	2194.49
480.79	2165.23
481.15	2144.40
481.51	2116.08
481.87	2093.14
482.23	2057.80
482.59	2034.63
482.96	2009.82
483.32	1995.77
483.68	1966.52
484.04	1956.22
484.40	1938.90
484.76	1915.49
485.12	1884.83
485.48	1868.92
485.84	1844.34
486.20	1826.55
486.56	1804.32
486.92	1797.53
487.28	1773.89
487.64	1752.13
488.00	1733.17
488.37	1713.97
488.73	1691.04
489.09	1680.50
489.45	1678.63
489.81	1663.18
490.17	1662.48
490.53	1653.35
490.89	1635.80
491.25	1599.05
491.61	1581.03
491.97	1554.82
492.33	1542.18
492.69	1530.48
493.05	1530.01
493.41	1518.54
493.77	1521.58
494.13	1516.43
494.49	1505.67
494.85	1493.03
495.21	1493.03
495.57	1467.98
495.93	1443.17
496.29	1439.20
496.64	1425.85
497.00	1405.49
497.36	1400.58
497.72	1404.09
498.08	1391.45
498.44	1385.36
498.80	1383.72
499.16	1369.92
499.52	1349.79
499.88	1337.62
500.24	1331.76
500.60	1322.87
500.96	1321.00
501.32	1315.62
501.68	1309.76
502.03	1308.59
502.39	1297.83
502.75	1284.25
503.11	1276.29
503.47	1280.27
503.83	1272.78
504.19	1273.95
504.55	1264.36
504.91	1268.57
505.26	1250.78
505.62	1246.57
505.98	1242.36
506.34	1245.87
506.70	1230.89
507.06	1236.51
507.42	1232.06
507.78	1234.40
508.13	1231.12
508.49	1239.55
508.85	1230.42
509.21	1223.40
509.57	1214.97
509.93	1214.27
510.28	1197.89
510.64	1202.80
511.00	1198.35
511.36	1185.25
511.72	1186.42
512.07	1191.80
512.43	1185.48
512.79	1181.74
513.15	1180.57
513.51	1163.01
513.86	1158.80
514.22	1154.12
514.58	1154.12
514.94	1151.08
515.30	1158.10
515.65	1158.33
516.01	1156.46
516.37	1150.84
516.73	1148.03
517.08	1145.93
517.44	1141.01
517.80	1140.07
518.16	1148.97
518.51	1144.52
518.87	1139.84
519.23	1145.69
519.59	1143.82
519.94	1130.01
520.30	1138.20
520.66	1136.33
521.01	1117.84
521.37	1112.22
521.73	1122.29
522.09	1122.52
522.44	1119.71
522.80	1133.99
523.16	1127.44
523.51	1123.22
523.87	1123.69
524.23	1136.80
524.58	1125.80
524.94	1137.03
525.30	1137.97
525.65	1129.54
526.01	1127.67
526.37	1125.80
526.72	1130.95
527.08	1126.73
527.44	1130.01
527.79	1128.61
528.15	1137.97
528.51	1130.24
528.86	1130.24
529.22	1122.75
529.58	1121.82
529.93	1110.35
530.29	1100.99
530.65	1088.82
531.00	1089.99
531.36	1078.28
531.71	1089.29
532.07	1106.14
532.43	1115.73
532.78	1113.86
533.14	1123.69
533.49	1123.69
533.85	1117.84
534.21	1119.01
534.56	1125.80
534.92	1115.03
535.27	1104.26
535.63	1107.31
535.98	1114.33
536.34	1117.14
536.69	1123.93
537.05	1126.27
537.41	1115.27
537.76	1110.35
538.12	1109.88
538.47	1106.84
538.83	1107.78
539.18	1120.41
539.54	1106.84
539.89	1106.84
540.25	1104.97
540.60	1107.07
540.96	1103.33
541.31	1115.97
541.67	1111.05
542.02	1116.67
542.38	1122.52
542.73	1111.29
543.09	1107.07
543.44	1111.29
543.80	1117.14
544.15	1106.14
544.51	1105.44
544.86	1108.01
545.22	1103.09
545.57	1100.52
545.93	1110.82
546.28	1115.03
546.64	1114.56
546.99	1117.84
547.35	1106.61
547.70	1102.86
548.05	1106.37
548.41	1110.35
548.76	1109.88
549.12	1115.73
549.47	1099.35
549.83	1100.05
550.18	1094.43
550.53	1084.37
550.89	1081.33
551.24	1092.80
551.60	1093.26
551.95	1089.75
552.30	1102.86
552.66	1097.71
553.01	1095.84
553.37	1089.75
553.72	1094.67
554.07	1076.65
554.43	1083.20
554.78	1082.50
555.13	1092.80
555.49	1086.71
555.84	1093.26
556.19	1092.56
556.55	1099.82
556.90	1098.88
557.26	1103.56
557.61	1108.01
557.96	1108.95
558.32	1101.69
558.67	1094.90
559.02	1088.82
559.37	1093.50
559.73	1097.71
560.08	1106.84
560.43	1106.14
560.79	1107.31
561.14	1104.97
561.49	1103.33
561.85	1096.78
562.20	1093.97
562.55	1094.43
562.90	1097.71
563.26	1090.46
563.61	1096.31
563.96	1098.65
564.32	1093.97
564.67	1089.99
565.02	1087.41
565.37	1079.69
565.73	1079.46
566.08	1095.60
566.43	1088.58
566.78	1097.48
567.14	1103.56
567.49	1104.26
567.84	1100.75
568.19	1106.61
568.54	1100.75
568.90	1097.01
569.25	1101.69
569.60	1093.50
569.95	1098.41
570.31	1112.92
570.66	1112.69
571.01	1107.78
571.36	1107.78
571.71	1092.56
572.06	1084.14
572.42	1087.41
572.77	1081.56
573.12	1084.37
573.47	1084.37
573.82	1089.29
574.18	1083.20
574.53	1082.50
574.88	1083.43
575.23	1099.35
575.58	1086.24
575.93	1087.65
576.28	1094.20
576.64	1094.90
576.99	1084.37
577.34	1089.99
577.69	1083.20
578.04	1080.63
578.39	1083.67
578.74	1080.63
579.09	1082.50
579.44	1088.58
579.80	1096.54
580.15	1093.50
580.50	1101.22
580.85	1097.48
581.20	1100.29
581.55	1100.52
581.90	1105.90
582.25	1107.07
582.60	1114.56
582.95	1113.39
583.30	1104.03
583.65	1098.41
584.00	1097.01
584.35	1089.05
584.71	1090.22
585.06	1102.86
585.41	1105.67
585.76	1100.05
586.11	1092.80
586.46	1092.56
586.81	1080.16
587.16	1077.35
587.51	1079.92
587.86	1090.92
588.21	1091.39
588.56	1094.90
588.91	1097.95
589.26	1095.84
589.61	1090.92
589.96	1091.86
590.31	1096.31
590.66	1089.99
591.01	1093.03
591.36	1104.03
591.71	1104.73
592.06	1100.99
592.41	1105.90
592.76	1107.54
593.10	1092.33
593.45	1079.46
593.80	1078.75
594.15	1071.03
594.50	1063.77
594.85	1066.11
595.20	1081.09
595.55	1092.09
595.90	1094.67
596.25	1108.95
596.60	1112.46
596.95	1099.12
597.30	1079.22
597.64	1144.52
597.99	1139.61
598.34	1147.10
598.69	1161.37
599.04	1167.93
599.39	1105.90
599.74	1106.14
600.09	1109.88
600.44	1103.80
600.78	1115.97
601.13	1106.61
601.48	1099.35
601.83	1098.41
602.18	1110.35
602.53	1104.50
602.88	1109.41
603.22	1119.71
603.57	1112.46
603.92	1109.41
604.27	1110.58
604.62	1112.22
604.97	1102.63
605.31	1099.12
605.66	1094.43
606.01	1097.24
606.36	1105.90
606.71	1107.31
607.05	1112.46
607.40	1100.99
607.75	1090.46
608.10	1081.09
608.44	1078.28
608.79	1080.86
609.14	1086.71
609.49	1090.92
609.84	1093.03
610.18	1097.95
610.53	1088.58
610.88	1092.80
611.23	1096.78
611.57	1100.29
611.92	1107.31
612.27	1108.24
612.62	1104.73
612.96	1104.73
613.31	1100.75
613.66	1088.35
614.00	1095.84
614.35	1097.48
614.70	1086.48
615.05	1080.63
615.39	1089.99
615.74	1088.35
616.09	1082.97
616.43	1085.77
616.78	1084.60
617.13	1079.69
617.47	1065.65
617.82	1059.33
618.17	1063.31
618.51	1073.37
618.86	1070.09
619.21	1082.50
619.55	1081.80
619.90	1078.75
620.25	1072.90
620.59	1080.39
620.94	1074.54
621.29	1092.33
621.63	1091.86
621.98	1100.29
622.32	1101.92
622.67	1110.58
623.02	1101.69
623.36	1104.50
623.71	1086.94
624.05	1084.84
624.40	1075.94
624.75	1072.43
625.09	1069.86
625.44	1086.48
625.78	1086.94
626.13	1087.41
626.48	1087.88
626.82	1093.50
627.17	1099.58
627.51	1101.69
627.86	1102.39
628.20	1108.01
628.55	1105.67
628.89	1096.78
629.24	1092.09
629.58	1093.03
629.93	1090.46
630.28	1094.67
630.62	1086.01
630.97	1084.14
631.31	1086.48
631.66	1087.41
632.00	1086.01
632.35	1094.90
632.69	1098.18
633.04	1094.90
633.38	1099.35
633.73	1081.09
634.07	1076.18
634.42	1076.18
634.76	1067.28
635.11	1065.18
635.45	1077.11
635.79	1086.94
636.14	1089.52
636.48	1099.58
636.83	1090.46
637.17	1090.22
637.52	1090.92
637.86	1082.73
638.21	1090.46
638.55	1090.46
638.89	1091.63
639.24	1080.63
639.58	1087.18
639.93	1077.58
640.27	1078.99
640.61	1075.94
640.96	1080.63
641.30	1073.84
641.65	1076.65
641.99	1074.77
642.33	1074.77
642.68	1077.82
643.02	1080.16
643.37	1084.14
643.71	1093.97
644.05	1100.52
644.40	1090.46
644.74	1094.43
645.08	1093.26
645.43	1096.78
645.77	1092.56
646.11	1093.50
646.46	1093.26
646.80	1101.46
647.14	1092.09
647.49	1095.37
647.83	1110.82
648.17	1102.86
648.52	1094.20
648.86	1094.90
649.20	1090.92
649.55	1083.90
649.89	1089.05
650.23	1084.60
650.57	1088.58
650.92	1089.75
651.26	1080.16
651.60	1077.58
651.95	1075.01
652.29	1072.90
652.63	1070.80
652.97	1075.94
653.32	1079.69
653.66	1083.90
654.00	1085.31
654.34	1082.50
654.69	1086.48
655.03	1092.33
655.37	1097.01
655.71	1097.24
656.05	1101.69
656.40	1102.39
656.74	1099.12
657.08	1091.16
657.42	1090.46
657.76	1095.84
658.11	1090.92
658.45	1091.39
658.79	1095.14
659.13	1086.94
659.47	1080.86
659.82	1078.28
660.16	1071.03
660.50	1071.97
660.84	1071.73
661.18	1066.82
661.52	1072.43
661.87	1070.09
662.21	1074.54
662.55	1082.97
662.89	1091.39
663.23	1082.50
663.57	1087.41
663.91	1066.82
664.25	1069.62
664.60	1064.01
664.94	1064.71
665.28	1065.88
665.62	1082.03
665.96	1074.07
666.30	1085.77
666.64	1087.41
666.98	1083.90
667.32	1092.56
667.66	1112.46
668.01	1112.92
668.35	1112.92
668.69	1122.29
669.03	1103.80
669.37	1083.67
669.71	1079.46
670.05	1079.92
670.39	1071.97
670.73	1083.67
671.07	1092.56
671.41	1086.48
671.75	1081.33
672.09	1079.22
672.43	1077.82
672.77	1073.14
673.11	1077.35
673.45	1091.63
673.79	1094.67
674.13	1096.54
674.47	1089.29
674.81	1079.69
675.15	1074.07
675.49	1074.31
675.83	1072.67
676.17	1078.05
676.51	1084.60
676.85	1079.22
677.19	1078.05
677.53	1083.67
677.87	1074.77
678.21	1071.26
678.55	1075.24
678.89	1064.48
679.23	1055.58
679.57	1081.33
679.90	1098.41
680.24	1102.16
680.58	1117.61
680.92	1117.14
681.26	1103.80
681.60	1091.63
681.94	1091.39
682.28	1087.88
682.62	1098.18
682.96	1098.18
683.29	1104.26
683.63	1107.31
683.97	1103.33
684.31	1089.05
684.65	1083.43
684.99	1081.33
685.33	1068.45
685.67	1076.18
686.00	1079.69
686.34	1088.12
686.68	1083.90
687.02	1087.65
687.36	1084.60
687.70	1084.37
688.03	1081.56
688.37	1071.73
688.71	1075.24
689.05	1074.31
689.39	1079.22
689.72	1072.20
690.06	1086.24
690.40	1086.48
690.74	1089.05
691.08	1084.84
691.41	1103.09
691.75	1101.69
692.09	1104.50
692.43	1105.44
692.76	1109.41
693.10	1089.29
693.44	1079.22
693.78	1082.97
694.11	1085.54
694.45	1075.94
694.79	1082.03
695.13	1093.26
695.46	1088.35
695.80	1079.69
696.14	1086.01
696.48	1084.37
696.81	1078.52
697.15	1080.16
697.49	1072.43
697.82	1070.09
698.16	1081.33
698.50	1081.09
698.83	1078.28
699.17	1080.16
699.51	1080.86
699.84	1073.37
700.18	1074.77
700.52	1074.54
700.85	1082.97
701.19	1076.88
701.53	1075.48
701.86	1082.03
702.20	1092.56
702.54	1090.92
702.87	1109.65
703.21	1115.03
703.55	1106.14
703.88	1103.80
704.22	1105.20
704.55	1085.54
704.89	1086.01
705.23	1084.14
705.56	1075.24
705.90	1075.71
706.23	1086.24
706.57	1085.77
706.91	1089.52
707.24	1092.09
707.58	1092.09
707.91	1095.84
708.25	1088.82
708.58	1092.80
708.92	1082.73
709.26	1083.90
709.59	1079.69
709.93	1080.16
710.26	1082.26
710.60	1093.50
710.93	1090.69
711.27	1102.39
711.60	1098.88
711.94	1089.52
712.27	1083.67
712.61	1088.58
712.94	1085.77
713.28	1091.16
713.61	1091.16
713.95	1093.73
714.28	1088.35
714.62	1075.94
714.95	1072.43
715.29	1072.90
715.62	1071.73
715.96	1068.69
716.29	1073.37
716.63	1084.60
716.96	1087.65
717.29	1091.16
717.63	1086.24
717.96	1083.20
718.30	1086.71
718.63	1082.97
718.97	1078.99
719.30	1093.73
719.63	1087.88
719.97	1075.01
720.30	1081.33
720.64	1082.73
720.97	1084.60
721.30	1086.24
721.64	1089.52
721.97	1077.82
722.31	1072.20
722.64	1073.84
722.97	1088.58
723.31	1089.29
723.64	1102.39
723.97	1102.86
724.31	1089.75
724.64	1081.56
724.98	1075.94
725.31	1074.07
725.64	1083.20
725.98	1083.43
726.31	1078.75
726.64	1083.90
726.97	1089.75
727.31	1078.75
727.64	1083.67
727.97	1078.28
728.31	1076.18
728.64	1071.73
728.97	1082.97
729.31	1080.16
729.64	1089.99
729.97	1096.78
730.30	1092.56
730.64	1086.71
730.97	1093.03
731.30	1090.92
731.63	1081.56
731.97	1078.75
732.30	1084.14
732.63	1076.41
732.96	1079.22
733.30	1075.94
733.63	1082.26
733.96	1082.50
734.29	1085.07
734.63	1079.46
734.96	1082.26
735.29	1075.48
735.62	1073.84
735.95	1075.94
736.29	1083.20
736.62	1089.29
736.95	1094.90
737.28	1088.82
737.61	1079.69
737.94	1081.33
738.28	1082.03
738.61	1077.58
738.94	1089.29
739.27	1095.37
739.60	1097.01
739.93	1101.92
740.27	1100.99
740.60	1090.92
740.93	1092.56
741.26	1086.71
741.59	1075.71
741.92	1087.88
742.25	1091.16
742.58	1097.48
742.91	1100.99
743.25	1100.75
743.58	1098.41
743.91	1098.41
744.24	1092.09
744.57	1087.41
744.90	1090.92
745.23	1088.82
745.56	1084.84
745.89	1094.43
746.22	1105.20
746.55	1104.73
746.88	1109.65
747.21	1105.44
747.54	1098.65
747.87	1089.75
748.20	1093.03
748.53	1079.69
748.87	1088.12
749.20	1089.75
749.53	1082.73
749.86	1084.37
750.19	1088.58
750.52	1097.01
750.85	1089.99
751.18	1095.37
751.51	1093.50
751.84	1095.84
752.16	1084.60
752.49	1090.69
752.82	1086.48
753.15	1077.82
753.48	1072.20
753.81	1077.82
754.14	1076.41
754.47	1079.46
754.80	1084.14
755.13	1089.05
755.46	1087.41
755.79	1083.20
756.12	1091.39
756.45	1089.29
756.78	1086.01
757.11	1077.58
757.43	1086.71
757.76	1077.58
758.09	1083.90
758.42	1089.05
758.75	1082.03
759.08	1073.37
759.41	1079.92
759.74	1068.92
760.07	1059.56
760.39	1069.62
760.72	1069.86
761.05	1068.22
761.38	1077.58
761.71	1102.63
762.04	1110.12
762.36	1111.05
762.69	1102.16
763.02	1100.52
763.35	1084.84
763.68	1084.14
764.01	1083.90
764.33	1080.39
764.66	1082.03
