SpectraSuite Data File
++++++++++++++++++++++++++++++++++++
Date: Mon Aug 26 10:24:52 PDT 2019
User: corrico
Dark Spectrum Present: No
Reference Spectrum Present: No
Number of Sampled Component Spectra: 1
Spectrometers: USB2+H06089
Integration Time (usec): 10000 (USB2+H06089)
Spectra Averaged: 2 (USB2+H06089)
Boxcar Smoothing: 2 (USB2+H06089)
Correct for Electrical Dark: No (USB2+H06089)
Strobe/Lamp Enabled: No (USB2+H06089)
Correct for Detector Non-linearity: No (USB2+H06089)
Correct for Stray Light: No (USB2+H06089)
Number of Pixels in Processed Spectrum: 2048
>>>>>Begin Processed Spectral Data<<<<<
339.70	993.56
340.07	993.56
340.45	985.13
340.82	977.64
341.19	967.34
341.57	944.17
341.94	928.26
342.31	912.11
342.69	908.13
343.06	907.43
343.43	917.96
343.81	925.68
344.18	920.30
344.55	918.89
344.93	908.83
345.30	905.55
345.67	903.91
346.04	923.34
346.42	927.32
346.79	949.09
347.16	962.90
347.54	971.32
347.91	973.66
348.28	981.39
348.65	986.54
349.03	1001.28
349.40	1013.45
349.77	1026.32
350.14	1036.39
350.52	1051.60
350.89	1042.71
351.26	1050.43
351.63	1056.52
352.01	1056.75
352.38	1056.75
352.75	1076.18
353.12	1083.20
353.50	1077.58
353.87	1086.71
354.24	1079.69
354.61	1082.26
354.98	1082.50
355.36	1091.16
355.73	1097.95
356.10	1100.99
356.47	1086.94
356.84	1084.37
357.22	1084.60
357.59	1081.33
357.96	1090.92
358.33	1100.75
358.70	1104.97
359.08	1104.03
359.45	1107.78
359.82	1099.12
360.19	1101.69
360.56	1106.61
360.94	1112.22
361.31	1104.97
361.68	1105.67
362.05	1107.54
362.42	1097.95
362.79	1096.54
363.16	1094.67
363.54	1095.60
363.91	1087.65
364.28	1082.03
364.65	1072.90
365.02	1073.60
365.39	1072.90
365.76	1071.03
366.14	1075.24
366.51	1085.31
366.88	1082.50
367.25	1079.92
367.62	1076.88
367.99	1075.24
368.36	1072.90
368.73	1081.09
369.10	1083.67
369.48	1091.39
369.85	1104.97
370.22	1104.50
370.59	1097.48
370.96	1103.33
371.33	1094.43
371.70	1088.35
372.07	1090.92
372.44	1094.90
372.81	1089.52
373.18	1096.31
373.55	1094.90
373.93	1088.12
374.30	1086.01
374.67	1093.03
375.04	1089.52
375.41	1098.18
375.78	1094.20
376.15	1102.86
376.52	1092.09
376.89	1100.29
377.26	1092.09
377.63	1097.71
378.00	1095.84
378.37	1099.12
378.74	1110.35
379.11	1115.03
379.48	1121.35
379.85	1119.48
380.22	1121.12
380.59	1095.84
380.96	1085.54
381.33	1081.09
381.70	1075.71
382.07	1075.94
382.44	1088.58
382.81	1103.09
383.18	1101.69
383.55	1102.63
383.92	1095.84
384.29	1096.78
384.66	1097.71
385.03	1102.39
385.40	1102.63
385.77	1110.35
386.14	1109.65
386.51	1111.05
386.88	1110.58
387.25	1114.56
387.62	1101.69
387.99	1106.61
388.36	1093.50
388.73	1093.26
389.10	1093.97
389.46	1104.26
389.83	1098.88
390.20	1102.63
390.57	1101.69
390.94	1103.56
391.31	1108.24
391.68	1113.86
392.05	1114.80
392.42	1119.01
392.79	1118.78
393.16	1126.27
393.53	1110.58
393.89	1105.90
394.26	1099.35
394.63	1099.12
395.00	1090.69
395.37	1104.97
395.74	1113.16
396.11	1112.69
396.48	1114.56
396.84	1113.16
397.21	1105.20
397.58	1104.97
397.95	1108.48
398.32	1105.90
398.69	1108.95
399.06	1116.20
399.42	1114.56
399.79	1122.75
400.16	1138.20
400.53	1150.37
400.90	1157.39
401.27	1165.35
401.64	1178.23
402.00	1182.91
402.37	1187.35
402.74	1192.97
403.11	1201.63
403.48	1189.69
403.84	1179.40
404.21	1183.84
404.58	1195.08
404.95	1205.61
405.32	1218.48
405.68	1239.55
406.05	1248.91
406.42	1258.74
406.79	1263.42
407.16	1282.15
407.52	1300.40
407.89	1324.28
408.26	1346.04
408.63	1369.21
408.99	1390.04
409.36	1412.98
409.73	1429.83
410.10	1457.69
410.47	1490.45
410.83	1524.16
411.20	1549.67
411.57	1586.18
411.94	1611.46
412.30	1658.27
412.67	1696.19
413.04	1750.49
413.40	1795.66
413.77	1862.83
414.14	1909.17
414.51	1974.94
414.87	2035.56
415.24	2113.97
415.61	2191.44
415.97	2275.23
416.34	2358.09
416.71	2442.11
417.08	2549.55
417.44	2645.04
417.81	2757.85
418.18	2877.69
418.54	3024.67
418.91	3154.81
419.28	3310.69
419.64	3460.72
420.01	3629.47
420.38	3788.63
420.74	3955.51
421.11	4146.26
421.48	4355.50
421.84	4575.05
422.21	4787.33
422.58	5050.88
422.94	5326.83
423.31	5574.69
423.68	5828.64
424.04	6140.86
424.41	6424.07
424.77	6685.27
425.14	6996.10
425.51	7325.17
425.87	7657.06
426.24	8036.70
426.61	8469.70
426.97	8951.85
427.34	9401.23
427.70	9896.96
428.07	10367.40
428.44	10898.70
428.80	11393.96
429.17	11940.01
429.53	12489.33
429.90	13117.77
430.27	13610.22
430.63	14184.58
431.00	14835.02
431.36	15584.22
431.73	16212.42
432.09	16912.71
432.46	17615.11
432.83	18229.50
433.19	18739.27
433.56	19420.83
433.92	20103.80
434.29	20709.06
434.65	21415.67
435.02	22047.61
435.38	22684.24
435.75	23237.31
436.11	23806.76
436.48	24297.34
436.84	24836.36
437.21	25274.98
437.57	25729.74
437.94	26189.19
438.30	26576.31
438.67	26858.35
439.03	27009.31
439.40	27177.36
439.76	27125.40
440.13	27001.12
440.49	26954.55
440.86	26725.17
441.22	26372.22
441.59	26016.22
441.95	25672.87
442.32	25149.06
442.68	24738.99
443.05	24246.08
443.41	23784.06
443.78	23178.56
444.14	22589.68
444.51	22005.95
444.87	21600.57
445.24	21130.12
445.60	20722.64
445.96	20206.78
446.33	19683.44
446.69	19050.56
447.06	18504.04
447.42	17931.08
447.79	17462.74
448.15	17051.74
448.51	16590.89
448.88	16146.42
449.24	15724.19
449.61	15372.87
449.97	14955.32
450.33	14612.43
450.70	14202.37
451.06	13886.40
451.43	13450.36
451.79	13117.30
452.15	12776.75
452.52	12503.14
452.88	12182.25
453.24	11913.33
453.61	11646.74
453.97	11372.19
454.34	11030.24
454.70	10748.91
455.06	10522.11
455.43	10213.86
455.79	9845.23
456.15	9560.15
456.52	9231.54
456.88	8937.57
457.24	8648.75
457.61	8439.97
457.97	8231.90
458.33	8011.89
458.70	7723.77
459.06	7454.14
459.42	7221.25
459.79	6955.14
460.15	6723.19
460.51	6499.43
460.88	6312.66
461.24	6119.56
461.60	5946.13
461.96	5773.63
462.33	5647.01
462.69	5495.81
463.05	5337.12
463.42	5190.84
463.78	5074.98
464.14	4930.57
464.50	4802.55
464.87	4700.97
465.23	4605.47
465.59	4480.02
465.95	4367.21
466.32	4268.43
466.68	4140.88
467.04	4022.44
467.40	3930.46
467.77	3853.93
468.13	3774.82
468.49	3733.39
468.85	3679.32
469.22	3617.77
469.58	3545.44
469.94	3493.48
470.30	3422.10
470.66	3371.31
471.03	3307.65
471.39	3260.13
471.75	3189.68
472.11	3130.00
472.47	3064.46
472.84	3013.21
473.20	2959.61
473.56	2914.20
473.92	2870.43
474.28	2837.43
474.65	2779.15
475.01	2743.81
475.37	2698.87
475.73	2645.04
476.09	2596.82
476.45	2570.84
476.81	2531.52
477.18	2482.37
477.54	2453.58
477.90	2404.43
478.26	2358.32
478.62	2314.09
478.98	2296.30
479.34	2269.15
479.71	2249.02
480.07	2223.98
480.43	2206.42
480.79	2176.93
481.15	2149.08
481.51	2102.50
481.87	2088.46
482.23	2052.18
482.59	2029.48
482.96	2003.97
483.32	2004.20
483.68	1969.56
484.04	1968.86
484.40	1942.88
484.76	1916.43
485.12	1897.00
485.48	1884.37
485.84	1852.77
486.20	1840.83
486.56	1832.64
486.92	1807.36
487.28	1790.04
487.64	1774.59
488.00	1747.68
488.37	1722.40
488.73	1713.74
489.09	1706.48
489.45	1687.29
489.81	1670.21
490.17	1663.18
490.53	1652.18
490.89	1631.12
491.25	1612.16
491.61	1606.31
491.97	1581.73
492.33	1559.97
492.69	1541.24
493.05	1525.56
493.41	1508.94
493.77	1493.96
494.13	1487.18
494.49	1474.54
494.85	1463.54
495.21	1461.66
495.57	1447.15
495.93	1437.79
496.29	1423.05
496.64	1425.85
497.00	1404.09
497.36	1402.21
497.72	1391.21
498.08	1383.02
498.44	1366.40
498.80	1357.74
499.16	1349.32
499.52	1351.89
499.88	1355.17
500.24	1354.70
500.60	1354.00
500.96	1339.72
501.32	1313.74
501.68	1309.06
502.03	1293.38
502.39	1291.51
502.75	1297.12
503.11	1295.25
503.47	1290.81
503.83	1289.64
504.19	1284.49
504.55	1280.27
504.91	1276.29
505.26	1274.66
505.62	1272.32
505.98	1257.57
506.34	1245.63
506.70	1241.65
507.06	1233.70
507.42	1218.95
507.78	1214.74
508.13	1210.29
508.49	1209.82
508.85	1203.97
509.21	1211.46
509.57	1207.72
509.93	1214.27
510.28	1212.40
510.64	1214.74
511.00	1205.14
511.36	1203.27
511.72	1195.55
512.07	1192.03
512.43	1180.57
512.79	1187.35
513.15	1193.44
513.51	1193.44
513.86	1192.03
514.22	1199.76
514.58	1192.27
514.94	1173.78
515.30	1169.10
515.65	1156.22
516.01	1146.16
516.37	1145.46
516.73	1160.44
517.08	1166.05
517.44	1177.76
517.80	1170.50
518.16	1173.78
518.51	1164.18
518.87	1152.95
519.23	1151.08
519.59	1152.48
519.94	1145.46
520.30	1148.50
520.66	1142.18
521.01	1126.50
521.37	1136.33
521.73	1129.54
522.09	1127.20
522.44	1131.88
522.80	1151.54
523.16	1144.76
523.51	1142.88
523.87	1143.82
524.23	1151.08
524.58	1145.69
524.94	1142.18
525.30	1148.03
525.65	1151.31
526.01	1142.88
526.37	1123.46
526.72	1121.12
527.08	1123.22
527.44	1116.20
527.79	1115.50
528.15	1124.39
528.51	1118.07
528.86	1123.46
529.22	1122.52
529.58	1124.63
529.93	1120.88
530.29	1128.37
530.65	1107.78
531.00	1105.90
531.36	1109.65
531.71	1117.61
532.07	1112.92
532.43	1121.82
532.78	1125.80
533.14	1116.67
533.49	1117.84
533.85	1125.10
534.21	1124.86
534.56	1123.93
534.92	1126.27
535.27	1124.39
535.63	1118.31
535.98	1109.41
536.34	1109.88
536.69	1109.65
537.05	1103.56
537.41	1105.20
537.76	1105.44
538.12	1101.22
538.47	1104.26
538.83	1099.12
539.18	1106.61
539.54	1111.05
539.89	1109.18
540.25	1095.60
540.60	1098.41
540.96	1092.80
541.31	1089.52
541.67	1097.24
542.02	1104.03
542.38	1104.73
542.73	1103.80
543.09	1108.01
543.44	1096.07
543.80	1101.46
544.15	1104.50
544.51	1108.95
544.86	1108.95
545.22	1112.22
545.57	1106.37
545.93	1101.92
546.28	1097.48
546.64	1096.78
546.99	1096.78
547.35	1098.88
547.70	1104.73
548.05	1103.56
548.41	1108.95
548.76	1102.86
549.12	1103.33
549.47	1103.80
549.83	1099.82
550.18	1101.92
550.53	1108.95
550.89	1117.84
551.24	1122.99
551.60	1134.69
551.95	1118.07
552.30	1117.37
552.66	1110.58
553.01	1097.01
553.37	1085.77
553.72	1091.16
554.07	1089.05
554.43	1082.50
554.78	1084.14
555.13	1093.03
555.49	1101.46
555.84	1104.50
556.19	1115.03
556.55	1124.63
556.90	1119.95
557.26	1114.10
557.61	1112.46
557.96	1104.50
558.32	1102.39
558.67	1089.52
559.02	1083.67
559.37	1086.01
559.73	1092.33
560.08	1092.09
560.43	1102.86
560.79	1108.24
561.14	1104.03
561.49	1089.29
561.85	1080.39
562.20	1078.28
562.55	1076.88
562.90	1085.07
563.26	1081.56
563.61	1086.94
563.96	1082.97
564.32	1084.60
564.67	1086.24
565.02	1115.03
565.37	1116.67
565.73	1121.58
566.08	1125.10
566.43	1122.75
566.78	1111.05
567.14	1100.29
567.49	1103.80
567.84	1104.03
568.19	1103.33
568.54	1106.61
568.90	1111.99
569.25	1106.84
569.60	1098.18
569.95	1098.41
570.31	1086.94
570.66	1082.73
571.01	1078.99
571.36	1080.16
571.71	1074.31
572.06	1071.50
572.42	1076.41
572.77	1085.07
573.12	1093.26
573.47	1088.58
573.82	1093.97
574.18	1098.65
574.53	1091.63
574.88	1086.94
575.23	1089.75
575.58	1100.05
575.93	1097.71
576.28	1107.31
576.64	1108.24
576.99	1114.80
577.34	1108.95
577.69	1114.33
578.04	1103.09
578.39	1103.80
578.74	1094.43
579.09	1090.69
579.44	1080.63
579.80	1087.65
580.15	1086.94
580.50	1090.69
580.85	1096.54
581.20	1102.86
581.55	1108.95
581.90	1112.22
582.25	1115.50
582.60	1118.31
582.95	1112.92
583.30	1097.24
583.65	1100.29
584.00	1096.78
584.35	1084.14
584.71	1092.80
585.06	1092.56
585.41	1083.20
585.76	1088.35
586.11	1085.31
586.46	1080.16
586.81	1083.43
587.16	1093.26
587.51	1096.78
587.86	1106.61
588.21	1104.73
588.56	1104.97
588.91	1091.86
589.26	1084.60
589.61	1079.22
589.96	1083.20
590.31	1091.86
590.66	1091.86
591.01	1098.88
591.36	1100.75
591.71	1095.60
592.06	1098.88
592.41	1108.48
592.76	1096.07
593.10	1096.07
593.45	1105.20
593.80	1102.39
594.15	1094.90
594.50	1101.69
594.85	1104.03
595.20	1096.54
595.55	1097.95
595.90	1105.20
596.25	1103.09
596.60	1094.43
596.95	1095.60
597.30	1082.03
597.64	1124.39
597.99	1132.35
598.34	1140.31
598.69	1138.20
599.04	1148.50
599.39	1103.09
599.74	1097.24
600.09	1096.31
600.44	1104.26
600.78	1092.56
601.13	1096.78
601.48	1086.24
601.83	1081.56
602.18	1075.01
602.53	1091.16
602.88	1086.48
603.22	1093.26
603.57	1099.58
603.92	1101.22
604.27	1093.73
604.62	1094.43
604.97	1095.84
605.31	1086.01
605.66	1085.07
606.01	1089.75
606.36	1086.48
606.71	1089.75
607.05	1090.22
607.40	1081.09
607.75	1072.90
608.10	1082.03
608.44	1085.77
608.79	1097.48
609.14	1101.46
609.49	1101.69
609.84	1096.07
610.18	1086.71
610.53	1085.07
610.88	1085.54
611.23	1082.73
611.57	1087.18
611.92	1093.26
612.27	1090.22
612.62	1088.82
612.96	1093.73
613.31	1092.80
613.66	1099.82
614.00	1106.14
614.35	1107.07
614.70	1114.56
615.05	1112.22
615.39	1112.46
615.74	1104.97
616.09	1115.03
616.43	1103.56
616.78	1101.92
617.13	1092.33
617.47	1091.16
617.82	1082.26
618.17	1086.48
618.51	1088.82
618.86	1087.65
619.21	1090.92
619.55	1102.63
619.90	1104.26
620.25	1098.18
620.59	1099.35
620.94	1089.05
621.29	1078.05
621.63	1078.99
621.98	1087.18
622.32	1092.33
622.67	1096.54
623.02	1099.82
623.36	1096.54
623.71	1082.73
624.05	1075.71
624.40	1085.31
624.75	1088.58
625.09	1088.82
625.44	1104.73
625.78	1101.46
626.13	1103.80
626.48	1084.60
626.82	1077.35
627.17	1070.09
627.51	1069.39
627.86	1060.73
628.20	1078.05
628.55	1083.90
628.89	1084.14
629.24	1100.29
629.58	1105.20
629.93	1101.69
630.28	1089.75
630.62	1088.82
630.97	1081.33
631.31	1071.03
631.66	1068.45
632.00	1083.43
632.35	1086.24
632.69	1085.54
633.04	1096.54
633.38	1101.46
633.73	1093.03
634.07	1098.18
634.42	1089.29
634.76	1075.94
635.11	1078.28
635.45	1085.07
635.79	1082.50
636.14	1084.84
636.48	1085.31
636.83	1080.39
637.17	1089.75
637.52	1086.94
637.86	1092.33
638.21	1101.22
638.55	1101.46
638.89	1092.09
639.24	1093.50
639.58	1098.41
639.93	1097.01
640.27	1109.41
640.61	1100.05
640.96	1097.95
641.30	1095.60
641.65	1106.37
641.99	1093.73
642.33	1100.99
642.68	1094.20
643.02	1091.63
643.37	1084.37
643.71	1089.29
644.05	1095.37
644.40	1089.05
644.74	1086.24
645.08	1082.97
645.43	1076.41
645.77	1062.37
646.11	1073.84
646.46	1078.99
646.80	1082.03
647.14	1091.39
647.49	1105.44
647.83	1105.90
648.17	1106.84
648.52	1109.65
648.86	1104.03
649.20	1100.99
649.55	1102.39
649.89	1090.22
650.23	1083.67
650.57	1081.33
650.92	1081.09
651.26	1085.77
651.60	1086.71
651.95	1087.88
652.29	1089.99
652.63	1100.75
652.97	1092.33
653.32	1097.71
653.66	1103.56
654.00	1108.24
654.34	1102.86
654.69	1116.44
655.03	1118.54
655.37	1112.46
655.71	1101.22
656.05	1094.43
656.40	1089.52
656.74	1083.20
657.08	1083.20
657.42	1091.86
657.76	1081.33
658.11	1071.97
658.45	1070.09
658.79	1076.88
659.13	1079.92
659.47	1084.60
659.82	1086.48
660.16	1088.35
660.50	1076.65
660.84	1070.09
661.18	1071.97
661.52	1076.41
661.87	1072.67
662.21	1073.37
662.55	1070.09
662.89	1078.05
663.23	1075.01
663.57	1079.22
663.91	1084.84
664.25	1079.22
664.60	1069.62
664.94	1063.31
665.28	1066.35
665.62	1060.03
665.96	1061.67
666.30	1065.65
666.64	1067.75
666.98	1074.77
667.32	1081.09
667.66	1091.39
668.01	1091.39
668.35	1100.52
668.69	1097.24
669.03	1093.73
669.37	1089.75
669.71	1085.31
670.05	1069.86
670.39	1070.56
670.73	1070.09
671.07	1074.07
671.41	1077.35
671.75	1079.92
672.09	1079.69
672.43	1081.80
672.77	1086.48
673.11	1090.69
673.45	1092.33
673.79	1089.99
674.13	1093.97
674.47	1085.54
674.81	1090.92
675.15	1095.84
675.49	1088.82
675.83	1082.03
676.17	1077.58
676.51	1071.03
676.85	1069.16
677.19	1077.35
677.53	1074.54
677.87	1077.11
678.21	1075.01
678.55	1069.39
678.89	1058.16
679.23	1059.09
679.57	1060.96
679.90	1054.65
680.24	1053.94
680.58	1058.86
680.92	1073.37
681.26	1072.90
681.60	1071.26
681.94	1078.52
682.28	1078.05
682.62	1068.92
682.96	1063.54
683.29	1071.26
683.63	1068.45
683.97	1069.16
684.31	1060.03
684.65	1073.60
684.99	1081.80
685.33	1081.56
685.67	1086.24
686.00	1088.82
686.34	1083.67
686.68	1085.07
687.02	1086.94
687.36	1088.58
687.70	1091.39
688.03	1087.88
688.37	1077.58
688.71	1069.86
689.05	1055.82
689.39	1060.73
689.72	1061.20
690.06	1060.96
690.40	1064.94
690.74	1074.77
691.08	1072.43
691.41	1064.71
691.75	1060.73
692.09	1067.75
692.43	1067.99
692.76	1065.41
693.10	1076.18
693.44	1089.29
693.78	1086.48
694.11	1084.14
694.45	1091.86
694.79	1080.16
695.13	1078.28
695.46	1080.16
695.80	1090.69
696.14	1086.24
696.48	1093.26
696.81	1086.24
697.15	1093.03
697.49	1085.07
697.82	1073.14
698.16	1071.97
698.50	1076.65
698.83	1065.41
699.17	1069.16
699.51	1081.80
699.84	1090.22
700.18	1098.65
700.52	1091.63
700.85	1094.20
701.19	1094.90
701.53	1090.69
701.86	1086.24
702.20	1094.90
702.54	1090.46
702.87	1091.16
703.21	1084.14
703.55	1086.24
703.88	1081.56
704.22	1077.58
704.55	1077.58
704.89	1078.75
705.23	1068.45
705.56	1080.39
705.90	1078.75
706.23	1076.41
706.57	1081.33
706.91	1083.67
707.24	1079.46
707.58	1078.28
707.91	1078.28
708.25	1079.22
708.58	1075.48
708.92	1076.88
709.26	1083.20
709.59	1078.28
709.93	1074.31
710.26	1078.05
710.60	1077.58
710.93	1077.82
711.27	1085.07
711.60	1086.48
711.94	1082.97
712.27	1073.60
712.61	1078.99
712.94	1081.33
713.28	1082.73
713.61	1086.71
713.95	1086.01
714.28	1072.43
714.62	1075.24
714.95	1075.48
715.29	1076.18
715.62	1078.05
715.96	1090.69
716.29	1080.86
716.63	1083.20
716.96	1084.14
717.29	1086.01
717.63	1082.73
717.96	1090.22
718.30	1091.39
718.63	1085.77
718.97	1100.29
719.30	1101.92
719.63	1103.56
719.97	1096.78
720.30	1102.86
720.64	1093.26
720.97	1089.52
721.30	1079.46
721.64	1082.50
721.97	1076.65
722.31	1073.84
722.64	1070.09
722.97	1074.31
723.31	1071.50
723.64	1067.28
723.97	1068.92
724.31	1066.58
724.64	1060.96
724.98	1052.30
725.31	1063.31
725.64	1067.75
725.98	1073.60
726.31	1074.77
726.64	1090.22
726.97	1090.92
727.31	1084.60
727.64	1082.50
727.97	1098.41
728.31	1098.41
728.64	1095.14
728.97	1101.69
729.31	1105.20
729.64	1081.56
729.97	1078.28
730.30	1074.31
730.64	1059.33
730.97	1052.30
731.30	1060.26
731.63	1059.79
731.97	1066.58
732.30	1070.09
732.63	1069.86
732.96	1066.11
733.30	1064.48
733.63	1061.67
733.96	1067.05
734.29	1063.54
734.63	1064.71
734.96	1064.24
735.29	1064.24
735.62	1071.73
735.95	1088.58
736.29	1090.22
736.62	1085.07
736.95	1083.90
737.28	1080.16
737.61	1078.05
737.94	1084.84
738.28	1090.92
738.61	1088.82
738.94	1085.54
739.27	1078.99
739.60	1083.90
739.93	1086.94
740.27	1085.54
740.60	1083.43
740.93	1081.33
741.26	1072.90
741.59	1071.50
741.92	1084.84
742.25	1092.56
742.58	1090.22
742.91	1083.20
743.25	1081.56
743.58	1072.43
743.91	1063.54
744.24	1072.67
744.57	1077.11
744.90	1079.69
745.23	1075.94
745.56	1089.52
745.89	1076.65
746.22	1076.41
746.55	1076.18
746.88	1078.75
747.21	1065.65
747.54	1079.46
747.87	1083.90
748.20	1074.31
748.53	1079.46
748.87	1079.22
749.20	1072.43
749.53	1065.88
749.86	1072.90
750.19	1075.01
750.52	1083.67
750.85	1086.71
751.18	1104.26
751.51	1115.50
751.84	1099.35
752.16	1095.14
752.49	1090.92
752.82	1070.56
753.15	1069.86
753.48	1082.03
753.81	1081.09
754.14	1077.58
754.47	1084.84
754.80	1081.33
755.13	1077.82
755.46	1077.11
755.79	1086.71
756.12	1086.48
756.45	1074.54
756.78	1071.03
757.11	1070.33
757.43	1073.84
757.76	1073.60
758.09	1083.67
758.42	1086.01
758.75	1084.37
759.08	1076.88
759.41	1075.94
759.74	1069.62
760.07	1068.92
760.39	1076.18
760.72	1082.26
761.05	1083.90
761.38	1085.31
761.71	1088.12
762.04	1092.56
762.36	1093.50
762.69	1095.37
763.02	1088.35
763.35	1086.48
763.68	1074.54
764.01	1074.31
764.33	1076.65
764.66	1083.67
