SpectraSuite Data File
++++++++++++++++++++++++++++++++++++
Date: Mon Aug 26 10:24:52 PDT 2019
User: corrico
Dark Spectrum Present: No
Reference Spectrum Present: No
Number of Sampled Component Spectra: 1
Spectrometers: USB2+H06089
Integration Time (usec): 10000 (USB2+H06089)
Spectra Averaged: 2 (USB2+H06089)
Boxcar Smoothing: 2 (USB2+H06089)
Correct for Electrical Dark: No (USB2+H06089)
Strobe/Lamp Enabled: No (USB2+H06089)
Correct for Detector Non-linearity: No (USB2+H06089)
Correct for Stray Light: No (USB2+H06089)
Number of Pixels in Processed Spectrum: 2048
>>>>>Begin Processed Spectral Data<<<<<
339.70	1016.96
340.07	1016.96
340.45	983.73
340.82	966.64
341.19	939.49
341.57	918.43
341.94	900.87
342.31	900.40
342.69	899.70
343.06	904.85
343.43	904.38
343.81	915.15
344.18	919.36
344.55	929.89
344.93	926.15
345.30	933.17
345.67	936.21
346.04	939.96
346.42	924.51
346.79	940.90
347.16	946.28
347.54	954.24
347.91	963.83
348.28	997.77
348.65	1008.30
349.03	1023.05
349.40	1035.22
349.77	1049.96
350.14	1042.71
350.52	1051.13
350.89	1052.30
351.26	1056.75
351.63	1063.77
352.01	1075.01
352.38	1079.22
352.75	1092.09
353.12	1092.56
353.50	1093.97
353.87	1103.80
354.24	1111.05
354.61	1110.35
354.98	1117.84
355.36	1110.58
355.73	1095.84
356.10	1078.28
356.47	1070.80
356.84	1071.26
357.22	1077.11
357.59	1087.18
357.96	1094.67
358.33	1099.82
358.70	1096.54
359.08	1091.86
359.45	1085.31
359.82	1090.92
360.19	1084.37
360.56	1083.67
360.94	1086.71
361.31	1084.60
361.68	1086.48
362.05	1096.54
362.42	1105.44
362.79	1111.29
363.16	1111.52
363.54	1105.44
363.91	1103.33
364.28	1086.24
364.65	1086.24
365.02	1095.60
365.39	1098.41
365.76	1096.07
366.14	1109.88
366.51	1100.99
366.88	1092.33
367.25	1099.82
367.62	1101.22
367.99	1092.80
368.36	1093.03
368.73	1093.26
369.10	1087.65
369.48	1078.05
369.85	1076.41
370.22	1078.05
370.59	1070.80
370.96	1069.62
371.33	1074.31
371.70	1074.77
372.07	1075.71
372.44	1078.99
372.81	1079.22
373.18	1076.65
373.55	1077.82
373.93	1082.73
374.30	1086.24
374.67	1082.73
375.04	1089.29
375.41	1095.14
375.78	1097.71
376.15	1094.67
376.52	1098.88
376.89	1100.29
377.26	1097.95
377.63	1094.20
378.00	1093.97
378.37	1085.77
378.74	1083.90
379.11	1077.82
379.48	1074.31
379.85	1086.48
380.22	1088.35
380.59	1088.82
380.96	1093.03
381.33	1106.37
381.70	1108.48
382.07	1121.58
382.44	1128.61
382.81	1129.78
383.18	1113.86
383.55	1103.80
383.92	1104.50
384.29	1109.88
384.66	1109.65
385.03	1118.31
385.40	1114.10
385.77	1105.20
386.14	1097.24
386.51	1101.46
386.88	1085.31
387.25	1096.78
387.62	1107.31
387.99	1100.05
388.36	1095.84
388.73	1108.71
389.10	1107.54
389.46	1100.99
389.83	1105.20
390.20	1108.71
390.57	1111.52
390.94	1112.22
391.31	1107.07
391.68	1108.24
392.05	1104.03
392.42	1098.41
392.79	1099.35
393.16	1105.67
393.53	1108.01
393.89	1114.56
394.26	1115.50
394.63	1115.03
395.00	1116.44
395.37	1123.22
395.74	1124.16
396.11	1138.20
396.48	1132.35
396.84	1134.22
397.21	1128.14
397.58	1129.31
397.95	1130.95
398.32	1144.29
398.69	1139.14
399.06	1133.99
399.42	1127.67
399.79	1122.29
400.16	1121.82
400.53	1137.27
400.90	1142.88
401.27	1148.97
401.64	1148.73
402.00	1154.82
402.37	1145.22
402.74	1158.80
403.11	1166.76
403.48	1180.80
403.84	1185.25
404.21	1195.78
404.58	1204.67
404.95	1211.93
405.32	1213.33
405.68	1229.95
406.05	1257.57
406.42	1265.06
406.79	1287.29
407.16	1301.10
407.52	1306.25
407.89	1321.93
408.26	1342.53
408.63	1354.00
408.99	1374.60
409.36	1403.85
409.73	1420.71
410.10	1438.03
410.47	1478.52
410.83	1516.90
411.20	1539.84
411.57	1572.84
411.94	1626.20
412.30	1667.87
412.67	1715.85
413.04	1771.55
413.40	1821.64
413.77	1874.30
414.14	1933.98
414.51	1991.33
414.87	2061.08
415.24	2129.89
415.61	2223.27
415.97	2311.98
416.34	2399.99
416.71	2497.35
417.08	2603.61
417.44	2676.87
417.81	2774.00
418.18	2901.80
418.54	3018.82
418.91	3165.81
419.28	3318.41
419.64	3464.93
420.01	3605.83
420.38	3779.50
420.74	3925.08
421.11	4121.68
421.48	4337.25
421.84	4561.24
422.21	4784.99
422.58	5047.83
422.94	5313.25
423.31	5565.33
423.68	5809.91
424.04	6102.71
424.41	6398.09
424.77	6657.65
425.14	6942.50
425.51	7302.94
425.87	7635.06
426.24	7987.08
426.61	8423.82
426.97	8915.10
427.34	9331.95
427.70	9837.97
428.07	10357.10
428.44	10850.72
428.80	11345.51
429.17	11899.75
429.53	12431.29
429.90	13020.17
430.27	13604.83
430.63	14125.60
431.00	14777.21
431.36	15470.94
431.73	16105.93
432.09	16740.21
432.46	17483.80
432.83	18115.51
433.19	18676.77
433.56	19340.08
433.92	20029.13
434.29	20644.70
434.65	21319.71
435.02	21976.46
435.38	22589.91
435.75	23129.17
436.11	23795.06
436.48	24260.59
436.84	24764.04
437.21	25252.98
437.57	25704.00
437.94	26044.78
438.30	26467.71
438.67	26713.70
439.03	26810.84
439.40	26978.18
439.76	26963.44
440.13	26860.22
440.49	26851.56
440.86	26628.51
441.22	26259.87
441.59	25903.18
441.95	25465.03
442.32	24935.83
442.68	24568.14
443.05	24116.41
443.41	23632.86
443.78	23119.58
444.14	22585.47
444.51	21942.76
444.87	21517.95
445.24	21005.37
445.60	20530.95
445.96	19968.75
446.33	19539.03
446.69	18912.23
447.06	18374.61
447.42	17853.84
447.79	17345.01
448.15	16890.94
448.51	16440.86
448.88	16048.35
449.24	15606.93
449.61	15324.19
449.97	14922.55
450.33	14571.94
450.70	14143.16
451.06	13828.82
451.43	13357.67
451.79	12970.55
452.15	12632.57
452.52	12339.30
452.88	12029.42
453.24	11784.36
453.61	11561.78
453.97	11273.42
454.34	10952.30
454.70	10676.35
455.06	10439.73
455.43	10114.86
455.79	9781.80
456.15	9525.51
456.52	9220.77
456.88	8923.76
457.24	8640.32
457.61	8435.06
457.97	8196.32
458.33	7960.16
458.70	7711.60
459.06	7460.22
459.42	7250.28
459.79	7002.18
460.15	6762.98
460.51	6535.48
460.88	6347.30
461.24	6102.24
461.60	5930.22
461.96	5756.08
462.33	5582.41
462.69	5408.74
463.05	5276.27
463.42	5147.77
463.78	5023.96
464.14	4895.23
464.50	4791.08
464.87	4672.18
465.23	4542.98
465.59	4441.17
465.95	4354.57
466.32	4253.22
466.68	4154.45
467.04	4067.85
467.40	3994.83
467.77	3918.06
468.13	3842.46
468.49	3775.05
468.85	3711.39
469.22	3623.62
469.58	3544.51
469.94	3468.91
470.30	3416.48
470.66	3364.75
471.03	3292.43
471.39	3235.79
471.75	3181.02
472.11	3111.74
472.47	3045.74
472.84	3005.48
473.20	2938.31
473.56	2892.67
473.92	2834.15
474.28	2781.02
474.65	2735.38
475.01	2708.23
475.37	2658.38
475.73	2623.51
476.09	2566.16
476.45	2528.01
476.81	2487.76
477.18	2450.54
477.54	2420.82
477.90	2411.22
478.26	2376.35
478.62	2334.92
478.98	2310.34
479.34	2272.43
479.71	2247.15
480.07	2206.89
480.43	2175.53
480.79	2146.51
481.15	2113.97
481.51	2084.01
481.87	2069.50
482.23	2061.31
482.59	2044.93
482.96	2019.65
483.32	1996.24
483.68	1975.18
484.04	1940.54
484.40	1913.86
484.76	1915.96
485.12	1902.15
485.48	1881.09
485.84	1880.15
486.20	1865.64
486.56	1833.81
486.92	1817.66
487.28	1814.85
487.64	1787.23
488.00	1759.85
488.37	1734.57
488.73	1703.68
489.09	1660.84
489.45	1649.61
489.81	1638.61
490.17	1634.86
490.53	1620.59
490.89	1621.76
491.25	1592.27
491.61	1584.78
491.97	1566.52
492.33	1566.99
492.69	1541.01
493.05	1541.48
493.41	1527.43
493.77	1511.28
494.13	1490.22
494.49	1486.47
494.85	1470.79
495.21	1456.52
495.57	1447.86
495.93	1437.79
496.29	1431.00
496.64	1416.96
497.00	1418.60
497.36	1409.94
497.72	1401.75
498.08	1387.70
498.44	1388.64
498.80	1366.87
499.16	1357.28
499.52	1344.64
499.88	1341.36
500.24	1326.15
500.60	1324.74
500.96	1323.10
501.32	1314.21
501.68	1311.64
502.03	1305.78
502.39	1288.93
502.75	1286.12
503.11	1281.91
503.47	1269.97
503.83	1263.66
504.19	1271.38
504.55	1256.17
504.91	1262.02
505.26	1258.97
505.62	1261.78
505.98	1256.63
506.34	1255.00
506.70	1249.14
507.06	1248.21
507.42	1241.89
507.78	1239.78
508.13	1227.61
508.49	1211.70
508.85	1206.78
509.21	1207.01
509.57	1202.33
509.93	1201.63
510.28	1196.48
510.64	1195.78
511.00	1184.78
511.36	1184.78
511.72	1191.33
512.07	1195.31
512.43	1185.72
512.79	1199.06
513.15	1195.31
513.51	1192.03
513.86	1188.29
514.22	1190.63
514.58	1173.31
514.94	1166.76
515.30	1165.82
515.65	1167.46
516.01	1173.08
516.37	1182.91
516.73	1182.20
517.08	1181.74
517.44	1172.84
517.80	1154.59
518.16	1151.78
518.51	1159.97
518.87	1155.52
519.23	1163.25
519.59	1169.80
519.94	1164.18
520.30	1158.10
520.66	1154.12
521.01	1145.46
521.37	1145.46
521.73	1152.01
522.09	1143.12
522.44	1148.97
522.80	1153.88
523.16	1148.50
523.51	1125.80
523.87	1137.97
524.23	1135.16
524.58	1130.95
524.94	1128.14
525.30	1140.54
525.65	1131.41
526.01	1128.14
526.37	1132.12
526.72	1136.56
527.08	1130.71
527.44	1124.63
527.79	1121.82
528.15	1116.90
528.51	1116.44
528.86	1110.58
529.22	1114.56
529.58	1123.93
529.93	1128.37
530.29	1125.80
530.65	1139.14
531.00	1142.42
531.36	1137.50
531.71	1133.05
532.07	1136.56
532.43	1124.86
532.78	1127.20
533.14	1123.22
533.49	1126.50
533.85	1124.39
534.21	1124.16
534.56	1111.99
534.92	1113.16
535.27	1100.99
535.63	1102.86
535.98	1109.65
536.34	1108.71
536.69	1115.50
537.05	1125.56
537.41	1120.18
537.76	1115.27
538.12	1122.52
538.47	1113.39
538.83	1113.16
539.18	1118.78
539.54	1120.41
539.89	1108.48
540.25	1108.71
540.60	1096.78
540.96	1093.50
541.31	1092.33
541.67	1113.86
542.02	1109.18
542.38	1134.46
542.73	1137.97
543.09	1141.48
543.44	1121.12
543.80	1124.16
544.15	1115.97
544.51	1116.90
544.86	1110.12
545.22	1113.39
545.57	1113.86
545.93	1103.80
546.28	1092.80
546.64	1087.41
546.99	1093.97
547.35	1097.71
547.70	1105.20
548.05	1109.88
548.41	1120.88
548.76	1127.44
549.12	1131.41
549.47	1126.03
549.83	1129.07
550.18	1132.35
550.53	1125.10
550.89	1117.61
551.24	1119.48
551.60	1120.88
551.95	1119.48
552.30	1122.52
552.66	1137.50
553.01	1127.90
553.37	1130.48
553.72	1118.78
554.07	1122.75
554.43	1102.16
554.78	1112.22
555.13	1110.12
555.49	1117.37
555.84	1104.03
556.19	1109.41
556.55	1103.56
556.90	1097.01
557.26	1101.46
557.61	1106.84
557.96	1107.78
558.32	1105.20
558.67	1108.71
559.02	1105.44
559.37	1101.46
559.73	1097.48
560.08	1099.82
560.43	1094.20
560.79	1082.97
561.14	1086.94
561.49	1089.05
561.85	1095.37
562.20	1099.58
562.55	1107.07
562.90	1104.03
563.26	1111.75
563.61	1104.97
563.96	1107.07
564.32	1107.78
564.67	1101.46
565.02	1097.48
565.37	1096.07
565.73	1090.69
566.08	1096.78
566.43	1104.97
566.78	1099.12
567.14	1102.63
567.49	1102.63
567.84	1102.16
568.19	1099.58
568.54	1106.14
568.90	1109.18
569.25	1118.54
569.60	1118.78
569.95	1116.90
570.31	1106.84
570.66	1108.01
571.01	1101.69
571.36	1095.37
571.71	1102.86
572.06	1104.73
572.42	1097.01
572.77	1097.95
573.12	1097.95
573.47	1086.94
573.82	1087.41
574.18	1083.67
574.53	1081.09
574.88	1096.31
575.23	1106.61
575.58	1109.88
575.93	1122.99
576.28	1119.95
576.64	1100.05
576.99	1101.46
577.34	1097.48
577.69	1081.80
578.04	1077.58
578.39	1083.20
578.74	1070.09
579.09	1073.14
579.44	1085.31
579.80	1086.48
580.15	1086.94
580.50	1092.09
580.85	1098.65
581.20	1093.97
581.55	1100.75
581.90	1098.18
582.25	1104.03
582.60	1103.33
582.95	1102.63
583.30	1099.35
583.65	1100.05
584.00	1093.03
584.35	1086.24
584.71	1087.65
585.06	1081.09
585.41	1082.50
585.76	1092.56
586.11	1094.67
586.46	1100.05
586.81	1104.26
587.16	1102.16
587.51	1095.14
587.86	1093.97
588.21	1081.33
588.56	1082.50
588.91	1093.73
589.26	1086.48
589.61	1085.54
589.96	1089.52
590.31	1097.71
590.66	1090.46
591.01	1098.41
591.36	1094.20
591.71	1092.33
592.06	1082.50
592.41	1094.20
592.76	1086.71
593.10	1101.22
593.45	1098.41
593.80	1102.16
594.15	1084.37
594.50	1088.58
594.85	1081.80
595.20	1095.60
595.55	1091.16
595.90	1094.20
596.25	1096.54
596.60	1094.90
596.95	1089.29
597.30	1094.20
597.64	1139.37
597.99	1137.03
598.34	1132.59
598.69	1134.46
599.04	1127.67
599.39	1081.80
599.74	1087.88
600.09	1083.67
600.44	1079.69
600.78	1081.80
601.13	1095.14
601.48	1095.37
601.83	1102.39
602.18	1114.33
602.53	1114.56
602.88	1108.24
603.22	1107.07
603.57	1107.31
603.92	1099.82
604.27	1108.48
604.62	1106.14
604.97	1105.44
605.31	1104.97
605.66	1102.39
606.01	1097.01
606.36	1099.82
606.71	1101.92
607.05	1096.31
607.40	1089.75
607.75	1083.90
608.10	1079.69
608.44	1076.18
608.79	1089.05
609.14	1101.92
609.49	1113.16
609.84	1114.56
610.18	1110.58
610.53	1109.41
610.88	1101.22
611.23	1104.50
611.57	1104.97
611.92	1104.26
612.27	1098.18
612.62	1104.26
612.96	1097.24
613.31	1101.22
613.66	1101.22
614.00	1097.95
614.35	1093.03
614.70	1085.77
615.05	1072.67
615.39	1079.46
615.74	1086.71
616.09	1086.24
616.43	1088.82
616.78	1096.07
617.13	1086.71
617.47	1098.18
617.82	1100.75
618.17	1108.95
618.51	1104.26
618.86	1112.92
619.21	1093.50
619.55	1087.18
619.90	1071.50
620.25	1076.18
620.59	1067.05
620.94	1074.31
621.29	1085.07
621.63	1110.58
621.98	1105.90
622.32	1114.09
622.67	1121.82
623.02	1115.97
623.36	1100.05
623.71	1100.52
624.05	1097.71
624.40	1089.99
624.75	1088.35
625.09	1093.97
625.44	1096.31
625.78	1098.88
626.13	1086.71
626.48	1084.84
626.82	1082.73
627.17	1079.92
627.51	1076.65
627.86	1085.54
628.20	1089.52
628.55	1091.39
628.89	1086.94
629.24	1087.18
629.58	1086.01
629.93	1081.56
630.28	1078.52
630.62	1082.73
630.97	1084.84
631.31	1088.12
631.66	1098.18
632.00	1094.90
632.35	1102.63
632.69	1116.44
633.04	1118.54
633.38	1115.03
633.73	1127.67
634.07	1126.97
634.42	1111.29
634.76	1106.84
635.11	1110.58
635.45	1096.07
635.79	1097.71
636.14	1100.05
636.48	1105.44
636.83	1098.18
637.17	1103.80
637.52	1102.63
637.86	1102.16
638.21	1099.12
638.55	1101.22
638.89	1095.84
639.24	1090.22
639.58	1087.18
639.93	1086.01
640.27	1080.39
640.61	1084.14
640.96	1090.69
641.30	1102.16
641.65	1095.60
641.99	1100.29
642.33	1093.97
642.68	1091.86
643.02	1084.84
643.37	1088.82
643.71	1080.16
644.05	1091.39
644.40	1092.80
644.74	1082.97
645.08	1082.97
645.43	1093.03
645.77	1076.41
646.11	1080.63
646.46	1086.48
646.80	1095.60
647.14	1098.18
647.49	1104.97
647.83	1107.31
648.17	1112.69
648.52	1109.18
648.86	1106.14
649.20	1115.27
649.55	1099.35
649.89	1090.69
650.23	1079.92
650.57	1083.90
650.92	1072.43
651.26	1085.31
651.60	1088.35
651.95	1089.52
652.29	1082.73
652.63	1091.86
652.97	1074.77
653.32	1075.71
653.66	1087.18
654.00	1096.07
654.34	1098.41
654.69	1105.67
655.03	1105.44
655.37	1093.26
655.71	1085.31
656.05	1078.05
656.40	1073.14
656.74	1071.97
657.08	1081.80
657.42	1082.97
657.76	1080.39
658.11	1086.01
658.45	1089.29
658.79	1080.63
659.13	1071.26
659.47	1073.60
659.82	1077.11
660.16	1073.14
660.50	1081.09
660.84	1093.03
661.18	1095.37
661.52	1089.75
661.87	1089.29
662.21	1090.69
662.55	1091.63
662.89	1085.07
663.23	1087.65
663.57	1081.56
663.91	1082.50
664.25	1075.01
664.60	1085.54
664.94	1080.39
665.28	1075.94
665.62	1071.50
665.96	1075.94
666.30	1064.94
666.64	1070.33
666.98	1072.67
667.32	1073.14
667.66	1062.84
668.01	1062.37
668.35	1061.43
668.69	1063.07
669.03	1060.73
669.37	1072.20
669.71	1073.60
670.05	1077.11
670.39	1088.58
670.73	1082.26
671.07	1076.41
671.41	1080.86
671.75	1078.75
672.09	1076.88
672.43	1080.86
672.77	1080.63
673.11	1080.39
673.45	1080.86
673.79	1074.54
674.13	1070.80
674.47	1077.58
674.81	1078.52
675.15	1073.84
675.49	1085.54
675.83	1088.35
676.17	1089.99
676.51	1089.75
676.85	1091.39
677.19	1087.88
677.53	1085.54
677.87	1075.94
678.21	1073.14
678.55	1076.65
678.89	1073.84
679.23	1080.86
679.57	1080.63
679.90	1084.14
680.24	1089.99
680.58	1092.33
680.92	1097.95
681.26	1099.82
681.60	1089.52
681.94	1076.41
682.28	1075.01
682.62	1059.33
682.96	1056.99
683.29	1061.67
683.63	1062.14
683.97	1052.77
684.31	1060.03
684.65	1057.92
684.99	1059.56
685.33	1067.75
685.67	1081.33
686.00	1083.67
686.34	1079.92
686.68	1081.56
687.02	1075.71
687.36	1060.03
687.70	1060.96
688.03	1073.84
688.37	1068.92
688.71	1077.35
689.05	1087.88
689.39	1090.92
689.72	1086.71
690.06	1107.07
690.40	1104.26
690.74	1106.61
691.08	1108.24
691.41	1107.31
691.75	1091.63
692.09	1087.65
692.43	1078.05
692.76	1065.88
693.10	1070.09
693.44	1067.99
693.78	1069.86
694.11	1071.50
694.45	1082.97
694.79	1079.46
695.13	1082.97
695.46	1083.43
695.80	1081.09
696.14	1075.94
696.48	1078.75
696.81	1082.50
697.15	1080.16
697.49	1077.58
697.82	1072.43
698.16	1074.31
698.50	1072.20
698.83	1072.43
699.17	1086.71
699.51	1092.09
699.84	1084.60
700.18	1091.86
700.52	1099.58
700.85	1093.03
701.19	1092.33
701.53	1102.86
701.86	1088.12
702.20	1076.88
702.54	1076.18
702.87	1072.20
703.21	1069.16
703.55	1076.41
703.88	1081.56
704.22	1090.69
704.55	1093.97
704.89	1095.84
705.23	1089.05
705.56	1093.03
705.90	1086.71
706.23	1081.56
706.57	1073.14
706.91	1073.14
707.24	1071.26
707.58	1075.24
707.91	1082.97
708.25	1088.12
708.58	1096.54
708.92	1090.22
709.26	1079.92
709.59	1082.26
709.93	1078.75
710.26	1081.33
710.60	1089.99
710.93	1098.88
711.27	1084.60
711.60	1088.12
711.94	1087.65
712.27	1081.56
712.61	1080.86
712.94	1085.54
713.28	1084.14
713.61	1084.14
713.95	1087.41
714.28	1091.86
714.62	1097.24
714.95	1097.71
715.29	1096.07
715.62	1094.67
715.96	1080.63
716.29	1083.43
716.63	1079.92
716.96	1073.84
717.29	1063.54
717.63	1072.20
717.96	1076.18
718.30	1078.05
718.63	1075.94
718.97	1083.43
719.30	1086.94
719.63	1079.46
719.97	1075.71
720.30	1084.14
720.64	1093.26
720.97	1091.63
721.30	1091.39
721.64	1102.86
721.97	1091.16
722.31	1092.33
722.64	1083.20
722.97	1097.01
723.31	1093.97
723.64	1108.01
723.97	1101.92
724.31	1107.31
724.64	1099.12
724.98	1103.56
725.31	1103.56
725.64	1098.41
725.98	1105.44
726.31	1104.50
726.64	1097.01
726.97	1097.48
727.31	1108.01
727.64	1100.52
727.97	1095.60
728.31	1093.97
728.64	1086.01
728.97	1080.86
729.31	1076.88
729.64	1081.33
729.97	1078.52
730.30	1082.97
730.64	1074.31
730.97	1080.16
731.30	1072.43
731.63	1068.69
731.97	1060.73
732.30	1064.24
732.63	1062.37
732.96	1070.80
733.30	1081.33
733.63	1090.22
733.96	1090.92
734.29	1094.67
734.63	1091.63
734.96	1092.80
735.29	1094.20
735.62	1097.48
735.95	1102.16
736.29	1096.31
736.62	1091.63
736.95	1079.69
737.28	1074.07
737.61	1066.82
737.94	1068.22
738.28	1065.65
738.61	1069.16
738.94	1078.52
739.27	1074.77
739.60	1079.69
739.93	1084.84
740.27	1097.48
740.60	1086.48
740.93	1091.16
741.26	1097.01
741.59	1088.58
741.92	1080.16
742.25	1094.20
742.58	1096.31
742.91	1088.35
743.25	1101.92
743.58	1103.09
743.91	1083.90
744.24	1086.01
744.57	1087.65
744.90	1083.20
745.23	1079.69
745.56	1087.41
745.89	1086.24
746.22	1073.84
746.55	1069.62
746.88	1074.31
747.21	1086.94
747.54	1086.01
747.87	1097.24
748.20	1110.82
748.53	1112.46
748.87	1101.46
749.20	1114.10
749.53	1116.90
749.86	1104.50
750.19	1094.43
750.52	1092.09
750.85	1078.52
751.18	1076.65
751.51	1069.39
751.84	1082.50
752.16	1086.24
752.49	1090.69
752.82	1089.99
753.15	1105.20
753.48	1091.86
753.81	1094.90
754.14	1086.24
754.47	1090.22
754.80	1075.01
755.13	1085.07
755.46	1083.67
755.79	1086.71
756.12	1075.48
756.45	1083.67
756.78	1081.33
757.11	1082.03
757.43	1074.54
757.76	1082.73
758.09	1077.11
758.42	1064.24
758.75	1060.73
759.08	1066.11
759.41	1062.84
759.74	1063.77
760.07	1082.97
760.39	1083.67
760.72	1087.41
761.05	1086.71
761.38	1089.05
761.71	1081.09
762.04	1089.05
762.36	1090.46
762.69	1089.99
763.02	1093.26
763.35	1095.60
763.68	1083.90
764.01	1074.07
764.33	1081.33
764.66	1082.26
