SpectraSuite Data File
++++++++++++++++++++++++++++++++++++
Date: Mon Aug 26 10:24:54 PDT 2019
User: corrico
Dark Spectrum Present: No
Reference Spectrum Present: No
Number of Sampled Component Spectra: 1
Spectrometers: USB2+H06089
Integration Time (usec): 10000 (USB2+H06089)
Spectra Averaged: 2 (USB2+H06089)
Boxcar Smoothing: 2 (USB2+H06089)
Correct for Electrical Dark: No (USB2+H06089)
Strobe/Lamp Enabled: No (USB2+H06089)
Correct for Detector Non-linearity: No (USB2+H06089)
Correct for Stray Light: No (USB2+H06089)
Number of Pixels in Processed Spectrum: 2048
>>>>>Begin Processed Spectral Data<<<<<
339.70	1048.56
340.07	1048.56
340.45	998.47
340.82	972.26
341.19	958.68
341.57	935.04
341.94	935.51
342.31	934.81
342.69	926.85
343.06	922.17
343.43	922.87
343.81	919.13
344.18	912.81
344.55	921.94
344.93	905.09
345.30	906.26
345.67	922.87
346.04	935.98
346.42	937.38
346.79	946.04
347.16	954.70
347.54	948.15
347.91	956.11
348.28	973.43
348.65	1000.11
349.03	1006.66
349.40	1023.98
349.77	1026.09
350.14	1031.94
350.52	1034.52
350.89	1044.58
351.26	1054.18
351.63	1070.80
352.01	1070.80
352.38	1074.31
352.75	1073.84
353.12	1075.71
353.50	1071.50
353.87	1079.92
354.24	1076.18
354.61	1078.05
354.98	1079.22
355.36	1085.07
355.73	1085.31
356.10	1092.80
356.47	1100.05
356.84	1103.80
357.22	1095.37
357.59	1088.58
357.96	1080.39
358.33	1071.97
358.70	1075.94
359.08	1084.84
359.45	1101.46
359.82	1105.20
360.19	1111.52
360.56	1107.54
360.94	1103.33
361.31	1095.37
361.68	1098.41
362.05	1094.43
362.42	1093.73
362.79	1101.69
363.16	1097.71
363.54	1092.80
363.91	1096.54
364.28	1093.50
364.65	1081.80
365.02	1080.63
365.39	1081.33
365.76	1076.41
366.14	1075.01
366.51	1073.14
366.88	1076.88
367.25	1077.58
367.62	1084.60
367.99	1076.18
368.36	1082.97
368.73	1085.54
369.10	1085.54
369.48	1086.24
369.85	1101.22
370.22	1092.09
370.59	1087.65
370.96	1089.05
371.33	1089.75
371.70	1086.71
372.07	1097.71
372.44	1106.37
372.81	1108.01
373.18	1100.75
373.55	1091.86
373.93	1091.39
374.30	1088.12
374.67	1094.20
375.04	1090.46
375.41	1100.52
375.78	1095.14
376.15	1090.22
376.52	1084.60
376.89	1085.54
377.26	1086.01
377.63	1086.71
378.00	1095.37
378.37	1094.90
378.74	1102.39
379.11	1108.24
379.48	1113.16
379.85	1104.26
380.22	1106.37
380.59	1111.75
380.96	1108.01
381.33	1106.61
381.70	1115.50
382.07	1116.20
382.44	1107.31
382.81	1109.41
383.18	1111.05
383.55	1090.69
383.92	1085.54
384.29	1084.84
384.66	1077.11
385.03	1068.22
385.40	1084.14
385.77	1082.03
386.14	1086.24
386.51	1084.84
386.88	1091.63
387.25	1092.56
387.62	1100.05
387.99	1088.12
388.36	1089.05
388.73	1088.82
389.10	1085.77
389.46	1092.56
389.83	1100.52
390.20	1100.99
390.57	1104.03
390.94	1103.80
391.31	1101.46
391.68	1106.14
392.05	1105.67
392.42	1107.54
392.79	1108.71
393.16	1102.16
393.53	1100.99
393.89	1103.09
394.26	1101.22
394.63	1104.50
395.00	1104.26
395.37	1106.14
395.74	1113.16
396.11	1117.14
396.48	1117.61
396.84	1127.20
397.21	1126.27
397.58	1130.71
397.95	1133.76
398.32	1131.65
398.69	1125.56
399.06	1127.90
399.42	1125.56
399.79	1125.56
400.16	1137.97
400.53	1140.78
400.90	1148.97
401.27	1150.84
401.64	1152.71
402.00	1156.46
402.37	1172.84
402.74	1174.48
403.11	1184.31
403.48	1194.14
403.84	1194.84
404.21	1189.93
404.58	1199.06
404.95	1195.78
405.32	1203.74
405.68	1214.27
406.05	1225.74
406.42	1232.99
406.79	1253.12
407.16	1268.10
407.52	1286.12
407.89	1310.47
408.26	1337.85
408.63	1350.96
408.99	1363.60
409.36	1381.38
409.73	1394.73
410.10	1407.60
410.47	1434.28
410.83	1454.64
411.20	1495.37
411.57	1530.01
411.94	1571.20
412.30	1617.78
412.67	1661.78
413.04	1686.36
413.40	1727.55
413.77	1771.08
414.14	1818.83
414.51	1883.66
414.87	1957.16
415.24	2029.71
415.61	2104.61
415.97	2181.15
416.34	2253.00
416.71	2328.13
417.08	2410.75
417.44	2498.05
417.81	2609.00
418.18	2739.60
418.54	2872.77
418.91	3002.21
419.28	3145.45
419.64	3276.52
420.01	3404.31
420.38	3547.32
420.74	3709.28
421.11	3879.20
421.48	4073.94
421.84	4264.69
422.21	4464.34
422.58	4692.77
422.94	4946.25
423.31	5169.07
423.68	5440.58
424.04	5714.65
424.41	5959.71
424.77	6203.36
425.14	6484.45
425.51	6739.10
425.87	7044.31
426.24	7389.31
426.61	7752.09
426.97	8163.09
427.34	8606.15
427.70	9034.23
428.07	9492.28
428.44	9984.73
428.80	10459.39
429.17	10931.00
429.53	11459.26
429.90	12072.72
430.27	12522.80
430.63	13053.40
431.00	13674.11
431.36	14336.02
431.73	14842.04
432.09	15521.73
432.46	16149.93
432.83	16703.94
433.19	17208.09
433.56	17836.75
433.92	18416.97
434.29	18972.15
434.65	19607.84
435.02	20162.31
435.38	20729.19
435.75	21246.45
436.11	21916.54
436.48	22360.78
436.84	22887.63
437.21	23341.93
437.57	23718.29
437.94	23987.68
438.30	24345.08
438.67	24541.69
439.03	24701.55
439.40	24852.28
439.76	24857.89
440.13	24763.80
440.49	24725.65
440.86	24484.81
441.22	24249.59
441.59	23909.98
441.95	23526.13
442.32	23021.98
442.68	22612.62
443.05	22137.96
443.41	21674.53
443.78	21168.74
444.14	20676.06
444.51	20079.46
444.87	19636.39
445.24	19163.60
445.60	18790.29
445.96	18257.58
446.33	17886.61
446.69	17333.54
447.06	16857.47
447.42	16337.17
447.79	15947.71
448.15	15503.71
448.51	15090.60
448.88	14702.08
449.24	14297.63
449.61	14006.23
449.97	13689.56
450.33	13390.20
450.70	13020.40
451.06	12682.19
451.43	12249.90
451.79	11892.96
452.15	11581.44
452.52	11306.66
452.88	11099.76
453.24	10898.00
453.61	10673.78
453.97	10419.60
454.34	10121.18
454.70	9829.31
455.06	9560.85
455.43	9247.22
455.79	8934.76
456.15	8701.64
456.52	8410.25
456.88	8166.36
457.24	7926.22
457.61	7719.32
457.97	7492.52
458.33	7276.02
458.70	7055.54
459.06	6823.60
459.42	6625.59
459.79	6405.34
460.15	6205.23
460.51	6001.60
460.88	5846.66
461.24	5656.14
461.60	5485.51
461.96	5344.38
462.33	5198.10
462.69	5043.39
463.05	4908.81
463.42	4792.95
463.78	4674.28
464.14	4535.49
464.50	4411.91
464.87	4315.48
465.23	4218.11
465.59	4106.94
465.95	4029.93
466.32	3952.93
466.68	3879.67
467.04	3774.58
467.40	3703.90
467.77	3627.36
468.13	3552.23
468.49	3486.70
468.85	3454.63
469.22	3405.48
469.58	3347.90
469.94	3284.94
470.30	3209.58
470.66	3142.40
471.03	3066.10
471.39	3020.23
471.75	2975.52
472.11	2921.22
472.47	2882.84
472.84	2857.33
473.20	2799.98
473.56	2741.24
473.92	2684.83
474.28	2634.04
474.65	2577.87
475.01	2546.50
475.37	2524.50
475.73	2488.22
476.09	2454.75
476.45	2417.07
476.81	2377.28
477.18	2341.00
477.54	2318.77
477.90	2284.13
478.26	2248.79
478.62	2220.00
478.98	2187.70
479.34	2151.89
479.71	2134.10
480.07	2115.38
480.43	2088.23
480.79	2069.97
481.15	2058.50
481.51	2012.63
481.87	2001.86
482.23	1981.03
482.59	1962.77
482.96	1939.84
483.32	1928.37
483.68	1883.90
484.04	1856.51
484.40	1827.96
484.76	1810.87
485.12	1799.87
485.48	1796.36
485.84	1789.57
486.20	1781.38
486.56	1773.19
486.92	1753.06
487.28	1731.53
487.64	1709.53
488.00	1693.38
488.37	1670.21
488.73	1656.40
489.09	1643.76
489.45	1632.06
489.81	1612.86
490.17	1607.71
490.53	1591.33
490.89	1580.56
491.25	1571.90
491.61	1560.20
491.97	1522.28
492.33	1520.18
492.69	1514.09
493.05	1500.05
493.41	1491.62
493.77	1491.86
494.13	1473.37
494.49	1452.54
494.85	1435.45
495.21	1420.71
495.57	1406.43
495.93	1388.41
496.29	1390.98
496.64	1385.83
497.00	1369.45
497.36	1366.87
497.72	1366.87
498.08	1349.55
498.44	1339.49
498.80	1346.98
499.16	1344.17
499.52	1337.38
499.88	1333.64
500.24	1331.53
500.60	1324.04
500.96	1312.81
501.32	1304.85
501.68	1300.17
502.03	1295.02
502.39	1282.85
502.75	1273.49
503.11	1276.76
503.47	1275.36
503.83	1275.59
504.19	1273.25
504.55	1277.70
504.91	1271.14
505.26	1267.87
505.62	1247.51
505.98	1242.36
506.34	1231.12
506.70	1220.12
507.06	1210.06
507.42	1209.12
507.78	1207.48
508.13	1202.10
508.49	1197.18
508.85	1191.33
509.21	1195.78
509.57	1187.35
509.93	1194.38
510.28	1186.42
510.64	1185.01
511.00	1187.82
511.36	1191.33
511.72	1191.57
512.07	1196.95
512.43	1195.08
512.79	1184.31
513.15	1176.12
513.51	1167.69
513.86	1168.63
514.22	1175.42
514.58	1162.08
514.94	1161.61
515.30	1161.14
515.65	1155.76
516.01	1149.67
516.37	1167.69
516.73	1165.12
517.08	1151.54
517.44	1148.50
517.80	1146.63
518.16	1136.80
518.51	1136.80
518.87	1144.29
519.23	1147.33
519.59	1139.61
519.94	1142.88
520.30	1142.88
520.66	1136.80
521.01	1127.67
521.37	1130.71
521.73	1113.63
522.09	1107.54
522.44	1119.95
522.80	1120.18
523.16	1116.67
523.51	1120.88
523.87	1122.29
524.23	1115.73
524.58	1122.75
524.94	1112.22
525.30	1121.12
525.65	1115.03
526.01	1109.65
526.37	1105.90
526.72	1121.58
527.08	1115.27
527.44	1108.95
527.79	1099.58
528.15	1101.92
528.51	1089.99
528.86	1099.35
529.22	1114.80
529.58	1121.82
529.93	1121.35
530.29	1120.41
530.65	1113.63
531.00	1111.05
531.36	1114.10
531.71	1115.27
532.07	1117.37
532.43	1110.82
532.78	1101.22
533.14	1104.73
533.49	1104.03
533.85	1107.54
534.21	1111.99
534.56	1122.29
534.92	1118.54
535.27	1104.97
535.63	1108.01
535.98	1106.14
536.34	1103.80
536.69	1102.16
537.05	1117.84
537.41	1106.14
537.76	1109.41
538.12	1094.43
538.47	1092.80
538.83	1085.54
539.18	1094.67
539.54	1095.60
539.89	1116.90
540.25	1123.22
540.60	1125.80
540.96	1127.20
541.31	1121.35
541.67	1111.99
542.02	1112.69
542.38	1105.67
542.73	1108.01
543.09	1118.31
543.44	1126.73
543.80	1122.29
544.15	1122.75
544.51	1111.52
544.86	1099.12
545.22	1098.65
545.57	1108.24
545.93	1119.24
546.28	1125.80
546.64	1128.61
546.99	1117.84
547.35	1100.99
547.70	1090.92
548.05	1093.26
548.41	1095.84
548.76	1095.14
549.12	1098.65
549.47	1100.99
549.83	1105.20
550.18	1110.35
550.53	1110.12
550.89	1118.07
551.24	1114.80
551.60	1105.67
551.95	1102.16
552.30	1106.84
552.66	1099.82
553.01	1102.86
553.37	1101.22
553.72	1103.80
554.07	1105.90
554.43	1108.24
554.78	1112.92
555.13	1117.37
555.49	1114.33
555.84	1104.26
556.19	1100.99
556.55	1107.31
556.90	1107.54
557.26	1097.95
557.61	1109.41
557.96	1104.50
558.32	1097.24
558.67	1101.22
559.02	1112.92
559.37	1106.61
559.73	1118.78
560.08	1116.90
560.43	1108.01
560.79	1092.80
561.14	1103.33
561.49	1092.33
561.85	1092.56
562.20	1089.99
562.55	1100.75
562.90	1094.67
563.26	1104.03
563.61	1099.58
563.96	1095.14
564.32	1096.78
564.67	1089.75
565.02	1086.24
565.37	1088.35
565.73	1104.26
566.08	1108.95
566.43	1123.46
566.78	1119.24
567.14	1119.01
567.49	1114.33
567.84	1106.37
568.19	1098.88
568.54	1103.33
568.90	1105.20
569.25	1108.95
569.60	1103.56
569.95	1103.56
570.31	1095.14
570.66	1086.94
571.01	1079.92
571.36	1086.01
571.71	1071.97
572.06	1081.33
572.42	1086.71
572.77	1083.90
573.12	1077.11
573.47	1081.33
573.82	1081.56
574.18	1075.71
574.53	1078.05
574.88	1093.03
575.23	1100.99
575.58	1101.22
575.93	1104.03
576.28	1100.52
576.64	1095.37
576.99	1090.69
577.34	1084.14
577.69	1088.35
578.04	1087.88
578.39	1097.01
578.74	1104.97
579.09	1110.82
579.44	1112.46
579.80	1114.33
580.15	1103.80
580.50	1108.95
580.85	1105.90
581.20	1098.18
581.55	1101.22
581.90	1109.18
582.25	1106.37
582.60	1099.58
582.95	1113.63
583.30	1114.33
583.65	1100.52
584.00	1091.39
584.35	1099.35
584.71	1094.67
585.06	1090.92
585.41	1095.14
585.76	1099.82
586.11	1098.88
586.46	1091.16
586.81	1089.29
587.16	1089.52
587.51	1083.90
587.86	1082.50
588.21	1078.75
588.56	1083.43
588.91	1072.90
589.26	1073.14
589.61	1078.99
589.96	1100.75
590.31	1102.39
590.66	1109.88
591.01	1120.41
591.36	1114.56
591.71	1099.82
592.06	1096.54
592.41	1091.39
592.76	1081.33
593.10	1084.37
593.45	1089.29
593.80	1091.63
594.15	1099.12
594.50	1105.20
594.85	1107.78
595.20	1103.09
595.55	1101.22
595.90	1106.37
596.25	1097.71
596.60	1097.24
596.95	1094.67
597.30	1097.71
597.64	1128.61
597.99	1140.78
598.34	1131.88
598.69	1125.80
599.04	1114.80
599.39	1077.35
599.74	1070.09
600.09	1070.33
600.44	1081.33
600.78	1088.12
601.13	1088.12
601.48	1090.46
601.83	1095.84
602.18	1090.69
602.53	1086.24
602.88	1085.54
603.22	1088.12
603.57	1090.46
603.92	1095.37
604.27	1097.48
604.62	1095.84
604.97	1099.12
605.31	1097.95
605.66	1099.35
606.01	1092.80
606.36	1091.86
606.71	1083.67
607.05	1079.69
607.40	1077.82
607.75	1088.58
608.10	1087.41
608.44	1084.84
608.79	1084.14
609.14	1078.05
609.49	1079.22
609.84	1086.94
610.18	1086.94
610.53	1093.03
610.88	1104.73
611.23	1109.18
611.57	1106.61
611.92	1109.88
612.27	1109.65
612.62	1102.86
612.96	1089.52
613.31	1091.39
613.66	1096.54
614.00	1091.63
614.35	1097.95
614.70	1110.82
615.05	1109.65
615.39	1109.18
615.74	1112.69
616.09	1116.67
616.43	1110.35
616.78	1109.65
617.13	1090.46
617.47	1091.16
617.82	1075.24
618.17	1073.60
618.51	1064.24
618.86	1076.65
619.21	1082.97
619.55	1086.01
619.90	1089.52
620.25	1106.84
620.59	1104.03
620.94	1097.48
621.29	1110.12
621.63	1107.07
621.98	1097.48
622.32	1102.16
622.67	1095.60
623.02	1088.82
623.36	1088.12
623.71	1083.67
624.05	1075.71
624.40	1073.37
624.75	1066.35
625.09	1071.50
625.44	1082.73
625.78	1089.52
626.13	1093.03
626.48	1093.03
626.82	1083.67
627.17	1079.46
627.51	1070.33
627.86	1073.37
628.20	1078.99
628.55	1089.99
628.89	1088.35
629.24	1094.43
629.58	1098.18
629.93	1094.90
630.28	1081.80
630.62	1078.05
630.97	1081.33
631.31	1070.33
631.66	1073.60
632.00	1083.90
632.35	1085.31
632.69	1082.03
633.04	1089.29
633.38	1101.92
633.73	1094.90
634.07	1095.37
634.42	1093.26
634.76	1091.39
635.11	1066.35
635.45	1070.33
635.79	1068.92
636.14	1076.18
636.48	1071.97
636.83	1083.20
637.17	1092.80
637.52	1097.71
637.86	1087.41
638.21	1088.82
638.55	1093.03
638.89	1078.99
639.24	1077.35
639.58	1081.33
639.93	1087.18
640.27	1088.12
640.61	1093.26
640.96	1097.24
641.30	1106.14
641.65	1105.20
641.99	1093.50
642.33	1092.09
642.68	1092.56
643.02	1078.28
643.37	1077.11
643.71	1084.14
644.05	1097.48
644.40	1098.18
644.74	1105.90
645.08	1096.07
645.43	1089.75
645.77	1083.43
646.11	1089.05
646.46	1082.97
646.80	1100.52
647.14	1113.63
647.49	1103.80
647.83	1084.84
648.17	1094.20
648.52	1087.41
648.86	1076.41
649.20	1080.63
649.55	1086.24
649.89	1087.88
650.23	1087.88
650.57	1095.84
650.92	1101.69
651.26	1119.71
651.60	1112.92
651.95	1107.54
652.29	1093.73
652.63	1089.75
652.97	1075.94
653.32	1085.54
653.66	1080.63
654.00	1087.18
654.34	1084.84
654.69	1078.99
655.03	1081.09
655.37	1093.26
655.71	1090.92
656.05	1088.58
656.40	1091.86
656.74	1069.39
657.08	1065.88
657.42	1065.41
657.76	1062.84
658.11	1061.20
658.45	1066.58
658.79	1058.16
659.13	1071.50
659.47	1080.39
659.82	1087.41
660.16	1088.12
660.50	1089.05
660.84	1082.03
661.18	1077.82
661.52	1082.26
661.87	1078.99
662.21	1089.05
662.55	1088.82
662.89	1082.03
663.23	1064.24
663.57	1082.03
663.91	1073.84
664.25	1065.88
664.60	1062.84
664.94	1062.37
665.28	1048.33
665.62	1058.62
665.96	1068.92
666.30	1080.39
666.64	1093.73
666.98	1108.48
667.32	1113.63
667.66	1108.71
668.01	1105.44
668.35	1101.46
668.69	1089.52
669.03	1074.07
669.37	1067.75
669.71	1064.94
670.05	1063.77
670.39	1062.14
670.73	1074.77
671.07	1082.03
671.41	1084.60
671.75	1088.58
672.09	1101.46
672.43	1090.69
672.77	1087.88
673.11	1086.94
673.45	1077.35
673.79	1062.60
674.13	1068.22
674.47	1072.20
674.81	1070.80
675.15	1076.65
675.49	1087.65
675.83	1087.41
676.17	1082.73
676.51	1081.80
676.85	1080.39
677.19	1073.60
677.53	1079.69
677.87	1078.99
678.21	1077.11
678.55	1073.14
678.89	1077.11
679.23	1074.07
679.57	1075.48
679.90	1077.11
680.24	1085.31
680.58	1087.65
680.92	1076.88
681.26	1082.26
681.60	1085.31
681.94	1080.63
682.28	1079.69
682.62	1090.92
682.96	1091.16
683.29	1099.82
683.63	1099.35
683.97	1092.56
684.31	1077.82
684.65	1072.67
684.99	1068.22
685.33	1079.92
685.67	1081.09
686.00	1085.31
686.34	1082.50
686.68	1074.77
687.02	1060.96
687.36	1065.65
687.70	1081.09
688.03	1090.92
688.37	1092.09
688.71	1095.84
689.05	1093.50
689.39	1088.12
689.72	1078.28
690.06	1073.60
690.40	1072.67
690.74	1062.37
691.08	1054.88
691.41	1057.92
691.75	1057.69
692.09	1064.48
692.43	1070.09
692.76	1067.05
693.10	1072.43
693.44	1088.58
693.78	1087.65
694.11	1090.46
694.45	1091.63
694.79	1086.01
695.13	1087.18
695.46	1082.50
695.80	1078.75
696.14	1076.18
696.48	1074.77
696.81	1073.60
697.15	1075.94
697.49	1088.58
697.82	1096.54
698.16	1100.99
698.50	1104.03
698.83	1102.86
699.17	1109.18
699.51	1112.22
699.84	1115.03
700.18	1111.29
700.52	1114.80
700.85	1093.26
701.19	1083.20
701.53	1081.09
701.86	1078.75
702.20	1083.67
702.54	1096.31
702.87	1107.78
703.21	1106.61
703.55	1105.20
703.88	1095.60
704.22	1096.07
704.55	1090.92
704.89	1083.43
705.23	1079.46
705.56	1086.24
705.90	1086.01
706.23	1102.63
706.57	1107.78
706.91	1112.92
707.24	1095.84
707.58	1093.73
707.91	1069.86
708.25	1067.75
708.58	1061.20
708.92	1075.94
709.26	1069.62
709.59	1077.35
709.93	1084.14
710.26	1091.39
710.60	1087.88
710.93	1099.35
711.27	1103.80
711.60	1102.39
711.94	1095.84
712.27	1095.37
712.61	1084.60
712.94	1083.20
713.28	1080.16
713.61	1087.65
713.95	1089.52
714.28	1094.67
714.62	1090.92
714.95	1091.86
715.29	1084.14
715.62	1080.86
715.96	1086.24
716.29	1083.43
716.63	1078.99
716.96	1084.14
717.29	1083.43
717.63	1077.35
717.96	1075.24
718.30	1072.90
718.63	1070.80
718.97	1071.73
719.30	1068.45
719.63	1071.97
719.97	1079.69
720.30	1082.26
720.64	1086.94
720.97	1093.03
721.30	1093.97
721.64	1095.37
721.97	1088.58
722.31	1092.56
722.64	1086.48
722.97	1094.67
723.31	1089.75
723.64	1091.63
723.97	1088.12
724.31	1091.39
724.64	1085.31
724.98	1085.07
725.31	1092.09
725.64	1084.14
725.98	1091.16
726.31	1085.07
726.64	1091.16
726.97	1091.39
727.31	1086.94
727.64	1081.09
727.97	1080.39
728.31	1072.20
728.64	1072.20
728.97	1069.16
729.31	1068.92
729.64	1072.20
729.97	1075.01
730.30	1062.60
730.64	1068.92
730.97	1071.73
731.30	1076.88
731.63	1079.22
731.97	1091.63
732.30	1096.07
732.63	1091.63
732.96	1095.84
733.30	1095.84
733.63	1091.16
733.96	1084.14
734.29	1083.90
734.63	1073.84
734.96	1070.33
735.29	1070.33
735.62	1081.80
735.95	1080.86
736.29	1084.84
736.62	1089.29
736.95	1091.39
737.28	1085.77
737.61	1084.60
737.94	1076.65
738.28	1082.97
738.61	1090.46
738.94	1092.80
739.27	1092.33
739.60	1099.35
739.93	1096.31
740.27	1084.14
740.60	1084.37
740.93	1085.31
741.26	1093.26
741.59	1081.33
741.92	1090.46
742.25	1087.88
742.58	1089.05
742.91	1081.56
743.25	1083.43
743.58	1063.07
743.91	1064.01
744.24	1067.75
744.57	1071.50
744.90	1072.43
745.23	1080.16
745.56	1081.33
745.89	1076.41
746.22	1075.71
746.55	1088.35
746.88	1095.14
747.21	1097.24
747.54	1093.03
747.87	1086.94
748.20	1080.63
748.53	1078.28
748.87	1080.39
749.20	1092.80
749.53	1088.35
749.86	1084.60
750.19	1089.29
750.52	1080.86
750.85	1072.20
751.18	1081.09
751.51	1086.94
751.84	1083.67
752.16	1097.48
752.49	1094.20
752.82	1082.26
753.15	1087.65
753.48	1085.31
753.81	1066.35
754.14	1078.05
754.47	1081.56
754.80	1078.99
755.13	1077.35
755.46	1086.94
755.79	1084.37
756.12	1098.65
756.45	1088.82
756.78	1097.01
757.11	1087.18
757.43	1081.09
757.76	1066.58
758.09	1065.65
758.42	1059.33
758.75	1068.22
759.08	1072.67
759.41	1083.43
759.74	1084.84
760.07	1091.86
760.39	1090.69
760.72	1077.58
761.05	1066.58
761.38	1077.35
761.71	1078.05
762.04	1076.65
762.36	1092.33
762.69	1105.44
763.02	1100.29
763.35	1085.07
763.68	1096.54
764.01	1083.90
764.33	1073.14
764.66	1062.60
