SpectraSuite Data File
++++++++++++++++++++++++++++++++++++
Date: Mon Aug 26 10:24:51 PDT 2019
User: corrico
Dark Spectrum Present: No
Reference Spectrum Present: No
Number of Sampled Component Spectra: 1
Spectrometers: USB2+H06089
Integration Time (usec): 10000 (USB2+H06089)
Spectra Averaged: 2 (USB2+H06089)
Boxcar Smoothing: 2 (USB2+H06089)
Correct for Electrical Dark: No (USB2+H06089)
Strobe/Lamp Enabled: No (USB2+H06089)
Correct for Detector Non-linearity: No (USB2+H06089)
Correct for Stray Light: No (USB2+H06089)
Number of Pixels in Processed Spectrum: 2048
>>>>>Begin Processed Spectral Data<<<<<
339.70	1071.97
340.07	1071.97
340.45	1022.58
340.82	983.96
341.19	943.24
341.57	907.66
341.94	899.23
342.31	897.13
342.69	902.98
343.06	909.06
343.43	897.83
343.81	897.83
344.18	900.17
344.55	903.45
344.93	913.51
345.30	929.19
345.67	936.21
346.04	939.26
346.42	939.96
346.79	943.24
347.16	956.58
347.54	962.19
347.91	965.94
348.28	981.15
348.65	994.96
349.03	1016.49
349.40	1025.39
349.77	1035.69
350.14	1043.64
350.52	1038.50
350.89	1036.39
351.26	1044.35
351.63	1049.96
352.01	1063.77
352.38	1073.14
352.75	1078.28
353.12	1090.92
353.50	1097.71
353.87	1087.65
354.24	1098.65
354.61	1089.05
354.98	1073.60
355.36	1069.86
355.73	1075.48
356.10	1059.56
356.47	1064.94
356.84	1075.01
357.22	1087.65
357.59	1087.65
357.96	1102.86
358.33	1103.33
358.70	1107.31
359.08	1101.92
359.45	1095.84
359.82	1098.41
360.19	1094.90
360.56	1096.54
360.94	1090.92
361.31	1105.44
361.68	1107.78
362.05	1114.80
362.42	1105.67
362.79	1102.63
363.16	1088.82
363.54	1081.09
363.91	1068.22
364.28	1081.80
364.65	1090.46
365.02	1095.84
365.39	1098.65
365.76	1115.03
366.14	1098.18
366.51	1089.99
366.88	1086.71
367.25	1080.86
367.62	1073.84
367.99	1082.73
368.36	1087.88
368.73	1089.75
369.10	1095.14
369.48	1101.46
369.85	1093.50
370.22	1092.56
370.59	1087.41
370.96	1084.14
371.33	1081.09
371.70	1093.73
372.07	1090.22
372.44	1099.12
372.81	1092.80
373.18	1089.99
373.55	1085.07
373.93	1085.54
374.30	1081.09
374.67	1088.35
375.04	1083.90
375.41	1078.28
375.78	1092.56
376.15	1099.82
376.52	1094.20
376.89	1098.65
377.26	1099.82
377.63	1092.09
378.00	1087.88
378.37	1096.07
378.74	1087.65
379.11	1087.18
379.48	1081.56
379.85	1081.33
380.22	1076.88
380.59	1086.24
380.96	1088.58
381.33	1086.71
381.70	1093.26
382.07	1089.52
382.44	1086.71
382.81	1095.84
383.18	1098.18
383.55	1085.07
383.92	1098.41
384.29	1101.69
384.66	1100.29
385.03	1104.73
385.40	1113.63
385.77	1101.46
386.14	1107.78
386.51	1107.07
386.88	1102.39
387.25	1100.99
387.62	1102.63
387.99	1096.54
388.36	1096.54
388.73	1093.03
389.10	1089.52
389.46	1101.22
389.83	1100.29
390.20	1094.20
390.57	1100.75
390.94	1103.09
391.31	1098.18
391.68	1100.52
392.05	1106.61
392.42	1110.82
392.79	1118.31
393.16	1120.88
393.53	1116.67
393.89	1112.22
394.26	1111.05
394.63	1115.03
395.00	1108.24
395.37	1112.69
395.74	1114.33
396.11	1113.86
396.48	1109.18
396.84	1110.12
397.21	1110.82
397.58	1114.80
397.95	1123.46
398.32	1121.35
398.69	1136.33
399.06	1139.61
399.42	1148.97
399.79	1144.76
400.16	1155.99
400.53	1146.39
400.90	1152.48
401.27	1154.35
401.64	1163.95
402.00	1166.29
402.37	1177.06
402.74	1186.18
403.11	1185.72
403.48	1183.37
403.84	1176.82
404.21	1174.01
404.58	1175.65
404.95	1180.10
405.32	1197.18
405.68	1211.46
406.05	1239.55
406.42	1247.74
406.79	1260.61
407.16	1270.44
407.52	1291.98
407.89	1297.83
408.26	1318.66
408.63	1339.72
408.99	1360.55
409.36	1377.87
409.73	1410.87
410.10	1440.37
410.47	1460.26
410.83	1489.52
411.20	1519.48
411.57	1548.03
411.94	1589.93
412.30	1647.74
412.67	1694.31
413.04	1748.85
413.40	1804.79
413.77	1855.81
414.14	1900.75
414.51	1960.20
414.87	2034.86
415.24	2104.38
415.61	2174.12
415.97	2258.85
416.34	2343.11
416.71	2428.54
417.08	2526.61
417.44	2626.32
417.81	2748.02
418.18	2878.16
418.54	3001.03
418.91	3124.62
419.28	3278.86
419.64	3428.42
420.01	3579.38
420.38	3743.69
420.74	3923.44
421.11	4120.28
421.48	4323.67
421.84	4524.26
422.21	4743.10
422.58	4992.13
422.94	5251.93
423.31	5499.32
423.68	5767.78
424.04	6068.31
424.41	6328.34
424.77	6609.20
425.14	6910.20
425.51	7235.53
425.87	7582.40
426.24	7963.20
426.61	8347.05
426.97	8839.03
427.34	9278.35
427.70	9742.95
428.07	10236.57
428.44	10722.23
428.80	11180.97
429.17	11699.40
429.53	12221.34
429.90	12840.41
430.27	13396.29
430.63	13938.83
431.00	14626.71
431.36	15355.79
431.73	15931.32
432.09	16623.89
432.46	17357.88
432.83	17934.35
433.19	18461.44
433.56	19116.79
433.92	19744.29
434.29	20324.28
434.65	21042.35
435.02	21656.74
435.38	22271.60
435.75	22826.31
436.11	23446.55
436.48	23871.36
436.84	24426.30
437.21	24863.98
437.57	25267.02
437.94	25616.23
438.30	26073.33
438.67	26356.54
439.03	26581.23
439.40	26746.00
439.76	26705.75
440.13	26569.53
440.49	26418.33
440.86	26168.83
441.22	25921.67
441.59	25622.08
441.95	25272.87
442.32	24787.91
442.68	24360.06
443.05	23890.78
443.41	23373.53
443.78	22732.92
444.14	22251.00
444.51	21674.06
444.87	21238.96
445.24	20818.13
445.60	20458.39
445.96	19932.24
446.33	19450.55
446.69	18832.18
447.06	18315.16
447.42	17743.37
447.79	17200.36
448.15	16794.51
448.51	16321.26
448.88	15860.87
449.24	15416.17
449.61	15134.37
449.97	14715.65
450.33	14370.89
450.70	13984.70
451.06	13647.66
451.43	13197.58
451.79	12847.20
452.15	12491.67
452.52	12179.91
452.88	11893.20
453.24	11618.89
453.61	11362.13
453.97	11105.84
454.34	10826.15
454.70	10584.14
455.06	10355.93
455.43	10057.28
455.79	9723.99
456.15	9443.13
456.52	9094.85
456.88	8833.18
457.24	8549.27
457.61	8332.54
457.97	8095.68
458.33	7884.80
458.70	7610.95
459.06	7376.90
459.42	7157.36
459.79	6900.84
460.15	6681.53
460.51	6484.69
460.88	6261.87
461.24	6042.56
461.60	5860.94
461.96	5683.52
462.33	5477.09
462.69	5315.36
463.05	5157.37
463.42	5030.28
463.78	4895.70
464.14	4785.46
464.50	4698.63
464.87	4613.90
465.23	4470.42
465.59	4362.06
465.95	4277.80
466.32	4190.96
466.68	4094.30
467.04	4039.06
467.40	3946.38
467.77	3866.33
468.13	3779.03
468.49	3712.32
468.85	3664.81
469.22	3608.17
469.58	3545.21
469.94	3481.08
470.30	3413.44
470.66	3344.86
471.03	3280.03
471.39	3215.19
471.75	3145.68
472.11	3076.63
472.47	3010.16
472.84	2976.23
473.20	2917.71
473.56	2869.73
473.92	2815.43
474.28	2765.81
474.65	2715.02
475.01	2671.02
475.37	2621.17
475.73	2582.31
476.09	2557.27
476.45	2517.48
476.81	2491.03
477.18	2456.39
477.54	2423.86
477.90	2370.03
478.26	2340.54
478.62	2310.11
478.98	2290.92
479.34	2256.04
479.71	2224.45
480.07	2190.98
480.43	2165.23
480.79	2130.59
481.15	2115.38
481.51	2109.76
481.87	2094.08
482.23	2063.18
482.59	2038.61
482.96	2016.61
483.32	1999.29
483.68	1972.84
484.04	1944.05
484.40	1926.49
484.76	1909.88
485.12	1876.17
485.48	1856.28
485.84	1847.15
486.20	1839.19
486.56	1810.40
486.92	1798.47
487.28	1778.10
487.64	1756.57
488.00	1739.02
488.37	1722.63
488.73	1696.65
489.09	1675.36
489.45	1650.55
489.81	1627.61
490.17	1612.63
490.53	1605.61
490.89	1587.59
491.25	1585.71
491.61	1577.99
491.97	1574.71
492.33	1548.97
492.69	1537.50
493.05	1519.71
493.41	1504.50
493.77	1495.60
494.13	1494.20
494.49	1490.45
494.85	1489.99
495.21	1478.28
495.57	1461.20
495.93	1451.37
496.29	1439.66
496.64	1425.62
497.00	1414.62
497.36	1394.49
497.72	1381.15
498.08	1377.17
498.44	1381.38
498.80	1368.98
499.16	1375.06
499.52	1368.75
499.88	1357.98
500.24	1338.08
500.60	1329.66
500.96	1316.55
501.32	1310.70
501.68	1306.25
502.03	1298.30
502.39	1292.68
502.75	1284.49
503.11	1285.42
503.47	1267.87
503.83	1259.91
504.19	1256.17
504.55	1263.42
504.91	1251.02
505.26	1266.23
505.62	1266.00
505.98	1261.55
506.34	1257.34
506.70	1255.70
507.06	1232.76
507.42	1230.89
507.78	1221.29
508.13	1203.50
508.49	1196.25
508.85	1202.57
509.21	1197.65
509.57	1205.61
509.93	1205.84
510.28	1200.46
510.64	1196.01
511.00	1186.42
511.36	1177.06
511.72	1182.91
512.07	1177.52
512.43	1165.59
512.79	1169.33
513.15	1168.16
513.51	1163.71
513.86	1171.67
514.22	1172.61
514.58	1170.27
514.94	1160.20
515.30	1150.61
515.65	1141.71
516.01	1151.31
516.37	1149.20
516.73	1150.14
517.08	1155.05
517.44	1164.65
517.80	1148.97
518.16	1145.22
518.51	1155.52
518.87	1151.08
519.23	1139.61
519.59	1141.95
519.94	1149.44
520.30	1155.99
520.66	1157.63
521.01	1154.12
521.37	1159.74
521.73	1146.86
522.09	1143.59
522.44	1139.14
522.80	1145.22
523.16	1140.78
523.51	1133.76
523.87	1122.99
524.23	1124.86
524.58	1125.10
524.94	1129.07
525.30	1133.05
525.65	1134.22
526.01	1131.18
526.37	1123.93
526.72	1123.93
527.08	1125.56
527.44	1120.88
527.79	1122.52
528.15	1126.03
528.51	1114.56
528.86	1118.31
529.22	1115.97
529.58	1113.63
529.93	1110.12
530.29	1120.18
530.65	1117.37
531.00	1115.03
531.36	1110.58
531.71	1111.29
532.07	1102.86
532.43	1098.65
532.78	1107.54
533.14	1101.46
533.49	1107.31
533.85	1115.03
534.21	1121.35
534.56	1120.41
534.92	1127.67
535.27	1123.69
535.63	1126.73
535.98	1124.39
536.34	1127.20
536.69	1131.18
537.05	1122.99
537.41	1114.80
537.76	1111.75
538.12	1107.31
538.47	1110.35
538.83	1119.48
539.18	1118.07
539.54	1117.14
539.89	1115.97
540.25	1112.69
540.60	1100.52
540.96	1092.80
541.31	1101.69
541.67	1101.69
542.02	1097.48
542.38	1101.69
542.73	1108.48
543.09	1113.63
543.44	1111.75
543.80	1109.41
544.15	1108.95
544.51	1112.92
544.86	1106.37
545.22	1103.56
545.57	1102.16
545.93	1109.41
546.28	1108.01
546.64	1108.48
546.99	1113.39
547.35	1116.44
547.70	1117.14
548.05	1112.69
548.41	1114.10
548.76	1118.78
549.12	1113.63
549.47	1102.16
549.83	1109.65
550.18	1110.35
550.53	1092.09
550.89	1099.35
551.24	1111.52
551.60	1112.92
551.95	1114.10
552.30	1121.58
552.66	1130.71
553.01	1124.86
553.37	1113.39
553.72	1111.52
554.07	1112.69
554.43	1106.84
554.78	1107.31
555.13	1116.20
555.49	1112.46
555.84	1118.07
556.19	1120.41
556.55	1119.48
556.90	1108.71
557.26	1112.46
557.61	1108.01
557.96	1100.29
558.32	1087.41
558.67	1085.54
559.02	1081.09
559.37	1086.94
559.73	1085.31
560.08	1099.82
560.43	1112.22
560.79	1109.41
561.14	1104.50
561.49	1108.24
561.85	1120.18
562.20	1115.27
562.55	1111.99
562.90	1103.09
563.26	1095.84
563.61	1087.41
563.96	1075.94
564.32	1077.58
564.67	1094.67
565.02	1109.18
565.37	1103.09
565.73	1114.33
566.08	1110.82
566.43	1094.43
566.78	1073.60
567.14	1068.45
567.49	1063.54
567.84	1077.58
568.19	1086.24
568.54	1096.07
568.90	1105.67
569.25	1111.29
569.60	1106.84
569.95	1100.29
570.31	1113.63
570.66	1111.99
571.01	1108.95
571.36	1098.65
571.71	1105.90
572.06	1098.18
572.42	1102.86
572.77	1107.54
573.12	1111.99
573.47	1105.44
573.82	1094.90
574.18	1093.50
574.53	1093.50
574.88	1097.48
575.23	1103.09
575.58	1105.20
575.93	1103.09
576.28	1102.16
576.64	1105.20
576.99	1105.90
577.34	1106.14
577.69	1104.73
578.04	1095.14
578.39	1097.24
578.74	1095.84
579.09	1098.41
579.44	1098.41
579.80	1121.58
580.15	1111.29
580.50	1105.90
580.85	1104.03
581.20	1099.58
581.55	1084.14
581.90	1088.82
582.25	1096.07
582.60	1098.41
582.95	1100.52
583.30	1105.20
583.65	1100.99
584.00	1098.65
584.35	1105.67
584.71	1098.88
585.06	1092.80
585.41	1097.01
585.76	1090.46
586.11	1073.84
586.46	1074.77
586.81	1077.11
587.16	1071.03
587.51	1079.92
587.86	1090.69
588.21	1091.16
588.56	1087.41
588.91	1092.09
589.26	1087.88
589.61	1084.14
589.96	1089.99
590.31	1086.71
590.66	1083.20
591.01	1081.80
591.36	1081.33
591.71	1083.20
592.06	1086.48
592.41	1086.24
592.76	1088.82
593.10	1090.69
593.45	1087.18
593.80	1086.48
594.15	1085.31
594.50	1076.88
594.85	1091.39
595.20	1084.60
595.55	1095.37
595.90	1098.88
596.25	1103.80
596.60	1084.60
596.95	1081.80
597.30	1075.94
597.64	1124.63
597.99	1131.18
598.34	1138.44
598.69	1142.18
599.04	1142.65
599.39	1090.46
599.74	1081.33
600.09	1080.16
600.44	1096.07
600.78	1092.09
601.13	1088.82
601.48	1095.84
601.83	1103.80
602.18	1080.86
602.53	1079.22
602.88	1084.14
603.22	1084.14
603.57	1070.56
603.92	1077.35
604.27	1083.43
604.62	1082.26
604.97	1081.09
605.31	1102.39
605.66	1110.12
606.01	1109.88
606.36	1120.41
606.71	1122.29
607.05	1102.16
607.40	1107.54
607.75	1105.20
608.10	1087.65
608.44	1082.26
608.79	1083.67
609.14	1078.28
609.49	1082.50
609.84	1097.01
610.18	1101.92
610.53	1100.99
610.88	1098.41
611.23	1092.56
611.57	1087.41
611.92	1091.39
612.27	1090.46
612.62	1093.73
612.96	1092.09
613.31	1086.94
613.66	1085.07
614.00	1085.77
614.35	1090.46
614.70	1101.22
615.05	1100.75
615.39	1092.56
615.74	1097.24
616.09	1100.99
616.43	1100.05
616.78	1105.44
617.13	1105.44
617.47	1103.09
617.82	1094.43
618.17	1088.82
618.51	1091.39
618.86	1092.33
619.21	1089.05
619.55	1087.41
619.90	1086.94
620.25	1088.35
620.59	1091.63
620.94	1091.39
621.29	1086.01
621.63	1083.20
621.98	1084.60
622.32	1084.14
622.67	1096.78
623.02	1101.46
623.36	1097.95
623.71	1093.97
624.05	1091.39
624.40	1075.94
624.75	1077.58
625.09	1081.33
625.44	1079.92
625.78	1082.50
626.13	1087.18
626.48	1079.92
626.82	1082.97
627.17	1088.82
627.51	1092.56
627.86	1097.48
628.20	1109.65
628.55	1106.14
628.89	1099.82
629.24	1090.22
629.58	1085.54
629.93	1069.39
630.28	1068.45
630.62	1068.92
630.97	1064.71
631.31	1063.31
631.66	1071.73
632.00	1073.14
632.35	1073.84
632.69	1079.92
633.04	1079.46
633.38	1085.77
633.73	1096.31
634.07	1099.58
634.42	1104.97
634.76	1116.90
635.11	1108.48
635.45	1107.54
635.79	1107.31
636.14	1109.18
636.48	1104.26
636.83	1109.18
637.17	1104.73
637.52	1106.37
637.86	1098.18
638.21	1091.63
638.55	1086.71
638.89	1072.43
639.24	1063.77
639.58	1071.73
639.93	1073.60
640.27	1075.48
640.61	1094.43
640.96	1103.80
641.30	1097.71
641.65	1095.84
641.99	1102.16
642.33	1093.73
642.68	1089.99
643.02	1091.16
643.37	1091.86
643.71	1088.58
644.05	1081.80
644.40	1075.48
644.74	1073.84
645.08	1076.18
645.43	1080.16
645.77	1087.88
646.11	1091.63
646.46	1088.58
646.80	1088.12
647.14	1078.75
647.49	1070.56
647.83	1075.24
648.17	1084.60
648.52	1077.11
648.86	1083.20
649.20	1091.86
649.55	1082.97
649.89	1079.92
650.23	1084.60
650.57	1080.39
650.92	1084.14
651.26	1093.97
651.60	1100.05
651.95	1100.52
652.29	1100.75
652.63	1097.95
652.97	1078.05
653.32	1072.90
653.66	1072.67
654.00	1078.75
654.34	1080.86
654.69	1090.22
655.03	1084.37
655.37	1094.43
655.71	1088.12
656.05	1069.62
656.40	1073.14
656.74	1075.71
657.08	1071.97
657.42	1078.05
657.76	1094.43
658.11	1100.05
658.45	1103.09
658.79	1098.88
659.13	1093.50
659.47	1097.95
659.82	1095.60
660.16	1091.39
660.50	1094.20
660.84	1095.37
661.18	1092.33
661.52	1090.92
661.87	1094.67
662.21	1090.22
662.55	1082.73
662.89	1087.65
663.23	1092.09
663.57	1092.56
663.91	1104.26
664.25	1119.48
664.60	1111.05
664.94	1110.58
665.28	1104.26
665.62	1093.73
665.96	1095.37
666.30	1092.80
666.64	1095.60
666.98	1108.71
667.32	1108.71
667.66	1102.86
668.01	1106.37
668.35	1100.75
668.69	1093.26
669.03	1090.92
669.37	1087.65
669.71	1084.37
670.05	1088.12
670.39	1084.60
670.73	1079.46
671.07	1076.18
671.41	1072.43
671.75	1060.03
672.09	1065.88
672.43	1071.50
672.77	1081.33
673.11	1086.24
673.45	1099.12
673.79	1101.69
674.13	1104.50
674.47	1093.03
674.81	1096.31
675.15	1097.71
675.49	1094.90
675.83	1087.41
676.17	1093.73
676.51	1093.50
676.85	1081.56
677.19	1079.69
677.53	1085.31
677.87	1087.41
678.21	1086.94
678.55	1083.20
678.89	1081.56
679.23	1078.52
679.57	1064.71
679.90	1063.77
680.24	1071.03
680.58	1071.26
680.92	1072.43
681.26	1082.50
681.60	1081.56
681.94	1085.77
682.28	1093.03
682.62	1097.95
682.96	1093.26
683.29	1094.90
683.63	1088.35
683.97	1087.41
684.31	1088.35
684.65	1088.35
684.99	1082.97
685.33	1091.86
685.67	1083.90
686.00	1085.31
686.34	1087.88
686.68	1093.50
687.02	1090.69
687.36	1090.46
687.70	1084.60
688.03	1083.43
688.37	1077.11
688.71	1068.22
689.05	1078.28
689.39	1080.86
689.72	1084.60
690.06	1089.52
690.40	1095.37
690.74	1087.41
691.08	1081.09
691.41	1087.65
691.75	1091.63
692.09	1085.54
692.43	1081.80
692.76	1096.54
693.10	1086.94
693.44	1083.67
693.78	1093.73
694.11	1090.46
694.45	1072.20
694.79	1074.77
695.13	1075.24
695.46	1073.60
695.80	1075.71
696.14	1081.33
696.48	1083.67
696.81	1078.99
697.15	1070.56
697.49	1065.88
697.82	1075.01
698.16	1066.35
698.50	1076.18
698.83	1079.46
699.17	1083.20
699.51	1076.41
699.84	1076.41
700.18	1067.99
700.52	1070.80
700.85	1077.11
701.19	1077.11
701.53	1082.26
701.86	1081.80
702.20	1083.67
702.54	1082.26
702.87	1077.35
703.21	1082.97
703.55	1079.69
703.88	1083.67
704.22	1082.26
704.55	1094.43
704.89	1086.94
705.23	1096.54
705.56	1095.84
705.90	1103.80
706.23	1104.97
706.57	1108.01
706.91	1100.75
707.24	1091.16
707.58	1082.26
707.91	1076.18
708.25	1073.60
708.58	1083.67
708.92	1087.41
709.26	1091.39
709.59	1081.80
709.93	1081.09
710.26	1080.86
710.60	1079.69
710.93	1077.11
711.27	1089.05
711.60	1089.05
711.94	1081.09
712.27	1078.75
712.61	1073.14
712.94	1073.60
713.28	1082.50
713.61	1082.73
713.95	1079.22
714.28	1077.58
714.62	1071.73
714.95	1057.92
715.29	1059.09
715.62	1075.01
715.96	1085.07
716.29	1086.94
716.63	1097.48
716.96	1103.09
717.29	1097.01
717.63	1085.07
717.96	1083.67
718.30	1073.37
718.63	1063.77
718.97	1070.09
719.30	1080.16
719.63	1082.97
719.97	1085.77
720.30	1088.35
720.64	1095.84
720.97	1098.18
721.30	1103.56
721.64	1107.54
721.97	1105.67
722.31	1081.80
722.64	1075.48
722.97	1065.18
723.31	1058.62
723.64	1069.16
723.97	1070.33
724.31	1077.11
724.64	1078.05
724.98	1087.88
725.31	1074.54
725.64	1078.28
725.98	1079.69
726.31	1072.43
726.64	1059.79
726.97	1068.92
727.31	1075.71
727.64	1066.82
727.97	1074.31
728.31	1085.77
728.64	1082.26
728.97	1077.58
729.31	1080.63
729.64	1092.09
729.97	1092.33
730.30	1090.46
730.64	1084.60
730.97	1087.18
731.30	1082.73
731.63	1070.33
731.97	1068.22
732.30	1067.28
732.63	1071.97
732.96	1056.75
733.30	1065.18
733.63	1073.37
733.96	1075.71
734.29	1071.26
734.63	1087.88
734.96	1081.56
735.29	1067.05
735.62	1073.84
735.95	1080.86
736.29	1075.94
736.62	1078.99
736.95	1084.84
737.28	1072.43
737.61	1066.35
737.94	1057.22
738.28	1054.18
738.61	1060.50
738.94	1069.39
739.27	1074.07
739.60	1079.92
739.93	1086.48
740.27	1082.97
740.60	1080.86
740.93	1069.62
741.26	1071.26
741.59	1078.05
741.92	1083.43
742.25	1087.41
742.58	1089.05
742.91	1083.67
743.25	1082.97
743.58	1082.26
743.91	1084.84
744.24	1077.82
744.57	1082.97
744.90	1067.99
745.23	1062.84
745.56	1051.37
745.89	1058.86
746.22	1061.90
746.55	1070.56
746.88	1074.54
747.21	1089.05
747.54	1091.39
747.87	1090.69
748.20	1097.48
748.53	1092.80
748.87	1085.77
749.20	1085.07
749.53	1082.26
749.86	1086.71
750.19	1084.84
750.52	1078.75
750.85	1090.22
751.18	1085.77
751.51	1074.77
751.84	1082.03
752.16	1086.48
752.49	1070.56
752.82	1079.46
753.15	1078.99
753.48	1077.11
753.81	1081.80
754.14	1081.80
754.47	1082.26
754.80	1074.54
755.13	1069.16
755.46	1070.09
755.79	1071.97
756.12	1076.18
756.45	1076.88
756.78	1075.24
757.11	1067.05
757.43	1071.26
757.76	1060.26
758.09	1067.28
758.42	1066.35
758.75	1068.92
759.08	1068.69
759.41	1061.90
759.74	1055.11
760.07	1058.16
760.39	1063.77
760.72	1052.77
761.05	1059.56
761.38	1066.58
761.71	1070.33
762.04	1071.03
762.36	1087.41
762.69	1082.73
763.02	1083.90
763.35	1092.80
763.68	1088.12
764.01	1081.09
764.33	1077.82
764.66	1074.31
