SpectraSuite Data File
++++++++++++++++++++++++++++++++++++
Date: Mon Aug 26 10:24:51 PDT 2019
User: corrico
Dark Spectrum Present: No
Reference Spectrum Present: No
Number of Sampled Component Spectra: 1
Spectrometers: USB2+H06089
Integration Time (usec): 10000 (USB2+H06089)
Spectra Averaged: 2 (USB2+H06089)
Boxcar Smoothing: 2 (USB2+H06089)
Correct for Electrical Dark: No (USB2+H06089)
Strobe/Lamp Enabled: No (USB2+H06089)
Correct for Detector Non-linearity: No (USB2+H06089)
Correct for Stray Light: No (USB2+H06089)
Number of Pixels in Processed Spectrum: 2048
>>>>>Begin Processed Spectral Data<<<<<
339.70	1035.69
340.07	1035.69
340.45	1016.03
340.82	993.32
341.19	967.58
341.57	933.17
341.94	926.15
342.31	899.00
342.69	884.72
343.06	878.17
343.43	877.00
343.81	871.38
344.18	882.62
344.55	894.08
344.93	908.13
345.30	924.04
345.67	918.89
346.04	926.38
346.42	931.53
346.79	927.55
347.16	937.85
347.54	960.32
347.91	969.22
348.28	997.30
348.65	1013.69
349.03	1021.18
349.40	1027.03
349.77	1034.28
350.14	1013.69
350.52	1030.54
350.89	1031.01
351.26	1031.01
351.63	1053.94
352.01	1070.80
352.38	1070.56
352.75	1077.58
353.12	1096.78
353.50	1079.22
353.87	1092.33
354.24	1089.75
354.61	1089.05
354.98	1070.09
355.36	1075.94
355.73	1072.20
356.10	1072.43
356.47	1081.80
356.84	1089.29
357.22	1097.01
357.59	1089.29
357.96	1093.97
358.33	1093.97
358.70	1088.35
359.08	1078.52
359.45	1091.16
359.82	1091.39
360.19	1091.86
360.56	1099.58
360.94	1104.26
361.31	1099.82
361.68	1083.90
362.05	1078.99
362.42	1078.28
362.79	1077.11
363.16	1070.33
363.54	1079.92
363.91	1079.69
364.28	1086.01
364.65	1097.24
365.02	1096.31
365.39	1109.18
365.76	1107.07
366.14	1100.05
366.51	1089.75
366.88	1096.78
367.25	1089.75
367.62	1094.67
367.99	1083.67
368.36	1084.37
368.73	1070.09
369.10	1066.35
369.48	1069.39
369.85	1080.63
370.22	1074.54
370.59	1086.01
370.96	1085.77
371.33	1082.26
371.70	1084.37
372.07	1096.54
372.44	1094.20
372.81	1103.33
373.18	1091.86
373.55	1088.35
373.93	1080.86
374.30	1087.65
374.67	1075.01
375.04	1081.09
375.41	1079.69
375.78	1080.86
376.15	1076.88
376.52	1078.99
376.89	1082.26
377.26	1097.48
377.63	1104.50
378.00	1106.37
378.37	1108.48
378.74	1104.26
379.11	1091.86
379.48	1087.88
379.85	1089.99
380.22	1090.92
380.59	1093.97
380.96	1094.20
381.33	1093.73
381.70	1086.48
382.07	1092.09
382.44	1104.03
382.81	1104.73
383.18	1106.84
383.55	1108.48
383.92	1104.26
384.29	1090.22
384.66	1094.20
385.03	1093.26
385.40	1102.86
385.77	1099.82
386.14	1108.24
386.51	1111.05
386.88	1105.20
387.25	1114.56
387.62	1115.03
387.99	1103.33
388.36	1096.31
388.73	1091.86
389.10	1082.97
389.46	1083.20
389.83	1078.05
390.20	1081.09
390.57	1084.84
390.94	1087.41
391.31	1085.77
391.68	1102.16
392.05	1100.75
392.42	1105.67
392.79	1098.18
393.16	1098.41
393.53	1105.44
393.89	1104.50
394.26	1117.61
394.63	1116.44
395.00	1126.03
395.37	1111.52
395.74	1112.46
396.11	1097.48
396.48	1110.35
396.84	1109.41
397.21	1117.37
397.58	1129.07
397.95	1137.27
398.32	1135.39
398.69	1134.22
399.06	1138.67
399.42	1134.22
399.79	1137.97
400.16	1130.24
400.53	1131.18
400.90	1128.84
401.27	1133.76
401.64	1132.82
402.00	1144.29
402.37	1147.33
402.74	1158.10
403.11	1160.44
403.48	1167.93
403.84	1168.40
404.21	1175.89
404.58	1187.59
404.95	1198.12
405.32	1198.59
405.68	1206.08
406.05	1218.25
406.42	1226.21
406.79	1253.36
407.16	1278.17
407.52	1309.30
407.89	1338.55
408.26	1362.43
408.63	1358.68
408.99	1377.41
409.36	1387.70
409.73	1398.00
410.10	1421.41
410.47	1456.52
410.83	1496.30
411.20	1529.07
411.57	1565.58
411.94	1601.86
412.30	1647.50
412.67	1675.12
413.04	1717.72
413.40	1777.40
413.77	1833.58
414.14	1896.07
414.51	1971.20
414.87	2049.37
415.24	2123.33
415.61	2201.74
415.97	2278.98
416.34	2353.41
416.71	2447.73
417.08	2550.95
417.44	2645.27
417.81	2766.51
418.18	2888.92
418.54	3026.55
418.91	3162.06
419.28	3315.84
419.64	3446.91
420.01	3612.85
420.38	3753.05
420.74	3894.18
421.11	4084.23
421.48	4309.16
421.84	4540.64
422.21	4762.52
422.58	5022.56
422.94	5263.86
423.31	5489.73
423.68	5742.74
424.04	6045.37
424.41	6316.64
424.77	6597.27
425.14	6916.05
425.51	7224.77
425.87	7569.76
426.24	7939.80
426.61	8359.93
426.97	8826.16
427.34	9266.88
427.70	9730.31
428.07	10197.25
428.44	10713.10
428.80	11179.57
429.17	11716.96
429.53	12248.73
429.90	12874.35
430.27	13388.33
430.63	13983.76
431.00	14638.65
431.36	15328.87
431.73	15945.60
432.09	16643.08
432.46	17314.11
432.83	17896.44
433.19	18474.78
433.56	19120.30
433.92	19761.14
434.29	20304.38
434.65	21013.33
435.02	21587.70
435.38	22254.98
435.75	22746.96
436.11	23405.83
436.48	23839.99
436.84	24359.36
437.21	24762.63
437.57	25191.19
437.94	25566.14
438.30	25986.97
438.67	26288.66
439.03	26456.01
439.40	26651.45
439.76	26635.53
440.13	26502.59
440.49	26454.14
440.86	26232.49
441.22	25980.18
441.59	25645.72
441.95	25307.74
442.32	24775.97
442.68	24390.25
443.05	23919.10
443.41	23455.44
443.78	22859.08
444.14	22305.77
444.51	21669.85
444.87	21188.40
445.24	20653.82
445.60	20233.70
445.96	19711.06
446.33	19274.55
446.69	18701.82
447.06	18190.64
447.42	17691.41
447.79	17230.32
448.15	16796.15
448.51	16283.11
448.88	15926.41
449.24	15467.43
449.61	15170.88
449.97	14787.74
450.33	14482.30
450.70	14059.60
451.06	13707.11
451.43	13273.18
451.79	12908.99
452.15	12570.32
452.52	12250.36
452.88	11965.75
453.24	11704.32
453.61	11431.88
453.97	11151.01
454.34	10863.60
454.70	10592.80
455.06	10325.27
455.43	10012.34
455.79	9661.73
456.15	9366.59
456.52	9053.43
456.88	8779.12
457.24	8529.38
457.61	8356.88
457.97	8128.68
458.33	7919.67
458.70	7667.59
459.06	7410.14
459.42	7149.87
459.79	6890.07
460.15	6659.99
460.51	6435.30
460.88	6240.57
461.24	6051.92
461.60	5901.89
461.96	5747.19
462.33	5589.20
462.69	5430.28
463.05	5298.74
463.42	5156.90
463.78	5001.72
464.14	4873.00
464.50	4759.25
464.87	4613.20
465.23	4513.72
465.59	4426.42
465.95	4315.95
466.32	4220.69
466.68	4148.83
467.04	4033.91
467.40	3932.80
467.77	3862.35
468.13	3783.01
468.49	3702.03
468.85	3658.49
469.22	3593.89
469.58	3527.89
469.94	3474.76
470.30	3414.37
470.66	3352.12
471.03	3280.26
471.39	3225.73
471.75	3150.36
472.11	3082.72
472.47	3031.46
472.84	2993.31
473.20	2939.48
473.56	2898.05
473.92	2842.11
474.28	2781.73
474.65	2737.26
475.01	2708.70
475.37	2657.91
475.73	2627.25
476.09	2591.21
476.45	2556.33
476.81	2502.97
477.18	2460.84
477.54	2428.07
477.90	2379.86
478.26	2337.26
478.62	2308.00
478.98	2279.92
479.34	2259.55
479.71	2247.85
480.07	2219.53
480.43	2178.57
480.79	2146.51
481.15	2105.31
481.51	2080.50
481.87	2065.76
482.23	2060.14
482.59	2044.69
482.96	2031.58
483.32	1996.24
483.68	1967.22
484.04	1948.03
484.40	1917.83
484.76	1891.39
485.12	1893.49
485.48	1877.58
485.84	1849.49
486.20	1844.34
486.56	1825.85
486.92	1797.77
487.28	1780.21
487.64	1752.13
488.00	1732.70
488.37	1718.89
488.73	1709.29
489.09	1685.65
489.45	1673.25
489.81	1659.21
490.17	1648.44
490.53	1628.08
490.89	1609.35
491.25	1609.35
491.61	1595.08
491.97	1570.27
492.33	1543.12
492.69	1541.01
493.05	1511.75
493.41	1497.71
493.77	1482.03
494.13	1486.47
494.49	1459.32
494.85	1459.09
495.21	1450.66
495.57	1449.03
495.93	1430.30
496.29	1427.49
496.64	1408.07
497.00	1385.83
497.36	1381.62
497.72	1379.04
498.08	1372.96
498.44	1374.83
498.80	1388.17
499.16	1366.87
499.52	1351.43
499.88	1345.34
500.24	1333.64
500.60	1322.64
500.96	1325.21
501.32	1321.70
501.68	1317.49
502.03	1303.44
502.39	1292.21
502.75	1279.57
503.11	1267.87
503.47	1260.38
503.83	1263.66
504.19	1247.74
504.55	1247.04
504.91	1246.34
505.26	1240.02
505.62	1233.46
505.98	1235.57
506.34	1238.14
506.70	1227.61
507.06	1222.23
507.42	1221.53
507.78	1223.16
508.13	1209.59
508.49	1209.12
508.85	1202.33
509.21	1194.61
509.57	1184.31
509.93	1187.35
510.28	1185.48
510.64	1185.95
511.00	1182.91
511.36	1181.97
511.72	1175.89
512.07	1182.20
512.43	1187.12
512.79	1180.57
513.15	1181.74
513.51	1181.03
513.86	1176.82
514.22	1169.10
514.58	1177.06
514.94	1170.27
515.30	1161.84
515.65	1149.44
516.01	1140.54
516.37	1129.78
516.73	1127.44
517.08	1131.65
517.44	1143.12
517.80	1146.39
518.16	1156.93
518.51	1152.71
518.87	1144.99
519.23	1134.69
519.59	1142.65
519.94	1132.59
520.30	1132.82
520.66	1130.95
521.01	1134.69
521.37	1130.24
521.73	1134.22
522.09	1135.63
522.44	1145.69
522.80	1133.76
523.16	1128.61
523.51	1126.03
523.87	1122.75
524.23	1114.10
524.58	1122.75
524.94	1115.97
525.30	1101.46
525.65	1098.88
526.01	1105.67
526.37	1104.50
526.72	1107.54
527.08	1115.73
527.44	1115.27
527.79	1112.46
528.15	1115.73
528.51	1116.90
528.86	1122.75
529.22	1132.35
529.58	1130.01
529.93	1126.97
530.29	1129.31
530.65	1131.18
531.00	1127.44
531.36	1130.01
531.71	1127.67
532.07	1127.20
532.43	1120.18
532.78	1113.86
533.14	1109.88
533.49	1113.63
533.85	1110.58
534.21	1109.88
534.56	1126.03
534.92	1132.35
535.27	1130.95
535.63	1137.50
535.98	1144.05
536.34	1136.56
536.69	1126.73
537.05	1128.61
537.41	1120.41
537.76	1106.61
538.12	1100.99
538.47	1103.56
538.83	1099.58
539.18	1103.56
539.54	1110.35
539.89	1111.99
540.25	1105.67
540.60	1103.56
540.96	1100.05
541.31	1099.12
541.67	1097.71
542.02	1108.01
542.38	1112.69
542.73	1117.14
543.09	1119.95
543.44	1124.39
543.80	1132.12
544.15	1134.93
544.51	1138.20
544.86	1133.05
545.22	1130.95
545.57	1119.48
545.93	1106.61
546.28	1097.95
546.64	1111.29
546.99	1107.54
547.35	1102.86
547.70	1113.16
548.05	1115.73
548.41	1099.58
548.76	1100.99
549.12	1102.39
549.47	1100.52
549.83	1094.90
550.18	1105.44
550.53	1103.33
550.89	1101.92
551.24	1099.82
551.60	1102.86
551.95	1099.35
552.30	1097.95
552.66	1100.52
553.01	1100.75
553.37	1102.16
553.72	1095.84
554.07	1101.92
554.43	1106.37
554.78	1096.78
555.13	1088.12
555.49	1090.46
555.84	1077.58
556.19	1076.65
556.55	1085.54
556.90	1090.46
557.26	1091.63
557.61	1100.99
557.96	1097.24
558.32	1103.09
558.67	1111.75
559.02	1110.35
559.37	1108.48
559.73	1114.56
560.08	1116.90
560.43	1106.84
560.79	1111.99
561.14	1105.67
561.49	1107.31
561.85	1098.41
562.20	1099.82
562.55	1096.07
562.90	1108.24
563.26	1105.67
563.61	1105.44
563.96	1112.92
564.32	1115.73
564.67	1107.78
565.02	1100.05
565.37	1098.18
565.73	1096.31
566.08	1091.63
566.43	1088.82
566.78	1086.48
567.14	1099.12
567.49	1095.84
567.84	1093.73
568.19	1111.52
568.54	1101.92
568.90	1092.33
569.25	1093.26
569.60	1097.95
569.95	1083.20
570.31	1095.84
570.66	1095.14
571.01	1086.94
571.36	1082.26
571.71	1081.80
572.06	1090.69
572.42	1096.54
572.77	1105.67
573.12	1105.20
573.47	1110.35
573.82	1102.63
574.18	1093.50
574.53	1083.43
574.88	1086.94
575.23	1086.48
575.58	1095.84
575.93	1102.16
576.28	1116.67
576.64	1114.56
576.99	1110.12
577.34	1098.65
577.69	1096.31
578.04	1087.41
578.39	1089.05
578.74	1083.43
579.09	1080.16
579.44	1078.52
579.80	1085.31
580.15	1092.09
580.50	1099.82
580.85	1113.39
581.20	1119.48
581.55	1119.01
581.90	1114.56
582.25	1122.75
582.60	1123.69
582.95	1115.27
583.30	1113.16
583.65	1105.20
584.00	1086.24
584.35	1072.67
584.71	1080.63
585.06	1081.80
585.41	1088.12
585.76	1094.43
586.11	1112.69
586.46	1109.65
586.81	1095.37
587.16	1099.12
587.51	1100.99
587.86	1088.12
588.21	1087.18
588.56	1095.14
588.91	1091.63
589.26	1094.20
589.61	1090.46
589.96	1083.67
590.31	1082.03
590.66	1083.67
591.01	1085.54
591.36	1088.12
591.71	1094.20
592.06	1101.22
592.41	1095.14
592.76	1093.50
593.10	1097.01
593.45	1097.01
593.80	1097.71
594.15	1100.52
594.50	1096.78
594.85	1092.80
595.20	1095.84
595.55	1093.97
595.90	1092.33
596.25	1093.26
596.60	1094.67
596.95	1097.95
597.30	1100.99
597.64	1146.39
597.99	1153.88
598.34	1159.50
598.69	1151.54
599.04	1143.82
599.39	1098.88
599.74	1092.33
600.09	1085.77
600.44	1081.80
600.78	1085.77
601.13	1081.56
601.48	1084.84
601.83	1077.82
602.18	1080.63
602.53	1078.52
602.88	1081.09
603.22	1074.54
603.57	1078.05
603.92	1077.11
604.27	1079.92
604.62	1085.54
604.97	1088.35
605.31	1087.18
605.66	1091.86
606.01	1097.01
606.36	1089.99
606.71	1087.41
607.05	1096.54
607.40	1096.07
607.75	1086.48
608.10	1092.33
608.44	1098.88
608.79	1096.54
609.14	1093.50
609.49	1101.22
609.84	1099.82
610.18	1094.20
610.53	1100.05
610.88	1098.41
611.23	1087.18
611.57	1089.75
611.92	1089.52
612.27	1075.01
612.62	1075.94
612.96	1080.86
613.31	1081.80
613.66	1072.90
614.00	1080.39
614.35	1087.18
614.70	1086.71
615.05	1077.35
615.39	1092.80
615.74	1093.73
616.09	1094.20
616.43	1098.65
616.78	1104.97
617.13	1106.37
617.47	1107.07
617.82	1101.22
618.17	1097.01
618.51	1096.07
618.86	1083.43
619.21	1078.05
619.55	1083.20
619.90	1074.07
620.25	1072.43
620.59	1077.11
620.94	1079.92
621.29	1083.43
621.63	1085.31
621.98	1078.52
622.32	1079.92
622.67	1082.03
623.02	1083.43
623.36	1084.14
623.71	1093.50
624.05	1095.37
624.40	1099.35
624.75	1097.01
625.09	1103.33
625.44	1112.92
625.78	1118.07
626.13	1108.01
626.48	1102.86
626.82	1106.61
627.17	1095.60
627.51	1087.18
627.86	1096.07
628.20	1100.05
628.55	1087.88
628.89	1077.11
629.24	1075.71
629.58	1070.56
629.93	1063.77
630.28	1061.90
630.62	1075.24
630.97	1079.46
631.31	1077.11
631.66	1078.28
632.00	1090.46
632.35	1084.60
632.69	1090.22
633.04	1096.31
633.38	1103.56
633.73	1100.05
634.07	1101.69
634.42	1101.22
634.76	1106.37
635.11	1093.03
635.45	1087.88
635.79	1087.41
636.14	1089.52
636.48	1087.18
636.83	1094.20
637.17	1101.92
637.52	1105.20
637.86	1097.95
638.21	1087.65
638.55	1080.39
638.89	1087.65
639.24	1081.33
639.58	1083.67
639.93	1079.69
640.27	1085.54
640.61	1071.50
640.96	1077.11
641.30	1073.60
641.65	1079.92
641.99	1082.50
642.33	1098.65
642.68	1089.05
643.02	1083.20
643.37	1085.31
643.71	1081.80
644.05	1067.75
644.40	1070.56
644.74	1074.07
645.08	1077.11
645.43	1084.60
645.77	1086.01
646.11	1092.33
646.46	1098.18
646.80	1103.33
647.14	1093.73
647.49	1088.58
647.83	1089.05
648.17	1089.29
648.52	1084.60
648.86	1094.90
649.20	1095.37
649.55	1096.78
649.89	1097.48
650.23	1082.73
650.57	1076.18
650.92	1081.80
651.26	1076.88
651.60	1075.94
651.95	1086.94
652.29	1079.69
652.63	1081.56
652.97	1085.31
653.32	1077.58
653.66	1070.56
654.00	1068.69
654.34	1072.43
654.69	1069.62
655.03	1083.90
655.37	1082.97
655.71	1088.82
656.05	1086.48
656.40	1080.86
656.74	1072.43
657.08	1070.33
657.42	1070.80
657.76	1074.31
658.11	1083.43
658.45	1084.60
658.79	1094.20
659.13	1096.78
659.47	1091.39
659.82	1097.71
660.16	1098.41
660.50	1093.26
660.84	1093.73
661.18	1096.31
661.52	1095.14
661.87	1093.03
662.21	1095.37
662.55	1092.56
662.89	1091.39
663.23	1078.75
663.57	1079.22
663.91	1078.52
664.25	1081.80
664.60	1080.16
664.94	1087.88
665.28	1090.22
665.62	1099.35
665.96	1098.41
666.30	1102.16
666.64	1098.65
666.98	1097.24
667.32	1086.24
667.66	1085.54
668.01	1084.37
668.35	1080.63
668.69	1067.28
669.03	1060.26
669.37	1056.75
669.71	1057.22
670.05	1062.14
670.39	1078.75
670.73	1092.33
671.07	1099.12
671.41	1104.26
671.75	1104.73
672.09	1096.07
672.43	1089.75
672.77	1082.73
673.11	1069.39
673.45	1069.16
673.79	1070.80
674.13	1074.31
674.47	1088.12
674.81	1090.22
675.15	1081.33
675.49	1079.22
675.83	1077.82
676.17	1076.88
676.51	1075.94
676.85	1086.94
677.19	1094.67
677.53	1095.60
677.87	1082.73
678.21	1088.12
678.55	1087.18
678.89	1086.94
679.23	1089.99
679.57	1083.20
679.90	1075.48
680.24	1083.67
680.58	1078.75
680.92	1084.60
681.26	1086.71
681.60	1088.35
681.94	1079.46
682.28	1080.63
682.62	1080.39
682.96	1081.33
683.29	1093.03
683.63	1095.14
683.97	1096.07
684.31	1093.26
684.65	1100.29
684.99	1093.03
685.33	1089.75
685.67	1097.95
686.00	1099.58
686.34	1102.86
686.68	1098.88
687.02	1100.75
687.36	1088.82
687.70	1081.56
688.03	1077.11
688.37	1082.50
688.71	1082.26
689.05	1088.35
689.39	1096.78
689.72	1094.90
690.06	1097.24
690.40	1097.95
690.74	1093.97
691.08	1087.65
691.41	1096.54
691.75	1099.12
692.09	1100.99
692.43	1103.80
692.76	1104.50
693.10	1100.05
693.44	1092.09
693.78	1091.86
694.11	1090.22
694.45	1082.03
694.79	1075.48
695.13	1076.65
695.46	1079.46
695.80	1075.94
696.14	1080.39
696.48	1100.05
696.81	1099.82
697.15	1092.80
697.49	1101.69
697.82	1107.54
698.16	1091.39
698.50	1092.80
698.83	1096.31
699.17	1082.73
699.51	1072.67
699.84	1070.09
700.18	1069.39
700.52	1061.90
700.85	1063.31
701.19	1070.56
701.53	1074.31
701.86	1083.67
702.20	1086.24
702.54	1092.33
702.87	1093.97
703.21	1097.24
703.55	1083.67
703.88	1089.29
704.22	1089.29
704.55	1083.43
704.89	1082.97
705.23	1092.56
705.56	1089.75
705.90	1092.33
706.23	1093.97
706.57	1102.63
706.91	1111.05
707.24	1114.10
707.58	1112.22
707.91	1107.54
708.25	1087.65
708.58	1067.28
708.92	1065.18
709.26	1073.37
709.59	1075.24
709.93	1093.73
710.26	1102.63
710.60	1098.88
710.93	1089.75
711.27	1091.63
711.60	1081.33
711.94	1073.37
712.27	1075.48
712.61	1082.73
712.94	1093.03
713.28	1099.35
713.61	1096.78
713.95	1100.05
714.28	1092.33
714.62	1081.09
714.95	1073.14
715.29	1075.71
715.62	1075.94
715.96	1069.16
716.29	1070.33
716.63	1081.33
716.96	1079.69
717.29	1080.86
717.63	1089.29
717.96	1086.94
718.30	1080.16
718.63	1084.14
718.97	1082.03
719.30	1071.03
719.63	1074.07
719.97	1073.60
720.30	1073.37
720.64	1065.18
720.97	1087.88
721.30	1089.75
721.64	1089.05
721.97	1088.12
722.31	1104.50
722.64	1087.65
722.97	1087.65
723.31	1083.43
723.64	1088.58
723.97	1064.71
724.31	1067.99
724.64	1065.41
724.98	1073.14
725.31	1066.58
725.64	1082.03
725.98	1082.50
726.31	1090.69
726.64	1075.24
726.97	1081.80
727.31	1071.03
727.64	1069.86
727.97	1069.86
728.31	1079.46
728.64	1076.41
728.97	1087.18
729.31	1093.50
729.64	1097.71
729.97	1095.60
730.30	1100.29
730.64	1100.05
730.97	1097.95
731.30	1090.92
731.63	1093.03
731.97	1087.41
732.30	1089.52
732.63	1085.07
732.96	1087.41
733.30	1095.37
733.63	1097.71
733.96	1089.05
734.29	1084.60
734.63	1079.69
734.96	1077.35
735.29	1071.73
735.62	1076.88
735.95	1083.43
736.29	1077.58
736.62	1067.28
736.95	1078.05
737.28	1073.60
737.61	1074.77
737.94	1077.35
738.28	1073.37
738.61	1071.26
738.94	1067.28
739.27	1068.92
739.60	1066.11
739.93	1080.16
740.27	1077.11
740.60	1084.60
740.93	1087.88
741.26	1096.54
741.59	1097.95
741.92	1098.65
742.25	1103.56
742.58	1096.31
742.91	1089.29
743.25	1086.24
743.58	1082.97
743.91	1081.80
744.24	1091.63
744.57	1096.07
744.90	1089.52
745.23	1091.63
745.56	1093.26
745.89	1084.60
746.22	1087.18
746.55	1085.77
746.88	1088.82
747.21	1081.80
747.54	1082.26
747.87	1084.84
748.20	1087.88
748.53	1089.52
748.87	1097.71
749.20	1093.97
749.53	1091.86
749.86	1089.75
750.19	1078.99
750.52	1068.22
750.85	1065.65
751.18	1063.77
751.51	1072.43
751.84	1089.99
752.16	1085.77
752.49	1090.92
752.82	1084.14
753.15	1077.82
753.48	1060.03
753.81	1067.75
754.14	1068.92
754.47	1071.26
754.80	1067.52
755.13	1065.88
755.46	1066.11
755.79	1068.69
756.12	1079.69
756.45	1087.88
756.78	1093.97
757.11	1098.18
757.43	1094.20
757.76	1084.84
758.09	1093.03
758.42	1098.88
758.75	1095.14
759.08	1087.88
759.41	1091.63
759.74	1083.43
760.07	1074.07
760.39	1068.45
760.72	1078.99
761.05	1081.09
761.38	1083.90
761.71	1093.50
762.04	1096.31
762.36	1088.12
762.69	1094.43
763.02	1092.56
763.35	1089.29
763.68	1096.78
764.01	1100.99
764.33	1080.86
764.66	1072.20
