SpectraSuite Data File
++++++++++++++++++++++++++++++++++++
Date: Mon Aug 26 10:22:26 PDT 2019
User: corrico
Dark Spectrum Present: No
Reference Spectrum Present: No
Number of Sampled Component Spectra: 1
Spectrometers: USB2+H06089
Integration Time (usec): 2000 (USB2+H06089)
Spectra Averaged: 20 (USB2+H06089)
Boxcar Smoothing: 2 (USB2+H06089)
Correct for Electrical Dark: No (USB2+H06089)
Strobe/Lamp Enabled: No (USB2+H06089)
Correct for Detector Non-linearity: No (USB2+H06089)
Correct for Stray Light: No (USB2+H06089)
Number of Pixels in Processed Spectrum: 2048
>>>>>Begin Processed Spectral Data<<<<<
339.70	1024.69
340.07	1024.69
340.45	991.40
340.82	970.85
341.19	949.60
341.57	925.56
341.94	911.69
342.31	904.76
342.69	899.94
343.06	894.88
343.43	895.61
343.81	900.68
344.18	902.44
344.55	907.80
344.93	911.64
345.30	916.86
345.67	925.99
346.04	935.28
346.42	940.10
346.79	948.06
347.16	957.65
347.54	961.23
347.91	971.60
348.28	984.10
348.65	995.99
349.03	1002.71
349.40	1011.95
349.77	1020.19
350.14	1024.87
350.52	1033.63
350.89	1041.16
351.26	1047.62
351.63	1052.02
352.01	1059.42
352.38	1059.70
352.75	1063.59
353.12	1067.87
353.50	1071.01
353.87	1070.21
354.24	1073.79
354.61	1075.64
354.98	1076.37
355.36	1080.65
355.73	1084.39
356.10	1089.54
356.47	1091.46
356.84	1091.93
357.22	1088.12
357.59	1084.51
357.96	1081.75
358.33	1078.85
358.70	1077.00
359.08	1077.61
359.45	1079.95
359.82	1077.14
360.19	1081.00
360.56	1085.03
360.94	1088.63
361.31	1089.22
361.68	1089.85
362.05	1086.03
362.42	1083.36
362.79	1081.05
363.16	1081.61
363.54	1078.31
363.91	1076.32
364.28	1077.58
364.65	1075.01
365.02	1075.34
365.39	1078.78
365.76	1077.65
366.14	1075.13
366.51	1075.94
366.88	1073.49
367.25	1073.51
367.62	1075.34
367.99	1075.76
368.36	1075.24
368.73	1074.45
369.10	1075.13
369.48	1075.15
369.85	1074.00
370.22	1071.82
370.59	1072.01
370.96	1071.22
371.33	1073.09
371.70	1076.48
372.07	1077.93
372.44	1077.77
372.81	1078.47
373.18	1075.48
373.55	1074.47
373.93	1074.03
374.30	1077.49
374.67	1079.71
375.04	1081.94
375.41	1079.17
375.78	1080.53
376.15	1079.17
376.52	1075.55
376.89	1075.59
377.26	1076.11
377.63	1075.69
378.00	1075.80
378.37	1079.10
378.74	1079.22
379.11	1079.81
379.48	1081.26
379.85	1079.43
380.22	1077.79
380.59	1078.75
380.96	1080.67
381.33	1079.88
381.70	1079.74
382.07	1079.95
382.44	1080.04
382.81	1079.62
383.18	1082.10
383.55	1080.46
383.92	1080.06
384.29	1081.19
384.66	1084.25
385.03	1082.57
385.40	1088.54
385.77	1087.20
386.14	1085.52
386.51	1081.28
386.88	1080.79
387.25	1079.97
387.62	1080.44
387.99	1082.33
388.36	1085.80
388.73	1085.00
389.10	1082.99
389.46	1083.86
389.83	1082.03
390.20	1080.06
390.57	1079.53
390.94	1083.08
391.31	1082.03
391.68	1080.98
392.05	1084.02
392.42	1083.15
392.79	1079.55
393.16	1080.27
393.53	1080.63
393.89	1077.49
394.26	1080.48
394.63	1082.78
395.00	1085.59
395.37	1085.47
395.74	1085.80
396.11	1087.06
396.48	1085.75
396.84	1088.70
397.21	1090.81
397.58	1088.09
397.95	1087.25
398.32	1088.16
398.69	1083.69
399.06	1083.86
399.42	1086.36
399.79	1088.26
400.16	1088.56
400.53	1088.58
400.90	1090.69
401.27	1091.74
401.64	1090.90
402.00	1091.63
402.37	1090.10
402.74	1086.15
403.11	1086.34
403.48	1085.56
403.84	1084.39
404.21	1087.06
404.58	1088.84
404.95	1089.26
405.32	1090.50
405.68	1089.89
406.05	1087.79
406.42	1087.41
406.79	1087.65
407.16	1086.64
407.52	1088.79
407.89	1093.94
408.26	1094.74
408.63	1095.60
408.99	1097.15
409.36	1096.68
409.73	1092.75
410.10	1093.87
410.47	1094.39
410.83	1094.08
411.20	1092.42
411.57	1094.13
411.94	1095.09
412.30	1094.41
412.67	1095.63
413.04	1096.73
413.40	1097.66
413.77	1100.17
414.14	1099.98
414.51	1101.74
414.87	1103.45
415.24	1103.59
415.61	1101.60
415.97	1104.03
416.34	1100.82
416.71	1100.66
417.08	1101.03
417.44	1100.36
417.81	1099.56
418.18	1101.50
418.54	1102.18
418.91	1103.28
419.28	1105.20
419.64	1108.71
420.01	1107.28
420.38	1108.43
420.74	1112.85
421.11	1115.55
421.48	1117.63
421.84	1122.15
422.21	1124.81
422.58	1126.01
422.94	1125.47
423.31	1127.58
423.68	1131.18
424.04	1137.99
424.41	1140.57
424.77	1147.73
425.14	1148.69
425.51	1153.39
425.87	1154.84
426.24	1158.28
426.61	1160.74
426.97	1167.95
427.34	1171.04
427.70	1172.58
428.07	1180.24
428.44	1185.57
428.80	1191.31
429.17	1200.84
429.53	1213.22
429.90	1221.27
430.27	1235.05
430.63	1245.59
431.00	1255.09
431.36	1262.79
431.73	1276.48
432.09	1285.42
432.46	1302.09
432.83	1317.77
433.19	1337.34
433.56	1354.68
433.92	1375.30
434.29	1393.65
434.65	1418.06
435.02	1443.31
435.38	1472.50
435.75	1501.95
436.11	1529.98
436.48	1559.03
436.84	1594.09
437.21	1628.92
437.57	1663.09
437.94	1704.28
438.30	1753.32
438.67	1799.12
439.03	1847.01
439.40	1904.38
439.76	1957.93
440.13	2016.00
440.49	2079.80
440.86	2142.15
441.22	2211.03
441.59	2287.10
441.95	2369.32
442.32	2453.63
442.68	2550.22
443.05	2648.18
443.41	2751.70
443.78	2849.63
444.14	2954.18
444.51	3068.04
444.87	3207.68
445.24	3352.98
445.60	3510.83
445.96	3668.49
446.33	3839.06
446.69	3994.12
447.06	4168.52
447.42	4346.75
447.79	4539.23
448.15	4766.43
448.51	5003.01
448.88	5267.47
449.24	5505.34
449.61	5794.86
449.97	6054.57
450.33	6338.19
450.70	6590.43
451.06	6924.15
451.43	7223.99
451.79	7588.86
452.15	7996.58
452.52	8445.52
452.88	8912.64
453.24	9431.77
453.61	10007.80
453.97	10556.92
454.34	11111.79
454.70	11747.57
455.06	12400.32
455.43	13029.72
455.79	13642.70
456.15	14354.13
456.52	15026.33
456.88	15792.55
457.24	16539.28
457.61	17377.07
457.97	18151.44
458.33	18928.66
458.70	19720.30
459.06	20475.22
459.42	21317.27
459.79	22098.80
460.15	23001.52
460.51	23858.11
460.88	24796.45
461.24	25592.75
461.60	26560.98
461.96	27443.32
462.33	28273.02
462.69	29033.01
463.05	29908.02
463.42	30612.17
463.78	31257.64
464.14	31792.48
464.50	32375.16
464.87	32835.14
465.23	33192.26
465.59	33542.76
465.95	33876.26
466.32	34155.58
466.68	34369.34
467.04	34522.41
467.40	34656.13
467.77	34788.83
468.13	34766.08
468.49	34687.72
468.85	34606.11
469.22	34426.40
469.58	34082.81
469.94	33841.17
470.30	33531.22
470.66	33121.11
471.03	32535.60
471.39	32150.51
471.75	31513.32
472.11	30903.01
472.47	30531.24
472.84	30230.59
473.20	29749.99
473.56	29473.92
473.92	29042.00
474.28	28534.31
474.65	28025.86
475.01	27539.21
475.37	26977.34
475.73	26532.90
476.09	25985.66
476.45	25474.48
476.81	24965.37
477.18	24435.10
477.54	23982.49
477.90	23645.96
478.26	23225.09
478.62	22895.05
478.98	22605.90
479.34	22291.75
479.71	21883.47
480.07	21531.50
480.43	21150.04
480.79	20761.93
481.15	20394.33
481.51	20067.00
481.87	19817.69
482.23	19535.07
482.59	19277.85
482.96	18993.07
483.32	18697.07
483.68	18319.84
484.04	17983.01
484.40	17615.95
484.76	17244.41
485.12	16872.76
485.48	16555.69
485.84	16203.13
486.20	15834.61
486.56	15470.24
486.92	15166.67
487.28	14802.93
487.64	14447.92
488.00	14121.69
488.37	13797.79
488.73	13432.92
489.09	13088.09
489.45	12771.32
489.81	12448.05
490.17	12146.28
490.53	11861.25
490.89	11560.54
491.25	11256.88
491.61	10954.18
491.97	10639.26
492.33	10304.14
492.69	10019.97
493.05	9718.14
493.41	9433.69
493.77	9156.69
494.13	8908.80
494.49	8646.03
494.85	8407.04
495.21	8180.99
495.57	7964.21
495.93	7751.64
496.29	7551.25
496.64	7369.93
497.00	7171.28
497.36	6970.37
497.72	6778.17
498.08	6598.27
498.44	6409.79
498.80	6238.44
499.16	6086.91
499.52	5937.78
499.88	5808.51
500.24	5695.09
500.60	5583.65
500.96	5471.24
501.32	5359.71
501.68	5223.98
502.03	5088.65
502.39	4958.78
502.75	4822.02
503.11	4691.46
503.47	4578.18
503.83	4461.51
504.19	4340.20
504.55	4238.69
504.91	4144.78
505.26	4047.07
505.62	3959.32
505.98	3872.72
506.34	3773.51
506.70	3681.15
507.06	3594.81
507.42	3506.08
507.78	3433.24
508.13	3363.12
508.49	3291.66
508.85	3226.43
509.21	3158.55
509.57	3087.59
509.93	3017.72
510.28	2948.35
510.64	2880.50
511.00	2813.39
511.36	2751.21
511.72	2699.64
512.07	2651.36
512.43	2603.21
512.79	2560.19
513.15	2515.14
513.51	2469.59
513.86	2422.27
514.22	2380.11
514.58	2337.12
514.94	2298.69
515.30	2260.21
515.65	2225.71
516.01	2192.61
516.37	2161.23
516.73	2135.65
517.08	2107.63
517.44	2078.21
517.80	2050.99
518.16	2027.63
518.51	1999.26
518.87	1970.52
519.23	1940.87
519.59	1910.20
519.94	1879.36
520.30	1854.10
520.66	1829.74
521.01	1808.16
521.37	1784.64
521.73	1763.13
522.09	1741.48
522.44	1721.86
522.80	1703.93
523.16	1685.79
523.51	1665.20
523.87	1647.81
524.23	1629.34
524.58	1611.08
524.94	1597.13
525.30	1581.73
525.65	1560.48
526.01	1542.65
526.37	1525.89
526.72	1512.15
527.08	1497.01
527.44	1485.75
527.79	1476.95
528.15	1466.44
528.51	1451.09
528.86	1445.14
529.22	1432.50
529.58	1422.02
529.93	1412.14
530.29	1403.39
530.65	1390.09
531.00	1384.05
531.36	1373.43
531.71	1363.22
532.07	1348.62
532.43	1341.29
532.78	1330.88
533.14	1323.62
533.49	1316.53
533.85	1315.52
534.21	1307.59
534.56	1305.04
534.92	1298.44
535.27	1293.08
535.63	1286.34
535.98	1282.22
536.34	1273.63
536.69	1267.96
537.05	1261.53
537.41	1258.18
537.76	1254.06
538.12	1249.03
538.47	1243.20
538.83	1238.71
539.18	1233.16
539.54	1226.79
539.89	1224.19
540.25	1223.54
540.60	1219.40
540.96	1215.07
541.31	1212.21
541.67	1208.91
542.02	1204.04
542.38	1204.04
542.73	1202.80
543.09	1197.46
543.44	1190.54
543.80	1187.61
544.15	1181.97
544.51	1177.80
544.86	1178.55
545.22	1181.36
545.57	1179.07
545.93	1175.70
546.28	1173.43
546.64	1168.82
546.99	1163.46
547.35	1158.82
547.70	1156.34
548.05	1157.84
548.41	1156.48
548.76	1155.52
549.12	1155.15
549.47	1154.56
549.83	1149.88
550.18	1149.11
550.53	1146.51
550.89	1146.91
551.24	1147.63
551.60	1147.71
551.95	1144.57
552.30	1143.14
552.66	1143.91
553.01	1138.41
553.37	1129.64
553.72	1133.03
554.07	1132.96
554.43	1129.10
554.78	1129.54
555.13	1131.98
555.49	1125.45
555.84	1125.28
556.19	1123.08
556.55	1122.12
556.90	1121.35
557.26	1122.45
557.61	1120.41
557.96	1120.06
558.32	1120.51
558.67	1122.68
559.02	1121.16
559.37	1120.34
559.73	1120.06
560.08	1120.95
560.43	1119.43
560.79	1116.93
561.14	1114.09
561.49	1113.02
561.85	1112.76
562.20	1112.04
562.55	1110.30
562.90	1108.66
563.26	1103.61
563.61	1098.58
563.96	1094.18
564.32	1095.86
564.67	1099.14
565.02	1102.91
565.37	1105.83
565.73	1106.98
566.08	1107.35
566.43	1104.24
566.78	1106.35
567.14	1104.41
567.49	1104.69
567.84	1103.38
568.19	1104.71
568.54	1100.92
568.90	1099.49
569.25	1101.15
569.60	1098.88
569.95	1097.31
570.31	1096.21
570.66	1095.04
571.01	1095.46
571.36	1098.06
571.71	1099.28
572.06	1098.46
572.42	1100.75
572.77	1100.03
573.12	1100.78
573.47	1100.78
573.82	1100.17
574.18	1099.58
574.53	1096.12
574.88	1096.21
575.23	1095.04
575.58	1098.69
575.93	1099.28
576.28	1100.12
576.64	1097.55
576.99	1096.82
577.34	1096.68
577.69	1097.50
578.04	1094.95
578.39	1094.55
578.74	1094.57
579.09	1091.34
579.44	1087.51
579.80	1088.77
580.15	1088.93
580.50	1087.79
580.85	1091.42
581.20	1092.35
581.55	1092.02
581.90	1091.84
582.25	1093.66
582.60	1090.71
582.95	1090.90
583.30	1089.85
583.65	1089.33
584.00	1085.17
584.35	1085.54
584.71	1087.16
585.06	1088.56
585.41	1088.30
585.76	1090.97
586.11	1091.86
586.46	1088.23
586.81	1089.03
587.16	1089.78
587.51	1087.93
587.86	1086.76
588.21	1087.37
588.56	1086.01
588.91	1086.80
589.26	1089.22
589.61	1090.50
589.96	1089.10
590.31	1090.29
590.66	1089.14
591.01	1089.94
591.36	1088.26
591.71	1089.99
592.06	1088.54
592.41	1088.37
592.76	1083.71
593.10	1083.81
593.45	1084.25
593.80	1083.34
594.15	1083.60
594.50	1088.89
594.85	1092.12
595.20	1091.34
595.55	1092.84
595.90	1091.20
596.25	1087.51
596.60	1082.10
596.95	1083.34
597.30	1083.32
597.64	1096.10
597.99	1096.92
598.34	1096.14
598.69	1097.88
599.04	1102.25
599.39	1090.41
599.74	1092.21
600.09	1089.73
600.44	1086.06
600.78	1081.77
601.13	1082.99
601.48	1080.72
601.83	1086.01
602.18	1088.30
602.53	1086.13
602.88	1085.63
603.22	1086.43
603.57	1087.25
603.92	1087.74
604.27	1088.37
604.62	1087.83
604.97	1087.09
605.31	1087.62
605.66	1086.71
606.01	1086.20
606.36	1086.80
606.71	1086.92
607.05	1082.90
607.40	1081.63
607.75	1082.92
608.10	1082.69
608.44	1084.11
608.79	1085.84
609.14	1084.35
609.49	1084.60
609.84	1081.77
610.18	1083.06
610.53	1082.38
610.88	1082.66
611.23	1084.86
611.57	1089.82
611.92	1088.40
612.27	1089.57
612.62	1093.57
612.96	1095.25
613.31	1090.39
613.66	1089.12
614.00	1090.71
614.35	1087.20
614.70	1082.54
615.05	1086.90
615.39	1088.33
615.74	1084.58
616.09	1084.14
616.43	1083.25
616.78	1081.28
617.13	1078.85
617.47	1081.23
617.82	1081.54
618.17	1082.59
618.51	1083.36
618.86	1085.00
619.21	1084.74
619.55	1086.73
619.90	1089.45
620.25	1088.65
620.59	1088.07
620.94	1085.82
621.29	1081.89
621.63	1080.63
621.98	1080.32
622.32	1080.84
622.67	1083.83
623.02	1086.92
623.36	1084.67
623.71	1081.56
624.05	1082.12
624.40	1080.74
624.75	1080.60
625.09	1080.74
625.44	1082.12
625.78	1079.57
626.13	1078.59
626.48	1078.14
626.82	1077.84
627.17	1080.84
627.51	1081.89
627.86	1085.49
628.20	1085.26
628.55	1085.26
628.89	1083.36
629.24	1084.18
629.58	1081.54
629.93	1082.52
630.28	1082.54
630.62	1082.54
630.97	1082.64
631.31	1080.86
631.66	1078.47
632.00	1080.98
632.35	1081.26
632.69	1081.23
633.04	1082.29
633.38	1083.90
633.73	1081.77
634.07	1083.27
634.42	1084.39
634.76	1086.06
635.11	1086.01
635.45	1087.95
635.79	1086.66
636.14	1088.14
636.48	1086.29
636.83	1086.59
637.17	1086.15
637.52	1086.87
637.86	1084.65
638.21	1084.72
638.55	1085.21
638.89	1085.68
639.24	1086.01
639.58	1086.27
639.93	1088.65
640.27	1085.96
640.61	1085.24
640.96	1084.44
641.30	1082.94
641.65	1080.16
641.99	1078.68
642.33	1077.96
642.68	1076.32
643.02	1077.02
643.37	1077.89
643.71	1078.64
644.05	1078.61
644.40	1080.25
644.74	1078.03
645.08	1081.07
645.43	1082.99
645.77	1082.90
646.11	1082.19
646.46	1083.95
646.80	1080.63
647.14	1081.33
647.49	1081.47
647.83	1080.72
648.17	1080.79
648.52	1079.50
648.86	1079.83
649.20	1078.87
649.55	1077.14
649.89	1075.85
650.23	1079.10
650.57	1080.60
650.92	1080.20
651.26	1083.32
651.60	1081.42
651.95	1081.63
652.29	1079.24
652.63	1080.23
652.97	1081.68
653.32	1085.66
653.66	1084.60
654.00	1085.59
654.34	1088.35
654.69	1087.30
655.03	1085.07
655.37	1083.08
655.71	1079.46
656.05	1077.49
656.40	1077.02
656.74	1079.31
657.08	1083.08
657.42	1085.59
657.76	1085.91
658.11	1085.82
658.45	1084.39
658.79	1084.18
659.13	1086.08
659.47	1084.53
659.82	1085.96
660.16	1087.86
660.50	1085.70
660.84	1086.78
661.18	1087.13
661.52	1084.37
661.87	1081.40
662.21	1079.90
662.55	1077.47
662.89	1077.82
663.23	1077.33
663.57	1078.68
663.91	1081.37
664.25	1082.12
664.60	1083.25
664.94	1085.12
665.28	1084.60
665.62	1084.28
665.96	1080.72
666.30	1079.20
666.64	1077.84
666.98	1080.13
667.32	1080.13
667.66	1081.07
668.01	1080.39
668.35	1080.41
668.69	1077.82
669.03	1076.86
669.37	1077.61
669.71	1074.89
670.05	1073.86
670.39	1076.62
670.73	1076.32
671.07	1077.42
671.41	1080.13
671.75	1081.30
672.09	1082.43
672.43	1081.91
672.77	1083.39
673.11	1087.37
673.45	1088.33
673.79	1085.77
674.13	1083.86
674.47	1083.04
674.81	1079.17
675.15	1083.11
675.49	1082.80
675.83	1084.39
676.17	1081.96
676.51	1082.08
676.85	1075.31
677.19	1075.43
677.53	1072.55
677.87	1075.05
678.21	1077.18
678.55	1079.22
678.89	1075.48
679.23	1079.85
679.57	1080.04
679.90	1077.56
680.24	1080.37
680.58	1082.80
680.92	1079.90
681.26	1080.18
681.60	1082.83
681.94	1083.67
682.28	1083.97
682.62	1087.34
682.96	1083.62
683.29	1085.73
683.63	1083.69
683.97	1086.31
684.31	1084.07
684.65	1089.45
684.99	1086.22
685.33	1085.33
685.67	1085.89
686.00	1090.64
686.34	1086.92
686.68	1084.96
687.02	1085.54
687.36	1082.29
687.70	1078.99
688.03	1080.95
688.37	1082.57
688.71	1081.49
689.05	1082.03
689.39	1080.72
689.72	1081.42
690.06	1080.93
690.40	1081.42
690.74	1082.08
691.08	1082.45
691.41	1082.97
691.75	1083.83
692.09	1082.43
692.43	1083.22
692.76	1084.35
693.10	1080.72
693.44	1082.26
693.78	1084.23
694.11	1084.49
694.45	1084.65
694.79	1084.37
695.13	1081.49
695.46	1080.48
695.80	1080.46
696.14	1080.32
696.48	1082.52
696.81	1084.81
697.15	1083.08
697.49	1081.61
697.82	1077.56
698.16	1074.33
698.50	1074.38
698.83	1078.38
699.17	1077.47
699.51	1082.57
699.84	1088.33
700.18	1085.17
700.52	1082.08
700.85	1083.60
701.19	1084.02
701.53	1079.60
701.86	1083.13
702.20	1086.71
702.54	1084.67
702.87	1083.88
703.21	1084.79
703.55	1082.43
703.88	1078.33
704.22	1080.04
704.55	1080.25
704.89	1079.41
705.23	1081.07
705.56	1082.19
705.90	1082.29
706.23	1083.81
706.57	1083.64
706.91	1081.87
707.24	1082.47
707.58	1078.36
707.91	1077.14
708.25	1078.17
708.58	1078.33
708.92	1077.54
709.26	1081.70
709.59	1080.46
709.93	1077.89
710.26	1078.50
710.60	1077.40
710.93	1076.27
711.27	1073.93
711.60	1077.51
711.94	1080.25
712.27	1082.01
712.61	1085.91
712.94	1088.51
713.28	1089.26
713.61	1085.99
713.95	1086.15
714.28	1081.58
714.62	1080.39
714.95	1076.37
715.29	1077.04
715.62	1077.61
715.96	1079.74
716.29	1081.61
716.63	1084.81
716.96	1086.03
717.29	1085.47
717.63	1083.11
717.96	1078.82
718.30	1077.93
718.63	1076.44
718.97	1074.21
719.30	1076.88
719.63	1079.24
719.97	1078.61
720.30	1078.96
720.64	1082.80
720.97	1079.92
721.30	1082.19
721.64	1083.04
721.97	1082.47
722.31	1082.83
722.64	1088.02
722.97	1086.99
723.31	1088.19
723.64	1090.97
723.97	1090.48
724.31	1087.67
724.64	1086.50
724.98	1084.70
725.31	1079.34
725.64	1077.93
725.98	1074.82
726.31	1074.98
726.64	1074.12
726.97	1079.50
727.31	1078.57
727.64	1080.02
727.97	1080.20
728.31	1078.47
728.64	1072.57
728.97	1072.83
729.31	1073.53
729.64	1072.32
729.97	1074.28
730.30	1076.44
730.64	1077.11
730.97	1079.55
731.30	1080.32
731.63	1079.67
731.97	1081.07
732.30	1080.20
732.63	1077.89
732.96	1075.73
733.30	1076.83
733.63	1076.53
733.96	1078.36
734.29	1077.30
734.63	1077.93
734.96	1079.20
735.29	1079.88
735.62	1079.17
735.95	1080.93
736.29	1080.91
736.62	1079.53
736.95	1077.63
737.28	1074.49
737.61	1073.37
737.94	1076.53
738.28	1076.30
738.61	1074.45
738.94	1078.05
739.27	1076.62
739.60	1076.08
739.93	1077.84
740.27	1079.38
740.60	1079.03
740.93	1080.41
741.26	1080.70
741.59	1079.08
741.92	1080.53
742.25	1078.03
742.58	1078.64
742.91	1076.90
743.25	1079.20
743.58	1079.78
743.91	1083.76
744.24	1084.07
744.57	1085.54
744.90	1081.87
745.23	1078.52
745.56	1076.27
745.89	1077.40
746.22	1077.18
746.55	1078.54
746.88	1082.08
747.21	1081.80
747.54	1078.31
747.87	1079.17
748.20	1083.50
748.53	1085.73
748.87	1087.16
749.20	1088.91
749.53	1085.00
749.86	1084.51
750.19	1079.20
750.52	1076.74
750.85	1077.75
751.18	1079.17
751.51	1075.22
751.84	1075.55
752.16	1077.63
752.49	1079.92
752.82	1081.00
753.15	1081.66
753.48	1084.79
753.81	1082.29
754.14	1079.62
754.47	1081.14
754.80	1083.48
755.13	1083.22
755.46	1086.13
755.79	1088.75
756.12	1085.05
756.45	1080.65
756.78	1080.02
757.11	1080.25
757.43	1075.64
757.76	1075.36
758.09	1076.79
758.42	1074.03
758.75	1072.95
759.08	1073.81
759.41	1075.13
759.74	1077.11
760.07	1079.27
760.39	1078.61
760.72	1078.19
761.05	1080.16
761.38	1080.06
761.71	1079.17
762.04	1079.13
762.36	1083.04
762.69	1083.55
763.02	1084.07
763.35	1082.90
763.68	1083.74
764.01	1080.23
