SpectraSuite Data File
++++++++++++++++++++++++++++++++++++
Date: Mon Aug 26 10:22:35 PDT 2019
User: corrico
Dark Spectrum Present: No
Reference Spectrum Present: No
Number of Sampled Component Spectra: 1
Spectrometers: USB2+H06089
Integration Time (usec): 2000 (USB2+H06089)
Spectra Averaged: 20 (USB2+H06089)
Boxcar Smoothing: 2 (USB2+H06089)
Correct for Electrical Dark: No (USB2+H06089)
Strobe/Lamp Enabled: No (USB2+H06089)
Correct for Detector Non-linearity: No (USB2+H06089)
Correct for Stray Light: No (USB2+H06089)
Number of Pixels in Processed Spectrum: 2048
>>>>>Begin Processed Spectral Data<<<<<
339.70	1021.88
340.07	1021.88
340.45	989.11
340.82	966.10
341.19	943.94
341.57	918.54
341.94	907.19
342.31	902.28
342.69	897.48
343.06	893.57
343.43	894.18
343.81	894.46
344.18	894.76
344.55	898.72
344.93	905.44
345.30	911.38
345.67	916.11
346.04	925.52
346.42	937.34
346.79	944.01
347.16	951.03
347.54	962.62
347.91	973.80
348.28	980.50
348.65	990.21
349.03	1003.46
349.40	1011.23
349.77	1017.31
350.14	1024.85
350.52	1032.57
350.89	1036.88
351.26	1044.63
351.63	1047.06
352.01	1054.86
352.38	1059.09
352.75	1063.94
353.12	1065.74
353.50	1071.19
353.87	1070.98
354.24	1075.10
354.61	1076.60
354.98	1076.39
355.36	1075.69
355.73	1075.01
356.10	1073.00
356.47	1072.18
356.84	1077.79
357.22	1080.48
357.59	1081.07
357.96	1080.51
358.33	1081.96
358.70	1080.11
359.08	1078.05
359.45	1079.31
359.82	1080.56
360.19	1077.14
360.56	1080.79
360.94	1083.57
361.31	1085.26
361.68	1085.05
362.05	1089.05
362.42	1083.76
362.79	1079.03
363.16	1077.40
363.54	1075.24
363.91	1074.24
364.28	1075.48
364.65	1081.30
365.02	1079.95
365.39	1080.20
365.76	1076.32
366.14	1074.49
366.51	1069.39
366.88	1068.92
367.25	1068.36
367.62	1068.90
367.99	1067.47
368.36	1071.17
368.73	1071.45
369.10	1071.61
369.48	1073.79
369.85	1076.79
370.22	1074.89
370.59	1079.64
370.96	1080.74
371.33	1078.12
371.70	1074.77
372.07	1074.47
372.44	1069.27
372.81	1070.30
373.18	1073.32
373.55	1076.93
373.93	1077.44
374.30	1078.24
374.67	1078.43
375.04	1077.18
375.41	1078.96
375.78	1079.24
376.15	1082.19
376.52	1080.95
376.89	1082.24
377.26	1080.65
377.63	1078.45
378.00	1078.47
378.37	1077.61
378.74	1079.17
379.11	1081.19
379.48	1084.93
379.85	1082.45
380.22	1083.13
380.59	1081.42
380.96	1081.19
381.33	1080.06
381.70	1082.08
382.07	1081.42
382.44	1082.83
382.81	1079.90
383.18	1078.05
383.55	1076.79
383.92	1080.46
384.29	1079.92
384.66	1080.23
385.03	1081.70
385.40	1083.22
385.77	1083.74
386.14	1082.73
386.51	1082.90
386.88	1085.68
387.25	1086.99
387.62	1086.22
387.99	1088.19
388.36	1089.38
388.73	1087.62
389.10	1086.06
389.46	1082.50
389.83	1081.70
390.20	1081.47
390.57	1080.23
390.94	1081.09
391.31	1084.98
391.68	1083.50
392.05	1079.46
392.42	1083.64
392.79	1083.69
393.16	1084.51
393.53	1086.69
393.89	1090.48
394.26	1084.28
394.63	1084.51
395.00	1082.92
395.37	1079.60
395.74	1080.25
396.11	1084.30
396.48	1082.29
396.84	1082.78
397.21	1089.17
397.58	1087.67
397.95	1086.10
398.32	1087.69
398.69	1085.84
399.06	1082.92
399.42	1082.64
399.79	1081.30
400.16	1081.66
400.53	1084.18
400.90	1083.29
401.27	1085.42
401.64	1090.17
402.00	1092.12
402.37	1089.52
402.74	1089.80
403.11	1090.53
403.48	1088.96
403.84	1089.36
404.21	1094.43
404.58	1094.81
404.95	1093.80
405.32	1093.08
405.68	1090.95
406.05	1087.41
406.42	1089.45
406.79	1091.72
407.16	1091.95
407.52	1092.12
407.89	1093.03
408.26	1095.14
408.63	1094.57
408.99	1095.37
409.36	1095.02
409.73	1093.64
410.10	1091.37
410.47	1091.23
410.83	1090.22
411.20	1092.61
411.57	1095.91
411.94	1096.56
412.30	1096.24
412.67	1100.03
413.04	1098.02
413.40	1096.89
413.77	1095.14
414.14	1096.70
414.51	1098.02
414.87	1097.71
415.24	1098.02
415.61	1099.70
415.97	1097.55
416.34	1093.22
416.71	1096.07
417.08	1097.55
417.44	1094.18
417.81	1098.18
418.18	1102.30
418.54	1103.77
418.91	1105.48
419.28	1112.41
419.64	1112.13
420.01	1110.21
420.38	1111.24
420.74	1114.54
421.11	1115.12
421.48	1117.56
421.84	1120.48
422.21	1122.54
422.58	1122.59
422.94	1125.14
423.31	1128.21
423.68	1132.16
424.04	1134.41
424.41	1135.91
424.77	1139.44
425.14	1143.28
425.51	1146.89
425.87	1152.22
426.24	1157.61
426.61	1160.93
426.97	1163.43
427.34	1168.42
427.70	1174.15
428.07	1180.00
428.44	1182.18
428.80	1188.83
429.17	1196.93
429.53	1204.74
429.90	1211.30
430.27	1224.22
430.63	1233.84
431.00	1241.65
431.36	1250.67
431.73	1261.22
432.09	1277.86
432.46	1295.53
432.83	1313.56
433.19	1326.76
433.56	1349.88
433.92	1366.73
434.29	1384.54
434.65	1406.03
435.02	1436.32
435.38	1461.06
435.75	1488.81
436.11	1519.03
436.48	1548.24
436.84	1579.25
437.21	1611.08
437.57	1650.29
437.94	1689.42
438.30	1732.82
438.67	1777.78
439.03	1828.40
439.40	1878.21
439.76	1932.23
440.13	1993.81
440.49	2055.86
440.86	2118.82
441.22	2189.15
441.59	2259.81
441.95	2335.13
442.32	2419.74
442.68	2510.20
443.05	2597.13
443.41	2693.72
443.78	2793.10
444.14	2896.32
444.51	3005.51
444.87	3139.62
445.24	3280.57
445.60	3433.12
445.96	3589.80
446.33	3757.89
446.69	3918.57
447.06	4089.36
447.42	4260.31
447.79	4438.19
448.15	4647.60
448.51	4872.67
448.88	5121.05
449.24	5362.82
449.61	5634.77
449.97	5903.21
450.33	6177.98
450.70	6425.71
451.06	6734.07
451.43	7029.03
451.79	7381.86
452.15	7759.81
452.52	8205.66
452.88	8662.74
453.24	9188.15
453.61	9742.95
453.97	10302.27
454.34	10834.43
454.70	11453.97
455.06	12074.96
455.43	12690.97
455.79	13259.28
456.15	13955.87
456.52	14597.34
456.88	15338.05
457.24	16032.39
457.61	16858.50
457.97	17595.42
458.33	18326.84
458.70	19075.32
459.06	19823.26
459.42	20640.27
459.79	21388.38
460.15	22299.76
460.51	23141.37
460.88	24052.54
461.24	24835.61
461.60	25797.81
461.96	26640.26
462.33	27453.38
462.69	28193.51
463.05	28995.91
463.42	29661.91
463.78	30293.09
464.14	30806.01
464.50	31390.07
464.87	31861.36
465.23	32213.40
465.59	32534.22
465.95	32842.63
466.32	33094.68
466.68	33313.57
467.04	33441.27
467.40	33586.92
467.77	33754.60
468.13	33733.84
468.49	33642.25
468.85	33566.98
469.22	33415.76
469.58	33053.56
469.94	32817.70
470.30	32522.21
470.66	32122.38
471.03	31518.92
471.39	31138.14
471.75	30482.41
472.11	29854.09
472.47	29475.82
472.84	29159.96
473.20	28664.26
473.56	28408.39
473.92	28002.29
474.28	27496.73
474.65	27008.14
475.01	26554.78
475.37	25990.53
475.73	25525.51
476.09	25018.97
476.45	24511.33
476.81	23999.90
477.18	23503.10
477.54	23106.21
477.90	22773.60
478.26	22393.22
478.62	22082.81
478.98	21793.13
479.34	21478.42
479.71	21079.96
480.07	20738.01
480.43	20372.02
480.79	20008.65
481.15	19665.25
481.51	19370.67
481.87	19129.90
482.23	18864.98
482.59	18602.58
482.96	18320.94
483.32	18036.64
483.68	17665.52
484.04	17333.96
484.40	16987.56
484.76	16625.06
485.12	16266.70
485.48	15983.38
485.84	15650.95
486.20	15311.95
486.56	14982.54
486.92	14670.64
487.28	14299.62
487.64	13945.47
488.00	13628.26
488.37	13304.85
488.73	12957.21
489.09	12637.39
489.45	12346.77
489.81	12049.10
490.17	11750.14
490.53	11475.95
490.89	11174.42
491.25	10882.53
491.61	10565.62
491.97	10276.68
492.33	9967.45
492.69	9684.43
493.05	9388.12
493.41	9113.39
493.77	8836.60
494.13	8601.54
494.49	8357.05
494.85	8126.57
495.21	7921.75
495.57	7728.00
495.93	7521.01
496.29	7332.66
496.64	7159.02
497.00	6971.19
497.36	6776.93
497.72	6587.93
498.08	6414.47
498.44	6235.70
498.80	6079.10
499.16	5927.45
499.52	5787.89
499.88	5661.64
500.24	5544.07
500.60	5422.39
500.96	5307.42
501.32	5194.07
501.68	5071.75
502.03	4944.94
502.39	4821.50
502.75	4688.61
503.11	4564.26
503.47	4442.69
503.83	4328.98
504.19	4212.10
504.55	4111.36
504.91	4025.07
505.26	3937.04
505.62	3849.48
505.98	3765.59
506.34	3681.64
506.70	3589.73
507.06	3507.55
507.42	3429.21
507.78	3354.53
508.13	3277.08
508.49	3203.19
508.85	3131.80
509.21	3064.91
509.57	3000.08
509.93	2938.21
510.28	2873.52
510.64	2816.81
511.00	2756.92
511.36	2699.01
511.72	2647.47
512.07	2602.23
512.43	2553.55
512.79	2502.76
513.15	2456.60
513.51	2415.11
513.86	2371.38
514.22	2331.24
514.58	2294.40
514.94	2255.41
515.30	2215.48
515.65	2181.80
516.01	2148.05
516.37	2120.13
516.73	2093.35
517.08	2071.68
517.44	2041.56
517.80	2014.92
518.16	1989.34
518.51	1960.85
518.87	1929.61
519.23	1903.42
519.59	1876.95
519.94	1846.96
520.30	1826.51
520.66	1803.90
521.01	1783.79
521.37	1763.08
521.73	1746.34
522.09	1726.73
522.44	1709.36
522.80	1687.95
523.16	1672.31
523.51	1649.84
523.87	1632.38
524.23	1611.72
524.58	1596.08
524.94	1577.01
525.30	1564.32
525.65	1547.98
526.01	1534.50
526.37	1520.01
526.72	1504.43
527.08	1491.88
527.44	1475.73
527.79	1463.47
528.15	1449.21
528.51	1438.24
528.86	1423.98
529.22	1416.45
529.58	1406.08
529.93	1394.91
530.29	1389.58
530.65	1382.25
531.00	1373.10
531.36	1363.55
531.71	1358.84
532.07	1347.26
532.43	1338.18
532.78	1331.37
533.14	1328.25
533.49	1321.14
533.85	1313.56
534.21	1306.74
534.56	1299.86
534.92	1288.51
535.27	1280.20
535.63	1273.86
535.98	1268.17
536.34	1262.23
536.69	1260.66
537.05	1254.71
537.41	1251.25
537.76	1247.32
538.12	1242.29
538.47	1235.26
538.83	1232.06
539.18	1226.79
539.54	1224.62
539.89	1221.22
540.25	1217.76
540.60	1215.30
540.96	1214.08
541.31	1209.64
541.67	1206.03
542.02	1204.51
542.38	1202.01
542.73	1199.85
543.09	1195.03
543.44	1189.98
543.80	1185.65
544.15	1181.20
544.51	1176.82
544.86	1174.74
545.22	1173.33
545.57	1170.29
545.93	1166.29
546.28	1164.42
546.64	1164.70
546.99	1162.52
547.35	1164.39
547.70	1165.42
548.05	1160.84
548.41	1158.05
548.76	1158.45
549.12	1155.64
549.47	1156.39
549.83	1156.65
550.18	1154.00
550.53	1147.17
550.89	1143.56
551.24	1134.97
551.60	1131.86
551.95	1130.06
552.30	1133.05
552.66	1132.26
553.01	1135.11
553.37	1135.46
553.72	1135.02
554.07	1134.36
554.43	1132.44
554.78	1132.30
555.13	1134.50
555.49	1130.29
555.84	1129.07
556.19	1126.90
556.55	1127.90
556.90	1122.08
557.26	1124.37
557.61	1121.80
557.96	1122.17
558.32	1117.56
558.67	1118.71
559.02	1117.63
559.37	1118.89
559.73	1117.65
560.08	1119.53
560.43	1120.58
560.79	1119.74
561.14	1120.04
561.49	1124.04
561.85	1122.87
562.20	1119.03
562.55	1116.62
562.90	1114.07
563.26	1108.99
563.61	1108.59
563.96	1106.98
564.32	1107.19
564.67	1105.93
565.02	1105.62
565.37	1101.34
565.73	1102.09
566.08	1102.58
566.43	1104.19
566.78	1103.98
567.14	1104.12
567.49	1105.62
567.84	1104.59
568.19	1101.08
568.54	1101.36
568.90	1101.90
569.25	1099.63
569.60	1100.03
569.95	1103.09
570.31	1102.91
570.66	1100.05
571.01	1097.99
571.36	1099.05
571.71	1096.80
572.06	1096.35
572.42	1096.26
572.77	1096.21
573.12	1094.29
573.47	1091.70
573.82	1089.47
574.18	1092.73
574.53	1093.33
574.88	1093.10
575.23	1094.83
575.58	1094.79
575.93	1092.61
576.28	1092.84
576.64	1089.96
576.99	1090.62
577.34	1091.84
577.69	1091.51
578.04	1091.84
578.39	1094.86
578.74	1092.98
579.09	1095.00
579.44	1095.84
579.80	1095.91
580.15	1096.85
580.50	1096.78
580.85	1091.51
581.20	1089.64
581.55	1090.17
581.90	1089.85
582.25	1090.08
582.60	1092.19
582.95	1092.75
583.30	1092.16
583.65	1088.49
584.00	1088.33
584.35	1085.40
584.71	1086.90
585.06	1086.69
585.41	1088.89
585.76	1089.05
586.11	1094.20
586.46	1092.73
586.81	1092.49
587.16	1093.12
587.51	1091.20
587.86	1087.93
588.21	1090.08
588.56	1091.18
588.91	1090.53
589.26	1094.46
589.61	1096.26
589.96	1095.44
590.31	1091.95
590.66	1088.82
591.01	1087.18
591.36	1085.42
591.71	1082.92
592.06	1080.16
592.41	1082.71
592.76	1082.92
593.10	1080.86
593.45	1081.82
593.80	1085.80
594.15	1086.20
594.50	1083.04
594.85	1086.10
595.20	1087.83
595.55	1084.86
595.90	1084.93
596.25	1088.30
596.60	1086.34
596.95	1082.33
597.30	1084.16
597.64	1093.59
597.99	1092.91
598.34	1093.10
598.69	1092.91
599.04	1094.11
599.39	1083.55
599.74	1082.47
600.09	1082.99
600.44	1084.11
600.78	1082.08
601.13	1080.37
601.48	1078.14
601.83	1077.11
602.18	1078.64
602.53	1080.93
602.88	1083.90
603.22	1085.70
603.57	1086.99
603.92	1086.59
604.27	1084.32
604.62	1082.54
604.97	1082.19
605.31	1081.09
605.66	1081.73
606.01	1084.49
606.36	1085.77
606.71	1087.90
607.05	1090.36
607.40	1090.76
607.75	1090.48
608.10	1090.22
608.44	1089.75
608.79	1089.52
609.14	1088.04
609.49	1086.73
609.84	1086.27
610.18	1087.53
610.53	1086.69
610.88	1089.92
611.23	1092.19
611.57	1090.64
611.92	1091.30
612.27	1088.28
612.62	1082.97
612.96	1083.36
613.31	1085.19
613.66	1081.16
614.00	1083.04
614.35	1084.42
614.70	1083.71
615.05	1084.00
615.39	1087.23
615.74	1086.17
616.09	1086.50
616.43	1086.34
616.78	1085.45
617.13	1083.69
617.47	1085.10
617.82	1087.30
618.17	1088.26
618.51	1091.42
618.86	1090.67
619.21	1094.11
619.55	1093.33
619.90	1088.82
620.25	1083.79
620.59	1082.45
620.94	1077.04
621.29	1078.78
621.63	1083.46
621.98	1083.71
622.32	1081.91
622.67	1084.86
623.02	1083.41
623.36	1079.76
623.71	1081.61
624.05	1081.91
624.40	1080.91
624.75	1076.55
625.09	1078.85
625.44	1079.29
625.78	1081.42
626.13	1083.53
626.48	1085.99
626.82	1085.75
627.17	1084.98
627.51	1086.15
627.86	1082.10
628.20	1083.18
628.55	1082.12
628.89	1082.59
629.24	1081.21
629.58	1085.61
629.93	1085.42
630.28	1084.84
630.62	1081.56
630.97	1083.22
631.31	1079.64
631.66	1077.75
632.00	1078.68
632.35	1081.37
632.69	1081.51
633.04	1081.82
633.38	1083.60
633.73	1083.18
634.07	1082.90
634.42	1084.37
634.76	1082.69
635.11	1084.09
635.45	1082.85
635.79	1081.49
636.14	1079.57
636.48	1083.43
636.83	1079.76
637.17	1078.10
637.52	1080.27
637.86	1078.61
638.21	1071.59
638.55	1075.03
638.89	1077.49
639.24	1075.22
639.58	1074.26
639.93	1079.90
640.27	1076.88
640.61	1076.83
640.96	1080.34
641.30	1080.60
641.65	1078.36
641.99	1078.94
642.33	1077.86
642.68	1073.91
643.02	1075.15
643.37	1077.42
643.71	1078.82
644.05	1081.84
644.40	1083.29
644.74	1080.41
645.08	1081.96
645.43	1083.08
645.77	1082.73
646.11	1079.95
646.46	1082.76
646.80	1080.20
647.14	1078.21
647.49	1075.17
647.83	1078.38
648.17	1079.22
648.52	1079.74
648.86	1080.02
649.20	1081.75
649.55	1080.25
649.89	1080.48
650.23	1078.96
650.57	1079.17
650.92	1078.71
651.26	1081.00
651.60	1080.37
651.95	1082.83
652.29	1084.86
652.63	1085.19
652.97	1083.22
653.32	1083.27
653.66	1081.07
654.00	1077.47
654.34	1078.24
654.69	1078.52
655.03	1078.52
655.37	1081.63
655.71	1081.84
656.05	1081.80
656.40	1080.88
656.74	1080.67
657.08	1078.50
657.42	1079.15
657.76	1078.38
658.11	1080.77
658.45	1082.61
658.79	1085.07
659.13	1082.61
659.47	1081.12
659.82	1079.38
660.16	1080.63
660.50	1079.31
660.84	1082.92
661.18	1087.20
661.52	1087.83
661.87	1084.07
662.21	1084.30
662.55	1083.27
662.89	1076.04
663.23	1079.01
663.57	1080.06
663.91	1077.30
664.25	1076.51
664.60	1083.93
664.94	1077.82
665.28	1079.85
665.62	1080.58
665.96	1078.68
666.30	1078.50
666.64	1079.76
666.98	1077.16
667.32	1076.95
667.66	1078.85
668.01	1078.19
668.35	1080.37
668.69	1082.26
669.03	1082.90
669.37	1083.81
669.71	1082.43
670.05	1081.58
670.39	1081.54
670.73	1081.70
671.07	1081.51
671.41	1081.82
671.75	1084.46
672.09	1083.15
672.43	1082.99
672.77	1079.27
673.11	1080.06
673.45	1076.20
673.79	1078.57
674.13	1077.68
674.47	1083.32
674.81	1083.57
675.15	1083.90
675.49	1080.39
675.83	1082.05
676.17	1080.18
676.51	1075.57
676.85	1078.31
677.19	1077.86
677.53	1078.43
677.87	1078.26
678.21	1083.46
678.55	1083.93
678.89	1085.91
679.23	1083.15
679.57	1082.87
679.90	1080.95
680.24	1078.14
680.58	1078.03
680.92	1078.78
681.26	1080.79
681.60	1079.50
681.94	1079.62
682.28	1077.30
682.62	1079.29
682.96	1077.91
683.29	1078.75
683.63	1078.00
683.97	1078.05
684.31	1076.37
684.65	1076.30
684.99	1073.35
685.33	1074.94
685.67	1076.01
686.00	1075.85
686.34	1075.69
686.68	1077.35
687.02	1076.60
687.36	1075.78
687.70	1077.68
688.03	1079.31
688.37	1081.94
688.71	1080.88
689.05	1082.94
689.39	1079.81
689.72	1079.64
690.06	1078.03
690.40	1082.97
690.74	1081.09
691.08	1083.41
691.41	1082.52
691.75	1084.16
692.09	1080.30
692.43	1082.78
692.76	1082.57
693.10	1080.67
693.44	1080.04
693.78	1082.45
694.11	1083.18
694.45	1084.77
694.79	1083.36
695.13	1084.44
695.46	1081.19
695.80	1077.61
696.14	1074.31
696.48	1077.77
696.81	1075.29
697.15	1072.32
697.49	1074.05
697.82	1077.42
698.16	1078.89
698.50	1078.47
698.83	1083.27
699.17	1083.64
699.51	1084.18
699.84	1083.93
700.18	1084.67
700.52	1084.16
700.85	1083.62
701.19	1080.81
701.53	1079.55
701.86	1078.99
702.20	1079.27
702.54	1079.46
702.87	1077.14
703.21	1079.41
703.55	1078.80
703.88	1077.54
704.22	1078.40
704.55	1079.34
704.89	1074.98
705.23	1076.37
705.56	1077.89
705.90	1077.96
706.23	1079.48
706.57	1078.80
706.91	1079.29
707.24	1078.31
707.58	1079.06
707.91	1078.52
708.25	1081.84
708.58	1080.37
708.92	1079.76
709.26	1078.21
709.59	1080.37
709.93	1080.58
710.26	1082.03
710.60	1083.32
710.93	1084.63
711.27	1083.55
711.60	1084.60
711.94	1086.03
712.27	1088.40
712.61	1085.19
712.94	1084.96
713.28	1083.32
713.61	1081.05
713.95	1080.23
714.28	1082.31
714.62	1083.62
714.95	1082.03
715.29	1081.47
715.62	1078.94
715.96	1080.91
716.29	1080.44
716.63	1081.26
716.96	1081.58
717.29	1083.79
717.63	1082.17
717.96	1083.01
718.30	1081.98
718.63	1079.27
718.97	1079.08
719.30	1078.99
719.63	1076.44
719.97	1077.91
720.30	1081.44
720.64	1081.14
720.97	1080.77
721.30	1083.48
721.64	1083.04
721.97	1081.61
722.31	1079.88
722.64	1078.75
722.97	1076.25
723.31	1077.98
723.64	1077.91
723.97	1077.91
724.31	1078.82
724.64	1080.95
724.98	1082.40
725.31	1084.00
725.64	1087.67
725.98	1088.02
726.31	1087.55
726.64	1086.03
726.97	1087.09
727.31	1087.30
727.64	1085.94
727.97	1085.28
728.31	1083.64
728.64	1082.80
728.97	1078.47
729.31	1078.82
729.64	1077.84
729.97	1076.44
730.30	1074.68
730.64	1075.55
730.97	1073.98
731.30	1076.11
731.63	1076.06
731.97	1081.23
732.30	1080.20
732.63	1084.25
732.96	1083.34
733.30	1083.53
733.63	1077.91
733.96	1080.06
734.29	1077.68
734.63	1078.31
734.96	1081.37
735.29	1081.26
735.62	1081.68
735.95	1079.22
736.29	1075.97
736.62	1075.29
736.95	1076.86
737.28	1075.27
737.61	1079.60
737.94	1082.03
738.28	1080.20
738.61	1077.84
738.94	1078.10
739.27	1072.67
739.60	1073.77
739.93	1076.34
740.27	1079.20
740.60	1079.38
740.93	1084.46
741.26	1083.41
741.59	1081.02
741.92	1080.67
742.25	1082.97
742.58	1081.68
742.91	1082.08
743.25	1084.63
743.58	1083.39
743.91	1080.58
744.24	1080.37
744.57	1077.91
744.90	1075.99
745.23	1077.37
745.56	1076.11
745.89	1078.10
746.22	1082.36
746.55	1080.70
746.88	1078.45
747.21	1078.85
747.54	1077.09
747.87	1072.92
748.20	1076.81
748.53	1076.60
748.87	1078.50
749.20	1079.38
749.53	1081.58
749.86	1079.48
750.19	1082.40
750.52	1081.73
750.85	1080.58
751.18	1080.58
751.51	1077.89
751.84	1076.01
752.16	1077.86
752.49	1080.32
752.82	1081.47
753.15	1082.24
753.48	1084.53
753.81	1081.23
754.14	1077.30
754.47	1073.37
754.80	1073.81
755.13	1074.80
755.46	1076.58
755.79	1079.71
756.12	1081.63
756.45	1082.19
756.78	1080.37
757.11	1080.51
757.43	1079.83
757.76	1077.49
758.09	1077.63
758.42	1076.74
758.75	1076.95
759.08	1074.52
759.41	1075.27
759.74	1075.57
760.07	1076.72
760.39	1076.20
760.72	1079.01
761.05	1077.89
761.38	1077.93
761.71	1077.63
762.04	1079.08
762.36	1078.57
762.69	1084.18
763.02	1085.70
763.35	1084.79
763.68	1081.42
764.01	1084.42
