SpectraSuite Data File
++++++++++++++++++++++++++++++++++++
Date: Mon Aug 26 10:21:54 PDT 2019
User: corrico
Dark Spectrum Present: No
Reference Spectrum Present: No
Number of Sampled Component Spectra: 1
Spectrometers: USB2+H06089
Integration Time (usec): 2000 (USB2+H06089)
Spectra Averaged: 20 (USB2+H06089)
Boxcar Smoothing: 2 (USB2+H06089)
Correct for Electrical Dark: No (USB2+H06089)
Strobe/Lamp Enabled: No (USB2+H06089)
Correct for Detector Non-linearity: No (USB2+H06089)
Correct for Stray Light: No (USB2+H06089)
Number of Pixels in Processed Spectrum: 2048
>>>>>Begin Processed Spectral Data<<<<<
339.70	1020.82
340.07	1020.82
340.45	990.68
340.82	970.06
341.19	950.84
341.57	928.00
341.94	915.57
342.31	911.94
342.69	907.03
343.06	898.91
343.43	895.93
343.81	898.32
344.18	895.96
344.55	899.66
344.93	907.78
345.30	914.28
345.67	921.68
346.04	931.53
346.42	938.53
346.79	946.49
347.16	958.82
347.54	969.45
347.91	975.07
348.28	986.79
348.65	996.51
349.03	1002.29
349.40	1007.25
349.77	1017.08
350.14	1023.38
350.52	1028.83
350.89	1037.56
351.26	1045.94
351.63	1049.50
352.01	1054.43
352.38	1059.16
352.75	1063.49
353.12	1066.68
353.50	1068.64
353.87	1070.70
354.24	1075.73
354.61	1076.04
354.98	1076.88
355.36	1080.53
355.73	1082.12
356.10	1076.58
356.47	1075.85
356.84	1077.68
357.22	1077.40
357.59	1079.29
357.96	1084.32
358.33	1084.37
358.70	1083.34
359.08	1084.30
359.45	1083.20
359.82	1081.00
360.19	1080.88
360.56	1078.59
360.94	1075.41
361.31	1072.64
361.68	1072.36
362.05	1072.13
362.42	1073.79
362.79	1073.46
363.16	1074.52
363.54	1075.97
363.91	1073.32
364.28	1071.57
364.65	1072.74
365.02	1071.92
365.39	1067.75
365.76	1068.45
366.14	1070.37
366.51	1070.00
366.88	1070.96
367.25	1073.11
367.62	1074.70
367.99	1071.75
368.36	1073.07
368.73	1069.25
369.10	1068.29
369.48	1066.09
369.85	1064.38
370.22	1063.24
370.59	1069.02
370.96	1069.34
371.33	1071.50
371.70	1074.87
372.07	1074.96
372.44	1071.64
372.81	1073.09
373.18	1072.60
373.55	1070.49
373.93	1070.89
374.30	1069.62
374.67	1067.82
375.04	1068.13
375.41	1069.91
375.78	1071.66
376.15	1073.49
376.52	1074.89
376.89	1078.38
377.26	1078.52
377.63	1076.60
378.00	1075.92
378.37	1075.52
378.74	1070.63
379.11	1070.47
379.48	1072.06
379.85	1075.10
380.22	1074.03
380.59	1075.64
380.96	1077.25
381.33	1076.27
381.70	1074.05
382.07	1076.55
382.44	1075.27
382.81	1075.36
383.18	1076.20
383.55	1076.72
383.92	1074.26
384.29	1076.13
384.66	1076.20
385.03	1076.30
385.40	1076.69
385.77	1080.46
386.14	1080.27
386.51	1078.33
386.88	1078.89
387.25	1077.61
387.62	1076.86
387.99	1078.78
388.36	1078.24
388.73	1075.36
389.10	1078.47
389.46	1078.99
389.83	1076.97
390.20	1078.75
390.57	1079.69
390.94	1077.44
391.31	1078.57
391.68	1080.46
392.05	1082.99
392.42	1083.90
392.79	1084.89
393.16	1083.97
393.53	1082.52
393.89	1079.22
394.26	1078.54
394.63	1078.50
395.00	1077.11
395.37	1076.93
395.74	1078.52
396.11	1080.09
396.48	1080.18
396.84	1079.50
397.21	1077.79
397.58	1075.90
397.95	1074.75
398.32	1073.77
398.69	1075.34
399.06	1075.87
399.42	1078.64
399.79	1080.86
400.16	1084.89
400.53	1086.50
400.90	1088.61
401.27	1087.37
401.64	1087.06
402.00	1085.59
402.37	1085.59
402.74	1087.48
403.11	1091.16
403.48	1088.91
403.84	1085.63
404.21	1082.05
404.58	1080.70
404.95	1077.96
405.32	1081.98
405.68	1083.04
406.05	1087.86
406.42	1087.27
406.79	1086.27
407.16	1086.94
407.52	1089.17
407.89	1086.97
408.26	1088.54
408.63	1088.75
408.99	1089.07
409.36	1089.26
409.73	1091.77
410.10	1090.57
410.47	1090.08
410.83	1086.94
411.20	1087.16
411.57	1082.80
411.94	1086.06
412.30	1087.41
412.67	1089.61
413.04	1088.98
413.40	1091.04
413.77	1086.31
414.14	1087.76
414.51	1090.62
414.87	1091.06
415.24	1091.91
415.61	1094.34
415.97	1095.21
416.34	1090.99
416.71	1092.45
417.08	1095.82
417.44	1096.40
417.81	1095.11
418.18	1094.20
418.54	1095.82
418.91	1094.20
419.28	1094.48
419.64	1096.07
420.01	1101.74
420.38	1101.46
420.74	1102.88
421.11	1107.64
421.48	1107.17
421.84	1106.00
422.21	1107.28
422.58	1109.09
422.94	1106.16
423.31	1107.92
423.68	1110.26
424.04	1112.88
424.41	1110.33
424.77	1114.24
425.14	1116.69
425.51	1113.51
425.87	1111.82
426.24	1116.13
426.61	1118.87
426.97	1122.01
427.34	1130.64
427.70	1136.52
428.07	1142.70
428.44	1147.75
428.80	1154.14
429.17	1159.13
429.53	1164.81
429.90	1166.20
430.27	1172.09
430.63	1177.36
431.00	1183.26
431.36	1184.17
431.73	1190.33
432.09	1192.27
432.46	1198.59
432.83	1207.65
433.19	1220.00
433.56	1231.03
433.92	1245.40
434.29	1256.98
434.65	1263.54
435.02	1279.13
435.38	1293.99
435.75	1303.05
436.11	1316.93
436.48	1334.60
436.84	1350.51
437.21	1370.97
437.57	1392.45
437.94	1412.72
438.30	1435.43
438.67	1456.28
439.03	1477.32
439.40	1510.84
439.76	1544.80
440.13	1582.79
440.49	1619.49
440.86	1655.02
441.22	1690.85
441.59	1727.17
441.95	1764.30
442.32	1809.77
442.68	1855.51
443.05	1902.60
443.41	1963.50
443.78	2020.02
444.14	2081.16
444.51	2145.38
444.87	2218.80
445.24	2281.37
445.60	2356.99
445.96	2429.55
446.33	2518.77
446.69	2604.22
447.06	2693.18
447.42	2787.72
447.79	2888.01
448.15	2999.63
448.51	3111.98
448.88	3238.51
449.24	3358.76
449.61	3505.94
449.97	3648.57
450.33	3802.27
450.70	3962.60
451.06	4147.24
451.43	4318.97
451.79	4513.51
452.15	4715.36
452.52	4928.49
452.88	5146.02
453.24	5382.81
453.61	5640.13
453.97	5897.94
454.34	6154.18
454.70	6464.51
455.06	6758.13
455.43	7060.55
455.79	7355.53
456.15	7704.01
456.52	8016.36
456.88	8420.22
457.24	8808.82
457.61	9270.25
457.97	9715.38
458.33	10188.21
458.70	10647.19
459.06	11075.88
459.42	11514.22
459.79	11931.35
460.15	12389.53
460.51	12814.64
460.88	13261.71
461.24	13661.87
461.60	14128.36
461.96	14539.50
462.33	14905.49
462.69	15343.03
463.05	15801.99
463.42	16178.32
463.78	16579.75
464.14	16997.67
464.50	17360.97
464.87	17629.41
465.23	17856.32
465.59	18125.88
465.95	18370.79
466.32	18567.94
466.68	18792.96
467.04	18932.99
467.40	18961.73
467.77	18951.08
468.13	18895.80
468.49	18836.23
468.85	18784.32
469.22	18741.96
469.58	18640.73
469.94	18581.82
470.30	18397.34
470.66	18202.67
471.03	17906.76
471.39	17712.17
471.75	17378.13
472.11	17090.73
472.47	16875.45
472.84	16657.78
473.20	16348.22
473.56	16145.69
473.92	15909.89
474.28	15670.54
474.65	15423.50
475.01	15194.08
475.37	14916.96
475.73	14665.94
476.09	14369.09
476.45	14131.41
476.81	13890.03
477.18	13669.10
477.54	13478.54
477.90	13311.45
478.26	13099.91
478.62	12928.02
478.98	12756.97
479.34	12577.62
479.71	12357.35
480.07	12159.22
480.43	11968.24
480.79	11784.90
481.15	11599.98
481.51	11460.20
481.87	11332.03
482.23	11148.25
482.59	10965.95
482.96	10812.90
483.32	10655.10
483.68	10461.14
484.04	10311.42
484.40	10137.66
484.76	9940.26
485.12	9744.28
485.48	9577.14
485.84	9365.79
486.20	9162.19
486.56	8992.15
486.92	8820.31
487.28	8636.23
487.64	8466.49
488.00	8290.11
488.37	8099.73
488.73	7904.50
489.09	7701.30
489.45	7527.12
489.81	7354.34
490.17	7183.90
490.53	7026.48
490.89	6875.96
491.25	6704.42
491.61	6558.25
491.97	6399.33
492.33	6237.08
492.69	6071.77
493.05	5919.75
493.41	5766.61
493.77	5612.58
494.13	5472.01
494.49	5344.15
494.85	5214.36
495.21	5094.85
495.57	4982.93
495.93	4872.01
496.29	4762.17
496.64	4661.64
497.00	4544.83
497.36	4440.72
497.72	4333.62
498.08	4234.52
498.44	4137.95
498.80	4040.77
499.16	3938.51
499.52	3848.36
499.88	3767.96
500.24	3690.98
500.60	3621.25
500.96	3553.57
501.32	3476.44
501.68	3391.20
502.03	3307.43
502.39	3228.00
502.75	3153.97
503.11	3092.88
503.47	3043.75
503.83	2992.49
504.19	2939.74
504.55	2890.51
504.91	2838.98
505.26	2778.26
505.62	2720.01
505.98	2670.90
506.34	2617.77
506.70	2566.42
507.06	2524.46
507.42	2482.00
507.78	2437.55
508.13	2397.50
508.49	2358.16
508.85	2314.58
509.21	2271.02
509.57	2231.61
509.93	2190.11
510.28	2144.23
510.64	2108.19
511.00	2077.67
511.36	2040.32
511.72	2006.52
512.07	1983.56
512.43	1953.86
512.79	1925.37
513.15	1903.30
513.51	1873.58
513.86	1845.14
514.22	1819.81
514.58	1793.79
514.94	1766.38
515.30	1752.03
515.65	1734.50
516.01	1713.83
516.37	1693.66
516.73	1672.55
517.08	1649.42
517.44	1628.43
517.80	1610.73
518.16	1592.43
518.51	1579.35
518.87	1565.72
519.23	1549.90
519.59	1538.88
519.94	1523.67
520.30	1509.90
520.66	1497.85
521.01	1486.10
521.37	1469.88
521.73	1461.10
522.09	1450.83
522.44	1439.08
522.80	1428.34
523.16	1415.98
523.51	1404.88
523.87	1394.35
524.23	1385.32
524.58	1375.51
524.94	1374.62
525.30	1363.43
525.65	1353.20
526.01	1343.84
526.37	1338.86
526.72	1331.37
527.08	1323.69
527.44	1317.65
527.79	1312.74
528.15	1301.34
528.51	1288.46
528.86	1281.23
529.22	1274.35
529.58	1266.70
529.93	1260.68
530.29	1255.23
530.65	1249.42
531.00	1240.41
531.36	1236.13
531.71	1234.42
532.07	1234.59
532.43	1231.66
532.78	1228.69
533.14	1224.50
533.49	1217.55
533.85	1208.42
534.21	1203.88
534.56	1200.74
534.92	1194.66
535.27	1191.89
535.63	1189.60
535.98	1187.92
536.34	1185.46
536.69	1180.94
537.05	1180.12
537.41	1177.80
537.76	1172.37
538.12	1170.85
538.47	1167.11
538.83	1160.79
539.18	1157.75
539.54	1159.74
539.89	1157.51
540.25	1161.09
540.60	1165.10
540.96	1162.92
541.31	1156.27
541.67	1156.11
542.02	1150.05
542.38	1144.33
542.73	1144.29
543.09	1146.11
543.44	1144.90
543.80	1146.11
544.15	1144.92
544.51	1143.21
544.86	1142.49
545.22	1137.52
545.57	1135.79
545.93	1134.81
546.28	1132.07
546.64	1129.40
546.99	1130.08
547.35	1126.38
547.70	1123.06
548.05	1121.14
548.41	1121.70
548.76	1119.45
549.12	1119.92
549.47	1117.25
549.83	1118.00
550.18	1113.86
550.53	1109.20
550.89	1108.92
551.24	1110.75
551.60	1111.47
551.95	1111.10
552.30	1111.29
552.66	1111.80
553.01	1111.57
553.37	1109.77
553.72	1110.30
554.07	1109.79
554.43	1106.02
554.78	1106.54
555.13	1103.70
555.49	1104.36
555.84	1109.74
556.19	1111.38
556.55	1112.57
556.90	1111.15
557.26	1110.63
557.61	1103.26
557.96	1101.22
558.32	1098.90
558.67	1098.86
559.02	1097.15
559.37	1100.64
559.73	1101.08
560.08	1098.46
560.43	1099.70
560.79	1099.14
561.14	1097.69
561.49	1095.77
561.85	1095.98
562.20	1096.94
562.55	1095.98
562.90	1095.37
563.26	1095.23
563.61	1095.30
563.96	1093.99
564.32	1092.19
564.67	1091.65
565.02	1092.02
565.37	1091.20
565.73	1090.64
566.08	1091.44
566.43	1091.25
566.78	1090.08
567.14	1092.14
567.49	1092.61
567.84	1092.02
568.19	1093.17
568.54	1095.21
568.90	1093.83
569.25	1093.83
569.60	1094.79
569.95	1093.78
570.31	1092.35
570.66	1093.59
571.01	1090.20
571.36	1086.71
571.71	1085.03
572.06	1085.47
572.42	1080.86
572.77	1084.44
573.12	1087.41
573.47	1091.67
573.82	1090.62
574.18	1093.83
574.53	1091.23
574.88	1091.37
575.23	1088.09
575.58	1085.82
575.93	1083.48
576.28	1084.09
576.64	1083.83
576.99	1083.39
577.34	1084.49
577.69	1084.93
578.04	1087.23
578.39	1087.48
578.74	1088.51
579.09	1090.20
579.44	1089.43
579.80	1090.36
580.15	1085.12
580.50	1083.41
580.85	1083.74
581.20	1085.75
581.55	1078.50
581.90	1082.12
582.25	1084.91
582.60	1083.50
582.95	1081.75
583.30	1083.34
583.65	1085.63
584.00	1084.44
584.35	1085.42
584.71	1085.54
585.06	1086.90
585.41	1086.29
585.76	1081.98
586.11	1079.34
586.46	1079.43
586.81	1080.91
587.16	1078.28
587.51	1082.38
587.86	1084.49
588.21	1085.80
588.56	1082.64
588.91	1083.53
589.26	1080.37
589.61	1077.86
589.96	1075.05
590.31	1076.67
590.66	1074.73
591.01	1078.10
591.36	1082.61
591.71	1085.47
592.06	1082.66
592.41	1086.64
592.76	1084.91
593.10	1081.70
593.45	1079.78
593.80	1081.82
594.15	1079.62
594.50	1081.00
594.85	1083.29
595.20	1086.83
595.55	1087.16
595.90	1085.66
596.25	1086.76
596.60	1084.07
596.95	1083.41
597.30	1084.74
597.64	1097.80
597.99	1098.18
598.34	1101.15
598.69	1099.79
599.04	1100.24
599.39	1086.87
599.74	1081.77
600.09	1079.67
600.44	1078.28
600.78	1076.58
601.13	1079.67
601.48	1080.44
601.83	1078.05
602.18	1076.25
602.53	1074.19
602.88	1071.43
603.22	1071.01
603.57	1073.88
603.92	1075.43
604.27	1078.99
604.62	1078.89
604.97	1077.93
605.31	1079.01
605.66	1078.52
606.01	1076.62
606.36	1080.06
606.71	1086.15
607.05	1085.47
607.40	1083.71
607.75	1085.40
608.10	1084.11
608.44	1083.53
608.79	1078.94
609.14	1082.38
609.49	1080.02
609.84	1078.10
610.18	1077.33
610.53	1080.93
610.88	1081.26
611.23	1082.52
611.57	1083.83
611.92	1082.59
612.27	1082.66
612.62	1083.53
612.96	1084.70
613.31	1084.32
613.66	1085.14
614.00	1084.21
614.35	1083.22
614.70	1078.94
615.05	1078.59
615.39	1079.71
615.74	1079.60
616.09	1079.46
616.43	1084.18
616.78	1081.30
617.13	1079.71
617.47	1079.48
617.82	1076.01
618.17	1072.18
618.51	1071.71
618.86	1072.04
619.21	1073.60
619.55	1074.05
619.90	1075.97
620.25	1078.43
620.59	1078.07
620.94	1075.29
621.29	1079.13
621.63	1077.91
621.98	1080.06
622.32	1079.43
622.67	1080.48
623.02	1079.13
623.36	1081.54
623.71	1080.91
624.05	1079.74
624.40	1081.12
624.75	1085.77
625.09	1085.17
625.44	1085.42
625.78	1086.24
626.13	1087.39
626.48	1083.62
626.82	1082.83
627.17	1080.74
627.51	1080.53
627.86	1079.53
628.20	1078.21
628.55	1078.45
628.89	1079.85
629.24	1081.66
629.58	1084.44
629.93	1085.56
630.28	1082.97
630.62	1082.85
630.97	1081.66
631.31	1078.17
631.66	1074.82
632.00	1076.06
632.35	1076.81
632.69	1076.37
633.04	1077.18
633.38	1081.07
633.73	1084.44
634.07	1082.03
634.42	1077.89
634.76	1073.88
635.11	1068.31
635.45	1070.00
635.79	1071.94
636.14	1075.48
636.48	1081.09
636.83	1086.08
637.17	1082.31
637.52	1080.79
637.86	1080.79
638.21	1079.60
638.55	1078.31
638.89	1075.59
639.24	1077.84
639.58	1077.09
639.93	1075.22
640.27	1074.59
640.61	1077.35
640.96	1074.59
641.30	1081.42
641.65	1080.98
641.99	1082.80
642.33	1082.50
642.68	1082.29
643.02	1078.68
643.37	1079.38
643.71	1079.50
644.05	1079.03
644.40	1080.63
644.74	1079.06
645.08	1082.31
645.43	1081.23
645.77	1084.81
646.11	1088.02
646.46	1085.45
646.80	1080.37
647.14	1077.44
647.49	1072.11
647.83	1067.75
648.17	1073.00
648.52	1075.80
648.86	1080.56
649.20	1079.50
649.55	1080.30
649.89	1074.73
650.23	1075.22
650.57	1073.56
650.92	1077.28
651.26	1079.55
651.60	1081.98
651.95	1080.34
652.29	1080.18
652.63	1080.32
652.97	1079.64
653.32	1076.39
653.66	1078.57
654.00	1077.09
654.34	1081.35
654.69	1082.90
655.03	1084.60
655.37	1086.27
655.71	1086.87
656.05	1082.87
656.40	1079.83
656.74	1081.98
657.08	1079.71
657.42	1077.18
657.76	1076.06
658.11	1075.20
658.45	1074.47
658.79	1071.64
659.13	1074.75
659.47	1076.08
659.82	1077.07
660.16	1075.71
660.50	1078.99
660.84	1079.41
661.18	1079.43
661.52	1082.69
661.87	1086.78
662.21	1085.99
662.55	1084.30
662.89	1084.09
663.23	1081.84
663.57	1077.65
663.91	1077.33
664.25	1081.84
664.60	1080.91
664.94	1078.40
665.28	1082.31
665.62	1082.24
665.96	1077.65
666.30	1079.29
666.64	1080.25
666.98	1077.98
667.32	1076.79
667.66	1079.97
668.01	1079.31
668.35	1078.38
668.69	1077.70
669.03	1078.57
669.37	1079.57
669.71	1077.86
670.05	1080.74
670.39	1080.09
670.73	1080.70
671.07	1076.86
671.41	1078.45
671.75	1078.75
672.09	1080.67
672.43	1080.06
672.77	1080.51
673.11	1080.93
673.45	1078.36
673.79	1076.58
674.13	1077.58
674.47	1080.53
674.81	1081.21
675.15	1083.55
675.49	1087.74
675.83	1083.25
676.17	1082.54
676.51	1079.55
676.85	1075.27
677.19	1070.72
677.53	1073.53
677.87	1073.77
678.21	1077.11
678.55	1083.13
678.89	1082.83
679.23	1080.39
679.57	1078.38
679.90	1074.91
680.24	1071.61
680.58	1072.62
680.92	1074.00
681.26	1071.68
681.60	1072.83
681.94	1072.08
682.28	1070.68
682.62	1071.08
682.96	1074.40
683.29	1074.10
683.63	1075.17
683.97	1077.21
684.31	1080.04
684.65	1080.48
684.99	1083.01
685.33	1081.80
685.67	1082.78
686.00	1081.40
686.34	1078.43
686.68	1076.11
687.02	1073.91
687.36	1072.85
687.70	1075.13
688.03	1075.85
688.37	1075.80
688.71	1077.49
689.05	1080.06
689.39	1076.23
689.72	1078.00
690.06	1075.55
690.40	1076.30
690.74	1075.80
691.08	1076.25
691.41	1077.86
691.75	1077.98
692.09	1079.95
692.43	1077.58
692.76	1079.48
693.10	1079.36
693.44	1082.36
693.78	1080.25
694.11	1079.36
694.45	1077.68
694.79	1073.77
695.13	1074.35
695.46	1073.46
695.80	1073.58
696.14	1071.54
696.48	1070.61
696.81	1068.90
697.15	1068.50
697.49	1069.48
697.82	1074.49
698.16	1077.58
698.50	1079.17
698.83	1082.57
699.17	1083.11
699.51	1084.16
699.84	1082.66
700.18	1083.76
700.52	1084.09
700.85	1083.08
701.19	1081.05
701.53	1080.77
701.86	1077.21
702.20	1074.80
702.54	1075.05
702.87	1072.92
703.21	1073.65
703.55	1074.61
703.88	1076.97
704.22	1079.20
704.55	1077.37
704.89	1078.54
705.23	1076.11
705.56	1075.55
705.90	1073.60
706.23	1074.59
706.57	1072.90
706.91	1074.07
707.24	1075.62
707.58	1073.81
707.91	1075.03
708.25	1076.95
708.58	1081.09
708.92	1079.31
709.26	1077.93
709.59	1078.00
709.93	1077.61
710.26	1076.51
710.60	1076.81
710.93	1074.49
711.27	1072.83
711.60	1072.95
711.94	1074.66
712.27	1071.80
712.61	1078.57
712.94	1080.58
713.28	1080.37
713.61	1077.91
713.95	1080.06
714.28	1077.84
714.62	1075.27
714.95	1075.78
715.29	1073.51
715.62	1072.83
715.96	1074.42
716.29	1076.81
716.63	1074.87
716.96	1074.68
717.29	1073.00
717.63	1072.15
717.96	1071.45
718.30	1072.08
718.63	1075.62
718.97	1076.90
719.30	1076.41
719.63	1074.82
719.97	1074.47
720.30	1072.88
720.64	1076.13
720.97	1075.99
721.30	1081.12
721.64	1083.64
721.97	1082.80
722.31	1078.68
722.64	1079.69
722.97	1078.92
723.31	1076.86
723.64	1077.91
723.97	1078.94
724.31	1080.30
724.64	1075.41
724.98	1074.17
725.31	1078.07
725.64	1079.60
725.98	1080.30
726.31	1083.13
726.64	1081.51
726.97	1077.37
727.31	1080.06
727.64	1079.36
727.97	1080.18
728.31	1081.05
728.64	1082.97
728.97	1080.30
729.31	1080.48
729.64	1079.20
729.97	1081.09
730.30	1079.38
730.64	1076.04
730.97	1073.51
731.30	1075.92
731.63	1075.87
731.97	1075.43
732.30	1079.62
732.63	1079.38
732.96	1076.95
733.30	1076.86
733.63	1077.00
733.96	1073.77
734.29	1075.08
734.63	1076.95
734.96	1075.87
735.29	1077.35
735.62	1081.33
735.95	1081.49
736.29	1080.63
736.62	1081.75
736.95	1079.67
737.28	1079.97
737.61	1080.06
737.94	1080.13
738.28	1079.62
738.61	1080.41
738.94	1075.92
739.27	1074.35
739.60	1072.78
739.93	1076.79
740.27	1076.81
740.60	1080.84
740.93	1081.14
741.26	1085.40
741.59	1082.73
741.92	1081.37
742.25	1079.74
742.58	1080.23
742.91	1078.45
743.25	1077.35
743.58	1077.44
743.91	1076.46
744.24	1076.95
744.57	1075.27
744.90	1074.96
745.23	1075.17
745.56	1073.16
745.89	1074.03
746.22	1078.12
746.55	1080.34
746.88	1083.81
747.21	1087.18
747.54	1082.80
747.87	1081.12
748.20	1081.54
748.53	1076.95
748.87	1075.94
749.20	1079.53
749.53	1075.31
749.86	1075.76
750.19	1078.94
750.52	1078.61
750.85	1079.95
751.18	1080.63
751.51	1077.91
751.84	1077.33
752.16	1076.90
752.49	1073.42
752.82	1068.48
753.15	1065.32
753.48	1063.82
753.81	1064.43
754.14	1066.39
754.47	1072.22
754.80	1075.57
755.13	1075.27
755.46	1075.31
755.79	1074.52
756.12	1075.78
756.45	1074.89
756.78	1078.03
757.11	1077.56
757.43	1078.21
757.76	1076.37
758.09	1077.54
758.42	1077.23
758.75	1077.54
759.08	1075.85
759.41	1075.41
759.74	1076.27
760.07	1076.88
760.39	1078.33
760.72	1077.79
761.05	1079.43
761.38	1080.46
761.71	1078.14
762.04	1077.54
762.36	1078.47
762.69	1079.78
763.02	1078.50
763.35	1078.71
763.68	1076.95
764.01	1079.41
764.33	1080.09
764.66	1079.27
