SpectraSuite Data File
++++++++++++++++++++++++++++++++++++
Date: Mon Aug 26 10:22:24 PDT 2019
User: corrico
Dark Spectrum Present: No
Reference Spectrum Present: No
Number of Sampled Component Spectra: 1
Spectrometers: USB2+H06089
Integration Time (usec): 2000 (USB2+H06089)
Spectra Averaged: 20 (USB2+H06089)
Boxcar Smoothing: 2 (USB2+H06089)
Correct for Electrical Dark: No (USB2+H06089)
Strobe/Lamp Enabled: No (USB2+H06089)
Correct for Detector Non-linearity: No (USB2+H06089)
Correct for Stray Light: No (USB2+H06089)
Number of Pixels in Processed Spectrum: 2048
>>>>>Begin Processed Spectral Data<<<<<
339.70	1018.84
340.07	1018.84
340.45	990.40
340.82	971.37
341.19	952.04
341.57	929.71
341.94	917.68
342.31	911.31
342.69	906.51
343.06	899.44
343.43	899.35
343.81	901.74
344.18	903.26
344.55	906.47
344.93	913.21
345.30	919.48
345.67	927.04
346.04	933.80
346.42	940.66
346.79	953.51
347.16	960.77
347.54	966.99
347.91	975.82
348.28	988.85
348.65	993.07
349.03	1004.77
349.40	1013.97
349.77	1020.40
350.14	1027.17
350.52	1037.47
350.89	1043.08
351.26	1048.61
351.63	1054.60
352.01	1057.73
352.38	1059.30
352.75	1060.94
353.12	1069.34
353.50	1070.82
353.87	1072.85
354.24	1075.64
354.61	1078.89
354.98	1077.44
355.36	1084.86
355.73	1085.35
356.10	1085.33
356.47	1086.43
356.84	1088.77
357.22	1086.03
357.59	1087.97
357.96	1088.28
358.33	1086.27
358.70	1080.25
359.08	1080.09
359.45	1078.61
359.82	1080.32
360.19	1081.91
360.56	1084.49
360.94	1081.51
361.31	1082.83
361.68	1082.33
362.05	1080.67
362.42	1083.50
362.79	1084.67
363.16	1083.62
363.54	1080.70
363.91	1080.86
364.28	1075.10
364.65	1077.75
365.02	1077.35
365.39	1075.27
365.76	1072.90
366.14	1075.24
366.51	1072.15
366.88	1071.26
367.25	1074.00
367.62	1075.41
367.99	1074.12
368.36	1075.36
368.73	1076.30
369.10	1076.86
369.48	1077.56
369.85	1077.56
370.22	1081.42
370.59	1081.66
370.96	1077.35
371.33	1076.01
371.70	1076.32
372.07	1072.57
372.44	1072.95
372.81	1076.86
373.18	1076.48
373.55	1075.97
373.93	1077.40
374.30	1075.48
374.67	1073.98
375.04	1076.20
375.41	1079.64
375.78	1078.12
376.15	1080.16
376.52	1082.59
376.89	1083.25
377.26	1081.07
377.63	1078.28
378.00	1078.45
378.37	1076.53
378.74	1076.11
379.11	1075.52
379.48	1079.50
379.85	1078.64
380.22	1077.40
380.59	1077.40
380.96	1077.93
381.33	1076.86
381.70	1076.60
382.07	1081.73
382.44	1080.04
382.81	1080.23
383.18	1078.10
383.55	1076.62
383.92	1072.71
384.29	1075.64
384.66	1079.01
385.03	1081.73
385.40	1082.47
385.77	1083.57
386.14	1082.64
386.51	1079.22
386.88	1080.34
387.25	1082.99
387.62	1084.18
387.99	1083.18
388.36	1086.41
388.73	1083.86
389.10	1083.32
389.46	1085.24
389.83	1085.05
390.20	1081.89
390.57	1082.03
390.94	1082.92
391.31	1082.94
391.68	1084.93
392.05	1084.56
392.42	1084.49
392.79	1083.18
393.16	1080.63
393.53	1083.15
393.89	1082.87
394.26	1082.10
394.63	1083.53
395.00	1086.17
395.37	1085.84
395.74	1089.50
396.11	1095.25
396.48	1094.43
396.84	1094.50
397.21	1092.52
397.58	1091.37
397.95	1087.41
398.32	1088.63
398.69	1088.51
399.06	1089.85
399.42	1088.56
399.79	1091.65
400.16	1092.45
400.53	1090.53
400.90	1089.57
401.27	1091.44
401.64	1088.84
402.00	1087.76
402.37	1091.46
402.74	1089.12
403.11	1088.70
403.48	1092.35
403.84	1093.66
404.21	1091.23
404.58	1092.70
404.95	1092.87
405.32	1090.03
405.68	1088.63
406.05	1089.12
406.42	1091.11
406.79	1094.48
407.16	1096.85
407.52	1099.56
407.89	1101.69
408.26	1101.22
408.63	1102.74
408.99	1103.45
409.36	1101.60
409.73	1100.40
410.10	1102.77
410.47	1098.69
410.83	1099.61
411.20	1101.92
411.57	1103.66
411.94	1103.73
412.30	1110.54
412.67	1112.50
413.04	1108.48
413.40	1110.26
413.77	1108.08
414.14	1102.44
414.51	1096.28
414.87	1097.31
415.24	1096.73
415.61	1096.54
415.97	1097.57
416.34	1102.02
416.71	1106.77
417.08	1105.83
417.44	1108.76
417.81	1108.24
418.18	1111.05
418.54	1113.58
418.91	1116.53
419.28	1116.11
419.64	1120.44
420.01	1119.34
420.38	1115.73
420.74	1113.93
421.11	1120.27
421.48	1119.38
421.84	1118.42
422.21	1123.55
422.58	1129.10
422.94	1129.36
423.31	1129.71
423.68	1133.90
424.04	1133.08
424.41	1133.15
424.77	1132.73
425.14	1138.13
425.51	1140.31
425.87	1144.45
426.24	1149.02
426.61	1157.32
426.97	1163.01
427.34	1172.00
427.70	1180.29
428.07	1186.37
428.44	1193.09
428.80	1196.39
429.17	1203.39
429.53	1211.46
429.90	1220.92
430.27	1227.47
430.63	1241.68
431.00	1250.92
431.36	1264.36
431.73	1276.39
432.09	1291.74
432.46	1304.33
432.83	1321.49
433.19	1337.69
433.56	1358.94
433.92	1377.36
434.29	1399.76
434.65	1424.61
435.02	1450.52
435.38	1474.98
435.75	1503.00
436.11	1534.88
436.48	1564.32
436.84	1592.52
437.21	1628.26
437.57	1667.47
437.94	1705.06
438.30	1747.00
438.67	1794.91
439.03	1844.25
439.40	1897.92
439.76	1955.82
440.13	2017.10
440.49	2082.89
440.86	2144.09
441.22	2211.48
441.59	2288.97
441.95	2371.10
442.32	2456.53
442.68	2554.53
443.05	2656.65
443.41	2756.89
443.78	2860.04
444.14	2970.09
444.51	3080.47
444.87	3212.50
445.24	3354.50
445.60	3501.86
445.96	3653.90
446.33	3827.99
446.69	3989.54
447.06	4165.90
447.42	4351.52
447.79	4542.07
448.15	4763.93
448.51	4995.52
448.88	5250.34
449.24	5498.62
449.61	5786.55
449.97	6049.58
450.33	6336.56
450.70	6609.39
451.06	6940.39
451.43	7234.41
451.79	7605.76
452.15	8005.71
452.52	8459.16
452.88	8924.77
453.24	9464.07
453.61	10042.82
453.97	10605.51
454.34	11148.44
454.70	11797.35
455.06	12456.28
455.43	13087.95
455.79	13699.04
456.15	14415.59
456.52	15063.99
456.88	15822.72
457.24	16554.45
457.61	17395.40
457.97	18168.95
458.33	18956.07
458.70	19734.95
459.06	20484.04
459.42	21312.57
459.79	22098.94
460.15	23001.31
460.51	23850.43
460.88	24790.09
461.24	25602.30
461.60	26559.70
461.96	27454.76
462.33	28296.80
462.69	29085.23
463.05	29953.57
463.42	30669.47
463.78	31298.84
464.14	31832.27
464.50	32428.87
464.87	32885.95
465.23	33234.27
465.59	33578.24
465.95	33922.86
466.32	34178.68
466.68	34396.37
467.04	34538.79
467.40	34692.08
467.77	34828.01
468.13	34822.96
468.49	34750.57
468.85	34679.60
469.22	34510.38
469.58	34166.25
469.94	33916.52
470.30	33601.50
470.66	33200.73
471.03	32617.19
471.39	32245.98
471.75	31619.72
472.11	31028.93
472.47	30669.91
472.84	30360.82
473.20	29874.50
473.56	29593.05
473.92	29161.90
474.28	28625.06
474.65	28122.73
475.01	27625.04
475.37	27055.75
475.73	26598.29
476.09	26086.89
476.45	25572.18
476.81	25068.40
477.18	24533.45
477.54	24086.36
477.90	23730.46
478.26	23295.52
478.62	22949.07
478.98	22653.95
479.34	22317.24
479.71	21882.32
480.07	21542.38
480.43	21178.17
480.79	20787.54
481.15	20430.68
481.51	20121.98
481.87	19864.71
482.23	19581.74
482.59	19329.34
482.96	19049.18
483.32	18759.74
483.68	18376.44
484.04	18026.64
484.40	17637.93
484.76	17268.05
485.12	16884.67
485.48	16572.89
485.84	16213.80
486.20	15882.62
486.56	15526.36
486.92	15233.94
487.28	14880.85
487.64	14539.95
488.00	14200.05
488.37	13862.24
488.73	13504.24
489.09	13153.69
489.45	12831.54
489.81	12521.73
490.17	12235.92
490.53	11949.49
490.89	11651.23
491.25	11357.80
491.61	11053.48
491.97	10723.94
492.33	10384.89
492.69	10085.13
493.05	9778.34
493.41	9479.12
493.77	9204.04
494.13	8952.60
494.49	8692.77
494.85	8455.56
495.21	8230.59
495.57	8010.86
495.93	7797.28
496.29	7592.81
496.64	7406.34
497.00	7213.13
497.36	7023.32
497.72	6840.22
498.08	6661.63
498.44	6468.33
498.80	6298.38
499.16	6136.70
499.52	5975.76
499.88	5845.63
500.24	5729.51
500.60	5604.27
500.96	5493.80
501.32	5373.07
501.68	5249.14
502.03	5125.61
502.39	5003.57
502.75	4856.66
503.11	4731.70
503.47	4604.58
503.83	4477.91
504.19	4360.07
504.55	4259.03
504.91	4167.09
505.26	4076.75
505.62	3989.70
505.98	3898.37
506.34	3803.02
506.70	3707.46
507.06	3618.91
507.42	3527.98
507.78	3448.45
508.13	3376.69
508.49	3298.56
508.85	3226.52
509.21	3162.95
509.57	3094.42
509.93	3028.47
510.28	2965.65
510.64	2900.63
511.00	2833.57
511.36	2768.25
511.72	2709.85
512.07	2657.02
512.43	2609.00
512.79	2559.98
513.15	2519.98
513.51	2475.49
513.86	2433.67
514.22	2393.69
514.58	2352.92
514.94	2313.01
515.30	2277.72
515.65	2242.79
516.01	2208.81
516.37	2176.91
516.73	2146.53
517.08	2117.53
517.44	2085.23
517.80	2054.10
518.16	2024.59
518.51	1988.64
518.87	1960.90
519.23	1936.63
519.59	1910.98
519.94	1883.36
520.30	1863.63
520.66	1838.23
521.01	1813.77
521.37	1793.79
521.73	1775.44
522.09	1756.41
522.44	1737.12
522.80	1719.43
523.16	1698.81
523.51	1678.40
523.87	1659.49
524.23	1640.08
524.58	1616.02
524.94	1595.68
525.30	1575.63
525.65	1559.41
526.01	1545.20
526.37	1531.16
526.72	1520.76
527.08	1513.91
527.44	1500.77
527.79	1488.56
528.15	1475.66
528.51	1459.82
528.86	1446.33
529.22	1434.09
529.58	1420.17
529.93	1413.15
530.29	1405.28
530.65	1390.89
531.00	1384.38
531.36	1374.67
531.71	1362.87
532.07	1354.05
532.43	1348.52
532.78	1342.23
533.14	1335.16
533.49	1333.38
533.85	1323.85
534.21	1317.46
534.56	1306.56
534.92	1297.62
535.27	1289.05
535.63	1286.17
535.98	1283.13
536.34	1278.21
536.69	1273.88
537.05	1266.39
537.41	1260.89
537.76	1250.85
538.12	1245.75
538.47	1245.75
538.83	1241.94
539.18	1235.48
539.54	1232.25
539.89	1230.96
540.25	1223.56
540.60	1220.26
540.96	1217.01
541.31	1214.78
541.67	1212.14
542.02	1209.57
542.38	1207.48
542.73	1203.43
543.09	1199.88
543.44	1193.98
543.80	1194.26
544.15	1193.32
544.51	1191.80
544.86	1190.30
545.22	1189.60
545.57	1184.52
545.93	1179.75
546.28	1176.03
546.64	1172.30
546.99	1170.74
547.35	1167.20
547.70	1166.57
548.05	1166.52
548.41	1165.98
548.76	1160.77
549.12	1157.42
549.47	1153.25
549.83	1151.59
550.18	1149.88
550.53	1146.37
550.89	1146.32
551.24	1144.12
551.60	1139.00
551.95	1135.25
552.30	1139.00
552.66	1137.03
553.01	1138.02
553.37	1142.28
553.72	1142.65
554.07	1137.85
554.43	1139.09
554.78	1135.37
555.13	1130.78
555.49	1132.14
555.84	1130.20
556.19	1127.37
556.55	1127.90
556.90	1129.82
557.26	1124.49
557.61	1124.53
557.96	1122.57
558.32	1120.70
558.67	1117.79
559.02	1118.54
559.37	1115.36
559.73	1115.76
560.08	1117.82
560.43	1117.09
560.79	1117.40
561.14	1117.93
561.49	1119.01
561.85	1114.94
562.20	1113.30
562.55	1112.71
562.90	1112.22
563.26	1110.68
563.61	1112.36
563.96	1113.11
564.32	1112.13
564.67	1114.82
565.02	1114.84
565.37	1112.34
565.73	1108.31
566.08	1107.00
566.43	1105.83
566.78	1104.76
567.14	1104.66
567.49	1103.45
567.84	1100.85
568.19	1099.21
568.54	1099.00
568.90	1099.02
569.25	1102.42
569.60	1103.26
569.95	1105.86
570.31	1105.46
570.66	1105.58
571.01	1106.07
571.36	1110.23
571.71	1107.28
572.06	1106.75
572.42	1106.96
572.77	1105.06
573.12	1101.85
573.47	1099.70
573.82	1099.70
574.18	1099.63
574.53	1098.58
574.88	1097.08
575.23	1099.79
575.58	1096.70
575.93	1089.99
576.28	1093.12
576.64	1091.95
576.99	1090.92
577.34	1094.74
577.69	1099.35
578.04	1093.59
578.39	1096.45
578.74	1096.59
579.09	1093.15
579.44	1090.71
579.80	1094.46
580.15	1092.37
580.50	1087.81
580.85	1089.14
581.20	1090.39
581.55	1089.61
581.90	1089.73
582.25	1091.20
582.60	1089.29
582.95	1088.93
583.30	1086.15
583.65	1083.71
584.00	1086.45
584.35	1088.96
584.71	1091.77
585.06	1090.50
585.41	1093.50
585.76	1089.89
586.11	1084.98
586.46	1082.33
586.81	1084.67
587.16	1083.27
587.51	1083.25
587.86	1085.96
588.21	1087.09
588.56	1086.83
588.91	1086.20
589.26	1089.22
589.61	1089.45
589.96	1089.71
590.31	1090.78
590.66	1092.68
591.01	1093.62
591.36	1093.83
591.71	1095.51
592.06	1097.62
592.41	1099.65
592.76	1098.39
593.10	1096.49
593.45	1094.81
593.80	1092.59
594.15	1089.10
594.50	1088.65
594.85	1090.53
595.20	1089.68
595.55	1087.60
595.90	1089.22
596.25	1087.81
596.60	1087.20
596.95	1089.40
597.30	1089.89
597.64	1095.75
597.99	1098.04
598.34	1097.03
598.69	1094.11
599.04	1093.97
599.39	1087.76
599.74	1086.48
600.09	1089.03
600.44	1087.90
600.78	1089.07
601.13	1085.05
601.48	1083.71
601.83	1082.57
602.18	1081.63
602.53	1082.80
602.88	1085.21
603.22	1085.84
603.57	1084.35
603.92	1085.17
604.27	1082.10
604.62	1080.39
604.97	1081.77
605.31	1085.14
605.66	1085.61
606.01	1084.72
606.36	1088.04
606.71	1088.91
607.05	1086.64
607.40	1085.40
607.75	1091.42
608.10	1090.41
608.44	1089.17
608.79	1089.26
609.14	1090.78
609.49	1088.07
609.84	1088.26
610.18	1086.85
610.53	1088.19
610.88	1088.19
611.23	1085.49
611.57	1085.38
611.92	1087.81
612.27	1087.44
612.62	1087.79
612.96	1088.84
613.31	1087.65
613.66	1086.92
614.00	1085.28
614.35	1085.07
614.70	1083.86
615.05	1083.69
615.39	1083.08
615.74	1084.67
616.09	1084.21
616.43	1085.73
616.78	1086.34
617.13	1083.41
617.47	1083.36
617.82	1082.90
618.17	1081.70
618.51	1080.06
618.86	1079.71
619.21	1080.20
619.55	1081.61
619.90	1082.15
620.25	1084.09
620.59	1083.64
620.94	1081.19
621.29	1081.14
621.63	1081.80
621.98	1079.17
622.32	1082.87
622.67	1082.36
623.02	1080.16
623.36	1079.41
623.71	1082.80
624.05	1080.30
624.40	1085.21
624.75	1087.62
625.09	1086.29
625.44	1084.09
625.78	1085.87
626.13	1083.67
626.48	1079.81
626.82	1083.11
627.17	1084.35
627.51	1083.15
627.86	1083.76
628.20	1086.73
628.55	1083.36
628.89	1082.76
629.24	1083.93
629.58	1081.23
629.93	1083.46
630.28	1083.93
630.62	1084.67
630.97	1083.62
631.31	1083.41
631.66	1083.62
632.00	1086.27
632.35	1084.89
632.69	1087.32
633.04	1086.27
633.38	1085.56
633.73	1083.67
634.07	1083.06
634.42	1084.07
634.76	1083.97
635.11	1081.16
635.45	1082.57
635.79	1084.28
636.14	1081.91
636.48	1085.68
636.83	1087.23
637.17	1086.43
637.52	1088.75
637.86	1087.97
638.21	1086.24
638.55	1087.09
638.89	1088.72
639.24	1087.09
639.58	1086.71
639.93	1087.95
640.27	1086.48
640.61	1085.99
640.96	1083.90
641.30	1086.97
641.65	1083.22
641.99	1083.41
642.33	1083.22
642.68	1086.48
643.02	1083.34
643.37	1084.96
643.71	1085.70
644.05	1085.84
644.40	1080.86
644.74	1081.33
645.08	1081.84
645.43	1081.82
645.77	1083.53
646.11	1086.64
646.46	1086.80
646.80	1085.73
647.14	1087.02
647.49	1086.71
647.83	1082.71
648.17	1080.88
648.52	1081.44
648.86	1078.36
649.20	1075.45
649.55	1078.64
649.89	1081.63
650.23	1082.24
650.57	1082.26
650.92	1082.61
651.26	1081.16
651.60	1080.16
651.95	1076.18
652.29	1076.62
652.63	1076.65
652.97	1079.78
653.32	1081.19
653.66	1086.69
654.00	1086.55
654.34	1087.18
654.69	1087.39
655.03	1086.52
655.37	1084.56
655.71	1086.55
656.05	1087.51
656.40	1087.44
656.74	1086.22
657.08	1089.31
657.42	1086.22
657.76	1086.43
658.11	1085.61
658.45	1086.69
658.79	1084.74
659.13	1085.00
659.47	1083.34
659.82	1081.84
660.16	1081.12
660.50	1079.95
660.84	1080.98
661.18	1079.69
661.52	1078.80
661.87	1081.77
662.21	1080.20
662.55	1078.96
662.89	1080.93
663.23	1082.03
663.57	1079.88
663.91	1083.01
664.25	1084.96
664.60	1081.96
664.94	1082.05
665.28	1080.77
665.62	1079.64
665.96	1081.12
666.30	1084.91
666.64	1083.97
666.98	1085.03
667.32	1085.73
667.66	1087.86
668.01	1088.33
668.35	1087.13
668.69	1087.93
669.03	1088.04
669.37	1083.46
669.71	1082.24
670.05	1086.76
670.39	1084.32
670.73	1084.32
671.07	1088.37
671.41	1089.17
671.75	1085.03
672.09	1084.18
672.43	1086.45
672.77	1087.30
673.11	1084.23
673.45	1084.81
673.79	1089.61
674.13	1085.91
674.47	1082.64
674.81	1084.86
675.15	1089.26
675.49	1085.80
675.83	1086.78
676.17	1084.67
676.51	1082.33
676.85	1079.85
677.19	1080.84
677.53	1080.18
677.87	1081.66
678.21	1084.96
678.55	1084.49
678.89	1083.76
679.23	1082.83
679.57	1082.85
679.90	1079.17
680.24	1082.47
680.58	1084.96
680.92	1087.27
681.26	1086.94
681.60	1087.93
681.94	1082.15
682.28	1084.77
682.62	1083.74
682.96	1084.70
683.29	1084.53
683.63	1088.14
683.97	1086.45
684.31	1087.69
684.65	1084.32
684.99	1083.39
685.33	1080.63
685.67	1077.28
686.00	1076.15
686.34	1078.03
686.68	1078.40
687.02	1078.68
687.36	1079.53
687.70	1078.52
688.03	1078.40
688.37	1082.36
688.71	1081.84
689.05	1079.27
689.39	1075.90
689.72	1073.53
690.06	1070.63
690.40	1070.84
690.74	1071.92
691.08	1078.14
691.41	1081.80
691.75	1083.57
692.09	1081.87
692.43	1084.93
692.76	1081.23
693.10	1079.27
693.44	1075.76
693.78	1081.09
694.11	1080.09
694.45	1080.18
694.79	1078.21
695.13	1078.80
695.46	1074.80
695.80	1077.37
696.14	1075.15
696.48	1076.79
696.81	1080.34
697.15	1083.18
697.49	1083.43
697.82	1087.18
698.16	1090.08
698.50	1090.53
698.83	1088.16
699.17	1084.96
699.51	1086.66
699.84	1084.86
700.18	1082.92
700.52	1085.82
700.85	1085.84
701.19	1081.28
701.53	1083.74
701.86	1084.67
702.20	1083.18
702.54	1084.98
702.87	1086.55
703.21	1086.15
703.55	1086.59
703.88	1087.30
704.22	1083.83
704.55	1086.57
704.89	1083.71
705.23	1082.31
705.56	1084.04
705.90	1083.60
706.23	1081.49
706.57	1083.88
706.91	1084.91
707.24	1082.05
707.58	1082.38
707.91	1082.78
708.25	1080.48
708.58	1079.03
708.92	1081.05
709.26	1080.44
709.59	1076.97
709.93	1076.13
710.26	1076.72
710.60	1077.30
710.93	1076.83
711.27	1080.23
711.60	1081.51
711.94	1081.05
712.27	1079.08
712.61	1082.61
712.94	1084.14
713.28	1083.18
713.61	1082.76
713.95	1083.41
714.28	1081.40
714.62	1080.23
714.95	1082.92
715.29	1083.15
715.62	1080.30
715.96	1081.94
716.29	1079.64
716.63	1079.53
716.96	1080.04
717.29	1081.56
717.63	1080.09
717.96	1084.70
718.30	1085.45
718.63	1083.50
718.97	1082.66
719.30	1083.01
719.63	1078.68
719.97	1079.50
720.30	1077.82
720.64	1079.17
720.97	1079.57
721.30	1083.32
721.64	1083.25
721.97	1086.99
722.31	1088.14
722.64	1087.25
722.97	1086.34
723.31	1084.72
723.64	1088.68
723.97	1089.36
724.31	1090.81
724.64	1089.57
724.98	1089.59
725.31	1083.69
725.64	1081.28
725.98	1081.91
726.31	1080.91
726.64	1081.80
726.97	1081.49
727.31	1080.18
727.64	1078.36
727.97	1079.83
728.31	1076.65
728.64	1078.19
728.97	1078.38
729.31	1078.05
729.64	1078.78
729.97	1080.20
730.30	1080.98
730.64	1082.97
730.97	1081.61
731.30	1079.85
731.63	1082.50
731.97	1080.67
732.30	1082.54
732.63	1084.65
732.96	1083.43
733.30	1078.17
733.63	1081.80
733.96	1078.87
734.29	1079.43
734.63	1079.62
734.96	1082.08
735.29	1080.41
735.62	1084.74
735.95	1088.02
736.29	1088.49
736.62	1087.67
736.95	1085.99
737.28	1082.29
737.61	1079.71
737.94	1081.73
738.28	1083.90
738.61	1083.43
738.94	1083.04
739.27	1078.99
739.60	1078.75
739.93	1077.75
740.27	1079.20
740.60	1078.66
740.93	1080.34
741.26	1078.68
741.59	1077.49
741.92	1078.47
742.25	1076.76
742.58	1078.26
742.91	1079.62
743.25	1080.51
743.58	1078.94
743.91	1081.00
744.24	1080.86
744.57	1080.77
744.90	1081.37
745.23	1084.35
745.56	1083.86
745.89	1083.46
746.22	1081.89
746.55	1080.70
746.88	1078.26
747.21	1080.11
747.54	1077.77
747.87	1079.99
748.20	1081.91
748.53	1082.15
748.87	1083.20
749.20	1085.03
749.53	1084.51
749.86	1084.81
750.19	1082.83
750.52	1080.79
750.85	1080.60
751.18	1079.46
751.51	1080.04
751.84	1081.82
752.16	1080.60
752.49	1081.77
752.82	1082.17
753.15	1080.77
753.48	1077.79
753.81	1078.68
754.14	1079.53
754.47	1078.24
754.80	1075.78
755.13	1079.71
755.46	1079.06
755.79	1077.93
756.12	1077.00
756.45	1079.27
756.78	1077.56
757.11	1077.72
757.43	1079.10
757.76	1079.67
758.09	1077.35
758.42	1076.41
758.75	1075.10
759.08	1074.59
759.41	1076.67
759.74	1076.67
760.07	1077.58
760.39	1079.57
760.72	1077.63
761.05	1076.83
761.38	1080.30
761.71	1080.77
762.04	1081.58
762.36	1082.03
762.69	1080.72
763.02	1083.29
763.35	1081.94
763.68	1081.33
764.01	1080.58
