SpectraSuite Data File
++++++++++++++++++++++++++++++++++++
Date: Mon Aug 26 10:22:29 PDT 2019
User: corrico
Dark Spectrum Present: No
Reference Spectrum Present: No
Number of Sampled Component Spectra: 1
Spectrometers: USB2+H06089
Integration Time (usec): 2000 (USB2+H06089)
Spectra Averaged: 20 (USB2+H06089)
Boxcar Smoothing: 2 (USB2+H06089)
Correct for Electrical Dark: No (USB2+H06089)
Strobe/Lamp Enabled: No (USB2+H06089)
Correct for Detector Non-linearity: No (USB2+H06089)
Correct for Stray Light: No (USB2+H06089)
Number of Pixels in Processed Spectrum: 2048
>>>>>Begin Processed Spectral Data<<<<<
339.70	1044.23
340.07	1044.23
340.45	1004.75
340.82	978.77
341.19	952.97
341.57	925.80
341.94	913.37
342.31	901.50
342.69	900.61
343.06	901.13
343.43	897.81
343.81	900.99
344.18	908.53
344.55	910.35
344.93	908.81
345.30	921.49
345.67	927.51
346.04	932.89
346.42	937.50
346.79	948.39
347.16	952.08
347.54	960.37
347.91	970.34
348.28	985.01
348.65	994.75
349.03	1004.25
349.40	1015.86
349.77	1024.31
350.14	1028.67
350.52	1035.10
350.89	1041.33
351.26	1046.34
351.63	1050.29
352.01	1055.61
352.38	1061.67
352.75	1065.29
353.12	1068.43
353.50	1072.83
353.87	1076.67
354.24	1079.20
354.61	1082.43
354.98	1085.14
355.36	1086.76
355.73	1086.29
356.10	1086.27
356.47	1086.48
356.84	1085.87
357.22	1084.70
357.59	1085.96
357.96	1085.70
358.33	1087.60
358.70	1089.26
359.08	1090.24
359.45	1087.55
359.82	1087.16
360.19	1082.59
360.56	1076.13
360.94	1071.45
361.31	1070.23
361.68	1069.27
362.05	1068.97
362.42	1071.19
362.79	1074.38
363.16	1076.13
363.54	1074.94
363.91	1075.97
364.28	1076.46
364.65	1077.21
365.02	1074.91
365.39	1075.52
365.76	1075.64
366.14	1074.45
366.51	1072.18
366.88	1071.99
367.25	1069.58
367.62	1071.08
367.99	1072.85
368.36	1076.95
368.73	1080.23
369.10	1081.42
369.48	1075.27
369.85	1073.23
370.22	1069.72
370.59	1069.88
370.96	1072.67
371.33	1076.88
371.70	1078.80
372.07	1079.06
372.44	1077.14
372.81	1076.58
373.18	1078.36
373.55	1079.90
373.93	1081.00
374.30	1083.39
374.67	1083.13
375.04	1084.81
375.41	1082.64
375.78	1080.93
376.15	1080.23
376.52	1081.07
376.89	1075.52
377.26	1074.73
377.63	1074.05
378.00	1074.38
378.37	1073.23
378.74	1078.24
379.11	1079.29
379.48	1082.73
379.85	1077.47
380.22	1079.34
380.59	1077.47
380.96	1078.87
381.33	1077.18
381.70	1081.82
382.07	1082.26
382.44	1081.91
382.81	1081.66
383.18	1081.98
383.55	1080.13
383.92	1079.90
384.29	1079.03
384.66	1079.53
385.03	1079.74
385.40	1083.34
385.77	1080.81
386.14	1083.22
386.51	1082.26
386.88	1083.04
387.25	1080.67
387.62	1081.82
387.99	1080.70
388.36	1082.90
388.73	1084.39
389.10	1087.83
389.46	1087.41
389.83	1088.09
390.20	1085.63
390.57	1083.39
390.94	1083.67
391.31	1083.69
391.68	1082.97
392.05	1084.46
392.42	1086.43
392.79	1084.14
393.16	1086.62
393.53	1087.51
393.89	1087.30
394.26	1087.16
394.63	1088.12
395.00	1088.93
395.37	1088.35
395.74	1088.82
396.11	1090.74
396.48	1090.17
396.84	1089.36
397.21	1091.93
397.58	1091.88
397.95	1087.23
398.32	1087.32
398.69	1085.54
399.06	1081.96
399.42	1081.26
399.79	1085.00
400.16	1089.00
400.53	1089.78
400.90	1093.05
401.27	1095.11
401.64	1093.92
402.00	1090.50
402.37	1090.67
402.74	1088.35
403.11	1086.83
403.48	1084.21
403.84	1085.14
404.21	1084.96
404.58	1086.52
404.95	1089.87
405.32	1090.99
405.68	1089.52
406.05	1091.84
406.42	1092.23
406.79	1092.42
407.16	1093.15
407.52	1094.72
407.89	1092.75
408.26	1096.03
408.63	1093.85
408.99	1098.90
409.36	1099.33
409.73	1100.45
410.10	1098.32
410.47	1097.85
410.83	1095.09
411.20	1097.64
411.57	1097.85
411.94	1096.82
412.30	1100.82
412.67	1102.02
413.04	1098.86
413.40	1099.44
413.77	1100.47
414.14	1099.23
414.51	1100.40
414.87	1104.05
415.24	1107.05
415.61	1106.93
415.97	1105.18
416.34	1102.51
416.71	1099.86
417.08	1099.02
417.44	1102.65
417.81	1102.49
418.18	1105.67
418.54	1106.93
418.91	1109.02
419.28	1109.23
419.64	1109.72
420.01	1109.20
420.38	1113.79
420.74	1112.69
421.11	1111.94
421.48	1116.86
421.84	1119.24
422.21	1118.78
422.58	1123.74
422.94	1129.29
423.31	1127.95
423.68	1135.65
424.04	1140.78
424.41	1141.55
424.77	1140.57
425.14	1148.36
425.51	1147.63
425.87	1149.37
426.24	1152.76
426.61	1159.29
426.97	1164.60
427.34	1169.28
427.70	1173.33
428.07	1179.37
428.44	1185.86
428.80	1193.37
429.17	1199.45
429.53	1213.12
429.90	1226.11
430.27	1236.06
430.63	1245.07
431.00	1260.03
431.36	1266.67
431.73	1273.04
432.09	1286.17
432.46	1298.41
432.83	1310.49
433.19	1328.25
433.56	1344.66
433.92	1362.07
434.29	1386.30
434.65	1409.77
435.02	1434.75
435.38	1462.44
435.75	1488.88
436.11	1515.99
436.48	1547.05
436.84	1578.93
437.21	1618.25
437.57	1657.82
437.94	1699.72
438.30	1743.63
438.67	1792.45
439.03	1841.86
439.40	1895.97
439.76	1953.43
440.13	2015.62
440.49	2079.24
440.86	2141.96
441.22	2212.44
441.59	2281.76
441.95	2362.09
442.32	2446.26
442.68	2545.10
443.05	2645.69
443.41	2751.32
443.78	2847.17
444.14	2951.25
444.51	3057.70
444.87	3192.14
445.24	3328.57
445.60	3482.65
445.96	3634.48
446.33	3814.04
446.69	3971.33
447.06	4146.98
447.42	4323.88
447.79	4516.06
448.15	4731.09
448.51	4962.50
448.88	5227.73
449.24	5476.74
449.61	5765.98
449.97	6040.76
450.33	6327.54
450.70	6584.47
451.06	6911.02
451.43	7205.71
451.79	7555.04
452.15	7952.65
452.52	8406.29
452.88	8871.43
453.24	9402.12
453.61	9985.87
453.97	10548.89
454.34	11083.79
454.70	11727.42
455.06	12365.24
455.43	12981.92
455.79	13579.93
456.15	14306.24
456.52	14951.23
456.88	15722.24
457.24	16442.19
457.61	17278.21
457.97	18037.74
458.33	18816.67
458.70	19576.26
459.06	20317.96
459.42	21145.20
459.79	21922.25
460.15	22819.08
460.51	23683.69
460.88	24654.45
461.24	25459.76
461.60	26428.51
461.96	27299.14
462.33	28141.24
462.69	28896.16
463.05	29730.40
463.42	30411.05
463.78	31040.77
464.14	31567.02
464.50	32161.70
464.87	32643.36
465.23	32992.96
465.59	33344.04
465.95	33661.49
466.32	33908.30
466.68	34114.99
467.04	34266.43
467.40	34401.59
467.77	34541.58
468.13	34519.20
468.49	34438.13
468.85	34365.03
469.22	34201.76
469.58	33839.68
469.94	33588.21
470.30	33273.27
470.66	32858.87
471.03	32269.60
471.39	31898.13
471.75	31273.00
472.11	30668.77
472.47	30310.50
472.84	30011.45
473.20	29528.10
473.56	29266.32
473.92	28843.92
474.28	28311.66
474.65	27801.16
475.01	27326.97
475.37	26731.00
475.73	26266.52
476.09	25742.31
476.45	25233.64
476.81	24715.64
477.18	24196.46
477.54	23757.98
477.90	23418.93
478.26	23006.48
478.62	22667.04
478.98	22392.28
479.34	22072.52
479.71	21656.32
480.07	21304.21
480.43	20967.99
480.79	20580.52
481.15	20224.71
481.51	19924.82
481.87	19679.27
482.23	19380.60
482.59	19133.81
482.96	18872.51
483.32	18565.95
483.68	18192.45
484.04	17853.42
484.40	17470.67
484.76	17096.02
485.12	16732.12
485.48	16422.44
485.84	16077.14
486.20	15741.20
486.56	15384.01
486.92	15084.54
487.28	14730.61
487.64	14373.84
488.00	14051.99
488.37	13727.15
488.73	13370.50
489.09	13021.03
489.45	12706.60
489.81	12380.57
490.17	12083.51
490.53	11792.23
490.89	11508.81
491.25	11217.67
491.61	10921.85
491.97	10592.49
492.33	10266.99
492.69	9958.60
493.05	9648.51
493.41	9355.17
493.77	9093.31
494.13	8845.42
494.49	8598.29
494.85	8364.37
495.21	8137.11
495.57	7919.23
495.93	7707.92
496.29	7505.54
496.64	7320.91
497.00	7135.54
497.36	6952.33
497.72	6769.20
498.08	6582.38
498.44	6402.07
498.80	6239.31
499.16	6083.43
499.52	5928.48
499.88	5811.29
500.24	5697.22
500.60	5571.41
500.96	5450.36
501.32	5335.63
501.68	5206.85
502.03	5070.63
502.39	4948.38
502.75	4808.63
503.11	4691.35
503.47	4572.96
503.83	4454.02
504.19	4328.56
504.55	4226.94
504.91	4122.17
505.26	4024.04
505.62	3941.91
505.98	3855.49
506.34	3764.75
506.70	3671.72
507.06	3586.17
507.42	3496.74
507.78	3425.28
508.13	3352.93
508.49	3276.94
508.85	3208.08
509.21	3141.65
509.57	3066.76
509.93	3001.62
510.28	2944.07
510.64	2874.90
511.00	2812.04
511.36	2756.64
511.72	2698.66
512.07	2648.39
512.43	2604.24
512.79	2552.49
513.15	2504.98
513.51	2462.10
513.86	2414.96
514.22	2371.92
514.58	2339.34
514.94	2302.85
515.30	2265.94
515.65	2231.19
516.01	2195.77
516.37	2161.65
516.73	2132.86
517.08	2102.06
517.44	2069.76
517.80	2044.69
518.16	2016.18
518.51	1984.24
518.87	1956.59
519.23	1930.54
519.59	1905.99
519.94	1882.68
520.30	1858.08
520.66	1836.81
521.01	1815.13
521.37	1790.02
521.73	1767.57
522.09	1751.63
522.44	1727.48
522.80	1709.04
523.16	1689.07
523.51	1667.73
523.87	1646.26
524.23	1625.34
524.58	1605.30
524.94	1587.47
525.30	1572.14
525.65	1554.00
526.01	1545.69
526.37	1533.21
526.72	1519.36
527.08	1507.12
527.44	1496.73
527.79	1481.09
528.15	1468.43
528.51	1452.84
528.86	1437.84
529.22	1422.86
529.58	1410.85
529.93	1402.03
530.29	1396.55
530.65	1388.12
531.00	1383.51
531.36	1375.70
531.71	1365.61
532.07	1353.20
532.43	1345.04
532.78	1335.86
533.14	1328.51
533.49	1322.26
533.85	1317.82
534.21	1310.96
534.56	1306.11
534.92	1301.34
535.27	1293.33
535.63	1288.30
535.98	1284.11
536.34	1277.75
536.69	1272.50
537.05	1266.23
537.41	1262.13
537.76	1252.35
538.12	1247.81
538.47	1240.81
538.83	1239.17
539.18	1234.52
539.54	1235.97
539.89	1234.09
540.25	1232.32
540.60	1227.61
540.96	1224.73
541.31	1217.62
541.67	1210.67
542.02	1205.35
542.38	1200.60
542.73	1197.42
543.09	1195.69
543.44	1195.71
543.80	1192.15
544.15	1189.20
544.51	1186.86
544.86	1187.75
545.22	1181.24
545.57	1180.73
545.93	1180.22
546.28	1174.93
546.64	1166.57
546.99	1167.69
547.35	1164.77
547.70	1161.72
548.05	1159.64
548.41	1159.41
548.76	1153.93
549.12	1152.55
549.47	1150.14
549.83	1148.99
550.18	1145.39
550.53	1141.62
550.89	1139.28
551.24	1138.34
551.60	1138.74
551.95	1138.79
552.30	1140.85
552.66	1139.44
553.01	1136.66
553.37	1135.21
553.72	1134.69
554.07	1133.59
554.43	1133.22
554.78	1132.68
555.13	1129.66
555.49	1130.53
555.84	1130.22
556.19	1128.93
556.55	1127.44
556.90	1124.72
557.26	1120.79
557.61	1119.53
557.96	1118.24
558.32	1116.34
558.67	1115.78
559.02	1115.45
559.37	1112.85
559.73	1111.75
560.08	1115.41
560.43	1115.17
560.79	1113.11
561.14	1116.22
561.49	1114.17
561.85	1109.18
562.20	1106.04
562.55	1105.86
562.90	1101.48
563.26	1102.65
563.61	1107.05
563.96	1111.12
564.32	1112.08
564.67	1114.45
565.02	1110.58
565.37	1106.44
565.73	1106.61
566.08	1104.52
566.43	1102.42
566.78	1107.75
567.14	1104.62
567.49	1103.45
567.84	1105.34
568.19	1107.10
568.54	1101.13
568.90	1104.01
569.25	1104.17
569.60	1103.73
569.95	1101.27
570.31	1103.23
570.66	1104.92
571.01	1103.12
571.36	1101.92
571.71	1102.65
572.06	1104.29
572.42	1101.06
572.77	1102.09
573.12	1100.64
573.47	1101.03
573.82	1101.97
574.18	1102.95
574.53	1101.48
574.88	1103.70
575.23	1101.69
575.58	1096.99
575.93	1098.11
576.28	1097.36
576.64	1096.47
576.99	1095.09
577.34	1098.65
577.69	1094.01
578.04	1093.50
578.39	1093.36
578.74	1093.62
579.09	1089.57
579.44	1090.88
579.80	1092.02
580.15	1090.64
580.50	1091.25
580.85	1093.15
581.20	1093.03
581.55	1092.23
581.90	1093.17
582.25	1092.63
582.60	1092.87
582.95	1092.73
583.30	1092.66
583.65	1093.59
584.00	1093.26
584.35	1089.05
584.71	1089.80
585.06	1089.10
585.41	1086.34
585.76	1082.66
586.11	1085.82
586.46	1083.06
586.81	1082.78
587.16	1085.54
587.51	1086.62
587.86	1085.73
588.21	1088.58
588.56	1090.74
588.91	1087.90
589.26	1089.52
589.61	1088.54
589.96	1082.29
590.31	1080.58
590.66	1079.20
591.01	1079.92
591.36	1078.28
591.71	1087.06
592.06	1084.65
592.41	1085.24
592.76	1084.89
593.10	1088.23
593.45	1082.54
593.80	1087.13
594.15	1089.92
594.50	1089.24
594.85	1089.66
595.20	1089.52
595.55	1087.86
595.90	1086.03
596.25	1085.49
596.60	1085.77
596.95	1088.28
597.30	1085.45
597.64	1094.34
597.99	1094.69
598.34	1092.37
598.69	1091.72
599.04	1091.58
599.39	1082.87
599.74	1081.87
600.09	1083.88
600.44	1085.45
600.78	1086.27
601.13	1085.10
601.48	1087.83
601.83	1086.90
602.18	1084.14
602.53	1084.96
602.88	1085.63
603.22	1082.85
603.57	1084.11
603.92	1085.05
604.27	1084.49
604.62	1083.60
604.97	1082.66
605.31	1082.57
605.66	1079.92
606.01	1078.94
606.36	1080.27
606.71	1083.01
607.05	1079.50
607.40	1081.61
607.75	1082.45
608.10	1079.29
608.44	1080.98
608.79	1080.95
609.14	1080.04
609.49	1079.97
609.84	1081.84
610.18	1080.79
610.53	1081.44
610.88	1086.48
611.23	1086.38
611.57	1084.37
611.92	1083.39
612.27	1084.16
612.62	1077.91
612.96	1076.20
613.31	1078.87
613.66	1080.09
614.00	1079.83
614.35	1081.77
614.70	1082.83
615.05	1081.84
615.39	1083.06
615.74	1083.62
616.09	1083.53
616.43	1083.01
616.78	1084.30
617.13	1080.65
617.47	1080.65
617.82	1083.46
618.17	1081.63
618.51	1082.01
618.86	1085.40
619.21	1086.10
619.55	1083.04
619.90	1086.92
620.25	1086.20
620.59	1084.14
620.94	1082.66
621.29	1082.50
621.63	1079.43
621.98	1077.72
622.32	1078.94
622.67	1082.38
623.02	1086.45
623.36	1088.12
623.71	1089.05
624.05	1089.89
624.40	1089.19
624.75	1085.42
625.09	1091.18
625.44	1094.34
625.78	1091.37
626.13	1089.17
626.48	1090.36
626.82	1086.41
627.17	1085.80
627.51	1086.20
627.86	1086.27
628.20	1085.00
628.55	1084.93
628.89	1079.85
629.24	1080.51
629.58	1081.44
629.93	1086.15
630.28	1084.58
630.62	1085.24
630.97	1084.96
631.31	1083.95
631.66	1078.52
632.00	1076.30
632.35	1076.69
632.69	1076.15
633.04	1074.28
633.38	1074.49
633.73	1079.03
634.07	1081.49
634.42	1080.70
634.76	1082.10
635.11	1084.91
635.45	1083.76
635.79	1083.18
636.14	1083.95
636.48	1085.96
636.83	1082.69
637.17	1081.58
637.52	1083.62
637.86	1085.12
638.21	1083.53
638.55	1083.20
638.89	1082.10
639.24	1079.74
639.58	1081.77
639.93	1081.94
640.27	1083.64
640.61	1085.38
640.96	1083.86
641.30	1079.01
641.65	1078.54
641.99	1079.78
642.33	1078.00
642.68	1080.72
643.02	1082.99
643.37	1080.95
643.71	1080.88
644.05	1080.65
644.40	1080.88
644.74	1078.43
645.08	1079.64
645.43	1079.22
645.77	1081.77
646.11	1081.94
646.46	1084.28
646.80	1087.65
647.14	1087.41
647.49	1086.31
647.83	1083.20
648.17	1079.74
648.52	1078.33
648.86	1078.61
649.20	1077.54
649.55	1077.91
649.89	1079.06
650.23	1079.78
650.57	1080.18
650.92	1081.26
651.26	1079.62
651.60	1079.17
651.95	1076.79
652.29	1074.68
652.63	1075.10
652.97	1078.03
653.32	1080.67
653.66	1081.49
654.00	1082.33
654.34	1084.86
654.69	1083.36
655.03	1083.53
655.37	1085.03
655.71	1083.60
656.05	1081.30
656.40	1084.18
656.74	1081.70
657.08	1079.67
657.42	1081.30
657.76	1082.01
658.11	1080.25
658.45	1083.50
658.79	1084.96
659.13	1083.01
659.47	1085.91
659.82	1085.49
660.16	1085.12
660.50	1085.73
660.84	1086.92
661.18	1081.94
661.52	1082.38
661.87	1083.41
662.21	1081.44
662.55	1080.98
662.89	1080.39
663.23	1077.70
663.57	1073.35
663.91	1075.90
664.25	1077.33
664.60	1080.27
664.94	1082.87
665.28	1083.81
665.62	1083.32
665.96	1081.94
666.30	1081.02
666.64	1080.88
666.98	1081.75
667.32	1082.26
667.66	1081.82
668.01	1082.36
668.35	1082.90
668.69	1083.88
669.03	1083.46
669.37	1089.05
669.71	1085.70
670.05	1086.57
670.39	1085.26
670.73	1084.98
671.07	1080.93
671.41	1085.03
671.75	1084.02
672.09	1083.67
672.43	1081.61
672.77	1080.72
673.11	1078.24
673.45	1078.40
673.79	1081.14
674.13	1085.89
674.47	1086.57
674.81	1086.76
675.15	1090.24
675.49	1088.70
675.83	1082.43
676.17	1082.76
676.51	1082.87
676.85	1080.09
677.19	1078.66
677.53	1081.91
677.87	1083.22
678.21	1083.06
678.55	1077.98
678.89	1076.58
679.23	1076.27
679.57	1074.82
679.90	1071.33
680.24	1076.34
680.58	1079.92
680.92	1078.96
681.26	1080.95
681.60	1085.26
681.94	1084.00
682.28	1082.03
682.62	1082.40
682.96	1082.01
683.29	1081.23
683.63	1082.71
683.97	1082.17
684.31	1080.74
684.65	1079.74
684.99	1080.53
685.33	1080.48
685.67	1079.69
686.00	1083.04
686.34	1083.32
686.68	1084.81
687.02	1085.68
687.36	1085.63
687.70	1083.81
688.03	1083.69
688.37	1079.74
688.71	1078.03
689.05	1079.92
689.39	1081.28
689.72	1080.63
690.06	1081.26
690.40	1083.64
690.74	1084.46
691.08	1081.70
691.41	1083.25
691.75	1085.77
692.09	1082.76
692.43	1083.20
692.76	1085.00
693.10	1081.40
693.44	1080.79
693.78	1083.04
694.11	1081.89
694.45	1082.05
694.79	1084.81
695.13	1085.56
695.46	1081.87
695.80	1079.85
696.14	1078.96
696.48	1079.74
696.81	1077.63
697.15	1078.33
697.49	1082.22
697.82	1083.60
698.16	1082.57
698.50	1080.41
698.83	1081.73
699.17	1080.41
699.51	1079.20
699.84	1079.57
700.18	1082.40
700.52	1084.21
700.85	1081.51
701.19	1083.25
701.53	1082.01
701.86	1081.07
702.20	1078.43
702.54	1080.58
702.87	1080.88
703.21	1079.31
703.55	1076.51
703.88	1077.75
704.22	1078.28
704.55	1076.83
704.89	1079.69
705.23	1084.98
705.56	1082.92
705.90	1080.44
706.23	1078.21
706.57	1077.09
706.91	1074.33
707.24	1076.41
707.58	1078.75
707.91	1077.86
708.25	1078.45
708.58	1081.47
708.92	1081.87
709.26	1082.03
709.59	1085.24
709.93	1085.00
710.26	1083.13
710.60	1083.64
710.93	1082.61
711.27	1084.23
711.60	1084.56
711.94	1084.89
712.27	1080.09
712.61	1081.70
712.94	1078.26
713.28	1077.54
713.61	1076.30
713.95	1080.06
714.28	1078.85
714.62	1079.50
714.95	1079.69
715.29	1078.54
715.62	1079.57
715.96	1079.88
716.29	1078.50
716.63	1079.01
716.96	1081.33
717.29	1079.34
717.63	1079.78
717.96	1081.28
718.30	1080.18
718.63	1082.61
718.97	1086.13
719.30	1083.27
719.63	1082.94
719.97	1084.51
720.30	1081.98
720.64	1077.63
720.97	1081.07
721.30	1083.04
721.64	1081.58
721.97	1085.24
722.31	1084.51
722.64	1081.07
722.97	1081.37
723.31	1083.01
723.64	1082.31
723.97	1083.67
724.31	1086.34
724.64	1084.04
724.98	1083.46
725.31	1080.48
725.64	1080.11
725.98	1082.03
726.31	1086.13
726.64	1082.24
726.97	1084.49
727.31	1085.24
727.64	1080.60
727.97	1077.84
728.31	1078.50
728.64	1075.66
728.97	1077.86
729.31	1079.38
729.64	1079.13
729.97	1081.63
730.30	1084.14
730.64	1081.35
730.97	1080.41
731.30	1080.72
731.63	1079.88
731.97	1079.03
732.30	1081.40
732.63	1079.46
732.96	1080.11
733.30	1082.38
733.63	1080.98
733.96	1080.44
734.29	1084.32
734.63	1085.19
734.96	1086.24
735.29	1087.90
735.62	1089.36
735.95	1088.86
736.29	1089.03
736.62	1086.87
736.95	1086.52
737.28	1085.52
737.61	1085.66
737.94	1082.66
738.28	1084.60
738.61	1083.08
738.94	1079.17
739.27	1079.55
739.60	1078.82
739.93	1077.96
740.27	1078.47
740.60	1081.33
740.93	1082.29
741.26	1083.29
741.59	1081.35
741.92	1082.71
742.25	1081.96
742.58	1082.10
742.91	1079.69
743.25	1078.19
743.58	1077.42
743.91	1077.47
744.24	1076.74
744.57	1079.78
744.90	1081.77
745.23	1082.19
745.56	1084.04
745.89	1082.80
746.22	1081.87
746.55	1080.48
746.88	1080.04
747.21	1076.23
747.54	1075.80
747.87	1074.63
748.20	1073.79
748.53	1073.35
748.87	1075.52
749.20	1076.30
749.53	1078.73
749.86	1079.29
750.19	1076.34
750.52	1074.40
750.85	1072.90
751.18	1070.72
751.51	1072.81
751.84	1071.78
752.16	1076.20
752.49	1078.64
752.82	1079.95
753.15	1077.23
753.48	1079.85
753.81	1078.07
754.14	1076.08
754.47	1078.38
754.80	1077.70
755.13	1079.53
755.46	1078.26
755.79	1077.86
756.12	1075.10
756.45	1075.59
756.78	1075.55
757.11	1074.61
757.43	1075.66
757.76	1077.37
758.09	1078.40
758.42	1073.91
758.75	1074.56
759.08	1074.28
759.41	1074.63
759.74	1077.18
760.07	1079.83
760.39	1080.74
760.72	1083.90
761.05	1080.41
761.38	1078.38
761.71	1079.17
762.04	1076.25
762.36	1070.82
762.69	1072.88
763.02	1073.21
763.35	1072.04
763.68	1073.02
764.01	1073.28
