SpectraSuite Data File
++++++++++++++++++++++++++++++++++++
Date: Mon Aug 26 10:22:17 PDT 2019
User: corrico
Dark Spectrum Present: No
Reference Spectrum Present: No
Number of Sampled Component Spectra: 1
Spectrometers: USB2+H06089
Integration Time (usec): 2000 (USB2+H06089)
Spectra Averaged: 20 (USB2+H06089)
Boxcar Smoothing: 2 (USB2+H06089)
Correct for Electrical Dark: No (USB2+H06089)
Strobe/Lamp Enabled: No (USB2+H06089)
Correct for Detector Non-linearity: No (USB2+H06089)
Correct for Stray Light: No (USB2+H06089)
Number of Pixels in Processed Spectrum: 2048
>>>>>Begin Processed Spectral Data<<<<<
339.70	1039.90
340.07	1039.90
340.45	999.50
340.82	978.62
341.19	953.44
341.57	926.83
341.94	917.77
342.31	908.67
342.69	902.74
343.06	899.77
343.43	898.58
343.81	896.17
344.18	899.07
344.55	899.40
344.93	904.13
345.30	910.70
345.67	920.77
346.04	931.30
346.42	940.31
346.79	948.34
347.16	956.25
347.54	965.05
347.91	971.04
348.28	982.70
348.65	992.81
349.03	1000.63
349.40	1011.49
349.77	1020.45
350.14	1026.68
350.52	1029.91
350.89	1039.57
351.26	1044.32
351.63	1049.94
352.01	1054.50
352.38	1062.79
352.75	1067.71
353.12	1069.27
353.50	1073.21
353.87	1077.21
354.24	1079.83
354.61	1080.74
354.98	1084.89
355.36	1085.68
355.73	1087.11
356.10	1088.84
356.47	1089.52
356.84	1087.79
357.22	1091.06
357.59	1091.51
357.96	1091.84
358.33	1088.84
358.70	1090.85
359.08	1087.37
359.45	1083.11
359.82	1078.24
360.19	1078.43
360.56	1077.42
360.94	1078.61
361.31	1076.60
361.68	1078.38
362.05	1076.69
362.42	1073.77
362.79	1073.21
363.16	1074.61
363.54	1074.82
363.91	1076.55
364.28	1077.28
364.65	1079.01
365.02	1078.75
365.39	1078.92
365.76	1076.90
366.14	1076.93
366.51	1073.30
366.88	1074.84
367.25	1072.22
367.62	1072.88
367.99	1074.28
368.36	1074.07
368.73	1076.69
369.10	1078.12
369.48	1077.44
369.85	1077.91
370.22	1077.25
370.59	1072.69
370.96	1071.61
371.33	1074.26
371.70	1071.47
372.07	1074.96
372.44	1074.45
372.81	1078.36
373.18	1078.87
373.55	1078.87
373.93	1077.30
374.30	1080.63
374.67	1076.97
375.04	1076.08
375.41	1076.53
375.78	1076.93
376.15	1077.11
376.52	1074.89
376.89	1074.05
377.26	1073.30
377.63	1072.60
378.00	1070.77
378.37	1075.90
378.74	1075.29
379.11	1077.96
379.48	1078.78
379.85	1082.57
380.22	1080.84
380.59	1084.84
380.96	1083.29
381.33	1081.98
381.70	1077.04
382.07	1078.21
382.44	1075.85
382.81	1076.01
383.18	1076.88
383.55	1080.23
383.92	1081.35
384.29	1079.27
384.66	1080.81
385.03	1083.64
385.40	1084.14
385.77	1083.08
386.14	1085.07
386.51	1083.81
386.88	1080.70
387.25	1079.69
387.62	1079.41
387.99	1080.74
388.36	1084.56
388.73	1083.22
389.10	1085.10
389.46	1082.50
389.83	1082.40
390.20	1083.04
390.57	1085.38
390.94	1083.20
391.31	1087.79
391.68	1085.75
392.05	1083.04
392.42	1083.88
392.79	1086.06
393.16	1084.65
393.53	1084.39
393.89	1084.89
394.26	1085.28
394.63	1082.80
395.00	1083.39
395.37	1085.45
395.74	1083.81
396.11	1085.17
396.48	1089.17
396.84	1088.75
397.21	1086.59
397.58	1087.51
397.95	1086.52
398.32	1084.21
398.69	1085.03
399.06	1090.41
399.42	1090.50
399.79	1090.76
400.16	1091.51
400.53	1090.64
400.90	1088.33
401.27	1092.87
401.64	1093.76
402.00	1093.01
402.37	1096.07
402.74	1092.09
403.11	1086.50
403.48	1085.00
403.84	1086.64
404.21	1084.46
404.58	1087.30
404.95	1091.72
405.32	1094.25
405.68	1093.76
406.05	1097.10
406.42	1099.09
406.79	1099.26
407.16	1097.66
407.52	1096.59
407.89	1093.22
408.26	1094.15
408.63	1091.88
408.99	1089.29
409.36	1087.20
409.73	1088.26
410.10	1086.24
410.47	1087.83
410.83	1088.33
411.20	1094.04
411.57	1095.86
411.94	1096.87
412.30	1096.05
412.67	1099.54
413.04	1099.02
413.40	1100.24
413.77	1101.01
414.14	1105.08
414.51	1103.09
414.87	1103.49
415.24	1102.91
415.61	1102.16
415.97	1097.34
416.34	1102.70
416.71	1102.02
417.08	1103.16
417.44	1103.45
417.81	1106.86
418.18	1106.18
418.54	1111.75
418.91	1113.42
419.28	1114.75
419.64	1118.50
420.01	1117.72
420.38	1114.12
420.74	1113.32
421.11	1115.52
421.48	1116.60
421.84	1119.41
422.21	1121.30
422.58	1124.16
422.94	1125.10
423.31	1126.01
423.68	1129.75
424.04	1130.57
424.41	1135.82
424.77	1142.37
425.14	1145.76
425.51	1148.03
425.87	1155.03
426.24	1155.41
426.61	1159.55
426.97	1163.43
427.34	1168.04
427.70	1172.49
428.07	1180.05
428.44	1187.52
428.80	1196.44
429.17	1209.68
429.53	1223.59
429.90	1234.80
430.27	1243.34
430.63	1250.13
431.00	1257.94
431.36	1264.31
431.73	1273.20
432.09	1284.91
432.46	1302.63
432.83	1318.75
433.19	1333.92
433.56	1352.10
433.92	1372.77
434.29	1392.92
434.65	1412.70
435.02	1441.02
435.38	1468.73
435.75	1496.61
436.11	1526.22
436.48	1558.70
436.84	1590.37
437.21	1621.78
437.57	1657.10
437.94	1698.97
438.30	1741.99
438.67	1787.54
439.03	1839.50
439.40	1892.14
439.76	1943.98
440.13	2001.58
440.49	2063.60
440.86	2126.82
441.22	2201.51
441.59	2277.86
441.95	2358.60
442.32	2444.81
442.68	2536.72
443.05	2630.13
443.41	2724.64
443.78	2823.32
444.14	2925.97
444.51	3036.52
444.87	3172.69
445.24	3309.35
445.60	3463.38
445.96	3624.11
446.33	3799.79
446.69	3958.45
447.06	4136.83
447.42	4316.51
447.79	4502.98
448.15	4718.19
448.51	4947.42
448.88	5209.24
449.24	5450.62
449.61	5729.40
449.97	5994.79
450.33	6275.00
450.70	6533.86
451.06	6857.25
451.43	7154.32
451.79	7522.95
452.15	7913.61
452.52	8354.54
452.88	8820.80
453.24	9352.52
453.61	9910.46
453.97	10459.85
454.34	10990.06
454.70	11618.47
455.06	12255.98
455.43	12867.94
455.79	13471.16
456.15	14189.54
456.52	14837.59
456.88	15594.76
457.24	16325.28
457.61	17181.22
457.97	17950.95
458.33	18739.19
458.70	19492.15
459.06	20241.42
459.42	21054.97
459.79	21830.86
460.15	22723.68
460.51	23576.15
460.88	24499.37
461.24	25280.88
461.60	26221.33
461.96	27078.69
462.33	27928.56
462.69	28733.24
463.05	29601.43
463.42	30337.88
463.78	30998.73
464.14	31529.01
464.50	32111.73
464.87	32580.16
465.23	32923.73
465.59	33266.31
465.95	33594.60
466.32	33850.37
466.68	34050.93
467.04	34181.02
467.40	34310.66
467.77	34449.27
468.13	34419.19
468.49	34353.21
468.85	34298.26
469.22	34159.23
469.58	33845.25
469.94	33615.80
470.30	33321.48
470.66	32907.91
471.03	32308.59
471.39	31902.51
471.75	31286.64
472.11	30714.05
472.47	30375.05
472.84	30086.72
473.20	29633.99
473.56	29387.02
473.92	28945.64
474.28	28422.37
474.65	27931.77
475.01	27459.73
475.37	26883.60
475.73	26430.13
476.09	25932.06
476.45	25429.48
476.81	24919.31
477.18	24391.17
477.54	23960.56
477.90	23583.19
478.26	23145.07
478.62	22786.82
478.98	22479.72
479.34	22134.82
479.71	21720.24
480.07	21372.16
480.43	21000.48
480.79	20605.98
481.15	20247.65
481.51	19929.52
481.87	19675.78
482.23	19397.14
482.59	19145.86
482.96	18862.07
483.32	18580.11
483.68	18196.45
484.04	17855.92
484.40	17509.15
484.76	17148.94
485.12	16791.61
485.48	16471.26
485.84	16119.46
486.20	15743.52
486.56	15378.79
486.92	15056.10
487.28	14727.03
487.64	14382.19
488.00	14079.31
488.37	13772.93
488.73	13418.95
489.09	13074.23
489.45	12776.59
489.81	12456.45
490.17	12156.63
490.53	11881.89
490.89	11582.28
491.25	11276.82
491.61	10977.56
491.97	10669.22
492.33	10342.24
492.69	10053.30
493.05	9752.66
493.41	9468.10
493.77	9186.74
494.13	8933.29
494.49	8670.44
494.85	8428.92
495.21	8189.35
495.57	7970.51
495.93	7748.06
496.29	7544.53
496.64	7360.52
497.00	7174.98
497.36	6985.05
497.72	6798.76
498.08	6618.99
498.44	6434.62
498.80	6256.28
499.16	6088.93
499.52	5937.78
499.88	5798.91
500.24	5676.95
500.60	5562.07
500.96	5444.72
501.32	5324.63
501.68	5203.57
502.03	5070.56
502.39	4948.27
502.75	4822.00
503.11	4701.15
503.47	4587.24
503.83	4471.52
504.19	4347.40
504.55	4247.46
504.91	4154.31
505.26	4061.09
505.62	3980.36
505.98	3897.09
506.34	3796.54
506.70	3700.93
507.06	3606.98
507.42	3520.54
507.78	3444.17
508.13	3369.27
508.49	3293.58
508.85	3228.58
509.21	3161.27
509.57	3090.28
509.93	3029.52
510.28	2963.91
510.64	2894.99
511.00	2822.08
511.36	2760.15
511.72	2700.72
512.07	2652.76
512.43	2602.63
512.79	2557.95
513.15	2509.38
513.51	2462.15
513.86	2415.01
514.22	2377.49
514.58	2337.21
514.94	2301.73
515.30	2268.75
515.65	2235.05
516.01	2200.27
516.37	2174.12
516.73	2147.63
517.08	2114.58
517.44	2086.82
517.80	2057.64
518.16	2027.84
518.51	1997.83
518.87	1971.20
519.23	1941.92
519.59	1913.97
519.94	1883.85
520.30	1857.19
520.66	1833.53
521.01	1813.12
521.37	1792.45
521.73	1774.41
522.09	1755.80
522.44	1736.49
522.80	1713.95
523.16	1693.17
523.51	1671.96
523.87	1651.27
524.23	1634.28
524.58	1615.39
524.94	1599.01
525.30	1581.27
525.65	1567.83
526.01	1548.29
526.37	1533.64
526.72	1519.41
527.08	1505.62
527.44	1487.95
527.79	1476.74
528.15	1465.13
528.51	1451.37
528.86	1439.10
529.22	1431.64
529.58	1420.05
529.93	1409.68
530.29	1400.44
530.65	1395.85
531.00	1385.88
531.36	1375.53
531.71	1364.81
532.07	1353.81
532.43	1343.63
532.78	1333.36
533.14	1329.73
533.49	1326.31
533.85	1322.54
534.21	1315.12
534.56	1308.92
534.92	1302.41
535.27	1296.49
535.63	1291.53
535.98	1284.28
536.34	1274.42
536.69	1269.67
537.05	1260.78
537.41	1252.42
537.76	1248.07
538.12	1247.39
538.47	1241.96
538.83	1235.03
539.18	1232.03
539.54	1226.44
539.89	1222.84
540.25	1218.23
540.60	1215.21
540.96	1212.28
541.31	1207.69
541.67	1205.59
542.02	1201.19
542.38	1199.20
542.73	1196.60
543.09	1195.76
543.44	1191.38
543.80	1188.45
544.15	1185.72
544.51	1180.40
544.86	1179.61
545.22	1178.25
545.57	1178.79
545.93	1178.20
546.28	1177.50
546.64	1173.01
546.99	1169.80
547.35	1166.62
547.70	1166.15
548.05	1166.78
548.41	1162.59
548.76	1162.17
549.12	1158.54
549.47	1154.33
549.83	1152.34
550.18	1152.53
550.53	1148.41
550.89	1147.99
551.24	1145.76
551.60	1141.74
551.95	1140.68
552.30	1138.62
552.66	1136.61
553.01	1135.89
553.37	1132.96
553.72	1126.76
554.07	1127.60
554.43	1127.44
554.78	1128.16
555.13	1129.82
555.49	1133.99
555.84	1132.35
556.19	1130.60
556.55	1124.07
556.90	1124.91
557.26	1121.44
557.61	1118.87
557.96	1116.30
558.32	1124.07
558.67	1120.81
559.02	1120.27
559.37	1118.40
559.73	1120.41
560.08	1113.11
560.43	1109.58
560.79	1109.04
561.14	1110.49
561.49	1110.30
561.85	1111.66
562.20	1109.95
562.55	1110.56
562.90	1107.68
563.26	1105.11
563.61	1103.54
563.96	1106.96
564.32	1106.46
564.67	1108.31
565.02	1108.74
565.37	1107.82
565.73	1106.39
566.08	1107.28
566.43	1108.06
566.78	1105.51
567.14	1107.12
567.49	1109.39
567.84	1108.01
568.19	1108.20
568.54	1111.92
568.90	1109.91
569.25	1107.73
569.60	1107.73
569.95	1106.75
570.31	1103.80
570.66	1099.93
571.01	1098.62
571.36	1097.62
571.71	1096.10
572.06	1093.69
572.42	1094.83
572.77	1097.22
573.12	1095.44
573.47	1096.42
573.82	1099.91
574.18	1101.15
574.53	1099.28
574.88	1103.66
575.23	1100.57
575.58	1098.74
575.93	1099.61
576.28	1101.90
576.64	1099.40
576.99	1102.95
577.34	1103.21
577.69	1102.42
578.04	1099.70
578.39	1095.93
578.74	1091.88
579.09	1092.98
579.44	1093.33
579.80	1093.05
580.15	1094.55
580.50	1096.00
580.85	1093.38
581.20	1090.62
581.55	1090.32
581.90	1091.20
582.25	1088.75
582.60	1089.80
582.95	1093.59
583.30	1091.04
583.65	1090.97
584.00	1090.57
584.35	1088.02
584.71	1089.00
585.06	1087.95
585.41	1083.57
585.76	1085.96
586.11	1086.90
586.46	1084.60
586.81	1086.06
587.16	1089.00
587.51	1089.78
587.86	1092.66
588.21	1093.31
588.56	1093.33
588.91	1093.40
589.26	1087.13
589.61	1081.75
589.96	1078.19
590.31	1080.91
590.66	1079.15
591.01	1087.58
591.36	1087.34
591.71	1088.37
592.06	1083.74
592.41	1083.11
592.76	1078.03
593.10	1080.27
593.45	1079.27
593.80	1080.25
594.15	1080.02
594.50	1079.90
594.85	1079.88
595.20	1082.19
595.55	1083.81
595.90	1085.73
596.25	1087.97
596.60	1086.85
596.95	1085.75
597.30	1083.48
597.64	1093.38
597.99	1095.04
598.34	1096.92
598.69	1098.76
599.04	1100.36
599.39	1092.49
599.74	1088.96
600.09	1088.30
600.44	1088.84
600.78	1086.94
601.13	1087.13
601.48	1088.30
601.83	1086.66
602.18	1084.21
602.53	1087.02
602.88	1087.51
603.22	1092.75
603.57	1093.83
603.92	1092.52
604.27	1089.71
604.62	1088.35
604.97	1084.28
605.31	1086.03
605.66	1086.99
606.01	1089.66
606.36	1090.17
606.71	1090.85
607.05	1087.13
607.40	1089.17
607.75	1087.48
608.10	1082.99
608.44	1080.23
608.79	1081.73
609.14	1083.81
609.49	1084.89
609.84	1086.38
610.18	1083.29
610.53	1082.66
610.88	1076.32
611.23	1080.09
611.57	1082.71
611.92	1087.83
612.27	1089.66
612.62	1094.62
612.96	1092.37
613.31	1091.11
613.66	1092.47
614.00	1093.55
614.35	1091.04
614.70	1087.86
615.05	1088.14
615.39	1085.66
615.74	1083.48
616.09	1083.06
616.43	1084.44
616.78	1083.50
617.13	1085.12
617.47	1082.73
617.82	1082.85
618.17	1082.87
618.51	1085.45
618.86	1082.87
619.21	1084.89
619.55	1085.45
619.90	1084.91
620.25	1084.18
620.59	1086.57
620.94	1086.78
621.29	1086.24
621.63	1087.48
621.98	1088.37
622.32	1088.72
622.67	1091.93
623.02	1090.81
623.36	1092.47
623.71	1089.64
624.05	1089.80
624.40	1087.58
624.75	1089.29
625.09	1087.32
625.44	1085.94
625.78	1082.40
626.13	1082.10
626.48	1084.74
626.82	1087.23
627.17	1089.52
627.51	1089.45
627.86	1090.78
628.20	1087.76
628.55	1083.90
628.89	1083.81
629.24	1086.57
629.58	1082.99
629.93	1084.98
630.28	1086.29
630.62	1085.80
630.97	1084.86
631.31	1085.87
631.66	1086.13
632.00	1090.46
632.35	1092.84
632.69	1092.63
633.04	1091.56
633.38	1090.39
633.73	1082.03
634.07	1079.62
634.42	1078.38
634.76	1081.05
635.11	1081.49
635.45	1084.89
635.79	1084.30
636.14	1085.21
636.48	1083.06
636.83	1081.56
637.17	1082.71
637.52	1083.22
637.86	1081.30
638.21	1079.74
638.55	1078.59
638.89	1076.60
639.24	1075.57
639.58	1081.35
639.93	1083.69
640.27	1083.11
640.61	1084.42
640.96	1085.77
641.30	1083.71
641.65	1083.88
641.99	1086.55
642.33	1087.44
642.68	1085.40
643.02	1082.26
643.37	1083.90
643.71	1081.02
644.05	1079.50
644.40	1079.36
644.74	1079.92
645.08	1076.76
645.43	1075.48
645.77	1077.54
646.11	1075.99
646.46	1075.24
646.80	1075.78
647.14	1077.02
647.49	1075.52
647.83	1079.06
648.17	1084.77
648.52	1085.59
648.86	1088.14
649.20	1087.25
649.55	1089.00
649.89	1086.66
650.23	1092.33
650.57	1093.05
650.92	1092.30
651.26	1091.20
651.60	1087.60
651.95	1081.75
652.29	1080.32
652.63	1083.90
652.97	1081.96
653.32	1081.54
653.66	1081.19
654.00	1082.10
654.34	1080.18
654.69	1083.53
655.03	1081.42
655.37	1081.56
655.71	1078.96
656.05	1076.72
656.40	1076.27
656.74	1080.84
657.08	1080.51
657.42	1081.54
657.76	1080.93
658.11	1080.84
658.45	1077.68
658.79	1079.24
659.13	1082.19
659.47	1086.03
659.82	1087.18
660.16	1088.37
660.50	1087.67
660.84	1085.99
661.18	1084.39
661.52	1080.63
661.87	1080.53
662.21	1081.82
662.55	1077.96
662.89	1075.62
663.23	1073.67
663.57	1077.70
663.91	1077.28
664.25	1079.43
664.60	1081.16
664.94	1081.98
665.28	1082.36
665.62	1081.68
665.96	1084.84
666.30	1084.58
666.64	1090.27
666.98	1087.30
667.32	1087.48
667.66	1086.97
668.01	1087.90
668.35	1083.74
668.69	1083.69
669.03	1080.88
669.37	1077.70
669.71	1074.07
670.05	1074.73
670.39	1075.78
670.73	1077.96
671.07	1077.82
671.41	1082.24
671.75	1082.10
672.09	1082.83
672.43	1083.50
672.77	1083.76
673.11	1084.35
673.45	1082.38
673.79	1082.08
674.13	1081.51
674.47	1083.18
674.81	1082.08
675.15	1083.25
675.49	1081.00
675.83	1079.97
676.17	1077.93
676.51	1078.40
676.85	1080.67
677.19	1082.73
677.53	1082.54
677.87	1083.27
678.21	1084.04
678.55	1084.00
678.89	1082.83
679.23	1082.54
679.57	1082.59
679.90	1083.69
680.24	1084.96
680.58	1082.73
680.92	1082.80
681.26	1082.92
681.60	1079.01
681.94	1078.17
682.28	1079.69
682.62	1082.40
682.96	1082.52
683.29	1080.77
683.63	1080.93
683.97	1082.19
684.31	1082.24
684.65	1081.84
684.99	1085.70
685.33	1085.59
685.67	1084.32
686.00	1082.57
686.34	1082.92
686.68	1081.70
687.02	1081.33
687.36	1081.77
687.70	1081.26
688.03	1078.54
688.37	1077.09
688.71	1076.88
689.05	1077.25
689.39	1079.43
689.72	1084.39
690.06	1087.39
690.40	1087.48
690.74	1085.17
691.08	1083.83
691.41	1081.42
691.75	1079.62
692.09	1077.02
692.43	1078.12
692.76	1078.21
693.10	1078.26
693.44	1080.25
693.78	1081.89
694.11	1081.21
694.45	1078.24
694.79	1077.18
695.13	1075.13
695.46	1076.97
695.80	1079.55
696.14	1084.28
696.48	1088.68
696.81	1090.20
697.15	1090.62
697.49	1090.88
697.82	1090.85
698.16	1086.01
698.50	1079.60
698.83	1079.55
699.17	1080.37
699.51	1081.56
699.84	1085.99
700.18	1090.43
700.52	1087.04
700.85	1086.36
701.19	1085.24
701.53	1082.94
701.86	1084.23
702.20	1086.17
702.54	1084.07
702.87	1082.24
703.21	1085.12
703.55	1082.19
703.88	1080.37
704.22	1078.68
704.55	1075.50
704.89	1074.82
705.23	1078.75
705.56	1079.76
705.90	1080.51
706.23	1083.57
706.57	1081.94
706.91	1081.09
707.24	1080.37
707.58	1081.94
707.91	1081.82
708.25	1081.07
708.58	1080.02
708.92	1082.10
709.26	1080.60
709.59	1080.18
709.93	1080.11
710.26	1080.13
710.60	1079.13
710.93	1080.44
711.27	1079.17
711.60	1082.57
711.94	1081.94
712.27	1080.77
712.61	1081.00
712.94	1079.71
713.28	1076.25
713.61	1076.41
713.95	1075.43
714.28	1072.57
714.62	1074.19
714.95	1073.98
715.29	1073.88
715.62	1074.59
715.96	1076.90
716.29	1078.82
716.63	1080.65
716.96	1080.58
717.29	1082.31
717.63	1083.60
717.96	1082.19
718.30	1080.13
718.63	1081.70
718.97	1079.01
719.30	1078.82
719.63	1081.96
719.97	1083.74
720.30	1081.56
720.64	1080.77
720.97	1082.47
721.30	1075.59
721.64	1072.81
721.97	1074.87
722.31	1073.65
722.64	1072.71
722.97	1076.15
723.31	1078.19
723.64	1078.31
723.97	1081.89
724.31	1078.82
724.64	1079.74
724.98	1077.44
725.31	1074.59
725.64	1072.48
725.98	1076.15
726.31	1079.10
726.64	1082.29
726.97	1085.89
727.31	1086.03
727.64	1082.40
727.97	1080.44
728.31	1080.30
728.64	1078.87
728.97	1081.54
729.31	1082.05
729.64	1078.82
729.97	1076.48
730.30	1075.08
730.64	1072.48
730.97	1069.98
731.30	1073.51
731.63	1074.84
731.97	1075.05
732.30	1075.90
732.63	1080.67
732.96	1078.99
733.30	1078.07
733.63	1078.24
733.96	1076.83
734.29	1077.58
734.63	1079.22
734.96	1076.53
735.29	1077.58
735.62	1078.96
735.95	1076.74
736.29	1076.13
736.62	1081.70
736.95	1086.73
737.28	1088.68
737.61	1088.56
737.94	1088.35
738.28	1084.37
738.61	1081.54
738.94	1080.02
739.27	1075.97
739.60	1078.73
739.93	1079.97
740.27	1077.91
740.60	1076.27
740.93	1080.27
741.26	1074.91
741.59	1074.94
741.92	1076.72
742.25	1079.01
742.58	1080.16
742.91	1080.11
743.25	1078.78
743.58	1080.13
743.91	1077.65
744.24	1077.14
744.57	1082.78
744.90	1085.68
745.23	1083.01
745.56	1082.43
745.89	1082.87
746.22	1079.36
746.55	1081.47
746.88	1083.04
747.21	1084.98
747.54	1083.57
747.87	1083.15
748.20	1081.87
748.53	1084.30
748.87	1087.34
749.20	1090.88
749.53	1092.21
749.86	1089.36
750.19	1083.88
750.52	1081.73
750.85	1079.67
751.18	1080.60
751.51	1083.18
751.84	1082.99
752.16	1083.55
752.49	1083.20
752.82	1082.45
753.15	1080.25
753.48	1081.12
753.81	1076.34
754.14	1074.80
754.47	1073.30
754.80	1074.94
755.13	1075.52
755.46	1078.61
755.79	1076.37
756.12	1077.58
756.45	1080.81
756.78	1078.92
757.11	1081.07
757.43	1084.65
757.76	1082.61
758.09	1079.10
758.42	1081.14
758.75	1078.50
759.08	1079.17
759.41	1077.70
759.74	1075.94
760.07	1073.46
760.39	1075.41
760.72	1073.81
761.05	1075.92
761.38	1076.74
761.71	1079.08
762.04	1079.50
762.36	1082.76
762.69	1083.74
763.02	1084.02
763.35	1084.86
763.68	1084.65
764.01	1079.78
