SpectraSuite Data File
++++++++++++++++++++++++++++++++++++
Date: Mon Aug 26 10:22:03 PDT 2019
User: corrico
Dark Spectrum Present: No
Reference Spectrum Present: No
Number of Sampled Component Spectra: 1
Spectrometers: USB2+H06089
Integration Time (usec): 2000 (USB2+H06089)
Spectra Averaged: 20 (USB2+H06089)
Boxcar Smoothing: 2 (USB2+H06089)
Correct for Electrical Dark: No (USB2+H06089)
Strobe/Lamp Enabled: No (USB2+H06089)
Correct for Detector Non-linearity: No (USB2+H06089)
Correct for Stray Light: No (USB2+H06089)
Number of Pixels in Processed Spectrum: 2048
>>>>>Begin Processed Spectral Data<<<<<
339.70	1011.70
340.07	1011.70
340.45	985.76
340.82	970.20
341.19	950.26
341.57	928.05
341.94	914.82
342.31	907.59
342.69	899.63
343.06	897.74
343.43	896.00
343.81	897.67
344.18	900.54
344.55	902.98
344.93	907.14
345.30	916.25
345.67	922.57
346.04	928.30
346.42	938.98
346.79	946.00
347.16	950.91
347.54	957.96
347.91	969.29
348.28	976.92
348.65	988.06
349.03	999.88
349.40	1012.91
349.77	1019.54
350.14	1025.27
350.52	1027.42
350.89	1034.33
351.26	1038.38
351.63	1043.48
352.01	1051.81
352.38	1057.92
352.75	1062.86
353.12	1068.59
353.50	1073.93
353.87	1075.73
354.24	1082.03
354.61	1081.91
354.98	1081.14
355.36	1081.66
355.73	1083.79
356.10	1082.90
356.47	1083.27
356.84	1084.93
357.22	1084.02
357.59	1085.87
357.96	1084.51
358.33	1082.94
358.70	1081.47
359.08	1080.79
359.45	1077.00
359.82	1080.16
360.19	1080.56
360.56	1079.99
360.94	1080.48
361.31	1077.56
361.68	1075.17
362.05	1076.79
362.42	1074.07
362.79	1071.38
363.16	1071.17
363.54	1071.08
363.91	1068.64
364.28	1073.04
364.65	1074.87
365.02	1079.06
365.39	1078.75
365.76	1083.06
366.14	1081.61
366.51	1081.89
366.88	1078.19
367.25	1075.97
367.62	1076.48
367.99	1074.26
368.36	1075.78
368.73	1076.51
369.10	1076.67
369.48	1074.03
369.85	1074.47
370.22	1072.32
370.59	1070.91
370.96	1070.77
371.33	1067.68
371.70	1068.78
372.07	1068.90
372.44	1070.65
372.81	1071.73
373.18	1074.14
373.55	1076.48
373.93	1078.54
374.30	1081.51
374.67	1084.63
375.04	1083.50
375.41	1081.61
375.78	1081.40
376.15	1080.53
376.52	1079.81
376.89	1080.81
377.26	1079.99
377.63	1077.37
378.00	1077.70
378.37	1075.03
378.74	1075.59
379.11	1075.50
379.48	1076.30
379.85	1076.90
380.22	1081.33
380.59	1081.09
380.96	1080.34
381.33	1081.33
381.70	1079.29
382.07	1075.52
382.44	1073.98
382.81	1075.90
383.18	1075.64
383.55	1075.76
383.92	1076.53
384.29	1074.96
384.66	1077.84
385.03	1079.81
385.40	1081.58
385.77	1081.49
386.14	1084.44
386.51	1083.04
386.88	1080.27
387.25	1079.83
387.62	1081.09
387.99	1083.50
388.36	1085.19
388.73	1089.10
389.10	1088.02
389.46	1088.16
389.83	1085.17
390.20	1081.82
390.57	1081.07
390.94	1082.90
391.31	1083.53
391.68	1085.40
392.05	1088.54
392.42	1085.38
392.79	1084.44
393.16	1085.28
393.53	1086.36
393.89	1087.46
394.26	1088.49
394.63	1090.03
395.00	1085.99
395.37	1085.21
395.74	1084.42
396.11	1087.95
396.48	1087.39
396.84	1090.08
397.21	1090.48
397.58	1091.49
397.95	1093.71
398.32	1097.36
398.69	1097.15
399.06	1094.22
399.42	1093.38
399.79	1088.49
400.16	1085.10
400.53	1082.87
400.90	1081.19
401.27	1077.77
401.64	1077.04
402.00	1077.40
402.37	1079.48
402.74	1084.28
403.11	1085.61
403.48	1091.37
403.84	1092.42
404.21	1093.83
404.58	1095.49
404.95	1097.50
405.32	1093.57
405.68	1093.33
406.05	1091.91
406.42	1091.20
406.79	1091.86
407.16	1095.91
407.52	1094.88
407.89	1095.14
408.26	1096.61
408.63	1096.54
408.99	1093.71
409.36	1093.50
409.73	1096.07
410.10	1093.64
410.47	1092.94
410.83	1092.82
411.20	1096.63
411.57	1099.30
411.94	1099.33
412.30	1097.50
412.67	1100.89
413.04	1097.57
413.40	1096.70
413.77	1098.95
414.14	1103.21
414.51	1100.05
414.87	1102.74
415.24	1099.58
415.61	1098.93
415.97	1097.41
416.34	1098.86
416.71	1100.08
417.08	1106.77
417.44	1107.45
417.81	1110.68
418.18	1112.50
418.54	1111.89
418.91	1109.32
419.28	1111.24
419.64	1110.23
420.01	1110.35
420.38	1112.15
420.74	1116.41
421.11	1120.48
421.48	1122.29
421.84	1125.54
422.21	1126.69
422.58	1128.51
422.94	1131.79
423.31	1138.16
423.68	1140.03
424.04	1144.80
424.41	1145.97
424.77	1146.65
425.14	1146.14
425.51	1149.41
425.87	1153.95
426.24	1156.81
426.61	1161.33
426.97	1169.47
427.34	1178.76
427.70	1186.63
428.07	1194.96
428.44	1204.09
428.80	1212.12
429.17	1220.31
429.53	1229.48
429.90	1244.46
430.27	1256.28
430.63	1266.86
431.00	1277.58
431.36	1290.95
431.73	1303.49
432.09	1317.42
432.46	1335.09
432.83	1358.10
433.19	1381.20
433.56	1401.70
433.92	1425.67
434.29	1452.75
434.65	1476.83
435.02	1501.31
435.38	1527.22
435.75	1559.17
436.11	1592.08
436.48	1626.74
436.84	1663.72
437.21	1711.59
437.57	1756.08
437.94	1800.41
438.30	1853.00
438.67	1910.51
439.03	1964.46
439.40	2029.10
439.76	2099.04
440.13	2165.21
440.49	2238.89
440.86	2314.88
441.22	2396.29
441.59	2482.02
441.95	2578.76
442.32	2669.40
442.68	2779.22
443.05	2890.19
443.41	3007.92
443.78	3127.33
444.14	3265.80
444.51	3393.07
444.87	3544.67
445.24	3692.73
445.60	3866.94
445.96	4030.99
446.33	4225.42
446.69	4411.86
447.06	4624.27
447.42	4824.76
447.79	5055.35
448.15	5312.34
448.51	5581.92
448.88	5880.53
449.24	6179.93
449.61	6502.45
449.97	6830.22
450.33	7171.82
450.70	7513.87
451.06	7923.88
451.43	8318.40
451.79	8758.12
452.15	9221.73
452.52	9715.47
452.88	10212.74
453.24	10785.31
453.61	11422.70
453.97	12068.36
454.34	12694.67
454.70	13429.15
455.06	14159.59
455.43	14872.35
455.79	15539.71
456.15	16341.99
456.52	17073.53
456.88	17958.28
457.24	18815.82
457.61	19852.38
457.97	20801.53
458.33	21798.95
458.70	22755.91
459.06	23654.06
459.42	24598.45
459.79	25478.18
460.15	26516.16
460.51	27455.49
460.88	28494.17
461.24	29422.24
461.60	30505.09
461.96	31442.57
462.33	32403.29
462.69	33357.53
463.05	34358.32
463.42	35242.15
463.78	36050.45
464.14	36705.92
464.50	37354.53
464.87	37833.94
465.23	38194.73
465.59	38634.68
465.95	39027.43
466.32	39341.88
466.68	39673.88
467.04	39879.29
467.40	39941.20
467.77	40050.08
468.13	40005.79
468.49	39856.84
468.85	39743.61
469.22	39610.88
469.58	39337.36
469.94	39148.83
470.30	38891.91
470.66	38544.48
471.03	37986.15
471.39	37591.44
471.75	36893.75
472.11	36176.58
472.47	35623.96
472.84	35111.57
473.20	34419.85
473.56	34032.58
473.92	33537.61
474.28	32999.35
474.65	32457.82
475.01	31888.65
475.37	31155.08
475.73	30512.37
476.09	29829.24
476.45	29210.00
476.81	28669.92
477.18	28118.87
477.54	27677.86
477.90	27282.88
478.26	26766.79
478.62	26285.48
478.98	25921.71
479.34	25545.66
479.71	25049.35
480.07	24670.28
480.43	24301.83
480.79	23840.63
481.15	23373.95
481.51	23018.40
481.87	22696.46
482.23	22325.71
482.59	22009.86
482.96	21670.65
483.32	21332.23
483.68	20929.23
484.04	20576.54
484.40	20166.73
484.76	19779.45
485.12	19357.92
485.48	18964.12
485.84	18527.24
486.20	18149.64
486.56	17758.39
486.92	17426.01
487.28	17058.43
487.64	16695.91
488.00	16328.21
488.37	15938.37
488.73	15484.84
489.09	15038.11
489.45	14606.98
489.81	14178.57
490.17	13800.41
490.53	13484.43
490.89	13158.66
491.25	12814.99
491.61	12471.61
491.97	12103.78
492.33	11719.88
492.69	11373.72
493.05	11046.49
493.41	10729.48
493.77	10423.34
494.13	10141.49
494.49	9855.36
494.85	9585.62
495.21	9323.36
495.57	9060.45
495.93	8800.39
496.29	8551.87
496.64	8326.48
497.00	8100.03
497.36	7887.14
497.72	7678.90
498.08	7482.18
498.44	7275.49
498.80	7071.34
499.16	6878.79
499.52	6687.68
499.88	6518.32
500.24	6369.79
500.60	6232.00
500.96	6092.06
501.32	5954.51
501.68	5809.26
502.03	5643.90
502.39	5499.25
502.75	5346.77
503.11	5209.73
503.47	5078.68
503.83	4961.16
504.19	4836.18
504.55	4728.33
504.91	4614.41
505.26	4501.51
505.62	4394.57
505.98	4288.66
506.34	4179.28
506.70	4073.96
507.06	3974.11
507.42	3873.87
507.78	3781.18
508.13	3697.74
508.49	3621.11
508.85	3547.04
509.21	3473.73
509.57	3394.06
509.93	3313.73
510.28	3226.41
510.64	3148.44
511.00	3073.45
511.36	3008.99
511.72	2950.90
512.07	2898.38
512.43	2845.11
512.79	2796.26
513.15	2740.95
513.51	2690.61
513.86	2637.27
514.22	2589.71
514.58	2539.20
514.94	2494.75
515.30	2447.99
515.65	2403.68
516.01	2363.12
516.37	2320.43
516.73	2278.89
517.08	2237.29
517.44	2205.04
517.80	2166.35
518.16	2134.99
518.51	2107.49
518.87	2078.56
519.23	2050.71
519.59	2024.66
519.94	1993.83
520.30	1965.11
520.66	1936.23
521.01	1907.75
521.37	1883.05
521.73	1857.38
522.09	1834.16
522.44	1810.90
522.80	1787.37
523.16	1764.25
523.51	1745.71
523.87	1724.44
524.23	1708.38
524.58	1690.08
524.94	1673.72
525.30	1652.30
525.65	1634.30
526.01	1615.81
526.37	1599.36
526.72	1584.05
527.08	1573.14
527.44	1557.04
527.79	1546.20
528.15	1530.36
528.51	1511.75
528.86	1494.83
529.22	1478.73
529.58	1462.81
529.93	1452.37
530.29	1442.33
530.65	1429.72
531.00	1425.62
531.36	1412.35
531.71	1400.58
532.07	1387.70
532.43	1379.35
532.78	1363.99
533.14	1356.53
533.49	1348.34
533.85	1340.64
534.21	1332.44
534.56	1326.59
534.92	1318.99
535.27	1313.37
535.63	1310.19
535.98	1304.80
536.34	1299.07
536.69	1294.57
537.05	1287.58
537.41	1278.35
537.76	1274.87
538.12	1268.76
538.47	1262.20
538.83	1256.52
539.18	1252.37
539.54	1248.30
539.89	1243.25
540.25	1241.30
540.60	1237.61
540.96	1234.73
541.31	1226.84
541.67	1224.10
542.02	1220.07
542.38	1216.52
542.73	1209.94
543.09	1210.53
543.44	1205.94
543.80	1202.54
544.15	1198.45
544.51	1199.69
544.86	1193.77
545.22	1192.71
545.57	1189.41
545.93	1188.69
546.28	1183.91
546.64	1183.00
546.99	1179.09
547.35	1174.71
547.70	1171.67
548.05	1169.47
548.41	1166.45
548.76	1167.53
549.12	1165.77
549.47	1159.22
549.83	1156.95
550.18	1153.63
550.53	1149.27
550.89	1147.03
551.24	1146.16
551.60	1144.57
551.95	1143.56
552.30	1143.80
552.66	1144.12
553.01	1144.10
553.37	1145.18
553.72	1148.06
554.07	1144.78
554.43	1145.50
554.78	1147.56
555.13	1142.72
555.49	1136.96
555.84	1137.20
556.19	1131.81
556.55	1126.76
556.90	1126.57
557.26	1127.76
557.61	1122.54
557.96	1123.20
558.32	1125.00
558.67	1124.07
559.02	1122.01
559.37	1120.81
559.73	1119.60
560.08	1121.09
560.43	1118.73
560.79	1116.13
561.14	1118.28
561.49	1116.39
561.85	1110.30
562.20	1110.23
562.55	1112.18
562.90	1111.22
563.26	1115.69
563.61	1118.66
563.96	1116.46
564.32	1115.34
564.67	1116.93
565.02	1111.73
565.37	1112.15
565.73	1113.28
566.08	1112.57
566.43	1112.27
566.78	1115.52
567.14	1110.96
567.49	1111.97
567.84	1112.71
568.19	1110.72
568.54	1106.70
568.90	1105.83
569.25	1106.72
569.60	1105.60
569.95	1104.12
570.31	1102.42
570.66	1105.88
571.01	1100.85
571.36	1101.74
571.71	1101.41
572.06	1100.26
572.42	1095.23
572.77	1097.15
573.12	1094.83
573.47	1095.49
573.82	1097.27
574.18	1097.10
574.53	1099.28
574.88	1099.14
575.23	1098.62
575.58	1096.61
575.93	1099.63
576.28	1094.04
576.64	1091.34
576.99	1089.52
577.34	1088.84
577.69	1086.59
578.04	1090.55
578.39	1093.38
578.74	1095.39
579.09	1097.50
579.44	1098.98
579.80	1097.34
580.15	1098.11
580.50	1098.65
580.85	1098.65
581.20	1095.77
581.55	1093.57
581.90	1090.88
582.25	1092.23
582.60	1093.03
582.95	1091.67
583.30	1092.89
583.65	1093.19
584.00	1090.29
584.35	1090.34
584.71	1094.22
585.06	1094.25
585.41	1095.28
585.76	1094.48
586.11	1091.98
586.46	1090.74
586.81	1089.94
587.16	1085.96
587.51	1084.84
587.86	1085.00
588.21	1088.37
588.56	1088.37
588.91	1091.72
589.26	1095.93
589.61	1097.59
589.96	1095.58
590.31	1096.49
590.66	1097.31
591.01	1094.20
591.36	1093.64
591.71	1092.80
592.06	1094.67
592.41	1095.28
592.76	1096.40
593.10	1095.70
593.45	1095.16
593.80	1092.45
594.15	1088.26
594.50	1085.49
594.85	1084.93
595.20	1082.38
595.55	1084.96
595.90	1087.23
596.25	1089.03
596.60	1090.57
596.95	1095.04
597.30	1091.16
597.64	1100.17
597.99	1103.33
598.34	1103.35
598.69	1100.08
599.04	1099.70
599.39	1087.93
599.74	1082.73
600.09	1080.18
600.44	1081.96
600.78	1081.87
601.13	1080.23
601.48	1083.29
601.83	1084.96
602.18	1082.54
602.53	1083.97
602.88	1088.28
603.22	1085.52
603.57	1083.18
603.92	1082.83
604.27	1086.55
604.62	1083.55
604.97	1082.87
605.31	1086.43
605.66	1086.03
606.01	1083.06
606.36	1085.05
606.71	1085.63
607.05	1082.29
607.40	1084.42
607.75	1084.84
608.10	1083.55
608.44	1084.60
608.79	1084.98
609.14	1084.60
609.49	1083.34
609.84	1083.43
610.18	1083.53
610.53	1084.32
610.88	1086.38
611.23	1087.48
611.57	1089.24
611.92	1089.50
612.27	1089.94
612.62	1088.12
612.96	1086.41
613.31	1084.07
613.66	1082.57
614.00	1081.30
614.35	1082.31
614.70	1083.53
615.05	1083.55
615.39	1084.77
615.74	1087.86
616.09	1088.42
616.43	1087.74
616.78	1089.66
617.13	1089.96
617.47	1089.96
617.82	1084.49
618.17	1084.79
618.51	1081.98
618.86	1081.44
619.21	1077.44
619.55	1078.50
619.90	1081.23
620.25	1083.41
620.59	1083.20
620.94	1082.99
621.29	1084.96
621.63	1083.46
621.98	1081.49
622.32	1081.28
622.67	1085.19
623.02	1091.18
623.36	1089.92
623.71	1089.40
624.05	1091.98
624.40	1088.75
624.75	1083.06
625.09	1082.83
625.44	1086.01
625.78	1083.48
626.13	1083.34
626.48	1080.32
626.82	1076.55
627.17	1077.21
627.51	1075.36
627.86	1075.87
628.20	1079.10
628.55	1085.14
628.89	1085.26
629.24	1088.07
629.58	1086.08
629.93	1086.97
630.28	1086.38
630.62	1083.48
630.97	1082.92
631.31	1085.40
631.66	1085.24
632.00	1082.99
632.35	1085.68
632.69	1081.49
633.04	1080.58
633.38	1078.89
633.73	1078.82
634.07	1079.20
634.42	1083.50
634.76	1084.49
635.11	1087.20
635.45	1086.76
635.79	1085.66
636.14	1084.11
636.48	1082.85
636.83	1081.35
637.17	1085.38
637.52	1082.31
637.86	1083.60
638.21	1085.19
638.55	1082.59
638.89	1081.44
639.24	1084.86
639.58	1086.13
639.93	1087.95
640.27	1088.37
640.61	1087.72
640.96	1087.55
641.30	1085.73
641.65	1083.29
641.99	1086.45
642.33	1084.93
642.68	1084.44
643.02	1084.39
643.37	1084.93
643.71	1082.71
644.05	1084.02
644.40	1082.38
644.74	1081.21
645.08	1080.44
645.43	1081.12
645.77	1078.89
646.11	1077.18
646.46	1078.17
646.80	1077.35
647.14	1073.65
647.49	1073.16
647.83	1076.95
648.17	1078.96
648.52	1082.40
648.86	1087.13
649.20	1088.96
649.55	1089.43
649.89	1086.59
650.23	1083.93
650.57	1081.00
650.92	1080.20
651.26	1078.31
651.60	1079.36
651.95	1080.04
652.29	1082.12
652.63	1082.54
652.97	1080.70
653.32	1078.14
653.66	1077.09
654.00	1074.75
654.34	1074.54
654.69	1077.30
655.03	1079.22
655.37	1079.24
655.71	1077.98
656.05	1077.82
656.40	1078.80
656.74	1080.34
657.08	1082.03
657.42	1085.84
657.76	1084.74
658.11	1083.76
658.45	1081.80
658.79	1078.57
659.13	1076.93
659.47	1078.31
659.82	1078.75
660.16	1078.28
660.50	1080.23
660.84	1081.33
661.18	1081.07
661.52	1079.01
661.87	1078.07
662.21	1079.01
662.55	1076.44
662.89	1079.27
663.23	1080.65
663.57	1084.25
663.91	1084.91
664.25	1087.23
664.60	1087.34
664.94	1087.76
665.28	1088.86
665.62	1088.51
665.96	1086.78
666.30	1082.99
666.64	1080.02
666.98	1075.90
667.32	1072.57
667.66	1073.28
668.01	1075.43
668.35	1079.46
668.69	1081.30
669.03	1084.14
669.37	1081.68
669.71	1079.57
670.05	1075.92
670.39	1074.63
670.73	1073.51
671.07	1078.43
671.41	1079.83
671.75	1083.20
672.09	1083.27
672.43	1084.65
672.77	1085.42
673.11	1084.18
673.45	1083.11
673.79	1086.80
674.13	1087.41
674.47	1086.08
674.81	1087.30
675.15	1087.34
675.49	1085.00
675.83	1084.00
676.17	1082.26
676.51	1081.75
676.85	1079.24
677.19	1076.90
677.53	1073.44
677.87	1073.77
678.21	1074.80
678.55	1076.53
678.89	1079.74
679.23	1083.74
679.57	1085.73
679.90	1088.12
680.24	1088.65
680.58	1085.56
680.92	1083.76
681.26	1085.47
681.60	1082.92
681.94	1081.21
682.28	1082.94
682.62	1084.65
682.96	1080.04
683.29	1080.04
683.63	1082.66
683.97	1082.73
684.31	1083.01
684.65	1083.32
684.99	1080.84
685.33	1079.15
685.67	1079.06
686.00	1079.03
686.34	1077.02
686.68	1079.78
687.02	1078.47
687.36	1078.52
687.70	1076.65
688.03	1080.11
688.37	1078.59
688.71	1080.13
689.05	1078.64
689.39	1076.51
689.72	1072.32
690.06	1071.87
690.40	1072.55
690.74	1072.01
691.08	1076.62
691.41	1081.56
691.75	1083.43
692.09	1082.83
692.43	1082.94
692.76	1080.98
693.10	1079.74
693.44	1078.71
693.78	1078.10
694.11	1081.19
694.45	1081.73
694.79	1083.22
695.13	1082.61
695.46	1083.86
695.80	1081.66
696.14	1078.28
696.48	1076.90
696.81	1077.09
697.15	1075.92
697.49	1078.14
697.82	1079.99
698.16	1077.61
698.50	1079.78
698.83	1080.02
699.17	1075.36
699.51	1075.59
699.84	1077.75
700.18	1077.49
700.52	1078.92
700.85	1081.70
701.19	1082.66
701.53	1080.32
701.86	1081.51
702.20	1079.97
702.54	1080.16
702.87	1081.73
703.21	1084.44
703.55	1081.51
703.88	1080.48
704.22	1081.00
704.55	1078.07
704.89	1077.23
705.23	1075.90
705.56	1077.65
705.90	1074.89
706.23	1075.48
706.57	1074.24
706.91	1074.52
707.24	1074.35
707.58	1076.88
707.91	1076.30
708.25	1080.93
708.58	1084.96
708.92	1083.67
709.26	1083.74
709.59	1085.24
709.93	1082.57
710.26	1081.61
710.60	1081.19
710.93	1081.28
711.27	1083.62
711.60	1083.90
711.94	1083.36
712.27	1084.58
712.61	1085.12
712.94	1079.90
713.28	1080.34
713.61	1079.57
713.95	1079.31
714.28	1078.92
714.62	1080.25
714.95	1078.47
715.29	1078.00
715.62	1078.61
715.96	1078.75
716.29	1078.19
716.63	1080.11
716.96	1081.40
717.29	1082.17
717.63	1083.46
717.96	1087.16
718.30	1085.10
718.63	1085.47
718.97	1086.48
719.30	1085.26
719.63	1080.88
719.97	1083.93
720.30	1082.22
720.64	1079.81
720.97	1079.53
721.30	1079.69
721.64	1078.38
721.97	1079.76
722.31	1078.82
722.64	1078.10
722.97	1078.52
723.31	1076.11
723.64	1073.14
723.97	1075.24
724.31	1072.67
724.64	1074.26
724.98	1074.87
725.31	1076.39
725.64	1074.10
725.98	1078.68
726.31	1078.43
726.64	1078.54
726.97	1077.04
727.31	1082.01
727.64	1082.38
727.97	1082.71
728.31	1083.20
728.64	1086.29
728.97	1082.92
729.31	1079.62
729.64	1080.02
729.97	1080.60
730.30	1079.48
730.64	1075.24
730.97	1076.86
731.30	1077.79
731.63	1079.85
731.97	1078.85
732.30	1084.14
732.63	1082.01
732.96	1079.60
733.30	1075.38
733.63	1076.53
733.96	1078.00
734.29	1079.46
734.63	1083.46
734.96	1086.22
735.29	1084.93
735.62	1079.57
735.95	1079.71
736.29	1076.23
736.62	1077.21
736.95	1077.33
737.28	1079.62
737.61	1079.90
737.94	1078.71
738.28	1076.83
738.61	1076.62
738.94	1077.65
739.27	1078.82
739.60	1079.69
739.93	1079.08
740.27	1080.34
740.60	1080.39
740.93	1078.80
741.26	1079.81
741.59	1080.86
741.92	1079.99
742.25	1077.91
742.58	1078.05
742.91	1077.40
743.25	1076.51
743.58	1078.66
743.91	1080.79
744.24	1080.79
744.57	1083.13
744.90	1082.87
745.23	1079.20
745.56	1079.36
745.89	1079.17
746.22	1078.68
746.55	1078.36
746.88	1082.52
747.21	1081.68
747.54	1081.98
747.87	1082.22
748.20	1082.97
748.53	1079.50
748.87	1079.55
749.20	1078.66
749.53	1078.17
749.86	1080.46
750.19	1080.41
750.52	1080.77
750.85	1082.64
751.18	1084.02
751.51	1081.12
751.84	1084.77
752.16	1083.39
752.49	1082.47
752.82	1080.11
753.15	1082.78
753.48	1078.38
753.81	1079.08
754.14	1076.95
754.47	1076.69
754.80	1074.89
755.13	1080.41
755.46	1081.19
755.79	1085.17
756.12	1085.63
756.45	1086.94
756.78	1082.83
757.11	1080.30
757.43	1079.01
757.76	1081.56
758.09	1078.80
758.42	1077.93
758.75	1077.18
759.08	1075.15
759.41	1073.21
759.74	1075.10
760.07	1076.69
760.39	1078.80
760.72	1081.51
761.05	1080.09
761.38	1079.31
761.71	1077.98
762.04	1079.36
762.36	1078.82
762.69	1080.18
763.02	1077.37
763.35	1080.18
763.68	1076.97
764.01	1075.78
