SpectraSuite Data File
++++++++++++++++++++++++++++++++++++
Date: Mon Aug 26 10:22:04 PDT 2019
User: corrico
Dark Spectrum Present: No
Reference Spectrum Present: No
Number of Sampled Component Spectra: 1
Spectrometers: USB2+H06089
Integration Time (usec): 2000 (USB2+H06089)
Spectra Averaged: 20 (USB2+H06089)
Boxcar Smoothing: 2 (USB2+H06089)
Correct for Electrical Dark: No (USB2+H06089)
Strobe/Lamp Enabled: No (USB2+H06089)
Correct for Detector Non-linearity: No (USB2+H06089)
Correct for Stray Light: No (USB2+H06089)
Number of Pixels in Processed Spectrum: 2048
>>>>>Begin Processed Spectral Data<<<<<
339.70	1039.20
340.07	1039.20
340.45	1003.34
340.82	982.86
341.19	957.05
341.57	930.95
341.94	917.05
342.31	909.09
342.69	902.58
343.06	901.93
343.43	897.69
343.81	900.10
344.18	900.61
344.55	900.68
344.93	902.89
345.30	910.94
345.67	915.41
346.04	924.61
346.42	933.78
346.79	945.20
347.16	953.98
347.54	964.75
347.91	975.75
348.28	985.01
348.65	992.79
349.03	1002.62
349.40	1013.38
349.77	1019.40
350.14	1025.83
350.52	1029.77
350.89	1034.21
351.26	1041.89
351.63	1047.32
352.01	1055.63
352.38	1061.67
352.75	1065.60
353.12	1066.23
353.50	1070.37
353.87	1071.40
354.24	1073.51
354.61	1075.69
354.98	1077.61
355.36	1077.68
355.73	1081.30
356.10	1085.54
356.47	1085.59
356.84	1087.48
357.22	1090.01
357.59	1086.15
357.96	1086.71
358.33	1089.12
358.70	1087.30
359.08	1083.76
359.45	1088.04
359.82	1084.72
360.19	1085.35
360.56	1084.35
360.94	1086.64
361.31	1082.15
361.68	1081.70
362.05	1079.08
362.42	1079.10
362.79	1077.21
363.16	1076.13
363.54	1077.58
363.91	1077.91
364.28	1078.66
364.65	1077.07
365.02	1081.14
365.39	1076.69
365.76	1077.70
366.14	1076.83
366.51	1077.42
366.88	1075.71
367.25	1077.91
367.62	1075.31
367.99	1074.68
368.36	1073.86
368.73	1073.67
369.10	1076.67
369.48	1077.65
369.85	1079.78
370.22	1082.43
370.59	1083.27
370.96	1082.97
371.33	1083.15
371.70	1082.80
372.07	1080.30
372.44	1078.82
372.81	1078.80
373.18	1079.20
373.55	1077.37
373.93	1079.57
374.30	1081.02
374.67	1077.70
375.04	1077.98
375.41	1080.02
375.78	1080.84
376.15	1081.26
376.52	1085.38
376.89	1087.39
377.26	1083.08
377.63	1082.22
378.00	1080.09
378.37	1077.04
378.74	1071.03
379.11	1076.30
379.48	1074.94
379.85	1073.25
380.22	1068.62
380.59	1072.92
380.96	1070.28
381.33	1073.11
381.70	1075.87
382.07	1082.78
382.44	1083.71
382.81	1083.71
383.18	1085.17
383.55	1086.10
383.92	1084.91
384.29	1085.66
384.66	1087.39
385.03	1086.01
385.40	1088.16
385.77	1088.77
386.14	1086.29
386.51	1087.18
386.88	1087.18
387.25	1087.86
387.62	1089.03
387.99	1092.42
388.36	1092.68
388.73	1089.75
389.10	1086.85
389.46	1084.37
389.83	1080.27
390.20	1081.28
390.57	1085.96
390.94	1085.54
391.31	1089.38
391.68	1090.55
392.05	1089.96
392.42	1088.16
392.79	1087.97
393.16	1083.93
393.53	1082.94
393.89	1081.40
394.26	1081.77
394.63	1083.64
395.00	1083.46
395.37	1088.26
395.74	1092.23
396.11	1090.83
396.48	1091.37
396.84	1091.67
397.21	1090.17
397.58	1088.51
397.95	1089.40
398.32	1087.44
398.69	1092.56
399.06	1095.00
399.42	1097.66
399.79	1099.19
400.16	1101.39
400.53	1098.86
400.90	1097.03
401.27	1094.69
401.64	1095.84
402.00	1096.54
402.37	1097.76
402.74	1097.36
403.11	1097.34
403.48	1095.32
403.84	1094.55
404.21	1093.26
404.58	1093.94
404.95	1093.97
405.32	1094.27
405.68	1093.10
406.05	1093.94
406.42	1094.43
406.79	1091.53
407.16	1091.86
407.52	1090.53
407.89	1090.74
408.26	1091.09
408.63	1092.16
408.99	1093.80
409.36	1095.37
409.73	1099.07
410.10	1100.64
410.47	1102.56
410.83	1102.58
411.20	1108.78
411.57	1105.65
411.94	1103.68
412.30	1104.76
412.67	1104.26
413.04	1099.86
413.40	1096.75
413.77	1096.85
414.14	1096.56
414.51	1099.98
414.87	1102.30
415.24	1107.24
415.61	1110.56
415.97	1112.04
416.34	1108.27
416.71	1105.69
417.08	1105.51
417.44	1101.43
417.81	1099.28
418.18	1108.15
418.54	1111.08
418.91	1111.24
419.28	1118.10
419.64	1123.36
420.01	1119.27
420.38	1121.68
420.74	1125.35
421.11	1124.96
421.48	1126.10
421.84	1126.29
422.21	1127.44
422.58	1129.00
422.94	1131.25
423.31	1130.31
423.68	1136.00
424.04	1138.72
424.41	1144.33
424.77	1149.51
425.14	1156.69
425.51	1159.55
425.87	1164.11
426.24	1166.97
426.61	1174.13
426.97	1182.63
427.34	1192.01
427.70	1202.99
428.07	1212.21
428.44	1217.08
428.80	1223.26
429.17	1228.08
429.53	1239.20
429.90	1252.89
430.27	1267.66
430.63	1280.04
431.00	1298.81
431.36	1311.14
431.73	1323.53
432.09	1340.96
432.46	1359.71
432.83	1377.59
433.19	1399.99
433.56	1426.23
433.92	1450.78
434.29	1478.56
434.65	1508.24
435.02	1538.25
435.38	1568.49
435.75	1601.18
436.11	1639.80
436.48	1680.60
436.84	1723.45
437.21	1766.73
437.57	1812.37
437.94	1861.26
438.30	1917.76
438.67	1979.51
439.03	2044.01
439.40	2114.74
439.76	2183.88
440.13	2257.94
440.49	2331.52
440.86	2405.44
441.22	2489.37
441.59	2578.59
441.95	2679.98
442.32	2780.53
442.68	2908.51
443.05	3032.87
443.41	3162.46
443.78	3285.83
444.14	3434.01
444.51	3572.94
444.87	3739.75
445.24	3908.79
445.60	4090.74
445.96	4274.31
446.33	4481.05
446.69	4678.50
447.06	4903.16
447.42	5134.64
447.79	5372.04
448.15	5645.26
448.51	5934.17
448.88	6261.45
449.24	6572.86
449.61	6933.25
449.97	7293.13
450.33	7678.69
450.70	8032.77
451.06	8474.54
451.43	8886.17
451.79	9346.04
452.15	9823.63
452.52	10358.39
452.88	10902.47
453.24	11521.85
453.61	12212.07
453.97	12914.19
454.34	13618.99
454.70	14450.54
455.06	15273.42
455.43	16050.20
455.79	16772.33
456.15	17601.60
456.52	18341.82
456.88	19271.85
457.24	20181.46
457.61	21276.99
457.97	22353.12
458.33	23436.49
458.70	24469.06
459.06	25469.94
459.42	26509.94
459.79	27420.12
460.15	28490.45
460.51	29492.97
460.88	30593.05
461.24	31571.21
461.60	32724.79
461.96	33801.83
462.33	34866.05
462.69	35949.51
463.05	37134.71
463.42	38181.35
463.78	39132.28
464.14	39887.48
464.50	40591.84
464.87	41058.99
465.23	41365.55
465.59	41762.90
465.95	42081.19
466.32	42383.05
466.68	42708.57
467.04	42941.20
467.40	42991.87
467.77	43142.30
468.13	43048.28
468.49	42845.31
468.85	42730.62
469.22	42612.50
469.58	42344.88
469.94	42198.10
470.30	42023.22
470.66	41661.11
471.03	41122.14
471.39	40735.39
471.75	39957.44
472.11	39157.49
472.47	38608.03
472.84	38040.96
473.20	37313.29
473.56	36953.34
473.92	36435.03
474.28	35840.60
474.65	35224.43
475.01	34541.93
475.37	33705.73
475.73	33007.31
476.09	32265.43
476.45	31613.38
476.81	31081.68
477.18	30527.75
477.54	30057.30
477.90	29610.30
478.26	29021.33
478.62	28479.15
478.98	28045.16
479.34	27587.75
479.71	27023.92
480.07	26602.39
480.43	26161.88
480.79	25664.93
481.15	25207.22
481.51	24818.10
481.87	24456.44
482.23	24063.05
482.59	23745.20
482.96	23379.99
483.32	23072.30
483.68	22697.25
484.04	22359.16
484.40	21943.15
484.76	21534.71
485.12	21107.82
485.48	20681.77
485.84	20199.34
486.20	19769.43
486.56	19323.06
486.92	18913.94
487.28	18492.92
487.64	18074.53
488.00	17645.21
488.37	17223.79
488.73	16750.18
489.09	16257.38
489.45	15813.29
489.81	15363.28
490.17	14947.81
490.53	14571.57
490.89	14186.60
491.25	13795.37
491.61	13420.02
491.97	13018.11
492.33	12610.81
492.69	12270.09
493.05	11946.47
493.41	11613.18
493.77	11301.21
494.13	10987.15
494.49	10664.74
494.85	10352.89
495.21	10065.22
495.57	9784.31
495.93	9519.01
496.29	9263.75
496.64	9025.01
497.00	8775.96
497.36	8522.05
497.72	8284.91
498.08	8068.93
498.44	7851.09
498.80	7633.84
499.16	7438.13
499.52	7233.73
499.88	7054.42
500.24	6881.99
500.60	6730.80
500.96	6583.74
501.32	6435.42
501.68	6272.80
502.03	6092.74
502.39	5925.39
502.75	5751.56
503.11	5593.72
503.47	5447.08
503.83	5313.09
504.19	5177.05
504.55	5056.07
504.91	4938.90
505.26	4820.03
505.62	4703.35
505.98	4592.74
506.34	4467.12
506.70	4348.27
507.06	4236.18
507.42	4136.03
507.78	4039.39
508.13	3958.64
508.49	3883.09
508.85	3804.73
509.21	3723.28
509.57	3639.30
509.93	3546.36
510.28	3455.19
510.64	3368.10
511.00	3284.71
511.36	3209.16
511.72	3138.82
512.07	3073.26
512.43	3011.38
512.79	2949.89
513.15	2890.21
513.51	2835.09
513.86	2774.47
514.22	2718.46
514.58	2666.31
514.94	2610.49
515.30	2564.69
515.65	2521.39
516.01	2485.65
516.37	2444.27
516.73	2406.49
517.08	2368.22
517.44	2321.25
517.80	2277.65
518.16	2239.92
518.51	2207.22
518.87	2168.86
519.23	2140.91
519.59	2109.22
519.94	2080.13
520.30	2051.39
520.66	2019.32
521.01	1993.13
521.37	1967.88
521.73	1938.46
522.09	1910.18
522.44	1890.80
522.80	1867.93
523.16	1846.50
523.51	1821.94
523.87	1799.24
524.23	1778.15
524.58	1757.58
524.94	1735.27
525.30	1715.29
525.65	1697.64
526.01	1676.39
526.37	1656.16
526.72	1635.68
527.08	1620.24
527.44	1604.69
527.79	1590.09
528.15	1574.53
528.51	1561.44
528.86	1544.05
529.22	1528.49
529.58	1512.48
529.93	1500.24
530.29	1485.21
530.65	1474.16
531.00	1458.83
531.36	1446.94
531.71	1433.48
532.07	1420.92
532.43	1412.65
532.78	1403.48
533.14	1394.37
533.49	1384.73
533.85	1377.87
534.21	1363.90
534.56	1357.30
534.92	1350.23
535.27	1344.92
535.63	1336.70
535.98	1335.63
536.34	1329.26
536.69	1323.20
537.05	1317.07
537.41	1309.86
537.76	1302.70
538.12	1292.07
538.47	1283.76
538.83	1274.77
539.18	1272.48
539.54	1265.34
539.89	1262.06
540.25	1256.96
540.60	1254.20
540.96	1249.64
541.31	1242.61
541.67	1239.55
542.02	1236.01
542.38	1230.72
542.73	1222.34
543.09	1220.26
543.44	1215.49
543.80	1211.32
544.15	1206.83
544.51	1206.85
544.86	1206.38
545.22	1206.31
545.57	1206.03
545.93	1205.77
546.28	1200.34
546.64	1196.79
546.99	1189.74
547.35	1183.91
547.70	1181.29
548.05	1180.66
548.41	1178.46
548.76	1179.02
549.12	1175.96
549.47	1173.99
549.83	1170.99
550.18	1166.64
550.53	1162.94
550.89	1161.68
551.24	1157.79
551.60	1156.74
551.95	1155.41
552.30	1151.12
552.66	1150.82
553.01	1150.40
553.37	1150.94
553.72	1148.29
554.07	1151.73
554.43	1151.22
554.78	1149.16
555.13	1147.71
555.49	1147.68
555.84	1141.60
556.19	1140.80
556.55	1140.73
556.90	1136.89
557.26	1138.27
557.61	1140.19
557.96	1139.02
558.32	1137.95
558.67	1137.10
559.02	1129.89
559.37	1128.02
559.73	1124.16
560.08	1119.38
560.43	1117.47
560.79	1121.56
561.14	1122.01
561.49	1122.61
561.85	1123.67
562.20	1123.27
562.55	1120.88
562.90	1121.77
563.26	1122.36
563.61	1120.93
563.96	1122.99
564.32	1122.24
564.67	1119.69
565.02	1116.37
565.37	1115.08
565.73	1112.57
566.08	1111.50
566.43	1110.14
566.78	1109.65
567.14	1109.72
567.49	1108.64
567.84	1111.01
568.19	1111.94
568.54	1114.02
568.90	1113.28
569.25	1112.04
569.60	1108.01
569.95	1104.92
570.31	1103.19
570.66	1102.72
571.01	1103.56
571.36	1106.07
571.71	1106.42
572.06	1104.78
572.42	1104.17
572.77	1100.66
573.12	1099.16
573.47	1099.05
573.82	1097.92
574.18	1097.80
574.53	1098.23
574.88	1096.87
575.23	1099.21
575.58	1102.74
575.93	1102.91
576.28	1105.22
576.64	1104.73
576.99	1100.50
577.34	1097.31
577.69	1097.24
578.04	1096.35
578.39	1096.42
578.74	1096.89
579.09	1098.86
579.44	1098.04
579.80	1098.53
580.15	1099.07
580.50	1097.78
580.85	1094.25
581.20	1094.27
581.55	1091.72
581.90	1090.55
582.25	1091.67
582.60	1094.90
582.95	1096.85
583.30	1097.13
583.65	1097.24
584.00	1094.67
584.35	1093.10
584.71	1090.53
585.06	1089.29
585.41	1091.09
585.76	1092.54
586.11	1093.05
586.46	1093.12
586.81	1094.90
587.16	1094.04
587.51	1094.13
587.86	1093.12
588.21	1090.34
588.56	1088.26
588.91	1086.45
589.26	1086.66
589.61	1086.34
589.96	1086.83
590.31	1087.93
590.66	1088.28
591.01	1087.81
591.36	1086.15
591.71	1087.69
592.06	1089.73
592.41	1089.17
592.76	1087.88
593.10	1085.96
593.45	1085.77
593.80	1083.18
594.15	1082.80
594.50	1084.86
594.85	1087.18
595.20	1090.03
595.55	1092.70
595.90	1090.53
596.25	1089.89
596.60	1091.20
596.95	1090.13
597.30	1089.07
597.64	1103.26
597.99	1101.90
598.34	1102.67
598.69	1101.46
599.04	1099.98
599.39	1089.89
599.74	1090.22
600.09	1086.41
600.44	1086.01
600.78	1085.12
601.13	1085.24
601.48	1085.47
601.83	1087.51
602.18	1089.80
602.53	1093.97
602.88	1090.69
603.22	1090.57
603.57	1086.87
603.92	1086.59
604.27	1084.84
604.62	1086.29
604.97	1087.20
605.31	1092.02
605.66	1091.81
606.01	1092.63
606.36	1093.55
606.71	1092.09
607.05	1092.07
607.40	1088.09
607.75	1087.88
608.10	1088.40
608.44	1091.32
608.79	1088.79
609.14	1090.53
609.49	1091.02
609.84	1090.36
610.18	1089.59
610.53	1091.91
610.88	1095.02
611.23	1094.69
611.57	1094.13
611.92	1094.48
612.27	1092.37
612.62	1088.23
612.96	1087.16
613.31	1086.08
613.66	1084.39
614.00	1085.75
614.35	1085.05
614.70	1084.58
615.05	1084.39
615.39	1083.88
615.74	1085.96
616.09	1087.65
616.43	1087.25
616.78	1086.78
617.13	1088.58
617.47	1085.54
617.82	1082.01
618.17	1082.73
618.51	1082.38
618.86	1083.41
619.21	1081.16
619.55	1084.09
619.90	1081.77
620.25	1083.22
620.59	1079.71
620.94	1084.30
621.29	1086.41
621.63	1085.84
621.98	1085.77
622.32	1087.44
622.67	1088.40
623.02	1085.77
623.36	1089.05
623.71	1088.02
624.05	1087.69
624.40	1084.16
624.75	1085.84
625.09	1084.14
625.44	1084.89
625.78	1087.46
626.13	1087.13
626.48	1085.73
626.82	1084.35
627.17	1084.60
627.51	1083.62
627.86	1085.05
628.20	1084.02
628.55	1084.93
628.89	1088.28
629.24	1088.26
629.58	1088.47
629.93	1091.20
630.28	1091.74
630.62	1089.92
630.97	1086.41
631.31	1083.76
631.66	1082.90
632.00	1082.80
632.35	1080.04
632.69	1081.30
633.04	1082.47
633.38	1083.25
633.73	1085.52
634.07	1086.85
634.42	1087.06
634.76	1087.11
635.11	1086.57
635.45	1087.27
635.79	1087.86
636.14	1088.84
636.48	1088.96
636.83	1090.55
637.17	1088.49
637.52	1090.15
637.86	1088.00
638.21	1088.40
638.55	1085.80
638.89	1087.20
639.24	1083.64
639.58	1086.17
639.93	1084.51
640.27	1085.14
640.61	1082.17
640.96	1081.23
641.30	1078.73
641.65	1077.77
641.99	1078.07
642.33	1076.34
642.68	1076.88
643.02	1076.69
643.37	1080.11
643.71	1081.33
644.05	1084.60
644.40	1084.30
644.74	1085.56
645.08	1084.53
645.43	1085.56
645.77	1085.05
646.11	1088.16
646.46	1088.84
646.80	1091.04
647.14	1088.33
647.49	1085.94
647.83	1084.00
648.17	1083.27
648.52	1083.93
648.86	1083.46
649.20	1084.07
649.55	1085.68
649.89	1087.62
650.23	1085.00
650.57	1084.67
650.92	1086.43
651.26	1084.07
651.60	1084.07
651.95	1083.95
652.29	1083.46
652.63	1082.59
652.97	1084.35
653.32	1083.64
653.66	1085.84
654.00	1087.20
654.34	1086.83
654.69	1083.53
655.03	1082.24
655.37	1080.77
655.71	1080.67
656.05	1080.77
656.40	1083.50
656.74	1085.12
657.08	1086.31
657.42	1083.60
657.76	1083.74
658.11	1084.42
658.45	1082.61
658.79	1079.01
659.13	1081.47
659.47	1083.11
659.82	1079.10
660.16	1081.23
660.50	1085.99
660.84	1085.89
661.18	1085.82
661.52	1090.69
661.87	1090.10
662.21	1086.66
662.55	1085.31
662.89	1081.98
663.23	1081.82
663.57	1078.66
663.91	1078.31
664.25	1081.44
664.60	1084.21
664.94	1080.63
665.28	1082.29
665.62	1085.00
665.96	1082.57
666.30	1082.83
666.64	1085.56
666.98	1084.96
667.32	1085.10
667.66	1086.20
668.01	1083.32
668.35	1081.16
668.69	1079.90
669.03	1079.13
669.37	1080.34
669.71	1082.66
670.05	1081.02
670.39	1082.78
670.73	1083.06
671.07	1081.51
671.41	1079.83
671.75	1082.10
672.09	1081.42
672.43	1078.96
672.77	1078.21
673.11	1080.09
673.45	1080.37
673.79	1079.90
674.13	1082.94
674.47	1083.29
674.81	1082.22
675.15	1081.70
675.49	1082.85
675.83	1082.71
676.17	1085.42
676.51	1085.45
676.85	1087.06
677.19	1087.51
677.53	1085.66
677.87	1080.02
678.21	1078.99
678.55	1079.10
678.89	1079.53
679.23	1080.30
679.57	1083.18
679.90	1086.52
680.24	1087.55
680.58	1088.09
680.92	1088.19
681.26	1089.50
681.60	1086.57
681.94	1084.07
682.28	1082.80
682.62	1081.58
682.96	1081.05
683.29	1084.44
683.63	1082.83
683.97	1081.23
684.31	1082.45
684.65	1083.60
684.99	1086.10
685.33	1086.94
685.67	1084.39
686.00	1080.70
686.34	1080.16
686.68	1076.79
687.02	1077.96
687.36	1082.10
687.70	1083.22
688.03	1082.15
688.37	1082.31
688.71	1083.01
689.05	1081.44
689.39	1083.41
689.72	1086.06
690.06	1085.00
690.40	1084.86
690.74	1086.36
691.08	1085.68
691.41	1083.36
691.75	1082.24
692.09	1082.40
692.43	1080.93
692.76	1082.99
693.10	1082.12
693.44	1082.87
693.78	1082.12
694.11	1083.48
694.45	1081.19
694.79	1081.09
695.13	1079.29
695.46	1078.89
695.80	1080.44
696.14	1077.35
696.48	1080.06
696.81	1083.01
697.15	1086.06
697.49	1085.61
697.82	1088.28
698.16	1087.90
698.50	1084.70
698.83	1083.18
699.17	1082.61
699.51	1082.03
699.84	1081.37
700.18	1085.70
700.52	1085.05
700.85	1083.48
701.19	1084.16
701.53	1081.89
701.86	1078.47
702.20	1079.62
702.54	1078.85
702.87	1079.48
703.21	1081.49
703.55	1083.69
703.88	1081.49
704.22	1084.67
704.55	1086.08
704.89	1087.32
705.23	1085.12
705.56	1089.14
705.90	1087.02
706.23	1082.17
706.57	1081.82
706.91	1080.93
707.24	1076.32
707.58	1078.52
707.91	1082.45
708.25	1077.82
708.58	1079.22
708.92	1079.76
709.26	1076.25
709.59	1076.74
709.93	1079.71
710.26	1079.29
710.60	1079.85
710.93	1083.41
711.27	1083.06
711.60	1084.53
711.94	1084.42
712.27	1085.91
712.61	1084.70
712.94	1085.56
713.28	1086.01
713.61	1086.90
713.95	1085.73
714.28	1086.55
714.62	1083.86
714.95	1082.80
715.29	1083.71
715.62	1082.94
715.96	1083.74
716.29	1084.84
716.63	1084.18
716.96	1083.36
717.29	1082.71
717.63	1079.57
717.96	1080.44
718.30	1082.38
718.63	1082.90
718.97	1088.07
719.30	1089.99
719.63	1087.97
719.97	1086.31
720.30	1084.42
720.64	1077.54
720.97	1076.18
721.30	1079.83
721.64	1081.58
721.97	1079.13
722.31	1083.36
722.64	1085.03
722.97	1081.63
723.31	1078.68
723.64	1082.52
723.97	1082.83
724.31	1082.59
724.64	1085.19
724.98	1083.86
725.31	1084.32
725.64	1081.82
725.98	1080.11
726.31	1079.71
726.64	1084.00
726.97	1084.35
727.31	1084.30
727.64	1085.66
727.97	1088.04
728.31	1083.95
728.64	1081.26
728.97	1081.12
729.31	1080.27
729.64	1075.50
729.97	1078.45
730.30	1077.11
730.64	1078.59
730.97	1079.41
731.30	1078.31
731.63	1076.34
731.97	1078.66
732.30	1078.52
732.63	1078.45
732.96	1078.64
733.30	1081.33
733.63	1083.48
733.96	1086.17
734.29	1085.28
734.63	1085.66
734.96	1084.51
735.29	1085.00
735.62	1081.87
735.95	1081.82
736.29	1086.08
736.62	1086.22
736.95	1082.90
737.28	1081.84
737.61	1082.99
737.94	1077.98
738.28	1077.68
738.61	1078.85
738.94	1079.08
739.27	1080.34
739.60	1083.62
739.93	1083.60
740.27	1082.33
740.60	1079.27
740.93	1077.86
741.26	1080.65
741.59	1081.26
741.92	1081.30
742.25	1083.83
742.58	1083.67
742.91	1080.74
743.25	1081.63
743.58	1082.87
743.91	1085.17
744.24	1083.83
744.57	1082.57
744.90	1080.72
745.23	1079.71
745.56	1076.44
745.89	1075.66
746.22	1077.02
746.55	1077.30
746.88	1079.22
747.21	1085.80
747.54	1088.61
747.87	1088.56
748.20	1088.89
748.53	1087.11
748.87	1085.52
749.20	1087.20
749.53	1084.84
749.86	1085.47
750.19	1086.55
750.52	1084.09
750.85	1084.51
751.18	1087.39
751.51	1088.89
751.84	1087.18
752.16	1085.47
752.49	1082.61
752.82	1081.54
753.15	1077.79
753.48	1079.27
753.81	1080.81
754.14	1080.34
754.47	1082.92
754.80	1085.52
755.13	1083.50
755.46	1082.29
755.79	1083.04
756.12	1080.25
756.45	1079.92
756.78	1081.54
757.11	1082.57
757.43	1084.04
757.76	1085.52
758.09	1083.01
758.42	1084.28
758.75	1086.76
759.08	1084.56
759.41	1081.47
759.74	1082.57
760.07	1082.69
760.39	1082.73
760.72	1082.85
761.05	1086.76
761.38	1085.66
761.71	1084.14
762.04	1081.00
762.36	1082.64
762.69	1082.54
763.02	1084.35
763.35	1087.30
763.68	1088.86
