SpectraSuite Data File
++++++++++++++++++++++++++++++++++++
Date: Mon Aug 26 10:22:10 PDT 2019
User: corrico
Dark Spectrum Present: No
Reference Spectrum Present: No
Number of Sampled Component Spectra: 1
Spectrometers: USB2+H06089
Integration Time (usec): 2000 (USB2+H06089)
Spectra Averaged: 20 (USB2+H06089)
Boxcar Smoothing: 2 (USB2+H06089)
Correct for Electrical Dark: No (USB2+H06089)
Strobe/Lamp Enabled: No (USB2+H06089)
Correct for Detector Non-linearity: No (USB2+H06089)
Correct for Stray Light: No (USB2+H06089)
Number of Pixels in Processed Spectrum: 2048
>>>>>Begin Processed Spectral Data<<<<<
339.70	1019.07
340.07	1019.07
340.45	988.99
340.82	968.75
341.19	945.65
341.57	920.67
341.94	909.09
342.31	898.53
342.69	892.47
343.06	892.98
343.43	893.15
343.81	894.62
344.18	897.97
344.55	904.38
344.93	909.51
345.30	915.43
345.67	923.67
346.04	931.63
346.42	939.12
346.79	945.41
347.16	956.18
347.54	962.24
347.91	973.22
348.28	981.01
348.65	994.00
349.03	1001.49
349.40	1011.42
349.77	1021.64
350.14	1031.57
350.52	1036.41
350.89	1045.10
351.26	1054.32
351.63	1059.47
352.01	1061.39
352.38	1063.68
352.75	1064.26
353.12	1066.56
353.50	1068.76
353.87	1069.67
354.24	1072.18
354.61	1075.97
354.98	1074.12
355.36	1073.23
355.73	1082.29
356.10	1083.50
356.47	1084.53
356.84	1089.78
357.22	1090.71
357.59	1086.24
357.96	1086.41
358.33	1086.10
358.70	1083.25
359.08	1082.57
359.45	1082.64
359.82	1082.29
360.19	1081.02
360.56	1079.95
360.94	1079.24
361.31	1080.60
361.68	1080.02
362.05	1078.82
362.42	1080.04
362.79	1081.56
363.16	1077.56
363.54	1077.18
363.91	1076.30
364.28	1075.17
364.65	1071.54
365.02	1071.54
365.39	1067.03
365.76	1066.75
366.14	1065.25
366.51	1063.00
366.88	1066.16
367.25	1068.29
367.62	1070.80
367.99	1069.27
368.36	1071.66
368.73	1070.65
369.10	1073.91
369.48	1072.76
369.85	1075.38
370.22	1079.27
370.59	1077.07
370.96	1076.11
371.33	1078.33
371.70	1079.03
372.07	1074.49
372.44	1074.14
372.81	1071.33
373.18	1068.08
373.55	1065.83
373.93	1069.74
374.30	1071.80
374.67	1076.01
375.04	1075.59
375.41	1078.78
375.78	1077.14
376.15	1080.37
376.52	1081.09
376.89	1082.78
377.26	1081.91
377.63	1085.17
378.00	1081.28
378.37	1080.39
378.74	1079.90
379.11	1080.34
379.48	1078.38
379.85	1080.34
380.22	1077.61
380.59	1078.87
380.96	1077.18
381.33	1074.40
381.70	1071.29
382.07	1072.78
382.44	1072.90
382.81	1074.07
383.18	1077.33
383.55	1079.97
383.92	1081.63
384.29	1078.75
384.66	1077.35
385.03	1074.47
385.40	1074.52
385.77	1074.35
386.14	1076.53
386.51	1077.82
386.88	1083.64
387.25	1083.60
387.62	1082.24
387.99	1082.45
388.36	1081.75
388.73	1078.68
389.10	1077.56
389.46	1078.50
389.83	1079.76
390.20	1081.75
390.57	1083.22
390.94	1087.11
391.31	1087.51
391.68	1087.11
392.05	1088.70
392.42	1087.34
392.79	1083.64
393.16	1085.91
393.53	1086.55
393.89	1085.03
394.26	1083.55
394.63	1085.94
395.00	1081.47
395.37	1080.74
395.74	1081.70
396.11	1083.32
396.48	1083.57
396.84	1086.24
397.21	1088.44
397.58	1087.18
397.95	1088.63
398.32	1086.83
398.69	1087.76
399.06	1085.66
399.42	1089.45
399.79	1088.49
400.16	1090.74
400.53	1092.37
400.90	1092.89
401.27	1087.53
401.64	1088.26
402.00	1088.28
402.37	1087.93
402.74	1089.05
403.11	1090.24
403.48	1090.76
403.84	1089.64
404.21	1088.16
404.58	1088.89
404.95	1091.02
405.32	1092.98
405.68	1093.97
406.05	1094.36
406.42	1095.30
406.79	1099.72
407.16	1097.31
407.52	1097.29
407.89	1098.58
408.26	1097.38
408.63	1096.33
408.99	1097.15
409.36	1098.98
409.73	1098.46
410.10	1097.06
410.47	1094.72
410.83	1098.48
411.20	1100.80
411.57	1104.01
411.94	1109.18
412.30	1108.99
412.67	1106.54
413.04	1106.35
413.40	1106.98
413.77	1106.09
414.14	1107.64
414.51	1107.49
414.87	1103.70
415.24	1102.63
415.61	1102.91
415.97	1104.36
416.34	1108.27
416.71	1109.91
417.08	1110.02
417.44	1111.47
417.81	1110.28
418.18	1109.13
418.54	1112.55
418.91	1113.07
419.28	1110.05
419.64	1111.08
420.01	1111.33
420.38	1112.81
420.74	1114.82
421.11	1118.75
421.48	1119.43
421.84	1122.03
422.21	1123.60
422.58	1123.76
422.94	1128.61
423.31	1133.19
423.68	1136.38
424.04	1139.58
424.41	1144.97
424.77	1146.56
425.14	1149.48
425.51	1157.82
425.87	1162.05
426.24	1167.06
426.61	1172.26
426.97	1179.65
427.34	1184.36
427.70	1192.06
428.07	1200.98
428.44	1212.37
428.80	1222.95
429.17	1229.62
429.53	1237.00
429.90	1245.87
430.27	1254.39
430.63	1265.76
431.00	1279.83
431.36	1298.39
431.73	1312.57
432.09	1330.24
432.46	1344.99
432.83	1364.42
433.19	1380.24
433.56	1406.19
433.92	1430.14
434.29	1458.90
434.65	1484.53
435.02	1517.51
435.38	1548.48
435.75	1579.44
436.11	1620.12
436.48	1664.14
436.84	1706.95
437.21	1752.13
437.57	1800.25
437.94	1844.72
438.30	1896.82
438.67	1956.03
439.03	2020.89
439.40	2095.93
439.76	2170.71
440.13	2244.04
440.49	2324.01
440.86	2399.21
441.22	2482.02
441.59	2571.87
441.95	2672.31
442.32	2772.76
442.68	2892.67
443.05	3009.37
443.41	3136.58
443.78	3262.43
444.14	3403.00
444.51	3541.14
444.87	3709.75
445.24	3877.82
445.60	4063.33
445.96	4245.78
446.33	4457.67
446.69	4652.12
447.06	4866.47
447.42	5086.97
447.79	5319.76
448.15	5578.06
448.51	5856.11
448.88	6171.57
449.24	6479.47
449.61	6836.24
449.97	7190.69
450.33	7568.78
450.70	7919.76
451.06	8337.67
451.43	8737.78
451.79	9204.27
452.15	9693.77
452.52	10236.54
452.88	10786.31
453.24	11422.05
453.61	12120.60
453.97	12815.37
454.34	13512.97
454.70	14334.45
455.06	15125.27
455.43	15875.01
455.79	16551.50
456.15	17351.56
456.52	18095.10
456.88	18999.46
457.24	19889.40
457.61	21019.53
457.97	22090.28
458.33	23182.02
458.70	24248.82
459.06	25241.41
459.42	26268.18
459.79	27174.27
460.15	28211.88
460.51	29185.61
460.88	30274.03
461.24	31226.44
461.60	32370.59
461.96	33411.71
462.33	34423.57
462.69	35458.98
463.05	36560.95
463.42	37563.35
463.78	38492.50
464.14	39238.15
464.50	39984.73
464.87	40535.81
465.23	40880.83
465.59	41280.99
465.95	41609.86
466.32	41833.96
466.68	42069.56
467.04	42224.32
467.40	42245.08
467.77	42358.43
468.13	42276.18
468.49	42109.09
468.85	42000.23
469.22	41859.83
469.58	41602.39
469.94	41460.32
470.30	41231.60
470.66	40866.99
471.03	40370.03
471.39	40007.62
471.75	39294.39
472.11	38601.94
472.47	38110.38
472.84	37585.68
473.20	36882.86
473.56	36482.05
473.92	35893.07
474.28	35243.55
474.65	34579.71
475.01	33878.25
475.37	33044.76
475.73	32379.63
476.09	31691.98
476.45	31053.48
476.81	30525.52
477.18	29996.21
477.54	29517.36
477.90	29078.14
478.26	28524.25
478.62	27988.10
478.98	27548.67
479.34	27106.96
479.71	26538.87
480.07	26100.46
480.43	25654.75
480.79	25164.67
481.15	24703.65
481.51	24348.43
481.87	24035.08
482.23	23695.86
482.59	23366.88
482.96	23050.18
483.32	22737.44
483.68	22347.95
484.04	21997.64
484.40	21610.82
484.76	21176.72
485.12	20719.19
485.48	20284.74
485.84	19796.06
486.20	19355.22
486.56	18927.05
486.92	18548.63
487.28	18167.54
487.64	17777.30
488.00	17398.79
488.37	17022.13
488.73	16584.78
489.09	16111.22
489.45	15684.09
489.81	15225.04
490.17	14780.48
490.53	14391.60
490.89	13990.72
491.25	13579.98
491.61	13191.70
491.97	12791.47
492.33	12378.86
492.69	12021.90
493.05	11690.91
493.41	11365.55
493.77	11053.46
494.13	10758.83
494.49	10464.46
494.85	10175.50
495.21	9912.99
495.57	9662.20
495.93	9402.54
496.29	9155.08
496.64	8924.67
497.00	8663.54
497.36	8411.98
497.72	8164.33
498.08	7938.44
498.44	7710.97
498.80	7512.63
499.16	7311.90
499.52	7121.81
499.88	6945.98
500.24	6772.95
500.60	6603.70
500.96	6450.82
501.32	6295.46
501.68	6130.05
502.03	5955.89
502.39	5796.38
502.75	5619.53
503.11	5472.59
503.47	5334.95
503.83	5210.36
504.19	5078.24
504.55	4967.79
504.91	4849.68
505.26	4732.75
505.62	4614.46
505.98	4506.56
506.34	4390.66
506.70	4271.52
507.06	4156.98
507.42	4057.34
507.78	3965.38
508.13	3867.95
508.49	3784.69
508.85	3712.63
509.21	3633.80
509.57	3551.55
509.93	3472.33
510.28	3388.11
510.64	3304.51
511.00	3227.04
511.36	3153.15
511.72	3091.10
512.07	3034.27
512.43	2974.14
512.79	2912.94
513.15	2849.70
513.51	2785.54
513.86	2720.62
514.22	2666.57
514.58	2614.64
514.94	2568.55
515.30	2527.01
515.65	2486.35
516.01	2446.82
516.37	2405.86
516.73	2362.30
517.08	2322.35
517.44	2284.78
517.80	2246.49
518.16	2207.92
518.51	2174.47
518.87	2143.06
519.23	2111.54
519.59	2078.23
519.94	2050.99
520.30	2024.49
520.66	1995.03
521.01	1968.86
521.37	1941.24
521.73	1913.36
522.09	1884.69
522.44	1858.55
522.80	1833.65
523.16	1810.31
523.51	1789.43
523.87	1772.35
524.23	1755.17
524.58	1735.83
524.94	1721.18
525.30	1701.38
525.65	1680.93
526.01	1663.98
526.37	1645.02
526.72	1622.41
527.08	1602.52
527.44	1585.29
527.79	1562.47
528.15	1546.46
528.51	1529.56
528.86	1520.04
529.22	1507.09
529.58	1495.77
529.93	1483.88
530.29	1472.03
530.65	1458.48
531.00	1445.47
531.36	1438.33
531.71	1427.14
532.07	1419.25
532.43	1411.11
532.78	1403.53
533.14	1390.07
533.49	1378.48
533.85	1368.04
534.21	1360.51
534.56	1352.88
534.92	1346.09
535.27	1341.41
535.63	1333.19
535.98	1323.06
536.34	1312.85
536.69	1306.23
537.05	1295.98
537.41	1289.33
537.76	1281.40
538.12	1278.21
538.47	1272.88
538.83	1270.28
539.18	1263.47
539.54	1257.36
539.89	1252.80
540.25	1248.79
540.60	1243.18
540.96	1243.13
541.31	1240.86
541.67	1233.44
542.02	1227.21
542.38	1224.01
542.73	1220.05
543.09	1218.11
543.44	1219.70
543.80	1216.03
544.15	1215.77
544.51	1213.24
544.86	1210.64
545.22	1203.85
545.57	1203.53
545.93	1196.20
546.28	1190.79
546.64	1188.97
546.99	1187.31
547.35	1181.64
547.70	1180.75
548.05	1183.07
548.41	1178.46
548.76	1171.16
549.12	1169.17
549.47	1166.66
549.83	1162.94
550.18	1159.97
550.53	1163.41
550.89	1161.44
551.24	1161.26
551.60	1154.31
551.95	1152.06
552.30	1147.96
552.66	1147.85
553.01	1143.33
553.37	1143.09
553.72	1142.11
554.07	1139.21
554.43	1140.85
554.78	1139.68
555.13	1138.90
555.49	1138.09
555.84	1139.61
556.19	1136.40
556.55	1138.46
556.90	1137.92
557.26	1138.27
557.61	1136.21
557.96	1133.01
558.32	1130.27
558.67	1132.66
559.02	1129.43
559.37	1129.73
559.73	1130.20
560.08	1130.39
560.43	1123.60
560.79	1124.23
561.14	1122.43
561.49	1122.64
561.85	1120.13
562.20	1121.42
562.55	1123.15
562.90	1121.49
563.26	1119.92
563.61	1117.75
563.96	1117.54
564.32	1115.69
564.67	1114.56
565.02	1111.92
565.37	1114.80
565.73	1115.71
566.08	1114.35
566.43	1116.95
566.78	1114.59
567.14	1109.44
567.49	1106.70
567.84	1104.66
568.19	1101.92
568.54	1103.00
568.90	1105.74
569.25	1105.83
569.60	1103.40
569.95	1103.05
570.31	1102.91
570.66	1100.38
571.01	1100.94
571.36	1104.08
571.71	1102.46
572.06	1103.45
572.42	1105.69
572.77	1102.28
573.12	1100.68
573.47	1099.14
573.82	1096.03
574.18	1093.43
574.53	1096.33
574.88	1093.57
575.23	1095.37
575.58	1095.82
575.93	1098.13
576.28	1096.28
576.64	1098.27
576.99	1096.92
577.34	1096.78
577.69	1094.32
578.04	1094.95
578.39	1092.02
578.74	1090.41
579.09	1090.17
579.44	1088.33
579.80	1087.46
580.15	1089.29
580.50	1093.12
580.85	1095.70
581.20	1097.22
581.55	1097.20
581.90	1099.26
582.25	1096.82
582.60	1094.27
582.95	1093.38
583.30	1092.68
583.65	1089.80
584.00	1090.62
584.35	1089.85
584.71	1089.94
585.06	1086.76
585.41	1086.13
585.76	1087.67
586.11	1087.86
586.46	1089.61
586.81	1090.50
587.16	1091.27
587.51	1090.57
587.86	1092.14
588.21	1089.82
588.56	1096.38
588.91	1095.21
589.26	1092.02
589.61	1089.40
589.96	1089.43
590.31	1084.72
590.66	1086.62
591.01	1088.49
591.36	1089.33
591.71	1090.95
592.06	1091.18
592.41	1088.93
592.76	1088.12
593.10	1084.46
593.45	1082.54
593.80	1079.06
594.15	1081.44
594.50	1081.91
594.85	1085.33
595.20	1084.53
595.55	1087.18
595.90	1087.16
596.25	1087.46
596.60	1086.83
596.95	1087.93
597.30	1090.74
597.64	1100.87
597.99	1103.54
598.34	1105.83
598.69	1108.22
599.04	1103.40
599.39	1089.89
599.74	1084.58
600.09	1083.53
600.44	1076.95
600.78	1078.31
601.13	1079.83
601.48	1082.31
601.83	1081.63
602.18	1085.56
602.53	1084.60
602.88	1084.98
603.22	1084.81
603.57	1084.46
603.92	1082.83
604.27	1081.09
604.62	1081.23
604.97	1080.74
605.31	1079.50
605.66	1081.87
606.01	1082.59
606.36	1081.51
606.71	1080.95
607.05	1084.04
607.40	1083.95
607.75	1084.14
608.10	1083.27
608.44	1081.70
608.79	1076.48
609.14	1076.67
609.49	1079.27
609.84	1080.34
610.18	1081.49
610.53	1082.83
610.88	1081.00
611.23	1080.67
611.57	1079.71
611.92	1080.56
612.27	1082.29
612.62	1080.98
612.96	1080.34
613.31	1079.24
613.66	1078.47
614.00	1077.35
614.35	1079.62
614.70	1078.40
615.05	1083.55
615.39	1083.01
615.74	1085.56
616.09	1086.20
616.43	1088.35
616.78	1083.76
617.13	1085.17
617.47	1085.91
617.82	1083.53
618.17	1082.05
618.51	1085.05
618.86	1083.22
619.21	1080.86
619.55	1083.01
619.90	1081.44
620.25	1078.21
620.59	1082.26
620.94	1081.96
621.29	1080.46
621.63	1084.72
621.98	1088.12
622.32	1088.49
622.67	1088.44
623.02	1089.52
623.36	1090.17
623.71	1086.36
624.05	1083.34
624.40	1081.61
624.75	1080.16
625.09	1074.70
625.44	1078.94
625.78	1078.52
626.13	1080.95
626.48	1080.20
626.82	1085.82
627.17	1083.39
627.51	1084.18
627.86	1085.47
628.20	1085.12
628.55	1080.81
628.89	1082.26
629.24	1081.21
629.58	1078.52
629.93	1081.94
630.28	1081.98
630.62	1080.09
630.97	1079.62
631.31	1075.78
631.66	1073.35
632.00	1075.94
632.35	1075.15
632.69	1077.77
633.04	1085.05
633.38	1086.31
633.73	1082.97
634.07	1082.90
634.42	1082.99
634.76	1078.21
635.11	1075.05
635.45	1076.86
635.79	1081.37
636.14	1077.77
636.48	1077.75
636.83	1081.84
637.17	1081.49
637.52	1080.13
637.86	1081.75
638.21	1081.37
638.55	1079.90
638.89	1081.58
639.24	1080.72
639.58	1081.19
639.93	1085.73
640.27	1088.00
640.61	1085.47
640.96	1085.70
641.30	1087.11
641.65	1087.39
641.99	1085.87
642.33	1087.39
642.68	1087.60
643.02	1083.39
643.37	1079.48
643.71	1077.63
644.05	1075.45
644.40	1071.01
644.74	1075.41
645.08	1078.82
645.43	1079.90
645.77	1082.12
646.11	1084.42
646.46	1080.63
646.80	1078.38
647.14	1077.09
647.49	1077.61
647.83	1078.10
648.17	1079.88
648.52	1080.95
648.86	1083.76
649.20	1082.99
649.55	1085.28
649.89	1083.88
650.23	1085.05
650.57	1083.04
650.92	1082.59
651.26	1081.23
651.60	1082.92
651.95	1080.60
652.29	1084.16
652.63	1085.63
652.97	1087.60
653.32	1088.26
653.66	1088.75
654.00	1085.52
654.34	1083.67
654.69	1079.92
655.03	1079.22
655.37	1079.01
655.71	1079.38
656.05	1080.60
656.40	1081.87
656.74	1083.08
657.08	1086.55
657.42	1086.66
657.76	1083.41
658.11	1079.13
658.45	1076.58
658.79	1072.62
659.13	1070.77
659.47	1076.76
659.82	1079.97
660.16	1083.22
660.50	1084.70
660.84	1087.09
661.18	1085.28
661.52	1087.81
661.87	1085.89
662.21	1085.63
662.55	1084.49
662.89	1084.70
663.23	1082.47
663.57	1079.88
663.91	1079.81
664.25	1078.14
664.60	1077.09
664.94	1077.51
665.28	1077.11
665.62	1076.74
665.96	1080.11
666.30	1079.81
666.64	1080.16
666.98	1083.15
667.32	1083.39
667.66	1082.52
668.01	1082.66
668.35	1083.18
668.69	1084.00
669.03	1087.34
669.37	1087.30
669.71	1089.68
670.05	1086.50
670.39	1084.79
670.73	1082.64
671.07	1082.76
671.41	1077.68
671.75	1078.05
672.09	1078.36
672.43	1072.69
672.77	1072.01
673.11	1073.53
673.45	1075.69
673.79	1078.47
674.13	1084.21
674.47	1083.41
674.81	1084.89
675.15	1082.64
675.49	1080.63
675.83	1081.05
676.17	1080.30
676.51	1077.72
676.85	1077.89
677.19	1075.92
677.53	1076.01
677.87	1077.61
678.21	1079.34
678.55	1078.92
678.89	1078.57
679.23	1073.56
679.57	1072.13
679.90	1071.33
680.24	1073.39
680.58	1072.67
680.92	1073.46
681.26	1074.28
681.60	1075.01
681.94	1073.60
682.28	1074.52
682.62	1078.00
682.96	1079.29
683.29	1078.80
683.63	1080.98
683.97	1081.82
684.31	1080.48
684.65	1079.50
684.99	1080.30
685.33	1082.69
685.67	1083.46
686.00	1083.04
686.34	1082.05
686.68	1081.66
687.02	1079.20
687.36	1078.73
687.70	1078.47
688.03	1080.58
688.37	1080.72
688.71	1080.95
689.05	1082.87
689.39	1082.31
689.72	1080.86
690.06	1078.28
690.40	1076.01
690.74	1074.26
691.08	1077.00
691.41	1078.85
691.75	1083.13
692.09	1083.76
692.43	1084.96
692.76	1083.86
693.10	1081.54
693.44	1081.02
693.78	1082.99
694.11	1079.46
694.45	1080.53
694.79	1079.17
695.13	1081.21
695.46	1078.57
695.80	1079.48
696.14	1079.20
696.48	1082.43
696.81	1077.40
697.15	1080.09
697.49	1079.53
697.82	1075.71
698.16	1073.49
698.50	1077.54
698.83	1077.23
699.17	1081.77
699.51	1084.04
699.84	1087.32
700.18	1085.52
700.52	1083.50
700.85	1082.47
701.19	1082.29
701.53	1081.07
701.86	1078.31
702.20	1080.06
702.54	1078.12
702.87	1079.46
703.21	1079.48
703.55	1079.41
703.88	1078.07
704.22	1081.42
704.55	1080.63
704.89	1079.50
705.23	1082.45
705.56	1082.94
705.90	1081.12
706.23	1080.84
706.57	1081.00
706.91	1081.73
707.24	1083.34
707.58	1082.57
707.91	1082.36
708.25	1084.63
708.58	1084.32
708.92	1082.15
709.26	1081.70
709.59	1080.27
709.93	1078.36
710.26	1076.37
710.60	1075.83
710.93	1075.73
711.27	1079.06
711.60	1079.74
711.94	1081.84
712.27	1079.88
712.61	1077.98
712.94	1076.06
713.28	1072.74
713.61	1073.37
713.95	1079.97
714.28	1083.62
714.62	1080.86
714.95	1083.46
715.29	1083.48
715.62	1078.28
715.96	1077.35
716.29	1080.95
716.63	1079.36
716.96	1079.69
717.29	1081.84
717.63	1080.23
717.96	1077.72
718.30	1078.89
718.63	1078.31
718.97	1077.51
719.30	1078.19
719.63	1079.97
719.97	1080.30
720.30	1079.08
720.64	1080.86
720.97	1080.84
721.30	1081.44
721.64	1081.28
721.97	1083.22
722.31	1084.11
722.64	1083.97
722.97	1085.19
723.31	1083.27
723.64	1082.03
723.97	1080.02
724.31	1081.19
724.64	1078.38
724.98	1082.01
725.31	1083.22
725.64	1080.95
725.98	1080.37
726.31	1082.29
726.64	1078.75
726.97	1075.01
727.31	1076.60
727.64	1079.95
727.97	1079.06
728.31	1077.93
728.64	1080.04
728.97	1085.52
729.31	1081.98
729.64	1083.48
729.97	1083.74
730.30	1082.10
730.64	1076.58
730.97	1076.97
731.30	1073.74
731.63	1074.91
731.97	1075.99
732.30	1078.00
732.63	1079.41
732.96	1082.38
733.30	1081.47
733.63	1081.58
733.96	1078.07
734.29	1079.83
734.63	1080.65
734.96	1083.50
735.29	1083.90
735.62	1085.54
735.95	1081.44
736.29	1080.60
736.62	1081.82
736.95	1082.57
737.28	1083.64
737.61	1084.18
737.94	1085.07
738.28	1082.85
738.61	1081.09
738.94	1081.02
739.27	1080.93
739.60	1077.54
739.93	1079.90
740.27	1082.69
740.60	1082.80
740.93	1083.67
741.26	1088.04
741.59	1087.30
741.92	1083.04
742.25	1081.21
742.58	1080.70
742.91	1078.71
743.25	1078.73
743.58	1078.78
743.91	1079.46
744.24	1080.18
744.57	1080.84
744.90	1079.69
745.23	1080.53
745.56	1079.38
745.89	1078.50
746.22	1075.90
746.55	1075.13
746.88	1075.59
747.21	1078.12
747.54	1078.75
747.87	1081.51
748.20	1081.84
748.53	1083.76
748.87	1081.73
749.20	1080.95
749.53	1077.37
749.86	1077.40
750.19	1071.61
750.52	1074.12
750.85	1074.38
751.18	1075.57
751.51	1078.24
751.84	1084.30
752.16	1084.11
752.49	1084.67
752.82	1085.28
753.15	1079.69
753.48	1076.23
753.81	1074.66
754.14	1072.90
754.47	1071.94
754.80	1075.99
755.13	1081.58
755.46	1082.10
755.79	1080.32
756.12	1081.49
756.45	1078.54
756.78	1073.79
757.11	1072.34
757.43	1072.08
757.76	1072.13
758.09	1075.55
758.42	1077.61
758.75	1080.60
759.08	1079.99
759.41	1080.30
759.74	1078.19
760.07	1077.25
760.39	1076.08
760.72	1080.84
761.05	1079.22
761.38	1082.17
761.71	1080.67
762.04	1078.94
762.36	1078.14
762.69	1078.87
763.02	1076.01
763.35	1076.04
763.68	1074.77
