SpectraSuite Data File
++++++++++++++++++++++++++++++++++++
Date: Mon Aug 26 10:21:53 PDT 2019
User: corrico
Dark Spectrum Present: No
Reference Spectrum Present: No
Number of Sampled Component Spectra: 1
Spectrometers: USB2+H06089
Integration Time (usec): 2000 (USB2+H06089)
Spectra Averaged: 20 (USB2+H06089)
Boxcar Smoothing: 2 (USB2+H06089)
Correct for Electrical Dark: No (USB2+H06089)
Strobe/Lamp Enabled: No (USB2+H06089)
Correct for Detector Non-linearity: No (USB2+H06089)
Correct for Stray Light: No (USB2+H06089)
Number of Pixels in Processed Spectrum: 2048
>>>>>Begin Processed Spectral Data<<<<<
339.70	1029.95
340.07	1029.95
340.45	992.81
340.82	967.67
341.19	942.00
341.57	916.79
341.94	905.69
342.31	897.29
342.69	896.40
343.06	897.95
343.43	894.90
343.81	899.30
344.18	899.84
344.55	898.95
344.93	902.46
345.30	908.06
345.67	914.56
346.04	925.38
346.42	937.85
346.79	944.03
347.16	957.56
347.54	965.71
347.91	973.71
348.28	979.26
348.65	988.48
349.03	992.36
349.40	997.09
349.77	1007.04
350.14	1013.57
350.52	1023.07
350.89	1030.75
351.26	1039.67
351.63	1043.57
352.01	1053.90
352.38	1056.71
352.75	1063.07
353.12	1065.20
353.50	1067.26
353.87	1067.35
354.24	1070.44
354.61	1072.15
354.98	1073.04
355.36	1072.22
355.73	1072.18
356.10	1070.80
356.47	1071.31
356.84	1074.70
357.22	1077.44
357.59	1080.04
357.96	1081.14
358.33	1079.29
358.70	1078.68
359.08	1078.10
359.45	1076.30
359.82	1074.54
360.19	1071.24
360.56	1067.96
360.94	1068.64
361.31	1070.09
361.68	1068.06
362.05	1068.01
362.42	1066.63
362.79	1065.04
363.16	1060.61
363.54	1059.35
363.91	1061.92
364.28	1063.16
364.65	1062.65
365.02	1065.15
365.39	1067.12
365.76	1064.57
366.14	1066.72
366.51	1066.96
366.88	1063.26
367.25	1063.24
367.62	1063.31
367.99	1062.74
368.36	1064.90
368.73	1065.37
369.10	1064.71
369.48	1065.97
369.85	1067.85
370.22	1065.67
370.59	1064.99
370.96	1068.43
371.33	1069.81
371.70	1066.89
372.07	1064.99
372.44	1066.54
372.81	1064.10
373.18	1062.79
373.55	1065.22
373.93	1067.80
374.30	1070.09
374.67	1071.26
375.04	1069.32
375.41	1066.70
375.78	1067.35
376.15	1066.93
376.52	1065.48
376.89	1068.50
377.26	1067.64
377.63	1069.25
378.00	1070.94
378.37	1072.32
378.74	1069.27
379.11	1070.30
379.48	1068.81
379.85	1067.40
380.22	1064.80
380.59	1068.52
380.96	1068.43
381.33	1067.96
381.70	1066.16
382.07	1068.24
382.44	1067.85
382.81	1070.19
383.18	1067.85
383.55	1067.92
383.92	1068.81
384.29	1066.89
384.66	1068.45
385.03	1068.59
385.40	1070.09
385.77	1071.90
386.14	1071.01
386.51	1068.90
386.88	1068.92
387.25	1069.72
387.62	1065.67
387.99	1069.72
388.36	1069.55
388.73	1070.91
389.10	1071.24
389.46	1073.23
389.83	1070.49
390.20	1069.02
390.57	1068.17
390.94	1066.98
391.31	1069.06
391.68	1071.40
392.05	1073.11
392.42	1075.31
392.79	1076.39
393.16	1073.58
393.53	1074.28
393.89	1075.38
394.26	1074.35
394.63	1076.86
395.00	1076.11
395.37	1072.25
395.74	1069.20
396.11	1069.55
396.48	1066.28
396.84	1071.12
397.21	1069.88
397.58	1070.54
397.95	1070.00
398.32	1068.24
398.69	1063.75
399.06	1065.04
399.42	1067.17
399.79	1067.73
400.16	1070.37
400.53	1073.72
400.90	1076.86
401.27	1076.67
401.64	1079.06
402.00	1079.62
402.37	1077.82
402.74	1075.29
403.11	1076.32
403.48	1073.88
403.84	1070.26
404.21	1069.93
404.58	1072.04
404.95	1068.81
405.32	1069.30
405.68	1070.30
406.05	1067.38
406.42	1068.83
406.79	1070.61
407.16	1071.19
407.52	1072.97
407.89	1074.94
408.26	1072.15
408.63	1070.00
408.99	1068.55
409.36	1067.35
409.73	1068.67
410.10	1069.70
410.47	1075.38
410.83	1074.89
411.20	1074.94
411.57	1073.21
411.94	1071.38
412.30	1067.78
412.67	1071.17
413.04	1072.95
413.40	1073.46
413.77	1075.97
414.14	1073.53
414.51	1074.66
414.87	1070.58
415.24	1072.78
415.61	1070.70
415.97	1072.76
416.34	1069.20
416.71	1071.75
417.08	1072.36
417.44	1075.43
417.81	1076.81
418.18	1078.40
418.54	1081.19
418.91	1079.57
419.28	1081.09
419.64	1080.18
420.01	1079.13
420.38	1080.79
420.74	1082.85
421.11	1081.05
421.48	1079.60
421.84	1077.23
422.21	1076.41
422.58	1075.90
422.94	1073.04
423.31	1074.05
423.68	1076.67
424.04	1071.87
424.41	1072.41
424.77	1076.13
425.14	1080.84
425.51	1082.66
425.87	1087.02
426.24	1084.39
426.61	1083.04
426.97	1083.81
427.34	1081.49
427.70	1081.09
428.07	1085.05
428.44	1086.31
428.80	1083.64
429.17	1086.59
429.53	1089.31
429.90	1090.81
430.27	1091.63
430.63	1091.56
431.00	1091.86
431.36	1091.86
431.73	1094.76
432.09	1098.06
432.46	1100.22
432.83	1103.14
433.19	1107.61
433.56	1105.95
433.92	1108.06
434.29	1111.59
434.65	1116.81
435.02	1116.46
435.38	1120.06
435.75	1124.39
436.11	1126.90
436.48	1128.61
436.84	1134.57
437.21	1140.61
437.57	1142.28
437.94	1149.11
438.30	1154.89
438.67	1160.48
439.03	1164.28
439.40	1171.58
439.76	1176.26
440.13	1181.48
440.49	1187.40
440.86	1194.26
441.22	1202.87
441.59	1210.03
441.95	1218.55
442.32	1228.08
442.68	1235.92
443.05	1248.84
443.41	1261.22
443.78	1271.66
444.14	1279.85
444.51	1295.18
444.87	1306.98
445.24	1322.10
445.60	1337.50
445.96	1355.38
446.33	1373.50
446.69	1384.36
447.06	1400.69
447.42	1419.49
447.79	1439.85
448.15	1462.88
448.51	1488.77
448.88	1515.38
449.24	1540.92
449.61	1575.02
449.97	1604.76
450.33	1640.48
450.70	1669.55
451.06	1704.71
451.43	1732.79
451.79	1767.17
452.15	1806.38
452.52	1847.64
452.88	1892.35
453.24	1939.48
453.61	1989.10
453.97	2039.92
454.34	2093.54
454.70	2153.41
455.06	2212.60
455.43	2273.60
455.79	2325.77
456.15	2388.26
456.52	2445.46
456.88	2520.36
457.24	2596.73
457.61	2690.75
457.97	2779.11
458.33	2865.45
458.70	2944.93
459.06	3021.98
459.42	3103.62
459.79	3171.68
460.15	3257.11
460.51	3338.28
460.88	3418.63
461.24	3497.63
461.60	3600.26
461.96	3688.03
462.33	3776.27
462.69	3865.58
463.05	3950.40
463.42	4023.71
463.78	4104.81
464.14	4171.44
464.50	4247.25
464.87	4293.39
465.23	4323.18
465.59	4353.68
465.95	4388.93
466.32	4412.14
466.68	4441.52
467.04	4472.69
467.40	4488.05
467.77	4499.40
468.13	4502.44
468.49	4509.81
468.85	4516.37
469.22	4523.95
469.58	4515.31
469.94	4500.94
470.30	4479.69
470.66	4445.12
471.03	4396.86
471.39	4361.99
471.75	4309.89
472.11	4256.22
472.47	4218.72
472.84	4175.35
473.20	4115.86
473.56	4074.26
473.92	4017.86
474.28	3964.21
474.65	3918.62
475.01	3877.38
475.37	3826.26
475.73	3779.82
476.09	3735.89
476.45	3683.72
476.81	3639.95
477.18	3606.79
477.54	3579.33
477.90	3546.78
478.26	3505.89
478.62	3462.54
478.98	3419.22
479.34	3380.53
479.71	3335.94
480.07	3303.67
480.43	3268.89
480.79	3233.15
481.15	3198.25
481.51	3166.46
481.87	3138.49
482.23	3114.83
482.59	3083.82
482.96	3055.55
483.32	3029.87
483.68	2997.38
484.04	2969.46
484.40	2943.01
484.76	2915.75
485.12	2880.12
485.48	2850.23
485.84	2815.10
486.20	2783.86
486.56	2743.72
486.92	2709.29
487.28	2673.76
487.64	2637.85
488.00	2601.37
488.37	2570.80
488.73	2536.44
489.09	2504.05
489.45	2471.28
489.81	2435.51
490.17	2399.92
490.53	2366.59
490.89	2328.81
491.25	2293.49
491.61	2256.67
491.97	2221.31
492.33	2191.23
492.69	2165.93
493.05	2137.03
493.41	2108.54
493.77	2081.93
494.13	2050.57
494.49	2019.48
494.85	1993.93
495.21	1967.03
495.57	1939.41
495.93	1914.11
496.29	1887.88
496.64	1860.63
497.00	1837.09
497.36	1816.42
497.72	1795.35
498.08	1779.42
498.44	1764.18
498.80	1748.05
499.16	1731.04
499.52	1714.79
499.88	1696.56
500.24	1676.76
500.60	1660.47
500.96	1644.93
501.32	1626.25
501.68	1606.94
502.03	1592.27
502.39	1573.68
502.75	1552.97
503.11	1541.80
503.47	1531.83
503.83	1520.20
504.19	1512.43
504.55	1501.59
504.91	1489.17
505.26	1476.67
505.62	1459.21
505.98	1445.91
506.34	1435.92
506.70	1422.09
507.06	1406.99
507.42	1393.95
507.78	1381.17
508.13	1372.70
508.49	1365.26
508.85	1358.33
509.21	1354.73
509.57	1347.56
509.93	1337.85
510.28	1330.69
510.64	1320.83
511.00	1311.92
511.36	1301.88
511.72	1295.84
512.07	1288.09
512.43	1283.62
512.79	1276.69
513.15	1272.39
513.51	1260.80
513.86	1253.12
514.22	1244.11
514.58	1237.86
514.94	1231.80
515.30	1231.07
515.65	1223.66
516.01	1222.84
516.37	1219.11
516.73	1215.58
517.08	1209.89
517.44	1207.13
517.80	1200.60
518.16	1194.63
518.51	1188.62
518.87	1183.91
519.23	1182.13
519.59	1179.04
519.94	1176.73
520.30	1176.05
520.66	1174.57
521.01	1171.11
521.37	1171.06
521.73	1170.62
522.09	1166.29
522.44	1167.51
522.80	1164.60
523.16	1161.61
523.51	1158.12
523.87	1155.97
524.23	1151.01
524.58	1149.58
524.94	1144.85
525.30	1142.02
525.65	1140.61
526.01	1137.48
526.37	1131.09
526.72	1129.38
527.08	1127.46
527.44	1125.21
527.79	1124.00
528.15	1123.69
528.51	1123.90
528.86	1122.64
529.22	1122.26
529.58	1119.99
529.93	1121.05
530.29	1118.85
530.65	1117.02
531.00	1117.09
531.36	1115.12
531.71	1111.45
532.07	1109.39
532.43	1107.94
532.78	1105.62
533.14	1106.07
533.49	1106.16
533.85	1104.22
534.21	1102.53
534.56	1103.14
534.92	1100.61
535.27	1100.92
535.63	1102.37
535.98	1099.72
536.34	1095.14
536.69	1094.93
537.05	1096.47
537.41	1095.70
537.76	1100.36
538.12	1105.34
538.47	1102.95
538.83	1100.50
539.18	1097.95
539.54	1095.42
539.89	1092.59
540.25	1094.46
540.60	1093.22
540.96	1094.50
541.31	1095.11
541.67	1096.56
542.02	1098.90
542.38	1098.55
542.73	1097.80
543.09	1096.10
543.44	1094.60
543.80	1090.08
544.15	1090.97
544.51	1090.69
544.86	1093.22
545.22	1090.43
545.57	1093.87
545.93	1092.54
546.28	1093.99
546.64	1094.34
546.99	1094.34
547.35	1091.86
547.70	1091.37
548.05	1089.68
548.41	1085.31
548.76	1083.97
549.12	1086.57
549.47	1088.04
549.83	1090.29
550.18	1090.57
550.53	1090.99
550.89	1087.62
551.24	1085.84
551.60	1083.43
551.95	1082.08
552.30	1080.86
552.66	1081.44
553.01	1081.09
553.37	1079.48
553.72	1084.72
554.07	1086.62
554.43	1088.61
554.78	1086.10
555.13	1085.63
555.49	1080.86
555.84	1081.07
556.19	1080.06
556.55	1079.15
556.90	1079.15
557.26	1080.91
557.61	1080.27
557.96	1078.66
558.32	1081.19
558.67	1079.57
559.02	1076.83
559.37	1074.35
559.73	1073.18
560.08	1073.32
560.43	1077.04
560.79	1077.00
561.14	1079.36
561.49	1079.50
561.85	1079.27
562.20	1077.11
562.55	1080.04
562.90	1079.81
563.26	1079.03
563.61	1081.49
563.96	1081.73
564.32	1079.81
564.67	1076.48
565.02	1079.01
565.37	1078.64
565.73	1076.86
566.08	1077.23
566.43	1079.99
566.78	1077.65
567.14	1074.89
567.49	1076.20
567.84	1077.42
568.19	1076.86
568.54	1075.71
568.90	1076.53
569.25	1076.97
569.60	1076.13
569.95	1077.82
570.31	1083.79
570.66	1082.38
571.01	1082.31
571.36	1084.04
571.71	1082.50
572.06	1079.88
572.42	1082.43
572.77	1083.29
573.12	1080.46
573.47	1079.95
573.82	1077.28
574.18	1080.09
574.53	1079.90
574.88	1080.77
575.23	1081.47
575.58	1084.63
575.93	1078.12
576.28	1076.74
576.64	1076.04
576.99	1074.38
577.34	1072.08
577.69	1072.74
578.04	1074.59
578.39	1073.70
578.74	1075.97
579.09	1077.56
579.44	1080.95
579.80	1079.81
580.15	1081.37
580.50	1079.64
580.85	1077.91
581.20	1078.26
581.55	1081.30
581.90	1080.44
582.25	1082.10
582.60	1084.65
582.95	1084.58
583.30	1081.68
583.65	1081.77
584.00	1080.95
584.35	1078.96
584.71	1076.48
585.06	1074.61
585.41	1074.63
585.76	1072.71
586.11	1071.47
586.46	1071.43
586.81	1072.22
587.16	1070.91
587.51	1070.72
587.86	1072.39
588.21	1070.94
588.56	1071.59
588.91	1071.31
589.26	1074.45
589.61	1074.35
589.96	1074.56
590.31	1075.43
590.66	1074.77
591.01	1074.84
591.36	1075.08
591.71	1076.32
592.06	1077.96
592.41	1081.02
592.76	1083.04
593.10	1081.47
593.45	1081.63
593.80	1077.91
594.15	1075.99
594.50	1075.01
594.85	1078.96
595.20	1080.02
595.55	1079.69
595.90	1081.19
596.25	1077.89
596.60	1074.31
596.95	1076.51
597.30	1076.20
597.64	1085.75
597.99	1087.53
598.34	1088.33
598.69	1087.20
599.04	1088.86
599.39	1081.47
599.74	1082.22
600.09	1081.89
600.44	1079.13
600.78	1080.56
601.13	1080.51
601.48	1078.38
601.83	1075.22
602.18	1074.31
602.53	1074.24
602.88	1071.36
603.22	1071.82
603.57	1074.98
603.92	1080.11
604.27	1079.31
604.62	1079.17
604.97	1080.67
605.31	1081.80
605.66	1078.99
606.01	1077.37
606.36	1076.81
606.71	1072.76
607.05	1070.96
607.40	1071.29
607.75	1073.84
608.10	1074.75
608.44	1077.25
608.79	1078.19
609.14	1076.15
609.49	1075.50
609.84	1076.67
610.18	1079.15
610.53	1076.76
610.88	1075.59
611.23	1074.80
611.57	1076.76
611.92	1072.90
612.27	1078.38
612.62	1079.03
612.96	1077.42
613.31	1075.62
613.66	1076.48
614.00	1074.12
614.35	1074.38
614.70	1075.36
615.05	1075.62
615.39	1075.38
615.74	1073.00
616.09	1072.27
616.43	1072.85
616.78	1070.19
617.13	1068.74
617.47	1071.61
617.82	1073.95
618.17	1074.05
618.51	1075.31
618.86	1080.51
619.21	1079.78
619.55	1082.19
619.90	1081.54
620.25	1081.00
620.59	1079.95
620.94	1080.09
621.29	1078.47
621.63	1080.18
621.98	1080.13
622.32	1077.70
622.67	1077.70
623.02	1076.41
623.36	1076.86
623.71	1075.80
624.05	1075.83
624.40	1074.14
624.75	1072.88
625.09	1070.56
625.44	1071.26
625.78	1075.01
626.13	1076.23
626.48	1075.08
626.82	1077.28
627.17	1079.48
627.51	1075.83
627.86	1075.66
628.20	1075.48
628.55	1075.24
628.89	1073.67
629.24	1075.64
629.58	1073.63
629.93	1074.61
630.28	1075.17
630.62	1076.11
630.97	1078.03
631.31	1082.19
631.66	1082.97
632.00	1083.36
632.35	1083.86
632.69	1079.53
633.04	1078.03
633.38	1079.74
633.73	1078.87
634.07	1080.06
634.42	1082.47
634.76	1082.08
635.11	1079.64
635.45	1078.94
635.79	1073.77
636.14	1069.11
636.48	1070.33
636.83	1071.90
637.17	1068.48
637.52	1070.63
637.86	1076.53
638.21	1073.77
638.55	1072.92
638.89	1076.60
639.24	1077.96
639.58	1076.83
639.93	1079.53
640.27	1079.83
640.61	1075.97
640.96	1075.20
641.30	1072.39
641.65	1071.15
641.99	1072.39
642.33	1075.90
642.68	1074.63
643.02	1076.88
643.37	1078.40
643.71	1076.34
644.05	1076.86
644.40	1080.51
644.74	1078.31
645.08	1077.54
645.43	1078.24
645.77	1076.69
646.11	1072.69
646.46	1072.60
646.80	1071.99
647.14	1073.67
647.49	1074.24
647.83	1077.96
648.17	1080.70
648.52	1077.58
648.86	1075.85
649.20	1074.12
649.55	1070.16
649.89	1072.11
650.23	1076.74
650.57	1077.23
650.92	1081.82
651.26	1086.48
651.60	1084.30
651.95	1081.58
652.29	1082.38
652.63	1078.19
652.97	1077.35
653.32	1076.74
653.66	1075.05
654.00	1074.70
654.34	1074.59
654.69	1069.34
655.03	1071.08
655.37	1075.36
655.71	1077.49
656.05	1079.13
656.40	1081.77
656.74	1079.31
657.08	1077.51
657.42	1073.39
657.76	1073.25
658.11	1072.83
658.45	1075.31
658.79	1072.57
659.13	1073.16
659.47	1070.16
659.82	1071.33
660.16	1067.35
660.50	1073.53
660.84	1073.79
661.18	1074.61
661.52	1073.25
661.87	1075.01
662.21	1071.08
662.55	1071.31
662.89	1075.05
663.23	1077.14
663.57	1078.68
663.91	1079.46
664.25	1079.90
664.60	1079.62
664.94	1080.98
665.28	1080.67
665.62	1079.17
665.96	1079.01
666.30	1076.04
666.64	1072.74
666.98	1072.15
667.32	1075.05
667.66	1076.72
668.01	1076.11
668.35	1076.23
668.69	1076.15
669.03	1072.62
669.37	1070.96
669.71	1074.21
670.05	1072.41
670.39	1070.21
670.73	1071.38
671.07	1071.90
671.41	1070.96
671.75	1072.32
672.09	1076.13
672.43	1073.95
672.77	1073.30
673.11	1069.98
673.45	1070.49
673.79	1069.37
674.13	1070.26
674.47	1066.75
674.81	1069.04
675.15	1067.96
675.49	1066.96
675.83	1065.88
676.17	1070.94
676.51	1071.40
676.85	1073.11
677.19	1073.56
677.53	1077.82
677.87	1078.19
678.21	1076.51
678.55	1076.79
678.89	1075.03
679.23	1073.60
679.57	1069.20
679.90	1072.97
680.24	1073.00
680.58	1072.32
680.92	1070.23
681.26	1072.83
681.60	1071.80
681.94	1070.94
682.28	1069.44
682.62	1072.27
682.96	1072.43
683.29	1069.30
683.63	1068.90
683.97	1070.14
684.31	1066.44
684.65	1066.56
684.99	1067.66
685.33	1069.32
685.67	1073.00
686.00	1078.54
686.34	1079.69
686.68	1083.22
687.02	1085.89
687.36	1084.49
687.70	1082.24
688.03	1081.47
688.37	1079.78
688.71	1075.80
689.05	1076.88
689.39	1078.05
689.72	1076.79
690.06	1078.03
690.40	1078.89
690.74	1079.17
691.08	1077.42
691.41	1079.48
691.75	1076.97
692.09	1076.06
692.43	1076.76
692.76	1077.25
693.10	1075.52
693.44	1076.27
693.78	1075.55
694.11	1072.36
694.45	1072.55
694.79	1072.71
695.13	1069.53
695.46	1072.76
695.80	1074.82
696.14	1072.13
696.48	1074.82
696.81	1080.16
697.15	1076.46
697.49	1075.43
697.82	1076.25
698.16	1075.36
698.50	1072.15
698.83	1074.91
699.17	1074.00
699.51	1074.03
699.84	1071.54
700.18	1072.22
700.52	1069.51
700.85	1067.85
701.19	1068.81
701.53	1071.01
701.86	1071.87
702.20	1072.41
702.54	1072.83
702.87	1071.17
703.21	1071.05
703.55	1071.52
703.88	1073.79
704.22	1073.44
704.55	1073.42
704.89	1073.56
705.23	1072.46
705.56	1068.71
705.90	1070.40
706.23	1073.74
706.57	1071.75
706.91	1073.37
707.24	1077.72
707.58	1081.91
707.91	1077.70
708.25	1078.14
708.58	1076.30
708.92	1074.07
709.26	1069.72
709.59	1073.46
709.93	1071.10
710.26	1071.80
710.60	1071.87
710.93	1072.76
711.27	1069.09
711.60	1073.56
711.94	1075.22
712.27	1077.11
712.61	1075.52
712.94	1076.13
713.28	1072.97
713.61	1069.48
713.95	1066.86
714.28	1069.72
714.62	1069.81
714.95	1071.61
715.29	1072.41
715.62	1074.63
715.96	1071.66
716.29	1073.04
716.63	1071.22
716.96	1074.45
717.29	1073.07
717.63	1078.05
717.96	1078.99
718.30	1080.39
718.63	1077.00
718.97	1078.68
719.30	1075.59
719.63	1078.03
719.97	1079.78
720.30	1079.46
720.64	1077.68
720.97	1078.59
721.30	1074.45
721.64	1075.83
721.97	1078.50
722.31	1082.19
722.64	1080.48
722.97	1084.37
723.31	1078.99
723.64	1075.03
723.97	1073.35
724.31	1074.35
724.64	1075.01
724.98	1077.25
725.31	1078.36
725.64	1077.11
725.98	1075.59
726.31	1072.08
726.64	1070.37
726.97	1072.46
727.31	1071.85
727.64	1071.33
727.97	1068.31
728.31	1068.71
728.64	1069.04
728.97	1069.70
729.31	1070.35
729.64	1075.17
729.97	1077.42
730.30	1075.55
730.64	1074.56
730.97	1074.61
731.30	1071.57
731.63	1071.31
731.97	1072.15
732.30	1070.56
732.63	1071.15
732.96	1073.56
733.30	1073.28
733.63	1072.22
733.96	1073.79
734.29	1071.54
734.63	1068.71
734.96	1068.08
735.29	1068.13
735.62	1067.00
735.95	1071.85
736.29	1077.54
736.62	1078.40
736.95	1082.83
737.28	1083.93
737.61	1082.73
737.94	1078.80
738.28	1075.59
738.61	1072.60
738.94	1071.01
739.27	1068.88
739.60	1068.08
739.93	1068.83
740.27	1068.43
740.60	1069.44
740.93	1070.58
741.26	1069.09
741.59	1071.90
741.92	1072.27
742.25	1070.89
742.58	1071.59
742.91	1077.07
743.25	1076.69
743.58	1074.19
743.91	1076.97
744.24	1076.79
744.57	1075.45
744.90	1077.35
745.23	1081.33
745.56	1081.33
745.89	1081.87
746.22	1081.54
746.55	1078.50
746.88	1077.00
747.21	1075.85
747.54	1075.78
747.87	1073.30
748.20	1074.45
748.53	1074.24
748.87	1074.59
749.20	1071.97
749.53	1073.30
749.86	1073.37
750.19	1076.46
750.52	1077.42
750.85	1075.99
751.18	1074.98
751.51	1074.10
751.84	1071.75
752.16	1068.99
752.49	1068.34
752.82	1070.33
753.15	1070.56
753.48	1068.83
753.81	1072.69
754.14	1074.31
754.47	1072.04
754.80	1075.34
755.13	1074.28
755.46	1073.42
755.79	1075.83
756.12	1078.75
756.45	1078.05
756.78	1080.20
757.11	1081.28
757.43	1081.56
757.76	1079.57
758.09	1080.13
758.42	1078.47
758.75	1077.11
759.08	1078.05
759.41	1076.25
759.74	1072.48
760.07	1074.35
760.39	1072.53
760.72	1066.21
761.05	1067.26
761.38	1068.20
761.71	1066.89
762.04	1071.03
762.36	1078.82
762.69	1080.06
763.02	1080.04
763.35	1078.52
763.68	1077.09
764.01	1072.01
764.33	1073.25
764.66	1072.04
764.99	1075.17
765.32	1074.38
765.65	1079.36
765.97	1078.36
766.30	1079.20
