SpectraSuite Data File
++++++++++++++++++++++++++++++++++++
Date: Mon Aug 26 10:22:11 PDT 2019
User: corrico
Dark Spectrum Present: No
Reference Spectrum Present: No
Number of Sampled Component Spectra: 1
Spectrometers: USB2+H06089
Integration Time (usec): 2000 (USB2+H06089)
Spectra Averaged: 20 (USB2+H06089)
Boxcar Smoothing: 2 (USB2+H06089)
Correct for Electrical Dark: No (USB2+H06089)
Strobe/Lamp Enabled: No (USB2+H06089)
Correct for Detector Non-linearity: No (USB2+H06089)
Correct for Stray Light: No (USB2+H06089)
Number of Pixels in Processed Spectrum: 2048
>>>>>Begin Processed Spectral Data<<<<<
339.70	1042.94
340.07	1042.94
340.45	1003.79
340.82	978.44
341.19	951.19
341.57	920.74
341.94	909.65
342.31	905.32
342.69	900.10
343.06	898.56
343.43	902.65
343.81	900.66
344.18	899.49
344.55	900.76
344.93	905.81
345.30	907.66
345.67	916.62
346.04	923.58
346.42	935.56
346.79	943.70
347.16	954.40
347.54	963.06
347.91	977.88
348.28	988.85
348.65	995.38
349.03	1005.49
349.40	1013.71
349.77	1017.83
350.14	1020.15
350.52	1030.96
350.89	1037.21
351.26	1042.80
351.63	1047.65
352.01	1055.93
352.38	1060.73
352.75	1066.30
353.12	1067.94
353.50	1074.98
353.87	1080.56
354.24	1083.01
354.61	1080.11
354.98	1083.29
355.36	1084.35
355.73	1083.04
356.10	1083.81
356.47	1085.33
356.84	1087.09
357.22	1084.58
357.59	1086.41
357.96	1084.84
358.33	1084.37
358.70	1084.91
359.08	1084.32
359.45	1082.01
359.82	1081.61
360.19	1083.74
360.56	1081.30
360.94	1081.44
361.31	1081.51
361.68	1080.63
362.05	1081.94
362.42	1080.20
362.79	1081.28
363.16	1081.19
363.54	1077.96
363.91	1075.55
364.28	1078.28
364.65	1077.02
365.02	1075.78
365.39	1078.07
365.76	1078.80
366.14	1076.79
366.51	1074.10
366.88	1074.68
367.25	1076.86
367.62	1076.79
367.99	1080.72
368.36	1081.73
368.73	1078.19
369.10	1073.53
369.48	1071.61
369.85	1069.23
370.22	1071.10
370.59	1071.78
370.96	1072.11
371.33	1070.54
371.70	1071.87
372.07	1072.85
372.44	1074.73
372.81	1079.67
373.18	1083.79
373.55	1081.54
373.93	1083.06
374.30	1083.18
374.67	1080.95
375.04	1080.30
375.41	1081.09
375.78	1079.95
376.15	1081.75
376.52	1082.10
376.89	1081.63
377.26	1079.69
377.63	1080.13
378.00	1080.27
378.37	1081.77
378.74	1081.28
379.11	1085.05
379.48	1082.57
379.85	1079.90
380.22	1076.01
380.59	1075.80
380.96	1074.35
381.33	1074.45
381.70	1076.37
382.07	1079.31
382.44	1079.17
382.81	1077.82
383.18	1076.58
383.55	1075.90
383.92	1074.05
384.29	1076.90
384.66	1080.65
385.03	1083.67
385.40	1087.32
385.77	1090.34
386.14	1090.69
386.51	1089.24
386.88	1088.68
387.25	1087.69
387.62	1088.28
387.99	1086.48
388.36	1084.30
388.73	1085.75
389.10	1080.56
389.46	1079.60
389.83	1078.66
390.20	1079.69
390.57	1079.43
390.94	1086.17
391.31	1086.22
391.68	1088.07
392.05	1088.79
392.42	1088.68
392.79	1083.25
393.16	1083.95
393.53	1081.66
393.89	1080.20
394.26	1079.08
394.63	1082.64
395.00	1083.41
395.37	1083.93
395.74	1083.60
396.11	1085.82
396.48	1086.57
396.84	1085.99
397.21	1088.56
397.58	1088.54
397.95	1088.42
398.32	1084.49
398.69	1085.96
399.06	1085.42
399.42	1086.97
399.79	1087.18
400.16	1088.91
400.53	1084.67
400.90	1084.02
401.27	1087.41
401.64	1086.55
402.00	1090.24
402.37	1090.78
402.74	1092.73
403.11	1090.92
403.48	1087.81
403.84	1085.21
404.21	1088.26
404.58	1088.00
404.95	1089.12
405.32	1093.08
405.68	1093.29
406.05	1094.08
406.42	1093.31
406.79	1090.50
407.16	1090.53
407.52	1092.96
407.89	1091.67
408.26	1092.73
408.63	1095.09
408.99	1096.12
409.36	1092.94
409.73	1092.84
410.10	1094.53
410.47	1097.95
410.83	1095.82
411.20	1099.42
411.57	1099.05
411.94	1100.78
412.30	1100.61
412.67	1101.11
413.04	1099.42
413.40	1101.97
413.77	1100.82
414.14	1099.56
414.51	1102.60
414.87	1106.09
415.24	1105.88
415.61	1105.32
415.97	1104.22
416.34	1105.69
416.71	1100.24
417.08	1102.35
417.44	1106.23
417.81	1110.65
418.18	1111.59
418.54	1117.47
418.91	1118.05
419.28	1114.02
419.64	1111.64
420.01	1110.37
420.38	1107.89
420.74	1108.55
421.11	1113.88
421.48	1117.93
421.84	1120.41
422.21	1128.91
422.58	1130.88
422.94	1133.22
423.31	1135.37
423.68	1140.52
424.04	1141.27
424.41	1146.28
424.77	1146.53
425.14	1152.50
425.51	1153.60
425.87	1156.62
426.24	1160.48
426.61	1166.15
426.97	1172.19
427.34	1182.72
427.70	1190.37
428.07	1199.24
428.44	1207.51
428.80	1216.52
429.17	1227.35
429.53	1237.75
429.90	1248.14
430.27	1264.19
430.63	1277.21
431.00	1287.86
431.36	1304.45
431.73	1322.89
432.09	1340.59
432.46	1354.66
432.83	1372.05
433.19	1392.27
433.56	1409.66
433.92	1431.03
434.29	1458.55
434.65	1487.76
435.02	1516.15
435.38	1551.94
435.75	1585.78
436.11	1622.53
436.48	1660.73
436.84	1703.77
437.21	1748.54
437.57	1796.06
437.94	1847.15
438.30	1901.45
438.67	1960.55
439.03	2023.84
439.40	2088.88
439.76	2155.82
440.13	2231.96
440.49	2309.76
440.86	2383.20
441.22	2471.77
441.59	2570.05
441.95	2671.84
442.32	2773.30
442.68	2897.30
443.05	3015.90
443.41	3141.58
443.78	3267.34
444.14	3410.35
444.51	3543.15
444.87	3709.66
445.24	3873.17
445.60	4057.55
445.96	4235.41
446.33	4449.52
446.69	4651.11
447.06	4868.78
447.42	5086.92
447.79	5324.55
448.15	5583.21
448.51	5855.76
448.88	6177.98
449.24	6484.50
449.61	6839.61
449.97	7191.23
450.33	7565.24
450.70	7918.50
451.06	8346.68
451.43	8742.32
451.79	9206.19
452.15	9687.29
452.52	10217.70
452.88	10769.06
453.24	11404.45
453.61	12102.35
453.97	12803.13
454.34	13497.73
454.70	14306.36
455.06	15107.50
455.43	15852.78
455.79	16540.59
456.15	17341.43
456.52	18075.00
456.88	18975.05
457.24	19880.42
457.61	20991.66
457.97	22054.45
458.33	23138.68
458.70	24165.75
459.06	25176.82
459.42	26194.90
459.79	27119.48
460.15	28179.32
460.51	29183.74
460.88	30254.26
461.24	31235.20
461.60	32367.62
461.96	33404.76
462.33	34438.27
462.69	35454.08
463.05	36545.90
463.42	37545.70
463.78	38462.59
464.14	39206.71
464.50	39952.15
464.87	40503.13
465.23	40858.43
465.59	41275.98
465.95	41599.16
466.32	41850.86
466.68	42071.81
467.04	42216.24
467.40	42216.85
467.77	42313.30
468.13	42219.29
468.49	42065.51
468.85	41935.38
469.22	41786.10
469.58	41511.93
469.94	41361.53
470.30	41134.52
470.66	40765.11
471.03	40274.93
471.39	39946.09
471.75	39223.19
472.11	38519.37
472.47	38047.26
472.84	37530.96
473.20	36801.20
473.56	36404.36
473.92	35827.14
474.28	35187.66
474.65	34530.84
475.01	33851.87
475.37	33014.82
475.73	32319.29
476.09	31617.34
476.45	30983.73
476.81	30426.92
477.18	29906.31
477.54	29455.83
477.90	29033.95
478.26	28472.57
478.62	27972.63
478.98	27518.76
479.34	27084.14
479.71	26519.79
480.07	26075.98
480.43	25626.27
480.79	25161.34
481.15	24702.58
481.51	24328.18
481.87	24032.01
482.23	23677.49
482.59	23358.03
482.96	23036.44
483.32	22722.15
483.68	22309.07
484.04	21950.50
484.40	21531.06
484.76	21097.33
485.12	20644.25
485.48	20207.44
485.84	19729.36
486.20	19291.07
486.56	18854.28
486.92	18480.92
487.28	18103.90
487.64	17702.31
488.00	17335.41
488.37	16961.49
488.73	16522.57
489.09	16072.18
489.45	15672.23
489.81	15222.54
490.17	14783.67
490.53	14386.08
490.89	13988.61
491.25	13569.16
491.61	13177.26
491.97	12791.19
492.33	12399.15
492.69	12034.87
493.05	11697.79
493.41	11379.80
493.77	11052.95
494.13	10749.00
494.49	10445.86
494.85	10166.09
495.21	9901.14
495.57	9657.64
495.93	9406.10
496.29	9156.48
496.64	8923.85
497.00	8662.53
497.36	8399.62
497.72	8156.91
498.08	7951.27
498.44	7723.21
498.80	7507.60
499.16	7304.51
499.52	7111.06
499.88	6922.16
500.24	6754.97
500.60	6606.21
500.96	6460.65
501.32	6302.99
501.68	6136.44
502.03	5965.70
502.39	5800.92
502.75	5634.02
503.11	5481.75
503.47	5342.83
503.83	5215.60
504.19	5090.97
504.55	4973.92
504.91	4854.86
505.26	4740.36
505.62	4618.13
505.98	4504.01
506.34	4386.19
506.70	4272.62
507.06	4159.62
507.42	4058.91
507.78	3961.45
508.13	3867.90
508.49	3791.69
508.85	3716.86
509.21	3635.06
509.57	3548.30
509.93	3469.70
510.28	3379.69
510.64	3293.02
511.00	3215.94
511.36	3145.87
511.72	3080.66
512.07	3027.55
512.43	2970.33
512.79	2910.78
513.15	2851.05
513.51	2784.56
513.86	2718.67
514.22	2669.83
514.58	2615.83
514.94	2570.61
515.30	2524.46
515.65	2479.68
516.01	2435.89
516.37	2396.71
516.73	2356.47
517.08	2320.13
517.44	2278.93
517.80	2239.73
518.16	2203.26
518.51	2169.58
518.87	2139.27
519.23	2114.79
519.59	2086.24
519.94	2059.23
520.30	2031.09
520.66	2000.88
521.01	1971.39
521.37	1940.49
521.73	1913.43
522.09	1881.63
522.44	1859.39
522.80	1837.09
523.16	1819.04
523.51	1794.65
523.87	1777.43
524.23	1759.54
524.58	1738.81
524.94	1714.65
525.30	1695.11
525.65	1678.80
526.01	1654.29
526.37	1637.58
526.72	1620.03
527.08	1603.41
527.44	1586.04
527.79	1568.16
528.15	1550.02
528.51	1536.80
528.86	1522.87
529.22	1507.98
529.58	1496.82
529.93	1485.16
530.29	1472.01
530.65	1459.96
531.00	1450.22
531.36	1438.40
531.71	1428.69
532.07	1418.13
532.43	1404.25
532.78	1391.75
533.14	1379.91
533.49	1368.49
533.85	1361.58
534.21	1355.24
534.56	1348.27
534.92	1345.18
535.27	1337.83
535.63	1328.02
535.98	1322.78
536.34	1310.56
536.69	1302.20
537.05	1297.24
537.41	1290.29
537.76	1283.20
538.12	1280.34
538.47	1277.58
538.83	1272.57
539.18	1263.14
539.54	1257.64
539.89	1255.67
540.25	1248.98
540.60	1243.22
540.96	1245.38
541.31	1240.88
541.67	1237.02
542.02	1232.97
542.38	1228.90
542.73	1225.29
543.09	1221.90
543.44	1215.81
543.80	1214.95
544.15	1209.28
544.51	1205.49
544.86	1207.95
545.22	1205.47
545.57	1200.44
545.93	1199.48
546.28	1194.23
546.64	1187.94
546.99	1186.39
547.35	1183.59
547.70	1181.57
548.05	1179.93
548.41	1177.59
548.76	1173.83
549.12	1170.17
549.47	1167.72
549.83	1165.47
550.18	1159.10
550.53	1158.42
550.89	1158.54
551.24	1155.38
551.60	1153.39
551.95	1156.97
552.30	1153.58
552.66	1150.82
553.01	1151.89
553.37	1150.86
553.72	1147.38
554.07	1149.91
554.43	1150.21
554.78	1146.44
555.13	1144.71
555.49	1142.30
555.84	1137.55
556.19	1136.17
556.55	1134.36
556.90	1134.74
557.26	1132.66
557.61	1128.70
557.96	1126.08
558.32	1126.03
558.67	1124.51
559.02	1125.07
559.37	1128.51
559.73	1127.51
560.08	1127.60
560.43	1126.50
560.79	1125.38
561.14	1122.10
561.49	1119.57
561.85	1115.27
562.20	1112.53
562.55	1112.39
562.90	1114.87
563.26	1113.51
563.61	1115.71
563.96	1116.32
564.32	1118.47
564.67	1115.62
565.02	1116.86
565.37	1116.51
565.73	1116.32
566.08	1112.60
566.43	1111.12
566.78	1110.12
567.14	1106.14
567.49	1105.58
567.84	1106.09
568.19	1111.15
568.54	1110.84
568.90	1111.87
569.25	1112.15
569.60	1111.47
569.95	1107.80
570.31	1108.08
570.66	1108.13
571.01	1106.91
571.36	1105.25
571.71	1098.90
572.06	1097.10
572.42	1097.50
572.77	1097.06
573.12	1099.79
573.47	1102.98
573.82	1103.73
574.18	1101.81
574.53	1101.69
574.88	1101.29
575.23	1097.78
575.58	1096.80
575.93	1099.68
576.28	1099.37
576.64	1096.17
576.99	1100.05
577.34	1099.47
577.69	1096.12
578.04	1096.61
578.39	1097.57
578.74	1095.56
579.09	1094.48
579.44	1096.03
579.80	1094.60
580.15	1092.84
580.50	1092.23
580.85	1091.11
581.20	1090.50
581.55	1089.59
581.90	1088.54
582.25	1091.27
582.60	1092.14
582.95	1089.80
583.30	1088.00
583.65	1088.72
584.00	1084.86
584.35	1088.86
584.71	1092.91
585.06	1095.84
585.41	1096.63
585.76	1100.66
586.11	1097.50
586.46	1093.64
586.81	1094.53
587.16	1093.99
587.51	1088.77
587.86	1088.14
588.21	1088.84
588.56	1087.09
588.91	1088.42
589.26	1093.17
589.61	1094.25
589.96	1096.17
590.31	1093.62
590.66	1089.99
591.01	1089.71
591.36	1087.83
591.71	1088.86
592.06	1090.69
592.41	1093.38
592.76	1092.91
593.10	1094.39
593.45	1094.13
593.80	1095.00
594.15	1095.00
594.50	1092.14
594.85	1090.32
595.20	1087.72
595.55	1087.88
595.90	1086.36
596.25	1086.73
596.60	1088.51
596.95	1089.85
597.30	1085.91
597.64	1098.25
597.99	1099.65
598.34	1100.87
598.69	1096.89
599.04	1101.90
599.39	1087.67
599.74	1091.09
600.09	1089.59
600.44	1092.21
600.78	1088.70
601.13	1090.08
601.48	1087.55
601.83	1087.32
602.18	1089.73
602.53	1089.33
602.88	1092.26
603.22	1089.17
603.57	1089.78
603.92	1085.00
604.27	1086.97
604.62	1084.77
604.97	1088.86
605.31	1088.86
605.66	1092.14
606.01	1091.18
606.36	1089.40
606.71	1087.81
607.05	1085.94
607.40	1086.59
607.75	1086.90
608.10	1088.70
608.44	1085.42
608.79	1085.61
609.14	1082.24
609.49	1082.50
609.84	1084.11
610.18	1087.16
610.53	1088.33
610.88	1087.67
611.23	1089.00
611.57	1085.54
611.92	1084.39
612.27	1083.74
612.62	1083.41
612.96	1082.69
613.31	1082.99
613.66	1080.51
614.00	1078.24
614.35	1079.27
614.70	1079.74
615.05	1080.65
615.39	1080.65
615.74	1082.31
616.09	1080.51
616.43	1080.39
616.78	1078.28
617.13	1081.21
617.47	1082.66
617.82	1085.68
618.17	1082.38
618.51	1082.71
618.86	1081.66
619.21	1077.63
619.55	1076.53
619.90	1076.06
620.25	1078.87
620.59	1080.02
620.94	1083.04
621.29	1082.90
621.63	1082.87
621.98	1080.60
622.32	1080.63
622.67	1081.91
623.02	1083.20
623.36	1086.80
623.71	1089.12
624.05	1087.02
624.40	1085.07
624.75	1083.86
625.09	1081.73
625.44	1079.57
625.78	1082.03
626.13	1085.42
626.48	1085.47
626.82	1085.21
627.17	1086.43
627.51	1085.66
627.86	1084.89
628.20	1087.11
628.55	1087.11
628.89	1087.41
629.24	1088.91
629.58	1086.76
629.93	1083.32
630.28	1084.74
630.62	1083.41
630.97	1083.34
631.31	1083.67
631.66	1081.21
632.00	1079.15
632.35	1079.20
632.69	1078.80
633.04	1078.73
633.38	1079.83
633.73	1079.03
634.07	1080.18
634.42	1079.06
634.76	1079.24
635.11	1081.02
635.45	1084.04
635.79	1085.19
636.14	1085.61
636.48	1083.86
636.83	1085.70
637.17	1084.58
637.52	1080.77
637.86	1082.33
638.21	1084.49
638.55	1084.16
638.89	1084.91
639.24	1085.47
639.58	1084.37
639.93	1084.23
640.27	1085.59
640.61	1084.09
640.96	1087.16
641.30	1086.59
641.65	1088.49
641.99	1087.32
642.33	1086.99
642.68	1084.16
643.02	1084.23
643.37	1081.35
643.71	1081.66
644.05	1082.73
644.40	1083.64
644.74	1085.07
645.08	1085.91
645.43	1084.21
645.77	1083.95
646.11	1082.29
646.46	1080.06
646.80	1078.94
647.14	1079.64
647.49	1079.83
647.83	1081.47
648.17	1079.38
648.52	1076.06
648.86	1075.69
649.20	1076.88
649.55	1074.05
649.89	1075.08
650.23	1077.70
650.57	1079.22
650.92	1081.80
651.26	1084.11
651.60	1084.63
651.95	1084.25
652.29	1079.95
652.63	1075.36
652.97	1074.82
653.32	1071.01
653.66	1073.70
654.00	1074.91
654.34	1079.48
654.69	1078.54
655.03	1083.55
655.37	1081.87
655.71	1083.64
656.05	1077.98
656.40	1077.91
656.74	1077.91
657.08	1079.27
657.42	1077.21
657.76	1079.95
658.11	1081.33
658.45	1081.09
658.79	1078.71
659.13	1082.36
659.47	1082.15
659.82	1080.74
660.16	1078.59
660.50	1081.89
660.84	1079.76
661.18	1077.37
661.52	1078.52
661.87	1078.17
662.21	1077.63
662.55	1077.89
662.89	1079.10
663.23	1078.73
663.57	1082.12
663.91	1083.29
664.25	1083.20
664.60	1084.67
664.94	1084.25
665.28	1083.67
665.62	1082.01
665.96	1078.61
666.30	1075.55
666.64	1074.24
666.98	1076.97
667.32	1073.28
667.66	1079.27
668.01	1079.24
668.35	1081.42
668.69	1076.90
669.03	1079.38
669.37	1077.21
669.71	1077.65
670.05	1079.29
670.39	1082.87
670.73	1082.69
671.07	1079.53
671.41	1082.31
671.75	1085.28
672.09	1081.37
672.43	1081.19
672.77	1084.53
673.11	1082.76
673.45	1080.06
673.79	1081.51
674.13	1079.99
674.47	1082.33
674.81	1084.49
675.15	1082.73
675.49	1083.06
675.83	1084.42
676.17	1083.83
676.51	1083.29
676.85	1084.00
677.19	1080.88
677.53	1082.85
677.87	1079.71
678.21	1078.73
678.55	1078.33
678.89	1080.58
679.23	1078.82
679.57	1079.24
679.90	1079.90
680.24	1078.66
680.58	1077.89
680.92	1076.32
681.26	1079.48
681.60	1077.02
681.94	1076.79
682.28	1079.76
682.62	1084.07
682.96	1080.60
683.29	1081.47
683.63	1082.01
683.97	1080.84
684.31	1080.79
684.65	1084.72
684.99	1086.01
685.33	1088.07
685.67	1086.03
686.00	1084.72
686.34	1081.09
686.68	1080.60
687.02	1076.74
687.36	1078.40
687.70	1076.93
688.03	1078.50
688.37	1080.74
688.71	1083.46
689.05	1080.48
689.39	1080.51
689.72	1079.62
690.06	1074.73
690.40	1075.80
690.74	1078.38
691.08	1078.24
691.41	1081.07
691.75	1083.27
692.09	1081.63
692.43	1079.57
692.76	1082.12
693.10	1078.19
693.44	1079.60
693.78	1076.39
694.11	1078.07
694.45	1077.14
694.79	1075.34
695.13	1073.18
695.46	1076.51
695.80	1077.02
696.14	1077.63
696.48	1083.46
696.81	1086.34
697.15	1088.63
697.49	1088.23
697.82	1087.37
698.16	1082.15
698.50	1078.57
698.83	1077.49
699.17	1077.47
699.51	1080.51
699.84	1081.80
700.18	1084.86
700.52	1080.84
700.85	1079.03
701.19	1075.87
701.53	1076.25
701.86	1072.90
702.20	1078.33
702.54	1079.95
702.87	1078.57
703.21	1081.28
703.55	1081.05
703.88	1077.30
704.22	1077.21
704.55	1077.63
704.89	1073.18
705.23	1076.88
705.56	1080.39
705.90	1080.60
706.23	1082.99
706.57	1084.86
706.91	1084.14
707.24	1084.02
707.58	1085.14
707.91	1084.93
708.25	1086.17
708.58	1084.86
708.92	1083.11
709.26	1081.16
709.59	1077.44
709.93	1075.17
710.26	1074.82
710.60	1074.03
710.93	1074.38
711.27	1077.54
711.60	1077.75
711.94	1077.42
712.27	1074.96
712.61	1074.82
712.94	1072.83
713.28	1075.24
713.61	1077.23
713.95	1081.07
714.28	1080.32
714.62	1078.17
714.95	1076.74
715.29	1076.58
715.62	1076.30
715.96	1075.24
716.29	1079.95
716.63	1079.43
716.96	1079.17
717.29	1078.68
717.63	1082.29
717.96	1079.69
718.30	1084.96
718.63	1085.05
718.97	1086.59
719.30	1083.88
719.63	1083.69
719.97	1077.93
720.30	1077.21
720.64	1075.80
720.97	1077.16
721.30	1077.91
721.64	1079.85
721.97	1081.96
722.31	1082.36
722.64	1082.38
722.97	1083.29
723.31	1082.19
723.64	1079.71
723.97	1081.51
724.31	1080.44
724.64	1079.83
724.98	1077.96
725.31	1079.10
725.64	1078.14
725.98	1076.51
726.31	1075.20
726.64	1077.23
726.97	1078.52
727.31	1078.14
727.64	1079.76
727.97	1079.36
728.31	1083.06
728.64	1079.29
728.97	1078.99
729.31	1080.77
729.64	1079.85
729.97	1076.41
730.30	1078.94
730.64	1077.93
730.97	1074.33
731.30	1076.55
731.63	1076.76
731.97	1077.72
732.30	1077.21
732.63	1078.92
732.96	1080.20
733.30	1079.10
733.63	1079.36
733.96	1077.28
734.29	1079.95
734.63	1081.61
734.96	1080.81
735.29	1079.27
735.62	1082.97
735.95	1082.08
736.29	1079.74
736.62	1080.95
736.95	1078.64
737.28	1076.60
737.61	1077.47
737.94	1075.29
738.28	1077.28
738.61	1078.57
738.94	1077.82
739.27	1077.07
739.60	1081.16
739.93	1078.21
740.27	1080.65
740.60	1081.58
740.93	1082.19
741.26	1081.28
741.59	1081.40
741.92	1082.76
742.25	1082.71
742.58	1081.82
742.91	1079.97
743.25	1081.42
743.58	1077.79
743.91	1081.91
744.24	1080.91
744.57	1080.51
744.90	1080.95
745.23	1080.37
745.56	1077.56
745.89	1079.85
746.22	1083.53
746.55	1085.47
746.88	1087.79
747.21	1088.65
747.54	1088.00
747.87	1085.54
748.20	1081.89
748.53	1080.23
748.87	1077.07
749.20	1074.42
749.53	1074.45
749.86	1076.60
750.19	1075.27
750.52	1075.41
750.85	1077.30
751.18	1074.75
751.51	1073.37
751.84	1075.59
752.16	1078.99
752.49	1075.45
752.82	1077.16
753.15	1078.28
753.48	1078.71
753.81	1078.21
754.14	1082.31
754.47	1078.89
754.80	1078.24
755.13	1077.77
755.46	1077.14
755.79	1076.08
756.12	1081.09
756.45	1081.96
756.78	1081.35
757.11	1081.58
757.43	1080.16
757.76	1078.78
758.09	1078.00
758.42	1075.41
758.75	1074.66
759.08	1076.67
759.41	1077.00
759.74	1076.39
760.07	1078.03
760.39	1078.07
760.72	1075.69
761.05	1075.50
761.38	1075.31
761.71	1075.73
762.04	1074.87
762.36	1078.24
762.69	1075.71
763.02	1076.83
763.35	1079.03
763.68	1080.74
