SpectraSuite Data File
++++++++++++++++++++++++++++++++++++
Date: Mon Aug 26 10:21:55 PDT 2019
User: corrico
Dark Spectrum Present: No
Reference Spectrum Present: No
Number of Sampled Component Spectra: 1
Spectrometers: USB2+H06089
Integration Time (usec): 2000 (USB2+H06089)
Spectra Averaged: 20 (USB2+H06089)
Boxcar Smoothing: 2 (USB2+H06089)
Correct for Electrical Dark: No (USB2+H06089)
Strobe/Lamp Enabled: No (USB2+H06089)
Correct for Detector Non-linearity: No (USB2+H06089)
Correct for Stray Light: No (USB2+H06089)
Number of Pixels in Processed Spectrum: 2048
>>>>>Begin Processed Spectral Data<<<<<
339.70	1015.32
340.07	1015.32
340.45	988.90
340.82	967.51
341.19	945.23
341.57	919.48
341.94	905.51
342.31	894.62
342.69	892.94
343.06	890.06
343.43	890.04
343.81	891.77
344.18	895.63
344.55	896.14
344.93	901.95
345.30	909.13
345.67	914.38
346.04	923.04
346.42	935.00
346.79	943.38
347.16	951.83
347.54	962.83
347.91	973.05
348.28	982.70
348.65	990.07
349.03	1001.02
349.40	1008.58
349.77	1015.46
350.14	1022.16
350.52	1031.45
350.89	1035.03
351.26	1040.79
351.63	1047.86
352.01	1050.62
352.38	1054.04
352.75	1060.54
353.12	1064.59
353.50	1067.12
353.87	1070.51
354.24	1073.72
354.61	1072.15
354.98	1073.81
355.36	1074.28
355.73	1075.10
356.10	1076.90
356.47	1079.17
356.84	1077.63
357.22	1080.32
357.59	1080.34
357.96	1079.92
358.33	1077.16
358.70	1078.07
359.08	1076.65
359.45	1074.42
359.82	1073.25
360.19	1075.41
360.56	1076.48
360.94	1076.04
361.31	1078.12
361.68	1078.47
362.05	1078.12
362.42	1075.87
362.79	1073.56
363.16	1072.48
363.54	1072.01
363.91	1072.25
364.28	1071.78
364.65	1072.15
365.02	1070.23
365.39	1069.95
365.76	1070.23
366.14	1070.63
366.51	1070.87
366.88	1071.36
367.25	1066.86
367.62	1064.05
367.99	1061.18
368.36	1056.63
368.73	1056.56
369.10	1059.30
369.48	1061.69
369.85	1062.39
370.22	1064.19
370.59	1062.16
370.96	1061.69
371.33	1059.19
371.70	1061.67
372.07	1062.79
372.44	1064.94
372.81	1065.46
373.18	1067.89
373.55	1064.97
373.93	1063.02
374.30	1062.77
374.67	1062.39
375.04	1063.42
375.41	1064.80
375.78	1069.06
376.15	1070.47
376.52	1072.04
376.89	1071.40
377.26	1071.71
377.63	1071.47
378.00	1070.63
378.37	1069.60
378.74	1071.82
379.11	1070.82
379.48	1068.27
379.85	1069.51
380.22	1069.48
380.59	1064.92
380.96	1064.50
381.33	1064.94
381.70	1062.51
382.07	1060.96
382.44	1065.13
382.81	1069.81
383.18	1068.55
383.55	1070.09
383.92	1070.14
384.29	1064.97
384.66	1061.60
385.03	1064.85
385.40	1066.72
385.77	1069.37
386.14	1075.97
386.51	1079.03
386.88	1078.73
387.25	1077.23
387.62	1077.58
387.99	1076.01
388.36	1073.30
388.73	1071.26
389.10	1069.70
389.46	1069.34
389.83	1068.01
390.20	1069.06
390.57	1071.03
390.94	1074.68
391.31	1077.56
391.68	1077.79
392.05	1076.55
392.42	1074.33
392.79	1069.27
393.16	1065.13
393.53	1065.13
393.89	1066.14
394.26	1072.11
394.63	1076.55
395.00	1077.23
395.37	1077.09
395.74	1075.05
396.11	1071.82
396.48	1072.60
396.84	1073.39
397.21	1075.31
397.58	1079.88
397.95	1080.65
398.32	1079.27
398.69	1081.37
399.06	1082.69
399.42	1082.83
399.79	1081.61
400.16	1083.39
400.53	1084.11
400.90	1084.67
401.27	1081.00
401.64	1080.48
402.00	1077.84
402.37	1077.75
402.74	1073.30
403.11	1075.52
403.48	1077.51
403.84	1077.18
404.21	1074.00
404.58	1074.70
404.95	1077.77
405.32	1076.08
405.68	1075.10
406.05	1074.17
406.42	1077.09
406.79	1075.99
407.16	1077.63
407.52	1080.18
407.89	1082.05
408.26	1076.58
408.63	1074.40
408.99	1071.64
409.36	1071.97
409.73	1074.96
410.10	1076.62
410.47	1075.76
410.83	1079.50
411.20	1081.28
411.57	1079.41
411.94	1080.18
412.30	1079.15
412.67	1081.44
413.04	1080.04
413.40	1082.12
413.77	1082.87
414.14	1086.83
414.51	1084.53
414.87	1086.10
415.24	1081.68
415.61	1083.71
415.97	1085.05
416.34	1088.00
416.71	1087.46
417.08	1090.17
417.44	1089.07
417.81	1087.62
418.18	1085.82
418.54	1085.63
418.91	1086.62
419.28	1085.05
419.64	1086.92
420.01	1086.83
420.38	1089.10
420.74	1090.03
421.11	1094.13
421.48	1090.06
421.84	1093.69
422.21	1092.61
422.58	1089.99
422.94	1089.71
423.31	1094.25
423.68	1093.10
424.04	1095.75
424.41	1101.74
424.77	1104.17
425.14	1103.84
425.51	1102.77
425.87	1104.92
426.24	1106.25
426.61	1109.41
426.97	1111.50
427.34	1114.66
427.70	1115.62
428.07	1117.35
428.44	1117.30
428.80	1121.26
429.17	1125.35
429.53	1130.17
429.90	1129.26
430.27	1135.84
430.63	1138.13
431.00	1141.22
431.36	1143.38
431.73	1150.33
432.09	1153.06
432.46	1162.31
432.83	1168.35
433.19	1173.83
433.56	1180.45
433.92	1188.55
434.29	1198.00
434.65	1206.27
435.02	1217.27
435.38	1228.73
435.75	1236.53
436.11	1246.15
436.48	1259.54
436.84	1275.01
437.21	1291.09
437.57	1309.81
437.94	1324.51
438.30	1340.89
438.67	1357.70
439.03	1376.73
439.40	1395.83
439.76	1414.71
440.13	1439.55
440.49	1465.64
440.86	1488.07
441.22	1517.88
441.59	1550.63
441.95	1584.82
442.32	1614.08
442.68	1651.83
443.05	1689.96
443.41	1731.06
443.78	1768.91
444.14	1812.51
444.51	1856.89
444.87	1910.42
445.24	1956.99
445.60	2008.18
445.96	2063.39
446.33	2128.48
446.69	2186.04
447.06	2253.54
447.42	2329.37
447.79	2406.61
448.15	2488.43
448.51	2572.37
448.88	2665.17
449.24	2750.06
449.61	2858.61
449.97	2965.83
450.33	3084.69
450.70	3201.36
451.06	3336.18
451.43	3460.90
451.79	3600.89
452.15	3745.44
452.52	3901.46
452.88	4062.61
453.24	4238.20
453.61	4436.65
453.97	4628.18
454.34	4830.73
454.70	5063.30
455.06	5284.67
455.43	5500.59
455.79	5713.32
456.15	5944.63
456.52	6174.94
456.88	6459.95
457.24	6738.45
457.61	7073.01
457.97	7389.35
458.33	7697.65
458.70	8003.46
459.06	8305.93
459.42	8627.82
459.79	8940.14
460.15	9302.51
460.51	9641.30
460.88	9989.03
461.24	10305.21
461.60	10651.40
461.96	10962.69
462.33	11260.29
462.69	11579.61
463.05	11910.61
463.42	12233.65
463.78	12544.62
464.14	12829.90
464.50	13094.69
464.87	13286.82
465.23	13413.80
465.59	13582.81
465.95	13760.76
466.32	13923.75
466.68	14068.66
467.04	14177.35
467.40	14153.15
467.77	14130.47
468.13	14074.37
468.49	14055.55
468.85	14065.61
469.22	14126.89
469.58	14130.94
469.94	14125.11
470.30	14043.89
470.66	13904.30
471.03	13689.98
471.39	13533.21
471.75	13292.30
472.11	13065.55
472.47	12875.17
472.84	12693.59
473.20	12446.48
473.56	12287.56
473.92	12116.60
474.28	11966.11
474.65	11810.11
475.01	11643.14
475.37	11427.34
475.73	11228.30
476.09	11018.68
476.45	10841.64
476.81	10688.29
477.18	10555.51
477.54	10405.30
477.90	10268.49
478.26	10113.57
478.62	9957.58
478.98	9785.10
479.34	9654.52
479.71	9491.20
480.07	9346.98
480.43	9224.87
480.79	9115.26
481.15	8969.03
481.51	8867.07
481.87	8761.05
482.23	8600.95
482.59	8452.80
482.96	8329.78
483.32	8196.06
483.68	8050.18
484.04	7933.81
484.40	7786.94
484.76	7662.12
485.12	7525.15
485.48	7404.59
485.84	7265.05
486.20	7140.53
486.56	6998.86
486.92	6870.64
487.28	6731.15
487.64	6603.42
488.00	6490.21
488.37	6366.19
488.73	6225.68
489.09	6065.99
489.45	5934.94
489.81	5804.55
490.17	5686.47
490.53	5569.26
490.89	5465.17
491.25	5336.82
491.61	5196.83
491.97	5051.55
492.33	4914.94
492.69	4784.92
493.05	4671.08
493.41	4562.78
493.77	4452.28
494.13	4351.71
494.49	4259.80
494.85	4160.26
495.21	4078.34
495.57	4005.10
495.93	3925.22
496.29	3843.07
496.64	3771.12
497.00	3681.45
497.36	3588.60
497.72	3506.64
498.08	3434.85
498.44	3363.44
498.80	3297.04
499.16	3235.04
499.52	3164.08
499.88	3095.19
500.24	3030.06
500.60	2975.17
500.96	2923.17
501.32	2870.97
501.68	2814.47
502.03	2756.14
502.39	2698.33
502.75	2640.01
503.11	2595.49
503.47	2557.83
503.83	2519.38
504.19	2476.47
504.55	2444.46
504.91	2397.95
505.26	2353.85
505.62	2313.06
505.98	2279.71
506.34	2232.54
506.70	2201.84
507.06	2163.73
507.42	2128.41
507.78	2095.06
508.13	2063.70
508.49	2030.93
508.85	2002.07
509.21	1972.81
509.57	1944.68
509.93	1916.83
510.28	1882.68
510.64	1859.02
511.00	1829.20
511.36	1796.01
511.72	1773.52
512.07	1756.85
512.43	1731.88
512.79	1715.68
513.15	1696.21
513.51	1676.99
513.86	1658.81
514.22	1641.37
514.58	1621.08
514.94	1605.63
515.30	1587.63
515.65	1569.80
516.01	1553.60
516.37	1537.17
516.73	1523.08
517.08	1509.60
517.44	1496.07
517.80	1478.24
518.16	1467.63
518.51	1457.15
518.87	1444.51
519.23	1431.85
519.59	1424.99
519.94	1416.19
520.30	1407.01
520.66	1397.46
521.01	1384.61
521.37	1375.98
521.73	1364.09
522.09	1352.62
522.44	1341.22
522.80	1338.15
523.16	1330.20
523.51	1320.30
523.87	1313.77
524.23	1308.99
524.58	1301.57
524.94	1296.96
525.30	1294.25
525.65	1285.63
526.01	1278.05
526.37	1271.73
526.72	1266.56
527.08	1257.83
527.44	1255.44
527.79	1250.45
528.15	1245.40
528.51	1239.64
528.86	1238.78
529.22	1232.53
529.58	1230.61
529.93	1222.72
530.29	1217.03
530.65	1209.05
531.00	1203.81
531.36	1199.01
531.71	1194.82
532.07	1189.04
532.43	1183.37
532.78	1180.19
533.14	1174.79
533.49	1172.49
533.85	1169.99
534.21	1169.71
534.56	1166.92
534.92	1163.41
535.27	1164.14
535.63	1161.44
535.98	1159.08
536.34	1154.16
536.69	1152.74
537.05	1146.11
537.41	1144.80
537.76	1139.28
538.12	1139.21
538.47	1137.80
538.83	1138.25
539.18	1135.46
539.54	1136.10
539.89	1138.23
540.25	1138.95
540.60	1136.96
540.96	1136.38
541.31	1136.99
541.67	1135.91
542.02	1132.33
542.38	1134.64
542.73	1131.18
543.09	1128.33
543.44	1123.27
543.80	1123.81
544.15	1119.29
544.51	1118.19
544.86	1117.14
545.22	1118.64
545.57	1117.11
545.93	1118.52
546.28	1119.90
546.64	1120.34
546.99	1119.24
547.35	1118.82
547.70	1117.32
548.05	1113.88
548.41	1112.43
548.76	1109.11
549.12	1104.22
549.47	1101.48
549.83	1104.52
550.18	1103.91
550.53	1102.88
550.89	1106.00
551.24	1105.69
551.60	1105.18
551.95	1105.04
552.30	1104.90
552.66	1105.04
553.01	1107.87
553.37	1104.05
553.72	1100.33
554.07	1099.98
554.43	1097.88
554.78	1093.40
555.13	1093.55
555.49	1095.86
555.84	1096.42
556.19	1094.53
556.55	1095.23
556.90	1093.90
557.26	1094.27
557.61	1090.99
557.96	1089.82
558.32	1089.45
558.67	1090.08
559.02	1090.50
559.37	1087.32
559.73	1088.47
560.08	1088.47
560.43	1088.98
560.79	1086.29
561.14	1088.89
561.49	1086.99
561.85	1086.85
562.20	1086.85
562.55	1085.63
562.90	1087.09
563.26	1091.34
563.61	1088.49
563.96	1089.24
564.32	1089.45
564.67	1087.60
565.02	1085.00
565.37	1087.06
565.73	1083.60
566.08	1086.31
566.43	1088.77
566.78	1087.65
567.14	1089.92
567.49	1090.69
567.84	1087.93
568.19	1084.74
568.54	1087.20
568.90	1085.45
569.25	1085.14
569.60	1086.15
569.95	1086.83
570.31	1085.10
570.66	1084.11
571.01	1084.70
571.36	1083.06
571.71	1084.74
572.06	1088.68
572.42	1086.24
572.77	1087.76
573.12	1088.14
573.47	1088.00
573.82	1080.65
574.18	1080.63
574.53	1077.77
574.88	1078.87
575.23	1077.35
575.58	1081.26
575.93	1081.35
576.28	1083.88
576.64	1083.67
576.99	1083.95
577.34	1083.06
577.69	1083.55
578.04	1080.60
578.39	1081.75
578.74	1083.48
579.09	1081.33
579.44	1082.99
579.80	1085.05
580.15	1084.91
580.50	1083.79
580.85	1088.23
581.20	1086.94
581.55	1085.66
581.90	1084.39
582.25	1084.44
582.60	1083.06
582.95	1084.81
583.30	1085.91
583.65	1084.25
584.00	1082.97
584.35	1081.94
584.71	1079.99
585.06	1082.50
585.41	1085.77
585.76	1087.58
586.11	1085.80
586.46	1084.70
586.81	1081.58
587.16	1078.03
587.51	1076.30
587.86	1080.98
588.21	1082.54
588.56	1083.01
588.91	1084.42
589.26	1085.38
589.61	1082.54
589.96	1083.25
590.31	1084.16
590.66	1083.04
591.01	1083.76
591.36	1084.86
591.71	1084.56
592.06	1081.14
592.41	1081.02
592.76	1080.09
593.10	1076.90
593.45	1075.90
593.80	1075.83
594.15	1079.08
594.50	1075.57
594.85	1073.58
595.20	1072.97
595.55	1075.87
595.90	1072.85
596.25	1076.11
596.60	1080.02
596.95	1078.80
597.30	1078.75
597.64	1089.14
597.99	1091.25
598.34	1090.95
598.69	1091.23
599.04	1089.73
599.39	1079.57
599.74	1078.71
600.09	1081.07
600.44	1082.47
600.78	1082.64
601.13	1080.93
601.48	1081.05
601.83	1080.48
602.18	1080.70
602.53	1079.41
602.88	1082.38
603.22	1078.03
603.57	1075.08
603.92	1073.39
604.27	1074.87
604.62	1073.67
604.97	1076.95
605.31	1076.72
605.66	1074.73
606.01	1074.33
606.36	1075.20
606.71	1074.84
607.05	1076.08
607.40	1078.64
607.75	1079.81
608.10	1079.67
608.44	1077.68
608.79	1077.47
609.14	1079.57
609.49	1081.82
609.84	1080.56
610.18	1084.96
610.53	1087.53
610.88	1087.95
611.23	1087.06
611.57	1088.91
611.92	1086.38
612.27	1082.33
612.62	1081.87
612.96	1078.28
613.31	1074.10
613.66	1074.61
614.00	1079.06
614.35	1076.97
614.70	1077.86
615.05	1081.84
615.39	1080.27
615.74	1078.31
616.09	1078.00
616.43	1079.34
616.78	1077.35
617.13	1079.92
617.47	1075.99
617.82	1076.30
618.17	1073.91
618.51	1071.36
618.86	1069.79
619.21	1071.03
619.55	1071.87
619.90	1074.66
620.25	1078.38
620.59	1078.07
620.94	1083.39
621.29	1083.29
621.63	1084.93
621.98	1084.21
622.32	1086.01
622.67	1082.38
623.02	1080.37
623.36	1076.15
623.71	1073.60
624.05	1072.34
624.40	1070.07
624.75	1073.98
625.09	1073.23
625.44	1072.85
625.78	1074.80
626.13	1074.59
626.48	1074.38
626.82	1078.73
627.17	1082.85
627.51	1082.01
627.86	1082.97
628.20	1080.20
628.55	1075.38
628.89	1071.66
629.24	1070.68
629.58	1073.16
629.93	1071.75
630.28	1074.10
630.62	1080.27
630.97	1078.40
631.31	1077.79
631.66	1080.91
632.00	1082.29
632.35	1076.32
632.69	1078.99
633.04	1077.91
633.38	1078.92
633.73	1076.15
634.07	1076.34
634.42	1077.75
634.76	1076.95
635.11	1073.25
635.45	1073.46
635.79	1077.79
636.14	1073.23
636.48	1073.30
636.83	1076.32
637.17	1080.81
637.52	1078.61
637.86	1079.15
638.21	1080.39
638.55	1079.97
638.89	1076.23
639.24	1076.32
639.58	1075.38
639.93	1073.98
640.27	1073.91
640.61	1076.39
640.96	1073.67
641.30	1076.04
641.65	1079.57
641.99	1080.65
642.33	1076.11
642.68	1079.85
643.02	1080.84
643.37	1079.69
643.71	1078.40
644.05	1084.02
644.40	1081.51
644.74	1078.94
645.08	1077.72
645.43	1076.76
645.77	1073.65
646.11	1075.41
646.46	1077.09
646.80	1077.02
647.14	1079.34
647.49	1079.41
647.83	1079.46
648.17	1077.56
648.52	1078.64
648.86	1077.07
649.20	1079.95
649.55	1078.10
649.89	1081.61
650.23	1080.63
650.57	1080.79
650.92	1080.74
651.26	1082.73
651.60	1079.22
651.95	1077.70
652.29	1078.05
652.63	1073.95
652.97	1073.51
653.32	1073.07
653.66	1074.91
654.00	1074.68
654.34	1076.34
654.69	1074.40
655.03	1076.30
655.37	1074.89
655.71	1073.39
656.05	1074.49
656.40	1076.13
656.74	1078.59
657.08	1080.84
657.42	1085.91
657.76	1086.01
658.11	1087.41
658.45	1082.69
658.79	1081.68
659.13	1076.95
659.47	1074.61
659.82	1073.74
660.16	1077.75
660.50	1078.50
660.84	1079.76
661.18	1078.26
661.52	1078.05
661.87	1077.25
662.21	1074.52
662.55	1074.35
662.89	1075.99
663.23	1077.07
663.57	1075.10
663.91	1076.90
664.25	1076.81
664.60	1075.94
664.94	1075.20
665.28	1077.56
665.62	1077.51
665.96	1079.50
666.30	1078.50
666.64	1076.48
666.98	1075.31
667.32	1073.51
667.66	1069.67
668.01	1072.43
668.35	1070.56
668.69	1070.35
669.03	1072.15
669.37	1074.26
669.71	1071.94
670.05	1075.27
670.39	1075.66
670.73	1073.72
671.07	1071.43
671.41	1072.62
671.75	1073.39
672.09	1071.31
672.43	1073.18
672.77	1076.18
673.11	1076.37
673.45	1076.81
673.79	1080.46
674.13	1080.51
674.47	1079.85
674.81	1077.56
675.15	1073.51
675.49	1070.72
675.83	1070.12
676.17	1070.54
676.51	1075.80
676.85	1081.28
677.19	1079.81
677.53	1081.80
677.87	1083.83
678.21	1084.28
678.55	1081.87
678.89	1085.10
679.23	1081.96
679.57	1079.90
679.90	1074.33
680.24	1072.97
680.58	1073.09
680.92	1076.44
681.26	1075.64
681.60	1079.76
681.94	1081.23
682.28	1083.83
682.62	1081.75
682.96	1080.74
683.29	1080.88
683.63	1078.87
683.97	1074.28
684.31	1073.51
684.65	1074.70
684.99	1070.63
685.33	1069.62
685.67	1070.56
686.00	1074.87
686.34	1075.10
686.68	1077.16
687.02	1080.09
687.36	1082.66
687.70	1080.44
688.03	1079.15
688.37	1077.54
688.71	1076.44
689.05	1075.20
689.39	1074.31
689.72	1073.95
690.06	1077.51
690.40	1077.54
690.74	1075.45
691.08	1073.53
691.41	1078.59
691.75	1076.69
692.09	1078.96
692.43	1080.27
692.76	1080.88
693.10	1078.21
693.44	1080.88
693.78	1081.47
694.11	1081.05
694.45	1081.19
694.79	1081.19
695.13	1080.46
695.46	1078.47
695.80	1077.75
696.14	1078.26
696.48	1077.23
696.81	1075.87
697.15	1076.90
697.49	1077.82
697.82	1077.23
698.16	1077.61
698.50	1080.56
698.83	1078.31
699.17	1076.90
699.51	1078.99
699.84	1078.82
700.18	1073.02
700.52	1073.58
700.85	1076.76
701.19	1077.16
701.53	1076.60
701.86	1080.63
702.20	1078.78
702.54	1075.15
702.87	1075.27
703.21	1072.43
703.55	1070.84
703.88	1072.76
704.22	1072.08
704.55	1070.94
704.89	1071.66
705.23	1070.42
705.56	1068.62
705.90	1070.54
706.23	1073.07
706.57	1074.40
706.91	1074.59
707.24	1076.46
707.58	1077.89
707.91	1074.77
708.25	1072.36
708.58	1073.86
708.92	1077.70
709.26	1078.19
709.59	1079.43
709.93	1085.52
710.26	1087.48
710.60	1083.50
710.93	1078.94
711.27	1079.29
711.60	1079.83
711.94	1077.00
712.27	1078.82
712.61	1083.79
712.94	1081.00
713.28	1075.03
713.61	1075.71
713.95	1073.32
714.28	1071.97
714.62	1074.19
714.95	1075.08
715.29	1074.42
715.62	1073.14
715.96	1068.99
716.29	1066.51
716.63	1066.47
716.96	1068.22
717.29	1071.40
717.63	1074.91
717.96	1080.18
718.30	1079.43
718.63	1076.46
718.97	1076.60
719.30	1074.89
719.63	1070.21
719.97	1073.67
720.30	1075.48
720.64	1074.05
720.97	1075.69
721.30	1076.30
721.64	1076.06
721.97	1073.74
722.31	1077.25
722.64	1078.12
722.97	1076.08
723.31	1076.90
723.64	1079.74
723.97	1077.35
724.31	1076.41
724.64	1078.54
724.98	1077.11
725.31	1077.00
725.64	1074.47
725.98	1072.69
726.31	1071.57
726.64	1069.86
726.97	1068.52
727.31	1066.96
727.64	1067.78
727.97	1069.41
728.31	1069.58
728.64	1071.82
728.97	1074.61
729.31	1074.73
729.64	1076.08
729.97	1077.56
730.30	1073.88
730.64	1074.54
730.97	1076.65
731.30	1075.57
731.63	1075.94
731.97	1075.85
732.30	1073.28
732.63	1071.71
732.96	1069.48
733.30	1069.93
733.63	1072.01
733.96	1076.23
734.29	1075.92
734.63	1076.60
734.96	1073.42
735.29	1072.90
735.62	1071.29
735.95	1069.53
736.29	1069.34
736.62	1072.34
736.95	1073.35
737.28	1075.80
737.61	1077.58
737.94	1077.82
738.28	1075.73
738.61	1076.81
738.94	1073.84
739.27	1075.69
739.60	1074.66
739.93	1075.43
740.27	1072.34
740.60	1072.67
740.93	1073.77
741.26	1078.07
741.59	1078.99
741.92	1080.70
742.25	1081.40
742.58	1080.53
742.91	1078.89
743.25	1078.75
743.58	1078.17
743.91	1077.07
744.24	1073.81
744.57	1072.41
744.90	1073.09
745.23	1074.94
745.56	1074.49
745.89	1073.81
746.22	1074.40
746.55	1072.43
746.88	1071.01
747.21	1070.98
747.54	1073.72
747.87	1072.39
748.20	1074.82
748.53	1075.69
748.87	1076.55
749.20	1075.27
749.53	1077.18
749.86	1079.46
750.19	1078.57
750.52	1080.44
750.85	1080.84
751.18	1078.10
751.51	1075.69
751.84	1074.96
752.16	1073.72
752.49	1077.14
752.82	1081.54
753.15	1077.02
753.48	1078.66
753.81	1077.98
754.14	1071.54
754.47	1069.09
754.80	1074.17
755.13	1070.96
755.46	1071.08
755.79	1077.98
756.12	1080.27
756.45	1080.58
756.78	1082.59
757.11	1083.20
757.43	1078.87
757.76	1076.44
758.09	1074.54
758.42	1076.69
758.75	1076.15
759.08	1078.45
759.41	1077.00
759.74	1078.92
760.07	1078.14
760.39	1075.20
760.72	1077.77
761.05	1076.65
761.38	1072.34
761.71	1070.61
762.04	1074.12
762.36	1070.33
762.69	1073.39
763.02	1076.41
763.35	1078.66
763.68	1077.33
764.01	1076.30
764.33	1076.18
764.66	1076.06
764.99	1073.04
765.32	1072.69
