SpectraSuite Data File
++++++++++++++++++++++++++++++++++++
Date: Mon Aug 26 10:22:19 PDT 2019
User: corrico
Dark Spectrum Present: No
Reference Spectrum Present: No
Number of Sampled Component Spectra: 1
Spectrometers: USB2+H06089
Integration Time (usec): 2000 (USB2+H06089)
Spectra Averaged: 20 (USB2+H06089)
Boxcar Smoothing: 2 (USB2+H06089)
Correct for Electrical Dark: No (USB2+H06089)
Strobe/Lamp Enabled: No (USB2+H06089)
Correct for Detector Non-linearity: No (USB2+H06089)
Correct for Stray Light: No (USB2+H06089)
Number of Pixels in Processed Spectrum: 2048
>>>>>Begin Processed Spectral Data<<<<<
339.70	1039.78
340.07	1039.78
340.45	1003.15
340.82	979.84
341.19	952.93
341.57	925.14
341.94	917.68
342.31	908.34
342.69	902.00
343.06	898.37
343.43	899.98
343.81	895.70
344.18	899.23
344.55	904.20
344.93	912.57
345.30	916.09
345.67	924.63
346.04	932.02
346.42	941.90
346.79	946.42
347.16	953.44
347.54	964.98
347.91	972.75
348.28	977.92
348.65	990.51
349.03	1000.84
349.40	1010.99
349.77	1020.01
350.14	1028.10
350.52	1035.13
350.89	1041.56
351.26	1044.70
351.63	1048.21
352.01	1057.20
352.38	1058.81
352.75	1061.15
353.12	1064.66
353.50	1069.13
353.87	1069.62
354.24	1070.61
354.61	1075.41
354.98	1077.21
355.36	1079.24
355.73	1077.96
356.10	1081.66
356.47	1083.25
356.84	1082.22
357.22	1082.66
357.59	1087.23
357.96	1086.41
358.33	1088.65
358.70	1086.73
359.08	1084.49
359.45	1079.99
359.82	1079.64
360.19	1073.93
360.56	1073.39
360.94	1075.01
361.31	1075.80
361.68	1074.82
362.05	1077.40
362.42	1078.36
362.79	1078.21
363.16	1080.27
363.54	1082.92
363.91	1083.25
364.28	1086.24
364.65	1086.41
365.02	1084.02
365.39	1083.13
365.76	1079.13
366.14	1077.33
366.51	1074.98
366.88	1074.10
367.25	1074.94
367.62	1078.40
367.99	1077.35
368.36	1075.27
368.73	1075.94
369.10	1074.42
369.48	1070.91
369.85	1071.82
370.22	1073.77
370.59	1074.61
370.96	1073.70
371.33	1075.55
371.70	1076.23
372.07	1076.18
372.44	1076.23
372.81	1078.64
373.18	1076.51
373.55	1074.98
373.93	1076.32
374.30	1077.49
374.67	1077.04
375.04	1078.36
375.41	1078.96
375.78	1079.60
376.15	1078.19
376.52	1077.63
376.89	1080.44
377.26	1079.71
377.63	1076.88
378.00	1076.48
378.37	1076.67
378.74	1074.19
379.11	1076.60
379.48	1079.38
379.85	1083.20
380.22	1083.11
380.59	1084.84
380.96	1085.19
381.33	1084.37
381.70	1080.77
382.07	1082.85
382.44	1084.32
382.81	1082.47
383.18	1082.59
383.55	1085.17
383.92	1084.46
384.29	1085.99
384.66	1088.54
385.03	1090.01
385.40	1084.77
385.77	1085.77
386.14	1082.87
386.51	1080.67
386.88	1081.58
387.25	1088.28
387.62	1088.93
387.99	1087.51
388.36	1089.33
388.73	1088.26
389.10	1087.20
389.46	1082.33
389.83	1086.24
390.20	1085.80
390.57	1084.77
390.94	1079.69
391.31	1081.63
391.68	1077.00
392.05	1075.73
392.42	1074.05
392.79	1077.75
393.16	1079.46
393.53	1083.64
393.89	1083.04
394.26	1087.02
394.63	1088.26
395.00	1089.12
395.37	1086.24
395.74	1088.49
396.11	1090.69
396.48	1088.42
396.84	1089.33
397.21	1090.08
397.58	1090.17
397.95	1086.73
398.32	1093.40
398.69	1092.98
399.06	1097.27
399.42	1097.85
399.79	1100.12
400.16	1095.00
400.53	1095.02
400.90	1094.29
401.27	1091.63
401.64	1092.82
402.00	1092.05
402.37	1090.76
402.74	1085.66
403.11	1090.22
403.48	1089.03
403.84	1087.86
404.21	1087.46
404.58	1090.50
404.95	1085.77
405.32	1084.02
405.68	1086.85
406.05	1087.76
406.42	1089.33
406.79	1091.70
407.16	1091.04
407.52	1088.26
407.89	1090.83
408.26	1089.89
408.63	1092.19
408.99	1094.39
409.36	1096.12
409.73	1095.25
410.10	1096.28
410.47	1095.25
410.83	1096.14
411.20	1099.54
411.57	1099.68
411.94	1099.75
412.30	1099.91
412.67	1101.06
413.04	1100.33
413.40	1102.81
413.77	1104.80
414.14	1107.99
414.51	1106.23
414.87	1106.18
415.24	1107.42
415.61	1105.97
415.97	1103.33
416.34	1106.16
416.71	1107.03
417.08	1104.87
417.44	1108.13
417.81	1111.89
418.18	1110.72
418.54	1110.09
418.91	1111.97
419.28	1112.55
419.64	1111.05
420.01	1112.01
420.38	1115.17
420.74	1114.54
421.11	1114.63
421.48	1119.60
421.84	1120.18
422.21	1120.51
422.58	1122.29
422.94	1123.46
423.31	1124.00
423.68	1130.41
424.04	1133.38
424.41	1137.92
424.77	1144.10
425.14	1145.01
425.51	1145.36
425.87	1147.42
426.24	1149.39
426.61	1151.26
426.97	1159.71
427.34	1168.25
427.70	1174.32
428.07	1181.17
428.44	1187.89
428.80	1194.63
429.17	1203.34
429.53	1212.23
429.90	1222.16
430.27	1230.77
430.63	1239.95
431.00	1249.24
431.36	1264.76
431.73	1278.38
432.09	1293.99
432.46	1304.87
432.83	1321.19
433.19	1336.94
433.56	1355.05
433.92	1371.18
434.29	1392.17
434.65	1410.45
435.02	1430.58
435.38	1457.80
435.75	1487.06
436.11	1522.35
436.48	1556.32
436.84	1595.00
437.21	1624.99
437.57	1665.71
437.94	1701.29
438.30	1745.57
438.67	1790.86
439.03	1847.31
439.40	1900.09
439.76	1958.37
440.13	2016.14
440.49	2083.08
440.86	2144.70
441.22	2213.51
441.59	2284.13
441.95	2370.82
442.32	2452.55
442.68	2547.35
443.05	2641.86
443.41	2749.59
443.78	2844.24
444.14	2951.65
444.51	3063.13
444.87	3203.33
445.24	3342.14
445.60	3498.47
445.96	3648.57
446.33	3823.27
446.69	3983.71
447.06	4157.40
447.42	4337.48
447.79	4534.34
448.15	4746.58
448.51	4978.46
448.88	5251.69
449.24	5499.46
449.61	5782.53
449.97	6061.78
450.33	6342.13
450.70	6585.87
451.06	6910.13
451.43	7213.51
451.79	7572.45
452.15	7980.36
452.52	8440.77
452.88	8913.46
453.24	9442.47
453.61	10031.58
453.97	10593.92
454.34	11142.33
454.70	11787.69
455.06	12436.79
455.43	13054.53
455.79	13652.25
456.15	14355.16
456.52	15000.40
456.88	15767.65
457.24	16490.38
457.61	17338.01
457.97	18123.73
458.33	18920.59
458.70	19687.51
459.06	20450.74
459.42	21286.52
459.79	22072.63
460.15	22975.31
460.51	23827.45
460.88	24749.81
461.24	25545.61
461.60	26492.34
461.96	27348.06
462.33	28215.23
462.69	29019.83
463.05	29892.18
463.42	30637.94
463.78	31320.46
464.14	31856.38
464.50	32457.10
464.87	32901.26
465.23	33241.88
465.59	33578.64
465.95	33926.86
466.32	34191.95
466.68	34452.38
467.04	34610.88
467.40	34774.16
467.77	34929.43
468.13	34938.98
468.49	34851.49
468.85	34779.80
469.22	34603.72
469.58	34256.78
469.94	33992.33
470.30	33682.63
470.66	33267.04
471.03	32693.77
471.39	32314.23
471.75	31698.65
472.11	31124.61
472.47	30790.19
472.84	30482.29
473.20	29995.46
473.56	29711.98
473.92	29289.91
474.28	28779.86
474.65	28290.97
475.01	27821.08
475.37	27281.80
475.73	26827.57
476.09	26298.89
476.45	25790.90
476.81	25287.08
477.18	24752.31
477.54	24297.99
477.90	23933.59
478.26	23499.35
478.62	23143.92
478.98	22835.76
479.34	22488.15
479.71	22048.17
480.07	21685.51
480.43	21304.47
480.79	20902.79
481.15	20535.58
481.51	20236.01
481.87	19983.77
482.23	19695.89
482.59	19438.34
482.96	19172.40
483.32	18868.98
483.68	18490.79
484.04	18138.29
484.40	17759.52
484.76	17396.85
485.12	17024.78
485.48	16703.70
485.84	16362.61
486.20	16019.12
486.56	15643.25
486.92	15343.62
487.28	14992.47
487.64	14634.25
488.00	14304.93
488.37	13972.34
488.73	13599.17
489.09	13249.75
489.45	12936.26
489.81	12618.20
490.17	12326.08
490.53	12044.68
490.89	11736.17
491.25	11423.69
491.61	11109.91
491.97	10782.57
492.33	10455.57
492.69	10151.75
493.05	9845.11
493.41	9554.56
493.77	9290.85
494.13	9039.99
494.49	8784.71
494.85	8540.99
495.21	8316.84
495.57	8085.99
495.93	7849.60
496.29	7653.62
496.64	7470.90
497.00	7274.06
497.36	7081.03
497.72	6903.95
498.08	6716.00
498.44	6533.51
498.80	6351.77
499.16	6191.09
499.52	6026.65
499.88	5887.43
500.24	5760.08
500.60	5641.51
500.96	5518.40
501.32	5401.18
501.68	5275.78
502.03	5147.52
502.39	5018.30
502.75	4880.32
503.11	4748.76
503.47	4627.57
503.83	4499.42
504.19	4378.65
504.55	4272.48
504.91	4180.38
505.26	4089.81
505.62	4015.38
505.98	3929.62
506.34	3841.36
506.70	3749.23
507.06	3658.73
507.42	3561.92
507.78	3481.64
508.13	3403.30
508.49	3325.46
508.85	3253.25
509.21	3186.48
509.57	3116.21
509.93	3052.57
510.28	2987.41
510.64	2922.02
511.00	2852.50
511.36	2789.40
511.72	2731.26
512.07	2680.33
512.43	2630.06
512.79	2582.97
513.15	2538.62
513.51	2489.18
513.86	2443.36
514.22	2400.20
514.58	2360.15
514.94	2325.58
515.30	2291.41
515.65	2250.43
516.01	2213.16
516.37	2179.06
516.73	2146.18
517.08	2116.83
517.44	2087.27
517.80	2060.98
518.16	2033.86
518.51	2003.50
518.87	1974.45
519.23	1950.04
519.59	1921.98
519.94	1892.98
520.30	1867.47
520.66	1841.51
521.01	1818.60
521.37	1794.98
521.73	1781.03
522.09	1759.73
522.44	1745.31
522.80	1727.43
523.16	1707.37
523.51	1681.72
523.87	1662.06
524.23	1642.54
524.58	1623.26
524.94	1606.36
525.30	1591.00
525.65	1576.28
526.01	1556.01
526.37	1542.46
526.72	1528.25
527.08	1514.28
527.44	1504.68
527.79	1495.06
528.15	1476.62
528.51	1464.12
528.86	1452.61
529.22	1435.87
529.58	1422.51
529.93	1413.78
530.29	1402.07
530.65	1390.04
531.00	1378.41
531.36	1371.44
531.71	1361.19
532.07	1354.66
532.43	1347.61
532.78	1339.63
533.14	1330.17
533.49	1324.79
533.85	1318.31
534.21	1315.36
534.56	1309.90
534.92	1305.46
535.27	1298.62
535.63	1291.02
535.98	1277.70
536.34	1275.62
536.69	1267.59
537.05	1260.73
537.41	1259.61
537.76	1258.62
538.12	1253.54
538.47	1249.89
538.83	1247.53
539.18	1240.04
539.54	1237.04
539.89	1230.02
540.25	1224.94
540.60	1221.55
540.96	1216.42
541.31	1213.33
541.67	1212.19
542.02	1208.56
542.38	1203.99
542.73	1201.84
543.09	1196.55
543.44	1192.64
543.80	1192.60
544.15	1191.22
544.51	1190.23
544.86	1188.10
545.22	1187.17
545.57	1178.39
545.93	1173.61
546.28	1169.26
546.64	1168.33
546.99	1165.75
547.35	1169.54
547.70	1166.64
548.05	1166.31
548.41	1163.69
548.76	1161.23
549.12	1158.12
549.47	1156.46
549.83	1151.01
550.18	1149.30
550.53	1147.00
550.89	1143.00
551.24	1141.53
551.60	1142.23
551.95	1140.89
552.30	1137.99
552.66	1137.10
553.01	1136.82
553.37	1136.45
553.72	1134.90
554.07	1135.72
554.43	1132.87
554.78	1132.80
555.13	1129.61
555.49	1125.17
555.84	1120.67
556.19	1122.29
556.55	1121.30
556.90	1123.34
557.26	1124.44
557.61	1125.45
557.96	1123.20
558.32	1122.80
558.67	1122.52
559.02	1122.57
559.37	1125.00
559.73	1126.76
560.08	1129.75
560.43	1126.55
560.79	1125.94
561.14	1120.06
561.49	1117.30
561.85	1108.43
562.20	1107.64
562.55	1108.24
562.90	1111.26
563.26	1110.94
563.61	1112.83
563.96	1114.33
564.32	1112.99
564.67	1109.55
565.02	1108.34
565.37	1108.03
565.73	1107.10
566.08	1107.99
566.43	1108.20
566.78	1110.07
567.14	1111.15
567.49	1109.02
567.84	1105.18
568.19	1101.57
568.54	1103.05
568.90	1103.38
569.25	1100.73
569.60	1099.12
569.95	1104.62
570.31	1096.28
570.66	1094.27
571.01	1096.96
571.36	1098.27
571.71	1095.89
572.06	1099.63
572.42	1098.20
572.77	1098.04
573.12	1099.61
573.47	1096.89
573.82	1094.79
574.18	1095.09
574.53	1093.69
574.88	1088.28
575.23	1089.92
575.58	1092.89
575.93	1090.71
576.28	1092.23
576.64	1097.13
576.99	1096.68
577.34	1094.86
577.69	1097.92
578.04	1096.10
578.39	1095.89
578.74	1096.07
579.09	1100.31
579.44	1100.05
579.80	1100.85
580.15	1098.55
580.50	1096.94
580.85	1092.45
581.20	1090.74
581.55	1090.03
581.90	1090.34
582.25	1090.17
582.60	1090.39
582.95	1089.40
583.30	1089.75
583.65	1089.22
584.00	1090.41
584.35	1088.35
584.71	1088.02
585.06	1085.40
585.41	1085.03
585.76	1085.52
586.11	1087.93
586.46	1088.58
586.81	1090.34
587.16	1091.70
587.51	1088.84
587.86	1089.31
588.21	1088.84
588.56	1086.52
588.91	1085.26
589.26	1090.41
589.61	1092.59
589.96	1092.56
590.31	1097.13
590.66	1100.08
591.01	1097.83
591.36	1093.43
591.71	1094.32
592.06	1092.00
592.41	1090.46
592.76	1091.53
593.10	1093.52
593.45	1095.09
593.80	1094.69
594.15	1092.87
594.50	1090.22
594.85	1091.67
595.20	1090.92
595.55	1090.67
595.90	1091.13
596.25	1089.87
596.60	1086.31
596.95	1084.63
597.30	1085.45
597.64	1095.25
597.99	1096.85
598.34	1097.43
598.69	1100.26
599.04	1101.83
599.39	1090.50
599.74	1089.59
600.09	1086.50
600.44	1083.90
600.78	1082.90
601.13	1082.94
601.48	1082.64
601.83	1084.04
602.18	1082.45
602.53	1081.91
602.88	1082.40
603.22	1084.39
603.57	1086.38
603.92	1088.04
604.27	1086.64
604.62	1087.95
604.97	1085.00
605.31	1085.07
605.66	1086.01
606.01	1083.93
606.36	1082.26
606.71	1084.86
607.05	1084.39
607.40	1083.93
607.75	1085.21
608.10	1085.19
608.44	1085.17
608.79	1085.73
609.14	1084.89
609.49	1085.61
609.84	1085.35
610.18	1084.70
610.53	1085.24
610.88	1085.24
611.23	1084.00
611.57	1083.08
611.92	1084.84
612.27	1084.00
612.62	1083.46
612.96	1084.65
613.31	1082.64
613.66	1078.38
614.00	1076.79
614.35	1075.17
614.70	1078.45
615.05	1082.40
615.39	1085.33
615.74	1083.43
616.09	1086.20
616.43	1082.71
616.78	1080.32
617.13	1081.40
617.47	1083.57
617.82	1083.88
618.17	1084.67
618.51	1090.10
618.86	1089.92
619.21	1090.48
619.55	1091.67
619.90	1090.27
620.25	1087.88
620.59	1084.00
620.94	1080.51
621.29	1077.77
621.63	1079.90
621.98	1081.12
622.32	1083.46
622.67	1087.83
623.02	1087.65
623.36	1086.94
623.71	1086.57
624.05	1086.87
624.40	1086.97
624.75	1086.03
625.09	1085.10
625.44	1085.03
625.78	1081.91
626.13	1084.11
626.48	1082.80
626.82	1084.04
627.17	1080.72
627.51	1083.25
627.86	1079.60
628.20	1082.24
628.55	1079.06
628.89	1078.94
629.24	1079.53
629.58	1082.12
629.93	1083.76
630.28	1088.35
630.62	1091.37
630.97	1094.08
631.31	1091.60
631.66	1090.74
632.00	1088.47
632.35	1086.48
632.69	1083.25
633.04	1083.95
633.38	1085.49
633.73	1082.57
634.07	1084.70
634.42	1085.94
634.76	1089.92
635.11	1088.28
635.45	1092.70
635.79	1088.84
636.14	1086.83
636.48	1082.05
636.83	1083.50
637.17	1081.87
637.52	1086.29
637.86	1087.27
638.21	1086.50
638.55	1085.59
638.89	1085.38
639.24	1081.94
639.58	1083.53
639.93	1084.30
640.27	1083.32
640.61	1084.30
640.96	1085.77
641.30	1081.58
641.65	1080.77
641.99	1081.84
642.33	1081.66
642.68	1080.39
643.02	1080.77
643.37	1081.12
643.71	1079.46
644.05	1081.26
644.40	1083.04
644.74	1085.82
645.08	1088.49
645.43	1089.31
645.77	1084.79
646.11	1084.93
646.46	1083.62
646.80	1079.29
647.14	1078.43
647.49	1081.87
647.83	1082.05
648.17	1082.08
648.52	1084.72
648.86	1085.94
649.20	1082.87
649.55	1081.66
649.89	1079.53
650.23	1077.44
650.57	1075.50
650.92	1077.93
651.26	1078.03
651.60	1080.58
651.95	1081.26
652.29	1082.12
652.63	1079.78
652.97	1081.94
653.32	1083.20
653.66	1083.22
654.00	1082.66
654.34	1085.19
654.69	1081.54
655.03	1080.20
655.37	1080.39
655.71	1081.33
656.05	1081.91
656.40	1082.71
656.74	1082.52
657.08	1080.16
657.42	1078.96
657.76	1078.03
658.11	1077.16
658.45	1080.81
658.79	1084.37
659.13	1086.66
659.47	1084.81
659.82	1085.91
660.16	1083.01
660.50	1083.69
660.84	1086.52
661.18	1087.83
661.52	1085.47
661.87	1085.52
662.21	1082.99
662.55	1078.33
662.89	1078.57
663.23	1084.00
663.57	1083.62
663.91	1085.03
664.25	1083.25
664.60	1083.93
664.94	1078.36
665.28	1077.44
665.62	1078.17
665.96	1078.31
666.30	1078.00
666.64	1078.66
666.98	1080.70
667.32	1076.04
667.66	1080.20
668.01	1077.82
668.35	1078.89
668.69	1080.18
669.03	1083.50
669.37	1080.51
669.71	1084.16
670.05	1085.26
670.39	1084.56
670.73	1083.64
671.07	1082.78
671.41	1082.19
671.75	1082.08
672.09	1081.30
672.43	1081.82
672.77	1084.07
673.11	1081.77
673.45	1082.94
673.79	1078.19
674.13	1080.81
674.47	1079.76
674.81	1080.88
675.15	1080.44
675.49	1080.79
675.83	1077.37
676.17	1077.30
676.51	1077.70
676.85	1076.11
677.19	1078.10
677.53	1081.00
677.87	1083.50
678.21	1084.96
678.55	1084.86
678.89	1085.70
679.23	1082.59
679.57	1079.67
679.90	1076.95
680.24	1081.87
680.58	1081.42
680.92	1084.04
681.26	1083.90
681.60	1083.25
681.94	1080.41
682.28	1082.57
682.62	1082.64
682.96	1083.88
683.29	1084.79
683.63	1082.29
683.97	1079.48
684.31	1080.27
684.65	1079.36
684.99	1081.61
685.33	1081.63
685.67	1084.60
686.00	1082.22
686.34	1080.81
686.68	1078.14
687.02	1078.24
687.36	1074.59
687.70	1073.44
688.03	1073.00
688.37	1074.96
688.71	1073.11
689.05	1076.67
689.39	1076.04
689.72	1081.26
690.06	1082.94
690.40	1086.94
690.74	1085.14
691.08	1086.43
691.41	1082.24
691.75	1078.47
692.09	1076.95
692.43	1077.23
692.76	1077.11
693.10	1078.78
693.44	1081.12
693.78	1079.97
694.11	1077.54
694.45	1078.17
694.79	1077.54
695.13	1072.90
695.46	1075.50
695.80	1080.84
696.14	1083.43
696.48	1085.61
696.81	1087.95
697.15	1087.97
697.49	1085.26
697.82	1079.69
698.16	1078.82
698.50	1081.61
698.83	1079.74
699.17	1077.75
699.51	1080.84
699.84	1080.70
700.18	1078.87
700.52	1081.77
700.85	1087.53
701.19	1091.13
701.53	1091.30
701.86	1090.08
702.20	1087.51
702.54	1083.08
702.87	1079.13
703.21	1077.47
703.55	1078.96
703.88	1082.83
704.22	1082.45
704.55	1082.47
704.89	1082.01
705.23	1081.26
705.56	1078.03
705.90	1077.54
706.23	1077.79
706.57	1079.43
706.91	1077.68
707.24	1078.87
707.58	1078.40
707.91	1080.86
708.25	1078.92
708.58	1081.02
708.92	1080.11
709.26	1081.07
709.59	1078.10
709.93	1082.90
710.26	1086.34
710.60	1086.52
710.93	1086.20
711.27	1090.24
711.60	1088.33
711.94	1086.31
712.27	1085.42
712.61	1085.42
712.94	1081.54
713.28	1081.07
713.61	1081.89
713.95	1082.01
714.28	1080.60
714.62	1078.92
714.95	1078.03
715.29	1075.97
715.62	1076.76
715.96	1076.81
716.29	1079.01
716.63	1077.63
716.96	1077.68
717.29	1076.60
717.63	1078.21
717.96	1077.49
718.30	1075.43
718.63	1073.14
718.97	1072.36
719.30	1073.42
719.63	1073.58
719.97	1078.12
720.30	1079.60
720.64	1078.80
720.97	1078.14
721.30	1078.94
721.64	1077.96
721.97	1078.05
722.31	1080.84
722.64	1079.99
722.97	1078.45
723.31	1078.85
723.64	1077.82
723.97	1077.51
724.31	1079.48
724.64	1081.09
724.98	1080.16
725.31	1079.10
725.64	1077.21
725.98	1078.47
726.31	1077.11
726.64	1079.20
726.97	1081.37
727.31	1082.05
727.64	1081.23
727.97	1082.01
728.31	1081.42
728.64	1079.76
728.97	1081.37
729.31	1079.88
729.64	1082.85
729.97	1083.81
730.30	1084.23
730.64	1080.84
730.97	1079.29
731.30	1076.23
731.63	1075.64
731.97	1077.79
732.30	1077.96
732.63	1078.80
732.96	1082.45
733.30	1077.28
733.63	1075.83
733.96	1079.95
734.29	1081.23
734.63	1080.51
734.96	1086.85
735.29	1084.49
735.62	1080.51
735.95	1080.13
736.29	1077.11
736.62	1073.35
736.95	1072.90
737.28	1071.71
737.61	1075.55
737.94	1077.65
738.28	1077.82
738.61	1080.51
738.94	1082.24
739.27	1077.35
739.60	1076.44
739.93	1076.93
740.27	1078.28
740.60	1079.74
740.93	1080.16
741.26	1081.68
741.59	1081.91
741.92	1083.22
742.25	1081.37
742.58	1082.85
742.91	1079.97
743.25	1080.58
743.58	1079.69
743.91	1083.25
744.24	1083.48
744.57	1086.20
744.90	1082.76
745.23	1083.76
745.56	1083.64
745.89	1085.75
746.22	1081.37
746.55	1084.11
746.88	1082.87
747.21	1079.20
747.54	1075.76
747.87	1076.69
748.20	1076.20
748.53	1075.27
748.87	1077.98
749.20	1080.79
749.53	1084.02
749.86	1083.71
750.19	1082.24
750.52	1082.83
750.85	1080.27
751.18	1080.72
751.51	1082.69
751.84	1084.84
752.16	1085.21
752.49	1083.27
752.82	1081.63
753.15	1082.08
753.48	1081.09
753.81	1079.31
754.14	1083.22
754.47	1084.28
754.80	1083.90
755.13	1085.07
755.46	1085.94
755.79	1083.36
756.12	1082.50
756.45	1081.68
756.78	1079.71
757.11	1080.23
757.43	1081.44
757.76	1082.24
758.09	1084.32
758.42	1085.94
758.75	1083.06
759.08	1084.44
759.41	1085.68
759.74	1083.18
760.07	1082.99
760.39	1085.31
760.72	1082.69
761.05	1080.04
761.38	1080.81
761.71	1080.46
762.04	1078.78
762.36	1079.55
762.69	1081.12
763.02	1082.57
763.35	1082.15
763.68	1085.31
764.01	1083.34
