SpectraSuite Data File
++++++++++++++++++++++++++++++++++++
Date: Mon Aug 26 10:22:16 PDT 2019
User: corrico
Dark Spectrum Present: No
Reference Spectrum Present: No
Number of Sampled Component Spectra: 1
Spectrometers: USB2+H06089
Integration Time (usec): 2000 (USB2+H06089)
Spectra Averaged: 20 (USB2+H06089)
Boxcar Smoothing: 2 (USB2+H06089)
Correct for Electrical Dark: No (USB2+H06089)
Strobe/Lamp Enabled: No (USB2+H06089)
Correct for Detector Non-linearity: No (USB2+H06089)
Correct for Stray Light: No (USB2+H06089)
Number of Pixels in Processed Spectrum: 2048
>>>>>Begin Processed Spectral Data<<<<<
339.70	1024.69
340.07	1024.69
340.45	992.74
340.82	969.45
341.19	947.57
341.57	921.07
341.94	907.17
342.31	899.42
342.69	898.04
343.06	892.49
343.43	893.03
343.81	898.18
344.18	897.15
344.55	895.44
344.93	903.99
345.30	911.38
345.67	914.68
346.04	923.58
346.42	937.15
346.79	942.77
347.16	953.60
347.54	968.70
347.91	979.30
348.28	985.20
348.65	993.00
349.03	998.43
349.40	1002.31
349.77	1011.21
350.14	1022.04
350.52	1031.29
350.89	1039.17
351.26	1046.29
351.63	1052.26
352.01	1054.39
352.38	1055.02
352.75	1061.20
353.12	1063.82
353.50	1067.38
353.87	1070.63
354.24	1076.15
354.61	1074.80
354.98	1078.59
355.36	1078.50
355.73	1080.51
356.10	1085.94
356.47	1090.36
356.84	1091.44
357.22	1091.32
357.59	1090.22
357.96	1084.79
358.33	1081.30
358.70	1080.37
359.08	1077.79
359.45	1078.24
359.82	1080.53
360.19	1079.27
360.56	1075.10
360.94	1076.39
361.31	1076.88
361.68	1074.12
362.05	1073.23
362.42	1075.45
362.79	1077.02
363.16	1079.92
363.54	1080.95
363.91	1083.67
364.28	1085.35
364.65	1082.87
365.02	1078.66
365.39	1079.31
365.76	1075.48
366.14	1072.25
366.51	1072.13
366.88	1072.69
367.25	1070.44
367.62	1072.46
367.99	1073.79
368.36	1073.60
368.73	1073.42
369.10	1072.76
369.48	1074.87
369.85	1073.70
370.22	1077.16
370.59	1076.93
370.96	1079.71
371.33	1079.27
371.70	1083.29
372.07	1081.33
372.44	1083.74
372.81	1084.91
373.18	1082.85
373.55	1076.88
373.93	1077.51
374.30	1077.14
374.67	1076.83
375.04	1074.59
375.41	1078.50
375.78	1075.31
376.15	1073.18
376.52	1076.34
376.89	1079.78
377.26	1079.15
377.63	1080.23
378.00	1080.53
378.37	1077.72
378.74	1077.96
379.11	1079.34
379.48	1083.48
379.85	1085.73
380.22	1083.86
380.59	1082.43
380.96	1079.50
381.33	1076.25
381.70	1072.41
382.07	1073.35
382.44	1074.75
382.81	1076.37
383.18	1077.70
383.55	1080.18
383.92	1080.98
384.29	1082.01
384.66	1082.26
385.03	1083.83
385.40	1083.90
385.77	1082.54
386.14	1080.46
386.51	1080.23
386.88	1076.95
387.25	1076.15
387.62	1077.89
387.99	1076.30
388.36	1075.62
388.73	1074.70
389.10	1078.38
389.46	1078.05
389.83	1081.40
390.20	1082.31
390.57	1083.18
390.94	1078.52
391.31	1077.23
391.68	1079.90
392.05	1082.33
392.42	1082.71
392.79	1086.50
393.16	1088.04
393.53	1082.80
393.89	1079.69
394.26	1084.14
394.63	1084.07
395.00	1083.36
395.37	1087.06
395.74	1090.03
396.11	1088.30
396.48	1086.31
396.84	1087.18
397.21	1087.37
397.58	1087.62
397.95	1086.94
398.32	1090.53
398.69	1089.57
399.06	1085.63
399.42	1084.74
399.79	1085.17
400.16	1083.39
400.53	1082.61
400.90	1085.40
401.27	1083.57
401.64	1081.56
402.00	1079.20
402.37	1080.88
402.74	1081.94
403.11	1084.37
403.48	1086.01
403.84	1087.67
404.21	1088.04
404.58	1085.14
404.95	1083.76
405.32	1084.96
405.68	1088.40
406.05	1089.96
406.42	1094.04
406.79	1094.50
407.16	1095.65
407.52	1094.95
407.89	1093.87
408.26	1094.06
408.63	1095.18
408.99	1094.11
409.36	1088.93
409.73	1092.28
410.10	1091.65
410.47	1092.16
410.83	1092.45
411.20	1095.75
411.57	1091.60
411.94	1092.59
412.30	1092.73
412.67	1094.36
413.04	1096.40
413.40	1098.93
413.77	1100.96
414.14	1100.24
414.51	1098.67
414.87	1100.68
415.24	1101.18
415.61	1098.95
415.97	1100.43
416.34	1101.43
416.71	1097.66
417.08	1099.42
417.44	1100.68
417.81	1103.59
418.18	1102.63
418.54	1107.92
418.91	1107.24
419.28	1109.86
419.64	1110.79
420.01	1114.77
420.38	1112.95
420.74	1114.00
421.11	1115.01
421.48	1114.40
421.84	1117.28
422.21	1119.83
422.58	1124.21
422.94	1126.73
423.31	1126.80
423.68	1128.75
424.04	1132.07
424.41	1133.03
424.77	1135.56
425.14	1144.19
425.51	1147.17
425.87	1150.89
426.24	1157.23
426.61	1157.68
426.97	1159.85
427.34	1166.10
427.70	1176.89
428.07	1180.99
428.44	1195.50
428.80	1204.04
429.17	1212.49
429.53	1216.91
429.90	1227.68
430.27	1234.35
430.63	1246.05
431.00	1256.17
431.36	1267.63
431.73	1277.98
432.09	1288.82
432.46	1298.08
432.83	1313.79
433.19	1328.86
433.56	1351.12
433.92	1372.09
434.29	1396.32
434.65	1418.46
435.02	1444.27
435.38	1465.69
435.75	1488.67
436.11	1519.97
436.48	1551.66
436.84	1588.36
437.21	1627.02
437.57	1667.75
437.94	1706.84
438.30	1749.62
438.67	1792.97
439.03	1839.38
439.40	1892.74
439.76	1949.97
440.13	2013.31
440.49	2078.04
440.86	2142.53
441.22	2213.40
441.59	2285.07
441.95	2362.79
442.32	2446.63
442.68	2543.74
443.05	2642.09
443.41	2741.28
443.78	2843.89
444.14	2951.72
444.51	3062.92
444.87	3197.05
445.24	3341.93
445.60	3495.05
445.96	3649.29
446.33	3820.08
446.69	3986.26
447.06	4162.69
447.42	4343.64
447.79	4536.33
448.15	4748.17
448.51	4975.02
448.88	5235.80
449.24	5490.19
449.61	5772.53
449.97	6050.75
450.33	6345.15
450.70	6607.64
451.06	6933.95
451.43	7244.80
451.79	7612.55
452.15	8021.67
452.52	8479.22
452.88	8953.77
453.24	9487.71
453.61	10083.75
453.97	10636.82
454.34	11185.33
454.70	11826.31
455.06	12451.46
455.43	13052.02
455.79	13639.12
456.15	14344.28
456.52	14992.21
456.88	15763.84
457.24	16495.74
457.61	17351.58
457.97	18129.27
458.33	18921.27
458.70	19723.23
459.06	20493.12
459.42	21343.91
459.79	22135.76
460.15	23044.56
460.51	23896.50
460.88	24834.84
461.24	25636.64
461.60	26598.43
461.96	27458.63
462.33	28297.59
462.69	29111.72
463.05	30008.66
463.42	30776.50
463.78	31480.14
464.14	32037.25
464.50	32636.27
464.87	33060.79
465.23	33350.97
465.59	33660.30
465.95	33958.83
466.32	34205.20
466.68	34443.74
467.04	34621.27
467.40	34780.22
467.77	34951.15
468.13	34940.22
468.49	34855.87
468.85	34780.48
469.22	34613.76
469.58	34274.95
469.94	34019.73
470.30	33699.90
470.66	33268.16
471.03	32664.94
471.39	32276.17
471.75	31649.92
472.11	31069.70
472.47	30748.62
472.84	30459.97
473.20	29972.74
473.56	29695.87
473.92	29267.21
474.28	28728.74
474.65	28228.50
475.01	27788.62
475.37	27238.80
475.73	26813.13
476.09	26312.96
476.45	25812.48
476.81	25295.48
477.18	24755.85
477.54	24271.80
477.90	23884.56
478.26	23443.11
478.62	23065.28
478.98	22746.38
479.34	22414.54
479.71	21993.57
480.07	21619.93
480.43	21232.99
480.79	20832.66
481.15	20469.62
481.51	20145.72
481.87	19901.90
482.23	19615.84
482.59	19373.29
482.96	19094.25
483.32	18802.46
483.68	18427.97
484.04	18088.69
484.40	17712.07
484.76	17338.97
485.12	16973.59
485.48	16651.69
485.84	16308.34
486.20	15949.32
486.56	15577.46
486.92	15260.41
487.28	14906.87
487.64	14545.91
488.00	14243.56
488.37	13924.90
488.73	13569.82
489.09	13208.93
489.45	12908.27
489.81	12581.76
490.17	12280.30
490.53	11996.09
490.89	11702.70
491.25	11387.88
491.61	11070.31
491.97	10749.40
492.33	10423.20
492.69	10134.22
493.05	9829.83
493.41	9540.63
493.77	9276.03
494.13	9019.11
494.49	8748.99
494.85	8512.83
495.21	8286.57
495.57	8064.32
495.93	7835.46
496.29	7633.00
496.64	7439.14
497.00	7242.55
497.36	7041.29
497.72	6858.94
498.08	6674.95
498.44	6498.12
498.80	6327.92
499.16	6164.29
499.52	6001.39
499.88	5868.47
500.24	5743.91
500.60	5615.09
500.96	5502.08
501.32	5392.27
501.68	5276.13
502.03	5137.17
502.39	5018.18
502.75	4873.44
503.11	4743.84
503.47	4613.08
503.83	4494.04
504.19	4365.12
504.55	4260.97
504.91	4166.41
505.26	4069.07
505.62	3986.59
505.98	3905.21
506.34	3813.83
506.70	3714.06
507.06	3631.34
507.42	3539.71
507.78	3463.15
508.13	3393.36
508.49	3323.79
508.85	3249.27
509.21	3179.71
509.57	3106.83
509.93	3041.32
510.28	2976.34
510.64	2913.24
511.00	2849.58
511.36	2791.18
511.72	2733.14
512.07	2680.48
512.43	2625.99
512.79	2577.80
513.15	2530.07
513.51	2479.38
513.86	2436.64
514.22	2397.76
514.58	2359.54
514.94	2320.45
515.30	2286.28
515.65	2245.07
516.01	2212.95
516.37	2178.57
516.73	2146.48
517.08	2115.91
517.44	2084.86
517.80	2050.99
518.16	2022.13
518.51	1990.06
518.87	1961.88
519.23	1936.33
519.59	1910.77
519.94	1883.78
520.30	1865.13
520.66	1840.39
521.01	1818.36
521.37	1800.83
521.73	1783.51
522.09	1760.71
522.44	1740.26
522.80	1719.94
523.16	1698.62
523.51	1680.97
523.87	1663.02
524.23	1645.86
524.58	1626.72
524.94	1606.94
525.30	1589.04
525.65	1572.02
526.01	1555.17
526.37	1539.49
526.72	1527.01
527.08	1510.11
527.44	1494.67
527.79	1481.70
528.15	1474.91
528.51	1464.38
528.86	1452.63
529.22	1444.23
529.58	1433.91
529.93	1417.55
530.29	1401.91
530.65	1390.75
531.00	1381.01
531.36	1371.23
531.71	1363.08
532.07	1354.47
532.43	1348.83
532.78	1342.79
533.14	1335.49
533.49	1330.66
533.85	1328.16
534.21	1320.79
534.56	1312.27
534.92	1307.49
535.27	1299.25
535.63	1290.03
535.98	1285.47
536.34	1278.70
536.69	1271.12
537.05	1263.80
537.41	1260.14
537.76	1254.13
538.12	1250.38
538.47	1247.58
538.83	1246.83
539.18	1241.61
539.54	1237.11
539.89	1232.97
540.25	1226.07
540.60	1219.91
540.96	1212.40
541.31	1207.01
541.67	1204.25
542.02	1201.56
542.38	1199.31
542.73	1204.28
543.09	1201.47
543.44	1195.45
543.80	1194.19
544.15	1189.51
544.51	1181.83
544.86	1182.09
545.22	1180.89
545.57	1177.64
545.93	1175.67
546.28	1175.91
546.64	1169.99
546.99	1168.63
547.35	1164.49
547.70	1165.73
548.05	1163.62
548.41	1165.17
548.76	1161.44
549.12	1164.35
549.47	1161.37
549.83	1159.43
550.18	1154.98
550.53	1156.32
550.89	1152.22
551.24	1148.71
551.60	1141.85
551.95	1139.68
552.30	1135.25
552.66	1133.50
553.01	1131.79
553.37	1135.02
553.72	1138.62
554.07	1137.66
554.43	1137.97
554.78	1142.58
555.13	1137.83
555.49	1131.67
555.84	1133.90
556.19	1131.30
556.55	1123.90
556.90	1122.52
557.26	1124.00
557.61	1120.30
557.96	1119.69
558.32	1120.06
558.67	1119.76
559.02	1116.83
559.37	1115.17
559.73	1114.52
560.08	1114.42
560.43	1117.37
560.79	1117.70
561.14	1119.50
561.49	1118.10
561.85	1116.65
562.20	1113.56
562.55	1110.94
562.90	1110.89
563.26	1111.71
563.61	1111.10
563.96	1110.98
564.32	1111.59
564.67	1110.26
565.02	1109.11
565.37	1107.87
565.73	1107.24
566.08	1112.53
566.43	1108.45
566.78	1105.04
567.14	1106.82
567.49	1104.15
567.84	1096.54
568.19	1095.11
568.54	1097.22
568.90	1097.95
569.25	1100.66
569.60	1101.06
569.95	1102.63
570.31	1102.93
570.66	1099.61
571.01	1098.74
571.36	1100.73
571.71	1101.34
572.06	1097.10
572.42	1097.92
572.77	1097.57
573.12	1096.47
573.47	1096.26
573.82	1097.43
574.18	1096.21
574.53	1095.23
574.88	1096.54
575.23	1097.24
575.58	1100.38
575.93	1100.59
576.28	1103.21
576.64	1100.26
576.99	1099.00
577.34	1095.07
577.69	1093.92
578.04	1090.06
578.39	1086.57
578.74	1087.09
579.09	1087.88
579.44	1092.05
579.80	1095.67
580.15	1099.42
580.50	1099.93
580.85	1100.03
581.20	1097.97
581.55	1094.34
581.90	1095.46
582.25	1091.79
582.60	1090.29
582.95	1087.02
583.30	1088.21
583.65	1087.60
584.00	1091.44
584.35	1092.80
584.71	1092.45
585.06	1093.12
585.41	1092.35
585.76	1092.14
586.11	1090.83
586.46	1089.75
586.81	1089.82
587.16	1090.01
587.51	1089.78
587.86	1090.78
588.21	1093.26
588.56	1091.72
588.91	1090.97
589.26	1089.33
589.61	1089.82
589.96	1090.69
590.31	1091.18
590.66	1092.30
591.01	1088.44
591.36	1089.26
591.71	1088.42
592.06	1086.62
592.41	1085.80
592.76	1088.14
593.10	1082.10
593.45	1078.78
593.80	1078.45
594.15	1078.17
594.50	1077.96
594.85	1080.25
595.20	1081.54
595.55	1085.77
595.90	1084.53
596.25	1086.99
596.60	1087.25
596.95	1089.61
597.30	1087.48
597.64	1101.53
597.99	1099.49
598.34	1101.76
598.69	1100.78
599.04	1097.95
599.39	1083.48
599.74	1082.10
600.09	1081.19
600.44	1080.16
600.78	1081.26
601.13	1080.58
601.48	1084.46
601.83	1086.27
602.18	1088.19
602.53	1088.68
602.88	1092.66
603.22	1089.96
603.57	1085.03
603.92	1085.07
604.27	1086.17
604.62	1083.43
604.97	1082.64
605.31	1086.48
605.66	1086.55
606.01	1087.41
606.36	1085.24
606.71	1091.11
607.05	1089.89
607.40	1088.35
607.75	1088.02
608.10	1090.50
608.44	1087.30
608.79	1088.30
609.14	1089.40
609.49	1085.80
609.84	1087.06
610.18	1085.91
610.53	1085.26
610.88	1084.09
611.23	1085.70
611.57	1087.06
611.92	1085.45
612.27	1086.64
612.62	1086.55
612.96	1086.85
613.31	1086.01
613.66	1087.76
614.00	1086.06
614.35	1084.42
614.70	1085.10
615.05	1082.59
615.39	1085.12
615.74	1084.77
616.09	1083.20
616.43	1082.69
616.78	1084.44
617.13	1081.33
617.47	1083.50
617.82	1086.03
618.17	1086.76
618.51	1084.74
618.86	1082.87
619.21	1080.06
619.55	1079.20
619.90	1078.26
620.25	1078.66
620.59	1082.83
620.94	1083.67
621.29	1085.63
621.63	1082.52
621.98	1085.31
622.32	1082.17
622.67	1080.98
623.02	1080.53
623.36	1085.10
623.71	1080.91
624.05	1083.27
624.40	1084.53
624.75	1082.80
625.09	1080.77
625.44	1086.06
625.78	1082.22
626.13	1083.18
626.48	1085.61
626.82	1084.98
627.17	1082.38
627.51	1082.57
627.86	1082.47
628.20	1079.36
628.55	1079.60
628.89	1077.61
629.24	1081.05
629.58	1079.71
629.93	1084.42
630.28	1083.18
630.62	1085.17
630.97	1084.44
631.31	1085.00
631.66	1084.96
632.00	1088.33
632.35	1088.84
632.69	1088.49
633.04	1089.85
633.38	1087.18
633.73	1086.15
634.07	1083.79
634.42	1084.30
634.76	1081.40
635.11	1083.32
635.45	1082.03
635.79	1085.45
636.14	1085.21
636.48	1086.31
636.83	1086.17
637.17	1085.35
637.52	1083.08
637.86	1079.78
638.21	1080.70
638.55	1076.83
638.89	1078.33
639.24	1076.41
639.58	1076.55
639.93	1075.71
640.27	1076.37
640.61	1075.62
640.96	1075.13
641.30	1078.21
641.65	1076.86
641.99	1078.85
642.33	1080.48
642.68	1082.92
643.02	1080.88
643.37	1080.48
643.71	1079.20
644.05	1077.09
644.40	1076.41
644.74	1077.51
645.08	1079.53
645.43	1078.07
645.77	1079.46
646.11	1081.12
646.46	1082.31
646.80	1081.23
647.14	1082.36
647.49	1083.29
647.83	1082.05
648.17	1080.67
648.52	1084.04
648.86	1085.89
649.20	1083.39
649.55	1084.98
649.89	1085.00
650.23	1081.82
650.57	1079.76
650.92	1082.80
651.26	1077.30
651.60	1075.52
651.95	1075.90
652.29	1076.81
652.63	1073.81
652.97	1078.07
653.32	1080.98
653.66	1081.51
654.00	1081.87
654.34	1082.92
654.69	1080.65
655.03	1078.57
655.37	1078.14
655.71	1079.41
656.05	1081.68
656.40	1082.97
656.74	1084.70
657.08	1084.37
657.42	1082.52
657.76	1078.33
658.11	1076.55
658.45	1072.76
658.79	1074.89
659.13	1074.33
659.47	1078.10
659.82	1078.57
660.16	1081.94
660.50	1079.03
660.84	1079.41
661.18	1079.36
661.52	1081.09
661.87	1080.74
662.21	1079.97
662.55	1079.50
662.89	1079.83
663.23	1079.01
663.57	1077.02
663.91	1079.57
664.25	1083.53
664.60	1082.01
664.94	1083.36
665.28	1086.20
665.62	1085.56
665.96	1081.82
666.30	1081.98
666.64	1079.22
666.98	1077.82
667.32	1078.71
667.66	1078.05
668.01	1079.62
668.35	1080.77
668.69	1082.31
669.03	1081.44
669.37	1084.30
669.71	1082.26
670.05	1080.58
670.39	1082.19
670.73	1080.79
671.07	1081.21
671.41	1081.87
671.75	1086.85
672.09	1081.68
672.43	1085.21
672.77	1083.13
673.11	1083.04
673.45	1078.96
673.79	1082.01
674.13	1082.05
674.47	1086.29
674.81	1084.89
675.15	1086.52
675.49	1085.54
675.83	1083.46
676.17	1078.68
676.51	1076.15
676.85	1073.00
677.19	1072.39
677.53	1070.19
677.87	1071.45
678.21	1074.26
678.55	1077.02
678.89	1078.40
679.23	1078.57
679.57	1076.88
679.90	1077.16
680.24	1077.28
680.58	1073.74
680.92	1074.49
681.26	1073.60
681.60	1069.65
681.94	1071.17
682.28	1075.50
682.62	1077.49
682.96	1080.06
683.29	1084.86
683.63	1082.85
683.97	1082.64
684.31	1079.76
684.65	1079.48
684.99	1079.22
685.33	1079.43
685.67	1076.72
686.00	1077.56
686.34	1077.02
686.68	1077.16
687.02	1075.48
687.36	1075.85
687.70	1079.88
688.03	1079.95
688.37	1077.72
688.71	1078.78
689.05	1079.55
689.39	1077.93
689.72	1077.28
690.06	1078.64
690.40	1078.57
690.74	1077.82
691.08	1078.21
691.41	1079.24
691.75	1079.97
692.09	1082.15
692.43	1084.35
692.76	1082.36
693.10	1083.97
693.44	1084.63
693.78	1082.87
694.11	1082.17
694.45	1080.34
694.79	1078.50
695.13	1076.53
695.46	1079.01
695.80	1079.15
696.14	1079.95
696.48	1080.86
696.81	1082.57
697.15	1081.21
697.49	1079.60
697.82	1084.14
698.16	1084.86
698.50	1086.48
698.83	1085.63
699.17	1085.45
699.51	1082.59
699.84	1082.50
700.18	1083.08
700.52	1082.87
700.85	1081.63
701.19	1080.79
701.53	1080.56
701.86	1079.71
702.20	1080.18
702.54	1081.19
702.87	1080.74
703.21	1078.26
703.55	1076.32
703.88	1078.82
704.22	1080.48
704.55	1081.40
704.89	1082.97
705.23	1080.09
705.56	1075.90
705.90	1073.70
706.23	1074.38
706.57	1073.46
706.91	1075.08
707.24	1077.68
707.58	1079.90
707.91	1080.09
708.25	1081.73
708.58	1082.59
708.92	1081.12
709.26	1083.34
709.59	1080.88
709.93	1081.70
710.26	1083.41
710.60	1082.94
710.93	1082.17
711.27	1084.16
711.60	1083.18
711.94	1082.05
712.27	1085.28
712.61	1085.35
712.94	1084.84
713.28	1084.23
713.61	1081.61
713.95	1079.57
714.28	1077.58
714.62	1079.36
714.95	1078.33
715.29	1081.87
715.62	1082.15
715.96	1081.40
716.29	1080.58
716.63	1082.38
716.96	1081.98
717.29	1080.53
717.63	1080.67
717.96	1080.04
718.30	1078.68
718.63	1075.64
718.97	1077.84
719.30	1078.87
719.63	1079.06
719.97	1077.63
720.30	1080.20
720.64	1077.30
720.97	1076.46
721.30	1075.31
721.64	1076.55
721.97	1076.23
722.31	1079.69
722.64	1080.34
722.97	1082.17
723.31	1079.46
723.64	1077.63
723.97	1077.54
724.31	1078.57
724.64	1075.52
724.98	1078.17
725.31	1078.03
725.64	1076.06
725.98	1076.39
726.31	1077.07
726.64	1077.65
726.97	1076.41
727.31	1076.53
727.64	1076.65
727.97	1079.22
728.31	1078.45
728.64	1080.74
728.97	1083.15
729.31	1082.08
729.64	1078.19
729.97	1080.39
730.30	1081.37
730.64	1078.68
730.97	1078.87
731.30	1081.19
731.63	1075.05
731.97	1074.40
732.30	1076.74
732.63	1076.60
732.96	1076.90
733.30	1078.31
733.63	1078.73
733.96	1076.44
734.29	1077.09
734.63	1075.99
734.96	1080.46
735.29	1079.97
735.62	1078.96
735.95	1080.27
736.29	1081.75
736.62	1078.54
736.95	1080.02
737.28	1080.27
737.61	1080.11
737.94	1078.96
738.28	1082.05
738.61	1081.21
738.94	1083.67
739.27	1080.13
739.60	1080.70
739.93	1080.06
740.27	1078.31
740.60	1075.03
740.93	1076.25
741.26	1074.75
741.59	1073.93
741.92	1075.59
742.25	1077.86
742.58	1077.35
742.91	1079.43
743.25	1082.45
743.58	1081.07
743.91	1082.22
744.24	1081.33
744.57	1080.93
744.90	1079.46
745.23	1079.29
745.56	1077.25
745.89	1076.86
746.22	1075.78
746.55	1075.41
746.88	1074.31
747.21	1073.51
747.54	1073.02
747.87	1078.82
748.20	1077.33
748.53	1080.32
748.87	1081.80
749.20	1083.43
749.53	1080.51
749.86	1081.33
750.19	1081.30
750.52	1083.46
750.85	1085.14
751.18	1086.45
751.51	1084.46
751.84	1083.90
752.16	1080.25
752.49	1081.66
752.82	1077.91
753.15	1078.96
753.48	1079.55
753.81	1081.77
754.14	1079.95
754.47	1084.00
754.80	1088.00
755.13	1087.51
755.46	1085.70
755.79	1085.26
756.12	1081.51
756.45	1080.20
756.78	1080.16
757.11	1082.22
757.43	1080.04
757.76	1080.02
758.09	1077.86
758.42	1078.19
758.75	1076.51
759.08	1078.38
759.41	1078.87
759.74	1079.78
760.07	1079.62
760.39	1080.98
760.72	1083.22
761.05	1086.22
761.38	1085.94
761.71	1085.14
762.04	1083.53
762.36	1083.83
762.69	1083.97
763.02	1083.11
763.35	1085.07
763.68	1084.25
764.01	1081.96
