SpectraSuite Data File
++++++++++++++++++++++++++++++++++++
Date: Mon Aug 26 10:22:10 PDT 2019
User: corrico
Dark Spectrum Present: No
Reference Spectrum Present: No
Number of Sampled Component Spectra: 1
Spectrometers: USB2+H06089
Integration Time (usec): 2000 (USB2+H06089)
Spectra Averaged: 20 (USB2+H06089)
Boxcar Smoothing: 2 (USB2+H06089)
Correct for Electrical Dark: No (USB2+H06089)
Strobe/Lamp Enabled: No (USB2+H06089)
Correct for Detector Non-linearity: No (USB2+H06089)
Correct for Stray Light: No (USB2+H06089)
Number of Pixels in Processed Spectrum: 2048
>>>>>Begin Processed Spectral Data<<<<<
339.70	1015.68
340.07	1015.68
340.45	988.85
340.82	969.59
341.19	948.90
341.57	927.76
341.94	911.24
342.31	901.32
342.69	896.24
343.06	894.62
343.43	895.58
343.81	898.88
344.18	906.37
344.55	910.77
344.93	915.66
345.30	917.63
345.67	927.46
346.04	931.18
346.42	939.09
346.79	946.37
347.16	957.56
347.54	965.45
347.91	976.87
348.28	985.51
348.65	994.05
349.03	1001.96
349.40	1011.51
349.77	1018.51
350.14	1027.47
350.52	1039.15
350.89	1047.51
351.26	1051.81
351.63	1055.86
352.01	1062.23
352.38	1062.58
352.75	1063.02
353.12	1067.42
353.50	1073.77
353.87	1077.40
354.24	1081.09
354.61	1085.07
354.98	1089.31
355.36	1089.64
355.73	1087.13
356.10	1089.99
356.47	1089.78
356.84	1086.41
357.22	1086.34
357.59	1086.83
357.96	1083.22
358.33	1086.24
358.70	1085.84
359.08	1083.41
359.45	1080.32
359.82	1081.14
360.19	1079.57
360.56	1078.54
360.94	1080.98
361.31	1082.94
361.68	1080.09
362.05	1079.41
362.42	1082.94
362.79	1085.59
363.16	1085.31
363.54	1086.85
363.91	1085.59
364.28	1082.15
364.65	1077.16
365.02	1077.16
365.39	1078.24
365.76	1078.50
366.14	1077.89
366.51	1078.21
366.88	1078.71
367.25	1076.41
367.62	1075.73
367.99	1076.25
368.36	1076.11
368.73	1076.60
369.10	1075.73
369.48	1075.83
369.85	1078.21
370.22	1078.50
370.59	1076.15
370.96	1078.64
371.33	1077.49
371.70	1076.04
372.07	1075.99
372.44	1078.38
372.81	1076.69
373.18	1079.06
373.55	1077.49
373.93	1075.43
374.30	1072.27
374.67	1074.96
375.04	1077.28
375.41	1076.32
375.78	1078.64
376.15	1079.64
376.52	1077.25
376.89	1073.21
377.26	1073.53
377.63	1072.25
378.00	1071.99
378.37	1072.22
378.74	1071.29
379.11	1075.57
379.48	1077.93
379.85	1081.00
380.22	1081.33
380.59	1084.49
380.96	1084.49
381.33	1082.64
381.70	1081.94
382.07	1083.53
382.44	1081.35
382.81	1078.78
383.18	1080.51
383.55	1081.96
383.92	1080.04
384.29	1082.45
384.66	1084.32
385.03	1089.59
385.40	1089.40
385.77	1088.65
386.14	1085.73
386.51	1086.66
386.88	1082.71
387.25	1079.97
387.62	1082.22
387.99	1083.39
388.36	1083.95
388.73	1084.79
389.10	1088.79
389.46	1088.91
389.83	1087.97
390.20	1085.75
390.57	1084.11
390.94	1085.10
391.31	1086.62
391.68	1089.10
392.05	1093.73
392.42	1093.83
392.79	1089.10
393.16	1087.62
393.53	1089.36
393.89	1084.49
394.26	1083.67
394.63	1085.42
395.00	1082.45
395.37	1082.66
395.74	1084.77
396.11	1086.80
396.48	1088.79
396.84	1092.82
397.21	1092.68
397.58	1092.02
397.95	1089.52
398.32	1089.12
398.69	1087.81
399.06	1086.94
399.42	1088.37
399.79	1089.33
400.16	1090.53
400.53	1093.05
400.90	1090.97
401.27	1087.27
401.64	1086.15
402.00	1084.96
402.37	1084.00
402.74	1085.12
403.11	1088.75
403.48	1088.19
403.84	1090.53
404.21	1093.33
404.58	1092.96
404.95	1092.05
405.32	1095.32
405.68	1093.69
406.05	1090.92
406.42	1094.11
406.79	1095.09
407.16	1097.57
407.52	1098.72
407.89	1100.57
408.26	1100.33
408.63	1100.12
408.99	1100.03
409.36	1095.75
409.73	1094.90
410.10	1095.44
410.47	1093.83
410.83	1095.09
411.20	1096.94
411.57	1097.73
411.94	1098.48
412.30	1101.95
412.67	1098.13
413.04	1103.56
413.40	1102.93
413.77	1100.61
414.14	1098.86
414.51	1100.33
414.87	1096.85
415.24	1096.26
415.61	1096.78
415.97	1097.69
416.34	1096.94
416.71	1096.89
417.08	1099.37
417.44	1102.81
417.81	1101.78
418.18	1101.15
418.54	1104.48
418.91	1109.20
419.28	1111.29
419.64	1115.85
420.01	1121.40
420.38	1121.82
420.74	1118.61
421.11	1118.14
421.48	1120.74
421.84	1117.30
422.21	1123.13
422.58	1125.87
422.94	1126.48
423.31	1131.56
423.68	1139.54
424.04	1138.62
424.41	1143.61
424.77	1151.38
425.14	1152.90
425.51	1160.39
425.87	1166.31
426.24	1168.86
426.61	1171.41
426.97	1181.08
427.34	1186.14
427.70	1192.34
428.07	1203.06
428.44	1214.27
428.80	1222.60
429.17	1232.81
429.53	1245.31
429.90	1254.88
430.27	1266.60
430.63	1276.48
431.00	1289.31
431.36	1305.25
431.73	1325.47
432.09	1341.60
432.46	1360.62
432.83	1377.29
433.19	1397.53
433.56	1417.80
433.92	1440.34
434.29	1469.29
434.65	1498.57
435.02	1524.72
435.38	1558.26
435.75	1592.10
436.11	1629.01
436.48	1670.28
436.84	1715.31
437.21	1755.64
437.57	1804.32
437.94	1856.35
438.30	1908.85
438.67	1969.05
439.03	2032.24
439.40	2104.21
439.76	2170.89
440.13	2248.01
440.49	2326.61
440.86	2407.24
441.22	2492.93
441.59	2584.21
441.95	2685.37
442.32	2787.81
442.68	2910.60
443.05	3026.31
443.41	3158.88
443.78	3287.66
444.14	3431.79
444.51	3566.37
444.87	3733.18
445.24	3893.64
445.60	4077.14
445.96	4266.16
446.33	4484.58
446.69	4692.28
447.06	4920.63
447.42	5146.30
447.79	5382.79
448.15	5646.82
448.51	5929.98
448.88	6243.89
449.24	6552.77
449.61	6901.56
449.97	7252.31
450.33	7631.04
450.70	7997.40
451.06	8436.02
451.43	8839.90
451.79	9303.02
452.15	9787.39
452.52	10319.61
452.88	10861.30
453.24	11496.50
453.61	12206.95
453.97	12912.64
454.34	13610.45
454.70	14442.37
455.06	15253.97
455.43	16008.49
455.79	16703.98
456.15	17522.98
456.52	18254.84
456.88	19182.33
457.24	20104.03
457.61	21240.74
457.97	22302.96
458.33	23397.31
458.70	24426.56
459.06	25414.52
459.42	26433.87
459.79	27359.15
460.15	28425.10
460.51	29425.47
460.88	30517.61
461.24	31484.00
461.60	32627.07
461.96	33676.05
462.33	34703.19
462.69	35740.96
463.05	36863.55
463.42	37885.67
463.78	38810.51
464.14	39574.55
464.50	40316.20
464.87	40832.68
465.23	41178.94
465.59	41583.88
465.95	41907.64
466.32	42147.10
466.68	42415.59
467.04	42588.53
467.40	42609.99
467.77	42717.80
468.13	42623.68
468.49	42434.83
468.85	42285.50
469.22	42123.07
469.58	41858.75
469.94	41710.90
470.30	41501.02
470.66	41158.39
471.03	40677.15
471.39	40305.94
471.75	39590.44
472.11	38877.07
472.47	38380.97
472.84	37860.44
473.20	37155.68
473.56	36761.55
473.92	36181.57
474.28	35550.14
474.65	34879.60
475.01	34184.06
475.37	33343.34
475.73	32679.82
476.09	31958.75
476.45	31325.87
476.81	30777.62
477.18	30235.58
477.54	29762.67
477.90	29319.98
478.26	28745.66
478.62	28236.85
478.98	27801.47
479.34	27335.26
479.71	26777.46
480.07	26364.85
480.43	25915.16
480.79	25442.84
481.15	24974.34
481.51	24602.12
481.87	24269.16
482.23	23901.76
482.59	23568.87
482.96	23259.17
483.32	22947.95
483.68	22530.63
484.04	22186.17
484.40	21780.11
484.76	21333.82
485.12	20894.10
485.48	20470.84
485.84	19972.66
486.20	19533.25
486.56	19110.01
486.92	18717.87
487.28	18319.68
487.64	17931.38
488.00	17526.89
488.37	17125.49
488.73	16673.46
489.09	16207.34
489.45	15766.93
489.81	15324.84
490.17	14884.61
490.53	14476.14
490.89	14065.68
491.25	13653.59
491.61	13266.06
491.97	12882.87
492.33	12479.24
492.69	12138.30
493.05	11809.27
493.41	11480.30
493.77	11149.24
494.13	10857.28
494.49	10556.10
494.85	10275.19
495.21	9996.90
495.57	9747.11
495.93	9482.98
496.29	9230.98
496.64	8988.06
497.00	8739.77
497.36	8475.17
497.72	8223.43
498.08	7998.66
498.44	7775.59
498.80	7562.81
499.16	7366.32
499.52	7176.11
499.88	6991.06
500.24	6816.41
500.60	6661.05
500.96	6505.82
501.32	6347.49
501.68	6178.20
502.03	6003.97
502.39	5832.76
502.75	5657.61
503.11	5505.95
503.47	5369.45
503.83	5239.10
504.19	5116.25
504.55	5000.69
504.91	4884.37
505.26	4767.88
505.62	4646.24
505.98	4528.52
506.34	4413.88
506.70	4294.41
507.06	4180.62
507.42	4080.93
507.78	3986.05
508.13	3902.14
508.49	3828.77
508.85	3754.92
509.21	3670.01
509.57	3581.46
509.93	3494.96
510.28	3400.85
510.64	3312.28
511.00	3234.62
511.36	3157.50
511.72	3085.43
512.07	3023.25
512.43	2961.20
512.79	2903.39
513.15	2848.57
513.51	2788.61
513.86	2732.67
514.22	2685.13
514.58	2631.65
514.94	2581.59
515.30	2536.32
515.65	2494.15
516.01	2450.82
516.37	2414.22
516.73	2381.59
517.08	2346.60
517.44	2306.43
517.80	2262.92
518.16	2221.12
518.51	2183.13
518.87	2146.01
519.23	2112.82
519.59	2086.56
519.94	2058.66
520.30	2027.77
520.66	1998.93
521.01	1965.00
521.37	1934.27
521.73	1906.48
522.09	1880.22
522.44	1860.66
522.80	1840.13
523.16	1822.93
523.51	1798.84
523.87	1779.32
524.23	1757.13
524.58	1736.63
524.94	1714.79
525.30	1699.51
525.65	1682.54
526.01	1661.03
526.37	1644.30
526.72	1626.98
527.08	1605.89
527.44	1588.78
527.79	1575.53
528.15	1559.48
528.51	1541.20
528.86	1530.69
529.22	1512.08
529.58	1496.63
529.93	1485.35
530.29	1476.29
530.65	1461.29
531.00	1452.35
531.36	1440.88
531.71	1429.20
532.07	1420.49
532.43	1411.27
532.78	1400.79
533.14	1390.65
533.49	1380.33
533.85	1368.91
534.21	1362.80
534.56	1358.35
534.92	1350.79
535.27	1345.83
535.63	1337.22
535.98	1326.36
536.34	1315.80
536.69	1308.13
537.05	1296.91
537.41	1291.51
537.76	1286.08
538.12	1279.80
538.47	1273.93
538.83	1271.29
539.18	1265.74
539.54	1257.69
539.89	1251.55
540.25	1248.47
540.60	1244.58
540.96	1240.65
541.31	1241.54
541.67	1237.84
542.02	1235.24
542.38	1233.11
542.73	1229.72
543.09	1221.78
543.44	1221.97
543.80	1218.83
544.15	1211.41
544.51	1211.27
544.86	1211.98
545.22	1206.24
545.57	1204.30
545.93	1204.93
546.28	1198.40
546.64	1195.99
546.99	1192.48
547.35	1184.01
547.70	1179.35
548.05	1178.65
548.41	1171.81
548.76	1167.79
549.12	1165.73
549.47	1163.57
549.83	1160.06
550.18	1161.47
550.53	1160.48
550.89	1159.41
551.24	1154.77
551.60	1153.42
551.95	1146.53
552.30	1145.18
552.66	1141.71
553.01	1140.45
553.37	1134.60
553.72	1135.35
554.07	1132.84
554.43	1137.03
554.78	1138.06
555.13	1139.14
555.49	1138.67
555.84	1138.37
556.19	1133.12
556.55	1128.21
556.90	1128.19
557.26	1127.44
557.61	1124.84
557.96	1125.33
558.32	1128.23
558.67	1125.66
559.02	1126.87
559.37	1126.66
559.73	1126.66
560.08	1124.86
560.43	1121.54
560.79	1119.24
561.14	1121.87
561.49	1117.68
561.85	1116.53
562.20	1117.68
562.55	1114.52
562.90	1110.33
563.26	1113.30
563.61	1112.57
563.96	1112.90
564.32	1112.83
564.67	1111.17
565.02	1106.09
565.37	1106.58
565.73	1104.38
566.08	1104.85
566.43	1105.76
566.78	1107.99
567.14	1105.62
567.49	1108.97
567.84	1108.24
568.19	1104.29
568.54	1103.31
568.90	1103.82
569.25	1099.86
569.60	1101.57
569.95	1102.63
570.31	1101.55
570.66	1100.31
571.01	1100.87
571.36	1097.90
571.71	1098.27
572.06	1100.52
572.42	1099.56
572.77	1101.06
573.12	1099.72
573.47	1102.42
573.82	1100.47
574.18	1099.84
574.53	1096.94
574.88	1096.28
575.23	1091.81
575.58	1094.97
575.93	1099.51
576.28	1100.80
576.64	1101.62
576.99	1102.53
577.34	1099.16
577.69	1093.73
578.04	1091.42
578.39	1089.59
578.74	1089.14
579.09	1088.61
579.44	1090.32
579.80	1088.00
580.15	1089.54
580.50	1088.84
580.85	1086.57
581.20	1090.95
581.55	1093.59
581.90	1092.87
582.25	1093.43
582.60	1095.42
582.95	1092.87
583.30	1092.35
583.65	1094.29
584.00	1094.60
584.35	1094.01
584.71	1091.79
585.06	1091.70
585.41	1091.34
585.76	1086.78
586.11	1085.82
586.46	1084.04
586.81	1082.69
587.16	1082.52
587.51	1087.72
587.86	1087.62
588.21	1087.02
588.56	1087.79
588.91	1087.48
589.26	1085.82
589.61	1087.95
589.96	1090.20
590.31	1088.91
590.66	1088.16
591.01	1087.90
591.36	1087.13
591.71	1089.12
592.06	1090.76
592.41	1091.72
592.76	1092.26
593.10	1090.39
593.45	1086.97
593.80	1087.34
594.15	1085.73
594.50	1086.52
594.85	1088.28
595.20	1089.00
595.55	1088.12
595.90	1086.55
596.25	1087.46
596.60	1089.14
596.95	1088.09
597.30	1089.03
597.64	1100.61
597.99	1099.79
598.34	1099.12
598.69	1099.96
599.04	1099.82
599.39	1090.17
599.74	1089.68
600.09	1087.67
600.44	1088.77
600.78	1084.77
601.13	1084.58
601.48	1084.30
601.83	1081.33
602.18	1081.19
602.53	1083.83
602.88	1083.90
603.22	1083.20
603.57	1088.02
603.92	1088.44
604.27	1085.61
604.62	1084.96
604.97	1085.47
605.31	1084.32
605.66	1080.60
606.01	1082.36
606.36	1081.80
606.71	1080.81
607.05	1080.04
607.40	1084.70
607.75	1087.25
608.10	1084.58
608.44	1089.14
608.79	1090.62
609.14	1086.01
609.49	1082.15
609.84	1086.10
610.18	1078.89
610.53	1076.08
610.88	1080.09
611.23	1085.66
611.57	1085.99
611.92	1088.33
612.27	1088.75
612.62	1086.94
612.96	1084.51
613.31	1083.04
613.66	1085.89
614.00	1087.62
614.35	1088.91
614.70	1092.02
615.05	1091.81
615.39	1089.80
615.74	1090.29
616.09	1089.78
616.43	1085.91
616.78	1085.56
617.13	1084.21
617.47	1085.42
617.82	1082.97
618.17	1084.30
618.51	1081.42
618.86	1083.53
619.21	1080.77
619.55	1083.60
619.90	1079.95
620.25	1084.30
620.59	1086.29
620.94	1083.74
621.29	1080.72
621.63	1083.64
621.98	1085.59
622.32	1083.60
622.67	1086.97
623.02	1088.12
623.36	1086.97
623.71	1085.70
624.05	1086.13
624.40	1083.08
624.75	1081.61
625.09	1081.91
625.44	1081.40
625.78	1082.36
626.13	1082.38
626.48	1084.58
626.82	1087.06
627.17	1085.12
627.51	1083.93
627.86	1084.11
628.20	1083.62
628.55	1081.37
628.89	1083.32
629.24	1084.74
629.58	1087.44
629.93	1088.51
630.28	1087.83
630.62	1088.00
630.97	1085.21
631.31	1083.34
631.66	1081.80
632.00	1082.01
632.35	1080.93
632.69	1084.21
633.04	1084.09
633.38	1084.09
633.73	1087.09
634.07	1091.27
634.42	1086.76
634.76	1087.76
635.11	1089.96
635.45	1087.93
635.79	1083.08
636.14	1085.26
636.48	1085.68
636.83	1085.89
637.17	1087.51
637.52	1089.29
637.86	1089.50
638.21	1093.26
638.55	1090.76
638.89	1088.33
639.24	1085.89
639.58	1084.39
639.93	1082.90
640.27	1082.97
640.61	1082.24
640.96	1083.55
641.30	1083.90
641.65	1080.44
641.99	1080.44
642.33	1080.23
642.68	1079.92
643.02	1077.61
643.37	1077.82
643.71	1076.15
644.05	1078.28
644.40	1076.76
644.74	1081.68
645.08	1085.26
645.43	1088.19
645.77	1087.60
646.11	1088.91
646.46	1086.20
646.80	1080.60
647.14	1077.89
647.49	1079.27
647.83	1079.41
648.17	1076.55
648.52	1080.34
648.86	1079.06
649.20	1074.59
649.55	1077.07
649.89	1081.30
650.23	1079.29
650.57	1081.80
650.92	1083.57
651.26	1081.66
651.60	1082.47
651.95	1082.47
652.29	1081.33
652.63	1080.63
652.97	1080.13
653.32	1077.75
653.66	1078.47
654.00	1081.00
654.34	1082.52
654.69	1084.14
655.03	1083.43
655.37	1081.61
655.71	1080.02
656.05	1076.25
656.40	1074.73
656.74	1074.05
657.08	1074.87
657.42	1073.95
657.76	1075.71
658.11	1074.26
658.45	1074.07
658.79	1074.54
659.13	1077.25
659.47	1081.56
659.82	1083.93
660.16	1085.38
660.50	1085.38
660.84	1083.86
661.18	1081.68
661.52	1079.31
661.87	1083.25
662.21	1082.59
662.55	1081.98
662.89	1084.02
663.23	1086.15
663.57	1082.01
663.91	1079.08
664.25	1080.18
664.60	1076.88
664.94	1076.62
665.28	1076.81
665.62	1079.41
665.96	1078.82
666.30	1080.93
666.64	1082.90
666.98	1084.23
667.32	1087.37
667.66	1087.72
668.01	1086.78
668.35	1082.99
668.69	1084.81
669.03	1084.16
669.37	1084.70
669.71	1086.55
670.05	1085.91
670.39	1083.15
670.73	1080.70
671.07	1079.97
671.41	1078.07
671.75	1078.87
672.09	1074.94
672.43	1076.11
672.77	1074.40
673.11	1074.87
673.45	1077.54
673.79	1080.81
674.13	1080.18
674.47	1083.15
674.81	1083.97
675.15	1084.16
675.49	1084.21
675.83	1082.66
676.17	1083.41
676.51	1082.71
676.85	1080.30
677.19	1079.90
677.53	1079.74
677.87	1078.92
678.21	1077.30
678.55	1076.93
678.89	1075.87
679.23	1078.99
679.57	1077.63
679.90	1077.25
680.24	1077.63
680.58	1078.28
680.92	1078.31
681.26	1078.68
681.60	1079.64
681.94	1076.88
682.28	1079.10
682.62	1079.74
682.96	1079.03
683.29	1081.00
683.63	1087.20
683.97	1085.05
684.31	1078.50
684.65	1077.77
684.99	1071.87
685.33	1070.91
685.67	1074.33
686.00	1079.67
686.34	1078.80
686.68	1081.58
687.02	1079.67
687.36	1076.46
687.70	1076.20
688.03	1080.11
688.37	1079.20
688.71	1076.72
689.05	1080.77
689.39	1080.41
689.72	1076.95
690.06	1081.75
690.40	1080.84
690.74	1078.57
691.08	1080.88
691.41	1082.90
691.75	1079.10
692.09	1085.54
692.43	1085.19
692.76	1084.28
693.10	1081.37
693.44	1081.61
693.78	1075.57
694.11	1075.17
694.45	1074.31
694.79	1075.41
695.13	1077.18
695.46	1080.93
695.80	1083.69
696.14	1084.84
696.48	1085.33
696.81	1083.29
697.15	1085.12
697.49	1083.48
697.82	1083.43
698.16	1082.85
698.50	1085.07
698.83	1079.43
699.17	1078.85
699.51	1078.82
699.84	1083.50
700.18	1083.18
700.52	1087.72
700.85	1089.26
701.19	1087.76
701.53	1087.41
701.86	1085.80
702.20	1082.92
702.54	1079.29
702.87	1080.02
703.21	1076.72
703.55	1078.21
703.88	1078.26
704.22	1080.81
704.55	1079.81
704.89	1083.81
705.23	1083.20
705.56	1087.09
705.90	1084.93
706.23	1081.70
706.57	1078.28
706.91	1079.43
707.24	1076.86
707.58	1076.15
707.91	1079.67
708.25	1080.81
708.58	1078.99
708.92	1079.27
709.26	1081.28
709.59	1082.92
709.93	1083.04
710.26	1084.81
710.60	1082.92
710.93	1082.78
711.27	1080.37
711.60	1079.97
711.94	1078.73
712.27	1077.84
712.61	1075.50
712.94	1078.40
713.28	1077.86
713.61	1078.50
713.95	1080.04
714.28	1080.25
714.62	1077.21
714.95	1076.30
715.29	1074.94
715.62	1076.86
715.96	1079.88
716.29	1078.31
716.63	1079.38
716.96	1078.85
717.29	1076.95
717.63	1078.31
717.96	1080.46
718.30	1080.65
718.63	1080.06
718.97	1079.27
719.30	1076.34
719.63	1075.55
719.97	1073.86
720.30	1077.02
720.64	1078.80
720.97	1079.90
721.30	1079.88
721.64	1081.87
721.97	1079.10
722.31	1077.93
722.64	1076.76
722.97	1077.98
723.31	1078.54
723.64	1076.48
723.97	1075.80
724.31	1075.78
724.64	1074.05
724.98	1074.45
725.31	1078.68
725.64	1078.82
725.98	1080.06
726.31	1082.05
726.64	1078.92
726.97	1076.97
727.31	1077.61
727.64	1077.09
727.97	1078.14
728.31	1078.31
728.64	1079.15
728.97	1082.15
729.31	1084.21
729.64	1082.57
729.97	1081.37
730.30	1080.60
730.64	1079.31
730.97	1078.33
731.30	1078.12
731.63	1078.66
731.97	1082.59
732.30	1080.18
732.63	1078.99
732.96	1079.78
733.30	1080.58
733.63	1077.00
733.96	1079.74
734.29	1076.83
734.63	1075.59
734.96	1076.53
735.29	1075.94
735.62	1074.98
735.95	1079.92
736.29	1081.63
736.62	1080.11
736.95	1078.17
737.28	1077.44
737.61	1077.47
737.94	1075.99
738.28	1075.01
738.61	1079.17
738.94	1076.27
739.27	1076.37
739.60	1077.23
739.93	1079.90
740.27	1079.83
740.60	1082.97
740.93	1077.33
741.26	1078.17
741.59	1077.40
741.92	1074.35
742.25	1076.88
742.58	1080.84
742.91	1078.96
743.25	1078.89
743.58	1080.56
743.91	1074.94
744.24	1077.44
744.57	1078.73
744.90	1080.46
745.23	1079.78
745.56	1085.61
745.89	1079.95
746.22	1080.44
746.55	1078.19
746.88	1077.96
747.21	1076.72
747.54	1079.38
747.87	1078.21
748.20	1078.73
748.53	1078.82
748.87	1078.24
749.20	1078.78
749.53	1080.39
749.86	1079.69
750.19	1079.57
750.52	1075.73
750.85	1074.42
751.18	1073.51
751.51	1074.54
751.84	1077.30
752.16	1081.09
752.49	1082.19
752.82	1078.54
753.15	1082.12
753.48	1080.77
753.81	1081.33
754.14	1082.31
754.47	1086.36
754.80	1083.88
755.13	1080.16
755.46	1079.29
755.79	1079.46
756.12	1081.44
756.45	1079.88
756.78	1085.40
757.11	1085.96
757.43	1084.53
757.76	1082.26
758.09	1084.02
758.42	1081.75
758.75	1082.50
759.08	1081.66
759.41	1079.99
759.74	1078.24
760.07	1078.19
760.39	1076.83
760.72	1077.44
761.05	1077.79
761.38	1076.25
761.71	1075.22
762.04	1076.74
762.36	1076.65
762.69	1076.58
763.02	1078.38
763.35	1076.74
763.68	1077.72
