SpectraSuite Data File
++++++++++++++++++++++++++++++++++++
Date: Mon Aug 26 10:22:04 PDT 2019
User: corrico
Dark Spectrum Present: No
Reference Spectrum Present: No
Number of Sampled Component Spectra: 1
Spectrometers: USB2+H06089
Integration Time (usec): 2000 (USB2+H06089)
Spectra Averaged: 20 (USB2+H06089)
Boxcar Smoothing: 2 (USB2+H06089)
Correct for Electrical Dark: No (USB2+H06089)
Strobe/Lamp Enabled: No (USB2+H06089)
Correct for Detector Non-linearity: No (USB2+H06089)
Correct for Stray Light: No (USB2+H06089)
Number of Pixels in Processed Spectrum: 2048
>>>>>Begin Processed Spectral Data<<<<<
339.70	1014.39
340.07	1014.39
340.45	990.05
340.82	969.78
341.19	949.88
341.57	928.02
341.94	911.05
342.31	904.99
342.69	903.35
343.06	902.74
343.43	901.06
343.81	906.61
344.18	906.75
344.55	909.27
344.93	911.62
345.30	918.68
345.67	925.05
346.04	933.29
346.42	943.07
346.79	950.80
347.16	955.80
347.54	965.85
347.91	972.35
348.28	981.69
348.65	991.99
349.03	1002.22
349.40	1008.47
349.77	1016.66
350.14	1024.50
350.52	1033.86
350.89	1046.87
351.26	1052.61
351.63	1060.66
352.01	1062.32
352.38	1063.87
352.75	1062.37
353.12	1068.76
353.50	1070.87
353.87	1076.53
354.24	1079.46
354.61	1082.01
354.98	1082.85
355.36	1086.06
355.73	1082.47
356.10	1084.44
356.47	1087.76
356.84	1087.97
357.22	1088.12
357.59	1091.91
357.96	1092.70
358.33	1089.12
358.70	1088.16
359.08	1085.87
359.45	1085.35
359.82	1084.11
360.19	1088.65
360.56	1085.49
360.94	1084.04
361.31	1083.08
361.68	1081.49
362.05	1078.71
362.42	1081.28
362.79	1081.68
363.16	1082.03
363.54	1081.16
363.91	1080.63
364.28	1078.94
364.65	1078.78
365.02	1077.11
365.39	1077.30
365.76	1075.73
366.14	1075.97
366.51	1075.20
366.88	1074.42
367.25	1074.89
367.62	1073.74
367.99	1077.49
368.36	1079.67
368.73	1081.54
369.10	1082.36
369.48	1081.07
369.85	1074.91
370.22	1076.83
370.59	1075.50
370.96	1071.73
371.33	1075.03
371.70	1077.28
372.07	1075.83
372.44	1075.22
372.81	1076.88
373.18	1075.73
373.55	1078.78
373.93	1076.48
374.30	1077.49
374.67	1076.60
375.04	1077.25
375.41	1079.41
375.78	1081.58
376.15	1082.76
376.52	1088.42
376.89	1090.03
377.26	1086.03
377.63	1082.36
378.00	1083.08
378.37	1083.39
378.74	1081.14
379.11	1081.75
379.48	1086.22
379.85	1087.25
380.22	1084.79
380.59	1087.25
380.96	1087.83
381.33	1085.66
381.70	1084.16
382.07	1081.89
382.44	1081.37
382.81	1082.87
383.18	1084.93
383.55	1083.57
383.92	1084.96
384.29	1084.21
384.66	1083.90
385.03	1081.94
385.40	1085.54
385.77	1088.07
386.14	1086.76
386.51	1084.81
386.88	1085.89
387.25	1082.87
387.62	1080.74
387.99	1081.96
388.36	1082.71
388.73	1080.91
389.10	1084.32
389.46	1084.77
389.83	1086.45
390.20	1090.10
390.57	1094.60
390.94	1091.23
391.31	1090.43
391.68	1088.63
392.05	1086.64
392.42	1083.90
392.79	1086.69
393.16	1085.84
393.53	1088.47
393.89	1088.86
394.26	1088.42
394.63	1085.61
395.00	1085.35
395.37	1085.84
395.74	1086.43
396.11	1086.92
396.48	1089.03
396.84	1088.16
397.21	1087.34
397.58	1085.45
397.95	1084.25
398.32	1081.82
398.69	1086.27
399.06	1087.18
399.42	1087.90
399.79	1090.46
400.16	1095.35
400.53	1095.35
400.90	1097.52
401.27	1096.31
401.64	1098.02
402.00	1095.58
402.37	1095.00
402.74	1088.77
403.11	1091.18
403.48	1090.81
403.84	1092.87
404.21	1093.03
404.58	1100.33
404.95	1097.31
405.32	1099.93
405.68	1096.54
406.05	1093.10
406.42	1089.85
406.79	1091.77
407.16	1090.69
407.52	1093.69
407.89	1098.37
408.26	1098.93
408.63	1100.71
408.99	1098.41
409.36	1096.52
409.73	1095.51
410.10	1096.12
410.47	1094.48
410.83	1095.72
411.20	1100.24
411.57	1102.16
411.94	1100.15
412.30	1102.06
412.67	1101.03
413.04	1100.61
413.40	1101.74
413.77	1103.56
414.14	1102.67
414.51	1107.17
414.87	1108.01
415.24	1107.99
415.61	1111.15
415.97	1112.29
416.34	1110.09
416.71	1109.58
417.08	1107.87
417.44	1103.68
417.81	1106.44
418.18	1104.85
418.54	1100.33
418.91	1102.44
419.28	1108.90
419.64	1107.96
420.01	1113.88
420.38	1123.25
420.74	1126.83
421.11	1126.06
421.48	1127.79
421.84	1129.43
422.21	1128.07
422.58	1129.12
422.94	1130.39
423.31	1131.98
423.68	1132.07
424.04	1135.82
424.41	1140.19
424.77	1147.59
425.14	1154.33
425.51	1162.64
425.87	1168.58
426.24	1171.93
426.61	1176.99
426.97	1183.66
427.34	1188.50
427.70	1196.65
428.07	1209.10
428.44	1217.22
428.80	1229.55
429.17	1241.16
429.53	1251.25
429.90	1260.17
430.27	1274.12
430.63	1284.77
431.00	1297.05
431.36	1312.46
431.73	1324.95
432.09	1335.65
432.46	1353.09
432.83	1369.92
433.19	1391.87
433.56	1417.45
433.92	1448.44
434.29	1471.59
434.65	1501.83
435.02	1527.95
435.38	1559.36
435.75	1591.66
436.11	1631.19
436.48	1671.07
436.84	1713.01
437.21	1757.81
437.57	1807.64
437.94	1856.58
438.30	1912.29
438.67	1971.06
439.03	2036.17
439.40	2102.67
439.76	2171.31
440.13	2249.04
440.49	2329.75
440.86	2411.90
441.22	2498.55
441.59	2591.70
441.95	2689.21
442.32	2799.14
442.68	2912.05
443.05	3035.37
443.41	3168.55
443.78	3296.32
444.14	3432.23
444.51	3575.43
444.87	3747.78
445.24	3912.86
445.60	4101.79
445.96	4291.72
446.33	4507.10
446.69	4697.36
447.06	4924.60
447.42	5148.71
447.79	5395.08
448.15	5671.63
448.51	5960.27
448.88	6280.45
449.24	6596.80
449.61	6947.86
449.97	7299.10
450.33	7692.40
450.70	8066.21
451.06	8508.10
451.43	8929.59
451.79	9396.01
452.15	9885.51
452.52	10422.94
452.88	10972.85
453.24	11603.98
453.61	12299.96
453.97	13012.82
454.34	13714.67
454.70	14548.44
455.06	15356.35
455.43	16133.94
455.79	16845.23
456.15	17675.40
456.52	18426.36
456.88	19357.52
457.24	20287.88
457.61	21397.74
457.97	22454.63
458.33	23550.35
458.70	24598.80
459.06	25558.72
459.42	26595.62
459.79	27525.45
460.15	28597.13
460.51	29604.41
460.88	30733.46
461.24	31725.91
461.60	32898.24
461.96	33944.84
462.33	35006.46
462.69	36074.98
463.05	37222.99
463.42	38254.14
463.78	39230.51
464.14	39996.53
464.50	40731.50
464.87	41202.02
465.23	41528.59
465.59	41901.23
465.95	42235.74
466.32	42498.98
466.68	42841.94
467.04	43063.73
467.40	43142.18
467.77	43249.71
468.13	43158.94
468.49	42960.11
468.85	42838.29
469.22	42701.34
469.58	42430.54
469.94	42282.53
470.30	42072.18
470.66	41693.74
471.03	41157.71
471.39	40771.57
471.75	40025.85
472.11	39241.19
472.47	38682.50
472.84	38123.30
473.20	37402.95
473.56	37038.77
473.92	36530.52
474.28	35972.11
474.65	35362.24
475.01	34686.32
475.37	33840.12
475.73	33145.94
476.09	32399.17
476.45	31726.24
476.81	31176.85
477.18	30629.63
477.54	30144.49
477.90	29699.06
478.26	29122.77
478.62	28602.00
478.98	28142.39
479.34	27697.17
479.71	27138.00
480.07	26703.69
480.43	26251.17
480.79	25780.09
481.15	25288.72
481.51	24876.34
481.87	24515.01
482.23	24112.69
482.59	23760.65
482.96	23409.22
483.32	23101.39
483.68	22717.38
484.04	22390.92
484.40	21987.32
484.76	21588.89
485.12	21151.73
485.48	20730.48
485.84	20237.40
486.20	19804.82
486.56	19355.50
486.92	18955.32
487.28	18531.85
487.64	18110.22
488.00	17708.42
488.37	17293.87
488.73	16820.19
489.09	16341.69
489.45	15900.66
489.81	15437.21
490.17	14999.96
490.53	14616.04
490.89	14223.58
491.25	13821.92
491.61	13416.37
491.97	13023.28
492.33	12613.33
492.69	12269.25
493.05	11954.92
493.41	11640.61
493.77	11319.70
494.13	11023.27
494.49	10716.21
494.85	10415.57
495.21	10136.30
495.57	9869.31
495.93	9593.48
496.29	9329.94
496.64	9081.86
497.00	8820.15
497.36	8561.96
497.72	8311.10
498.08	8084.12
498.44	7854.02
498.80	7644.54
499.16	7444.54
499.52	7254.89
499.88	7072.84
500.24	6905.75
500.60	6743.18
500.96	6591.63
501.32	6436.10
501.68	6266.48
502.03	6082.23
502.39	5921.20
502.75	5742.95
503.11	5595.94
503.47	5451.20
503.83	5325.02
504.19	5193.48
504.55	5086.22
504.91	4959.57
505.26	4846.15
505.62	4727.37
505.98	4605.92
506.34	4480.86
506.70	4367.18
507.06	4254.74
507.42	4148.15
507.78	4051.65
508.13	3961.17
508.49	3876.02
508.85	3794.45
509.21	3715.55
509.57	3628.86
509.93	3540.58
510.28	3450.42
510.64	3365.34
511.00	3279.25
511.36	3205.95
511.72	3138.05
512.07	3075.35
512.43	3013.91
512.79	2954.67
513.15	2895.50
513.51	2829.87
513.86	2769.39
514.22	2716.07
514.58	2666.69
514.94	2619.67
515.30	2579.83
515.65	2533.28
516.01	2494.26
516.37	2451.08
516.73	2406.30
517.08	2365.32
517.44	2328.11
517.80	2280.71
518.16	2243.75
518.51	2210.66
518.87	2175.48
519.23	2138.59
519.59	2108.42
519.94	2078.72
520.30	2048.18
520.66	2017.82
521.01	1988.47
521.37	1961.74
521.73	1932.35
522.09	1910.46
522.44	1889.07
522.80	1869.39
523.16	1849.14
523.51	1826.18
523.87	1799.38
524.23	1778.67
524.58	1759.22
524.94	1737.89
525.30	1714.61
525.65	1694.36
526.01	1674.26
526.37	1654.17
526.72	1632.06
527.08	1614.48
527.44	1600.13
527.79	1583.96
528.15	1565.87
528.51	1554.47
528.86	1543.77
529.22	1526.73
529.58	1513.93
529.93	1503.93
530.29	1488.42
530.65	1472.10
531.00	1461.95
531.36	1447.22
531.71	1433.48
532.07	1423.79
532.43	1415.30
532.78	1409.07
533.14	1398.07
533.49	1389.04
533.85	1379.32
534.21	1371.88
534.56	1360.23
534.92	1357.28
535.27	1348.87
535.63	1343.07
535.98	1336.45
536.34	1329.87
536.69	1319.31
537.05	1313.11
537.41	1304.52
537.76	1294.11
538.12	1286.26
538.47	1279.52
538.83	1276.39
539.18	1269.44
539.54	1264.10
539.89	1257.87
540.25	1254.76
540.60	1250.55
540.96	1249.28
541.31	1246.15
541.67	1242.52
542.02	1240.37
542.38	1236.58
542.73	1229.46
543.09	1227.12
543.44	1225.01
543.80	1216.49
544.15	1209.75
544.51	1206.80
544.86	1203.18
545.22	1199.24
545.57	1199.20
545.93	1198.26
546.28	1192.48
546.64	1194.70
546.99	1190.30
547.35	1187.68
547.70	1184.29
548.05	1186.25
548.41	1180.99
548.76	1178.58
549.12	1174.64
549.47	1171.02
549.83	1168.98
550.18	1166.78
550.53	1167.81
550.89	1170.17
551.24	1167.53
551.60	1163.46
551.95	1157.84
552.30	1155.41
552.66	1149.65
553.01	1147.66
553.37	1147.14
553.72	1152.22
554.07	1148.50
554.43	1146.07
554.78	1142.60
555.13	1143.07
555.49	1136.77
555.84	1137.80
556.19	1135.63
556.55	1140.66
556.90	1138.11
557.26	1134.29
557.61	1133.17
557.96	1131.93
558.32	1127.48
558.67	1126.22
559.02	1125.33
559.37	1118.82
559.73	1119.50
560.08	1120.95
560.43	1120.44
560.79	1119.78
561.14	1122.03
561.49	1121.68
561.85	1118.87
562.20	1115.99
562.55	1116.11
562.90	1114.49
563.26	1114.02
563.61	1114.68
563.96	1113.98
564.32	1116.76
564.67	1118.03
565.02	1116.67
565.37	1117.77
565.73	1118.61
566.08	1116.22
566.43	1115.15
566.78	1115.64
567.14	1112.67
567.49	1110.19
567.84	1109.81
568.19	1108.45
568.54	1106.82
568.90	1107.71
569.25	1108.55
569.60	1109.51
569.95	1108.78
570.31	1108.45
570.66	1106.61
571.01	1106.35
571.36	1099.98
571.71	1100.96
572.06	1099.86
572.42	1096.49
572.77	1095.98
573.12	1097.22
573.47	1095.65
573.82	1094.95
574.18	1097.69
574.53	1095.82
574.88	1099.28
575.23	1099.58
575.58	1097.59
575.93	1093.15
576.28	1094.69
576.64	1093.97
576.99	1092.70
577.34	1092.98
577.69	1097.95
578.04	1097.50
578.39	1096.68
578.74	1095.07
579.09	1096.66
579.44	1095.91
579.80	1097.43
580.15	1097.08
580.50	1098.65
580.85	1097.99
581.20	1097.13
581.55	1097.13
581.90	1098.58
582.25	1098.67
582.60	1098.41
582.95	1094.39
583.30	1093.45
583.65	1091.67
584.00	1091.23
584.35	1091.34
584.71	1094.95
585.06	1095.72
585.41	1094.18
585.76	1093.66
586.11	1094.22
586.46	1094.20
586.81	1089.45
587.16	1092.73
587.51	1093.94
587.86	1092.84
588.21	1092.75
588.56	1092.98
588.91	1092.98
589.26	1090.41
589.61	1092.37
589.96	1091.77
590.31	1096.19
590.66	1093.01
591.01	1095.39
591.36	1091.51
591.71	1094.18
592.06	1091.51
592.41	1091.86
592.76	1089.54
593.10	1092.37
593.45	1088.96
593.80	1090.34
594.15	1089.92
594.50	1091.72
594.85	1089.94
595.20	1090.55
595.55	1091.39
595.90	1088.84
596.25	1088.28
596.60	1087.09
596.95	1086.73
597.30	1086.27
597.64	1100.43
597.99	1101.43
598.34	1102.09
598.69	1104.12
599.04	1102.42
599.39	1090.69
599.74	1089.61
600.09	1092.19
600.44	1090.13
600.78	1089.80
601.13	1087.23
601.48	1089.33
601.83	1087.02
602.18	1087.88
602.53	1086.83
602.88	1089.68
603.22	1087.81
603.57	1085.87
603.92	1084.30
604.27	1086.90
604.62	1087.53
604.97	1085.99
605.31	1089.50
605.66	1092.42
606.01	1089.92
606.36	1089.78
606.71	1091.63
607.05	1091.65
607.40	1088.70
607.75	1088.70
608.10	1089.59
608.44	1089.92
608.79	1088.77
609.14	1091.18
609.49	1095.44
609.84	1094.55
610.18	1091.23
610.53	1090.24
610.88	1090.29
611.23	1086.31
611.57	1083.34
611.92	1084.65
612.27	1086.34
612.62	1087.48
612.96	1089.03
613.31	1090.24
613.66	1092.94
614.00	1094.34
614.35	1090.36
614.70	1088.65
615.05	1089.26
615.39	1089.94
615.74	1084.07
616.09	1085.21
616.43	1086.36
616.78	1088.63
617.13	1086.64
617.47	1089.59
617.82	1089.07
618.17	1087.02
618.51	1084.37
618.86	1080.53
619.21	1083.53
619.55	1083.34
619.90	1085.59
620.25	1085.21
620.59	1088.89
620.94	1086.57
621.29	1085.77
621.63	1084.63
621.98	1082.73
622.32	1084.58
622.67	1086.38
623.02	1085.68
623.36	1085.10
623.71	1088.77
624.05	1084.79
624.40	1083.06
624.75	1085.68
625.09	1084.58
625.44	1084.93
625.78	1087.46
626.13	1086.73
626.48	1084.60
626.82	1086.76
627.17	1082.54
627.51	1083.18
627.86	1085.99
628.20	1087.06
628.55	1088.72
628.89	1091.18
629.24	1088.89
629.58	1087.65
629.93	1087.74
630.28	1087.11
630.62	1087.90
630.97	1089.59
631.31	1090.36
631.66	1090.24
632.00	1089.82
632.35	1089.31
632.69	1089.40
633.04	1089.75
633.38	1090.01
633.73	1088.61
634.07	1088.37
634.42	1089.43
634.76	1087.83
635.11	1088.42
635.45	1090.43
635.79	1088.61
636.14	1086.57
636.48	1085.75
636.83	1082.64
637.17	1079.60
637.52	1081.12
637.86	1080.51
638.21	1079.95
638.55	1081.09
638.89	1081.02
639.24	1078.52
639.58	1079.60
639.93	1079.85
640.27	1081.12
640.61	1083.79
640.96	1085.99
641.30	1085.94
641.65	1087.20
641.99	1088.56
642.33	1086.20
642.68	1087.18
643.02	1084.56
643.37	1085.84
643.71	1084.63
644.05	1089.26
644.40	1087.83
644.74	1088.04
645.08	1085.21
645.43	1086.59
645.77	1085.47
646.11	1085.45
646.46	1085.10
646.80	1087.09
647.14	1086.27
647.49	1085.87
647.83	1085.99
648.17	1085.17
648.52	1079.99
648.86	1080.25
649.20	1078.61
649.55	1077.47
649.89	1080.27
650.23	1084.37
650.57	1083.55
650.92	1081.82
651.26	1083.50
651.60	1082.22
651.95	1081.40
652.29	1080.37
652.63	1083.67
652.97	1083.97
653.32	1084.67
653.66	1086.50
654.00	1084.39
654.34	1079.90
654.69	1082.15
655.03	1081.23
655.37	1083.11
655.71	1085.70
656.05	1088.61
656.40	1086.57
656.74	1089.24
657.08	1084.81
657.42	1084.16
657.76	1083.36
658.11	1080.53
658.45	1079.06
658.79	1081.51
659.13	1082.05
659.47	1082.01
659.82	1082.45
660.16	1080.88
660.50	1078.68
660.84	1078.59
661.18	1077.79
661.52	1078.59
661.87	1079.53
662.21	1079.50
662.55	1080.02
662.89	1081.16
663.23	1082.33
663.57	1080.95
663.91	1082.59
664.25	1082.15
664.60	1083.20
664.94	1082.43
665.28	1085.38
665.62	1086.10
665.96	1087.86
666.30	1085.33
666.64	1083.20
666.98	1082.45
667.32	1080.32
667.66	1077.51
668.01	1081.87
668.35	1084.11
668.69	1083.93
669.03	1086.41
669.37	1087.16
669.71	1084.07
670.05	1083.97
670.39	1083.71
670.73	1081.42
671.07	1081.02
671.41	1081.49
671.75	1079.53
672.09	1078.59
672.43	1080.91
672.77	1083.88
673.11	1081.94
673.45	1085.96
673.79	1085.80
674.13	1082.57
674.47	1080.70
674.81	1082.33
675.15	1079.81
675.49	1082.52
675.83	1082.54
676.17	1084.00
676.51	1084.42
676.85	1087.09
677.19	1086.45
677.53	1086.31
677.87	1083.57
678.21	1082.52
678.55	1079.24
678.89	1081.23
679.23	1082.10
679.57	1083.01
679.90	1083.01
680.24	1085.19
680.58	1085.35
680.92	1089.17
681.26	1090.53
681.60	1092.94
681.94	1095.56
682.28	1092.42
682.62	1090.43
682.96	1089.10
683.29	1086.64
683.63	1082.36
683.97	1083.43
684.31	1082.99
684.65	1083.76
684.99	1085.21
685.33	1085.52
685.67	1085.05
686.00	1085.12
686.34	1081.75
686.68	1079.67
687.02	1080.44
687.36	1079.76
687.70	1078.24
688.03	1081.75
688.37	1083.79
688.71	1084.60
689.05	1081.96
689.39	1082.08
689.72	1081.16
690.06	1081.16
690.40	1084.35
690.74	1085.03
691.08	1085.91
691.41	1086.66
691.75	1087.58
692.09	1082.99
692.43	1084.51
692.76	1088.40
693.10	1089.47
693.44	1087.62
693.78	1088.14
694.11	1085.99
694.45	1081.42
694.79	1080.81
695.13	1077.44
695.46	1078.68
695.80	1080.67
696.14	1080.06
696.48	1076.37
696.81	1079.34
697.15	1077.25
697.49	1076.93
697.82	1076.18
698.16	1075.10
698.50	1074.82
698.83	1073.81
699.17	1073.63
699.51	1074.54
699.84	1080.04
700.18	1079.15
700.52	1080.16
700.85	1082.31
701.19	1083.97
701.53	1082.08
701.86	1085.96
702.20	1083.13
702.54	1079.36
702.87	1080.06
703.21	1079.06
703.55	1077.07
703.88	1078.92
704.22	1079.76
704.55	1079.55
704.89	1079.92
705.23	1079.43
705.56	1081.26
705.90	1083.15
706.23	1082.87
706.57	1084.49
706.91	1086.22
707.24	1087.16
707.58	1085.12
707.91	1080.74
708.25	1076.65
708.58	1078.07
708.92	1075.22
709.26	1075.76
709.59	1077.49
709.93	1077.18
710.26	1074.49
710.60	1075.90
710.93	1075.85
711.27	1077.98
711.60	1081.98
711.94	1083.41
712.27	1082.92
712.61	1084.77
712.94	1083.79
713.28	1082.38
713.61	1081.56
713.95	1082.69
714.28	1083.90
714.62	1083.83
714.95	1085.54
715.29	1084.16
715.62	1083.43
715.96	1083.15
716.29	1083.04
716.63	1081.44
716.96	1080.74
717.29	1079.36
717.63	1078.47
717.96	1078.00
718.30	1076.69
718.63	1075.99
718.97	1076.39
719.30	1076.44
719.63	1078.85
719.97	1080.91
720.30	1084.23
720.64	1084.91
720.97	1088.28
721.30	1089.47
721.64	1087.13
721.97	1084.42
722.31	1084.23
722.64	1081.40
722.97	1082.38
723.31	1083.64
723.64	1082.64
723.97	1083.27
724.31	1080.98
724.64	1077.33
724.98	1080.32
725.31	1085.40
725.64	1087.58
725.98	1086.78
726.31	1088.91
726.64	1086.38
726.97	1082.33
727.31	1081.47
727.64	1082.19
727.97	1080.06
728.31	1079.29
728.64	1078.85
728.97	1079.78
729.31	1080.32
729.64	1080.13
729.97	1082.94
730.30	1085.03
730.64	1082.66
730.97	1084.81
731.30	1086.03
731.63	1081.37
731.97	1078.92
732.30	1077.18
732.63	1072.11
732.96	1070.87
733.30	1073.23
733.63	1074.98
733.96	1077.37
734.29	1081.70
734.63	1079.06
734.96	1080.02
735.29	1079.29
735.62	1078.40
735.95	1078.71
736.29	1083.81
736.62	1084.30
736.95	1085.56
737.28	1084.77
737.61	1084.86
737.94	1084.58
738.28	1083.06
738.61	1084.98
738.94	1087.55
739.27	1087.83
739.60	1085.80
739.93	1089.22
740.27	1089.26
740.60	1091.32
740.93	1090.85
741.26	1091.56
741.59	1086.31
741.92	1084.25
742.25	1081.28
742.58	1081.00
742.91	1077.49
743.25	1081.40
743.58	1077.89
743.91	1078.19
744.24	1077.77
744.57	1076.72
744.90	1077.02
745.23	1080.88
745.56	1081.02
745.89	1078.52
746.22	1082.43
746.55	1082.19
746.88	1077.63
747.21	1077.42
747.54	1079.85
747.87	1079.88
748.20	1076.53
748.53	1083.15
748.87	1082.24
749.20	1083.50
749.53	1081.68
749.86	1082.19
750.19	1081.33
750.52	1082.36
750.85	1079.48
751.18	1080.84
751.51	1080.81
751.84	1076.27
752.16	1074.59
752.49	1074.31
752.82	1074.59
753.15	1077.72
753.48	1080.41
753.81	1080.02
754.14	1081.66
754.47	1083.60
754.80	1082.69
755.13	1081.49
755.46	1084.58
755.79	1086.83
756.12	1085.73
756.45	1087.37
756.78	1089.10
757.11	1088.44
757.43	1086.57
757.76	1084.51
758.09	1081.05
758.42	1080.88
758.75	1081.37
759.08	1082.83
759.41	1081.47
759.74	1081.42
760.07	1079.57
760.39	1080.51
760.72	1077.09
761.05	1081.23
761.38	1085.91
761.71	1088.14
762.04	1087.41
762.36	1089.85
762.69	1090.08
763.02	1086.50
763.35	1086.03
763.68	1082.31
