SpectraSuite Data File
++++++++++++++++++++++++++++++++++++
Date: Mon Aug 26 10:22:33 PDT 2019
User: corrico
Dark Spectrum Present: No
Reference Spectrum Present: No
Number of Sampled Component Spectra: 1
Spectrometers: USB2+H06089
Integration Time (usec): 2000 (USB2+H06089)
Spectra Averaged: 20 (USB2+H06089)
Boxcar Smoothing: 2 (USB2+H06089)
Correct for Electrical Dark: No (USB2+H06089)
Strobe/Lamp Enabled: No (USB2+H06089)
Correct for Detector Non-linearity: No (USB2+H06089)
Correct for Stray Light: No (USB2+H06089)
Number of Pixels in Processed Spectrum: 2048
>>>>>Begin Processed Spectral Data<<<<<
339.70	1030.54
340.07	1030.54
340.45	997.33
340.82	975.63
341.19	953.93
341.57	928.14
341.94	915.06
342.31	908.71
342.69	902.79
343.06	898.13
343.43	900.71
343.81	900.57
344.18	902.37
344.55	907.96
344.93	913.39
345.30	914.70
345.67	924.65
346.04	931.51
346.42	937.48
346.79	944.27
347.16	956.44
347.54	963.11
347.91	973.41
348.28	982.35
348.65	991.66
349.03	999.62
349.40	1006.76
349.77	1016.96
350.14	1024.69
350.52	1033.63
350.89	1038.54
351.26	1045.12
351.63	1048.93
352.01	1056.14
352.38	1058.04
352.75	1062.88
353.12	1067.52
353.50	1071.82
353.87	1075.99
354.24	1081.40
354.61	1084.46
354.98	1085.26
355.36	1086.83
355.73	1084.42
356.10	1083.81
356.47	1084.98
356.84	1085.63
357.22	1084.63
357.59	1082.94
357.96	1082.66
358.33	1082.08
358.70	1083.34
359.08	1078.85
359.45	1079.88
359.82	1080.44
360.19	1078.14
360.56	1079.41
360.94	1081.23
361.31	1083.29
361.68	1082.78
362.05	1083.53
362.42	1082.83
362.79	1084.23
363.16	1080.18
363.54	1077.63
363.91	1076.93
364.28	1075.50
364.65	1074.82
365.02	1078.85
365.39	1078.71
365.76	1077.44
366.14	1075.85
366.51	1075.57
366.88	1072.50
367.25	1071.22
367.62	1069.93
367.99	1067.45
368.36	1068.62
368.73	1069.27
369.10	1073.46
369.48	1074.00
369.85	1075.78
370.22	1071.43
370.59	1071.10
370.96	1070.28
371.33	1069.74
371.70	1071.43
372.07	1075.36
372.44	1076.18
372.81	1075.99
373.18	1079.99
373.55	1080.18
373.93	1079.90
374.30	1079.74
374.67	1076.79
375.04	1073.18
375.41	1070.58
375.78	1070.44
376.15	1069.51
376.52	1072.92
376.89	1071.94
377.26	1072.62
377.63	1072.01
378.00	1074.66
378.37	1073.09
378.74	1075.62
379.11	1075.66
379.48	1072.48
379.85	1074.33
380.22	1076.30
380.59	1079.99
380.96	1082.83
381.33	1086.38
381.70	1083.32
382.07	1082.12
382.44	1077.42
382.81	1075.36
383.18	1072.32
383.55	1072.36
383.92	1070.07
384.29	1071.90
384.66	1074.54
385.03	1076.25
385.40	1081.73
385.77	1084.74
386.14	1084.86
386.51	1084.18
386.88	1084.84
387.25	1076.53
387.62	1076.18
387.99	1073.53
388.36	1073.46
388.73	1073.88
389.10	1079.83
389.46	1083.34
389.83	1084.91
390.20	1083.79
390.57	1082.10
390.94	1076.41
391.31	1073.74
391.68	1077.44
392.05	1078.80
392.42	1082.08
392.79	1090.34
393.16	1088.93
393.53	1087.30
393.89	1086.94
394.26	1086.17
394.63	1083.53
395.00	1088.35
395.37	1090.46
395.74	1092.12
396.11	1094.95
396.48	1092.00
396.84	1087.58
397.21	1084.23
397.58	1084.60
397.95	1082.05
398.32	1081.35
398.69	1084.07
399.06	1086.78
399.42	1087.83
399.79	1093.08
400.16	1094.32
400.53	1095.42
400.90	1093.78
401.27	1092.91
401.64	1088.72
402.00	1092.45
402.37	1090.99
402.74	1090.36
403.11	1093.52
403.48	1093.38
403.84	1092.12
404.21	1091.56
404.58	1089.92
404.95	1088.00
405.32	1088.54
405.68	1088.21
406.05	1086.17
406.42	1088.70
406.79	1087.09
407.16	1086.29
407.52	1085.80
407.89	1088.30
408.26	1087.32
408.63	1087.41
408.99	1088.82
409.36	1091.46
409.73	1087.95
410.10	1092.84
410.47	1092.02
410.83	1094.36
411.20	1093.05
411.57	1099.98
411.94	1101.39
412.30	1102.44
412.67	1101.95
413.04	1103.52
413.40	1100.87
413.77	1098.18
414.14	1101.32
414.51	1101.83
414.87	1099.49
415.24	1103.47
415.61	1105.88
415.97	1103.26
416.34	1103.35
416.71	1107.17
417.08	1108.08
417.44	1109.18
417.81	1111.17
418.18	1109.74
418.54	1111.24
418.91	1112.39
419.28	1112.39
419.64	1114.28
420.01	1115.05
420.38	1113.77
420.74	1115.59
421.11	1117.98
421.48	1119.71
421.84	1123.69
422.21	1128.84
422.58	1127.51
422.94	1128.96
423.31	1129.61
423.68	1132.14
424.04	1131.91
424.41	1138.27
424.77	1140.45
425.14	1142.42
425.51	1147.40
425.87	1152.15
426.24	1149.65
426.61	1152.57
426.97	1161.87
427.34	1166.29
427.70	1171.67
428.07	1179.75
428.44	1186.42
428.80	1192.62
429.17	1199.41
429.53	1209.64
429.90	1219.68
430.27	1230.00
430.63	1238.33
431.00	1249.12
431.36	1261.15
431.73	1273.91
432.09	1287.72
432.46	1302.53
432.83	1319.62
433.19	1330.27
433.56	1348.97
433.92	1369.96
434.29	1390.70
434.65	1414.43
435.02	1444.86
435.38	1469.67
435.75	1494.03
436.11	1524.95
436.48	1553.41
436.84	1584.47
437.21	1619.07
437.57	1659.84
437.94	1702.18
438.30	1745.64
438.67	1794.68
439.03	1847.10
439.40	1899.53
439.76	1953.67
440.13	2016.96
440.49	2078.33
440.86	2142.01
441.22	2213.94
441.59	2286.17
441.95	2363.33
442.32	2442.42
442.68	2536.37
443.05	2633.76
443.41	2735.71
443.78	2827.74
444.14	2941.09
444.51	3050.77
444.87	3185.00
445.24	3318.65
445.60	3482.16
445.96	3635.93
446.33	3806.67
446.69	3969.45
447.06	4154.45
447.42	4340.66
447.79	4533.38
448.15	4757.28
448.51	4979.14
448.88	5235.87
449.24	5474.68
449.61	5753.11
449.97	6028.26
450.33	6314.32
450.70	6584.30
451.06	6904.37
451.43	7209.22
451.79	7568.54
452.15	7971.51
452.52	8418.56
452.88	8888.49
453.24	9431.70
453.61	10005.09
453.97	10561.43
454.34	11113.57
454.70	11763.63
455.06	12399.29
455.43	13031.24
455.79	13643.78
456.15	14361.69
456.52	15011.31
456.88	15779.00
457.24	16496.61
457.61	17343.74
457.97	18112.87
458.33	18889.57
458.70	19647.79
459.06	20414.92
459.42	21248.69
459.79	22023.58
460.15	22920.84
460.51	23787.08
460.88	24720.67
461.24	25514.74
461.60	26475.04
461.96	27351.15
462.33	28205.35
462.69	28965.84
463.05	29790.01
463.42	30486.39
463.78	31134.13
464.14	31674.26
464.50	32271.68
464.87	32771.03
465.23	33128.95
465.59	33466.66
465.95	33748.63
466.32	33994.24
466.68	34217.74
467.04	34376.78
467.40	34526.44
467.77	34697.06
468.13	34699.19
468.49	34603.67
468.85	34523.25
469.22	34352.39
469.58	34000.35
469.94	33746.90
470.30	33435.47
470.66	33009.79
471.03	32414.85
471.39	32017.22
471.75	31366.27
472.11	30743.29
472.47	30350.43
472.84	30026.73
473.20	29541.91
473.56	29281.04
473.92	28872.71
474.28	28360.34
474.65	27889.78
475.01	27425.11
475.37	26857.53
475.73	26398.74
476.09	25880.01
476.45	25346.13
476.81	24817.24
477.18	24295.91
477.54	23842.36
477.90	23500.15
478.26	23074.71
478.62	22734.86
478.98	22449.11
479.34	22132.25
479.71	21716.71
480.07	21378.80
480.43	21014.87
480.79	20616.91
481.15	20246.06
481.51	19952.55
481.87	19708.15
482.23	19444.87
482.59	19181.23
482.96	18920.84
483.32	18627.27
483.68	18247.92
484.04	17888.60
484.40	17533.66
484.76	17157.09
485.12	16790.58
485.48	16487.67
485.84	16145.58
486.20	15786.52
486.56	15425.35
486.92	15093.58
487.28	14733.93
487.64	14373.28
488.00	14050.84
488.37	13728.93
488.73	13377.52
489.09	13021.34
489.45	12711.45
489.81	12397.12
490.17	12093.67
490.53	11805.38
490.89	11497.30
491.25	11203.42
491.61	10883.28
491.97	10568.27
492.33	10243.68
492.69	9954.27
493.05	9646.87
493.41	9371.97
493.77	9101.57
494.13	8856.19
494.49	8608.75
494.85	8369.12
495.21	8139.38
495.57	7932.61
495.93	7714.43
496.29	7511.97
496.64	7334.33
497.00	7153.61
497.36	6960.89
497.72	6780.25
498.08	6607.85
498.44	6421.07
498.80	6244.20
499.16	6082.84
499.52	5927.52
499.88	5792.12
500.24	5670.02
500.60	5548.29
500.96	5428.78
501.32	5305.78
501.68	5177.10
502.03	5052.58
502.39	4930.06
502.75	4794.70
503.11	4674.66
503.47	4561.26
503.83	4433.19
504.19	4310.03
504.55	4209.45
504.91	4114.01
505.26	4018.49
505.62	3938.14
505.98	3857.32
506.34	3764.56
506.70	3665.14
507.06	3575.31
507.42	3487.89
507.78	3411.40
508.13	3339.17
508.49	3266.15
508.85	3201.27
509.21	3136.53
509.57	3063.36
509.93	2997.34
510.28	2939.55
510.64	2877.95
511.00	2811.83
511.36	2759.59
511.72	2700.67
512.07	2647.15
512.43	2598.81
512.79	2552.87
513.15	2504.58
513.51	2459.60
513.86	2415.32
514.22	2367.19
514.58	2327.66
514.94	2289.98
515.30	2256.30
515.65	2223.23
516.01	2191.84
516.37	2162.35
516.73	2130.52
517.08	2099.79
517.44	2070.91
517.80	2038.79
518.16	2011.78
518.51	1985.15
518.87	1956.22
519.23	1928.25
519.59	1903.23
519.94	1874.07
520.30	1850.45
520.66	1828.26
521.01	1803.80
521.37	1787.77
521.73	1765.61
522.09	1743.91
522.44	1724.34
522.80	1707.56
523.16	1684.86
523.51	1668.61
523.87	1652.32
524.23	1636.85
524.58	1618.60
524.94	1600.79
525.30	1582.01
525.65	1562.96
526.01	1547.07
526.37	1532.70
526.72	1520.74
527.08	1509.04
527.44	1495.27
527.79	1479.31
528.15	1465.11
528.51	1450.99
528.86	1439.43
529.22	1431.05
529.58	1421.17
529.93	1412.70
530.29	1402.00
530.65	1390.28
531.00	1377.22
531.36	1366.62
531.71	1353.34
532.07	1347.35
532.43	1341.06
532.78	1334.78
533.14	1329.59
533.49	1328.21
533.85	1321.07
534.21	1312.27
534.56	1304.38
534.92	1297.94
535.27	1288.21
535.63	1279.24
535.98	1276.88
536.34	1272.13
536.69	1263.56
537.05	1259.47
537.41	1257.76
537.76	1248.32
538.12	1244.65
538.47	1241.51
538.83	1235.94
539.18	1228.22
539.54	1227.07
539.89	1224.43
540.25	1221.60
540.60	1221.83
540.96	1220.82
541.31	1214.48
541.67	1210.41
542.02	1210.90
542.38	1205.45
542.73	1199.74
543.09	1199.24
543.44	1195.71
543.80	1188.76
544.15	1185.79
544.51	1182.95
544.86	1181.83
545.22	1180.29
545.57	1178.37
545.93	1176.49
546.28	1175.70
546.64	1171.48
546.99	1167.86
547.35	1168.44
547.70	1166.03
548.05	1162.50
548.41	1158.05
548.76	1155.05
549.12	1153.74
549.47	1152.04
549.83	1150.28
550.18	1151.87
550.53	1149.88
550.89	1148.20
551.24	1147.42
551.60	1144.94
551.95	1143.77
552.30	1143.14
552.66	1139.65
553.01	1136.73
553.37	1136.70
553.72	1133.38
554.07	1130.39
554.43	1128.19
554.78	1125.54
555.13	1120.27
555.49	1116.97
555.84	1118.12
556.19	1119.55
556.55	1118.28
556.90	1124.65
557.26	1125.66
557.61	1123.57
557.96	1118.89
558.32	1116.34
558.67	1111.78
559.02	1112.01
559.37	1112.50
559.73	1113.74
560.08	1116.74
560.43	1116.11
560.79	1115.59
561.14	1115.57
561.49	1113.98
561.85	1112.48
562.20	1111.85
562.55	1110.72
562.90	1106.23
563.26	1107.64
563.61	1110.75
563.96	1112.22
564.32	1110.37
564.67	1110.37
565.02	1109.13
565.37	1104.64
565.73	1101.25
566.08	1099.54
566.43	1099.93
566.78	1102.65
567.14	1103.96
567.49	1104.71
567.84	1105.76
568.19	1107.52
568.54	1103.31
568.90	1102.21
569.25	1100.45
569.60	1100.05
569.95	1098.83
570.31	1100.36
570.66	1101.25
571.01	1103.47
571.36	1105.90
571.71	1101.60
572.06	1100.47
572.42	1100.29
572.77	1099.75
573.12	1095.28
573.47	1095.77
573.82	1094.29
574.18	1090.08
574.53	1088.21
574.88	1089.96
575.23	1094.41
575.58	1095.00
575.93	1094.43
576.28	1094.22
576.64	1093.33
576.99	1090.01
577.34	1087.62
577.69	1091.25
578.04	1091.79
578.39	1094.15
578.74	1094.60
579.09	1095.09
579.44	1088.28
579.80	1088.72
580.15	1086.31
580.50	1082.64
580.85	1082.94
581.20	1086.73
581.55	1086.55
581.90	1085.94
582.25	1093.12
582.60	1093.15
582.95	1093.94
583.30	1093.17
583.65	1095.56
584.00	1093.76
584.35	1094.01
584.71	1095.65
585.06	1094.93
585.41	1092.61
585.76	1089.17
586.11	1087.74
586.46	1087.04
586.81	1087.53
587.16	1090.81
587.51	1091.46
587.86	1092.91
588.21	1092.05
588.56	1093.12
588.91	1088.35
589.26	1088.07
589.61	1085.63
589.96	1086.83
590.31	1085.42
590.66	1086.94
591.01	1088.35
591.36	1088.65
591.71	1088.51
592.06	1085.45
592.41	1084.49
592.76	1081.51
593.10	1078.31
593.45	1076.62
593.80	1081.12
594.15	1080.53
594.50	1085.73
594.85	1091.39
595.20	1089.78
595.55	1091.42
595.90	1092.63
596.25	1088.86
596.60	1088.61
596.95	1091.70
597.30	1088.82
597.64	1100.78
597.99	1101.88
598.34	1101.69
598.69	1100.19
599.04	1102.56
599.39	1090.53
599.74	1089.40
600.09	1088.40
600.44	1085.77
600.78	1079.81
601.13	1081.89
601.48	1081.26
601.83	1082.52
602.18	1085.80
602.53	1088.09
602.88	1083.34
603.22	1083.13
603.57	1081.14
603.92	1077.91
604.27	1076.18
604.62	1077.33
604.97	1079.15
605.31	1077.77
605.66	1080.16
606.01	1083.06
606.36	1082.76
606.71	1080.81
607.05	1081.47
607.40	1079.60
607.75	1080.67
608.10	1080.56
608.44	1082.40
608.79	1081.58
609.14	1081.94
609.49	1082.94
609.84	1084.11
610.18	1081.51
610.53	1083.06
610.88	1087.39
611.23	1086.66
611.57	1085.99
611.92	1086.22
612.27	1085.05
612.62	1081.51
612.96	1080.32
613.31	1080.93
613.66	1081.77
614.00	1082.22
614.35	1085.89
614.70	1088.12
615.05	1089.94
615.39	1090.99
615.74	1092.96
616.09	1090.97
616.43	1089.10
616.78	1089.75
617.13	1086.48
617.47	1086.31
617.82	1086.36
618.17	1087.34
618.51	1083.25
618.86	1087.46
619.21	1084.70
619.55	1085.66
619.90	1081.51
620.25	1082.26
620.59	1082.83
620.94	1084.42
621.29	1079.85
621.63	1081.05
621.98	1081.19
622.32	1079.17
622.67	1079.95
623.02	1082.59
623.36	1084.51
623.71	1083.06
624.05	1082.85
624.40	1079.88
624.75	1077.70
625.09	1075.08
625.44	1078.45
625.78	1081.89
626.13	1083.55
626.48	1084.07
626.82	1085.59
627.17	1086.94
627.51	1085.49
627.86	1084.81
628.20	1086.15
628.55	1085.63
628.89	1082.59
629.24	1080.44
629.58	1082.59
629.93	1081.82
630.28	1081.56
630.62	1081.84
630.97	1081.75
631.31	1082.29
631.66	1082.19
632.00	1083.55
632.35	1086.29
632.69	1083.93
633.04	1081.94
633.38	1080.93
633.73	1081.44
634.07	1077.93
634.42	1080.72
634.76	1080.16
635.11	1079.29
635.45	1077.96
635.79	1074.54
636.14	1072.81
636.48	1071.94
636.83	1072.78
637.17	1073.30
637.52	1077.23
637.86	1078.33
638.21	1079.24
638.55	1081.49
638.89	1080.09
639.24	1081.54
639.58	1082.54
639.93	1082.80
640.27	1084.74
640.61	1083.20
640.96	1082.71
641.30	1083.53
641.65	1084.30
641.99	1081.96
642.33	1085.68
642.68	1084.51
643.02	1084.30
643.37	1084.74
643.71	1085.03
644.05	1082.17
644.40	1082.15
644.74	1078.00
645.08	1080.04
645.43	1080.93
645.77	1086.80
646.11	1085.82
646.46	1087.83
646.80	1087.88
647.14	1085.10
647.49	1084.46
647.83	1085.63
648.17	1088.44
648.52	1084.86
648.86	1088.09
649.20	1085.49
649.55	1086.45
649.89	1084.42
650.23	1083.57
650.57	1081.96
650.92	1082.05
651.26	1083.08
651.60	1081.26
651.95	1082.80
652.29	1081.40
652.63	1080.56
652.97	1078.21
653.32	1079.74
653.66	1081.37
654.00	1082.61
654.34	1082.83
654.69	1084.79
655.03	1085.66
655.37	1082.64
655.71	1082.19
656.05	1079.10
656.40	1079.90
656.74	1081.33
657.08	1082.38
657.42	1083.95
657.76	1086.83
658.11	1084.74
658.45	1083.20
658.79	1082.83
659.13	1082.87
659.47	1082.08
659.82	1080.30
660.16	1080.13
660.50	1082.52
660.84	1083.18
661.18	1084.49
661.52	1088.72
661.87	1089.87
662.21	1088.70
662.55	1087.20
662.89	1086.43
663.23	1086.80
663.57	1086.85
663.91	1084.60
664.25	1085.00
664.60	1084.35
664.94	1081.12
665.28	1079.78
665.62	1082.01
665.96	1080.25
666.30	1080.98
666.64	1081.30
666.98	1082.64
667.32	1083.64
667.66	1085.56
668.01	1085.59
668.35	1087.16
668.69	1085.21
669.03	1084.28
669.37	1085.21
669.71	1088.12
670.05	1088.28
670.39	1088.37
670.73	1086.15
671.07	1081.47
671.41	1080.37
671.75	1080.98
672.09	1083.36
672.43	1082.90
672.77	1083.76
673.11	1081.80
673.45	1079.13
673.79	1076.88
674.13	1076.69
674.47	1079.97
674.81	1079.38
675.15	1079.17
675.49	1080.13
675.83	1079.53
676.17	1079.78
676.51	1080.41
676.85	1080.37
677.19	1080.34
677.53	1080.81
677.87	1080.48
678.21	1081.63
678.55	1081.14
678.89	1080.74
679.23	1081.30
679.57	1082.05
679.90	1081.89
680.24	1082.15
680.58	1082.03
680.92	1084.98
681.26	1085.28
681.60	1083.36
681.94	1083.81
682.28	1084.91
682.62	1082.01
682.96	1079.41
683.29	1078.59
683.63	1078.96
683.97	1078.19
684.31	1077.58
684.65	1076.01
684.99	1075.97
685.33	1074.59
685.67	1074.07
686.00	1073.53
686.34	1074.52
686.68	1075.50
687.02	1077.09
687.36	1075.97
687.70	1080.06
688.03	1083.64
688.37	1085.56
688.71	1087.11
689.05	1088.19
689.39	1087.25
689.72	1084.79
690.06	1084.02
690.40	1083.11
690.74	1083.62
691.08	1083.60
691.41	1085.47
691.75	1082.94
692.09	1083.06
692.43	1083.08
692.76	1081.56
693.10	1081.37
693.44	1080.44
693.78	1080.58
694.11	1078.87
694.45	1079.20
694.79	1076.11
695.13	1081.05
695.46	1080.25
695.80	1081.21
696.14	1083.15
696.48	1084.23
696.81	1079.50
697.15	1075.71
697.49	1074.47
697.82	1072.15
698.16	1072.50
698.50	1072.04
698.83	1076.83
699.17	1076.08
699.51	1077.70
699.84	1076.32
700.18	1078.17
700.52	1077.51
700.85	1078.68
701.19	1076.25
701.53	1078.52
701.86	1080.48
702.20	1083.25
702.54	1084.86
702.87	1088.70
703.21	1087.58
703.55	1086.87
703.88	1086.57
704.22	1082.97
704.55	1078.71
704.89	1080.32
705.23	1079.31
705.56	1077.28
705.90	1078.99
706.23	1082.69
706.57	1080.86
706.91	1081.77
707.24	1082.71
707.58	1084.07
707.91	1082.03
708.25	1081.37
708.58	1083.88
708.92	1078.71
709.26	1077.14
709.59	1079.92
709.93	1079.01
710.26	1076.44
710.60	1078.68
710.93	1078.50
711.27	1076.86
711.60	1078.45
711.94	1078.28
712.27	1080.02
712.61	1081.82
712.94	1082.15
713.28	1082.43
713.61	1083.57
713.95	1084.25
714.28	1084.21
714.62	1080.39
714.95	1080.18
715.29	1081.23
715.62	1080.79
715.96	1082.08
716.29	1086.50
716.63	1088.47
716.96	1084.44
717.29	1082.90
717.63	1083.69
717.96	1083.57
718.30	1079.36
718.63	1079.55
718.97	1082.08
719.30	1080.84
719.63	1080.06
719.97	1081.89
720.30	1083.57
720.64	1077.51
720.97	1076.55
721.30	1074.91
721.64	1075.43
721.97	1075.62
722.31	1080.20
722.64	1081.26
722.97	1079.76
723.31	1077.91
723.64	1078.05
723.97	1079.13
724.31	1076.95
724.64	1078.45
724.98	1078.94
725.31	1079.15
725.64	1078.59
725.98	1079.17
726.31	1082.54
726.64	1081.56
726.97	1081.70
727.31	1080.04
727.64	1080.79
727.97	1077.70
728.31	1081.14
728.64	1079.13
728.97	1078.36
729.31	1075.55
729.64	1078.66
729.97	1074.24
730.30	1075.87
730.64	1075.80
730.97	1077.37
731.30	1074.52
731.63	1075.87
731.97	1075.20
732.30	1077.02
732.63	1076.58
732.96	1078.17
733.30	1080.09
733.63	1082.57
733.96	1084.16
734.29	1084.56
734.63	1083.39
734.96	1082.90
735.29	1080.67
735.62	1077.61
735.95	1079.31
736.29	1077.11
736.62	1077.96
736.95	1077.93
737.28	1076.65
737.61	1077.30
737.94	1080.13
738.28	1078.19
738.61	1075.71
738.94	1074.63
739.27	1073.56
739.60	1075.15
739.93	1077.00
740.27	1080.60
740.60	1084.37
740.93	1082.36
741.26	1078.07
741.59	1074.77
741.92	1072.81
742.25	1073.00
742.58	1075.45
742.91	1078.85
743.25	1082.80
743.58	1085.12
743.91	1085.59
744.24	1084.98
744.57	1084.09
744.90	1083.62
745.23	1082.05
745.56	1079.85
745.89	1080.70
746.22	1082.03
746.55	1082.17
746.88	1082.92
747.21	1084.18
747.54	1081.87
747.87	1079.34
748.20	1075.17
748.53	1076.69
748.87	1077.96
749.20	1077.09
749.53	1077.16
749.86	1083.39
750.19	1083.29
750.52	1082.52
750.85	1084.65
751.18	1084.79
751.51	1081.73
751.84	1079.95
752.16	1080.34
752.49	1082.40
752.82	1082.59
753.15	1082.45
753.48	1080.88
753.81	1080.77
754.14	1079.13
754.47	1080.20
754.80	1080.44
755.13	1083.01
755.46	1081.51
755.79	1081.68
756.12	1082.66
756.45	1079.64
756.78	1077.07
757.11	1078.75
757.43	1078.64
757.76	1076.48
758.09	1077.98
758.42	1078.24
758.75	1076.23
759.08	1075.13
759.41	1076.08
759.74	1075.62
760.07	1076.95
760.39	1078.75
760.72	1077.23
761.05	1076.18
761.38	1077.16
761.71	1078.52
762.04	1079.69
762.36	1081.66
762.69	1079.85
763.02	1080.72
763.35	1075.97
763.68	1071.24
764.01	1071.31
