SpectraSuite Data File
++++++++++++++++++++++++++++++++++++
Date: Mon Aug 26 10:22:00 PDT 2019
User: corrico
Dark Spectrum Present: No
Reference Spectrum Present: No
Number of Sampled Component Spectra: 1
Spectrometers: USB2+H06089
Integration Time (usec): 2000 (USB2+H06089)
Spectra Averaged: 20 (USB2+H06089)
Boxcar Smoothing: 2 (USB2+H06089)
Correct for Electrical Dark: No (USB2+H06089)
Strobe/Lamp Enabled: No (USB2+H06089)
Correct for Detector Non-linearity: No (USB2+H06089)
Correct for Stray Light: No (USB2+H06089)
Number of Pixels in Processed Spectrum: 2048
>>>>>Begin Processed Spectral Data<<<<<
339.70	1026.79
340.07	1026.79
340.45	992.86
340.82	969.99
341.19	944.34
341.57	921.84
341.94	914.17
342.31	903.33
342.69	897.50
343.06	897.27
343.43	894.76
343.81	895.04
344.18	897.38
344.55	904.03
344.93	907.96
345.30	910.42
345.67	917.35
346.04	925.92
346.42	937.27
346.79	947.45
347.16	958.96
347.54	965.54
347.91	977.97
348.28	982.63
348.65	993.00
349.03	1003.01
349.40	1011.60
349.77	1020.71
350.14	1029.04
350.52	1033.21
350.89	1042.80
351.26	1051.30
351.63	1054.60
352.01	1060.82
352.38	1066.42
352.75	1067.71
353.12	1070.49
353.50	1074.07
353.87	1074.87
354.24	1077.89
354.61	1079.24
354.98	1077.93
355.36	1076.72
355.73	1074.91
356.10	1076.23
356.47	1073.98
356.84	1076.83
357.22	1080.32
357.59	1083.62
357.96	1081.35
358.33	1085.91
358.70	1086.45
359.08	1086.66
359.45	1084.96
359.82	1085.24
360.19	1083.93
360.56	1084.74
360.94	1081.82
361.31	1084.72
361.68	1084.37
362.05	1077.33
362.42	1076.23
362.79	1077.72
363.16	1075.57
363.54	1073.49
363.91	1077.28
364.28	1072.74
364.65	1069.04
365.02	1066.82
365.39	1067.52
365.76	1066.98
366.14	1065.69
366.51	1067.75
366.88	1068.50
367.25	1068.24
367.62	1066.91
367.99	1065.25
368.36	1064.92
368.73	1065.60
369.10	1064.48
369.48	1068.15
369.85	1069.06
370.22	1069.95
370.59	1071.17
370.96	1074.35
371.33	1076.08
371.70	1079.48
372.07	1078.36
372.44	1078.73
372.81	1075.78
373.18	1071.92
373.55	1074.45
373.93	1070.42
374.30	1066.42
374.67	1067.26
375.04	1067.96
375.41	1066.82
375.78	1071.68
376.15	1071.99
376.52	1076.06
376.89	1077.21
377.26	1075.76
377.63	1074.17
378.00	1078.78
378.37	1078.50
378.74	1077.02
379.11	1078.43
379.48	1078.75
379.85	1076.34
380.22	1073.65
380.59	1073.25
380.96	1074.45
381.33	1076.32
381.70	1077.56
382.07	1076.30
382.44	1081.16
382.81	1079.46
383.18	1078.26
383.55	1080.20
383.92	1083.50
384.29	1083.39
384.66	1086.31
385.03	1085.77
385.40	1082.38
385.77	1080.93
386.14	1076.62
386.51	1074.75
386.88	1076.23
387.25	1079.97
387.62	1079.76
387.99	1081.40
388.36	1082.59
388.73	1083.41
389.10	1080.81
389.46	1082.05
389.83	1082.33
390.20	1079.92
390.57	1079.60
390.94	1079.92
391.31	1080.46
391.68	1079.78
392.05	1080.77
392.42	1080.74
392.79	1083.36
393.16	1083.34
393.53	1085.40
393.89	1086.24
394.26	1084.39
394.63	1083.79
395.00	1082.03
395.37	1081.96
395.74	1082.43
396.11	1083.27
396.48	1081.00
396.84	1082.19
397.21	1081.28
397.58	1077.70
397.95	1079.71
398.32	1079.27
398.69	1079.06
399.06	1075.80
399.42	1078.71
399.79	1079.13
400.16	1081.00
400.53	1081.68
400.90	1081.75
401.27	1082.64
401.64	1079.90
402.00	1080.63
402.37	1081.68
402.74	1083.76
403.11	1084.67
403.48	1086.99
403.84	1086.20
404.21	1084.00
404.58	1086.29
404.95	1083.39
405.32	1086.03
405.68	1087.06
406.05	1089.05
406.42	1087.62
406.79	1091.79
407.16	1089.43
407.52	1087.39
407.89	1084.89
408.26	1084.53
408.63	1083.95
408.99	1084.91
409.36	1085.82
409.73	1090.69
410.10	1092.14
410.47	1089.40
410.83	1088.68
411.20	1089.87
411.57	1086.01
411.94	1087.39
412.30	1089.14
412.67	1090.41
413.04	1088.37
413.40	1090.01
413.77	1092.07
414.14	1093.15
414.51	1095.93
414.87	1098.90
415.24	1098.06
415.61	1095.44
415.97	1099.12
416.34	1092.96
416.71	1093.97
417.08	1095.42
417.44	1097.99
417.81	1096.49
418.18	1100.75
418.54	1099.70
418.91	1100.05
419.28	1099.58
419.64	1096.14
420.01	1096.17
420.38	1098.65
420.74	1101.97
421.11	1101.22
421.48	1103.73
421.84	1106.46
422.21	1108.15
422.58	1109.81
422.94	1114.10
423.31	1117.40
423.68	1116.44
424.04	1116.04
424.41	1117.51
424.77	1121.00
425.14	1122.57
425.51	1130.08
425.87	1136.68
426.24	1139.75
426.61	1143.77
426.97	1149.39
427.34	1151.36
427.70	1155.80
428.07	1160.48
428.44	1161.65
428.80	1167.69
429.17	1171.95
429.53	1178.90
429.90	1189.41
430.27	1197.14
430.63	1202.99
431.00	1212.73
431.36	1219.91
431.73	1226.42
432.09	1237.11
432.46	1249.05
432.83	1262.02
433.19	1273.67
433.56	1289.82
433.92	1307.03
434.29	1323.90
434.65	1340.38
435.02	1362.36
435.38	1384.68
435.75	1405.28
436.11	1430.72
436.48	1456.37
436.84	1481.63
437.21	1507.45
437.57	1538.15
437.94	1566.08
438.30	1598.02
438.67	1631.63
439.03	1670.14
439.40	1710.46
439.76	1754.00
440.13	1803.97
440.49	1859.70
440.86	1907.77
441.22	1962.94
441.59	2022.81
441.95	2087.48
442.32	2148.26
442.68	2220.04
443.05	2293.84
443.41	2372.16
443.78	2454.05
444.14	2547.28
444.51	2636.36
444.87	2742.85
445.24	2842.23
445.60	2946.87
445.96	3051.82
446.33	3178.89
446.69	3298.77
447.06	3435.93
447.42	3582.26
447.79	3732.01
448.15	3897.04
448.51	4069.04
448.88	4255.70
449.24	4424.97
449.61	4635.10
449.97	4851.79
450.33	5078.56
450.70	5288.60
451.06	5550.95
451.43	5787.65
451.79	6052.60
452.15	6342.17
452.52	6683.89
452.88	7024.74
453.24	7412.66
453.61	7824.67
453.97	8221.67
454.34	8597.44
454.70	9038.31
455.06	9457.57
455.43	9868.38
455.79	10279.73
456.15	10781.89
456.52	11246.11
456.88	11814.46
457.24	12408.65
457.61	13096.02
457.97	13717.41
458.33	14376.11
458.70	15048.69
459.06	15661.09
459.42	16318.68
459.79	16932.65
460.15	17621.80
460.51	18208.17
460.88	18843.44
461.24	19412.15
461.60	20080.74
461.96	20645.05
462.33	21192.38
462.69	21726.16
463.05	22321.60
463.42	22880.23
463.78	23407.77
464.14	23887.39
464.50	24438.07
464.87	24842.07
465.23	25105.48
465.59	25374.71
465.95	25619.78
466.32	25760.10
466.68	25880.43
467.04	26008.43
467.40	26095.69
467.77	26183.99
468.13	26145.63
468.49	26001.90
468.85	25858.64
469.22	25712.61
469.58	25512.89
469.94	25365.20
470.30	25176.39
470.66	24900.75
471.03	24470.25
471.39	24114.09
471.75	23613.95
472.11	23180.78
472.47	22831.79
472.84	22514.20
473.20	22090.37
473.56	21772.41
473.92	21330.47
474.28	20896.72
474.65	20483.92
475.01	20084.23
475.37	19646.13
475.73	19298.00
476.09	18883.37
476.45	18518.34
476.81	18172.27
477.18	17843.68
477.54	17575.34
477.90	17355.07
478.26	17069.64
478.62	16827.02
478.98	16646.24
479.34	16491.13
479.71	16290.25
480.07	16088.66
480.43	15859.33
480.79	15537.04
481.15	15152.46
481.51	14841.15
481.87	14595.49
482.23	14316.10
482.59	14072.17
482.96	13866.43
483.32	13654.47
483.68	13395.45
484.04	13173.31
484.40	12968.09
484.76	12737.36
485.12	12494.20
485.48	12302.18
485.84	12093.10
486.20	11866.56
486.56	11649.36
486.92	11437.47
487.28	11175.24
487.64	10917.85
488.00	10666.85
488.37	10407.59
488.73	10129.07
489.09	9861.57
489.45	9624.89
489.81	9373.94
490.17	9140.35
490.53	8899.00
490.89	8642.90
491.25	8381.20
491.61	8143.10
491.97	7911.22
492.33	7704.39
492.69	7523.09
493.05	7334.49
493.41	7168.97
493.77	6995.35
494.13	6816.62
494.49	6642.81
494.85	6480.10
495.21	6312.40
495.57	6152.38
495.93	5995.21
496.29	5835.54
496.64	5686.99
497.00	5536.02
497.36	5392.85
497.72	5271.52
498.08	5162.57
498.44	5054.13
498.80	4944.08
499.16	4823.24
499.52	4684.16
499.88	4549.58
500.24	4410.62
500.60	4284.05
500.96	4181.20
501.32	4086.83
501.68	3996.56
502.03	3915.13
502.39	3839.67
502.75	3755.88
503.11	3686.25
503.47	3615.52
503.83	3545.72
504.19	3473.03
504.55	3404.24
504.91	3325.48
505.26	3247.21
505.62	3169.76
505.98	3095.71
506.34	3021.09
506.70	2951.39
507.06	2888.41
507.42	2822.26
507.78	2763.54
508.13	2711.72
508.49	2662.27
508.85	2615.92
509.21	2566.51
509.57	2522.09
509.93	2474.18
510.28	2426.46
510.64	2383.46
511.00	2343.51
511.36	2299.53
511.72	2260.86
512.07	2228.94
512.43	2184.42
512.79	2152.54
513.15	2114.95
513.51	2084.04
513.86	2053.61
514.22	2028.71
514.58	1995.92
514.94	1969.75
515.30	1932.51
515.65	1896.00
516.01	1869.76
516.37	1845.54
516.73	1820.77
517.08	1806.57
517.44	1784.75
517.80	1759.66
518.16	1736.02
518.51	1716.46
518.87	1694.24
519.23	1677.11
519.59	1662.30
519.94	1643.41
520.30	1624.40
520.66	1607.22
521.01	1594.09
521.37	1577.10
521.73	1564.44
522.09	1549.27
522.44	1535.46
522.80	1515.71
523.16	1501.62
523.51	1485.42
523.87	1472.85
524.23	1456.52
524.58	1448.00
524.94	1433.48
525.30	1426.74
525.65	1417.12
526.01	1409.42
526.37	1400.37
526.72	1393.30
527.08	1384.01
527.44	1375.35
527.79	1367.11
528.15	1359.62
528.51	1351.59
528.86	1343.02
529.22	1337.03
529.58	1328.30
529.93	1318.85
530.29	1313.02
530.65	1304.19
531.00	1295.32
531.36	1288.49
531.71	1284.58
532.07	1277.63
532.43	1269.79
532.78	1262.58
533.14	1257.27
533.49	1249.40
533.85	1245.16
534.21	1243.50
534.56	1238.42
534.92	1234.80
535.27	1230.54
535.63	1226.63
535.98	1223.33
536.34	1219.07
536.69	1215.63
537.05	1214.29
537.41	1209.78
537.76	1201.30
538.12	1201.21
538.47	1199.62
538.83	1193.46
539.18	1187.94
539.54	1185.97
539.89	1180.82
540.25	1175.11
540.60	1171.77
540.96	1172.73
541.31	1174.50
541.67	1170.62
542.02	1167.65
542.38	1167.39
542.73	1164.88
543.09	1161.47
543.44	1160.93
543.80	1158.73
544.15	1156.08
544.51	1152.74
544.86	1148.71
545.22	1145.01
545.57	1145.48
545.93	1142.60
546.28	1140.85
546.64	1143.68
546.99	1142.42
547.35	1141.29
547.70	1141.97
548.05	1142.20
548.41	1135.32
548.76	1135.96
549.12	1132.94
549.47	1129.78
549.83	1129.89
550.18	1129.82
550.53	1125.63
550.89	1125.61
551.24	1126.31
551.60	1122.08
551.95	1121.91
552.30	1125.94
552.66	1129.26
553.01	1128.79
553.37	1128.98
553.72	1128.63
554.07	1120.09
554.43	1113.25
554.78	1111.71
555.13	1110.16
555.49	1109.69
555.84	1114.17
556.19	1115.97
556.55	1115.34
556.90	1114.02
557.26	1109.79
557.61	1106.96
557.96	1105.76
558.32	1104.94
558.67	1103.23
559.02	1107.78
559.37	1109.25
559.73	1107.80
560.08	1107.12
560.43	1106.51
560.79	1104.55
561.14	1104.48
561.49	1102.44
561.85	1102.16
562.20	1105.04
562.55	1105.25
562.90	1103.98
563.26	1104.41
563.61	1105.81
563.96	1101.99
564.32	1098.76
564.67	1096.45
565.02	1097.13
565.37	1094.74
565.73	1097.59
566.08	1098.18
566.43	1098.16
566.78	1096.82
567.14	1093.57
567.49	1090.08
567.84	1089.38
568.19	1092.52
568.54	1093.59
568.90	1096.31
569.25	1095.18
569.60	1095.79
569.95	1090.90
570.31	1089.38
570.66	1089.19
571.01	1092.68
571.36	1091.18
571.71	1094.60
572.06	1093.38
572.42	1092.77
572.77	1092.21
573.12	1095.02
573.47	1093.69
573.82	1094.15
574.18	1093.83
574.53	1092.14
574.88	1087.93
575.23	1086.80
575.58	1086.69
575.93	1087.41
576.28	1087.34
576.64	1088.72
576.99	1087.16
577.34	1087.09
577.69	1087.27
578.04	1085.26
578.39	1083.32
578.74	1085.63
579.09	1085.84
579.44	1085.10
579.80	1086.52
580.15	1085.19
580.50	1083.11
580.85	1081.98
581.20	1082.01
581.55	1083.55
581.90	1085.17
582.25	1086.13
582.60	1088.04
582.95	1084.79
583.30	1084.07
583.65	1085.82
584.00	1086.57
584.35	1085.84
584.71	1088.09
585.06	1086.41
585.41	1086.87
585.76	1086.29
586.11	1084.37
586.46	1083.32
586.81	1086.90
587.16	1083.34
587.51	1083.60
587.86	1084.07
588.21	1083.71
588.56	1081.44
588.91	1085.80
589.26	1081.47
589.61	1081.77
589.96	1082.61
590.31	1084.00
590.66	1081.89
591.01	1084.51
591.36	1084.02
591.71	1085.07
592.06	1082.76
592.41	1082.76
592.76	1082.45
593.10	1082.64
593.45	1079.55
593.80	1079.27
594.15	1080.41
594.50	1080.27
594.85	1083.62
595.20	1087.13
595.55	1085.05
595.90	1082.40
596.25	1086.48
596.60	1085.61
596.95	1085.52
597.30	1087.60
597.64	1097.97
597.99	1094.83
598.34	1090.13
598.69	1089.43
599.04	1088.07
599.39	1079.69
599.74	1081.70
600.09	1084.28
600.44	1081.09
600.78	1081.40
601.13	1078.85
601.48	1074.77
601.83	1074.66
602.18	1076.88
602.53	1076.90
602.88	1078.78
603.22	1080.58
603.57	1079.15
603.92	1079.24
604.27	1080.11
604.62	1079.62
604.97	1083.88
605.31	1085.59
605.66	1085.47
606.01	1086.20
606.36	1086.55
606.71	1083.71
607.05	1084.84
607.40	1082.08
607.75	1083.32
608.10	1083.90
608.44	1085.42
608.79	1081.44
609.14	1080.81
609.49	1079.85
609.84	1077.98
610.18	1077.25
610.53	1080.88
610.88	1084.02
611.23	1085.80
611.57	1089.00
611.92	1085.66
612.27	1085.68
612.62	1085.35
612.96	1081.73
613.31	1079.90
613.66	1078.64
614.00	1078.80
614.35	1078.99
614.70	1078.61
615.05	1076.13
615.39	1080.09
615.74	1076.55
616.09	1077.58
616.43	1078.64
616.78	1080.77
617.13	1081.12
617.47	1081.75
617.82	1080.48
618.17	1079.55
618.51	1078.92
618.86	1078.73
619.21	1080.88
619.55	1081.09
619.90	1081.35
620.25	1083.08
620.59	1081.87
620.94	1081.49
621.29	1080.04
621.63	1080.67
621.98	1080.93
622.32	1083.55
622.67	1082.61
623.02	1085.03
623.36	1085.59
623.71	1085.42
624.05	1083.08
624.40	1085.80
624.75	1089.17
625.09	1090.62
625.44	1087.20
625.78	1085.54
626.13	1084.46
626.48	1080.27
626.82	1079.17
627.17	1080.53
627.51	1082.24
627.86	1085.12
628.20	1089.87
628.55	1089.14
628.89	1089.00
629.24	1091.20
629.58	1086.24
629.93	1083.01
630.28	1081.82
630.62	1080.60
630.97	1079.99
631.31	1081.40
631.66	1077.40
632.00	1078.36
632.35	1079.36
632.69	1075.03
633.04	1076.32
633.38	1077.89
633.73	1076.62
634.07	1079.81
634.42	1080.34
634.76	1079.90
635.11	1080.25
635.45	1080.60
635.79	1079.85
636.14	1080.23
636.48	1077.79
636.83	1078.85
637.17	1082.26
637.52	1080.20
637.86	1082.87
638.21	1082.99
638.55	1084.74
638.89	1081.21
639.24	1082.50
639.58	1083.90
639.93	1086.71
640.27	1083.32
640.61	1084.30
640.96	1084.60
641.30	1080.67
641.65	1078.85
641.99	1083.18
642.33	1080.70
642.68	1082.03
643.02	1084.16
643.37	1085.75
643.71	1082.69
644.05	1084.91
644.40	1080.11
644.74	1078.59
645.08	1076.58
645.43	1077.16
645.77	1079.71
646.11	1080.46
646.46	1080.41
646.80	1081.61
647.14	1081.14
647.49	1080.67
647.83	1080.65
648.17	1081.37
648.52	1081.89
648.86	1081.75
649.20	1080.37
649.55	1081.63
649.89	1079.50
650.23	1078.36
650.57	1077.44
650.92	1074.05
651.26	1075.08
651.60	1075.48
651.95	1074.59
652.29	1073.98
652.63	1075.50
652.97	1075.13
653.32	1077.51
653.66	1080.11
654.00	1080.93
654.34	1083.81
654.69	1083.13
655.03	1085.07
655.37	1084.16
655.71	1086.97
656.05	1083.86
656.40	1085.82
656.74	1082.83
657.08	1082.03
657.42	1084.42
657.76	1085.80
658.11	1084.44
658.45	1085.33
658.79	1086.41
659.13	1080.46
659.47	1082.94
659.82	1083.79
660.16	1085.94
660.50	1085.91
660.84	1087.44
661.18	1086.43
661.52	1085.84
661.87	1084.56
662.21	1084.49
662.55	1083.67
662.89	1080.81
663.23	1078.87
663.57	1075.29
663.91	1072.57
664.25	1070.23
664.60	1071.24
664.94	1074.73
665.28	1078.68
665.62	1079.43
665.96	1083.69
666.30	1081.49
666.64	1075.31
666.98	1075.29
667.32	1075.05
667.66	1075.41
668.01	1078.50
668.35	1084.65
668.69	1083.90
669.03	1084.91
669.37	1081.14
669.71	1079.36
670.05	1077.82
670.39	1075.55
670.73	1074.96
671.07	1078.59
671.41	1077.79
671.75	1080.04
672.09	1083.48
672.43	1083.48
672.77	1080.77
673.11	1084.72
673.45	1079.71
673.79	1079.08
674.13	1077.98
674.47	1076.83
674.81	1077.44
675.15	1076.97
675.49	1075.45
675.83	1074.73
676.17	1074.61
676.51	1072.39
676.85	1076.11
677.19	1076.41
677.53	1077.75
677.87	1078.57
678.21	1077.40
678.55	1073.79
678.89	1073.28
679.23	1074.63
679.57	1077.04
679.90	1078.82
680.24	1082.15
680.58	1082.90
680.92	1081.54
681.26	1082.03
681.60	1084.49
681.94	1082.59
682.28	1082.59
682.62	1083.97
682.96	1080.63
683.29	1080.25
683.63	1084.02
683.97	1083.76
684.31	1083.74
684.65	1085.40
684.99	1082.01
685.33	1080.93
685.67	1080.95
686.00	1080.27
686.34	1083.83
686.68	1084.98
687.02	1082.92
687.36	1081.89
687.70	1082.40
688.03	1077.30
688.37	1076.76
688.71	1078.19
689.05	1079.27
689.39	1079.31
689.72	1082.36
690.06	1082.22
690.40	1082.12
690.74	1079.43
691.08	1078.99
691.41	1079.69
691.75	1080.32
692.09	1078.71
692.43	1083.34
692.76	1083.01
693.10	1079.41
693.44	1079.69
693.78	1078.71
694.11	1076.62
694.45	1074.49
694.79	1078.24
695.13	1078.57
695.46	1078.36
695.80	1078.80
696.14	1082.40
696.48	1081.26
696.81	1078.94
697.15	1082.24
697.49	1080.84
697.82	1079.97
698.16	1077.30
698.50	1080.65
698.83	1079.62
699.17	1081.89
699.51	1081.84
699.84	1084.02
700.18	1081.40
700.52	1080.58
700.85	1077.18
701.19	1076.69
701.53	1075.15
701.86	1074.73
702.20	1074.56
702.54	1077.72
702.87	1077.02
703.21	1081.26
703.55	1081.44
703.88	1080.70
704.22	1082.92
704.55	1085.52
704.89	1083.06
705.23	1082.66
705.56	1084.07
705.90	1078.59
706.23	1079.10
706.57	1080.09
706.91	1080.79
707.24	1080.65
707.58	1083.93
707.91	1081.02
708.25	1078.00
708.58	1076.27
708.92	1075.92
709.26	1074.00
709.59	1072.01
709.93	1071.99
710.26	1070.51
710.60	1073.07
710.93	1074.42
711.27	1075.27
711.60	1074.52
711.94	1078.80
712.27	1077.49
712.61	1076.51
712.94	1078.19
713.28	1079.90
713.61	1080.56
713.95	1082.99
714.28	1083.01
714.62	1084.21
714.95	1084.25
715.29	1084.63
715.62	1082.29
715.96	1080.77
716.29	1079.03
716.63	1080.34
716.96	1078.64
717.29	1076.79
717.63	1078.12
717.96	1078.89
718.30	1077.49
718.63	1076.72
718.97	1078.61
719.30	1077.72
719.63	1077.63
719.97	1077.02
720.30	1077.86
720.64	1076.60
720.97	1079.15
721.30	1078.40
721.64	1080.93
721.97	1081.98
722.31	1082.08
722.64	1079.88
722.97	1081.35
723.31	1079.55
723.64	1078.03
723.97	1080.56
724.31	1080.72
724.64	1080.53
724.98	1081.61
725.31	1079.95
725.64	1077.98
725.98	1078.26
726.31	1080.09
726.64	1077.63
726.97	1079.85
727.31	1079.43
727.64	1084.18
727.97	1081.26
728.31	1082.17
728.64	1083.20
728.97	1081.70
729.31	1076.81
729.64	1076.13
729.97	1079.15
730.30	1078.54
730.64	1080.84
730.97	1082.12
731.30	1084.77
731.63	1082.24
731.97	1079.74
732.30	1081.05
732.63	1078.00
732.96	1076.08
733.30	1076.60
733.63	1076.55
733.96	1077.04
734.29	1080.72
734.63	1084.18
734.96	1085.87
735.29	1087.27
735.62	1085.33
735.95	1084.70
736.29	1084.81
736.62	1083.25
736.95	1082.57
737.28	1083.69
737.61	1083.27
737.94	1080.44
738.28	1080.91
738.61	1083.57
738.94	1083.93
739.27	1082.24
739.60	1082.57
739.93	1083.81
740.27	1081.89
740.60	1079.50
740.93	1080.11
741.26	1080.13
741.59	1079.03
741.92	1082.38
742.25	1083.50
742.58	1087.06
742.91	1084.98
743.25	1083.60
743.58	1084.04
743.91	1085.10
744.24	1084.16
744.57	1084.16
744.90	1087.06
745.23	1084.39
745.56	1082.33
745.89	1080.53
746.22	1083.15
746.55	1081.37
746.88	1081.51
747.21	1081.35
747.54	1080.63
747.87	1080.91
748.20	1081.58
748.53	1079.43
748.87	1082.66
749.20	1084.07
749.53	1083.34
749.86	1079.62
750.19	1082.33
750.52	1078.85
750.85	1077.82
751.18	1077.42
751.51	1076.97
751.84	1071.82
752.16	1072.11
752.49	1071.50
752.82	1069.86
753.15	1072.88
753.48	1075.29
753.81	1077.98
754.14	1079.46
754.47	1082.50
754.80	1080.53
755.13	1077.89
755.46	1075.34
755.79	1072.69
756.12	1069.41
756.45	1071.78
756.78	1074.87
757.11	1074.47
757.43	1075.43
757.76	1078.10
758.09	1077.18
758.42	1076.27
758.75	1077.91
759.08	1077.37
759.41	1076.44
759.74	1079.03
760.07	1080.39
760.39	1080.86
760.72	1084.11
761.05	1083.95
761.38	1082.69
761.71	1085.03
762.04	1084.81
762.36	1085.63
762.69	1087.51
763.02	1089.24
763.35	1088.63
763.68	1086.69
764.01	1089.07
764.33	1089.43
