SpectraSuite Data File
++++++++++++++++++++++++++++++++++++
Date: Mon Aug 26 10:22:06 PDT 2019
User: corrico
Dark Spectrum Present: No
Reference Spectrum Present: No
Number of Sampled Component Spectra: 1
Spectrometers: USB2+H06089
Integration Time (usec): 2000 (USB2+H06089)
Spectra Averaged: 20 (USB2+H06089)
Boxcar Smoothing: 2 (USB2+H06089)
Correct for Electrical Dark: No (USB2+H06089)
Strobe/Lamp Enabled: No (USB2+H06089)
Correct for Detector Non-linearity: No (USB2+H06089)
Correct for Stray Light: No (USB2+H06089)
Number of Pixels in Processed Spectrum: 2048
>>>>>Begin Processed Spectral Data<<<<<
339.70	1021.18
340.07	1021.18
340.45	988.67
340.82	968.47
341.19	944.87
341.57	921.23
341.94	911.62
342.31	903.61
342.69	898.72
343.06	896.50
343.43	895.72
343.81	896.54
344.18	899.91
344.55	904.03
344.93	910.00
345.30	913.11
345.67	920.44
346.04	929.38
346.42	938.27
346.79	943.80
347.16	955.50
347.54	963.62
347.91	972.47
348.28	979.09
348.65	994.05
349.03	1003.48
349.40	1012.80
349.77	1021.53
350.14	1032.60
350.52	1034.77
350.89	1041.98
351.26	1047.27
351.63	1051.42
352.01	1055.28
352.38	1059.65
352.75	1061.50
353.12	1064.80
353.50	1066.82
353.87	1066.91
354.24	1070.94
354.61	1076.15
354.98	1080.30
355.36	1081.09
355.73	1088.70
356.10	1091.06
356.47	1088.16
356.84	1084.39
357.22	1084.00
357.59	1078.26
357.96	1078.85
358.33	1084.07
358.70	1087.04
359.08	1087.58
359.45	1088.37
359.82	1084.74
360.19	1078.92
360.56	1075.17
360.94	1076.55
361.31	1077.16
361.68	1077.61
362.05	1077.58
362.42	1079.50
362.79	1078.82
363.16	1077.33
363.54	1078.17
363.91	1079.81
364.28	1080.60
364.65	1077.86
365.02	1078.54
365.39	1077.47
365.76	1076.11
366.14	1075.85
366.51	1076.74
366.88	1075.24
367.25	1076.18
367.62	1076.18
367.99	1073.49
368.36	1073.98
368.73	1075.62
369.10	1074.54
369.48	1072.57
369.85	1073.25
370.22	1072.22
370.59	1072.67
370.96	1073.28
371.33	1076.74
371.70	1078.57
372.07	1078.85
372.44	1079.62
372.81	1078.24
373.18	1075.38
373.55	1073.79
373.93	1074.24
374.30	1070.12
374.67	1069.55
375.04	1069.62
375.41	1071.75
375.78	1075.29
376.15	1077.82
376.52	1079.83
376.89	1080.65
377.26	1078.00
377.63	1074.70
378.00	1072.71
378.37	1073.14
378.74	1076.60
379.11	1076.65
379.48	1075.29
379.85	1075.29
380.22	1074.89
380.59	1074.35
380.96	1078.85
381.33	1084.04
381.70	1086.52
382.07	1085.89
382.44	1084.65
382.81	1081.26
383.18	1078.10
383.55	1078.43
383.92	1080.34
384.29	1081.30
384.66	1081.51
385.03	1082.15
385.40	1081.70
385.77	1085.00
386.14	1086.62
386.51	1087.27
386.88	1088.91
387.25	1089.89
387.62	1085.12
387.99	1082.92
388.36	1080.11
388.73	1082.43
389.10	1083.01
389.46	1084.81
389.83	1085.73
390.20	1090.27
390.57	1089.19
390.94	1086.45
391.31	1083.88
391.68	1084.81
392.05	1083.27
392.42	1081.33
392.79	1081.61
393.16	1085.07
393.53	1081.42
393.89	1081.30
394.26	1080.39
394.63	1083.29
395.00	1080.74
395.37	1082.54
395.74	1084.74
396.11	1087.27
396.48	1085.61
396.84	1085.56
397.21	1085.47
397.58	1087.20
397.95	1085.63
398.32	1083.36
398.69	1084.18
399.06	1087.88
399.42	1084.86
399.79	1085.42
400.16	1091.86
400.53	1095.86
400.90	1094.57
401.27	1096.31
401.64	1098.53
402.00	1094.67
402.37	1090.53
402.74	1089.75
403.11	1089.07
403.48	1087.25
403.84	1087.27
404.21	1089.19
404.58	1091.60
404.95	1092.73
405.32	1094.25
405.68	1094.83
406.05	1096.96
406.42	1093.71
406.79	1093.47
407.16	1094.88
407.52	1101.78
407.89	1102.63
408.26	1102.37
408.63	1101.20
408.99	1102.04
409.36	1096.19
409.73	1096.66
410.10	1097.90
410.47	1101.76
410.83	1099.54
411.20	1102.44
411.57	1101.27
411.94	1099.98
412.30	1097.97
412.67	1100.12
413.04	1101.29
413.40	1101.18
413.77	1102.86
414.14	1104.59
414.51	1104.59
414.87	1102.56
415.24	1100.66
415.61	1103.82
415.97	1101.74
416.34	1102.28
416.71	1103.05
417.08	1105.44
417.44	1106.77
417.81	1110.47
418.18	1110.49
418.54	1111.33
418.91	1113.21
419.28	1112.85
419.64	1111.24
420.01	1113.60
420.38	1118.89
420.74	1120.48
421.11	1123.25
421.48	1125.87
421.84	1127.51
422.21	1123.06
422.58	1125.19
422.94	1124.72
423.31	1131.46
423.68	1136.19
424.04	1140.59
424.41	1146.79
424.77	1154.87
425.14	1159.83
425.51	1164.81
425.87	1174.15
426.24	1178.04
426.61	1180.92
426.97	1187.28
427.34	1191.68
427.70	1198.24
428.07	1205.98
428.44	1214.36
428.80	1223.16
429.17	1232.76
429.53	1240.44
429.90	1251.04
430.27	1264.80
430.63	1272.32
431.00	1285.77
431.36	1300.96
431.73	1315.33
432.09	1329.71
432.46	1349.65
432.83	1373.85
433.19	1398.38
433.56	1422.67
433.92	1452.56
434.29	1476.36
434.65	1499.98
435.02	1527.34
435.38	1559.57
435.75	1590.35
436.11	1629.04
436.48	1671.33
436.84	1713.23
437.21	1759.22
437.57	1806.94
437.94	1858.88
438.30	1913.62
438.67	1971.90
439.03	2030.84
439.40	2100.49
439.76	2167.50
440.13	2238.46
440.49	2321.86
440.86	2404.53
441.22	2484.76
441.59	2578.57
441.95	2684.69
442.32	2783.32
442.68	2899.08
443.05	3023.50
443.41	3152.98
443.78	3279.23
444.14	3420.83
444.51	3556.89
444.87	3725.92
445.24	3891.49
445.60	4070.85
445.96	4254.63
446.33	4470.12
446.69	4667.66
447.06	4881.98
447.42	5102.39
447.79	5339.23
448.15	5611.53
448.51	5889.79
448.88	6219.06
449.24	6528.15
449.61	6882.28
449.97	7232.23
450.33	7609.62
450.70	7965.52
451.06	8413.24
451.43	8826.37
451.79	9292.79
452.15	9789.03
452.52	10326.56
452.88	10860.23
453.24	11491.28
453.61	12189.51
453.97	12887.83
454.34	13583.06
454.70	14410.33
455.06	15207.47
455.43	15956.93
455.79	16660.24
456.15	17487.80
456.52	18226.29
456.88	19153.91
457.24	20075.66
457.61	21195.28
457.97	22253.32
458.33	23357.70
458.70	24385.57
459.06	25375.57
459.42	26380.18
459.79	27296.43
460.15	28359.17
460.51	29380.14
460.88	30483.44
461.24	31487.13
461.60	32644.11
461.96	33700.32
462.33	34750.99
462.69	35825.27
463.05	36946.48
463.42	37973.97
463.78	38918.29
464.14	39659.54
464.50	40362.66
464.87	40865.05
465.23	41213.42
465.59	41573.02
465.95	41907.90
466.32	42177.93
466.68	42495.75
467.04	42669.77
467.40	42732.12
467.77	42850.11
468.13	42762.55
468.49	42551.69
468.85	42429.04
469.22	42303.22
469.58	42042.06
469.94	41900.62
470.30	41706.12
470.66	41352.40
471.03	40817.68
471.39	40443.68
471.75	39710.58
472.11	38970.74
472.47	38457.32
472.84	37953.80
473.20	37242.49
473.56	36843.05
473.92	36298.97
474.28	35688.91
474.65	35028.55
475.01	34328.80
475.37	33492.04
475.73	32789.92
476.09	32057.99
476.45	31416.61
476.81	30871.60
477.18	30322.16
477.54	29848.64
477.90	29406.28
478.26	28830.53
478.62	28310.96
478.98	27887.79
479.34	27478.87
479.71	26930.18
480.07	26499.69
480.43	26076.42
480.79	25579.25
481.15	25090.05
481.51	24706.11
481.87	24387.59
482.23	24011.23
482.59	23702.84
482.96	23380.69
483.32	23089.57
483.68	22704.88
484.04	22354.88
484.40	21943.41
484.76	21493.47
485.12	21020.80
485.48	20576.73
485.84	20079.55
486.20	19638.01
486.56	19201.78
486.92	18803.96
487.28	18412.90
487.64	18018.97
488.00	17629.38
488.37	17240.20
488.73	16802.82
489.09	16296.45
489.45	15835.27
489.81	15368.07
490.17	14916.21
490.53	14521.08
490.89	14137.07
491.25	13735.57
491.61	13347.35
491.97	12960.86
492.33	12551.61
492.69	12202.99
493.05	11880.77
493.41	11559.79
493.77	11241.92
494.13	10937.49
494.49	10632.05
494.85	10337.26
495.21	10054.66
495.57	9771.88
495.93	9494.03
496.29	9228.62
496.64	9001.16
497.00	8749.04
497.36	8503.47
497.72	8265.81
498.08	8056.19
498.44	7827.10
498.80	7612.17
499.16	7416.95
499.52	7217.14
499.88	7025.23
500.24	6845.67
500.60	6681.27
500.96	6525.23
501.32	6380.16
501.68	6212.13
502.03	6035.54
502.39	5874.46
502.75	5699.30
503.11	5532.44
503.47	5391.92
503.83	5261.27
504.19	5128.93
504.55	5011.51
504.91	4898.81
505.26	4787.07
505.62	4671.45
505.98	4561.26
506.34	4440.11
506.70	4320.68
507.06	4206.46
507.42	4104.76
507.78	4009.55
508.13	3927.42
508.49	3844.52
508.85	3769.43
509.21	3680.19
509.57	3593.21
509.93	3507.15
510.28	3422.57
510.64	3333.30
511.00	3261.00
511.36	3189.87
511.72	3123.21
512.07	3064.95
512.43	3000.43
512.79	2938.26
513.15	2873.15
513.51	2810.23
513.86	2749.08
514.22	2700.02
514.58	2649.21
514.94	2602.77
515.30	2558.32
515.65	2511.61
516.01	2471.37
516.37	2425.71
516.73	2384.68
517.08	2346.13
517.44	2307.28
517.80	2263.65
518.16	2231.00
518.51	2197.95
518.87	2164.36
519.23	2139.23
519.59	2108.73
519.94	2081.13
520.30	2054.01
520.66	2026.06
521.01	1993.67
521.37	1963.43
521.73	1930.54
522.09	1901.50
522.44	1873.11
522.80	1843.57
523.16	1825.78
523.51	1802.56
523.87	1779.88
524.23	1762.73
524.58	1746.30
524.94	1724.27
525.30	1705.08
525.65	1686.08
526.01	1668.73
526.37	1652.54
526.72	1632.71
527.08	1617.57
527.44	1600.55
527.79	1578.95
528.15	1561.68
528.51	1549.39
528.86	1534.36
529.22	1519.38
529.58	1506.70
529.93	1495.37
530.29	1482.00
530.65	1471.68
531.00	1463.12
531.36	1452.02
531.71	1436.34
532.07	1421.20
532.43	1408.86
532.78	1394.42
533.14	1386.09
533.49	1379.46
533.85	1376.33
534.21	1366.87
534.56	1359.71
534.92	1352.67
535.27	1344.03
535.63	1335.39
535.98	1327.13
536.34	1320.44
536.69	1311.75
537.05	1306.56
537.41	1299.23
537.76	1293.64
538.12	1287.11
538.47	1281.89
538.83	1275.22
539.18	1266.58
539.54	1261.55
539.89	1258.18
540.25	1252.42
540.60	1247.44
540.96	1244.09
541.31	1240.74
541.67	1234.91
542.02	1234.23
542.38	1231.33
542.73	1226.98
543.09	1223.00
543.44	1222.74
543.80	1215.65
544.15	1212.12
544.51	1211.53
544.86	1211.51
545.22	1208.14
545.57	1207.18
545.93	1206.48
546.28	1202.12
546.64	1196.13
546.99	1190.09
547.35	1187.89
547.70	1180.73
548.05	1180.31
548.41	1177.31
548.76	1176.80
549.12	1172.80
549.47	1172.14
549.83	1168.30
550.18	1166.13
550.53	1163.06
550.89	1160.81
551.24	1159.36
551.60	1158.24
551.95	1157.96
552.30	1157.16
552.66	1156.22
553.01	1155.24
553.37	1150.33
553.72	1144.59
554.07	1142.25
554.43	1138.06
554.78	1136.42
555.13	1139.02
555.49	1140.54
555.84	1140.59
556.19	1139.28
556.55	1137.57
556.90	1133.47
557.26	1132.94
557.61	1133.64
557.96	1136.94
558.32	1134.76
558.67	1133.62
559.02	1131.72
559.37	1128.35
559.73	1123.86
560.08	1123.81
560.43	1123.57
560.79	1122.50
561.14	1122.80
561.49	1125.05
561.85	1122.92
562.20	1122.36
562.55	1122.15
562.90	1118.73
563.26	1114.40
563.61	1115.48
563.96	1111.40
564.32	1109.16
564.67	1107.52
565.02	1108.17
565.37	1107.40
565.73	1111.64
566.08	1112.27
566.43	1115.05
566.78	1114.52
567.14	1113.51
567.49	1109.77
567.84	1108.76
568.19	1107.75
568.54	1105.81
568.90	1105.13
569.25	1104.90
569.60	1103.66
569.95	1102.02
570.31	1102.95
570.66	1103.75
571.01	1106.37
571.36	1105.18
571.71	1106.82
572.06	1104.90
572.42	1103.45
572.77	1102.58
573.12	1104.71
573.47	1103.28
573.82	1100.96
574.18	1101.41
574.53	1101.06
574.88	1102.86
575.23	1099.12
575.58	1102.93
575.93	1103.75
576.28	1100.54
576.64	1098.48
576.99	1099.98
577.34	1096.28
577.69	1095.37
578.04	1097.85
578.39	1098.02
578.74	1097.24
579.09	1098.81
579.44	1099.47
579.80	1100.24
580.15	1100.61
580.50	1100.71
580.85	1103.19
581.20	1100.94
581.55	1094.08
581.90	1092.61
582.25	1096.49
582.60	1094.13
582.95	1095.18
583.30	1099.26
583.65	1094.62
584.00	1089.99
584.35	1088.49
584.71	1088.30
585.06	1090.06
585.41	1093.38
585.76	1091.88
586.11	1090.03
586.46	1090.50
586.81	1091.39
587.16	1091.25
587.51	1091.74
587.86	1093.15
588.21	1091.06
588.56	1087.74
588.91	1088.70
589.26	1091.23
589.61	1093.26
589.96	1093.66
590.31	1091.65
590.66	1093.40
591.01	1092.66
591.36	1088.54
591.71	1086.66
592.06	1088.40
592.41	1085.56
592.76	1085.03
593.10	1087.65
593.45	1088.42
593.80	1089.71
594.15	1087.41
594.50	1088.09
594.85	1088.58
595.20	1089.17
595.55	1087.74
595.90	1088.61
596.25	1086.90
596.60	1087.93
596.95	1089.38
597.30	1089.29
597.64	1100.17
597.99	1104.22
598.34	1101.57
598.69	1097.17
599.04	1097.76
599.39	1088.56
599.74	1083.97
600.09	1087.60
600.44	1090.57
600.78	1093.40
601.13	1093.97
601.48	1094.65
601.83	1091.46
602.18	1089.05
602.53	1085.28
602.88	1085.66
603.22	1087.76
603.57	1088.47
603.92	1090.08
604.27	1087.83
604.62	1082.29
604.97	1081.02
605.31	1078.38
605.66	1076.23
606.01	1080.93
606.36	1086.48
606.71	1086.38
607.05	1086.69
607.40	1087.55
607.75	1086.17
608.10	1083.41
608.44	1086.55
608.79	1091.02
609.14	1092.21
609.49	1090.48
609.84	1091.53
610.18	1087.58
610.53	1086.55
610.88	1087.93
611.23	1088.30
611.57	1086.34
611.92	1087.97
612.27	1087.39
612.62	1086.50
612.96	1089.99
613.31	1091.02
613.66	1088.98
614.00	1087.46
614.35	1084.77
614.70	1081.96
615.05	1079.74
615.39	1078.05
615.74	1078.38
616.09	1079.08
616.43	1082.71
616.78	1085.14
617.13	1087.60
617.47	1087.55
617.82	1088.77
618.17	1085.47
618.51	1084.39
618.86	1086.31
619.21	1086.57
619.55	1084.35
619.90	1082.66
620.25	1082.71
620.59	1080.77
620.94	1081.66
621.29	1086.83
621.63	1090.29
621.98	1093.36
622.32	1094.20
622.67	1092.00
623.02	1087.13
623.36	1084.63
623.71	1079.27
624.05	1073.65
624.40	1072.64
624.75	1076.34
625.09	1075.52
625.44	1077.98
625.78	1083.41
626.13	1083.97
626.48	1081.40
626.82	1082.64
627.17	1081.54
627.51	1079.50
627.86	1082.26
628.20	1082.83
628.55	1083.11
628.89	1084.58
629.24	1087.06
629.58	1084.46
629.93	1085.47
630.28	1086.10
630.62	1086.59
630.97	1084.60
631.31	1085.05
631.66	1084.89
632.00	1082.50
632.35	1081.40
632.69	1081.14
633.04	1079.99
633.38	1077.75
633.73	1079.85
634.07	1082.64
634.42	1082.26
634.76	1084.23
635.11	1087.02
635.45	1086.78
635.79	1082.64
636.14	1084.28
636.48	1084.72
636.83	1081.33
637.17	1079.38
637.52	1083.22
637.86	1082.10
638.21	1079.64
638.55	1080.06
638.89	1081.54
639.24	1077.86
639.58	1079.57
639.93	1083.43
640.27	1084.02
640.61	1082.17
640.96	1086.73
641.30	1082.47
641.65	1081.07
641.99	1081.91
642.33	1082.69
642.68	1079.03
643.02	1080.58
643.37	1079.43
643.71	1079.17
644.05	1080.46
644.40	1083.20
644.74	1083.55
645.08	1083.76
645.43	1085.99
645.77	1084.58
646.11	1082.43
646.46	1086.41
646.80	1086.27
647.14	1082.10
647.49	1083.83
647.83	1084.93
648.17	1082.17
648.52	1082.59
648.86	1083.46
649.20	1080.27
649.55	1080.44
649.89	1080.86
650.23	1081.82
650.57	1083.15
650.92	1087.69
651.26	1086.83
651.60	1086.80
651.95	1085.26
652.29	1085.42
652.63	1084.35
652.97	1083.90
653.32	1083.25
653.66	1083.13
654.00	1084.44
654.34	1085.07
654.69	1085.42
655.03	1085.96
655.37	1089.45
655.71	1087.79
656.05	1087.51
656.40	1085.05
656.74	1086.90
657.08	1084.11
657.42	1083.76
657.76	1078.82
658.11	1080.67
658.45	1079.55
658.79	1081.21
659.13	1079.01
659.47	1084.51
659.82	1085.68
660.16	1085.00
660.50	1081.12
660.84	1082.54
661.18	1081.00
661.52	1081.47
661.87	1081.98
662.21	1084.30
662.55	1086.83
662.89	1089.38
663.23	1088.16
663.57	1085.68
663.91	1085.89
664.25	1082.61
664.60	1079.17
664.94	1078.68
665.28	1082.12
665.62	1083.18
665.96	1085.77
666.30	1085.82
666.64	1088.21
666.98	1083.53
667.32	1078.28
667.66	1080.23
668.01	1078.57
668.35	1076.55
668.69	1078.73
669.03	1082.03
669.37	1077.56
669.71	1081.05
670.05	1080.98
670.39	1080.74
670.73	1079.76
671.07	1082.17
671.41	1080.98
671.75	1079.36
672.09	1081.07
672.43	1084.98
672.77	1083.41
673.11	1081.91
673.45	1083.69
673.79	1080.13
674.13	1076.79
674.47	1076.81
674.81	1078.59
675.15	1079.03
675.49	1082.90
675.83	1084.00
676.17	1085.73
676.51	1083.18
676.85	1083.93
677.19	1080.02
677.53	1078.17
677.87	1075.73
678.21	1079.34
678.55	1078.45
678.89	1080.65
679.23	1082.78
679.57	1083.86
679.90	1084.56
680.24	1085.31
680.58	1084.98
680.92	1085.26
681.26	1083.25
681.60	1081.26
681.94	1081.47
682.28	1080.53
682.62	1079.15
682.96	1082.03
683.29	1080.77
683.63	1083.34
683.97	1085.70
684.31	1084.53
684.65	1084.74
684.99	1086.64
685.33	1080.63
685.67	1077.82
686.00	1078.99
686.34	1078.78
686.68	1075.85
687.02	1080.30
687.36	1082.38
687.70	1080.46
688.03	1078.99
688.37	1079.48
688.71	1074.49
689.05	1074.26
689.39	1077.35
689.72	1077.93
690.06	1076.97
690.40	1079.36
690.74	1080.25
691.08	1082.73
691.41	1083.69
691.75	1087.11
692.09	1085.77
692.43	1083.18
692.76	1080.18
693.10	1079.10
693.44	1077.77
693.78	1077.51
694.11	1074.94
694.45	1072.22
694.79	1070.21
695.13	1068.55
695.46	1069.67
695.80	1075.69
696.14	1078.68
696.48	1084.11
696.81	1087.74
697.15	1089.29
697.49	1086.94
697.82	1086.31
698.16	1083.95
698.50	1081.51
698.83	1077.56
699.17	1077.58
699.51	1077.33
699.84	1078.36
700.18	1075.45
700.52	1081.61
700.85	1082.57
701.19	1083.32
701.53	1080.98
701.86	1083.86
702.20	1076.34
702.54	1077.30
702.87	1078.21
703.21	1079.64
703.55	1081.61
703.88	1087.58
704.22	1084.86
704.55	1083.06
704.89	1082.61
705.23	1079.53
705.56	1079.20
705.90	1082.61
706.23	1084.11
706.57	1081.23
706.91	1080.81
707.24	1079.29
707.58	1079.31
707.91	1078.57
708.25	1079.53
708.58	1080.63
708.92	1080.25
709.26	1079.71
709.59	1079.27
709.93	1080.63
710.26	1080.20
710.60	1081.42
710.93	1079.38
711.27	1079.71
711.60	1079.97
711.94	1080.79
712.27	1080.11
712.61	1080.44
712.94	1080.37
713.28	1078.31
713.61	1079.03
713.95	1082.78
714.28	1082.17
714.62	1082.31
714.95	1084.18
715.29	1082.22
715.62	1081.98
715.96	1081.33
716.29	1082.12
716.63	1084.58
716.96	1086.27
717.29	1083.08
717.63	1088.12
717.96	1085.07
718.30	1080.98
718.63	1082.15
718.97	1080.72
719.30	1075.50
719.63	1075.22
719.97	1075.76
720.30	1070.82
720.64	1070.54
720.97	1072.76
721.30	1076.08
721.64	1076.15
721.97	1079.53
722.31	1080.63
722.64	1079.20
722.97	1077.42
723.31	1077.86
723.64	1076.93
723.97	1073.21
724.31	1074.45
724.64	1071.68
724.98	1071.17
725.31	1074.00
725.64	1078.85
725.98	1078.59
726.31	1081.70
726.64	1084.18
726.97	1078.73
727.31	1076.34
727.64	1080.02
727.97	1080.02
728.31	1077.54
728.64	1081.14
728.97	1083.04
729.31	1080.88
729.64	1082.87
729.97	1086.10
730.30	1086.92
730.64	1084.04
730.97	1081.37
731.30	1079.60
731.63	1077.07
731.97	1076.69
732.30	1079.01
732.63	1079.20
732.96	1077.49
733.30	1077.04
733.63	1076.25
733.96	1079.03
734.29	1081.58
734.63	1083.90
734.96	1085.99
735.29	1089.07
735.62	1086.85
735.95	1086.48
736.29	1085.31
736.62	1086.08
736.95	1082.03
737.28	1079.31
737.61	1076.53
737.94	1078.05
738.28	1073.77
738.61	1075.97
738.94	1075.08
739.27	1076.25
739.60	1075.87
739.93	1076.86
740.27	1078.12
740.60	1079.01
740.93	1078.94
741.26	1075.29
741.59	1075.29
741.92	1072.27
742.25	1076.25
742.58	1075.57
742.91	1077.44
743.25	1078.99
743.58	1078.38
743.91	1075.50
744.24	1077.70
744.57	1076.20
744.90	1072.43
745.23	1072.04
745.56	1074.26
745.89	1073.95
746.22	1079.69
746.55	1082.80
746.88	1086.52
747.21	1089.54
747.54	1088.72
747.87	1086.62
748.20	1084.58
748.53	1082.36
748.87	1076.46
749.20	1075.57
749.53	1074.59
749.86	1079.95
750.19	1078.75
750.52	1081.73
750.85	1082.03
751.18	1079.85
751.51	1078.80
751.84	1080.30
752.16	1077.86
752.49	1079.10
752.82	1081.56
753.15	1076.81
753.48	1076.46
753.81	1080.39
754.14	1080.04
754.47	1078.99
754.80	1081.19
755.13	1085.35
755.46	1082.05
755.79	1083.55
756.12	1086.94
756.45	1084.02
756.78	1077.18
757.11	1076.67
757.43	1074.03
757.76	1069.13
758.09	1071.08
758.42	1074.82
758.75	1075.99
759.08	1076.93
759.41	1079.69
759.74	1082.17
760.07	1081.63
760.39	1080.81
760.72	1080.60
761.05	1083.97
761.38	1083.41
761.71	1081.87
762.04	1081.26
762.36	1079.81
762.69	1074.63
763.02	1072.06
763.35	1072.92
763.68	1075.97
