SpectraSuite Data File
++++++++++++++++++++++++++++++++++++
Date: Mon Aug 26 10:22:18 PDT 2019
User: corrico
Dark Spectrum Present: No
Reference Spectrum Present: No
Number of Sampled Component Spectra: 1
Spectrometers: USB2+H06089
Integration Time (usec): 2000 (USB2+H06089)
Spectra Averaged: 20 (USB2+H06089)
Boxcar Smoothing: 2 (USB2+H06089)
Correct for Electrical Dark: No (USB2+H06089)
Strobe/Lamp Enabled: No (USB2+H06089)
Correct for Detector Non-linearity: No (USB2+H06089)
Correct for Stray Light: No (USB2+H06089)
Number of Pixels in Processed Spectrum: 2048
>>>>>Begin Processed Spectral Data<<<<<
339.70	1039.20
340.07	1039.20
340.45	999.57
340.82	977.78
341.19	951.50
341.57	924.09
341.94	912.29
342.31	903.33
342.69	896.66
343.06	892.33
343.43	889.59
343.81	893.57
344.18	896.28
344.55	897.85
344.93	903.96
345.30	911.03
345.67	918.52
346.04	922.31
346.42	930.69
346.79	941.69
347.16	951.05
347.54	957.56
347.91	970.90
348.28	981.88
348.65	992.13
349.03	999.34
349.40	1010.74
349.77	1017.10
350.14	1025.01
350.52	1030.82
350.89	1043.97
351.26	1051.42
351.63	1055.53
352.01	1058.27
352.38	1062.32
352.75	1064.62
353.12	1063.75
353.50	1068.08
353.87	1069.27
354.24	1072.22
354.61	1071.87
354.98	1073.21
355.36	1076.11
355.73	1081.44
356.10	1078.07
356.47	1080.65
356.84	1083.25
357.22	1083.76
357.59	1082.33
357.96	1084.16
358.33	1082.92
358.70	1082.05
359.08	1082.01
359.45	1082.10
359.82	1080.77
360.19	1078.82
360.56	1077.75
360.94	1075.83
361.31	1078.71
361.68	1080.25
362.05	1077.70
362.42	1079.29
362.79	1080.48
363.16	1074.26
363.54	1073.00
363.91	1075.01
364.28	1074.45
364.65	1074.28
365.02	1076.08
365.39	1075.43
365.76	1075.17
366.14	1073.81
366.51	1073.02
366.88	1074.47
367.25	1076.95
367.62	1079.78
367.99	1079.69
368.36	1082.90
368.73	1079.57
369.10	1078.21
369.48	1076.18
369.85	1078.92
370.22	1074.12
370.59	1076.27
370.96	1076.08
371.33	1072.27
371.70	1070.37
372.07	1072.43
372.44	1070.87
372.81	1071.57
373.18	1076.48
373.55	1074.40
373.93	1074.54
374.30	1075.69
374.67	1074.10
375.04	1071.78
375.41	1074.00
375.78	1073.79
376.15	1078.28
376.52	1080.34
376.89	1079.46
377.26	1080.04
377.63	1080.91
378.00	1077.82
378.37	1075.76
378.74	1076.23
379.11	1075.64
379.48	1078.85
379.85	1077.61
380.22	1080.34
380.59	1082.40
380.96	1083.11
381.33	1082.87
381.70	1087.55
382.07	1087.72
382.44	1087.30
382.81	1087.97
383.18	1087.09
383.55	1082.38
383.92	1083.34
384.29	1083.08
384.66	1082.45
385.03	1079.92
385.40	1079.97
385.77	1079.27
386.14	1080.98
386.51	1081.84
386.88	1083.81
387.25	1085.70
387.62	1087.86
387.99	1087.74
388.36	1088.23
388.73	1084.60
389.10	1081.56
389.46	1080.51
389.83	1078.03
390.20	1079.55
390.57	1081.63
390.94	1085.89
391.31	1086.80
391.68	1089.03
392.05	1087.06
392.42	1085.99
392.79	1084.07
393.16	1082.22
393.53	1081.73
393.89	1083.83
394.26	1083.04
394.63	1084.72
395.00	1086.22
395.37	1084.53
395.74	1083.62
396.11	1085.63
396.48	1083.34
396.84	1082.01
397.21	1085.80
397.58	1084.16
397.95	1082.99
398.32	1086.34
398.69	1086.34
399.06	1083.64
399.42	1085.56
399.79	1087.88
400.16	1085.94
400.53	1086.69
400.90	1089.85
401.27	1092.09
401.64	1090.22
402.00	1091.58
402.37	1090.62
402.74	1090.10
403.11	1087.74
403.48	1089.71
403.84	1091.37
404.21	1093.36
404.58	1093.57
404.95	1092.91
405.32	1096.70
405.68	1095.32
406.05	1093.71
406.42	1091.86
406.79	1094.08
407.16	1089.82
407.52	1090.03
407.89	1092.59
408.26	1094.83
408.63	1093.64
408.99	1093.90
409.36	1094.36
409.73	1095.49
410.10	1093.64
410.47	1094.57
410.83	1097.55
411.20	1098.76
411.57	1094.55
411.94	1096.45
412.30	1096.99
412.67	1093.10
413.04	1090.81
413.40	1093.55
413.77	1095.42
414.14	1095.60
414.51	1097.80
414.87	1101.62
415.24	1100.05
415.61	1102.16
415.97	1100.87
416.34	1105.04
416.71	1102.65
417.08	1102.88
417.44	1100.99
417.81	1107.42
418.18	1104.05
418.54	1107.05
418.91	1109.32
419.28	1110.87
419.64	1107.42
420.01	1108.62
420.38	1110.00
420.74	1114.33
421.11	1115.85
421.48	1115.57
421.84	1120.09
422.21	1120.65
422.58	1120.53
422.94	1120.63
423.31	1128.14
423.68	1128.07
424.04	1131.11
424.41	1136.73
424.77	1142.70
425.14	1142.79
425.51	1149.81
425.87	1153.51
426.24	1157.70
426.61	1158.31
426.97	1164.58
427.34	1168.54
427.70	1174.86
428.07	1179.77
428.44	1192.62
428.80	1198.07
429.17	1204.91
429.53	1210.95
429.90	1219.00
430.27	1227.26
430.63	1237.46
431.00	1248.16
431.36	1263.70
431.73	1275.57
432.09	1285.68
432.46	1301.64
432.83	1315.85
433.19	1327.72
433.56	1345.25
433.92	1368.23
434.29	1389.46
434.65	1413.50
435.02	1441.96
435.38	1469.22
435.75	1494.92
436.11	1523.92
436.48	1560.65
436.84	1595.33
437.21	1632.62
437.57	1669.97
437.94	1711.17
438.30	1750.93
438.67	1798.61
439.03	1851.11
439.40	1908.82
439.76	1965.91
440.13	2028.38
440.49	2093.02
440.86	2157.81
441.22	2225.52
441.59	2303.63
441.95	2389.20
442.32	2477.22
442.68	2569.32
443.05	2668.42
443.41	2768.41
443.78	2869.29
444.14	2974.19
444.51	3088.57
444.87	3222.92
445.24	3367.66
445.60	3518.13
445.96	3668.79
446.33	3845.73
446.69	4004.00
447.06	4178.58
447.42	4361.85
447.79	4554.57
448.15	4768.35
448.51	5007.86
448.88	5269.86
449.24	5516.69
449.61	5803.69
449.97	6085.04
450.33	6372.30
450.70	6639.98
451.06	6970.84
451.43	7277.80
451.79	7644.17
452.15	8057.93
452.52	8513.30
452.88	8979.11
453.24	9533.94
453.61	10128.34
453.97	10692.46
454.34	11256.95
454.70	11909.30
455.06	12540.59
455.43	13166.12
455.79	13765.63
456.15	14469.31
456.52	15142.66
456.88	15919.76
457.24	16649.96
457.61	17521.67
457.97	18330.12
458.33	19133.01
458.70	19937.39
459.06	20728.30
459.42	21587.98
459.79	22361.45
460.15	23272.51
460.51	24141.24
460.88	25065.55
461.24	25853.89
461.60	26831.29
461.96	27715.13
462.33	28555.35
462.69	29370.47
463.05	30274.78
463.42	31040.30
463.78	31720.63
464.14	32294.99
464.50	32913.78
464.87	33358.74
465.23	33680.22
465.59	34011.19
465.95	34316.02
466.32	34583.10
466.68	34841.21
467.04	35002.34
467.40	35156.53
467.77	35332.49
468.13	35292.94
468.49	35187.50
468.85	35118.47
469.22	34946.82
469.58	34585.82
469.94	34339.68
470.30	34020.25
470.66	33605.39
471.03	33026.48
471.39	32650.08
471.75	32011.53
472.11	31434.10
472.47	31083.84
472.84	30768.54
473.20	30275.91
473.56	30017.75
473.92	29580.14
474.28	29041.18
474.65	28558.87
475.01	28096.96
475.37	27533.01
475.73	27090.41
476.09	26586.19
476.45	26069.07
476.81	25547.86
477.18	25013.77
477.54	24538.11
477.90	24169.26
478.26	23726.64
478.62	23364.16
478.98	23053.86
479.34	22731.54
479.71	22286.44
480.07	21918.86
480.43	21538.34
480.79	21141.87
481.15	20760.25
481.51	20436.15
481.87	20167.74
482.23	19874.96
482.59	19610.72
482.96	19337.25
483.32	19048.73
483.68	18688.45
484.04	18351.91
484.40	17974.64
484.76	17593.29
485.12	17223.02
485.48	16895.11
485.84	16529.87
486.20	16168.89
486.56	15806.06
486.92	15495.17
487.28	15132.97
487.64	14777.00
488.00	14446.49
488.37	14104.49
488.73	13723.24
489.09	13358.77
489.45	13034.54
489.81	12702.70
490.17	12406.81
490.53	12118.19
490.89	11812.73
491.25	11506.57
491.61	11206.79
491.97	10875.67
492.33	10542.29
492.69	10247.40
493.05	9933.21
493.41	9637.16
493.77	9357.81
494.13	9104.80
494.49	8844.91
494.85	8609.87
495.21	8371.42
495.57	8149.77
495.93	7923.77
496.29	7708.11
496.64	7515.41
497.00	7321.06
497.36	7131.82
497.72	6941.98
498.08	6766.61
498.44	6581.17
498.80	6404.92
499.16	6228.33
499.52	6068.63
499.88	5928.27
500.24	5799.75
500.60	5678.65
500.96	5564.76
501.32	5447.32
501.68	5323.03
502.03	5192.53
502.39	5058.32
502.75	4916.79
503.11	4783.82
503.47	4658.53
503.83	4532.52
504.19	4413.38
504.55	4310.80
504.91	4215.02
505.26	4118.15
505.62	4034.99
505.98	3946.45
506.34	3855.24
506.70	3758.64
507.06	3666.54
507.42	3574.02
507.78	3490.42
508.13	3409.29
508.49	3336.08
508.85	3268.23
509.21	3200.35
509.57	3128.87
509.93	3066.43
510.28	2996.80
510.64	2928.90
511.00	2866.62
511.36	2808.64
511.72	2746.55
512.07	2699.69
512.43	2650.82
512.79	2598.86
513.15	2547.44
513.51	2502.97
513.86	2454.68
514.22	2413.91
514.58	2368.11
514.94	2332.60
515.30	2297.07
515.65	2259.65
516.01	2225.45
516.37	2197.69
516.73	2165.79
517.08	2135.04
517.44	2104.47
517.80	2073.48
518.16	2047.73
518.51	2020.61
518.87	1989.17
519.23	1963.03
519.59	1932.65
519.94	1897.96
520.30	1872.29
520.66	1846.94
521.01	1822.86
521.37	1804.44
521.73	1789.32
522.09	1766.75
522.44	1748.54
522.80	1727.67
523.16	1706.18
523.51	1682.00
523.87	1666.41
524.23	1646.68
524.58	1624.19
524.94	1605.02
525.30	1588.17
525.65	1570.03
526.01	1560.41
526.37	1553.76
526.72	1542.23
527.08	1530.55
527.44	1520.93
527.79	1503.16
528.15	1488.44
528.51	1472.50
528.86	1459.25
529.22	1442.96
529.58	1431.78
529.93	1419.58
530.29	1408.02
530.65	1398.03
531.00	1386.93
531.36	1378.32
531.71	1368.16
532.07	1359.87
532.43	1350.98
532.78	1343.30
533.14	1331.79
533.49	1323.71
533.85	1318.87
534.21	1313.13
534.56	1308.99
534.92	1305.43
535.27	1297.99
535.63	1292.21
535.98	1285.96
536.34	1276.13
536.69	1270.09
537.05	1265.64
537.41	1260.26
537.76	1257.87
538.12	1256.05
538.47	1252.00
538.83	1249.45
539.18	1244.42
539.54	1235.24
539.89	1232.18
540.25	1226.86
540.60	1220.47
540.96	1217.99
541.31	1217.31
541.67	1211.60
542.02	1209.19
542.38	1207.95
542.73	1202.22
543.09	1199.95
543.44	1197.91
543.80	1195.24
544.15	1188.34
544.51	1187.70
544.86	1183.42
545.22	1178.55
545.57	1174.57
545.93	1177.45
546.28	1173.22
546.64	1170.90
546.99	1170.85
547.35	1168.70
547.70	1164.58
548.05	1163.90
548.41	1161.23
548.76	1158.64
549.12	1157.56
549.47	1156.37
549.83	1154.09
550.18	1153.23
550.53	1150.02
550.89	1146.32
551.24	1141.83
551.60	1139.79
551.95	1136.73
552.30	1137.29
552.66	1139.68
553.01	1139.65
553.37	1137.27
553.72	1136.82
554.07	1133.40
554.43	1127.18
554.78	1126.83
555.13	1124.28
555.49	1122.94
555.84	1123.04
556.19	1127.81
556.55	1131.11
556.90	1131.02
557.26	1130.43
557.61	1131.11
557.96	1127.04
558.32	1121.30
558.67	1124.23
559.02	1124.11
559.37	1123.08
559.73	1121.94
560.08	1119.74
560.43	1115.45
560.79	1115.80
561.14	1114.05
561.49	1113.56
561.85	1115.50
562.20	1115.12
562.55	1111.92
562.90	1107.26
563.26	1105.95
563.61	1105.58
563.96	1106.89
564.32	1107.28
564.67	1110.16
565.02	1108.45
565.37	1106.77
565.73	1106.18
566.08	1105.34
566.43	1101.95
566.78	1103.42
567.14	1101.92
567.49	1100.64
567.84	1100.89
568.19	1105.97
568.54	1105.53
568.90	1104.87
569.25	1103.52
569.60	1102.32
569.95	1098.69
570.31	1096.35
570.66	1094.39
571.01	1091.25
571.36	1089.61
571.71	1090.69
572.06	1094.93
572.42	1099.23
572.77	1102.93
573.12	1104.57
573.47	1103.26
573.82	1098.93
574.18	1096.80
574.53	1095.37
574.88	1095.72
575.23	1094.50
575.58	1095.91
575.93	1093.69
576.28	1094.81
576.64	1093.24
576.99	1094.65
577.34	1094.53
577.69	1094.20
578.04	1091.06
578.39	1090.43
578.74	1092.14
579.09	1089.05
579.44	1088.14
579.80	1091.04
580.15	1093.47
580.50	1090.32
580.85	1092.12
581.20	1097.27
581.55	1096.00
581.90	1094.06
582.25	1095.37
582.60	1094.69
582.95	1092.59
583.30	1093.15
583.65	1091.30
584.00	1088.40
584.35	1087.65
584.71	1086.03
585.06	1082.54
585.41	1082.22
585.76	1083.93
586.11	1085.31
586.46	1087.39
586.81	1090.41
587.16	1086.99
587.51	1087.23
587.86	1087.48
588.21	1085.52
588.56	1084.23
588.91	1088.93
589.26	1089.07
589.61	1089.75
589.96	1089.33
590.31	1090.03
590.66	1086.57
591.01	1085.87
591.36	1084.98
591.71	1086.48
592.06	1083.97
592.41	1086.08
592.76	1085.28
593.10	1082.94
593.45	1083.57
593.80	1084.16
594.15	1086.48
594.50	1085.68
594.85	1087.51
595.20	1085.26
595.55	1087.62
595.90	1085.17
596.25	1084.65
596.60	1083.71
596.95	1083.79
597.30	1081.00
597.64	1091.13
597.99	1095.49
598.34	1097.57
598.69	1100.52
599.04	1102.37
599.39	1095.07
599.74	1088.84
600.09	1086.15
600.44	1083.53
600.78	1082.45
601.13	1080.46
601.48	1086.13
601.83	1089.52
602.18	1088.72
602.53	1089.71
602.88	1089.71
603.22	1086.66
603.57	1082.17
603.92	1081.84
604.27	1082.80
604.62	1081.28
604.97	1082.52
605.31	1088.61
605.66	1088.96
606.01	1086.55
606.36	1088.37
606.71	1086.31
607.05	1084.23
607.40	1081.82
607.75	1078.85
608.10	1078.92
608.44	1083.18
608.79	1079.78
609.14	1081.30
609.49	1084.58
609.84	1084.14
610.18	1079.38
610.53	1083.01
610.88	1085.33
611.23	1090.69
611.57	1086.85
611.92	1086.85
612.27	1086.29
612.62	1085.66
612.96	1079.71
613.31	1082.33
613.66	1086.55
614.00	1085.84
614.35	1086.08
614.70	1086.10
615.05	1085.77
615.39	1082.99
615.74	1081.73
616.09	1083.43
616.43	1083.36
616.78	1085.66
617.13	1087.81
617.47	1090.29
617.82	1088.51
618.17	1088.44
618.51	1088.09
618.86	1086.87
619.21	1081.09
619.55	1083.39
619.90	1084.39
620.25	1082.08
620.59	1079.99
620.94	1083.39
621.29	1080.04
621.63	1080.84
621.98	1083.93
622.32	1083.93
622.67	1085.91
623.02	1085.40
623.36	1084.02
623.71	1080.02
624.05	1081.70
624.40	1078.38
624.75	1079.17
625.09	1077.72
625.44	1081.30
625.78	1080.37
626.13	1081.05
626.48	1082.66
626.82	1084.14
627.17	1082.38
627.51	1084.23
627.86	1086.17
628.20	1086.20
628.55	1086.57
628.89	1088.26
629.24	1089.05
629.58	1083.86
629.93	1079.10
630.28	1076.74
630.62	1075.52
630.97	1072.22
631.31	1075.94
631.66	1079.01
632.00	1082.40
632.35	1082.31
632.69	1084.81
633.04	1085.10
633.38	1086.45
633.73	1086.50
634.07	1084.84
634.42	1082.24
634.76	1081.56
635.11	1080.06
635.45	1081.77
635.79	1083.43
636.14	1085.73
636.48	1084.70
636.83	1083.41
637.17	1078.75
637.52	1075.69
637.86	1075.03
638.21	1075.55
638.55	1077.11
638.89	1078.14
639.24	1080.77
639.58	1081.87
639.93	1084.51
640.27	1085.05
640.61	1085.73
640.96	1085.75
641.30	1087.76
641.65	1088.28
641.99	1088.98
642.33	1091.46
642.68	1093.64
643.02	1090.57
643.37	1087.39
643.71	1084.49
644.05	1083.11
644.40	1080.13
644.74	1082.05
645.08	1082.52
645.43	1084.84
645.77	1082.80
646.11	1086.24
646.46	1082.19
646.80	1083.29
647.14	1084.21
647.49	1085.19
647.83	1084.28
648.17	1087.44
648.52	1085.75
648.86	1085.00
649.20	1084.60
649.55	1083.32
649.89	1084.28
650.23	1085.56
650.57	1085.42
650.92	1087.34
651.26	1085.49
651.60	1080.44
651.95	1083.01
652.29	1082.33
652.63	1078.31
652.97	1078.68
653.32	1080.13
653.66	1076.37
654.00	1075.92
654.34	1079.67
654.69	1081.00
655.03	1082.29
655.37	1083.08
655.71	1080.60
656.05	1083.29
656.40	1082.10
656.74	1082.38
657.08	1082.29
657.42	1086.01
657.76	1081.09
658.11	1081.94
658.45	1079.88
658.79	1081.66
659.13	1080.06
659.47	1081.26
659.82	1082.54
660.16	1082.85
660.50	1082.87
660.84	1084.60
661.18	1082.05
661.52	1078.00
661.87	1080.58
662.21	1078.10
662.55	1077.79
662.89	1079.95
663.23	1083.32
663.57	1083.57
663.91	1085.24
664.25	1085.68
664.60	1088.09
664.94	1086.76
665.28	1085.68
665.62	1084.63
665.96	1083.01
666.30	1082.36
666.64	1083.81
666.98	1082.01
667.32	1084.28
667.66	1085.12
668.01	1083.15
668.35	1083.83
668.69	1085.52
669.03	1084.84
669.37	1082.99
669.71	1082.03
670.05	1078.82
670.39	1079.53
670.73	1082.15
671.07	1082.59
671.41	1081.26
671.75	1079.55
672.09	1076.86
672.43	1074.89
672.77	1073.95
673.11	1076.65
673.45	1081.28
673.79	1081.23
674.13	1079.97
674.47	1079.06
674.81	1078.38
675.15	1077.77
675.49	1079.71
675.83	1081.00
676.17	1082.83
676.51	1085.42
676.85	1084.98
677.19	1084.39
677.53	1085.10
677.87	1085.54
678.21	1085.47
678.55	1084.09
678.89	1087.44
679.23	1086.13
679.57	1085.24
679.90	1082.08
680.24	1083.46
680.58	1079.69
680.92	1077.40
681.26	1078.40
681.60	1078.80
681.94	1076.69
682.28	1081.21
682.62	1082.36
682.96	1082.29
683.29	1082.24
683.63	1082.59
683.97	1078.50
684.31	1077.86
684.65	1076.88
684.99	1077.75
685.33	1078.45
685.67	1079.76
686.00	1081.02
686.34	1082.47
686.68	1083.36
687.02	1086.69
687.36	1086.50
687.70	1084.25
688.03	1084.46
688.37	1084.70
688.71	1082.15
689.05	1081.02
689.39	1084.02
689.72	1084.44
690.06	1083.88
690.40	1083.88
690.74	1082.73
691.08	1081.56
691.41	1079.06
691.75	1081.19
692.09	1082.97
692.43	1086.55
692.76	1085.82
693.10	1087.27
693.44	1086.06
693.78	1084.35
694.11	1082.29
694.45	1080.32
694.79	1081.73
695.13	1079.53
695.46	1078.89
695.80	1081.02
696.14	1084.63
696.48	1083.36
696.81	1082.71
697.15	1085.73
697.49	1084.07
697.82	1082.05
698.16	1081.26
698.50	1083.71
698.83	1080.53
699.17	1080.67
699.51	1082.01
699.84	1079.03
700.18	1076.60
700.52	1075.41
700.85	1073.77
701.19	1073.56
701.53	1075.45
701.86	1077.68
702.20	1077.14
702.54	1078.00
702.87	1076.83
703.21	1079.67
703.55	1082.03
703.88	1084.84
704.22	1086.69
704.55	1087.93
704.89	1088.14
705.23	1086.34
705.56	1086.94
705.90	1085.00
706.23	1084.91
706.57	1081.73
706.91	1082.52
707.24	1079.22
707.58	1079.48
707.91	1076.32
708.25	1077.58
708.58	1076.53
708.92	1076.08
709.26	1075.87
709.59	1078.82
709.93	1079.13
710.26	1077.47
710.60	1080.77
710.93	1082.57
711.27	1081.51
711.60	1084.70
711.94	1086.59
712.27	1083.74
712.61	1082.26
712.94	1083.97
713.28	1081.40
713.61	1079.13
713.95	1084.39
714.28	1084.28
714.62	1080.23
714.95	1081.33
715.29	1083.79
715.62	1081.47
715.96	1081.14
716.29	1084.46
716.63	1083.18
716.96	1083.22
717.29	1080.27
717.63	1081.23
717.96	1079.10
718.30	1078.54
718.63	1076.34
718.97	1080.27
719.30	1078.00
719.63	1081.73
719.97	1084.58
720.30	1083.93
720.64	1085.70
720.97	1085.87
721.30	1083.06
721.64	1081.89
721.97	1081.87
722.31	1076.06
722.64	1076.93
722.97	1078.14
723.31	1076.41
723.64	1076.01
723.97	1078.50
724.31	1078.96
724.64	1078.19
724.98	1078.26
725.31	1076.90
725.64	1076.13
725.98	1077.16
726.31	1081.73
726.64	1082.94
726.97	1086.38
727.31	1085.10
727.64	1083.64
727.97	1079.99
728.31	1077.18
728.64	1075.92
728.97	1079.62
729.31	1082.43
729.64	1079.31
729.97	1080.18
730.30	1083.01
730.64	1082.17
730.97	1077.51
731.30	1083.06
731.63	1082.45
731.97	1079.71
732.30	1076.13
732.63	1079.36
732.96	1076.25
733.30	1075.92
733.63	1078.64
733.96	1082.01
734.29	1081.58
734.63	1082.01
734.96	1084.02
735.29	1080.79
735.62	1079.06
735.95	1081.68
736.29	1080.88
736.62	1078.52
736.95	1080.27
737.28	1082.08
737.61	1078.12
737.94	1077.82
738.28	1077.56
738.61	1077.04
738.94	1073.72
739.27	1071.94
739.60	1073.84
739.93	1071.99
740.27	1070.21
740.60	1072.85
740.93	1075.57
741.26	1075.87
741.59	1076.37
741.92	1082.08
742.25	1083.01
742.58	1082.03
742.91	1082.76
743.25	1085.99
743.58	1082.36
743.91	1081.73
744.24	1081.05
744.57	1077.21
744.90	1078.57
745.23	1077.61
745.56	1076.60
745.89	1077.82
746.22	1082.94
746.55	1082.64
746.88	1081.21
747.21	1079.29
747.54	1080.18
747.87	1076.04
748.20	1075.66
748.53	1077.04
748.87	1081.21
749.20	1078.89
749.53	1079.03
749.86	1078.50
750.19	1077.89
750.52	1075.76
750.85	1076.90
751.18	1078.17
751.51	1079.43
751.84	1078.07
752.16	1072.53
752.49	1071.05
752.82	1071.47
753.15	1073.88
753.48	1077.40
753.81	1083.60
754.14	1086.59
754.47	1082.90
754.80	1076.62
755.13	1074.94
755.46	1074.21
755.79	1070.16
756.12	1071.66
756.45	1073.35
756.78	1072.62
757.11	1070.51
757.43	1071.80
757.76	1073.37
758.09	1073.11
758.42	1073.65
758.75	1077.56
759.08	1080.16
759.41	1080.51
759.74	1080.30
760.07	1079.50
760.39	1079.78
760.72	1080.93
761.05	1079.31
761.38	1081.51
761.71	1084.39
762.04	1082.40
762.36	1078.33
762.69	1079.60
763.02	1081.09
763.35	1080.44
763.68	1079.34
764.01	1079.10
