SpectraSuite Data File
++++++++++++++++++++++++++++++++++++
Date: Mon Aug 26 10:22:29 PDT 2019
User: corrico
Dark Spectrum Present: No
Reference Spectrum Present: No
Number of Sampled Component Spectra: 1
Spectrometers: USB2+H06089
Integration Time (usec): 2000 (USB2+H06089)
Spectra Averaged: 20 (USB2+H06089)
Boxcar Smoothing: 2 (USB2+H06089)
Correct for Electrical Dark: No (USB2+H06089)
Strobe/Lamp Enabled: No (USB2+H06089)
Correct for Detector Non-linearity: No (USB2+H06089)
Correct for Stray Light: No (USB2+H06089)
Number of Pixels in Processed Spectrum: 2048
>>>>>Begin Processed Spectral Data<<<<<
339.70	1016.26
340.07	1016.26
340.45	987.59
340.82	968.75
341.19	943.35
341.57	917.40
341.94	903.49
342.31	895.18
342.69	889.03
343.06	891.60
343.43	892.89
343.81	895.54
344.18	900.22
344.55	905.25
344.93	907.29
345.30	913.16
345.67	920.65
346.04	927.32
346.42	933.55
346.79	945.25
347.16	957.23
347.54	964.25
347.91	971.58
348.28	983.98
348.65	991.12
349.03	997.63
349.40	1011.28
349.77	1022.88
350.14	1028.67
350.52	1033.70
350.89	1041.94
351.26	1045.31
351.63	1047.32
352.01	1052.28
352.38	1059.30
352.75	1062.04
353.12	1064.41
353.50	1068.71
353.87	1071.80
354.24	1075.29
354.61	1078.33
354.98	1080.95
355.36	1082.66
355.73	1083.97
356.10	1083.43
356.47	1080.98
356.84	1081.23
357.22	1082.85
357.59	1083.06
357.96	1082.50
358.33	1081.19
358.70	1082.50
359.08	1078.82
359.45	1077.61
359.82	1076.51
360.19	1078.94
360.56	1076.60
360.94	1076.72
361.31	1079.74
361.68	1077.91
362.05	1075.01
362.42	1074.12
362.79	1074.05
363.16	1071.10
363.54	1073.37
363.91	1075.87
364.28	1074.96
364.65	1075.83
365.02	1075.20
365.39	1072.27
365.76	1072.55
366.14	1073.91
366.51	1072.06
366.88	1071.54
367.25	1072.64
367.62	1070.16
367.99	1071.40
368.36	1073.70
368.73	1074.87
369.10	1075.13
369.48	1078.17
369.85	1076.62
370.22	1072.39
370.59	1070.84
370.96	1071.78
371.33	1070.80
371.70	1070.21
372.07	1071.26
372.44	1072.20
372.81	1071.75
373.18	1073.14
373.55	1074.35
373.93	1073.93
374.30	1073.07
374.67	1073.74
375.04	1076.01
375.41	1075.41
375.78	1080.04
376.15	1080.81
376.52	1082.29
376.89	1078.54
377.26	1078.17
377.63	1076.39
378.00	1075.17
378.37	1075.01
378.74	1076.34
379.11	1076.39
379.48	1079.17
379.85	1082.19
380.22	1081.42
380.59	1080.44
380.96	1080.56
381.33	1080.56
381.70	1079.88
382.07	1078.47
382.44	1079.60
382.81	1081.82
383.18	1077.89
383.55	1077.49
383.92	1081.19
384.29	1080.63
384.66	1079.01
385.03	1081.19
385.40	1082.15
385.77	1081.07
386.14	1080.65
386.51	1081.23
386.88	1082.59
387.25	1079.43
387.62	1075.66
387.99	1078.31
388.36	1077.65
388.73	1077.70
389.10	1080.63
389.46	1083.71
389.83	1081.54
390.20	1084.09
390.57	1084.09
390.94	1083.90
391.31	1083.53
391.68	1085.10
392.05	1084.07
392.42	1081.96
392.79	1081.68
393.16	1081.75
393.53	1081.19
393.89	1080.13
394.26	1082.05
394.63	1084.02
395.00	1084.91
395.37	1086.36
395.74	1088.09
396.11	1085.68
396.48	1088.77
396.84	1089.61
397.21	1087.95
397.58	1087.37
397.95	1090.22
398.32	1085.24
398.69	1083.08
399.06	1084.93
399.42	1088.21
399.79	1087.74
400.16	1089.36
400.53	1091.39
400.90	1090.90
401.27	1087.72
401.64	1086.73
402.00	1087.79
402.37	1089.38
402.74	1090.50
403.11	1090.60
403.48	1094.36
403.84	1092.47
404.21	1090.06
404.58	1090.24
404.95	1092.09
405.32	1091.13
405.68	1091.60
406.05	1092.75
406.42	1091.32
406.79	1088.93
407.16	1088.42
407.52	1089.00
407.89	1086.83
408.26	1086.87
408.63	1088.91
408.99	1085.14
409.36	1086.03
409.73	1089.54
410.10	1090.06
410.47	1088.40
410.83	1092.66
411.20	1095.53
411.57	1095.09
411.94	1092.33
412.30	1091.51
412.67	1092.59
413.04	1091.04
413.40	1093.92
413.77	1099.05
414.14	1101.53
414.51	1102.86
414.87	1103.26
415.24	1103.16
415.61	1104.99
415.97	1106.39
416.34	1106.44
416.71	1107.05
417.08	1105.65
417.44	1103.94
417.81	1104.08
418.18	1102.21
418.54	1103.56
418.91	1105.20
419.28	1104.01
419.64	1108.43
420.01	1111.50
420.38	1111.03
420.74	1115.45
421.11	1118.73
421.48	1118.42
421.84	1118.21
422.21	1123.01
422.58	1121.84
422.94	1126.57
423.31	1127.69
423.68	1132.84
424.04	1131.16
424.41	1134.22
424.77	1135.32
425.14	1139.82
425.51	1141.50
425.87	1147.31
426.24	1153.14
426.61	1160.41
426.97	1164.98
427.34	1173.40
427.70	1181.20
428.07	1188.78
428.44	1194.02
428.80	1204.72
429.17	1211.04
429.53	1218.46
429.90	1226.82
430.27	1238.00
430.63	1244.58
431.00	1252.05
431.36	1266.37
431.73	1275.66
432.09	1284.51
432.46	1299.75
432.83	1320.11
433.19	1333.89
433.56	1353.27
433.92	1376.80
434.29	1398.38
434.65	1416.94
435.02	1440.30
435.38	1466.37
435.75	1489.68
436.11	1520.48
436.48	1553.86
436.84	1589.20
437.21	1626.56
437.57	1668.19
437.94	1704.57
438.30	1752.08
438.67	1796.62
439.03	1842.10
439.40	1894.03
439.76	1951.14
440.13	2009.23
440.49	2073.50
440.86	2142.22
441.22	2212.58
441.59	2285.84
441.95	2364.46
442.32	2453.02
442.68	2549.94
443.05	2643.96
443.41	2747.88
443.78	2852.13
444.14	2956.94
444.51	3069.82
444.87	3211.57
445.24	3354.25
445.60	3501.32
445.96	3654.44
446.33	3826.50
446.69	3987.20
447.06	4155.39
447.42	4339.54
447.79	4534.67
448.15	4746.42
448.51	4980.68
448.88	5250.08
449.24	5499.67
449.61	5777.82
449.97	6062.78
450.33	6337.19
450.70	6595.96
451.06	6930.84
451.43	7237.85
451.79	7595.27
452.15	8005.92
452.52	8466.47
452.88	8922.85
453.24	9462.86
453.61	10048.88
453.97	10608.13
454.34	11144.30
454.70	11789.04
455.06	12430.37
455.43	13065.53
455.79	13662.06
456.15	14376.88
456.52	15027.99
456.88	15775.70
457.24	16480.77
457.61	17346.60
457.97	18123.54
458.33	18919.53
458.70	19704.53
459.06	20466.60
459.42	21294.71
459.79	22060.16
460.15	22955.20
460.51	23820.33
460.88	24762.00
461.24	25551.32
461.60	26535.24
461.96	27399.48
462.33	28227.35
462.69	28983.74
463.05	29825.87
463.42	30524.71
463.78	31161.99
464.14	31716.30
464.50	32333.40
464.87	32818.99
465.23	33166.09
465.59	33527.57
465.95	33828.86
466.32	34074.53
466.68	34302.68
467.04	34445.66
467.40	34593.70
467.77	34752.88
468.13	34745.53
468.49	34637.07
468.85	34566.34
469.22	34382.61
469.58	34022.33
469.94	33773.13
470.30	33468.61
470.66	33061.68
471.03	32463.68
471.39	32072.74
471.75	31416.78
472.11	30806.90
472.47	30432.09
472.84	30143.78
473.20	29653.79
473.56	29398.25
473.92	28992.54
474.28	28474.47
474.65	27979.09
475.01	27526.83
475.37	26965.80
475.73	26503.85
476.09	25987.13
476.45	25462.45
476.81	24919.66
477.18	24367.69
477.54	23899.82
477.90	23538.02
478.26	23114.90
478.62	22798.03
478.98	22500.76
479.34	22187.41
479.71	21781.63
480.07	21437.29
480.43	21070.81
480.79	20693.21
481.15	20345.60
481.51	20034.52
481.87	19778.74
482.23	19490.41
482.59	19260.50
482.96	18970.53
483.32	18682.46
483.68	18313.05
484.04	17979.60
484.40	17591.42
484.76	17231.23
485.12	16861.50
485.48	16549.32
485.84	16201.19
486.20	15851.51
486.56	15492.75
486.92	15181.21
487.28	14819.50
487.64	14459.29
488.00	14137.21
488.37	13809.58
488.73	13447.50
489.09	13097.59
489.45	12784.38
489.81	12450.11
490.17	12149.44
490.53	11859.00
490.89	11555.53
491.25	11252.48
491.61	10955.28
491.97	10635.23
492.33	10307.20
492.69	10010.17
493.05	9703.60
493.41	9413.87
493.77	9143.05
494.13	8896.03
494.49	8655.93
494.85	8422.49
495.21	8202.92
495.57	7984.90
495.93	7759.23
496.29	7554.73
496.64	7371.68
497.00	7178.07
497.36	6980.88
497.72	6803.54
498.08	6619.53
498.44	6436.15
498.80	6265.12
499.16	6108.52
499.52	5944.40
499.88	5809.37
500.24	5686.12
500.60	5560.93
500.96	5445.84
501.32	5339.04
501.68	5224.22
502.03	5097.15
502.39	4987.89
502.75	4859.58
503.11	4730.74
503.47	4604.75
503.83	4487.09
504.19	4358.80
504.55	4246.97
504.91	4157.63
505.26	4060.17
505.62	3973.93
505.98	3885.31
506.34	3796.35
506.70	3696.43
507.06	3607.19
507.42	3521.62
507.78	3441.15
508.13	3364.17
508.49	3291.61
508.85	3220.53
509.21	3145.14
509.57	3079.28
509.93	3016.72
510.28	2953.55
510.64	2890.75
511.00	2832.75
511.36	2773.98
511.72	2719.23
512.07	2669.73
512.43	2624.23
512.79	2569.86
513.15	2521.67
513.51	2469.85
513.86	2423.72
514.22	2379.51
514.58	2339.76
514.94	2300.33
515.30	2267.18
515.65	2229.76
516.01	2194.42
516.37	2160.74
516.73	2129.35
517.08	2102.04
517.44	2074.56
517.80	2044.69
518.16	2025.20
518.51	1999.73
518.87	1970.54
519.23	1942.32
519.59	1916.17
519.94	1884.44
520.30	1858.81
520.66	1831.98
521.01	1808.25
521.37	1789.60
521.73	1771.01
522.09	1752.41
522.44	1738.71
522.80	1722.00
523.16	1698.18
523.51	1679.29
523.87	1654.74
524.23	1632.29
524.58	1610.57
524.94	1596.62
525.30	1576.37
525.65	1565.12
526.01	1546.04
526.37	1532.93
526.72	1518.84
527.08	1505.20
527.44	1492.56
527.79	1480.74
528.15	1468.92
528.51	1454.81
528.86	1446.08
529.22	1432.97
529.58	1417.87
529.93	1408.09
530.29	1400.39
530.65	1390.56
531.00	1381.83
531.36	1375.93
531.71	1366.87
532.07	1357.21
532.43	1344.38
532.78	1336.40
533.14	1331.88
533.49	1322.94
533.85	1317.93
534.21	1316.11
534.56	1308.50
534.92	1302.13
535.27	1297.62
535.63	1291.06
535.98	1280.13
536.34	1275.10
536.69	1271.36
537.05	1260.64
537.41	1255.60
537.76	1254.41
538.12	1250.27
538.47	1243.64
538.83	1242.50
539.18	1239.29
539.54	1235.80
539.89	1230.14
540.25	1226.56
540.60	1224.15
540.96	1220.89
541.31	1217.41
541.67	1215.00
542.02	1209.14
542.38	1206.12
542.73	1200.41
543.09	1197.46
543.44	1193.51
543.80	1191.89
544.15	1187.45
544.51	1187.03
544.86	1182.88
545.22	1182.88
545.57	1181.92
545.93	1176.14
546.28	1170.69
546.64	1169.21
546.99	1163.13
547.35	1159.97
547.70	1162.08
548.05	1160.23
548.41	1157.42
548.76	1154.16
549.12	1152.34
549.47	1150.56
549.83	1148.36
550.18	1147.26
550.53	1147.40
550.89	1143.54
551.24	1139.58
551.60	1136.85
551.95	1134.48
552.30	1131.93
552.66	1130.24
553.01	1130.08
553.37	1131.25
553.72	1131.37
554.07	1128.58
554.43	1126.73
554.78	1126.29
555.13	1124.70
555.49	1123.32
555.84	1124.02
556.19	1127.23
556.55	1127.44
556.90	1126.27
557.26	1124.56
557.61	1123.90
557.96	1120.53
558.32	1122.22
558.67	1122.64
559.02	1119.95
559.37	1119.74
559.73	1121.33
560.08	1117.75
560.43	1115.17
560.79	1115.80
561.14	1116.58
561.49	1116.88
561.85	1111.33
562.20	1109.84
562.55	1109.16
562.90	1107.28
563.26	1104.69
563.61	1110.56
563.96	1113.42
564.32	1113.49
564.67	1113.14
565.02	1110.98
565.37	1107.47
565.73	1106.44
566.08	1103.73
566.43	1102.81
566.78	1103.12
567.14	1103.35
567.49	1099.68
567.84	1099.26
568.19	1100.24
568.54	1096.99
568.90	1097.17
569.25	1099.09
569.60	1103.70
569.95	1105.20
570.31	1106.44
570.66	1104.71
571.01	1105.76
571.36	1103.38
571.71	1099.30
572.06	1100.89
572.42	1100.52
572.77	1098.44
573.12	1095.82
573.47	1098.69
573.82	1099.56
574.18	1100.17
574.53	1099.28
574.88	1098.69
575.23	1097.76
575.58	1097.31
575.93	1099.28
576.28	1098.83
576.64	1101.39
576.99	1099.93
577.34	1096.31
577.69	1093.69
578.04	1092.61
578.39	1092.07
578.74	1091.11
579.09	1092.28
579.44	1091.91
579.80	1089.89
580.15	1090.27
580.50	1092.00
580.85	1092.47
581.20	1091.81
581.55	1094.97
581.90	1091.49
582.25	1089.03
582.60	1086.78
582.95	1084.25
583.30	1083.08
583.65	1086.31
584.00	1086.06
584.35	1087.09
584.71	1090.06
585.06	1088.96
585.41	1085.68
585.76	1086.83
586.11	1089.24
586.46	1089.14
586.81	1090.01
587.16	1090.90
587.51	1090.60
587.86	1088.93
588.21	1088.40
588.56	1090.50
588.91	1090.10
589.26	1087.55
589.61	1087.34
589.96	1087.20
590.31	1085.89
590.66	1086.71
591.01	1088.56
591.36	1088.07
591.71	1089.47
592.06	1089.29
592.41	1087.55
592.76	1088.26
593.10	1089.47
593.45	1090.20
593.80	1091.49
594.15	1092.47
594.50	1090.15
594.85	1089.43
595.20	1089.57
595.55	1087.79
595.90	1089.59
596.25	1093.22
596.60	1090.24
596.95	1086.08
597.30	1087.86
597.64	1096.89
597.99	1094.95
598.34	1096.99
598.69	1099.09
599.04	1099.00
599.39	1088.75
599.74	1091.46
600.09	1093.08
600.44	1092.16
600.78	1090.81
601.13	1087.81
601.48	1082.69
601.83	1080.46
602.18	1078.47
602.53	1076.74
602.88	1078.61
603.22	1082.43
603.57	1082.08
603.92	1083.29
604.27	1083.64
604.62	1081.02
604.97	1079.50
605.31	1082.38
605.66	1084.35
606.01	1087.30
606.36	1088.09
606.71	1088.26
607.05	1085.21
607.40	1085.40
607.75	1084.11
608.10	1086.06
608.44	1084.07
608.79	1086.15
609.14	1086.85
609.49	1086.01
609.84	1086.55
610.18	1086.48
610.53	1086.03
610.88	1084.30
611.23	1085.52
611.57	1088.54
611.92	1089.64
612.27	1089.19
612.62	1092.68
612.96	1092.28
613.31	1090.27
613.66	1089.66
614.00	1089.40
614.35	1083.11
614.70	1083.64
615.05	1082.57
615.39	1082.24
615.74	1083.36
616.09	1086.66
616.43	1084.11
616.78	1082.19
617.13	1083.69
617.47	1081.21
617.82	1082.57
618.17	1084.14
618.51	1085.45
618.86	1083.62
619.21	1085.45
619.55	1083.01
619.90	1082.97
620.25	1086.13
620.59	1090.57
620.94	1090.01
621.29	1091.49
621.63	1090.39
621.98	1087.32
622.32	1086.01
622.67	1088.02
623.02	1086.43
623.36	1086.76
623.71	1086.83
624.05	1083.43
624.40	1082.97
624.75	1083.83
625.09	1086.45
625.44	1086.24
625.78	1086.99
626.13	1086.76
626.48	1084.91
626.82	1082.10
627.17	1082.57
627.51	1084.28
627.86	1083.32
628.20	1085.00
628.55	1086.85
628.89	1084.72
629.24	1084.42
629.58	1086.45
629.93	1085.52
630.28	1083.60
630.62	1087.23
630.97	1089.99
631.31	1086.59
631.66	1085.80
632.00	1084.58
632.35	1082.94
632.69	1080.09
633.04	1079.74
633.38	1083.36
633.73	1084.70
634.07	1084.04
634.42	1083.13
634.76	1084.11
635.11	1083.71
635.45	1087.16
635.79	1088.30
636.14	1091.39
636.48	1093.33
636.83	1090.50
637.17	1086.83
637.52	1083.22
637.86	1081.07
638.21	1078.68
638.55	1081.40
638.89	1081.30
639.24	1083.32
639.58	1081.70
639.93	1082.43
640.27	1081.26
640.61	1081.26
640.96	1079.50
641.30	1082.66
641.65	1082.15
641.99	1082.69
642.33	1084.37
642.68	1086.48
643.02	1081.96
643.37	1082.85
643.71	1081.40
644.05	1078.03
644.40	1079.81
644.74	1082.47
645.08	1081.30
645.43	1083.83
645.77	1084.89
646.11	1080.65
646.46	1080.18
646.80	1081.98
647.14	1079.10
647.49	1080.34
647.83	1079.27
648.17	1077.68
648.52	1076.06
648.86	1077.54
649.20	1076.04
649.55	1078.43
649.89	1079.48
650.23	1079.41
650.57	1077.54
650.92	1077.77
651.26	1077.02
651.60	1078.99
651.95	1081.02
652.29	1079.31
652.63	1079.90
652.97	1081.49
653.32	1079.48
653.66	1076.11
654.00	1081.09
654.34	1084.51
654.69	1082.99
655.03	1083.83
655.37	1086.43
655.71	1082.50
656.05	1078.52
656.40	1080.51
656.74	1081.75
657.08	1079.31
657.42	1079.01
657.76	1080.06
658.11	1081.19
658.45	1078.10
658.79	1081.12
659.13	1083.11
659.47	1085.75
659.82	1085.10
660.16	1085.89
660.50	1085.47
660.84	1085.03
661.18	1085.07
661.52	1086.03
661.87	1087.32
662.21	1084.42
662.55	1083.06
662.89	1080.11
663.23	1079.85
663.57	1080.72
663.91	1083.34
664.25	1084.00
664.60	1087.04
664.94	1085.61
665.28	1082.52
665.62	1081.09
665.96	1080.23
666.30	1075.97
666.64	1073.93
666.98	1075.24
667.32	1076.18
667.66	1075.45
668.01	1078.21
668.35	1080.32
668.69	1077.25
669.03	1077.96
669.37	1079.57
669.71	1075.01
670.05	1072.15
670.39	1075.69
670.73	1075.10
671.07	1071.99
671.41	1077.23
671.75	1080.86
672.09	1081.19
672.43	1083.34
672.77	1088.79
673.11	1084.72
673.45	1084.46
673.79	1082.73
674.13	1079.06
674.47	1075.05
674.81	1074.26
675.15	1072.39
675.49	1072.83
675.83	1072.15
676.17	1075.64
676.51	1076.55
676.85	1077.33
677.19	1074.80
677.53	1076.53
677.87	1079.76
678.21	1078.54
678.55	1077.77
678.89	1082.22
679.23	1079.85
679.57	1074.61
679.90	1077.72
680.24	1077.86
680.58	1078.05
680.92	1078.78
681.26	1078.10
681.60	1077.00
681.94	1075.78
682.28	1072.76
682.62	1073.74
682.96	1076.15
683.29	1076.97
683.63	1077.72
683.97	1081.21
684.31	1082.97
684.65	1082.69
684.99	1084.72
685.33	1086.45
685.67	1083.20
686.00	1080.04
686.34	1079.34
686.68	1076.81
687.02	1074.82
687.36	1075.27
687.70	1077.49
688.03	1076.18
688.37	1077.37
688.71	1078.75
689.05	1079.43
689.39	1078.43
689.72	1080.02
690.06	1075.83
690.40	1075.97
690.74	1076.06
691.08	1076.74
691.41	1076.65
691.75	1081.07
692.09	1081.19
692.43	1080.46
692.76	1081.54
693.10	1082.85
693.44	1080.20
693.78	1081.16
694.11	1084.18
694.45	1083.88
694.79	1081.89
695.13	1084.74
695.46	1081.54
695.80	1078.64
696.14	1079.38
696.48	1080.20
696.81	1079.24
697.15	1083.32
697.49	1085.38
697.82	1082.57
698.16	1081.30
698.50	1079.71
698.83	1077.77
699.17	1076.83
699.51	1075.71
699.84	1075.59
700.18	1076.01
700.52	1076.62
700.85	1077.75
701.19	1076.76
701.53	1078.57
701.86	1079.48
702.20	1080.02
702.54	1079.20
702.87	1080.88
703.21	1078.45
703.55	1080.20
703.88	1079.41
704.22	1076.62
704.55	1078.71
704.89	1082.87
705.23	1082.83
705.56	1081.40
705.90	1084.58
706.23	1086.99
706.57	1083.79
706.91	1082.33
707.24	1083.43
707.58	1082.26
707.91	1079.55
708.25	1079.38
708.58	1081.05
708.92	1082.01
709.26	1081.40
709.59	1078.47
709.93	1078.57
710.26	1074.54
710.60	1074.87
710.93	1075.90
711.27	1078.54
711.60	1077.28
711.94	1078.19
712.27	1078.92
712.61	1077.16
712.94	1078.99
713.28	1080.27
713.61	1081.02
713.95	1078.40
714.28	1080.79
714.62	1078.85
714.95	1077.42
715.29	1078.10
715.62	1080.79
715.96	1080.39
716.29	1082.99
716.63	1083.41
716.96	1083.95
717.29	1080.65
717.63	1082.29
717.96	1083.08
718.30	1085.59
718.63	1084.07
718.97	1086.10
719.30	1085.12
719.63	1081.91
719.97	1082.17
720.30	1084.28
720.64	1080.74
720.97	1080.58
721.30	1081.94
721.64	1080.20
721.97	1079.01
722.31	1082.92
722.64	1082.54
722.97	1084.09
723.31	1084.32
723.64	1084.00
723.97	1082.38
724.31	1081.66
724.64	1080.88
724.98	1081.94
725.31	1079.99
725.64	1077.72
725.98	1075.45
726.31	1070.91
726.64	1070.51
726.97	1071.97
727.31	1075.03
727.64	1076.27
727.97	1078.45
728.31	1078.10
728.64	1078.43
728.97	1076.06
729.31	1076.37
729.64	1075.50
729.97	1074.24
730.30	1073.35
730.64	1077.09
730.97	1079.67
731.30	1082.69
731.63	1084.49
731.97	1081.89
732.30	1079.92
732.63	1075.97
732.96	1074.82
733.30	1074.33
733.63	1074.14
733.96	1077.33
734.29	1081.37
734.63	1079.17
734.96	1076.69
735.29	1080.48
735.62	1076.76
735.95	1073.04
736.29	1077.75
736.62	1080.53
736.95	1079.34
737.28	1078.92
737.61	1078.92
737.94	1074.47
738.28	1073.72
738.61	1075.10
738.94	1078.68
739.27	1080.02
739.60	1081.19
739.93	1080.34
740.27	1080.16
740.60	1077.61
740.93	1074.31
741.26	1074.28
741.59	1074.98
741.92	1072.81
742.25	1073.53
742.58	1075.76
742.91	1076.53
743.25	1077.93
743.58	1079.38
743.91	1078.82
744.24	1080.30
744.57	1079.13
744.90	1078.40
745.23	1079.27
745.56	1080.34
745.89	1081.07
746.22	1084.98
746.55	1088.37
746.88	1087.72
747.21	1085.84
747.54	1085.94
747.87	1082.15
748.20	1076.79
748.53	1077.86
748.87	1079.57
749.20	1079.27
749.53	1083.93
749.86	1085.96
750.19	1083.95
750.52	1084.00
750.85	1084.42
751.18	1077.21
751.51	1076.18
751.84	1078.31
752.16	1073.88
752.49	1071.45
752.82	1073.02
753.15	1074.33
753.48	1073.88
753.81	1075.57
754.14	1076.37
754.47	1079.57
754.80	1078.50
755.13	1077.30
755.46	1081.89
755.79	1079.01
756.12	1078.19
756.45	1076.32
756.78	1074.45
757.11	1070.68
757.43	1072.13
757.76	1072.57
758.09	1074.96
758.42	1078.85
758.75	1078.40
759.08	1081.98
759.41	1080.11
759.74	1080.39
760.07	1078.17
760.39	1081.37
760.72	1079.67
761.05	1078.85
761.38	1077.75
761.71	1076.67
762.04	1076.20
762.36	1075.22
762.69	1075.20
763.02	1075.50
763.35	1079.78
763.68	1081.70
764.01	1082.12
