SpectraSuite Data File
++++++++++++++++++++++++++++++++++++
Date: Mon Aug 26 10:22:33 PDT 2019
User: corrico
Dark Spectrum Present: No
Reference Spectrum Present: No
Number of Sampled Component Spectra: 1
Spectrometers: USB2+H06089
Integration Time (usec): 2000 (USB2+H06089)
Spectra Averaged: 20 (USB2+H06089)
Boxcar Smoothing: 2 (USB2+H06089)
Correct for Electrical Dark: No (USB2+H06089)
Strobe/Lamp Enabled: No (USB2+H06089)
Correct for Detector Non-linearity: No (USB2+H06089)
Correct for Stray Light: No (USB2+H06089)
Number of Pixels in Processed Spectrum: 2048
>>>>>Begin Processed Spectral Data<<<<<
339.70	1017.90
340.07	1017.90
340.45	990.61
340.82	970.71
341.19	950.56
341.57	930.90
341.94	916.37
342.31	905.23
342.69	899.70
343.06	893.66
343.43	890.15
343.81	893.45
344.18	900.38
344.55	904.50
344.93	911.50
345.30	915.92
345.67	921.77
346.04	928.07
346.42	938.98
346.79	948.10
347.16	956.93
347.54	966.34
347.91	975.47
348.28	984.29
348.65	995.83
349.03	1004.35
349.40	1011.84
349.77	1020.68
350.14	1027.33
350.52	1032.29
350.89	1039.57
351.26	1044.18
351.63	1047.76
352.01	1051.79
352.38	1054.69
352.75	1060.29
353.12	1064.69
353.50	1070.80
353.87	1073.23
354.24	1077.40
354.61	1077.65
354.98	1081.73
355.36	1083.39
355.73	1083.71
356.10	1084.56
356.47	1086.85
356.84	1086.97
357.22	1083.79
357.59	1084.35
357.96	1081.70
358.33	1081.84
358.70	1081.00
359.08	1082.57
359.45	1084.42
359.82	1088.56
360.19	1089.40
360.56	1088.42
360.94	1084.37
361.31	1082.05
361.68	1079.29
362.05	1073.39
362.42	1070.96
362.79	1073.44
363.16	1073.46
363.54	1071.92
363.91	1077.33
364.28	1077.93
364.65	1077.75
365.02	1077.23
365.39	1076.90
365.76	1072.71
366.14	1072.43
366.51	1072.41
366.88	1074.42
367.25	1075.92
367.62	1076.15
367.99	1079.06
368.36	1075.57
368.73	1074.84
369.10	1073.51
369.48	1072.36
369.85	1070.09
370.22	1071.29
370.59	1068.99
370.96	1068.27
371.33	1069.93
371.70	1072.20
372.07	1072.36
372.44	1075.45
372.81	1077.98
373.18	1079.97
373.55	1077.30
373.93	1079.74
374.30	1075.73
374.67	1073.84
375.04	1072.64
375.41	1072.97
375.78	1072.18
376.15	1075.45
376.52	1073.91
376.89	1073.28
377.26	1076.41
377.63	1079.50
378.00	1079.55
378.37	1082.08
378.74	1082.92
379.11	1080.09
379.48	1077.07
379.85	1077.72
380.22	1078.33
380.59	1079.36
380.96	1082.76
381.33	1085.00
381.70	1083.88
382.07	1082.71
382.44	1081.12
382.81	1081.77
383.18	1081.91
383.55	1079.53
383.92	1080.95
384.29	1080.56
384.66	1080.32
385.03	1077.89
385.40	1081.33
385.77	1082.36
386.14	1084.21
386.51	1084.00
386.88	1087.72
387.25	1089.57
387.62	1088.09
387.99	1087.06
388.36	1088.93
388.73	1088.79
389.10	1084.63
389.46	1087.44
389.83	1089.47
390.20	1087.83
390.57	1084.58
390.94	1083.13
391.31	1080.65
391.68	1080.23
392.05	1079.46
392.42	1079.90
392.79	1081.51
393.16	1082.45
393.53	1081.73
393.89	1083.67
394.26	1086.99
394.63	1091.86
395.00	1092.82
395.37	1093.24
395.74	1090.92
396.11	1089.71
396.48	1086.90
396.84	1080.77
397.21	1080.06
397.58	1080.70
397.95	1081.56
398.32	1079.88
398.69	1086.85
399.06	1088.58
399.42	1086.55
399.79	1083.34
400.16	1086.43
400.53	1086.76
400.90	1083.25
401.27	1086.90
401.64	1087.16
402.00	1088.07
402.37	1085.96
402.74	1090.20
403.11	1089.96
403.48	1094.27
403.84	1095.07
404.21	1096.54
404.58	1094.74
404.95	1094.01
405.32	1093.43
405.68	1090.62
406.05	1090.03
406.42	1093.90
406.79	1094.88
407.16	1093.10
407.52	1093.92
407.89	1094.62
408.26	1095.44
408.63	1094.11
408.99	1098.32
409.36	1098.93
409.73	1100.73
410.10	1099.44
410.47	1096.75
410.83	1092.75
411.20	1091.60
411.57	1091.95
411.94	1092.19
412.30	1093.90
412.67	1097.27
413.04	1098.53
413.40	1096.75
413.77	1095.58
414.14	1099.79
414.51	1099.51
414.87	1103.21
415.24	1105.04
415.61	1105.44
415.97	1105.29
416.34	1105.69
416.71	1102.23
417.08	1099.86
417.44	1104.22
417.81	1103.61
418.18	1105.74
418.54	1108.88
418.91	1113.42
419.28	1112.50
419.64	1117.11
420.01	1114.89
420.38	1116.65
420.74	1119.64
421.11	1118.45
421.48	1116.74
421.84	1118.73
422.21	1119.38
422.58	1117.54
422.94	1120.86
423.31	1124.25
423.68	1126.69
424.04	1129.80
424.41	1131.86
424.77	1136.68
425.14	1139.58
425.51	1147.38
425.87	1148.43
426.24	1153.06
426.61	1155.27
426.97	1160.25
427.34	1162.80
427.70	1172.28
428.07	1179.23
428.44	1188.90
428.80	1196.76
429.17	1204.58
429.53	1212.28
429.90	1227.77
430.27	1236.20
430.63	1249.19
431.00	1260.87
431.36	1273.93
431.73	1277.53
432.09	1290.97
432.46	1304.61
432.83	1320.18
433.19	1337.22
433.56	1358.68
433.92	1377.85
434.29	1396.27
434.65	1413.15
435.02	1436.74
435.38	1464.68
435.75	1492.70
436.11	1520.15
436.48	1556.25
436.84	1589.57
437.21	1623.54
437.57	1658.88
437.94	1706.06
438.30	1752.17
438.67	1797.16
439.03	1849.07
439.40	1907.07
439.76	1962.33
440.13	2021.90
440.49	2086.03
440.86	2151.89
441.22	2218.76
441.59	2290.61
441.95	2372.69
442.32	2462.81
442.68	2557.88
443.05	2658.40
443.41	2760.26
443.78	2857.28
444.14	2960.10
444.51	3064.56
444.87	3200.87
445.24	3341.00
445.60	3499.24
445.96	3654.09
446.33	3827.99
446.69	3985.60
447.06	4160.82
447.42	4333.31
447.79	4523.93
448.15	4746.40
448.51	4974.95
448.88	5239.78
449.24	5493.42
449.61	5779.46
449.97	6050.47
450.33	6335.34
450.70	6592.00
451.06	6911.37
451.43	7214.75
451.79	7588.91
452.15	7994.59
452.52	8460.15
452.88	8932.12
453.24	9464.38
453.61	10029.48
453.97	10595.44
454.34	11137.37
454.70	11784.71
455.06	12424.97
455.43	13055.37
455.79	13648.58
456.15	14376.58
456.52	15039.88
456.88	15823.99
457.24	16556.97
457.61	17415.18
457.97	18167.57
458.33	18941.65
458.70	19712.51
459.06	20475.19
459.42	21310.51
459.79	22107.20
460.15	23017.41
460.51	23879.92
460.88	24829.41
461.24	25631.91
461.60	26612.99
461.96	27501.44
462.33	28337.64
462.69	29090.47
463.05	29942.26
463.42	30647.30
463.78	31299.02
464.14	31841.51
464.50	32467.44
464.87	32940.98
465.23	33294.47
465.59	33630.32
465.95	33949.94
466.32	34210.67
466.68	34450.77
467.04	34590.33
467.40	34739.71
467.77	34910.07
468.13	34889.29
468.49	34779.00
468.85	34671.46
469.22	34486.79
469.58	34108.86
469.94	33836.09
470.30	33508.21
470.66	33097.40
471.03	32494.57
471.39	32097.94
471.75	31428.67
472.11	30813.22
472.47	30434.71
472.84	30105.56
473.20	29604.06
473.56	29350.15
473.92	28933.33
474.28	28421.36
474.65	27949.67
475.01	27483.30
475.37	26919.06
475.73	26464.72
476.09	25942.26
476.45	25409.98
476.81	24893.61
477.18	24343.02
477.54	23885.75
477.90	23539.94
478.26	23126.01
478.62	22783.80
478.98	22512.63
479.34	22200.07
479.71	21769.28
480.07	21395.75
480.43	21032.69
480.79	20648.88
481.15	20283.13
481.51	19986.28
481.87	19746.54
482.23	19460.83
482.59	19188.25
482.96	18905.12
483.32	18602.62
483.68	18232.35
484.04	17896.49
484.40	17533.96
484.76	17181.90
485.12	16819.63
485.48	16494.01
485.84	16145.09
486.20	15787.83
486.56	15414.60
486.92	15090.98
487.28	14746.92
487.64	14392.98
488.00	14076.33
488.37	13757.83
488.73	13390.53
489.09	13038.84
489.45	12728.54
489.81	12402.01
490.17	12091.42
490.53	11810.88
490.89	11503.78
491.25	11192.04
491.61	10889.83
491.97	10592.94
492.33	10273.34
492.69	9985.90
493.05	9689.37
493.41	9405.04
493.77	9116.64
494.13	8871.66
494.49	8623.26
494.85	8384.45
495.21	8156.11
495.57	7943.05
495.93	7721.47
496.29	7516.63
496.64	7330.56
497.00	7140.16
497.36	6954.69
497.72	6779.03
498.08	6599.05
498.44	6417.61
498.80	6252.74
499.16	6086.07
499.52	5925.18
499.88	5788.96
500.24	5667.49
500.60	5542.90
500.96	5431.96
501.32	5322.26
501.68	5206.40
502.03	5076.43
502.39	4948.69
502.75	4812.09
503.11	4687.30
503.47	4568.23
503.83	4444.79
504.19	4325.99
504.55	4219.66
504.91	4120.98
505.26	4026.52
505.62	3945.84
505.98	3859.57
506.34	3771.89
506.70	3676.84
507.06	3589.28
507.42	3502.61
507.78	3429.45
508.13	3348.93
508.49	3276.12
508.85	3205.83
509.21	3133.46
509.57	3067.51
509.93	3007.45
510.28	2943.53
510.64	2879.51
511.00	2817.05
511.36	2753.10
511.72	2697.26
512.07	2649.09
512.43	2597.13
512.79	2549.01
513.15	2501.52
513.51	2455.50
513.86	2409.02
514.22	2369.63
514.58	2332.30
514.94	2298.48
515.30	2265.78
515.65	2227.11
516.01	2194.95
516.37	2157.83
516.73	2128.83
517.08	2101.43
517.44	2072.05
517.80	2040.17
518.16	2021.03
518.51	1990.86
518.87	1959.52
519.23	1935.18
519.59	1911.07
519.94	1882.45
520.30	1859.65
520.66	1835.99
521.01	1813.68
521.37	1791.91
521.73	1767.01
522.09	1742.22
522.44	1719.83
522.80	1699.30
523.16	1680.01
523.51	1662.55
523.87	1646.87
524.23	1629.13
524.58	1610.15
524.94	1592.43
525.30	1575.74
525.65	1557.18
526.01	1544.61
526.37	1532.75
526.72	1520.27
527.08	1509.55
527.44	1499.14
527.79	1484.84
528.15	1472.31
528.51	1459.84
528.86	1444.25
529.22	1432.20
529.58	1424.75
529.93	1415.60
530.29	1402.07
530.65	1393.65
531.00	1383.72
531.36	1371.76
531.71	1362.78
532.07	1353.32
532.43	1345.55
532.78	1337.17
533.14	1327.04
533.49	1319.36
533.85	1314.80
534.21	1308.62
534.56	1302.18
534.92	1300.07
535.27	1292.63
535.63	1290.20
535.98	1283.39
536.34	1279.73
536.69	1270.49
537.05	1261.08
537.41	1257.55
537.76	1253.36
538.12	1249.05
538.47	1248.32
538.83	1247.20
539.18	1239.95
539.54	1235.40
539.89	1227.66
540.25	1219.72
540.60	1217.83
540.96	1217.08
541.31	1212.68
541.67	1211.84
542.02	1210.78
542.38	1206.71
542.73	1198.35
543.09	1195.80
543.44	1195.38
543.80	1191.29
544.15	1187.33
544.51	1185.25
544.86	1183.91
545.22	1179.23
545.57	1176.33
545.93	1174.06
546.28	1171.09
546.64	1169.54
546.99	1167.27
547.35	1163.67
547.70	1160.91
548.05	1159.03
548.41	1152.95
548.76	1150.44
549.12	1151.52
549.47	1150.02
549.83	1149.06
550.18	1147.63
550.53	1145.65
550.89	1144.66
551.24	1144.36
551.60	1143.21
551.95	1145.25
552.30	1144.10
552.66	1137.71
553.01	1135.11
553.37	1133.78
553.72	1132.33
554.07	1130.29
554.43	1133.01
554.78	1133.10
555.13	1134.01
555.49	1134.01
555.84	1131.34
556.19	1129.66
556.55	1128.75
556.90	1125.28
557.26	1119.97
557.61	1122.19
557.96	1122.08
558.32	1121.84
558.67	1122.99
559.02	1125.77
559.37	1122.57
559.73	1122.40
560.08	1121.14
560.43	1118.26
560.79	1114.12
561.14	1115.45
561.49	1112.27
561.85	1107.92
562.20	1107.07
562.55	1109.88
562.90	1108.31
563.26	1110.42
563.61	1111.29
563.96	1111.31
564.32	1108.90
564.67	1109.46
565.02	1106.75
565.37	1105.60
565.73	1108.17
566.08	1106.28
566.43	1102.70
566.78	1104.24
567.14	1106.30
567.49	1101.81
567.84	1102.79
568.19	1105.11
568.54	1101.62
568.90	1101.36
569.25	1102.98
569.60	1102.56
569.95	1099.40
570.31	1098.53
570.66	1099.14
571.01	1097.69
571.36	1095.67
571.71	1099.77
572.06	1103.28
572.42	1101.11
572.77	1102.70
573.12	1102.18
573.47	1096.75
573.82	1093.15
574.18	1095.96
574.53	1093.01
574.88	1093.76
575.23	1097.15
575.58	1098.48
575.93	1094.04
576.28	1093.19
576.64	1095.18
576.99	1090.85
577.34	1094.81
577.69	1095.09
578.04	1097.95
578.39	1095.35
578.74	1095.35
579.09	1093.38
579.44	1094.86
579.80	1091.74
580.15	1092.23
580.50	1097.69
580.85	1093.22
581.20	1091.93
581.55	1093.94
581.90	1095.58
582.25	1094.13
582.60	1094.74
582.95	1091.20
583.30	1089.66
583.65	1086.57
584.00	1084.65
584.35	1085.89
584.71	1089.50
585.06	1087.53
585.41	1089.31
585.76	1090.69
586.11	1091.16
586.46	1090.88
586.81	1092.89
587.16	1091.72
587.51	1091.25
587.86	1088.98
588.21	1089.07
588.56	1091.44
588.91	1092.75
589.26	1092.12
589.61	1095.04
589.96	1095.49
590.31	1092.26
590.66	1092.56
591.01	1093.45
591.36	1091.86
591.71	1091.67
592.06	1092.80
592.41	1091.16
592.76	1089.57
593.10	1085.94
593.45	1083.76
593.80	1083.46
594.15	1084.11
594.50	1084.42
594.85	1085.96
595.20	1086.36
595.55	1086.73
595.90	1085.07
596.25	1086.22
596.60	1087.48
596.95	1084.58
597.30	1085.82
597.64	1099.42
597.99	1095.79
598.34	1097.76
598.69	1098.32
599.04	1093.71
599.39	1081.89
599.74	1084.39
600.09	1080.95
600.44	1082.22
600.78	1082.26
601.13	1080.98
601.48	1084.09
601.83	1085.89
602.18	1089.07
602.53	1092.23
602.88	1092.94
603.22	1089.47
603.57	1088.54
603.92	1087.51
604.27	1086.59
604.62	1086.62
604.97	1086.08
605.31	1086.55
605.66	1084.21
606.01	1082.31
606.36	1082.61
606.71	1079.95
607.05	1080.04
607.40	1081.33
607.75	1082.33
608.10	1080.23
608.44	1083.53
608.79	1086.10
609.14	1085.73
609.49	1084.86
609.84	1086.45
610.18	1085.70
610.53	1084.23
610.88	1086.15
611.23	1088.77
611.57	1087.23
611.92	1086.31
612.27	1088.23
612.62	1087.67
612.96	1084.77
613.31	1085.05
613.66	1086.50
614.00	1081.56
614.35	1080.72
614.70	1079.27
615.05	1079.10
615.39	1078.94
615.74	1082.69
616.09	1083.20
616.43	1086.20
616.78	1086.73
617.13	1086.03
617.47	1085.35
617.82	1084.56
618.17	1082.99
618.51	1083.08
618.86	1084.02
619.21	1081.37
619.55	1083.08
619.90	1085.19
620.25	1085.17
620.59	1083.67
620.94	1085.84
621.29	1084.86
621.63	1082.40
621.98	1082.57
622.32	1082.85
622.67	1083.74
623.02	1082.38
623.36	1087.69
623.71	1088.70
624.05	1088.58
624.40	1087.46
624.75	1090.29
625.09	1084.44
625.44	1083.46
625.78	1084.56
626.13	1082.97
626.48	1079.95
626.82	1079.81
627.17	1079.71
627.51	1076.97
627.86	1075.27
628.20	1078.89
628.55	1082.01
628.89	1080.30
629.24	1081.21
629.58	1085.49
629.93	1081.89
630.28	1081.51
630.62	1082.33
630.97	1084.14
631.31	1083.93
631.66	1086.48
632.00	1087.58
632.35	1092.02
632.69	1093.01
633.04	1091.63
633.38	1093.83
633.73	1090.95
634.07	1087.09
634.42	1087.65
634.76	1087.72
635.11	1084.86
635.45	1085.63
635.79	1086.57
636.14	1085.26
636.48	1084.07
636.83	1081.02
637.17	1081.58
637.52	1081.49
637.86	1082.52
638.21	1085.54
638.55	1087.34
638.89	1088.19
639.24	1085.96
639.58	1083.34
639.93	1080.51
640.27	1079.76
640.61	1078.28
640.96	1081.16
641.30	1081.09
641.65	1079.99
641.99	1083.20
642.33	1083.90
642.68	1080.98
643.02	1083.01
643.37	1085.96
643.71	1083.57
644.05	1084.58
644.40	1086.83
644.74	1084.30
645.08	1084.28
645.43	1084.58
645.77	1081.28
646.11	1081.77
646.46	1084.49
646.80	1081.68
647.14	1080.77
647.49	1083.04
647.83	1081.98
648.17	1083.25
648.52	1084.09
648.86	1086.20
649.20	1086.55
649.55	1088.56
649.89	1082.19
650.23	1084.07
650.57	1082.92
650.92	1081.33
651.26	1078.26
651.60	1081.33
651.95	1079.62
652.29	1079.01
652.63	1078.64
652.97	1077.11
653.32	1077.16
653.66	1077.91
654.00	1074.00
654.34	1075.94
654.69	1080.86
655.03	1083.29
655.37	1086.43
655.71	1090.55
656.05	1090.90
656.40	1086.01
656.74	1083.08
657.08	1081.37
657.42	1084.16
657.76	1081.77
658.11	1086.57
658.45	1086.69
658.79	1084.37
659.13	1081.49
659.47	1081.28
659.82	1076.23
660.16	1075.66
660.50	1075.24
660.84	1076.23
661.18	1079.57
661.52	1082.10
661.87	1083.71
662.21	1085.12
662.55	1081.68
662.89	1081.02
663.23	1080.77
663.57	1082.69
663.91	1082.97
664.25	1086.20
664.60	1083.36
664.94	1082.54
665.28	1079.24
665.62	1077.49
665.96	1076.60
666.30	1075.55
666.64	1076.27
666.98	1074.59
667.32	1077.79
667.66	1076.55
668.01	1078.33
668.35	1079.99
668.69	1083.22
669.03	1082.38
669.37	1084.35
669.71	1086.13
670.05	1086.87
670.39	1086.34
670.73	1083.04
671.07	1080.93
671.41	1080.46
671.75	1080.20
672.09	1082.71
672.43	1084.37
672.77	1084.91
673.11	1083.06
673.45	1080.58
673.79	1078.36
674.13	1080.74
674.47	1080.93
674.81	1082.22
675.15	1083.53
675.49	1084.60
675.83	1080.98
676.17	1083.60
676.51	1083.90
676.85	1082.03
677.19	1081.89
677.53	1083.55
677.87	1080.27
678.21	1077.04
678.55	1078.45
678.89	1077.18
679.23	1077.51
679.57	1078.07
679.90	1080.25
680.24	1079.43
680.58	1079.43
680.92	1079.97
681.26	1082.66
681.60	1085.52
681.94	1086.90
682.28	1088.86
682.62	1088.44
682.96	1084.67
683.29	1081.47
683.63	1079.97
683.97	1078.80
684.31	1080.67
684.65	1080.39
684.99	1079.57
685.33	1078.87
685.67	1077.68
686.00	1079.08
686.34	1080.91
686.68	1083.32
687.02	1087.27
687.36	1089.71
687.70	1084.11
688.03	1082.54
688.37	1078.96
688.71	1078.87
689.05	1075.48
689.39	1079.17
689.72	1080.04
690.06	1078.92
690.40	1076.95
690.74	1080.81
691.08	1078.05
691.41	1081.09
691.75	1084.98
692.09	1084.32
692.43	1080.60
692.76	1080.88
693.10	1078.45
693.44	1079.67
693.78	1082.99
694.11	1084.32
694.45	1083.43
694.79	1085.35
695.13	1085.10
695.46	1081.63
695.80	1081.40
696.14	1081.68
696.48	1079.36
696.81	1079.22
697.15	1078.19
697.49	1079.50
697.82	1082.17
698.16	1082.52
698.50	1080.77
698.83	1084.16
699.17	1083.13
699.51	1081.94
699.84	1082.61
700.18	1083.04
700.52	1079.57
700.85	1076.13
701.19	1075.38
701.53	1075.17
701.86	1078.17
702.20	1080.09
702.54	1083.04
702.87	1083.01
703.21	1082.59
703.55	1083.93
703.88	1082.85
704.22	1081.82
704.55	1082.50
704.89	1083.57
705.23	1080.39
705.56	1081.19
705.90	1083.64
706.23	1084.53
706.57	1082.87
706.91	1083.93
707.24	1081.75
707.58	1079.99
707.91	1078.92
708.25	1082.15
708.58	1081.49
708.92	1082.33
709.26	1083.62
709.59	1085.89
709.93	1084.93
710.26	1084.44
710.60	1082.15
710.93	1080.34
711.27	1077.91
711.60	1079.22
711.94	1078.68
712.27	1078.92
712.61	1079.27
712.94	1080.63
713.28	1078.19
713.61	1078.94
713.95	1081.05
714.28	1080.48
714.62	1078.52
714.95	1077.07
715.29	1078.94
715.62	1078.92
715.96	1079.76
716.29	1078.85
716.63	1079.62
716.96	1074.66
717.29	1077.28
717.63	1075.92
717.96	1078.45
718.30	1079.20
718.63	1080.34
718.97	1077.96
719.30	1079.81
719.63	1080.37
719.97	1079.10
720.30	1080.67
720.64	1080.88
720.97	1080.79
721.30	1079.76
721.64	1083.08
721.97	1083.46
722.31	1081.87
722.64	1081.61
722.97	1081.89
723.31	1078.24
723.64	1077.30
723.97	1078.78
724.31	1078.54
724.64	1076.30
724.98	1076.23
725.31	1074.94
725.64	1073.65
725.98	1071.82
726.31	1073.58
726.64	1076.81
726.97	1075.13
727.31	1076.01
727.64	1075.55
727.97	1074.17
728.31	1070.68
728.64	1074.33
728.97	1075.31
729.31	1075.90
729.64	1077.49
729.97	1077.89
730.30	1076.55
730.64	1074.07
730.97	1074.75
731.30	1075.66
731.63	1076.06
731.97	1076.32
732.30	1077.00
732.63	1079.41
732.96	1076.46
733.30	1079.99
733.63	1079.55
733.96	1080.88
734.29	1078.36
734.63	1081.54
734.96	1077.77
735.29	1080.98
735.62	1082.33
735.95	1083.90
736.29	1083.55
736.62	1084.70
736.95	1082.17
737.28	1081.61
737.61	1080.18
737.94	1080.11
738.28	1080.81
738.61	1079.13
738.94	1079.46
739.27	1083.79
739.60	1080.32
739.93	1079.15
740.27	1084.21
740.60	1083.53
740.93	1082.38
741.26	1084.18
741.59	1085.47
741.92	1081.07
742.25	1080.56
742.58	1081.68
742.91	1080.95
743.25	1080.72
743.58	1082.80
743.91	1084.28
744.24	1080.06
744.57	1082.64
744.90	1080.86
745.23	1080.63
745.56	1081.09
745.89	1081.73
746.22	1080.18
746.55	1082.94
746.88	1084.23
747.21	1083.13
747.54	1084.86
747.87	1086.36
748.20	1082.52
748.53	1082.99
748.87	1082.31
749.20	1079.74
749.53	1078.43
749.86	1082.97
750.19	1081.91
750.52	1081.02
750.85	1083.11
751.18	1082.85
751.51	1078.80
751.84	1075.34
752.16	1078.05
752.49	1076.55
752.82	1077.58
753.15	1079.88
753.48	1081.89
753.81	1079.69
754.14	1077.49
754.47	1074.73
754.80	1074.52
755.13	1075.94
755.46	1077.75
755.79	1082.52
756.12	1085.40
756.45	1084.89
756.78	1084.65
757.11	1082.05
757.43	1080.67
757.76	1079.78
758.09	1080.13
758.42	1080.95
758.75	1084.32
759.08	1084.74
759.41	1085.59
759.74	1087.34
760.07	1083.29
760.39	1081.73
760.72	1080.91
761.05	1075.24
761.38	1073.98
761.71	1075.43
762.04	1076.90
762.36	1076.53
762.69	1081.70
763.02	1078.03
763.35	1081.54
763.68	1077.72
764.01	1080.44
