SpectraSuite Data File
++++++++++++++++++++++++++++++++++++
Date: Mon Aug 26 10:22:14 PDT 2019
User: corrico
Dark Spectrum Present: No
Reference Spectrum Present: No
Number of Sampled Component Spectra: 1
Spectrometers: USB2+H06089
Integration Time (usec): 2000 (USB2+H06089)
Spectra Averaged: 20 (USB2+H06089)
Boxcar Smoothing: 2 (USB2+H06089)
Correct for Electrical Dark: No (USB2+H06089)
Strobe/Lamp Enabled: No (USB2+H06089)
Correct for Detector Non-linearity: No (USB2+H06089)
Correct for Stray Light: No (USB2+H06089)
Number of Pixels in Processed Spectrum: 2048
>>>>>Begin Processed Spectral Data<<<<<
339.70	1019.30
340.07	1019.30
340.45	988.83
340.82	971.23
341.19	948.27
341.57	928.42
341.94	917.84
342.31	911.50
342.69	902.65
343.06	901.43
343.43	898.91
343.81	901.46
344.18	904.48
344.55	910.44
344.93	914.92
345.30	920.30
345.67	923.62
346.04	929.52
346.42	939.16
346.79	950.02
347.16	959.78
347.54	970.06
347.91	979.58
348.28	986.75
348.65	996.41
349.03	1005.78
349.40	1015.37
349.77	1021.99
350.14	1033.74
350.52	1036.41
350.89	1040.23
351.26	1048.26
351.63	1054.60
352.01	1053.12
352.38	1058.27
352.75	1063.21
353.12	1064.05
353.50	1066.47
353.87	1073.49
354.24	1077.51
354.61	1080.18
354.98	1082.40
355.36	1085.68
355.73	1083.55
356.10	1084.07
356.47	1084.11
356.84	1086.59
357.22	1088.86
357.59	1088.68
357.96	1087.20
358.33	1089.12
358.70	1081.14
359.08	1076.04
359.45	1078.73
359.82	1077.63
360.19	1076.25
360.56	1082.26
360.94	1082.73
361.31	1082.45
361.68	1082.45
362.05	1083.20
362.42	1080.46
362.79	1081.66
363.16	1079.48
363.54	1081.12
363.91	1077.44
364.28	1078.28
364.65	1076.74
365.02	1077.84
365.39	1076.55
365.76	1079.20
366.14	1080.11
366.51	1079.17
366.88	1075.97
367.25	1077.16
367.62	1073.11
367.99	1073.16
368.36	1075.57
368.73	1077.89
369.10	1077.49
369.48	1074.91
369.85	1075.05
370.22	1075.85
370.59	1073.18
370.96	1073.98
371.33	1076.60
371.70	1073.77
372.07	1071.61
372.44	1072.83
372.81	1071.05
373.18	1071.15
373.55	1072.18
373.93	1072.32
374.30	1072.36
374.67	1070.14
375.04	1071.05
375.41	1073.53
375.78	1075.41
376.15	1077.35
376.52	1081.37
376.89	1083.06
377.26	1083.01
377.63	1080.74
378.00	1077.33
378.37	1075.62
378.74	1078.68
379.11	1078.78
379.48	1074.91
379.85	1078.12
380.22	1079.34
380.59	1074.31
380.96	1073.84
381.33	1078.75
381.70	1080.20
382.07	1081.47
382.44	1085.52
382.81	1085.00
383.18	1082.38
383.55	1080.48
383.92	1078.71
384.29	1074.89
384.66	1077.58
385.03	1081.54
385.40	1084.93
385.77	1086.90
386.14	1092.49
386.51	1089.22
386.88	1087.04
387.25	1086.22
387.62	1085.70
387.99	1081.96
388.36	1084.18
388.73	1087.44
389.10	1085.99
389.46	1083.71
389.83	1083.93
390.20	1082.94
390.57	1081.82
390.94	1082.47
391.31	1085.66
391.68	1086.06
392.05	1085.80
392.42	1085.24
392.79	1084.28
393.16	1084.89
393.53	1084.70
393.89	1085.75
394.26	1087.83
394.63	1089.40
395.00	1085.94
395.37	1087.65
395.74	1085.38
396.11	1086.17
396.48	1085.52
396.84	1089.75
397.21	1087.16
397.58	1087.34
397.95	1087.13
398.32	1087.02
398.69	1084.89
399.06	1084.44
399.42	1087.39
399.79	1084.14
400.16	1084.86
400.53	1086.64
400.90	1090.01
401.27	1090.50
401.64	1091.20
402.00	1091.32
402.37	1094.34
402.74	1093.43
403.11	1093.57
403.48	1094.04
403.84	1092.91
404.21	1088.37
404.58	1088.49
404.95	1088.26
405.32	1090.08
405.68	1092.56
406.05	1093.57
406.42	1092.00
406.79	1092.23
407.16	1092.00
407.52	1092.73
407.89	1093.94
408.26	1097.24
408.63	1099.49
408.99	1098.06
409.36	1096.63
409.73	1097.97
410.10	1095.67
410.47	1092.21
410.83	1092.96
411.20	1093.22
411.57	1092.23
411.94	1096.17
412.30	1099.42
412.67	1103.61
413.04	1107.40
413.40	1106.82
413.77	1104.05
414.14	1104.90
414.51	1102.18
414.87	1101.15
415.24	1103.54
415.61	1107.03
415.97	1107.66
416.34	1108.36
416.71	1108.08
417.08	1112.29
417.44	1111.03
417.81	1111.57
418.18	1114.70
418.54	1116.30
418.91	1117.25
419.28	1122.85
419.64	1120.67
420.01	1119.76
420.38	1118.47
420.74	1114.07
421.11	1114.77
421.48	1119.64
421.84	1121.44
422.21	1128.11
422.58	1131.88
422.94	1132.56
423.31	1136.07
423.68	1139.49
424.04	1139.68
424.41	1142.46
424.77	1144.94
425.14	1147.31
425.51	1152.67
425.87	1159.85
426.24	1166.10
426.61	1173.22
426.97	1179.65
427.34	1184.64
427.70	1191.08
428.07	1197.37
428.44	1205.12
428.80	1213.24
429.17	1226.93
429.53	1236.55
429.90	1248.98
430.27	1260.92
430.63	1273.35
431.00	1281.79
431.36	1297.17
431.73	1312.67
432.09	1327.11
432.46	1345.76
432.83	1366.69
433.19	1386.42
433.56	1406.57
433.92	1434.58
434.29	1458.27
434.65	1488.09
435.02	1517.09
435.38	1553.51
435.75	1582.34
436.11	1622.55
436.48	1658.01
436.84	1700.40
437.21	1738.29
437.57	1787.51
437.94	1837.34
438.30	1891.50
438.67	1945.08
439.03	2011.67
439.40	2078.33
439.76	2147.04
440.13	2227.77
440.49	2314.56
440.86	2387.79
441.22	2473.17
441.59	2558.11
441.95	2651.05
442.32	2749.78
442.68	2872.35
443.05	2991.88
443.41	3124.05
443.78	3252.24
444.14	3395.34
444.51	3531.31
444.87	3691.42
445.24	3852.33
445.60	4028.81
445.96	4202.97
446.33	4404.12
446.69	4597.77
447.06	4814.20
447.42	5032.95
447.79	5265.29
448.15	5527.57
448.51	5801.72
448.88	6116.92
449.24	6423.79
449.61	6768.36
449.97	7118.25
450.33	7490.60
450.70	7845.29
451.06	8261.46
451.43	8655.63
451.79	9106.32
452.15	9591.80
452.52	10117.81
452.88	10671.53
453.24	11294.72
453.61	11984.97
453.97	12678.00
454.34	13363.10
454.70	14145.57
455.06	14937.30
455.43	15673.70
455.79	16342.60
456.15	17135.83
456.52	17875.84
456.88	18772.34
457.24	19663.10
457.61	20792.90
457.97	21846.65
458.33	22936.97
458.70	23987.28
459.06	24994.32
459.42	25984.70
459.79	26866.26
460.15	27877.82
460.51	28828.35
460.88	29901.72
461.24	30872.67
461.60	32045.00
461.96	33091.20
462.33	34106.94
462.69	35081.63
463.05	36140.82
463.42	37068.26
463.78	37958.76
464.14	38674.10
464.50	39417.94
464.87	39958.89
465.23	40337.64
465.59	40767.38
465.95	41137.75
466.32	41366.32
466.68	41596.38
467.04	41751.27
467.40	41739.76
467.77	41820.76
468.13	41772.08
468.49	41629.82
468.85	41502.92
469.22	41359.91
469.58	41114.39
469.94	40935.41
470.30	40684.17
470.66	40310.93
471.03	39835.57
471.39	39448.58
471.75	38723.39
472.11	38007.12
472.47	37527.38
472.84	36991.04
473.20	36283.66
473.56	35894.41
473.92	35344.03
474.28	34710.75
474.65	34070.59
475.01	33427.91
475.37	32642.91
475.73	32012.28
476.09	31354.99
476.45	30763.98
476.81	30228.49
477.18	29698.05
477.54	29209.16
477.90	28762.26
478.26	28186.21
478.62	27680.44
478.98	27222.54
479.34	26784.51
479.71	26209.53
480.07	25770.07
480.43	25301.92
480.79	24859.53
481.15	24417.10
481.51	24082.12
481.87	23768.12
482.23	23438.17
482.59	23110.24
482.96	22789.12
483.32	22464.56
483.68	22071.20
484.04	21712.94
484.40	21305.94
484.76	20876.69
485.12	20456.75
485.48	20028.24
485.84	19549.79
486.20	19134.46
486.56	18703.06
486.92	18313.36
487.28	17935.99
487.64	17541.43
488.00	17144.19
488.37	16787.70
488.73	16382.81
489.09	15955.97
489.45	15570.60
489.81	15153.33
490.17	14717.15
490.53	14303.22
490.89	13897.54
491.25	13481.18
491.61	13080.32
491.97	12695.21
492.33	12299.63
492.69	11941.90
493.05	11594.94
493.41	11271.39
493.77	10940.51
494.13	10649.81
494.49	10354.23
494.85	10077.83
495.21	9822.90
495.57	9575.23
495.93	9316.17
496.29	9070.44
496.64	8847.32
497.00	8592.81
497.36	8352.06
497.72	8115.64
498.08	7900.85
498.44	7687.26
498.80	7490.35
499.16	7289.48
499.52	7100.46
499.88	6920.10
500.24	6744.72
500.60	6575.24
500.96	6427.67
501.32	6268.35
501.68	6103.44
502.03	5934.29
502.39	5772.60
502.75	5600.76
503.11	5450.45
503.47	5312.66
503.83	5176.59
504.19	5054.43
504.55	4941.13
504.91	4831.38
505.26	4716.83
505.62	4600.74
505.98	4485.22
506.34	4364.09
506.70	4243.37
507.06	4135.38
507.42	4036.53
507.78	3941.42
508.13	3854.96
508.49	3776.45
508.85	3697.74
509.21	3618.12
509.57	3535.19
509.93	3449.62
510.28	3359.39
510.64	3276.73
511.00	3202.79
511.36	3131.31
511.72	3068.75
512.07	3010.21
512.43	2950.15
512.79	2887.14
513.15	2825.73
513.51	2763.10
513.86	2710.29
514.22	2655.53
514.58	2609.07
514.94	2564.71
515.30	2524.29
515.65	2479.19
516.01	2441.06
516.37	2398.11
516.73	2361.27
517.08	2321.46
517.44	2278.96
517.80	2238.28
518.16	2198.56
518.51	2163.92
518.87	2132.51
519.23	2101.36
519.59	2072.97
519.94	2043.40
520.30	2015.86
520.66	1985.36
521.01	1961.18
521.37	1932.30
521.73	1906.76
522.09	1880.88
522.44	1858.27
522.80	1835.47
523.16	1814.31
523.51	1792.22
523.87	1770.19
524.23	1749.64
524.58	1728.51
524.94	1708.45
525.30	1691.34
525.65	1669.76
526.01	1650.12
526.37	1629.22
526.72	1611.69
527.08	1595.24
527.44	1581.10
527.79	1567.46
528.15	1558.63
528.51	1543.09
528.86	1530.83
529.22	1512.62
529.58	1496.52
529.93	1477.51
530.29	1464.43
530.65	1449.73
531.00	1442.45
531.36	1435.36
531.71	1430.16
532.07	1419.72
532.43	1411.81
532.78	1401.23
533.14	1387.54
533.49	1374.22
533.85	1366.40
534.21	1357.04
534.56	1351.33
534.92	1345.04
535.27	1337.71
535.63	1332.02
535.98	1324.79
536.34	1316.69
536.69	1308.43
537.05	1304.31
537.41	1297.03
537.76	1289.03
538.12	1282.43
538.47	1278.70
538.83	1270.84
539.18	1267.10
539.54	1264.45
539.89	1264.01
540.25	1260.71
540.60	1259.09
540.96	1252.47
541.31	1248.70
541.67	1239.59
542.02	1231.59
542.38	1223.77
542.73	1220.14
543.09	1215.98
543.44	1207.76
543.80	1206.87
544.15	1204.23
544.51	1203.27
544.86	1201.68
545.22	1202.97
545.57	1198.19
545.93	1197.51
546.28	1193.25
546.64	1189.20
546.99	1187.56
547.35	1186.30
547.70	1180.92
548.05	1177.78
548.41	1176.68
548.76	1174.34
549.12	1169.68
549.47	1167.01
549.83	1164.30
550.18	1158.96
550.53	1155.66
550.89	1156.65
551.24	1155.90
551.60	1155.76
551.95	1152.48
552.30	1150.33
552.66	1148.64
553.01	1146.02
553.37	1142.91
553.72	1141.60
554.07	1140.24
554.43	1138.09
554.78	1135.46
555.13	1133.05
555.49	1131.41
555.84	1129.87
556.19	1126.76
556.55	1126.55
556.90	1129.66
557.26	1129.89
557.61	1128.35
557.96	1130.90
558.32	1132.37
558.67	1126.71
559.02	1124.49
559.37	1124.72
559.73	1123.11
560.08	1120.95
560.43	1120.81
560.79	1124.09
561.14	1122.57
561.49	1119.34
561.85	1120.74
562.20	1119.69
562.55	1116.95
562.90	1116.79
563.26	1116.22
563.61	1113.51
563.96	1113.86
564.32	1114.02
564.67	1112.97
565.02	1111.89
565.37	1110.98
565.73	1111.26
566.08	1110.84
566.43	1111.78
566.78	1110.79
567.14	1111.15
567.49	1110.51
567.84	1108.29
568.19	1106.79
568.54	1108.76
568.90	1107.12
569.25	1104.83
569.60	1103.31
569.95	1103.91
570.31	1105.90
570.66	1105.20
571.01	1104.15
571.36	1104.52
571.71	1104.48
572.06	1099.68
572.42	1099.65
572.77	1102.32
573.12	1102.88
573.47	1100.43
573.82	1099.26
574.18	1101.74
574.53	1095.11
574.88	1095.56
575.23	1094.15
575.58	1097.59
575.93	1096.17
576.28	1101.55
576.64	1097.69
576.99	1099.86
577.34	1097.78
577.69	1095.82
578.04	1091.56
578.39	1090.88
578.74	1090.64
579.09	1090.64
579.44	1091.32
579.80	1096.73
580.15	1099.14
580.50	1099.35
580.85	1100.66
581.20	1099.65
581.55	1098.46
581.90	1097.85
582.25	1097.22
582.60	1096.28
582.95	1095.37
583.30	1094.25
583.65	1093.36
584.00	1092.89
584.35	1091.37
584.71	1093.47
585.06	1095.65
585.41	1094.79
585.76	1095.53
586.11	1095.60
586.46	1094.46
586.81	1090.99
587.16	1094.06
587.51	1092.09
587.86	1090.90
588.21	1091.09
588.56	1094.69
588.91	1091.65
589.26	1091.16
589.61	1093.94
589.96	1092.49
590.31	1087.69
590.66	1092.45
591.01	1094.22
591.36	1093.47
591.71	1092.96
592.06	1094.69
592.41	1093.24
592.76	1093.01
593.10	1089.12
593.45	1090.53
593.80	1089.89
594.15	1086.15
594.50	1087.37
594.85	1090.48
595.20	1091.37
595.55	1091.60
595.90	1092.59
596.25	1089.73
596.60	1090.10
596.95	1088.30
597.30	1086.45
597.64	1097.03
597.99	1099.33
598.34	1099.23
598.69	1098.81
599.04	1100.43
599.39	1090.20
599.74	1087.74
600.09	1087.55
600.44	1087.72
600.78	1085.91
601.13	1085.70
601.48	1086.34
601.83	1086.87
602.18	1086.90
602.53	1090.46
602.88	1092.75
603.22	1090.34
603.57	1087.90
603.92	1087.81
604.27	1082.97
604.62	1082.31
604.97	1084.60
605.31	1084.86
605.66	1084.02
606.01	1085.45
606.36	1087.53
606.71	1085.87
607.05	1088.58
607.40	1088.89
607.75	1091.60
608.10	1088.16
608.44	1087.83
608.79	1085.21
609.14	1086.24
609.49	1085.47
609.84	1087.34
610.18	1086.80
610.53	1085.87
610.88	1085.12
611.23	1082.59
611.57	1078.40
611.92	1080.06
612.27	1082.15
612.62	1080.56
612.96	1086.41
613.31	1088.86
613.66	1089.47
614.00	1091.53
614.35	1090.76
614.70	1085.61
615.05	1085.40
615.39	1084.07
615.74	1080.16
616.09	1082.10
616.43	1084.39
616.78	1081.87
617.13	1083.32
617.47	1083.88
617.82	1082.24
618.17	1080.88
618.51	1082.40
618.86	1083.48
619.21	1084.60
619.55	1087.86
619.90	1086.85
620.25	1085.59
620.59	1083.90
620.94	1081.66
621.29	1080.63
621.63	1081.28
621.98	1083.27
622.32	1084.14
622.67	1084.96
623.02	1084.49
623.36	1084.32
623.71	1086.57
624.05	1084.98
624.40	1085.56
624.75	1085.52
625.09	1085.17
625.44	1082.17
625.78	1083.39
626.13	1081.91
626.48	1080.72
626.82	1083.18
627.17	1088.21
627.51	1087.44
627.86	1087.95
628.20	1089.29
628.55	1086.15
628.89	1080.63
629.24	1080.91
629.58	1082.26
629.93	1082.38
630.28	1083.22
630.62	1083.76
630.97	1085.61
631.31	1083.74
631.66	1082.54
632.00	1081.63
632.35	1082.03
632.69	1079.27
633.04	1083.71
633.38	1085.87
633.73	1089.33
634.07	1089.17
634.42	1090.69
634.76	1087.30
635.11	1088.19
635.45	1086.92
635.79	1088.47
636.14	1085.96
636.48	1087.04
636.83	1082.33
637.17	1081.61
637.52	1080.18
637.86	1080.60
638.21	1080.34
638.55	1081.14
638.89	1081.28
639.24	1078.85
639.58	1079.46
639.93	1080.11
640.27	1080.30
640.61	1077.89
640.96	1079.50
641.30	1078.40
641.65	1077.51
641.99	1076.95
642.33	1075.34
642.68	1077.44
643.02	1080.46
643.37	1081.02
643.71	1084.79
644.05	1089.45
644.40	1086.69
644.74	1083.74
645.08	1083.74
645.43	1080.63
645.77	1080.39
646.11	1082.64
646.46	1084.30
646.80	1081.21
647.14	1081.47
647.49	1077.93
647.83	1073.42
648.17	1073.07
648.52	1075.90
648.86	1075.71
649.20	1079.41
649.55	1083.20
649.89	1082.31
650.23	1081.07
650.57	1084.42
650.92	1084.39
651.26	1085.28
651.60	1087.32
651.95	1085.66
652.29	1081.56
652.63	1077.75
652.97	1077.07
653.32	1076.34
653.66	1078.75
654.00	1083.64
654.34	1085.28
654.69	1084.11
655.03	1086.59
655.37	1086.87
655.71	1083.13
656.05	1085.94
656.40	1087.39
656.74	1085.17
657.08	1085.80
657.42	1085.80
657.76	1082.26
658.11	1081.75
658.45	1080.79
658.79	1077.35
659.13	1080.51
659.47	1081.87
659.82	1080.91
660.16	1078.94
660.50	1081.16
660.84	1078.66
661.18	1080.11
661.52	1081.02
661.87	1083.79
662.21	1086.55
662.55	1084.51
662.89	1082.73
663.23	1081.28
663.57	1082.40
663.91	1080.04
664.25	1082.24
664.60	1082.17
664.94	1081.26
665.28	1079.50
665.62	1077.98
665.96	1077.58
666.30	1077.79
666.64	1080.23
666.98	1080.23
667.32	1081.98
667.66	1085.45
668.01	1084.42
668.35	1083.97
668.69	1086.64
669.03	1086.31
669.37	1086.13
669.71	1090.13
670.05	1089.82
670.39	1088.77
670.73	1091.09
671.07	1085.21
671.41	1084.46
671.75	1084.77
672.09	1082.08
672.43	1079.10
672.77	1083.25
673.11	1082.40
673.45	1085.03
673.79	1084.35
674.13	1081.00
674.47	1081.61
674.81	1082.43
675.15	1078.03
675.49	1079.36
675.83	1080.93
676.17	1078.10
676.51	1076.08
676.85	1077.51
677.19	1077.42
677.53	1080.44
677.87	1078.78
678.21	1079.08
678.55	1079.85
678.89	1079.20
679.23	1079.13
679.57	1081.66
679.90	1081.51
680.24	1079.76
680.58	1082.92
680.92	1083.79
681.26	1085.17
681.60	1088.79
681.94	1089.57
682.28	1090.62
682.62	1088.58
682.96	1087.93
683.29	1085.99
683.63	1084.23
683.97	1083.29
684.31	1079.81
684.65	1081.47
684.99	1079.69
685.33	1081.70
685.67	1080.16
686.00	1083.69
686.34	1078.73
686.68	1080.58
687.02	1081.56
687.36	1080.84
687.70	1081.56
688.03	1083.43
688.37	1083.11
688.71	1084.79
689.05	1082.99
689.39	1077.93
689.72	1078.43
690.06	1077.79
690.40	1077.61
690.74	1080.46
691.08	1085.24
691.41	1085.07
691.75	1082.73
692.09	1080.53
692.43	1081.05
692.76	1078.96
693.10	1079.43
693.44	1082.97
693.78	1085.63
694.11	1083.71
694.45	1085.66
694.79	1085.49
695.13	1084.70
695.46	1082.73
695.80	1083.41
696.14	1085.99
696.48	1086.27
696.81	1086.34
697.15	1083.64
697.49	1082.61
697.82	1079.24
698.16	1077.56
698.50	1078.80
698.83	1080.34
699.17	1078.57
699.51	1078.50
699.84	1077.70
700.18	1074.91
700.52	1071.97
700.85	1074.96
701.19	1076.39
701.53	1075.90
701.86	1075.17
702.20	1080.39
702.54	1080.70
702.87	1080.37
703.21	1083.08
703.55	1082.92
703.88	1079.67
704.22	1078.38
704.55	1077.28
704.89	1078.17
705.23	1078.75
705.56	1079.38
705.90	1081.30
706.23	1080.74
706.57	1082.12
706.91	1080.44
707.24	1079.29
707.58	1074.33
707.91	1075.80
708.25	1076.18
708.58	1078.96
708.92	1082.52
709.26	1087.69
709.59	1088.98
709.93	1086.27
710.26	1086.43
710.60	1084.35
710.93	1085.49
711.27	1084.86
711.60	1082.19
711.94	1081.66
712.27	1083.93
712.61	1081.75
712.94	1078.78
713.28	1080.46
713.61	1081.68
713.95	1079.76
714.28	1081.09
714.62	1083.69
714.95	1082.69
715.29	1081.12
715.62	1080.39
715.96	1079.97
716.29	1077.33
716.63	1081.54
716.96	1083.88
717.29	1085.45
717.63	1084.46
717.96	1086.87
718.30	1084.37
718.63	1085.24
718.97	1080.70
719.30	1078.05
719.63	1078.19
719.97	1077.14
720.30	1072.60
720.64	1075.05
720.97	1077.37
721.30	1078.24
721.64	1081.12
721.97	1081.09
722.31	1080.18
722.64	1082.69
722.97	1082.80
723.31	1081.30
723.64	1083.32
723.97	1084.18
724.31	1080.74
724.64	1079.90
724.98	1080.53
725.31	1078.64
725.64	1080.58
725.98	1081.63
726.31	1079.55
726.64	1080.86
726.97	1079.20
727.31	1077.56
727.64	1078.54
727.97	1084.44
728.31	1084.65
728.64	1087.02
728.97	1087.23
729.31	1084.91
729.64	1080.18
729.97	1080.39
730.30	1080.09
730.64	1078.26
730.97	1079.22
731.30	1076.53
731.63	1072.83
731.97	1074.40
732.30	1075.22
732.63	1073.81
732.96	1073.07
733.30	1072.57
733.63	1069.32
733.96	1071.97
734.29	1073.23
734.63	1078.99
734.96	1078.85
735.29	1081.28
735.62	1079.29
735.95	1079.48
736.29	1077.02
736.62	1079.03
736.95	1076.90
737.28	1076.74
737.61	1078.73
737.94	1078.75
738.28	1080.72
738.61	1083.34
738.94	1086.52
739.27	1084.53
739.60	1085.12
739.93	1082.76
740.27	1083.71
740.60	1081.66
740.93	1082.83
741.26	1080.44
741.59	1078.75
741.92	1078.66
742.25	1078.45
742.58	1077.75
742.91	1080.30
743.25	1081.63
743.58	1079.81
743.91	1079.06
744.24	1079.03
744.57	1076.25
744.90	1074.12
745.23	1074.89
745.56	1076.37
745.89	1076.60
746.22	1076.67
746.55	1078.07
746.88	1079.74
747.21	1078.28
747.54	1078.64
747.87	1079.69
748.20	1081.21
748.53	1077.70
748.87	1079.15
749.20	1078.07
749.53	1079.67
749.86	1076.93
750.19	1079.15
750.52	1079.95
750.85	1083.22
751.18	1083.18
751.51	1083.86
751.84	1081.12
752.16	1077.49
752.49	1074.00
752.82	1073.46
753.15	1074.82
753.48	1075.71
753.81	1078.05
754.14	1078.47
754.47	1078.12
754.80	1080.86
755.13	1082.38
755.46	1081.80
755.79	1079.64
756.12	1080.11
756.45	1078.99
756.78	1077.54
757.11	1076.46
757.43	1078.99
757.76	1078.38
758.09	1077.79
758.42	1080.44
758.75	1080.11
759.08	1079.69
759.41	1075.80
759.74	1073.81
760.07	1074.82
760.39	1075.50
760.72	1075.52
761.05	1081.16
761.38	1084.58
761.71	1082.47
762.04	1081.33
762.36	1081.89
762.69	1079.55
763.02	1077.18
763.35	1080.39
763.68	1081.80
