SpectraSuite Data File
++++++++++++++++++++++++++++++++++++
Date: Mon Aug 26 10:22:08 PDT 2019
User: corrico
Dark Spectrum Present: No
Reference Spectrum Present: No
Number of Sampled Component Spectra: 1
Spectrometers: USB2+H06089
Integration Time (usec): 2000 (USB2+H06089)
Spectra Averaged: 20 (USB2+H06089)
Boxcar Smoothing: 2 (USB2+H06089)
Correct for Electrical Dark: No (USB2+H06089)
Strobe/Lamp Enabled: No (USB2+H06089)
Correct for Detector Non-linearity: No (USB2+H06089)
Correct for Stray Light: No (USB2+H06089)
Number of Pixels in Processed Spectrum: 2048
>>>>>Begin Processed Spectral Data<<<<<
339.70	1015.91
340.07	1015.91
340.45	986.16
340.82	966.85
341.19	945.48
341.57	923.55
341.94	913.53
342.31	907.52
342.69	903.80
343.06	904.69
343.43	902.44
343.81	904.17
344.18	905.83
344.55	908.39
344.93	909.11
345.30	912.93
345.67	920.77
346.04	927.13
346.42	933.22
346.79	941.67
347.16	954.14
347.54	958.87
347.91	967.53
348.28	977.38
348.65	988.10
349.03	996.69
349.40	1005.54
349.77	1014.18
350.14	1025.04
350.52	1032.06
350.89	1038.14
351.26	1045.61
351.63	1048.61
352.01	1050.92
352.38	1054.67
352.75	1059.49
353.12	1065.39
353.50	1071.12
353.87	1078.85
354.24	1082.97
354.61	1084.93
354.98	1083.69
355.36	1083.67
355.73	1081.61
356.10	1080.95
356.47	1080.39
356.84	1084.23
357.22	1086.64
357.59	1084.49
357.96	1086.80
358.33	1089.47
358.70	1087.88
359.08	1084.56
359.45	1086.87
359.82	1082.85
360.19	1080.67
360.56	1077.79
360.94	1077.93
361.31	1076.62
361.68	1074.73
362.05	1076.76
362.42	1077.61
362.79	1080.20
363.16	1077.51
363.54	1077.33
363.91	1073.35
364.28	1074.17
364.65	1070.77
365.02	1071.92
365.39	1072.55
365.76	1070.96
366.14	1072.41
366.51	1074.89
366.88	1075.45
367.25	1077.61
367.62	1074.87
367.99	1071.78
368.36	1069.55
368.73	1066.39
369.10	1067.33
369.48	1070.44
369.85	1072.85
370.22	1073.86
370.59	1078.40
370.96	1077.11
371.33	1079.53
371.70	1077.07
372.07	1075.38
372.44	1075.13
372.81	1077.04
373.18	1075.22
373.55	1074.94
373.93	1074.84
374.30	1073.37
374.67	1069.02
375.04	1067.54
375.41	1067.94
375.78	1071.12
376.15	1071.90
376.52	1074.54
376.89	1076.93
377.26	1077.28
377.63	1076.93
378.00	1074.84
378.37	1073.32
378.74	1074.77
379.11	1077.00
379.48	1075.62
379.85	1076.44
380.22	1078.40
380.59	1080.70
380.96	1080.25
381.33	1082.15
381.70	1082.15
382.07	1080.79
382.44	1076.60
382.81	1076.95
383.18	1076.46
383.55	1075.85
383.92	1075.10
384.29	1077.61
384.66	1075.73
385.03	1075.17
385.40	1078.75
385.77	1081.80
386.14	1081.70
386.51	1085.03
386.88	1085.82
387.25	1083.64
387.62	1084.79
387.99	1083.74
388.36	1079.74
388.73	1080.74
389.10	1084.32
389.46	1083.06
389.83	1086.34
390.20	1090.81
390.57	1093.38
390.94	1087.79
391.31	1084.79
391.68	1083.71
392.05	1080.79
392.42	1077.09
392.79	1081.66
393.16	1086.50
393.53	1088.04
393.89	1089.47
394.26	1089.17
394.63	1087.74
395.00	1086.41
395.37	1082.15
395.74	1083.46
396.11	1085.26
396.48	1088.14
396.84	1087.72
397.21	1092.40
397.58	1091.20
397.95	1091.88
398.32	1089.92
398.69	1090.88
399.06	1088.75
399.42	1090.62
399.79	1090.29
400.16	1090.10
400.53	1088.09
400.90	1089.24
401.27	1086.20
401.64	1088.61
402.00	1090.24
402.37	1089.75
402.74	1085.99
403.11	1088.86
403.48	1087.79
403.84	1086.80
404.21	1090.34
404.58	1093.19
404.95	1093.08
405.32	1093.38
405.68	1093.59
406.05	1092.82
406.42	1093.52
406.79	1091.16
407.16	1092.61
407.52	1094.22
407.89	1097.71
408.26	1097.80
408.63	1102.91
408.99	1101.06
409.36	1100.78
409.73	1099.37
410.10	1099.37
410.47	1095.84
410.83	1094.32
411.20	1095.25
411.57	1092.59
411.94	1095.09
412.30	1096.70
412.67	1098.25
413.04	1096.52
413.40	1099.21
413.77	1097.24
414.14	1095.75
414.51	1096.87
414.87	1100.26
415.24	1101.13
415.61	1101.88
415.97	1104.80
416.34	1105.67
416.71	1105.69
417.08	1107.92
417.44	1108.76
417.81	1107.85
418.18	1109.62
418.54	1108.66
418.91	1109.18
419.28	1111.24
419.64	1115.17
420.01	1116.67
420.38	1119.34
420.74	1120.98
421.11	1125.05
421.48	1124.60
421.84	1127.46
422.21	1130.13
422.58	1131.27
422.94	1131.02
423.31	1134.43
423.68	1138.55
424.04	1138.90
424.41	1138.97
424.77	1141.81
425.14	1146.68
425.51	1147.26
425.87	1154.05
426.24	1160.46
426.61	1168.86
426.97	1177.15
427.34	1184.50
427.70	1192.83
428.07	1202.43
428.44	1208.51
428.80	1216.10
429.17	1228.06
429.53	1239.99
429.90	1250.27
430.27	1262.39
430.63	1275.80
431.00	1291.34
431.36	1307.17
431.73	1325.89
432.09	1344.97
432.46	1362.26
432.83	1375.37
433.19	1391.78
433.56	1417.15
433.92	1438.63
434.29	1464.45
434.65	1495.09
435.02	1522.35
435.38	1552.45
435.75	1588.31
436.11	1623.18
436.48	1661.41
436.84	1708.26
437.21	1748.87
437.57	1790.81
437.94	1845.44
438.30	1901.05
438.67	1959.15
439.03	2022.95
439.40	2100.16
439.76	2170.19
440.13	2245.56
440.49	2324.92
440.86	2405.86
441.22	2491.52
441.59	2580.60
441.95	2682.35
442.32	2783.93
442.68	2903.27
443.05	3024.91
443.41	3155.39
443.78	3282.44
444.14	3420.53
444.51	3558.57
444.87	3725.92
445.24	3889.74
445.60	4072.58
445.96	4261.72
446.33	4474.21
446.69	4664.92
447.06	4880.77
447.42	5105.69
447.79	5346.11
448.15	5614.48
448.51	5898.06
448.88	6221.82
449.24	6530.02
449.61	6881.18
449.97	7229.59
450.33	7617.20
450.70	7987.31
451.06	8423.24
451.43	8823.77
451.79	9286.57
452.15	9771.95
452.52	10304.72
452.88	10860.51
453.24	11502.89
453.61	12209.12
453.97	12915.85
454.34	13620.82
454.70	14441.48
455.06	15245.43
455.43	16002.27
455.79	16702.44
456.15	17515.94
456.52	18256.01
456.88	19169.10
457.24	20074.99
457.61	21191.70
457.97	22252.15
458.33	23352.98
458.70	24422.51
459.06	25430.32
459.42	26449.22
459.79	27387.24
460.15	28453.28
460.51	29446.61
460.88	30557.38
461.24	31553.25
461.60	32704.52
461.96	33755.32
462.33	34791.01
462.69	35838.21
463.05	36965.44
463.42	38014.68
463.78	38971.53
464.14	39744.12
464.50	40467.14
464.87	40988.84
465.23	41310.46
465.59	41700.32
465.95	42008.19
466.32	42245.64
466.68	42498.16
467.04	42656.85
467.40	42677.63
467.77	42790.89
468.13	42727.86
468.49	42568.19
468.85	42441.24
469.22	42317.24
469.58	42055.71
469.94	41912.58
470.30	41689.27
470.66	41338.68
471.03	40806.96
471.39	40459.74
471.75	39754.84
472.11	39044.35
472.47	38550.94
472.84	38038.57
473.20	37320.78
473.56	36921.95
473.92	36374.62
474.28	35732.30
474.65	35068.46
475.01	34382.73
475.37	33528.01
475.73	32798.63
476.09	32097.83
476.45	31467.66
476.81	30908.81
477.18	30363.70
477.54	29900.16
477.90	29449.60
478.26	28868.47
478.62	28348.76
478.98	27911.57
479.34	27464.57
479.71	26895.52
480.07	26474.48
480.43	26032.05
480.79	25543.02
481.15	25066.41
481.51	24695.23
481.87	24357.37
482.23	23992.60
482.59	23674.26
482.96	23357.24
483.32	23052.92
483.68	22650.09
484.04	22296.41
484.40	21878.04
484.76	21449.02
485.12	20983.93
485.48	20548.24
485.84	20049.38
486.20	19617.57
486.56	19177.32
486.92	18780.62
487.28	18403.21
487.64	18008.97
488.00	17624.02
488.37	17238.56
488.73	16806.76
489.09	16332.54
489.45	15895.02
489.81	15433.00
490.17	14982.82
490.53	14573.21
490.89	14163.10
491.25	13747.49
491.61	13343.32
491.97	12945.34
492.33	12544.26
492.69	12187.17
493.05	11860.15
493.41	11547.15
493.77	11233.17
494.13	10929.23
494.49	10631.56
494.85	10344.77
495.21	10060.23
495.57	9804.57
495.93	9531.62
496.29	9269.08
496.64	9026.23
497.00	8773.76
497.36	8500.57
497.72	8274.00
498.08	8049.24
498.44	7824.50
498.80	7614.72
499.16	7425.54
499.52	7216.04
499.88	7036.68
500.24	6861.82
500.60	6700.60
500.96	6545.47
501.32	6397.67
501.68	6226.32
502.03	6050.75
502.39	5875.00
502.75	5701.97
503.11	5540.09
503.47	5398.02
503.83	5262.86
504.19	5136.73
504.55	5020.54
504.91	4909.55
505.26	4791.05
505.62	4670.14
505.98	4557.14
506.34	4436.39
506.70	4315.62
507.06	4209.85
507.42	4106.10
507.78	4005.38
508.13	3918.36
508.49	3834.80
508.85	3758.13
509.21	3681.01
509.57	3598.60
509.93	3509.61
510.28	3422.33
510.64	3332.57
511.00	3252.69
511.36	3180.53
511.72	3115.84
512.07	3056.32
512.43	2996.94
512.79	2936.62
513.15	2872.09
513.51	2812.88
513.86	2747.93
514.22	2691.52
514.58	2636.61
514.94	2589.66
515.30	2547.46
515.65	2509.03
516.01	2468.19
516.37	2427.77
516.73	2387.18
517.08	2340.56
517.44	2297.31
517.80	2258.06
518.16	2218.27
518.51	2182.20
518.87	2151.94
519.23	2117.25
519.59	2085.63
519.94	2057.21
520.30	2031.49
520.66	1997.60
521.01	1973.52
521.37	1945.24
521.73	1920.20
522.09	1895.72
522.44	1874.65
522.80	1850.90
523.16	1832.94
523.51	1810.52
523.87	1789.39
524.23	1769.98
524.58	1748.97
524.94	1726.43
525.30	1709.11
525.65	1689.31
526.01	1670.67
526.37	1654.41
526.72	1635.33
527.08	1615.65
527.44	1599.17
527.79	1579.00
528.15	1563.43
528.51	1549.93
528.86	1535.84
529.22	1521.77
529.58	1512.55
529.93	1495.98
530.29	1482.78
530.65	1470.44
531.00	1454.27
531.36	1437.16
531.71	1427.82
532.07	1415.58
532.43	1402.40
532.78	1391.96
533.14	1389.86
533.49	1382.81
533.85	1372.79
534.21	1366.24
534.56	1359.52
534.92	1347.12
535.27	1339.23
535.63	1332.26
535.98	1325.96
536.34	1319.90
536.69	1309.18
537.05	1298.34
537.41	1291.55
537.76	1281.96
538.12	1274.61
538.47	1273.60
538.83	1264.83
539.18	1257.24
539.54	1255.84
539.89	1251.34
540.25	1246.01
540.60	1245.66
540.96	1244.77
541.31	1238.38
541.67	1236.27
542.02	1230.58
542.38	1228.95
542.73	1224.33
543.09	1223.54
543.44	1218.18
543.80	1216.94
544.15	1215.81
544.51	1215.65
544.86	1211.74
545.22	1208.37
545.57	1204.07
545.93	1196.86
546.28	1190.91
546.64	1184.22
546.99	1180.71
547.35	1179.19
547.70	1179.77
548.05	1175.04
548.41	1172.42
548.76	1170.50
549.12	1166.76
549.47	1163.32
549.83	1164.81
550.18	1166.24
550.53	1163.20
550.89	1160.18
551.24	1154.91
551.60	1153.09
551.95	1151.31
552.30	1151.31
552.66	1151.85
553.01	1150.72
553.37	1146.68
553.72	1146.02
554.07	1141.22
554.43	1138.60
554.78	1137.83
555.13	1138.69
555.49	1135.44
555.84	1135.49
556.19	1131.34
556.55	1131.74
556.90	1130.46
557.26	1130.43
557.61	1132.23
557.96	1136.03
558.32	1135.23
558.67	1132.21
559.02	1131.72
559.37	1131.81
559.73	1128.28
560.08	1125.05
560.43	1124.81
560.79	1123.27
561.14	1117.00
561.49	1115.90
561.85	1116.32
562.20	1116.79
562.55	1115.80
562.90	1120.70
563.26	1118.47
563.61	1118.35
563.96	1114.21
564.32	1111.08
564.67	1106.84
565.02	1106.63
565.37	1106.98
565.73	1110.05
566.08	1108.97
566.43	1107.24
566.78	1107.45
567.14	1105.60
567.49	1104.71
567.84	1104.55
568.19	1107.49
568.54	1106.72
568.90	1106.44
569.25	1103.52
569.60	1104.97
569.95	1102.53
570.31	1103.00
570.66	1103.05
571.01	1102.46
571.36	1103.26
571.71	1103.05
572.06	1101.90
572.42	1100.54
572.77	1102.65
573.12	1100.10
573.47	1098.65
573.82	1101.06
574.18	1099.68
574.53	1098.44
574.88	1099.26
575.23	1098.98
575.58	1097.20
575.93	1096.35
576.28	1095.65
576.64	1094.34
576.99	1095.96
577.34	1093.69
577.69	1094.53
578.04	1092.54
578.39	1094.04
578.74	1094.46
579.09	1096.68
579.44	1094.55
579.80	1096.00
580.15	1093.24
580.50	1090.76
580.85	1089.89
581.20	1095.14
581.55	1096.96
581.90	1098.23
582.25	1098.88
582.60	1100.45
582.95	1099.16
583.30	1094.79
583.65	1096.92
584.00	1098.30
584.35	1098.62
584.71	1096.12
585.06	1100.24
585.41	1101.08
585.76	1097.83
586.11	1095.32
586.46	1096.85
586.81	1096.14
587.16	1092.96
587.51	1091.46
587.86	1091.74
588.21	1092.16
588.56	1090.32
588.91	1088.49
589.26	1089.52
589.61	1088.02
589.96	1082.31
590.31	1082.52
590.66	1084.67
591.01	1086.90
591.36	1084.93
591.71	1087.95
592.06	1085.40
592.41	1085.94
592.76	1082.76
593.10	1088.42
593.45	1089.89
593.80	1094.18
594.15	1092.91
594.50	1095.89
594.85	1093.90
595.20	1088.82
595.55	1088.96
595.90	1087.04
596.25	1088.21
596.60	1085.40
596.95	1085.96
597.30	1084.81
597.64	1099.89
597.99	1098.51
598.34	1098.32
598.69	1100.45
599.04	1100.52
599.39	1087.93
599.74	1087.65
600.09	1088.47
600.44	1087.06
600.78	1087.48
601.13	1087.51
601.48	1085.03
601.83	1083.39
602.18	1083.18
602.53	1084.25
602.88	1083.27
603.22	1086.66
603.57	1093.47
603.92	1094.74
604.27	1092.70
604.62	1092.28
604.97	1091.49
605.31	1085.40
605.66	1085.94
606.01	1084.96
606.36	1088.30
606.71	1089.36
607.05	1092.02
607.40	1093.43
607.75	1094.88
608.10	1089.85
608.44	1089.71
608.79	1087.62
609.14	1085.05
609.49	1083.15
609.84	1081.63
610.18	1079.60
610.53	1079.64
610.88	1082.83
611.23	1084.32
611.57	1086.80
611.92	1084.11
612.27	1083.90
612.62	1083.27
612.96	1084.70
613.31	1084.23
613.66	1089.17
614.00	1090.13
614.35	1090.95
614.70	1088.84
615.05	1089.47
615.39	1086.87
615.74	1087.39
616.09	1085.52
616.43	1082.66
616.78	1080.93
617.13	1081.54
617.47	1082.47
617.82	1080.25
618.17	1082.24
618.51	1083.48
618.86	1085.31
619.21	1083.76
619.55	1086.55
619.90	1085.40
620.25	1085.17
620.59	1082.17
620.94	1081.42
621.29	1081.56
621.63	1079.85
621.98	1077.56
622.32	1075.31
622.67	1077.63
623.02	1074.59
623.36	1076.30
623.71	1079.99
624.05	1081.49
624.40	1081.21
624.75	1080.77
625.09	1080.06
625.44	1079.31
625.78	1081.73
626.13	1077.14
626.48	1080.63
626.82	1083.90
627.17	1080.48
627.51	1078.85
627.86	1083.43
628.20	1080.84
628.55	1080.34
628.89	1082.64
629.24	1078.50
629.58	1080.18
629.93	1081.70
630.28	1079.78
630.62	1081.61
630.97	1086.73
631.31	1085.63
631.66	1082.71
632.00	1082.92
632.35	1081.61
632.69	1083.41
633.04	1081.47
633.38	1083.64
633.73	1085.70
634.07	1086.64
634.42	1084.11
634.76	1081.49
635.11	1082.54
635.45	1081.21
635.79	1082.85
636.14	1083.93
636.48	1085.42
636.83	1084.93
637.17	1087.18
637.52	1083.20
637.86	1082.45
638.21	1084.63
638.55	1083.18
638.89	1080.91
639.24	1084.65
639.58	1084.04
639.93	1081.84
640.27	1083.06
640.61	1085.59
640.96	1084.93
641.30	1084.46
641.65	1086.36
641.99	1086.48
642.33	1084.60
642.68	1081.40
643.02	1080.65
643.37	1082.47
643.71	1081.40
644.05	1080.18
644.40	1083.86
644.74	1085.70
645.08	1076.53
645.43	1075.76
645.77	1077.09
646.11	1076.11
646.46	1072.53
646.80	1077.07
647.14	1082.22
647.49	1079.29
647.83	1079.88
648.17	1083.39
648.52	1083.83
648.86	1080.27
649.20	1081.00
649.55	1081.35
649.89	1081.56
650.23	1084.51
650.57	1086.52
650.92	1088.04
651.26	1084.72
651.60	1085.19
651.95	1082.64
652.29	1080.98
652.63	1079.92
652.97	1080.02
653.32	1079.50
653.66	1081.44
654.00	1081.00
654.34	1082.31
654.69	1086.87
655.03	1086.62
655.37	1082.78
655.71	1083.55
656.05	1082.12
656.40	1077.86
656.74	1078.61
657.08	1080.18
657.42	1079.48
657.76	1079.57
658.11	1081.26
658.45	1078.28
658.79	1082.08
659.13	1081.56
659.47	1081.68
659.82	1084.42
660.16	1090.13
660.50	1086.01
660.84	1084.91
661.18	1085.59
661.52	1082.78
661.87	1077.54
662.21	1077.11
662.55	1077.63
662.89	1075.50
663.23	1075.92
663.57	1076.72
663.91	1078.61
664.25	1077.82
664.60	1081.66
664.94	1079.76
665.28	1079.97
665.62	1077.18
665.96	1078.92
666.30	1074.19
666.64	1073.60
666.98	1072.85
667.32	1077.04
667.66	1077.35
668.01	1078.82
668.35	1079.99
668.69	1082.19
669.03	1080.09
669.37	1081.89
669.71	1084.07
670.05	1084.86
670.39	1081.87
670.73	1083.20
671.07	1079.50
671.41	1078.05
671.75	1078.80
672.09	1080.56
672.43	1076.51
672.77	1080.53
673.11	1081.73
673.45	1079.13
673.79	1078.36
674.13	1079.20
674.47	1074.77
674.81	1074.59
675.15	1076.97
675.49	1079.17
675.83	1083.36
676.17	1083.64
676.51	1085.89
676.85	1083.55
677.19	1082.52
677.53	1080.84
677.87	1082.99
678.21	1079.74
678.55	1078.03
678.89	1078.87
679.23	1080.20
679.57	1078.71
679.90	1080.04
680.24	1084.74
680.58	1082.83
680.92	1079.71
681.26	1080.70
681.60	1082.47
681.94	1079.71
682.28	1079.74
682.62	1080.67
682.96	1080.13
683.29	1076.74
683.63	1078.75
683.97	1081.23
684.31	1080.88
684.65	1078.92
684.99	1079.22
685.33	1075.05
685.67	1071.26
686.00	1070.87
686.34	1072.67
686.68	1071.08
687.02	1074.42
687.36	1075.41
687.70	1076.51
688.03	1077.72
688.37	1078.10
688.71	1079.41
689.05	1080.67
689.39	1075.24
689.72	1075.15
690.06	1077.09
690.40	1075.34
690.74	1074.14
691.08	1078.94
691.41	1080.98
691.75	1079.83
692.09	1079.88
692.43	1080.98
692.76	1082.24
693.10	1080.53
693.44	1080.25
693.78	1080.46
694.11	1078.54
694.45	1078.68
694.79	1078.28
695.13	1082.59
695.46	1082.05
695.80	1081.80
696.14	1078.94
696.48	1075.01
696.81	1070.70
697.15	1068.92
697.49	1073.21
697.82	1073.79
698.16	1077.28
698.50	1078.24
698.83	1080.86
699.17	1078.21
699.51	1077.44
699.84	1075.99
700.18	1075.38
700.52	1074.07
700.85	1076.11
701.19	1078.28
701.53	1080.88
701.86	1080.11
702.20	1080.63
702.54	1078.36
702.87	1077.68
703.21	1077.40
703.55	1078.59
703.88	1078.64
704.22	1078.38
704.55	1078.94
704.89	1079.01
705.23	1079.27
705.56	1079.50
705.90	1078.47
706.23	1077.40
706.57	1078.61
706.91	1079.22
707.24	1079.01
707.58	1078.36
707.91	1081.23
708.25	1077.47
708.58	1076.69
708.92	1075.27
709.26	1080.98
709.59	1080.98
709.93	1085.91
710.26	1087.16
710.60	1089.24
710.93	1085.42
711.27	1085.68
711.60	1084.84
711.94	1084.28
712.27	1080.67
712.61	1078.87
712.94	1077.16
713.28	1077.28
713.61	1075.97
713.95	1077.16
714.28	1075.76
714.62	1076.06
714.95	1075.15
715.29	1074.24
715.62	1075.29
715.96	1079.90
716.29	1077.11
716.63	1078.47
716.96	1080.37
717.29	1081.35
717.63	1080.27
717.96	1082.40
718.30	1076.83
718.63	1079.62
718.97	1081.16
719.30	1080.23
719.63	1082.61
719.97	1085.77
720.30	1082.01
720.64	1078.66
720.97	1078.47
721.30	1076.90
721.64	1077.21
721.97	1082.08
722.31	1085.05
722.64	1090.88
722.97	1088.82
723.31	1084.65
723.64	1080.34
723.97	1078.31
724.31	1073.58
724.64	1073.35
724.98	1076.11
725.31	1075.38
725.64	1076.25
725.98	1073.74
726.31	1074.73
726.64	1075.03
726.97	1074.12
727.31	1072.92
727.64	1077.63
727.97	1078.80
728.31	1081.47
728.64	1085.03
728.97	1086.80
729.31	1084.07
729.64	1085.35
729.97	1082.45
730.30	1082.94
730.64	1082.76
730.97	1082.36
731.30	1080.58
731.63	1081.98
731.97	1080.09
732.30	1081.09
732.63	1084.14
732.96	1083.20
733.30	1080.70
733.63	1080.44
733.96	1077.49
734.29	1075.99
734.63	1075.52
734.96	1075.90
735.29	1074.14
735.62	1073.44
735.95	1078.38
736.29	1080.88
736.62	1084.42
736.95	1087.09
737.28	1091.53
737.61	1086.85
737.94	1088.19
738.28	1086.64
738.61	1084.49
738.94	1083.71
739.27	1081.37
739.60	1078.28
739.93	1076.95
740.27	1078.52
740.60	1078.87
740.93	1083.13
741.26	1086.17
741.59	1086.92
741.92	1086.76
742.25	1083.20
742.58	1078.31
742.91	1074.96
743.25	1077.58
743.58	1080.27
743.91	1081.35
744.24	1086.45
744.57	1089.87
744.90	1087.34
745.23	1084.53
745.56	1082.99
745.89	1080.06
746.22	1075.36
746.55	1074.49
746.88	1073.81
747.21	1077.56
747.54	1077.68
747.87	1075.50
748.20	1076.32
748.53	1074.42
748.87	1070.16
749.20	1068.85
749.53	1072.95
749.86	1073.79
750.19	1073.93
750.52	1076.13
750.85	1076.18
751.18	1075.59
751.51	1074.63
751.84	1075.15
752.16	1076.08
752.49	1074.84
752.82	1074.19
753.15	1074.05
753.48	1077.35
753.81	1077.96
754.14	1079.55
754.47	1082.10
754.80	1081.16
755.13	1079.01
755.46	1078.94
755.79	1081.35
756.12	1082.50
756.45	1083.88
756.78	1085.38
757.11	1083.22
757.43	1081.51
757.76	1078.92
758.09	1078.14
758.42	1078.73
758.75	1078.54
759.08	1075.83
759.41	1075.13
759.74	1075.15
760.07	1071.31
760.39	1071.05
760.72	1073.04
761.05	1073.56
761.38	1076.83
761.71	1081.21
762.04	1081.30
762.36	1083.76
762.69	1085.84
763.02	1081.14
763.35	1080.93
763.68	1082.08
