SpectraSuite Data File
++++++++++++++++++++++++++++++++++++
Date: Mon Aug 26 10:22:35 PDT 2019
User: corrico
Dark Spectrum Present: No
Reference Spectrum Present: No
Number of Sampled Component Spectra: 1
Spectrometers: USB2+H06089
Integration Time (usec): 2000 (USB2+H06089)
Spectra Averaged: 20 (USB2+H06089)
Boxcar Smoothing: 2 (USB2+H06089)
Correct for Electrical Dark: No (USB2+H06089)
Strobe/Lamp Enabled: No (USB2+H06089)
Correct for Detector Non-linearity: No (USB2+H06089)
Correct for Stray Light: No (USB2+H06089)
Number of Pixels in Processed Spectrum: 2048
>>>>>Begin Processed Spectral Data<<<<<
339.70	1033.11
340.07	1033.11
340.45	1000.95
340.82	979.09
341.19	956.62
341.57	929.05
341.94	918.92
342.31	907.78
342.69	901.04
343.06	895.00
343.43	895.44
343.81	895.28
344.18	898.06
344.55	903.21
344.93	908.69
345.30	918.71
345.67	926.55
346.04	935.16
346.42	941.50
346.79	950.66
347.16	955.57
347.54	963.06
347.91	970.27
348.28	981.60
348.65	989.67
349.03	998.40
349.40	1006.90
349.77	1014.18
350.14	1021.27
350.52	1028.76
350.89	1034.87
351.26	1041.23
351.63	1047.34
352.01	1054.76
352.38	1060.96
352.75	1064.90
353.12	1069.11
353.50	1074.59
353.87	1075.76
354.24	1076.65
354.61	1077.89
354.98	1078.26
355.36	1081.84
355.73	1082.90
356.10	1083.36
356.47	1085.59
356.84	1084.67
357.22	1082.71
357.59	1084.96
357.96	1085.94
358.33	1086.76
358.70	1088.04
359.08	1083.86
359.45	1079.24
359.82	1080.93
360.19	1077.51
360.56	1079.88
360.94	1080.81
361.31	1082.90
361.68	1077.89
362.05	1078.31
362.42	1077.21
362.79	1079.81
363.16	1079.69
363.54	1082.36
363.91	1082.26
364.28	1078.92
364.65	1076.30
365.02	1074.61
365.39	1072.36
365.76	1070.68
366.14	1068.57
366.51	1071.64
366.88	1073.79
367.25	1075.03
367.62	1078.24
367.99	1086.64
368.36	1085.12
368.73	1082.40
369.10	1080.46
369.48	1081.63
369.85	1075.55
370.22	1071.87
370.59	1071.05
370.96	1068.88
371.33	1065.74
371.70	1067.12
372.07	1067.49
372.44	1067.17
372.81	1070.35
373.18	1068.67
373.55	1064.64
373.93	1066.63
374.30	1068.67
374.67	1067.92
375.04	1069.95
375.41	1071.85
375.78	1069.84
376.15	1070.63
376.52	1073.74
376.89	1074.77
377.26	1075.62
377.63	1076.37
378.00	1076.46
378.37	1074.28
378.74	1073.88
379.11	1073.21
379.48	1077.25
379.85	1075.41
380.22	1076.58
380.59	1077.79
380.96	1079.71
381.33	1081.56
381.70	1082.80
382.07	1086.55
382.44	1085.12
382.81	1084.21
383.18	1079.81
383.55	1078.59
383.92	1077.11
384.29	1078.92
384.66	1078.94
385.03	1080.70
385.40	1084.93
385.77	1084.89
386.14	1083.11
386.51	1086.97
386.88	1085.59
387.25	1083.62
387.62	1081.19
387.99	1081.58
388.36	1077.49
388.73	1079.92
389.10	1078.43
389.46	1079.88
389.83	1081.87
390.20	1085.07
390.57	1081.12
390.94	1083.55
391.31	1084.63
391.68	1082.15
392.05	1083.79
392.42	1085.70
392.79	1084.28
393.16	1081.87
393.53	1085.82
393.89	1082.01
394.26	1083.29
394.63	1087.44
395.00	1086.99
395.37	1084.28
395.74	1089.36
396.11	1093.71
396.48	1091.81
396.84	1093.52
397.21	1096.54
397.58	1094.29
397.95	1089.00
398.32	1086.01
398.69	1086.31
399.06	1085.38
399.42	1082.10
399.79	1082.97
400.16	1086.13
400.53	1086.59
400.90	1085.56
401.27	1087.55
401.64	1086.99
402.00	1085.56
402.37	1086.24
402.74	1086.55
403.11	1088.30
403.48	1090.85
403.84	1091.67
404.21	1092.45
404.58	1094.81
404.95	1095.58
405.32	1094.53
405.68	1094.29
406.05	1093.57
406.42	1091.09
406.79	1090.13
407.16	1089.66
407.52	1089.57
407.89	1091.20
408.26	1093.03
408.63	1093.52
408.99	1094.60
409.36	1093.57
409.73	1092.59
410.10	1091.84
410.47	1092.84
410.83	1094.01
411.20	1099.28
411.57	1099.33
411.94	1100.38
412.30	1100.50
412.67	1100.54
413.04	1099.75
413.40	1099.96
413.77	1097.17
414.14	1094.18
414.51	1090.20
414.87	1089.80
415.24	1087.76
415.61	1091.27
415.97	1091.77
416.34	1097.57
416.71	1097.80
417.08	1102.42
417.44	1104.38
417.81	1106.61
418.18	1106.44
418.54	1106.25
418.91	1105.04
419.28	1105.46
419.64	1106.39
420.01	1107.96
420.38	1108.52
420.74	1110.98
421.11	1112.71
421.48	1114.66
421.84	1116.41
422.21	1119.69
422.58	1121.61
422.94	1119.76
423.31	1122.01
423.68	1122.90
424.04	1127.44
424.41	1132.49
424.77	1139.30
425.14	1143.09
425.51	1148.99
425.87	1151.89
426.24	1154.77
426.61	1159.22
426.97	1164.09
427.34	1167.67
427.70	1172.91
428.07	1174.57
428.44	1181.76
428.80	1188.22
429.17	1194.02
429.53	1200.48
429.90	1214.55
430.27	1223.44
430.63	1236.53
431.00	1249.40
431.36	1260.99
431.73	1271.85
432.09	1286.76
432.46	1298.18
432.83	1313.27
433.19	1328.04
433.56	1347.59
433.92	1364.72
434.29	1382.93
434.65	1404.56
435.02	1432.50
435.38	1453.73
435.75	1479.97
436.11	1512.95
436.48	1545.83
436.84	1577.26
437.21	1611.53
437.57	1643.52
437.94	1683.17
438.30	1725.65
438.67	1769.33
439.03	1820.09
439.40	1877.23
439.76	1926.89
440.13	1986.30
440.49	2052.04
440.86	2116.57
441.22	2187.37
441.59	2259.41
441.95	2334.43
442.32	2415.57
442.68	2505.89
443.05	2598.88
443.41	2698.61
443.78	2793.05
444.14	2894.63
444.51	3005.27
444.87	3142.68
445.24	3283.07
445.60	3438.81
445.96	3588.81
446.33	3752.02
446.69	3901.56
447.06	4065.91
447.42	4236.56
447.79	4425.93
448.15	4642.08
448.51	4866.77
448.88	5124.25
449.24	5370.38
449.61	5643.24
449.97	5912.97
450.33	6195.23
450.70	6447.50
451.06	6755.11
451.43	7047.33
451.79	7392.47
452.15	7771.87
452.52	8214.18
452.88	8676.67
453.24	9195.87
453.61	9748.17
453.97	10307.04
454.34	10851.03
454.70	11476.86
455.06	12110.70
455.43	12728.04
455.79	13302.72
456.15	13989.97
456.52	14623.92
456.88	15365.48
457.24	16066.44
457.61	16891.53
457.97	17616.37
458.33	18366.07
458.70	19100.32
459.06	19842.45
459.42	20649.77
459.79	21426.83
460.15	22312.21
460.51	23164.40
460.88	24081.65
461.24	24874.07
461.60	25823.20
461.96	26677.54
462.33	27485.47
462.69	28221.78
463.05	29009.16
463.42	29674.79
463.78	30284.17
464.14	30807.42
464.50	31393.09
464.87	31883.15
465.23	32239.92
465.59	32598.96
465.95	32897.91
466.32	33149.24
466.68	33349.85
467.04	33463.79
467.40	33588.96
467.77	33753.78
468.13	33747.01
468.49	33669.50
468.85	33617.37
469.22	33456.93
469.58	33114.51
469.94	32854.31
470.30	32529.72
470.66	32126.31
471.03	31551.24
471.39	31157.94
471.75	30517.29
472.11	29928.66
472.47	29558.41
472.84	29240.50
473.20	28767.88
473.56	28514.42
473.92	28113.93
474.28	27593.39
474.65	27113.21
475.01	26659.40
475.37	26091.89
475.73	25627.63
476.09	25127.24
476.45	24607.25
476.81	24071.54
477.18	23562.80
477.54	23160.26
477.90	22828.30
478.26	22436.12
478.62	22128.27
478.98	21868.54
479.34	21542.45
479.71	21122.98
480.07	20780.61
480.43	20438.75
480.79	20066.07
481.15	19727.39
481.51	19447.77
481.87	19207.79
482.23	18928.17
482.59	18669.31
482.96	18382.36
483.32	18088.99
483.68	17716.76
484.04	17367.78
484.40	17012.56
484.76	16653.89
485.12	16295.65
485.48	16014.88
485.84	15696.97
486.20	15355.48
486.56	15014.33
486.92	14709.54
487.28	14343.29
487.64	13974.82
488.00	13643.50
488.37	13318.40
488.73	12976.44
489.09	12627.52
489.45	12356.32
489.81	12062.44
490.17	11781.25
490.53	11503.10
490.89	11227.06
491.25	10908.21
491.61	10612.08
491.97	10300.49
492.33	9978.83
492.69	9690.71
493.05	9403.45
493.41	9127.79
493.77	8857.92
494.13	8622.21
494.49	8376.24
494.85	8149.37
495.21	7925.83
495.57	7724.03
495.93	7509.45
496.29	7326.13
496.64	7145.30
497.00	6963.94
497.36	6785.77
497.72	6610.63
498.08	6427.09
498.44	6252.16
498.80	6093.30
499.16	5939.86
499.52	5793.79
499.88	5669.90
500.24	5563.90
500.60	5436.69
500.96	5322.33
501.32	5213.87
501.68	5095.46
502.03	4959.01
502.39	4841.49
502.75	4703.45
503.11	4578.98
503.47	4464.55
503.83	4356.44
504.19	4240.00
504.55	4139.42
504.91	4046.22
505.26	3951.55
505.62	3861.46
505.98	3783.52
506.34	3700.01
506.70	3608.90
507.06	3521.76
507.42	3443.16
507.78	3363.65
508.13	3289.79
508.49	3223.99
508.85	3158.97
509.21	3088.57
509.57	3017.23
509.93	2953.64
510.28	2881.04
510.64	2820.02
511.00	2761.64
511.36	2710.86
511.72	2650.52
512.07	2605.09
512.43	2552.19
512.79	2502.90
513.15	2455.43
513.51	2414.36
513.86	2371.83
514.22	2333.89
514.58	2294.87
514.94	2259.32
515.30	2227.70
515.65	2187.39
516.01	2153.81
516.37	2125.09
516.73	2093.38
517.08	2060.58
517.44	2039.66
517.80	2015.29
518.16	1986.53
518.51	1962.54
518.87	1939.27
519.23	1911.63
519.59	1885.47
519.94	1858.62
520.30	1835.92
520.66	1809.56
521.01	1785.17
521.37	1761.37
521.73	1746.48
522.09	1723.22
522.44	1707.80
522.80	1689.49
523.16	1672.92
523.51	1649.00
523.87	1629.50
524.23	1611.51
524.58	1592.78
524.94	1573.85
525.30	1557.63
525.65	1545.67
526.01	1529.59
526.37	1518.26
526.72	1508.83
527.08	1498.06
527.44	1481.82
527.79	1473.34
528.15	1458.22
528.51	1444.81
528.86	1429.41
529.22	1420.63
529.58	1409.52
529.93	1400.76
530.29	1392.76
530.65	1386.09
531.00	1374.92
531.36	1366.43
531.71	1356.27
532.07	1343.02
532.43	1335.91
532.78	1329.03
533.14	1318.07
533.49	1311.94
533.85	1305.86
534.21	1299.37
534.56	1294.81
534.92	1287.18
535.27	1283.48
535.63	1280.93
535.98	1275.90
536.34	1268.43
536.69	1265.34
537.05	1261.29
537.41	1253.40
537.76	1244.09
538.12	1238.68
538.47	1233.65
538.83	1228.73
539.18	1224.47
539.54	1222.86
539.89	1220.36
540.25	1215.39
540.60	1210.53
540.96	1206.80
541.31	1202.94
541.67	1199.15
542.02	1196.25
542.38	1195.87
542.73	1191.57
543.09	1195.45
543.44	1193.49
543.80	1192.85
544.15	1189.25
544.51	1188.43
544.86	1180.05
545.22	1178.39
545.57	1174.60
545.93	1168.18
546.28	1165.26
546.64	1161.02
546.99	1160.74
547.35	1158.07
547.70	1155.66
548.05	1158.80
548.41	1160.09
548.76	1156.01
549.12	1152.85
549.47	1151.89
549.83	1150.00
550.18	1149.09
550.53	1143.47
550.89	1142.42
551.24	1142.42
551.60	1137.78
551.95	1135.16
552.30	1137.08
552.66	1135.32
553.01	1137.45
553.37	1135.67
553.72	1135.14
554.07	1136.05
554.43	1136.00
554.78	1130.20
555.13	1128.14
555.49	1123.93
555.84	1121.42
556.19	1123.18
556.55	1123.78
556.90	1121.00
557.26	1121.87
557.61	1118.66
557.96	1115.20
558.32	1113.04
558.67	1115.62
559.02	1116.37
559.37	1116.34
559.73	1116.90
560.08	1115.92
560.43	1116.25
560.79	1114.96
561.14	1115.80
561.49	1114.17
561.85	1116.13
562.20	1111.36
562.55	1111.50
562.90	1109.39
563.26	1107.59
563.61	1104.71
563.96	1107.26
564.32	1106.04
564.67	1107.78
565.02	1110.23
565.37	1109.98
565.73	1111.71
566.08	1112.25
566.43	1112.01
566.78	1108.34
567.14	1109.81
567.49	1107.17
567.84	1104.48
568.19	1103.05
568.54	1102.91
568.90	1101.29
569.25	1100.68
569.60	1101.27
569.95	1102.32
570.31	1103.49
570.66	1100.24
571.01	1100.22
571.36	1101.29
571.71	1100.59
572.06	1098.23
572.42	1099.47
572.77	1097.62
573.12	1097.36
573.47	1097.71
573.82	1098.88
574.18	1100.80
574.53	1100.66
574.88	1098.69
575.23	1097.41
575.58	1097.10
575.93	1094.34
576.28	1099.19
576.64	1098.30
576.99	1095.49
577.34	1095.07
577.69	1097.24
578.04	1094.06
578.39	1094.76
578.74	1094.36
579.09	1094.01
579.44	1094.29
579.80	1093.10
580.15	1093.17
580.50	1096.10
580.85	1096.87
581.20	1096.80
581.55	1094.43
581.90	1093.43
582.25	1090.15
582.60	1090.48
582.95	1089.66
583.30	1089.80
583.65	1090.95
584.00	1092.09
584.35	1091.20
584.71	1090.01
585.06	1090.99
585.41	1086.83
585.76	1085.70
586.11	1087.37
586.46	1085.68
586.81	1085.00
587.16	1089.99
587.51	1093.62
587.86	1092.77
588.21	1095.07
588.56	1094.97
588.91	1093.38
589.26	1088.93
589.61	1088.98
589.96	1085.68
590.31	1085.49
590.66	1084.70
591.01	1083.74
591.36	1083.20
591.71	1082.40
592.06	1081.61
592.41	1081.84
592.76	1086.85
593.10	1086.73
593.45	1090.41
593.80	1091.60
594.15	1089.94
594.50	1088.09
594.85	1085.70
595.20	1082.87
595.55	1084.32
595.90	1083.69
596.25	1081.14
596.60	1085.73
596.95	1089.96
597.30	1090.53
597.64	1104.83
597.99	1107.54
598.34	1103.68
598.69	1102.60
599.04	1100.43
599.39	1091.06
599.74	1088.04
600.09	1088.42
600.44	1087.09
600.78	1088.26
601.13	1083.74
601.48	1087.11
601.83	1087.23
602.18	1085.73
602.53	1085.42
602.88	1086.01
603.22	1086.78
603.57	1086.76
603.92	1088.89
604.27	1088.51
604.62	1089.38
604.97	1087.39
605.31	1085.40
605.66	1084.49
606.01	1086.97
606.36	1086.34
606.71	1085.31
607.05	1084.98
607.40	1083.11
607.75	1080.74
608.10	1080.93
608.44	1085.19
608.79	1087.46
609.14	1090.95
609.49	1090.71
609.84	1090.64
610.18	1087.41
610.53	1088.89
610.88	1089.80
611.23	1090.34
611.57	1090.29
611.92	1090.48
612.27	1089.22
612.62	1082.80
612.96	1081.66
613.31	1084.37
613.66	1082.36
614.00	1082.59
614.35	1084.02
614.70	1081.82
615.05	1079.53
615.39	1082.15
615.74	1081.33
616.09	1082.43
616.43	1085.54
616.78	1083.57
617.13	1081.96
617.47	1078.89
617.82	1077.21
618.17	1073.65
618.51	1075.48
618.86	1073.65
619.21	1075.99
619.55	1078.85
619.90	1079.46
620.25	1077.65
620.59	1079.53
620.94	1079.01
621.29	1078.87
621.63	1081.54
621.98	1081.91
622.32	1082.47
622.67	1082.15
623.02	1082.29
623.36	1081.47
623.71	1083.97
624.05	1084.44
624.40	1086.41
624.75	1084.72
625.09	1085.96
625.44	1085.73
625.78	1085.70
626.13	1087.44
626.48	1089.87
626.82	1088.82
627.17	1090.67
627.51	1093.62
627.86	1091.56
628.20	1091.04
628.55	1093.62
628.89	1092.87
629.24	1088.86
629.58	1087.34
629.93	1084.37
630.28	1081.12
630.62	1078.10
630.97	1079.48
631.31	1080.02
631.66	1081.42
632.00	1082.61
632.35	1085.17
632.69	1081.77
633.04	1082.24
633.38	1082.80
633.73	1078.87
634.07	1078.92
634.42	1084.30
634.76	1084.04
635.11	1085.68
635.45	1089.89
635.79	1088.02
636.14	1083.11
636.48	1081.73
636.83	1079.15
637.17	1075.78
637.52	1076.53
637.86	1078.19
638.21	1080.72
638.55	1083.76
638.89	1087.48
639.24	1085.21
639.58	1087.65
639.93	1083.71
640.27	1082.31
640.61	1081.94
640.96	1081.91
641.30	1080.56
641.65	1084.07
641.99	1083.13
642.33	1078.99
642.68	1078.73
643.02	1077.37
643.37	1078.00
643.71	1077.68
644.05	1079.67
644.40	1079.90
644.74	1079.55
645.08	1079.53
645.43	1081.07
645.77	1083.46
646.11	1085.03
646.46	1083.22
646.80	1082.17
647.14	1080.98
647.49	1076.90
647.83	1074.73
648.17	1077.42
648.52	1077.86
648.86	1079.01
649.20	1081.49
649.55	1081.47
649.89	1080.86
650.23	1081.49
650.57	1081.21
650.92	1081.73
651.26	1083.64
651.60	1085.40
651.95	1085.12
652.29	1084.63
652.63	1083.13
652.97	1084.86
653.32	1080.63
653.66	1080.88
654.00	1080.79
654.34	1082.45
654.69	1080.91
655.03	1082.97
655.37	1080.04
655.71	1082.12
656.05	1083.39
656.40	1082.40
656.74	1080.39
657.08	1078.82
657.42	1075.50
657.76	1074.21
658.11	1075.55
658.45	1079.43
658.79	1081.00
659.13	1082.29
659.47	1081.77
659.82	1081.02
660.16	1081.07
660.50	1082.50
660.84	1082.10
661.18	1083.43
661.52	1085.38
661.87	1082.15
662.21	1082.99
662.55	1080.58
662.89	1078.85
663.23	1076.18
663.57	1077.96
663.91	1076.23
664.25	1079.15
664.60	1079.76
664.94	1080.60
665.28	1080.98
665.62	1084.53
665.96	1085.42
666.30	1085.31
666.64	1083.15
666.98	1082.92
667.32	1077.56
667.66	1075.38
668.01	1075.01
668.35	1077.35
668.69	1079.64
669.03	1083.46
669.37	1085.96
669.71	1085.77
670.05	1087.97
670.39	1086.71
670.73	1082.94
671.07	1078.57
671.41	1080.51
671.75	1078.85
672.09	1074.73
672.43	1077.02
672.77	1079.03
673.11	1080.44
673.45	1080.56
673.79	1080.37
674.13	1080.11
674.47	1081.75
674.81	1078.54
675.15	1076.97
675.49	1078.80
675.83	1079.34
676.17	1075.31
676.51	1073.46
676.85	1073.00
677.19	1072.04
677.53	1072.76
677.87	1075.85
678.21	1075.69
678.55	1076.32
678.89	1079.97
679.23	1079.13
679.57	1077.82
679.90	1080.65
680.24	1082.08
680.58	1078.36
680.92	1078.12
681.26	1081.40
681.60	1081.19
681.94	1083.48
682.28	1087.25
682.62	1086.17
682.96	1082.17
683.29	1078.94
683.63	1077.86
683.97	1073.58
684.31	1075.62
684.65	1074.49
684.99	1078.17
685.33	1073.86
685.67	1073.49
686.00	1074.70
686.34	1080.04
686.68	1080.65
687.02	1082.15
687.36	1084.93
687.70	1081.40
688.03	1078.87
688.37	1076.95
688.71	1077.98
689.05	1077.51
689.39	1080.20
689.72	1078.66
690.06	1078.31
690.40	1077.86
690.74	1079.29
691.08	1078.43
691.41	1079.41
691.75	1080.02
692.09	1079.97
692.43	1077.11
692.76	1075.69
693.10	1074.56
693.44	1077.07
693.78	1076.46
694.11	1079.64
694.45	1079.15
694.79	1081.16
695.13	1078.26
695.46	1076.34
695.80	1074.59
696.14	1077.42
696.48	1078.80
696.81	1080.20
697.15	1082.47
697.49	1083.57
697.82	1081.70
698.16	1079.90
698.50	1077.77
698.83	1077.40
699.17	1076.37
699.51	1075.08
699.84	1077.25
700.18	1077.23
700.52	1076.51
700.85	1074.89
701.19	1078.03
701.53	1074.52
701.86	1076.46
702.20	1079.76
702.54	1081.42
702.87	1082.10
703.21	1083.29
703.55	1079.85
703.88	1077.21
704.22	1078.92
704.55	1081.09
704.89	1082.08
705.23	1084.74
705.56	1088.02
705.90	1087.53
706.23	1084.21
706.57	1084.02
706.91	1078.85
707.24	1078.00
707.58	1080.65
707.91	1080.84
708.25	1081.30
708.58	1089.40
708.92	1090.74
709.26	1086.48
709.59	1083.22
709.93	1085.19
710.26	1084.56
710.60	1080.39
710.93	1079.57
711.27	1080.25
711.60	1076.11
711.94	1073.07
712.27	1074.10
712.61	1078.36
712.94	1081.44
713.28	1084.30
713.61	1083.36
713.95	1081.05
714.28	1078.38
714.62	1077.11
714.95	1075.90
715.29	1077.72
715.62	1080.44
715.96	1082.26
716.29	1083.76
716.63	1081.77
716.96	1082.76
717.29	1083.69
717.63	1082.69
717.96	1083.13
718.30	1082.83
718.63	1080.70
718.97	1081.68
719.30	1081.94
719.63	1080.30
719.97	1082.24
720.30	1083.76
720.64	1081.47
720.97	1079.57
721.30	1080.91
721.64	1082.47
721.97	1082.43
722.31	1080.77
722.64	1080.51
722.97	1081.94
723.31	1080.79
723.64	1082.03
723.97	1085.05
724.31	1088.93
724.64	1088.09
724.98	1086.59
725.31	1083.41
725.64	1081.16
725.98	1079.29
726.31	1077.00
726.64	1074.49
726.97	1078.21
727.31	1079.48
727.64	1078.10
727.97	1076.79
728.31	1079.38
728.64	1076.88
728.97	1075.15
729.31	1073.86
729.64	1076.30
729.97	1078.52
730.30	1079.43
730.64	1079.13
730.97	1081.40
731.30	1080.09
731.63	1083.86
731.97	1084.18
732.30	1089.26
732.63	1087.93
732.96	1088.28
733.30	1082.38
733.63	1080.86
733.96	1073.74
734.29	1076.41
734.63	1076.37
734.96	1075.83
735.29	1076.67
735.62	1083.36
735.95	1078.96
736.29	1077.40
736.62	1080.13
736.95	1078.73
737.28	1075.05
737.61	1078.36
737.94	1079.22
738.28	1077.18
738.61	1074.10
738.94	1075.76
739.27	1076.76
739.60	1075.34
739.93	1078.94
740.27	1082.61
740.60	1079.36
740.93	1075.85
741.26	1078.43
741.59	1075.08
741.92	1077.98
742.25	1081.00
742.58	1082.15
742.91	1083.04
743.25	1085.03
743.58	1083.55
743.91	1083.25
744.24	1081.16
744.57	1080.04
744.90	1078.14
745.23	1077.02
745.56	1073.70
745.89	1077.14
746.22	1080.32
746.55	1079.92
746.88	1078.26
747.21	1081.21
747.54	1079.06
747.87	1074.94
748.20	1077.35
748.53	1079.74
748.87	1080.09
749.20	1080.20
749.53	1081.16
749.86	1079.50
750.19	1079.27
750.52	1077.65
750.85	1081.21
751.18	1080.53
751.51	1078.80
751.84	1076.62
752.16	1078.17
752.49	1075.05
752.82	1076.48
753.15	1078.52
753.48	1079.38
753.81	1081.42
754.14	1081.73
754.47	1079.50
754.80	1078.33
755.13	1080.02
755.46	1078.68
755.79	1079.81
756.12	1079.92
756.45	1081.75
756.78	1080.32
757.11	1077.96
757.43	1077.23
757.76	1076.04
758.09	1075.45
758.42	1076.39
758.75	1079.06
759.08	1080.39
759.41	1084.67
759.74	1084.39
760.07	1084.77
760.39	1080.63
760.72	1079.48
761.05	1078.36
761.38	1076.83
761.71	1072.69
762.04	1076.51
762.36	1076.90
762.69	1077.58
763.02	1082.64
763.35	1086.06
763.68	1085.33
764.01	1081.68
