SpectraSuite Data File
++++++++++++++++++++++++++++++++++++
Date: Mon Aug 26 10:22:13 PDT 2019
User: corrico
Dark Spectrum Present: No
Reference Spectrum Present: No
Number of Sampled Component Spectra: 1
Spectrometers: USB2+H06089
Integration Time (usec): 2000 (USB2+H06089)
Spectra Averaged: 20 (USB2+H06089)
Boxcar Smoothing: 2 (USB2+H06089)
Correct for Electrical Dark: No (USB2+H06089)
Strobe/Lamp Enabled: No (USB2+H06089)
Correct for Detector Non-linearity: No (USB2+H06089)
Correct for Stray Light: No (USB2+H06089)
Number of Pixels in Processed Spectrum: 2048
>>>>>Begin Processed Spectral Data<<<<<
339.70	1028.78
340.07	1028.78
340.45	996.83
340.82	977.48
341.19	953.51
341.57	929.80
341.94	915.85
342.31	908.15
342.69	901.06
343.06	899.07
343.43	896.82
343.81	898.18
344.18	902.46
344.55	906.16
344.93	912.04
345.30	917.49
345.67	925.82
346.04	932.56
346.42	942.02
346.79	948.34
347.16	956.76
347.54	969.10
347.91	975.65
348.28	985.08
348.65	995.71
349.03	1005.38
349.40	1009.66
349.77	1018.76
350.14	1028.24
350.52	1036.90
350.89	1048.19
351.26	1053.29
351.63	1058.91
352.01	1059.26
352.38	1061.22
352.75	1060.22
353.12	1066.00
353.50	1070.33
353.87	1073.53
354.24	1076.23
354.61	1076.95
354.98	1076.30
355.36	1073.60
355.73	1074.66
356.10	1074.68
356.47	1077.09
356.84	1081.00
357.22	1084.89
357.59	1086.20
357.96	1089.14
358.33	1089.10
358.70	1088.63
359.08	1088.19
359.45	1084.79
359.82	1083.62
360.19	1082.05
360.56	1083.27
360.94	1080.46
361.31	1082.19
361.68	1081.63
362.05	1083.08
362.42	1079.46
362.79	1077.77
363.16	1074.70
363.54	1072.46
363.91	1071.54
364.28	1073.16
364.65	1075.85
365.02	1075.55
365.39	1076.81
365.76	1077.16
366.14	1076.32
366.51	1075.20
366.88	1079.17
367.25	1078.87
367.62	1079.53
367.99	1080.88
368.36	1083.90
368.73	1084.42
369.10	1084.84
369.48	1083.64
369.85	1080.91
370.22	1075.36
370.59	1075.59
370.96	1071.94
371.33	1068.78
371.70	1070.07
372.07	1074.12
372.44	1074.68
372.81	1075.57
373.18	1078.03
373.55	1076.01
373.93	1074.49
374.30	1071.97
374.67	1071.68
375.04	1070.26
375.41	1071.90
375.78	1073.81
376.15	1075.92
376.52	1078.24
376.89	1079.76
377.26	1078.52
377.63	1077.86
378.00	1077.72
378.37	1079.48
378.74	1080.23
379.11	1083.71
379.48	1083.39
379.85	1083.25
380.22	1078.82
380.59	1079.24
380.96	1077.72
381.33	1077.70
381.70	1077.70
382.07	1079.76
382.44	1078.73
382.81	1078.40
383.18	1078.92
383.55	1078.57
383.92	1078.54
384.29	1078.03
384.66	1079.22
385.03	1078.99
385.40	1079.15
385.77	1081.94
386.14	1084.42
386.51	1085.80
386.88	1087.55
387.25	1089.40
387.62	1088.07
387.99	1086.43
388.36	1084.28
388.73	1086.31
389.10	1085.26
389.46	1087.34
389.83	1087.04
390.20	1085.19
390.57	1083.04
390.94	1085.14
391.31	1080.41
391.68	1081.44
392.05	1084.07
392.42	1082.83
392.79	1079.95
393.16	1084.23
393.53	1085.00
393.89	1086.99
394.26	1086.24
394.63	1087.58
395.00	1086.41
395.37	1088.00
395.74	1085.35
396.11	1088.23
396.48	1089.22
396.84	1093.05
397.21	1092.40
397.58	1092.40
397.95	1088.75
398.32	1085.54
398.69	1085.33
399.06	1086.41
399.42	1089.75
399.79	1095.09
400.16	1094.69
400.53	1092.68
400.90	1091.18
401.27	1089.73
401.64	1088.51
402.00	1091.70
402.37	1092.73
402.74	1091.11
403.11	1091.37
403.48	1092.33
403.84	1093.90
404.21	1095.21
404.58	1095.21
404.95	1096.07
405.32	1095.67
405.68	1094.76
406.05	1093.57
406.42	1097.22
406.79	1098.13
407.16	1097.38
407.52	1095.98
407.89	1095.84
408.26	1095.56
408.63	1095.16
408.99	1097.88
409.36	1100.26
409.73	1099.05
410.10	1097.08
410.47	1095.44
410.83	1092.59
411.20	1091.86
411.57	1091.46
411.94	1093.66
412.30	1094.06
412.67	1095.49
413.04	1094.55
413.40	1096.54
413.77	1096.03
414.14	1099.84
414.51	1099.56
414.87	1099.63
415.24	1103.14
415.61	1105.65
415.97	1104.19
416.34	1102.77
416.71	1105.11
417.08	1100.36
417.44	1099.05
417.81	1099.33
418.18	1101.60
418.54	1104.19
418.91	1108.95
419.28	1116.95
419.64	1117.18
420.01	1120.18
420.38	1121.49
420.74	1122.66
421.11	1120.74
421.48	1124.39
421.84	1125.00
422.21	1125.63
422.58	1126.64
422.94	1127.01
423.31	1128.47
423.68	1135.77
424.04	1140.80
424.41	1144.50
424.77	1149.25
425.14	1153.42
425.51	1153.60
425.87	1158.19
426.24	1162.24
426.61	1169.94
426.97	1179.19
427.34	1186.82
427.70	1191.78
428.07	1204.86
428.44	1212.19
428.80	1219.63
429.17	1231.26
429.53	1244.16
429.90	1253.57
430.27	1263.21
430.63	1277.86
431.00	1289.35
431.36	1304.59
431.73	1315.92
432.09	1330.55
432.46	1345.15
432.83	1366.43
433.19	1383.89
433.56	1407.41
433.92	1437.09
434.29	1463.98
434.65	1490.80
435.02	1522.71
435.38	1556.39
435.75	1586.04
436.11	1622.86
436.48	1661.94
436.84	1703.11
437.21	1747.42
437.57	1792.66
437.94	1840.04
438.30	1892.16
438.67	1949.64
439.03	2010.73
439.40	2083.76
439.76	2154.42
440.13	2230.27
440.49	2312.54
440.86	2392.14
441.22	2475.42
441.59	2566.84
441.95	2667.77
442.32	2764.97
442.68	2884.20
443.05	3005.76
443.41	3131.38
443.78	3258.70
444.14	3398.97
444.51	3527.21
444.87	3690.35
445.24	3851.35
445.60	4025.82
445.96	4206.83
446.33	4425.58
446.69	4621.27
447.06	4832.86
447.42	5056.98
447.79	5292.28
448.15	5551.38
448.51	5821.08
448.88	6144.80
449.24	6445.16
449.61	6797.27
449.97	7144.16
450.33	7516.72
450.70	7861.86
451.06	8282.29
451.43	8662.28
451.79	9111.94
452.15	9605.89
452.52	10141.42
452.88	10680.26
453.24	11317.36
453.61	12017.32
453.97	12711.61
454.34	13407.15
454.70	14220.18
455.06	15005.48
455.43	15739.35
455.79	16411.06
456.15	17204.44
456.52	17933.65
456.88	18837.52
457.24	19725.82
457.61	20834.86
457.97	21889.70
458.33	22971.45
458.70	24025.95
459.06	25037.86
459.42	26062.22
459.79	26969.95
460.15	28009.40
460.51	28972.23
460.88	30036.47
461.24	30987.41
461.60	32116.71
461.96	33172.93
462.33	34183.01
462.69	35194.47
463.05	36279.64
463.42	37259.27
463.78	38161.87
464.14	38895.96
464.50	39631.64
464.87	40176.49
465.23	40542.92
465.59	40957.15
465.95	41314.46
466.32	41565.32
466.68	41792.93
467.04	41928.92
467.40	41920.19
467.77	42001.76
468.13	41924.14
468.49	41770.91
468.85	41671.25
469.22	41527.38
469.58	41260.86
469.94	41089.95
470.30	40833.85
470.66	40448.18
471.03	39941.03
471.39	39582.58
471.75	38849.08
472.11	38175.52
472.47	37678.11
472.84	37180.86
473.20	36468.71
473.56	36103.23
473.92	35520.18
474.28	34912.62
474.65	34251.82
475.01	33593.59
475.37	32802.35
475.73	32149.43
476.09	31496.87
476.45	30875.25
476.81	30348.65
477.18	29792.09
477.54	29323.07
477.90	28845.86
478.26	28310.44
478.62	27787.71
478.98	27343.07
479.34	26890.49
479.71	26330.16
480.07	25877.64
480.43	25447.52
480.79	24965.91
481.15	24507.42
481.51	24158.14
481.87	23853.48
482.23	23488.68
482.59	23171.87
482.96	22864.67
483.32	22554.76
483.68	22142.73
484.04	21792.03
484.40	21400.69
484.76	20966.12
485.12	20522.03
485.48	20099.40
485.84	19608.24
486.20	19174.28
486.56	18768.87
486.92	18391.27
487.28	18009.86
487.64	17622.64
488.00	17245.84
488.37	16856.66
488.73	16439.38
489.09	16004.68
489.45	15608.80
489.81	15176.78
490.17	14749.73
490.53	14350.57
490.89	13955.30
491.25	13553.50
491.61	13156.43
491.97	12765.56
492.33	12352.27
492.69	11983.87
493.05	11630.47
493.41	11313.10
493.77	10996.14
494.13	10702.52
494.49	10405.69
494.85	10125.86
495.21	9859.90
495.57	9603.62
495.93	9342.86
496.29	9104.22
496.64	8880.18
497.00	8624.34
497.36	8379.75
497.72	8148.27
498.08	7926.60
498.44	7702.56
498.80	7509.89
499.16	7304.86
499.52	7110.08
499.88	6935.50
500.24	6761.34
500.60	6589.87
500.96	6432.94
501.32	6274.06
501.68	6098.48
502.03	5929.61
502.39	5762.45
502.75	5602.38
503.11	5449.75
503.47	5314.82
503.83	5188.73
504.19	5061.53
504.55	4945.48
504.91	4836.25
505.26	4716.67
505.62	4590.80
505.98	4473.23
506.34	4348.90
506.70	4232.11
507.06	4125.71
507.42	4029.51
507.78	3945.77
508.13	3866.14
508.49	3788.46
508.85	3710.66
509.21	3628.18
509.57	3539.94
509.93	3447.45
510.28	3354.27
510.64	3273.54
511.00	3200.99
511.36	3130.00
511.72	3071.44
512.07	3021.14
512.43	2960.10
512.79	2900.27
513.15	2841.36
513.51	2778.10
513.86	2716.61
514.22	2666.03
514.58	2609.58
514.94	2560.34
515.30	2521.25
515.65	2474.37
516.01	2430.15
516.37	2393.83
516.73	2361.02
517.08	2320.20
517.44	2278.58
517.80	2241.81
518.16	2204.93
518.51	2171.62
518.87	2141.96
519.23	2119.17
519.59	2088.30
519.94	2060.72
520.30	2028.17
520.66	1993.18
521.01	1960.03
521.37	1932.30
521.73	1905.41
522.09	1879.26
522.44	1858.97
522.80	1837.55
523.16	1816.61
523.51	1793.18
523.87	1773.31
524.23	1751.66
524.58	1735.27
524.94	1714.89
525.30	1697.24
525.65	1680.74
526.01	1664.33
526.37	1643.20
526.72	1628.29
527.08	1610.50
527.44	1593.02
527.79	1573.89
528.15	1556.69
528.51	1538.41
528.86	1522.96
529.22	1507.94
529.58	1496.21
529.93	1485.91
530.29	1473.41
530.65	1461.92
531.00	1450.13
531.36	1436.06
531.71	1423.79
532.07	1416.07
532.43	1407.72
532.78	1396.11
533.14	1388.29
533.49	1381.57
533.85	1372.05
534.21	1366.43
534.56	1362.12
534.92	1354.77
535.27	1346.53
535.63	1335.84
535.98	1326.26
536.34	1318.00
536.69	1309.74
537.05	1302.70
537.41	1297.29
537.76	1288.18
538.12	1279.27
538.47	1272.48
538.83	1264.85
539.18	1260.24
539.54	1257.43
539.89	1256.07
540.25	1257.20
540.60	1252.87
540.96	1249.75
541.31	1243.50
541.67	1236.86
542.02	1229.27
542.38	1227.77
542.73	1223.44
543.09	1220.92
543.44	1220.96
543.80	1217.73
544.15	1212.09
544.51	1210.17
544.86	1206.64
545.22	1200.02
545.57	1197.58
545.93	1194.47
546.28	1190.40
546.64	1188.36
546.99	1185.60
547.35	1185.46
547.70	1184.19
548.05	1180.85
548.41	1175.32
548.76	1174.86
549.12	1169.00
549.47	1168.82
549.83	1166.78
550.18	1168.21
550.53	1162.26
550.89	1161.40
551.24	1157.89
551.60	1158.80
551.95	1152.18
552.30	1154.31
552.66	1150.63
553.01	1148.71
553.37	1144.50
553.72	1142.72
554.07	1138.11
554.43	1136.19
554.78	1134.60
555.13	1135.67
555.49	1136.26
555.84	1134.57
556.19	1135.91
556.55	1131.95
556.90	1127.39
557.26	1129.57
557.61	1127.41
557.96	1126.41
558.32	1127.51
558.67	1127.04
559.02	1125.21
559.37	1128.14
559.73	1125.12
560.08	1123.71
560.43	1121.61
560.79	1122.57
561.14	1120.02
561.49	1116.15
561.85	1115.36
562.20	1112.08
562.55	1107.19
562.90	1107.87
563.26	1112.34
563.61	1111.54
563.96	1115.57
564.32	1113.91
564.67	1109.55
565.02	1107.61
565.37	1106.98
565.73	1103.94
566.08	1106.98
566.43	1106.89
566.78	1107.47
567.14	1109.30
567.49	1111.75
567.84	1112.27
568.19	1114.19
568.54	1110.84
568.90	1108.29
569.25	1107.78
569.60	1104.92
569.95	1103.54
570.31	1104.05
570.66	1105.06
571.01	1102.86
571.36	1101.71
571.71	1101.43
572.06	1099.82
572.42	1099.72
572.77	1099.42
573.12	1100.52
573.47	1098.83
573.82	1102.13
574.18	1101.06
574.53	1097.34
574.88	1094.11
575.23	1095.21
575.58	1095.53
575.93	1090.85
576.28	1093.99
576.64	1095.28
576.99	1095.91
577.34	1093.24
577.69	1094.43
578.04	1092.68
578.39	1091.30
578.74	1091.30
579.09	1089.99
579.44	1095.58
579.80	1098.86
580.15	1099.65
580.50	1102.30
580.85	1105.01
581.20	1101.57
581.55	1095.82
581.90	1094.90
582.25	1086.92
582.60	1084.81
582.95	1085.45
583.30	1088.70
583.65	1087.16
584.00	1091.70
584.35	1092.77
584.71	1089.94
585.06	1090.48
585.41	1093.87
585.76	1094.04
586.11	1092.87
586.46	1094.86
586.81	1094.55
587.16	1091.91
587.51	1090.92
587.86	1091.84
588.21	1089.26
588.56	1089.29
588.91	1089.38
589.26	1089.05
589.61	1087.88
589.96	1088.72
590.31	1086.66
590.66	1090.10
591.01	1090.60
591.36	1090.15
591.71	1089.99
592.06	1091.16
592.41	1091.63
592.76	1090.22
593.10	1093.66
593.45	1097.17
593.80	1097.92
594.15	1092.16
594.50	1095.18
594.85	1090.22
595.20	1088.86
595.55	1087.88
595.90	1090.50
596.25	1091.70
596.60	1090.81
596.95	1088.28
597.30	1089.10
597.64	1097.97
597.99	1095.84
598.34	1098.74
598.69	1098.20
599.04	1097.73
599.39	1089.94
599.74	1087.90
600.09	1088.51
600.44	1088.09
600.78	1086.52
601.13	1083.32
601.48	1082.59
601.83	1080.58
602.18	1083.71
602.53	1080.74
602.88	1082.66
603.22	1082.33
603.57	1081.84
603.92	1080.18
604.27	1085.05
604.62	1084.98
604.97	1088.89
605.31	1090.67
605.66	1090.03
606.01	1090.50
606.36	1089.96
606.71	1088.23
607.05	1087.95
607.40	1090.20
607.75	1087.76
608.10	1086.71
608.44	1084.84
608.79	1085.07
609.14	1083.08
609.49	1084.72
609.84	1083.04
610.18	1085.75
610.53	1084.56
610.88	1085.63
611.23	1083.32
611.57	1084.14
611.92	1081.09
612.27	1084.70
612.62	1084.25
612.96	1086.90
613.31	1086.15
613.66	1087.41
614.00	1081.47
614.35	1080.04
614.70	1079.67
615.05	1081.35
615.39	1080.11
615.74	1082.12
616.09	1080.30
616.43	1076.81
616.78	1079.57
617.13	1081.77
617.47	1081.35
617.82	1083.39
618.17	1087.51
618.51	1083.11
618.86	1081.82
619.21	1082.50
619.55	1082.54
619.90	1080.11
620.25	1082.10
620.59	1079.76
620.94	1079.46
621.29	1078.26
621.63	1079.08
621.98	1080.13
622.32	1082.92
622.67	1082.80
623.02	1086.43
623.36	1085.56
623.71	1085.14
624.05	1086.15
624.40	1085.35
624.75	1084.39
625.09	1085.47
625.44	1083.06
625.78	1080.77
626.13	1084.63
626.48	1084.58
626.82	1080.77
627.17	1084.11
627.51	1082.90
627.86	1081.58
628.20	1082.15
628.55	1084.23
628.89	1084.28
629.24	1088.14
629.58	1085.17
629.93	1084.63
630.28	1085.21
630.62	1083.46
630.97	1078.85
631.31	1081.44
631.66	1080.79
632.00	1081.35
632.35	1081.16
632.69	1082.08
633.04	1082.22
633.38	1082.73
633.73	1082.47
634.07	1079.71
634.42	1081.07
634.76	1078.24
635.11	1076.60
635.45	1075.01
635.79	1080.93
636.14	1082.52
636.48	1086.38
636.83	1084.72
637.17	1086.38
637.52	1084.93
637.86	1085.70
638.21	1084.00
638.55	1084.74
638.89	1085.70
639.24	1083.15
639.58	1081.87
639.93	1080.34
640.27	1081.35
640.61	1077.96
640.96	1080.63
641.30	1078.43
641.65	1077.93
641.99	1077.72
642.33	1080.06
642.68	1077.14
643.02	1078.12
643.37	1079.08
643.71	1079.06
644.05	1078.33
644.40	1078.89
644.74	1077.44
645.08	1077.56
645.43	1079.41
645.77	1080.56
646.11	1079.41
646.46	1080.48
646.80	1082.01
647.14	1078.05
647.49	1079.20
647.83	1078.66
648.17	1080.74
648.52	1080.63
648.86	1082.43
649.20	1080.60
649.55	1086.03
649.89	1086.59
650.23	1088.75
650.57	1086.41
650.92	1089.66
651.26	1087.30
651.60	1084.84
651.95	1084.46
652.29	1087.88
652.63	1084.60
652.97	1081.47
653.32	1078.61
653.66	1076.74
654.00	1078.38
654.34	1077.49
654.69	1079.36
655.03	1083.08
655.37	1082.97
655.71	1079.20
656.05	1079.64
656.40	1078.33
656.74	1078.68
657.08	1076.88
657.42	1077.51
657.76	1078.26
658.11	1080.79
658.45	1081.09
658.79	1081.54
659.13	1084.18
659.47	1084.91
659.82	1082.90
660.16	1082.24
660.50	1081.40
660.84	1076.95
661.18	1079.13
661.52	1080.09
661.87	1077.42
662.21	1078.40
662.55	1082.76
662.89	1078.92
663.23	1077.82
663.57	1077.96
663.91	1078.12
664.25	1076.60
664.60	1078.36
664.94	1083.64
665.28	1084.35
665.62	1084.07
665.96	1082.64
666.30	1083.48
666.64	1077.56
666.98	1082.22
667.32	1077.79
667.66	1078.43
668.01	1077.65
668.35	1079.60
668.69	1075.71
669.03	1079.71
669.37	1081.37
669.71	1078.64
670.05	1079.64
670.39	1080.72
670.73	1081.51
671.07	1077.82
671.41	1082.05
671.75	1079.38
672.09	1079.43
672.43	1078.92
672.77	1081.66
673.11	1076.95
673.45	1076.90
673.79	1075.83
674.13	1076.23
674.47	1076.25
674.81	1078.12
675.15	1081.30
675.49	1081.54
675.83	1079.22
676.17	1079.64
676.51	1080.74
676.85	1079.69
677.19	1083.27
677.53	1084.02
677.87	1081.98
678.21	1079.10
678.55	1078.96
678.89	1075.94
679.23	1077.58
679.57	1080.20
679.90	1083.01
680.24	1082.94
680.58	1082.45
680.92	1084.18
681.26	1081.09
681.60	1080.34
681.94	1081.07
682.28	1077.89
682.62	1077.49
682.96	1077.47
683.29	1076.67
683.63	1075.34
683.97	1078.21
684.31	1077.23
684.65	1078.64
684.99	1080.56
685.33	1082.31
685.67	1080.77
686.00	1082.97
686.34	1085.89
686.68	1084.70
687.02	1084.07
687.36	1088.02
687.70	1084.86
688.03	1082.01
688.37	1084.46
688.71	1083.34
689.05	1081.28
689.39	1080.72
689.72	1079.95
690.06	1078.85
690.40	1079.88
690.74	1082.66
691.08	1086.13
691.41	1086.27
691.75	1084.46
692.09	1084.35
692.43	1083.97
692.76	1082.78
693.10	1082.61
693.44	1084.53
693.78	1083.74
694.11	1081.87
694.45	1081.56
694.79	1083.01
695.13	1084.11
695.46	1087.18
695.80	1086.29
696.14	1086.06
696.48	1088.96
696.81	1085.82
697.15	1086.80
697.49	1084.74
697.82	1082.73
698.16	1080.04
698.50	1080.67
698.83	1075.94
699.17	1079.92
699.51	1080.98
699.84	1078.52
700.18	1079.74
700.52	1080.81
700.85	1081.47
701.19	1082.05
701.53	1084.65
701.86	1083.71
702.20	1084.16
702.54	1079.34
702.87	1078.52
703.21	1076.39
703.55	1075.15
703.88	1074.26
704.22	1078.73
704.55	1078.85
704.89	1079.85
705.23	1080.81
705.56	1083.01
705.90	1080.77
706.23	1083.13
706.57	1086.45
706.91	1085.80
707.24	1085.82
707.58	1086.69
707.91	1086.22
708.25	1084.70
708.58	1085.38
708.92	1084.96
709.26	1083.88
709.59	1082.38
709.93	1083.64
710.26	1082.38
710.60	1080.02
710.93	1078.57
711.27	1078.71
711.60	1075.71
711.94	1080.98
712.27	1081.30
712.61	1084.72
712.94	1086.10
713.28	1087.69
713.61	1082.66
713.95	1085.73
714.28	1085.38
714.62	1082.08
714.95	1081.02
715.29	1080.70
715.62	1077.18
715.96	1080.60
716.29	1081.63
716.63	1082.80
716.96	1083.15
717.29	1083.71
717.63	1081.42
717.96	1079.06
718.30	1078.57
718.63	1077.68
718.97	1080.51
719.30	1079.69
719.63	1081.96
719.97	1081.73
720.30	1083.74
720.64	1081.40
720.97	1081.33
721.30	1084.25
721.64	1085.42
721.97	1086.83
722.31	1086.34
722.64	1085.31
722.97	1082.85
723.31	1080.91
723.64	1079.55
723.97	1079.69
724.31	1076.93
724.64	1078.14
724.98	1076.55
725.31	1077.96
725.64	1076.48
725.98	1077.65
726.31	1076.01
726.64	1077.89
726.97	1076.60
727.31	1077.44
727.64	1074.87
727.97	1074.00
728.31	1074.40
728.64	1073.25
728.97	1074.35
729.31	1077.04
729.64	1078.52
729.97	1076.39
730.30	1077.82
730.64	1077.18
730.97	1081.33
731.30	1081.51
731.63	1081.49
731.97	1083.57
732.30	1084.18
732.63	1079.85
732.96	1077.49
733.30	1076.95
733.63	1070.77
733.96	1071.97
734.29	1072.85
734.63	1074.66
734.96	1080.88
735.29	1084.84
735.62	1080.27
735.95	1081.54
736.29	1080.98
736.62	1077.56
736.95	1078.24
737.28	1081.07
737.61	1080.37
737.94	1079.55
738.28	1077.98
738.61	1078.38
738.94	1078.57
739.27	1079.97
739.60	1081.54
739.93	1084.79
740.27	1083.46
740.60	1080.65
740.93	1080.18
741.26	1081.37
741.59	1082.24
741.92	1081.30
742.25	1082.90
742.58	1080.13
742.91	1081.44
743.25	1076.65
743.58	1076.15
743.91	1079.62
744.24	1085.33
744.57	1084.51
744.90	1086.92
745.23	1084.37
745.56	1080.13
745.89	1074.66
746.22	1070.89
746.55	1067.47
746.88	1069.86
747.21	1074.31
747.54	1074.21
747.87	1077.91
748.20	1081.94
748.53	1084.21
748.87	1084.32
749.20	1088.07
749.53	1088.93
749.86	1086.31
750.19	1088.47
750.52	1086.06
750.85	1082.87
751.18	1080.34
751.51	1081.80
751.84	1079.08
752.16	1077.37
752.49	1078.21
752.82	1076.76
753.15	1075.69
753.48	1073.35
753.81	1073.72
754.14	1073.79
754.47	1074.91
754.80	1075.13
755.13	1077.93
755.46	1081.70
755.79	1082.94
756.12	1083.39
756.45	1085.82
756.78	1084.93
757.11	1085.61
757.43	1083.53
757.76	1081.96
758.09	1077.72
758.42	1077.75
758.75	1073.88
759.08	1073.93
759.41	1075.78
759.74	1077.14
760.07	1076.06
760.39	1075.24
760.72	1074.96
761.05	1075.24
761.38	1077.86
761.71	1074.42
762.04	1078.00
762.36	1079.50
762.69	1080.63
763.02	1077.79
763.35	1083.62
763.68	1081.35
