SpectraSuite Data File
++++++++++++++++++++++++++++++++++++
Date: Mon Aug 26 10:22:24 PDT 2019
User: corrico
Dark Spectrum Present: No
Reference Spectrum Present: No
Number of Sampled Component Spectra: 1
Spectrometers: USB2+H06089
Integration Time (usec): 2000 (USB2+H06089)
Spectra Averaged: 20 (USB2+H06089)
Boxcar Smoothing: 2 (USB2+H06089)
Correct for Electrical Dark: No (USB2+H06089)
Strobe/Lamp Enabled: No (USB2+H06089)
Correct for Detector Non-linearity: No (USB2+H06089)
Correct for Stray Light: No (USB2+H06089)
Number of Pixels in Processed Spectrum: 2048
>>>>>Begin Processed Spectral Data<<<<<
339.70	1023.63
340.07	1023.63
340.45	989.70
340.82	972.00
341.19	947.54
341.57	925.96
341.94	916.72
342.31	907.96
342.69	898.98
343.06	895.96
343.43	893.83
343.81	895.14
344.18	898.95
344.55	904.43
344.93	909.88
345.30	915.95
345.67	918.05
346.04	927.95
346.42	937.71
346.79	947.54
347.16	955.01
347.54	967.58
347.91	974.74
348.28	982.49
348.65	989.41
349.03	1001.73
349.40	1009.26
349.77	1019.23
350.14	1025.69
350.52	1036.39
350.89	1036.55
351.26	1043.46
351.63	1049.61
352.01	1055.11
352.38	1058.46
352.75	1067.19
353.12	1072.81
353.50	1076.18
353.87	1080.65
354.24	1083.53
354.61	1083.67
354.98	1080.74
355.36	1078.28
355.73	1079.10
356.10	1079.64
356.47	1083.32
356.84	1086.69
357.22	1088.70
357.59	1088.84
357.96	1090.41
358.33	1086.17
358.70	1085.40
359.08	1084.25
359.45	1081.73
359.82	1079.53
360.19	1078.31
360.56	1079.67
360.94	1077.68
361.31	1081.16
361.68	1079.78
362.05	1081.96
362.42	1077.18
362.79	1077.21
363.16	1072.50
363.54	1072.62
363.91	1070.89
364.28	1070.98
364.65	1071.75
365.02	1074.26
365.39	1072.92
365.76	1073.32
366.14	1076.55
366.51	1077.44
366.88	1078.87
367.25	1080.98
367.62	1082.66
367.99	1080.93
368.36	1077.91
368.73	1074.33
369.10	1071.75
369.48	1070.07
369.85	1070.09
370.22	1070.91
370.59	1071.45
370.96	1072.95
371.33	1069.91
371.70	1071.36
372.07	1072.78
372.44	1071.68
372.81	1073.93
373.18	1075.50
373.55	1077.56
373.93	1078.99
374.30	1078.47
374.67	1076.76
375.04	1077.47
375.41	1073.65
375.78	1070.87
376.15	1072.01
376.52	1070.87
376.89	1073.63
377.26	1074.40
377.63	1078.36
378.00	1079.24
378.37	1079.99
378.74	1079.85
379.11	1082.69
379.48	1081.96
379.85	1081.02
380.22	1083.79
380.59	1080.86
380.96	1076.86
381.33	1074.10
381.70	1073.65
382.07	1075.48
382.44	1079.29
382.81	1083.79
383.18	1085.31
383.55	1088.65
383.92	1086.15
384.29	1082.05
384.66	1079.20
385.03	1081.66
385.40	1082.43
385.77	1083.18
386.14	1086.62
386.51	1089.47
386.88	1089.33
387.25	1089.59
387.62	1089.54
387.99	1089.80
388.36	1089.64
388.73	1089.24
389.10	1089.57
389.46	1090.97
389.83	1092.26
390.20	1091.72
390.57	1092.66
390.94	1089.85
391.31	1089.99
391.68	1089.87
392.05	1089.14
392.42	1088.56
392.79	1087.23
393.16	1085.12
393.53	1085.40
393.89	1090.01
394.26	1092.84
394.63	1096.63
395.00	1096.89
395.37	1097.34
395.74	1090.39
396.11	1087.55
396.48	1085.14
396.84	1086.62
397.21	1084.98
397.58	1088.54
397.95	1087.76
398.32	1088.35
398.69	1085.96
399.06	1085.80
399.42	1086.64
399.79	1086.97
400.16	1086.64
400.53	1090.64
400.90	1091.04
401.27	1093.50
401.64	1097.08
402.00	1098.18
402.37	1095.28
402.74	1097.06
403.11	1096.03
403.48	1093.85
403.84	1093.17
404.21	1091.79
404.58	1092.00
404.95	1089.82
405.32	1091.86
405.68	1092.91
406.05	1094.57
406.42	1093.66
406.79	1090.64
407.16	1090.17
407.52	1089.66
407.89	1092.05
408.26	1090.97
408.63	1091.60
408.99	1090.29
409.36	1092.73
409.73	1090.06
410.10	1090.53
410.47	1096.94
410.83	1097.59
411.20	1096.52
411.57	1099.14
411.94	1100.29
412.30	1098.23
412.67	1100.22
413.04	1099.68
413.40	1097.13
413.77	1095.91
414.14	1097.76
414.51	1095.89
414.87	1100.24
415.24	1104.85
415.61	1106.21
415.97	1105.32
416.34	1104.33
416.71	1101.43
417.08	1101.43
417.44	1102.02
417.81	1100.87
418.18	1102.98
418.54	1104.01
418.91	1102.74
419.28	1108.10
419.64	1112.34
420.01	1115.69
420.38	1115.76
420.74	1119.45
421.11	1118.14
421.48	1117.30
421.84	1118.68
422.21	1123.76
422.58	1125.38
422.94	1126.13
423.31	1130.78
423.68	1132.19
424.04	1134.64
424.41	1136.92
424.77	1143.35
425.14	1145.90
425.51	1149.53
425.87	1150.09
426.24	1151.33
426.61	1152.27
426.97	1156.95
427.34	1160.41
427.70	1168.54
428.07	1176.24
428.44	1180.07
428.80	1188.59
429.17	1196.06
429.53	1204.95
429.90	1215.04
430.27	1229.44
430.63	1236.20
431.00	1249.52
431.36	1259.96
431.73	1270.77
432.09	1278.66
432.46	1293.10
432.83	1307.12
433.19	1319.57
433.56	1336.84
433.92	1359.94
434.29	1383.77
434.65	1409.87
435.02	1437.51
435.38	1468.17
435.75	1496.14
436.11	1524.48
436.48	1551.47
436.84	1588.24
437.21	1623.04
437.57	1660.24
437.94	1702.88
438.30	1748.50
438.67	1788.59
439.03	1835.40
439.40	1889.63
439.76	1942.27
440.13	1998.63
440.49	2062.41
440.86	2126.42
441.22	2197.29
441.59	2265.19
441.95	2345.01
442.32	2430.11
442.68	2521.25
443.05	2609.79
443.41	2710.36
443.78	2803.61
444.14	2907.53
444.51	3018.64
444.87	3158.20
445.24	3298.94
445.60	3460.27
445.96	3618.59
446.33	3795.34
446.69	3953.33
447.06	4131.02
447.42	4302.65
447.79	4488.40
448.15	4698.67
448.51	4919.92
448.88	5175.72
449.24	5422.60
449.61	5693.19
449.97	5961.60
450.33	6249.09
450.70	6515.35
451.06	6832.30
451.43	7136.53
451.79	7488.64
452.15	7883.25
452.52	8309.65
452.88	8771.93
453.24	9282.07
453.61	9840.13
453.97	10375.01
454.34	10919.11
454.70	11554.38
455.06	12206.78
455.43	12840.30
455.79	13439.73
456.15	14145.00
456.52	14775.22
456.88	15531.23
457.24	16232.97
457.61	17059.18
457.97	17816.30
458.33	18593.50
458.70	19334.63
459.06	20082.05
459.42	20898.43
459.79	21664.09
460.15	22550.22
460.51	23400.07
460.88	24320.67
461.24	25114.16
461.60	26052.34
461.96	26903.73
462.33	27725.68
462.69	28490.43
463.05	29339.06
463.42	30055.36
463.78	30701.20
464.14	31235.08
464.50	31827.77
464.87	32288.88
465.23	32624.66
465.59	32996.12
465.95	33316.26
466.32	33574.03
466.68	33792.82
467.04	33949.31
467.40	34039.35
467.77	34176.03
468.13	34171.00
468.49	34111.95
468.85	34038.04
469.22	33902.82
469.58	33579.60
469.94	33330.00
470.30	33002.16
470.66	32590.79
471.03	32004.88
471.39	31628.50
471.75	31008.92
472.11	30434.38
472.47	30085.08
472.84	29789.85
473.20	29318.72
473.56	29041.81
473.92	28617.73
474.28	28104.31
474.65	27602.92
475.01	27119.74
475.37	26559.65
475.73	26100.98
476.09	25572.48
476.45	25061.52
476.81	24543.98
477.18	24003.25
477.54	23541.16
477.90	23174.74
478.26	22745.75
478.62	22413.25
478.98	22134.10
479.34	21828.49
479.71	21445.25
480.07	21120.83
480.43	20788.76
480.79	20409.64
481.15	20057.29
481.51	19747.15
481.87	19489.87
482.23	19185.82
482.59	18931.26
482.96	18653.39
483.32	18358.41
483.68	18001.83
484.04	17683.99
484.40	17332.77
484.76	16989.20
485.12	16638.54
485.48	16331.44
485.84	15979.31
486.20	15638.90
486.56	15269.33
486.92	14949.84
487.28	14592.98
487.64	14243.73
488.00	13912.45
488.37	13608.74
488.73	13262.36
489.09	12923.17
489.45	12619.65
489.81	12312.11
490.17	12020.38
490.53	11750.52
490.89	11466.82
491.25	11166.53
491.61	10861.28
491.97	10538.24
492.33	10205.02
492.69	9906.95
493.05	9603.90
493.41	9318.89
493.77	9052.00
494.13	8807.55
494.49	8552.22
494.85	8321.12
495.21	8102.98
495.57	7887.04
495.93	7676.02
496.29	7482.97
496.64	7298.31
497.00	7109.94
497.36	6917.17
497.72	6732.29
498.08	6551.32
498.44	6370.07
498.80	6203.82
499.16	6045.81
499.52	5897.56
499.88	5771.55
500.24	5655.44
500.60	5536.09
500.96	5422.69
501.32	5310.91
501.68	5186.21
502.03	5052.42
502.39	4924.96
502.75	4788.22
503.11	4662.16
503.47	4541.65
503.83	4430.12
504.19	4316.42
504.55	4225.32
504.91	4130.13
505.26	4037.68
505.62	3955.11
505.98	3867.22
506.34	3769.03
506.70	3670.47
507.06	3581.23
507.42	3493.90
507.78	3413.60
508.13	3335.61
508.49	3261.47
508.85	3194.76
509.21	3120.10
509.57	3055.08
509.93	2992.84
510.28	2928.36
510.64	2862.90
511.00	2799.70
511.36	2735.13
511.72	2680.01
512.07	2630.41
512.43	2578.47
512.79	2533.82
513.15	2488.20
513.51	2441.93
513.86	2396.50
514.22	2354.18
514.58	2309.97
514.94	2277.08
515.30	2241.93
515.65	2205.81
516.01	2175.97
516.37	2146.97
516.73	2112.45
517.08	2083.99
517.44	2058.15
517.80	2032.12
518.16	2002.84
518.51	1979.67
518.87	1951.00
519.23	1925.23
519.59	1895.83
519.94	1872.59
520.30	1848.91
520.66	1824.33
521.01	1800.55
521.37	1778.22
521.73	1757.86
522.09	1736.63
522.44	1714.86
522.80	1693.92
523.16	1672.64
523.51	1653.82
523.87	1635.17
524.23	1622.48
524.58	1607.55
524.94	1594.79
525.30	1574.76
525.65	1555.71
526.01	1538.15
526.37	1523.01
526.72	1508.50
527.08	1498.65
527.44	1487.55
527.79	1475.36
528.15	1464.64
528.51	1450.87
528.86	1439.83
529.22	1428.64
529.58	1416.02
529.93	1407.20
530.29	1397.58
530.65	1388.01
531.00	1379.46
531.36	1370.80
531.71	1358.12
532.07	1349.30
532.43	1339.51
532.78	1333.31
533.14	1326.33
533.49	1323.46
533.85	1314.98
534.21	1308.83
534.56	1304.90
534.92	1300.82
535.27	1291.98
535.63	1290.31
535.98	1284.42
536.34	1274.98
536.69	1268.62
537.05	1262.67
537.41	1255.37
537.76	1249.45
538.12	1246.69
538.47	1242.57
538.83	1239.36
539.18	1234.49
539.54	1232.03
539.89	1226.21
540.25	1218.88
540.60	1215.28
540.96	1216.28
541.31	1212.26
541.67	1210.41
542.02	1212.75
542.38	1213.40
542.73	1209.05
543.09	1207.34
543.44	1202.40
543.80	1194.98
544.15	1189.02
544.51	1183.40
544.86	1176.99
545.22	1173.99
545.57	1171.13
545.93	1168.49
546.28	1167.37
546.64	1167.55
546.99	1166.38
547.35	1164.23
547.70	1160.88
548.05	1156.32
548.41	1157.49
548.76	1154.68
549.12	1154.59
549.47	1154.14
549.83	1152.15
550.18	1146.02
550.53	1145.04
550.89	1144.76
551.24	1143.14
551.60	1145.06
551.95	1145.97
552.30	1145.88
552.66	1145.13
553.01	1142.63
553.37	1141.15
553.72	1138.46
554.07	1136.17
554.43	1134.69
554.78	1133.90
555.13	1132.96
555.49	1132.98
555.84	1130.69
556.19	1131.67
556.55	1130.62
556.90	1131.23
557.26	1128.77
557.61	1129.87
557.96	1122.66
558.32	1121.35
558.67	1117.72
559.02	1119.53
559.37	1117.32
559.73	1115.69
560.08	1117.30
560.43	1120.23
560.79	1117.44
561.14	1116.37
561.49	1118.47
561.85	1115.69
562.20	1111.64
562.55	1112.48
562.90	1113.04
563.26	1113.44
563.61	1111.82
563.96	1113.28
564.32	1111.92
564.67	1110.35
565.02	1106.23
565.37	1108.97
565.73	1107.56
566.08	1106.86
566.43	1107.80
566.78	1110.49
567.14	1111.66
567.49	1111.61
567.84	1108.83
568.19	1103.89
568.54	1105.25
568.90	1099.89
569.25	1098.44
569.60	1098.86
569.95	1100.10
570.31	1097.43
570.66	1101.60
571.01	1100.64
571.36	1101.81
571.71	1099.44
572.06	1101.08
572.42	1097.48
572.77	1095.25
573.12	1092.52
573.47	1096.31
573.82	1095.39
574.18	1092.16
574.53	1093.59
574.88	1096.35
575.23	1093.97
575.58	1090.95
575.93	1092.96
576.28	1093.92
576.64	1094.13
576.99	1095.82
577.34	1098.44
577.69	1099.70
578.04	1097.69
578.39	1096.82
578.74	1094.65
579.09	1092.05
579.44	1089.94
579.80	1091.88
580.15	1091.67
580.50	1092.35
580.85	1091.09
581.20	1092.61
581.55	1087.90
581.90	1086.03
582.25	1086.17
582.60	1088.09
582.95	1088.09
583.30	1091.44
583.65	1095.18
584.00	1097.08
584.35	1099.47
584.71	1100.31
585.06	1097.83
585.41	1093.71
585.76	1088.86
586.11	1086.27
586.46	1084.60
586.81	1088.86
587.16	1087.23
587.51	1092.80
587.86	1094.20
588.21	1091.60
588.56	1090.81
588.91	1095.44
589.26	1091.20
589.61	1088.68
589.96	1090.17
590.31	1085.28
590.66	1083.74
591.01	1085.87
591.36	1088.37
591.71	1087.02
592.06	1090.57
592.41	1087.69
592.76	1088.70
593.10	1086.38
593.45	1090.62
593.80	1088.30
594.15	1090.13
594.50	1089.54
594.85	1090.67
595.20	1089.73
595.55	1092.91
595.90	1094.79
596.25	1093.31
596.60	1090.46
596.95	1088.86
597.30	1088.70
597.64	1097.69
597.99	1096.45
598.34	1099.84
598.69	1097.38
599.04	1095.60
599.39	1083.48
599.74	1084.21
600.09	1082.80
600.44	1084.42
600.78	1087.60
601.13	1088.04
601.48	1089.38
601.83	1089.96
602.18	1093.45
602.53	1090.95
602.88	1092.98
603.22	1092.84
603.57	1091.63
603.92	1089.24
604.27	1089.29
604.62	1085.42
604.97	1084.70
605.31	1084.00
605.66	1084.09
606.01	1080.53
606.36	1085.19
606.71	1085.99
607.05	1084.65
607.40	1084.86
607.75	1088.37
608.10	1085.00
608.44	1083.43
608.79	1086.13
609.14	1087.72
609.49	1087.02
609.84	1090.53
610.18	1092.00
610.53	1090.88
610.88	1089.22
611.23	1090.55
611.57	1087.41
611.92	1086.15
612.27	1084.07
612.62	1085.91
612.96	1081.82
613.31	1081.84
613.66	1082.78
614.00	1088.02
614.35	1085.07
614.70	1089.68
615.05	1090.15
615.39	1088.65
615.74	1086.83
616.09	1085.47
616.43	1082.29
616.78	1082.15
617.13	1083.01
617.47	1082.78
617.82	1084.96
618.17	1085.56
618.51	1084.58
618.86	1083.46
619.21	1084.35
619.55	1084.49
619.90	1087.16
620.25	1087.32
620.59	1089.22
620.94	1088.51
621.29	1086.87
621.63	1084.14
621.98	1087.20
622.32	1088.16
622.67	1087.32
623.02	1088.82
623.36	1089.92
623.71	1086.45
624.05	1083.27
624.40	1084.46
624.75	1085.49
625.09	1087.32
625.44	1091.74
625.78	1095.32
626.13	1093.64
626.48	1094.57
626.82	1095.32
627.17	1094.08
627.51	1090.48
627.86	1090.92
628.20	1086.62
628.55	1081.68
628.89	1079.92
629.24	1085.17
629.58	1088.12
629.93	1088.07
630.28	1088.44
630.62	1088.23
630.97	1084.67
631.31	1081.42
631.66	1081.80
632.00	1086.36
632.35	1084.09
632.69	1083.41
633.04	1081.05
633.38	1081.98
633.73	1078.85
634.07	1079.53
634.42	1080.56
634.76	1084.86
635.11	1082.71
635.45	1082.80
635.79	1085.87
636.14	1082.08
636.48	1077.44
636.83	1081.30
637.17	1079.06
637.52	1080.30
637.86	1082.43
638.21	1084.16
638.55	1078.96
638.89	1085.31
639.24	1084.32
639.58	1085.07
639.93	1086.17
640.27	1089.38
640.61	1085.59
640.96	1085.54
641.30	1084.39
641.65	1084.58
641.99	1084.89
642.33	1084.51
642.68	1084.58
643.02	1088.54
643.37	1089.29
643.71	1089.03
644.05	1087.09
644.40	1087.25
644.74	1086.43
645.08	1082.99
645.43	1082.17
645.77	1081.91
646.11	1077.16
646.46	1074.94
646.80	1078.61
647.14	1077.63
647.49	1081.02
647.83	1084.14
648.17	1084.35
648.52	1083.39
648.86	1085.28
649.20	1084.37
649.55	1083.97
649.89	1083.64
650.23	1085.24
650.57	1087.53
650.92	1086.31
651.26	1084.60
651.60	1085.52
651.95	1085.70
652.29	1082.54
652.63	1083.36
652.97	1084.86
653.32	1083.34
653.66	1077.51
654.00	1080.65
654.34	1079.20
654.69	1077.42
655.03	1077.63
655.37	1083.64
655.71	1079.64
656.05	1079.48
656.40	1086.10
656.74	1089.45
657.08	1087.51
657.42	1088.75
657.76	1089.89
658.11	1086.90
658.45	1083.90
658.79	1085.45
659.13	1084.49
659.47	1085.26
659.82	1084.49
660.16	1084.49
660.50	1082.43
660.84	1081.89
661.18	1083.67
661.52	1078.17
661.87	1077.33
662.21	1077.33
662.55	1080.41
662.89	1078.52
663.23	1083.50
663.57	1084.25
663.91	1082.76
664.25	1083.15
664.60	1081.30
664.94	1078.64
665.28	1079.74
665.62	1077.56
665.96	1077.16
666.30	1079.69
666.64	1084.63
666.98	1083.06
667.32	1084.51
667.66	1081.87
668.01	1081.89
668.35	1080.06
668.69	1080.63
669.03	1081.23
669.37	1080.51
669.71	1081.07
670.05	1079.22
670.39	1082.90
670.73	1087.69
671.07	1090.03
671.41	1090.67
671.75	1090.83
672.09	1087.97
672.43	1083.88
672.77	1083.22
673.11	1080.20
673.45	1080.93
673.79	1080.18
674.13	1079.53
674.47	1078.50
674.81	1080.34
675.15	1078.31
675.49	1077.37
675.83	1079.53
676.17	1080.51
676.51	1077.70
676.85	1079.60
677.19	1079.10
677.53	1075.78
677.87	1079.41
678.21	1081.19
678.55	1079.83
678.89	1082.69
679.23	1086.99
679.57	1086.36
679.90	1084.86
680.24	1083.67
680.58	1080.56
680.92	1077.04
681.26	1072.13
681.60	1073.95
681.94	1075.01
682.28	1074.94
682.62	1076.86
682.96	1078.07
683.29	1078.45
683.63	1081.49
683.97	1082.64
684.31	1083.90
684.65	1082.57
684.99	1078.31
685.33	1076.30
685.67	1076.69
686.00	1071.94
686.34	1074.63
686.68	1076.62
687.02	1076.39
687.36	1074.05
687.70	1077.65
688.03	1078.21
688.37	1080.98
688.71	1082.85
689.05	1084.84
689.39	1086.36
689.72	1084.63
690.06	1082.26
690.40	1081.68
690.74	1084.21
691.08	1081.37
691.41	1083.74
691.75	1085.54
692.09	1083.36
692.43	1082.24
692.76	1081.49
693.10	1083.15
693.44	1080.91
693.78	1079.60
694.11	1077.89
694.45	1078.10
694.79	1070.30
695.13	1073.53
695.46	1074.75
695.80	1075.78
696.14	1079.08
696.48	1082.61
696.81	1080.32
697.15	1081.75
697.49	1080.56
697.82	1077.07
698.16	1078.36
698.50	1078.36
698.83	1080.02
699.17	1080.32
699.51	1083.15
699.84	1083.22
700.18	1085.80
700.52	1083.08
700.85	1083.83
701.19	1084.32
701.53	1085.87
701.86	1082.87
702.20	1083.25
702.54	1084.25
702.87	1086.48
703.21	1083.81
703.55	1082.92
703.88	1085.12
704.22	1082.01
704.55	1077.14
704.89	1074.42
705.23	1078.66
705.56	1077.96
705.90	1078.59
706.23	1081.82
706.57	1084.04
706.91	1081.70
707.24	1079.27
707.58	1080.93
707.91	1080.09
708.25	1081.51
708.58	1082.22
708.92	1087.51
709.26	1088.16
709.59	1083.60
709.93	1082.64
710.26	1085.26
710.60	1080.20
710.93	1081.35
711.27	1088.37
711.60	1091.95
711.94	1088.37
712.27	1091.32
712.61	1089.17
712.94	1083.18
713.28	1080.32
713.61	1079.50
713.95	1079.31
714.28	1083.29
714.62	1087.83
714.95	1088.19
715.29	1089.78
715.62	1086.78
715.96	1086.08
716.29	1085.52
716.63	1083.60
716.96	1083.60
717.29	1081.94
717.63	1077.40
717.96	1076.37
718.30	1078.05
718.63	1077.47
718.97	1083.48
719.30	1088.21
719.63	1084.28
719.97	1084.74
720.30	1087.48
720.64	1082.57
720.97	1080.67
721.30	1084.72
721.64	1084.84
721.97	1080.81
722.31	1085.14
722.64	1084.21
722.97	1082.73
723.31	1082.31
723.64	1082.99
723.97	1080.04
724.31	1077.37
724.64	1077.04
724.98	1075.99
725.31	1076.23
725.64	1076.18
725.98	1077.28
726.31	1076.06
726.64	1077.84
726.97	1075.92
727.31	1075.59
727.64	1076.27
727.97	1082.29
728.31	1080.70
728.64	1084.86
728.97	1085.68
729.31	1086.31
729.64	1082.40
729.97	1083.81
730.30	1082.50
730.64	1082.05
730.97	1079.57
731.30	1080.91
731.63	1080.11
731.97	1078.64
732.30	1078.50
732.63	1081.63
732.96	1081.05
733.30	1079.13
733.63	1078.87
733.96	1080.34
734.29	1079.69
734.63	1075.80
734.96	1078.50
735.29	1077.77
735.62	1075.41
735.95	1072.88
736.29	1078.45
736.62	1079.01
736.95	1082.08
737.28	1081.42
737.61	1083.69
737.94	1080.04
738.28	1078.14
738.61	1077.61
738.94	1080.27
739.27	1080.46
739.60	1082.15
739.93	1082.94
740.27	1082.12
740.60	1082.33
740.93	1082.43
741.26	1082.85
741.59	1082.52
741.92	1082.47
742.25	1081.00
742.58	1078.59
742.91	1076.23
743.25	1076.46
743.58	1079.17
743.91	1081.14
744.24	1082.05
744.57	1082.69
744.90	1084.37
745.23	1081.70
745.56	1076.69
745.89	1078.24
746.22	1078.64
746.55	1074.56
746.88	1072.48
747.21	1076.32
747.54	1073.74
747.87	1073.53
748.20	1074.75
748.53	1076.25
748.87	1077.04
749.20	1079.13
749.53	1078.14
749.86	1079.76
750.19	1078.45
750.52	1077.47
750.85	1076.34
751.18	1077.47
751.51	1075.78
751.84	1081.26
752.16	1081.40
752.49	1085.00
752.82	1087.60
753.15	1087.62
753.48	1085.73
753.81	1085.35
754.14	1082.64
754.47	1079.71
754.80	1080.25
755.13	1077.82
755.46	1078.07
755.79	1078.31
756.12	1080.48
756.45	1080.51
756.78	1079.15
757.11	1080.48
757.43	1078.33
757.76	1075.64
758.09	1077.79
758.42	1081.82
758.75	1080.02
759.08	1079.83
759.41	1081.09
759.74	1076.88
760.07	1076.76
760.39	1080.09
760.72	1081.19
761.05	1081.12
761.38	1083.53
761.71	1079.81
762.04	1077.11
762.36	1077.04
762.69	1073.77
763.02	1073.21
763.35	1075.31
763.68	1078.87
764.01	1078.47
