SpectraSuite Data File
++++++++++++++++++++++++++++++++++++
Date: Mon Aug 26 10:22:02 PDT 2019
User: corrico
Dark Spectrum Present: No
Reference Spectrum Present: No
Number of Sampled Component Spectra: 1
Spectrometers: USB2+H06089
Integration Time (usec): 2000 (USB2+H06089)
Spectra Averaged: 20 (USB2+H06089)
Boxcar Smoothing: 2 (USB2+H06089)
Correct for Electrical Dark: No (USB2+H06089)
Strobe/Lamp Enabled: No (USB2+H06089)
Correct for Detector Non-linearity: No (USB2+H06089)
Correct for Stray Light: No (USB2+H06089)
Number of Pixels in Processed Spectrum: 2048
>>>>>Begin Processed Spectral Data<<<<<
339.70	1044.93
340.07	1044.93
340.45	1006.24
340.82	982.56
341.19	955.20
341.57	926.41
341.94	915.34
342.31	910.56
342.69	905.37
343.06	901.93
343.43	902.00
343.81	905.04
344.18	905.46
344.55	906.40
344.93	912.18
345.30	919.18
345.67	922.17
346.04	930.76
346.42	938.95
346.79	948.43
347.16	954.99
347.54	964.28
347.91	973.87
348.28	985.46
348.65	992.81
349.03	1004.60
349.40	1011.28
349.77	1017.62
350.14	1024.57
350.52	1032.74
350.89	1036.37
351.26	1042.71
351.63	1049.68
352.01	1053.69
352.38	1058.02
352.75	1063.19
353.12	1069.46
353.50	1068.41
353.87	1070.91
354.24	1073.32
354.61	1075.24
354.98	1075.87
355.36	1080.60
355.73	1081.98
356.10	1083.57
356.47	1083.97
356.84	1085.56
357.22	1086.31
357.59	1089.12
357.96	1086.87
358.33	1087.72
358.70	1084.96
359.08	1083.71
359.45	1082.38
359.82	1082.15
360.19	1080.86
360.56	1081.07
360.94	1082.43
361.31	1082.87
361.68	1080.23
362.05	1080.46
362.42	1082.10
362.79	1079.03
363.16	1076.23
363.54	1079.46
363.91	1076.62
364.28	1074.94
364.65	1076.76
365.02	1076.83
365.39	1076.55
365.76	1076.67
366.14	1076.25
366.51	1072.57
366.88	1074.84
367.25	1074.21
367.62	1075.08
367.99	1074.75
368.36	1076.41
368.73	1074.42
369.10	1075.50
369.48	1074.56
369.85	1073.81
370.22	1072.62
370.59	1072.71
370.96	1071.29
371.33	1072.64
371.70	1070.54
372.07	1068.59
372.44	1067.00
372.81	1069.81
373.18	1068.81
373.55	1072.74
373.93	1075.31
374.30	1075.69
374.67	1072.67
375.04	1073.51
375.41	1072.81
375.78	1072.60
376.15	1074.21
376.52	1076.72
376.89	1076.11
377.26	1077.28
377.63	1077.18
378.00	1078.94
378.37	1080.27
378.74	1081.66
379.11	1081.54
379.48	1083.08
379.85	1081.33
380.22	1078.45
380.59	1082.76
380.96	1083.34
381.33	1084.56
381.70	1084.09
382.07	1085.38
382.44	1080.30
382.81	1081.40
383.18	1077.61
383.55	1081.26
383.92	1080.04
384.29	1083.25
384.66	1082.94
385.03	1087.83
385.40	1083.06
385.77	1084.00
386.14	1083.88
386.51	1082.43
386.88	1082.33
387.25	1084.30
387.62	1084.93
387.99	1081.98
388.36	1083.36
388.73	1080.79
389.10	1081.19
389.46	1083.62
389.83	1087.39
390.20	1084.84
390.57	1085.89
390.94	1086.06
391.31	1084.63
391.68	1080.70
392.05	1082.52
392.42	1081.82
392.79	1082.61
393.16	1082.24
393.53	1083.32
393.89	1081.02
394.26	1083.29
394.63	1084.00
395.00	1084.14
395.37	1084.35
395.74	1086.13
396.11	1083.32
396.48	1082.05
396.84	1079.81
397.21	1080.58
397.58	1081.40
397.95	1080.79
398.32	1081.49
398.69	1084.89
399.06	1085.24
399.42	1085.42
399.79	1088.75
400.16	1090.29
400.53	1089.33
400.90	1088.86
401.27	1090.48
401.64	1092.30
402.00	1089.96
402.37	1091.84
402.74	1094.65
403.11	1092.87
403.48	1091.58
403.84	1094.74
404.21	1092.42
404.58	1087.51
404.95	1088.70
405.32	1088.58
405.68	1086.45
406.05	1086.52
406.42	1090.13
406.79	1091.06
407.16	1090.95
407.52	1092.75
407.89	1092.35
408.26	1092.49
408.63	1093.71
408.99	1093.78
409.36	1089.94
409.73	1093.52
410.10	1091.91
410.47	1088.82
410.83	1088.58
411.20	1091.20
411.57	1089.50
411.94	1092.68
412.30	1093.05
412.67	1095.63
413.04	1095.37
413.40	1096.56
413.77	1097.59
414.14	1097.92
414.51	1097.13
414.87	1098.32
415.24	1096.26
415.61	1098.11
415.97	1099.91
416.34	1100.31
416.71	1099.91
417.08	1100.57
417.44	1096.26
417.81	1096.00
418.18	1098.58
418.54	1102.25
418.91	1104.55
419.28	1109.41
419.64	1114.12
420.01	1114.70
420.38	1114.14
420.74	1116.34
421.11	1116.88
421.48	1117.56
421.84	1116.15
422.21	1118.80
422.58	1122.12
422.94	1124.44
423.31	1125.63
423.68	1128.84
424.04	1129.87
424.41	1131.70
424.77	1136.24
425.14	1140.57
425.51	1142.42
425.87	1148.29
426.24	1149.81
426.61	1151.73
426.97	1154.54
427.34	1162.24
427.70	1167.88
428.07	1177.41
428.44	1187.47
428.80	1195.26
429.17	1204.21
429.53	1211.20
429.90	1221.01
430.27	1227.24
430.63	1235.36
431.00	1243.67
431.36	1252.94
431.73	1265.15
432.09	1278.14
432.46	1295.70
432.83	1313.13
433.19	1335.23
433.56	1351.00
433.92	1370.62
434.29	1390.56
434.65	1411.83
435.02	1432.69
435.38	1463.21
435.75	1488.51
436.11	1516.99
436.48	1550.46
436.84	1584.47
437.21	1617.68
437.57	1658.27
437.94	1699.67
438.30	1740.12
438.67	1784.82
439.03	1834.63
439.40	1888.32
439.76	1943.74
440.13	2006.03
440.49	2072.17
440.86	2132.44
441.22	2201.67
441.59	2274.39
441.95	2352.61
442.32	2435.56
442.68	2532.81
443.05	2629.31
443.41	2729.65
443.78	2829.47
444.14	2943.69
444.51	3054.40
444.87	3188.65
445.24	3318.79
445.60	3463.62
445.96	3597.50
446.33	3761.59
446.69	3912.32
447.06	4089.92
447.42	4272.72
447.79	4476.02
448.15	4692.66
448.51	4911.50
448.88	5157.51
449.24	5388.92
449.61	5659.25
449.97	5936.16
450.33	6242.68
450.70	6539.81
451.06	6908.18
451.43	7241.57
451.79	7617.23
452.15	8008.00
452.52	8427.61
452.88	8847.65
453.24	9330.90
453.61	9854.17
453.97	10369.72
454.34	10894.28
454.70	11493.22
455.06	12091.68
455.43	12660.00
455.79	13220.84
456.15	13891.78
456.52	14541.58
456.88	15334.84
457.24	16130.32
457.61	17048.74
457.97	17882.51
458.33	18750.01
458.70	19575.61
459.06	20390.16
459.42	21262.25
459.79	22053.70
460.15	22927.16
460.51	23716.11
460.88	24525.77
461.24	25236.03
461.60	26105.68
461.96	26849.17
462.33	27583.12
462.69	28312.03
463.05	29141.12
463.42	29902.94
463.78	30646.69
464.14	31311.50
464.50	32042.10
464.87	32597.76
465.23	32961.48
465.59	33360.99
465.95	33711.16
466.32	33994.95
466.68	34251.80
467.04	34472.79
467.40	34590.80
467.77	34715.04
468.13	34648.49
468.49	34470.12
468.85	34324.17
469.22	34220.76
469.58	34019.01
469.94	33897.37
470.30	33740.23
470.66	33435.77
471.03	32857.91
471.39	32393.41
471.75	31694.67
472.11	31020.31
472.47	30533.60
472.84	30102.26
473.20	29478.11
473.56	29068.80
473.92	28529.37
474.28	27979.58
474.65	27463.89
475.01	27031.92
475.37	26498.94
475.73	26079.75
476.09	25597.55
476.45	25161.84
476.81	24725.00
477.18	24259.21
477.54	23849.26
477.90	23465.20
478.26	23002.93
478.62	22594.71
478.98	22299.41
479.34	22035.56
479.71	21742.76
480.07	21453.91
480.43	21147.11
480.79	20742.06
481.15	20289.57
481.51	19891.93
481.87	19557.77
482.23	19230.24
482.59	18946.52
482.96	18650.16
483.32	18349.12
483.68	17991.89
484.04	17635.54
484.40	17284.93
484.76	16964.93
485.12	16625.60
485.48	16346.96
485.84	16062.44
486.20	15788.29
486.56	15459.54
486.92	15154.03
487.28	14821.86
487.64	14466.97
488.00	14118.06
488.37	13787.18
488.73	13431.40
489.09	13060.47
489.45	12728.93
489.81	12398.08
490.17	12085.38
490.53	11760.89
490.89	11437.80
491.25	11108.93
491.61	10765.65
491.97	10439.47
492.33	10150.88
492.69	9898.97
493.05	9645.46
493.41	9409.21
493.77	9151.73
494.13	8899.35
494.49	8624.87
494.85	8374.60
495.21	8133.76
495.57	7923.95
495.93	7702.82
496.29	7489.76
496.64	7295.68
497.00	7095.10
497.36	6903.57
497.72	6726.79
498.08	6582.59
498.44	6420.37
498.80	6261.19
499.16	6094.40
499.52	5932.42
499.88	5771.15
500.24	5624.14
500.60	5490.01
500.96	5369.84
501.32	5246.92
501.68	5123.78
502.03	5000.32
502.39	4881.68
502.75	4760.91
503.11	4653.15
503.47	4547.87
503.83	4445.08
504.19	4341.34
504.55	4236.37
504.91	4135.94
505.26	4041.89
505.62	3945.07
505.98	3851.89
506.34	3763.02
506.70	3674.29
507.06	3594.36
507.42	3514.10
507.78	3435.49
508.13	3356.09
508.49	3278.79
508.85	3204.31
509.21	3128.03
509.57	3063.81
509.93	3001.67
510.28	2937.93
510.64	2878.98
511.00	2823.95
511.36	2767.73
511.72	2716.12
512.07	2672.63
512.43	2623.79
512.79	2578.15
513.15	2528.36
513.51	2483.05
513.86	2435.98
514.22	2388.66
514.58	2341.68
514.94	2297.17
515.30	2254.01
515.65	2215.18
516.01	2181.87
516.37	2148.64
516.73	2119.66
517.08	2090.10
517.44	2055.53
517.80	2025.69
518.16	2000.81
518.51	1975.51
518.87	1947.37
519.23	1923.34
519.59	1894.71
519.94	1870.04
520.30	1846.87
520.66	1824.66
521.01	1806.71
521.37	1787.54
521.73	1764.46
522.09	1741.12
522.44	1720.43
522.80	1693.35
523.16	1675.50
523.51	1653.82
523.87	1637.42
524.23	1621.13
524.58	1607.11
524.94	1588.50
525.30	1575.88
525.65	1558.00
526.01	1542.83
526.37	1533.28
526.72	1517.98
527.08	1504.12
527.44	1491.86
527.79	1480.27
528.15	1461.03
528.51	1449.31
528.86	1435.85
529.22	1422.76
529.58	1409.66
529.93	1400.27
530.29	1392.88
530.65	1386.42
531.00	1381.59
531.36	1373.52
531.71	1366.47
532.07	1358.75
532.43	1348.66
532.78	1337.94
533.14	1328.51
533.49	1321.28
533.85	1308.92
534.21	1303.16
534.56	1295.74
534.92	1291.93
535.27	1285.31
535.63	1284.30
535.98	1279.31
536.34	1275.97
536.69	1267.73
537.05	1263.02
537.41	1256.05
537.76	1245.52
538.12	1240.09
538.47	1237.53
538.83	1231.24
539.18	1228.06
539.54	1226.74
539.89	1221.10
540.25	1217.43
540.60	1215.91
540.96	1211.41
541.31	1210.53
541.67	1208.84
542.02	1204.21
542.38	1201.77
542.73	1198.28
543.09	1192.53
543.44	1188.78
543.80	1188.29
544.15	1184.15
544.51	1184.33
544.86	1185.22
545.22	1185.93
545.57	1182.18
545.93	1179.89
546.28	1173.99
546.64	1171.86
546.99	1168.61
547.35	1166.64
547.70	1163.78
548.05	1159.97
548.41	1154.07
548.76	1148.36
549.12	1145.39
549.47	1146.65
549.83	1146.28
550.18	1143.84
550.53	1145.53
550.89	1142.16
551.24	1138.74
551.60	1139.00
551.95	1139.26
552.30	1139.49
552.66	1142.46
553.01	1140.89
553.37	1139.16
553.72	1139.61
554.07	1134.95
554.43	1131.70
554.78	1129.21
555.13	1127.74
555.49	1126.08
555.84	1126.20
556.19	1127.81
556.55	1128.56
556.90	1127.08
557.26	1125.66
557.61	1123.53
557.96	1120.30
558.32	1119.03
558.67	1116.46
559.02	1113.44
559.37	1113.18
559.73	1113.44
560.08	1111.87
560.43	1113.74
560.79	1117.47
561.14	1117.65
561.49	1117.44
561.85	1117.35
562.20	1118.10
562.55	1114.33
562.90	1116.34
563.26	1116.18
563.61	1114.42
563.96	1112.39
564.32	1110.35
564.67	1107.31
565.02	1105.39
565.37	1106.72
565.73	1106.25
566.08	1109.37
566.43	1107.82
566.78	1105.01
567.14	1100.89
567.49	1099.61
567.84	1097.92
568.19	1095.46
568.54	1097.22
568.90	1099.09
569.25	1096.80
569.60	1093.50
569.95	1097.99
570.31	1096.99
570.66	1095.49
571.01	1097.13
571.36	1097.64
571.71	1093.08
572.06	1091.91
572.42	1094.34
572.77	1098.46
573.12	1100.29
573.47	1101.43
573.82	1102.02
574.18	1103.21
574.53	1097.88
574.88	1096.78
575.23	1093.97
575.58	1095.25
575.93	1090.90
576.28	1094.27
576.64	1096.87
576.99	1100.71
577.34	1097.92
577.69	1098.06
578.04	1094.48
578.39	1089.40
578.74	1086.13
579.09	1085.61
579.44	1090.03
579.80	1093.10
580.15	1095.72
580.50	1098.72
580.85	1100.57
581.20	1095.65
581.55	1089.73
581.90	1086.43
582.25	1083.90
582.60	1083.62
582.95	1084.42
583.30	1090.69
583.65	1092.89
584.00	1092.00
584.35	1089.71
584.71	1090.88
585.06	1089.38
585.41	1091.79
585.76	1092.75
586.11	1095.89
586.46	1094.65
586.81	1094.39
587.16	1092.66
587.51	1094.50
587.86	1092.89
588.21	1091.42
588.56	1090.76
588.91	1089.43
589.26	1087.90
589.61	1089.26
589.96	1092.45
590.31	1092.02
590.66	1093.40
591.01	1094.72
591.36	1092.42
591.71	1091.04
592.06	1092.70
592.41	1089.75
592.76	1088.56
593.10	1092.23
593.45	1091.25
593.80	1088.93
594.15	1087.88
594.50	1088.35
594.85	1087.04
595.20	1086.45
595.55	1087.76
595.90	1092.82
596.25	1090.03
596.60	1085.54
596.95	1087.20
597.30	1084.98
597.64	1094.67
597.99	1098.83
598.34	1100.45
598.69	1100.78
599.04	1103.42
599.39	1091.65
599.74	1089.78
600.09	1087.51
600.44	1084.70
600.78	1083.88
601.13	1085.31
601.48	1082.90
601.83	1087.11
602.18	1090.62
602.53	1087.76
602.88	1086.57
603.22	1088.33
603.57	1087.46
603.92	1085.21
604.27	1085.59
604.62	1084.93
604.97	1086.69
605.31	1085.63
605.66	1085.59
606.01	1085.73
606.36	1083.57
606.71	1080.06
607.05	1080.88
607.40	1081.47
607.75	1080.18
608.10	1082.57
608.44	1083.39
608.79	1080.51
609.14	1081.28
609.49	1084.46
609.84	1086.41
610.18	1088.09
610.53	1090.81
610.88	1087.88
611.23	1086.62
611.57	1088.07
611.92	1085.82
612.27	1085.82
612.62	1086.94
612.96	1089.22
613.31	1085.00
613.66	1085.31
614.00	1087.46
614.35	1088.61
614.70	1085.42
615.05	1087.04
615.39	1088.72
615.74	1086.08
616.09	1083.36
616.43	1086.71
616.78	1089.12
617.13	1087.88
617.47	1086.69
617.82	1088.51
618.17	1085.47
618.51	1082.90
618.86	1081.54
619.21	1083.76
619.55	1082.71
619.90	1084.21
620.25	1084.89
620.59	1087.34
620.94	1087.16
621.29	1086.55
621.63	1088.77
621.98	1087.32
622.32	1084.74
622.67	1085.70
623.02	1086.38
623.36	1083.04
623.71	1081.44
624.05	1083.22
624.40	1080.93
624.75	1083.29
625.09	1085.35
625.44	1086.27
625.78	1082.76
626.13	1080.37
626.48	1079.38
626.82	1080.16
627.17	1079.69
627.51	1082.03
627.86	1086.24
628.20	1082.90
628.55	1081.09
628.89	1081.84
629.24	1084.16
629.58	1080.98
629.93	1085.31
630.28	1083.62
630.62	1083.27
630.97	1079.95
631.31	1081.14
631.66	1078.99
632.00	1079.99
632.35	1081.26
632.69	1083.27
633.04	1082.24
633.38	1084.32
633.73	1084.60
634.07	1084.89
634.42	1088.26
634.76	1089.54
635.11	1088.56
635.45	1087.55
635.79	1087.83
636.14	1085.17
636.48	1082.92
636.83	1083.18
637.17	1084.37
637.52	1080.93
637.86	1080.98
638.21	1083.86
638.55	1083.04
638.89	1082.33
639.24	1084.21
639.58	1085.00
639.93	1086.29
640.27	1085.17
640.61	1085.14
640.96	1083.79
641.30	1080.20
641.65	1077.49
641.99	1078.14
642.33	1076.74
642.68	1079.06
643.02	1081.75
643.37	1081.49
643.71	1078.57
644.05	1080.13
644.40	1080.53
644.74	1078.99
645.08	1080.86
645.43	1086.03
645.77	1082.85
646.11	1084.39
646.46	1086.08
646.80	1086.43
647.14	1083.27
647.49	1089.03
647.83	1089.33
648.17	1090.50
648.52	1089.33
648.86	1091.77
649.20	1089.12
649.55	1084.44
649.89	1079.50
650.23	1078.85
650.57	1078.07
650.92	1078.87
651.26	1077.44
651.60	1077.72
651.95	1078.12
652.29	1075.57
652.63	1076.55
652.97	1076.13
653.32	1076.48
653.66	1077.68
654.00	1082.19
654.34	1079.71
654.69	1083.08
655.03	1086.92
655.37	1085.80
655.71	1083.15
656.05	1079.88
656.40	1080.84
656.74	1080.06
657.08	1079.67
657.42	1077.37
657.76	1080.51
658.11	1080.86
658.45	1077.21
658.79	1074.73
659.13	1075.71
659.47	1078.54
659.82	1075.92
660.16	1078.26
660.50	1083.41
660.84	1086.24
661.18	1083.79
661.52	1086.73
661.87	1086.52
662.21	1085.17
662.55	1082.59
662.89	1084.23
663.23	1084.30
663.57	1085.68
663.91	1083.67
664.25	1083.95
664.60	1083.01
664.94	1084.18
665.28	1085.35
665.62	1087.95
665.96	1086.71
666.30	1084.65
666.64	1081.07
666.98	1079.48
667.32	1077.28
667.66	1079.69
668.01	1080.58
668.35	1080.65
668.69	1082.03
669.03	1085.10
669.37	1084.86
669.71	1085.66
670.05	1086.85
670.39	1087.93
670.73	1085.49
671.07	1085.47
671.41	1085.52
671.75	1086.41
672.09	1082.73
672.43	1083.76
672.77	1086.22
673.11	1083.32
673.45	1078.68
673.79	1076.79
674.13	1075.03
674.47	1074.70
674.81	1075.87
675.15	1078.47
675.49	1081.49
675.83	1083.71
676.17	1081.70
676.51	1083.11
676.85	1081.89
677.19	1082.12
677.53	1082.01
677.87	1080.72
678.21	1078.05
678.55	1076.15
678.89	1077.33
679.23	1080.39
679.57	1083.64
679.90	1088.54
680.24	1090.88
680.58	1091.60
680.92	1085.96
681.26	1082.59
681.60	1081.75
681.94	1081.94
682.28	1076.53
682.62	1080.46
682.96	1082.54
683.29	1079.74
683.63	1080.30
683.97	1083.27
684.31	1081.47
684.65	1078.64
684.99	1077.82
685.33	1077.28
685.67	1079.29
686.00	1077.96
686.34	1080.13
686.68	1080.67
687.02	1082.15
687.36	1079.85
687.70	1081.28
688.03	1080.91
688.37	1085.54
688.71	1086.03
689.05	1085.61
689.39	1085.73
689.72	1088.09
690.06	1086.55
690.40	1087.32
690.74	1085.61
691.08	1086.01
691.41	1084.25
691.75	1084.53
692.09	1083.01
692.43	1083.71
692.76	1084.14
693.10	1084.98
693.44	1085.61
693.78	1085.14
694.11	1087.02
694.45	1082.66
694.79	1081.51
695.13	1079.15
695.46	1078.19
695.80	1076.25
696.14	1076.74
696.48	1075.29
696.81	1072.83
697.15	1071.52
697.49	1073.65
697.82	1075.90
698.16	1074.82
698.50	1077.47
698.83	1078.21
699.17	1078.43
699.51	1076.46
699.84	1081.09
700.18	1079.90
700.52	1081.47
700.85	1080.74
701.19	1078.50
701.53	1076.93
701.86	1079.20
702.20	1079.31
702.54	1078.66
702.87	1083.60
703.21	1080.81
703.55	1079.34
703.88	1079.41
704.22	1076.65
704.55	1073.77
704.89	1075.69
705.23	1078.28
705.56	1076.08
705.90	1078.59
706.23	1081.37
706.57	1080.27
706.91	1078.92
707.24	1081.23
707.58	1081.75
707.91	1078.14
708.25	1078.07
708.58	1074.14
708.92	1073.49
709.26	1074.70
709.59	1079.41
709.93	1080.09
710.26	1082.45
710.60	1081.19
710.93	1080.18
711.27	1079.20
711.60	1078.61
711.94	1081.58
712.27	1081.09
712.61	1080.79
712.94	1082.12
713.28	1084.37
713.61	1081.68
713.95	1083.32
714.28	1083.36
714.62	1083.18
714.95	1080.84
715.29	1083.20
715.62	1087.09
715.96	1090.24
716.29	1088.75
716.63	1089.57
716.96	1086.94
717.29	1085.99
717.63	1083.43
717.96	1088.04
718.30	1087.51
718.63	1086.97
718.97	1084.39
719.30	1084.60
719.63	1078.66
719.97	1079.03
720.30	1078.21
720.64	1079.38
720.97	1077.49
721.30	1078.78
721.64	1079.10
721.97	1080.91
722.31	1079.43
722.64	1081.12
722.97	1079.06
723.31	1078.38
723.64	1080.25
723.97	1083.32
724.31	1083.01
724.64	1084.81
724.98	1083.50
725.31	1080.20
725.64	1076.25
725.98	1077.65
726.31	1075.64
726.64	1076.11
726.97	1077.11
727.31	1077.35
727.64	1073.53
727.97	1075.05
728.31	1077.77
728.64	1080.56
728.97	1081.77
729.31	1079.74
729.64	1077.44
729.97	1075.83
730.30	1072.67
730.64	1073.60
730.97	1078.85
731.30	1078.68
731.63	1076.79
731.97	1077.44
732.30	1076.62
732.63	1075.87
732.96	1078.36
733.30	1079.48
733.63	1077.56
733.96	1072.81
734.29	1073.18
734.63	1073.23
734.96	1076.83
735.29	1077.51
735.62	1082.61
735.95	1082.12
736.29	1082.54
736.62	1080.67
736.95	1083.25
737.28	1083.79
737.61	1082.03
737.94	1082.50
738.28	1084.98
738.61	1085.26
738.94	1084.63
739.27	1084.86
739.60	1085.28
739.93	1083.41
740.27	1083.79
740.60	1084.44
740.93	1086.92
741.26	1084.07
741.59	1084.42
741.92	1081.49
742.25	1080.13
742.58	1080.18
742.91	1081.94
743.25	1081.84
743.58	1083.25
743.91	1084.60
744.24	1080.06
744.57	1079.76
744.90	1077.28
745.23	1073.77
745.56	1071.12
745.89	1075.27
746.22	1075.71
746.55	1075.15
746.88	1081.09
747.21	1079.78
747.54	1077.56
747.87	1078.14
748.20	1080.02
748.53	1081.82
748.87	1085.56
749.20	1087.34
749.53	1086.87
749.86	1088.30
750.19	1083.90
750.52	1083.86
750.85	1086.87
751.18	1088.02
751.51	1083.90
751.84	1082.01
752.16	1082.03
752.49	1076.76
752.82	1076.46
753.15	1081.16
753.48	1082.66
753.81	1081.12
754.14	1083.20
754.47	1084.67
754.80	1083.04
755.13	1084.21
755.46	1085.82
755.79	1086.94
756.12	1086.24
756.45	1085.77
756.78	1086.03
757.11	1082.59
757.43	1083.55
757.76	1083.43
758.09	1082.45
758.42	1082.38
758.75	1085.91
759.08	1082.66
759.41	1078.64
759.74	1079.81
760.07	1080.37
760.39	1082.97
760.72	1083.06
761.05	1084.70
761.38	1084.46
761.71	1084.16
762.04	1082.12
762.36	1084.30
762.69	1085.38
763.02	1083.48
763.35	1081.75
763.68	1078.92
764.01	1075.92
