SpectraSuite Data File
++++++++++++++++++++++++++++++++++++
Date: Mon Aug 26 10:21:53 PDT 2019
User: corrico
Dark Spectrum Present: No
Reference Spectrum Present: No
Number of Sampled Component Spectra: 1
Spectrometers: USB2+H06089
Integration Time (usec): 2000 (USB2+H06089)
Spectra Averaged: 20 (USB2+H06089)
Boxcar Smoothing: 2 (USB2+H06089)
Correct for Electrical Dark: No (USB2+H06089)
Strobe/Lamp Enabled: No (USB2+H06089)
Correct for Detector Non-linearity: No (USB2+H06089)
Correct for Stray Light: No (USB2+H06089)
Number of Pixels in Processed Spectrum: 2048
>>>>>Begin Processed Spectral Data<<<<<
339.70	1021.29
340.07	1021.29
340.45	988.95
340.82	967.30
341.19	945.48
341.57	920.42
341.94	905.09
342.31	895.86
342.69	891.65
343.06	885.45
343.43	885.78
343.81	889.99
344.18	893.99
344.55	900.15
344.93	908.97
345.30	914.05
345.67	920.60
346.04	928.23
346.42	934.79
346.79	940.45
347.16	950.49
347.54	962.05
347.91	970.48
348.28	980.43
348.65	990.40
349.03	998.05
349.40	1004.58
349.77	1010.39
350.14	1012.56
350.52	1018.79
350.89	1023.91
351.26	1031.45
351.63	1037.61
352.01	1045.63
352.38	1049.22
352.75	1053.22
353.12	1056.66
353.50	1063.02
353.87	1065.81
354.24	1067.54
354.61	1068.99
354.98	1068.64
355.36	1066.11
355.73	1066.21
356.10	1067.03
356.47	1070.51
356.84	1069.46
357.22	1072.18
357.59	1070.89
357.96	1071.05
358.33	1070.96
358.70	1070.94
359.08	1070.42
359.45	1072.04
359.82	1073.44
360.19	1073.91
360.56	1077.82
360.94	1077.65
361.31	1079.60
361.68	1079.71
362.05	1072.06
362.42	1068.41
362.79	1067.49
363.16	1064.31
363.54	1063.12
363.91	1066.91
364.28	1066.44
364.65	1065.58
365.02	1065.74
365.39	1063.07
365.76	1063.24
366.14	1062.91
366.51	1063.31
366.88	1060.85
367.25	1065.60
367.62	1064.66
367.99	1063.31
368.36	1062.09
368.73	1064.80
369.10	1061.41
369.48	1063.21
369.85	1065.44
370.22	1065.62
370.59	1064.31
370.96	1063.82
371.33	1063.05
371.70	1062.74
372.07	1064.36
372.44	1064.19
372.81	1063.33
373.18	1061.90
373.55	1061.92
373.93	1060.73
374.30	1060.89
374.67	1060.19
375.04	1060.99
375.41	1062.79
375.78	1064.48
376.15	1065.62
376.52	1070.63
376.89	1069.11
377.26	1065.83
377.63	1062.88
378.00	1061.18
378.37	1059.54
378.74	1061.29
379.11	1060.15
379.48	1060.26
379.85	1062.18
380.22	1063.02
380.59	1064.59
380.96	1071.24
381.33	1070.47
381.70	1069.25
382.07	1069.18
382.44	1067.94
382.81	1065.27
383.18	1066.77
383.55	1067.24
383.92	1064.83
384.29	1060.94
384.66	1060.59
385.03	1060.31
385.40	1059.44
385.77	1060.80
386.14	1064.80
386.51	1064.45
386.88	1067.68
387.25	1069.16
387.62	1068.43
387.99	1070.58
388.36	1070.61
388.73	1066.70
389.10	1065.27
389.46	1067.26
389.83	1066.96
390.20	1066.91
390.57	1070.12
390.94	1072.11
391.31	1069.86
391.68	1068.74
392.05	1068.06
392.42	1065.44
392.79	1064.22
393.16	1063.80
393.53	1062.35
393.89	1062.28
394.26	1064.38
394.63	1064.10
395.00	1064.34
395.37	1065.76
395.74	1062.09
396.11	1064.36
396.48	1063.68
396.84	1065.60
397.21	1065.25
397.58	1068.57
397.95	1064.90
398.32	1066.49
398.69	1065.81
399.06	1066.70
399.42	1067.96
399.79	1070.37
400.16	1071.54
400.53	1073.70
400.90	1072.50
401.27	1073.18
401.64	1072.60
402.00	1070.14
402.37	1069.18
402.74	1070.80
403.11	1069.34
403.48	1067.64
403.84	1070.14
404.21	1069.53
404.58	1070.16
404.95	1072.67
405.32	1074.61
405.68	1075.36
406.05	1075.38
406.42	1074.94
406.79	1074.35
407.16	1071.94
407.52	1070.14
407.89	1071.10
408.26	1071.61
408.63	1070.19
408.99	1073.65
409.36	1074.40
409.73	1075.45
410.10	1073.28
410.47	1073.51
410.83	1068.48
411.20	1067.75
411.57	1065.46
411.94	1067.75
412.30	1070.58
412.67	1076.11
413.04	1075.43
413.40	1075.29
413.77	1072.71
414.14	1071.97
414.51	1070.30
414.87	1070.63
415.24	1074.56
415.61	1075.17
415.97	1074.89
416.34	1077.42
416.71	1076.97
417.08	1075.34
417.44	1077.11
417.81	1077.28
418.18	1074.31
418.54	1077.04
418.91	1075.03
419.28	1073.28
419.64	1075.34
420.01	1077.14
420.38	1076.23
420.74	1076.76
421.11	1078.64
421.48	1074.47
421.84	1071.59
422.21	1074.35
422.58	1074.24
422.94	1074.89
423.31	1078.66
423.68	1083.90
424.04	1083.27
424.41	1086.01
424.77	1084.28
425.14	1083.53
425.51	1082.90
425.87	1085.12
426.24	1087.04
426.61	1088.61
426.97	1090.69
427.34	1091.51
427.70	1091.93
428.07	1094.97
428.44	1094.67
428.80	1094.25
429.17	1095.72
429.53	1094.46
429.90	1091.72
430.27	1095.28
430.63	1096.28
431.00	1095.49
431.36	1098.86
431.73	1100.99
432.09	1100.54
432.46	1102.16
432.83	1106.84
433.19	1106.96
433.56	1107.89
433.92	1113.95
434.29	1118.59
434.65	1122.12
435.02	1124.00
435.38	1130.34
435.75	1132.00
436.11	1135.86
436.48	1138.11
436.84	1144.78
437.21	1148.52
437.57	1155.01
437.94	1162.57
438.30	1167.04
438.67	1176.24
439.03	1183.47
439.40	1192.81
439.76	1199.62
440.13	1207.53
440.49	1212.37
440.86	1220.24
441.22	1226.72
441.59	1235.69
441.95	1248.61
442.32	1262.58
442.68	1274.66
443.05	1290.06
443.41	1302.30
443.78	1314.16
444.14	1326.24
444.51	1341.60
444.87	1358.07
445.24	1376.28
445.60	1394.80
445.96	1412.35
446.33	1427.89
446.69	1448.49
447.06	1466.74
447.42	1489.12
447.79	1513.27
448.15	1546.09
448.51	1573.87
448.88	1608.35
449.24	1640.55
449.61	1681.39
449.97	1718.59
450.33	1752.73
450.70	1791.09
451.06	1830.95
451.43	1866.95
451.79	1909.71
452.15	1958.26
452.52	2005.86
452.88	2061.52
453.24	2117.62
453.61	2182.03
453.97	2244.67
454.34	2307.11
454.70	2379.41
455.06	2453.82
455.43	2516.80
455.79	2578.83
456.15	2654.35
456.52	2723.33
456.88	2817.35
457.24	2912.26
457.61	3025.00
457.97	3126.65
458.33	3226.19
458.70	3316.16
459.06	3409.97
459.42	3511.39
459.79	3606.98
460.15	3715.69
460.51	3815.68
460.88	3921.71
461.24	4010.13
461.60	4118.62
461.96	4222.00
462.33	4325.92
462.69	4414.09
463.05	4513.28
463.42	4605.52
463.78	4689.03
464.14	4765.35
464.50	4863.00
464.87	4941.43
465.23	4984.40
465.59	5031.43
465.95	5070.84
466.32	5098.60
466.68	5127.51
467.04	5165.61
467.40	5186.58
467.77	5200.67
468.13	5187.75
468.49	5178.22
468.85	5178.08
469.22	5179.00
469.58	5156.46
469.94	5152.92
470.30	5114.16
470.66	5068.64
471.03	5016.80
471.39	4986.09
471.75	4925.96
472.11	4874.89
472.47	4815.04
472.84	4745.41
473.20	4666.47
473.56	4610.29
473.92	4547.85
474.28	4490.22
474.65	4442.36
475.01	4403.25
475.37	4336.43
475.73	4278.48
476.09	4220.45
476.45	4159.01
476.81	4099.31
477.18	4050.74
477.54	4012.52
477.90	3973.90
478.26	3923.86
478.62	3872.56
478.98	3830.22
479.34	3793.47
479.71	3748.53
480.07	3713.70
480.43	3677.73
480.79	3641.92
481.15	3597.19
481.51	3552.35
481.87	3515.09
482.23	3475.41
482.59	3434.43
482.96	3390.38
483.32	3355.77
483.68	3317.76
484.04	3284.99
484.40	3247.28
484.76	3213.18
485.12	3177.23
485.48	3138.49
485.84	3098.64
486.20	3062.50
486.56	3022.92
486.92	2988.02
487.28	2947.20
487.64	2907.67
488.00	2870.39
488.37	2831.81
488.73	2784.91
489.09	2739.22
489.45	2697.33
489.81	2651.17
490.17	2604.17
490.53	2561.18
490.89	2524.01
491.25	2477.27
491.61	2437.50
491.97	2402.35
492.33	2371.85
492.69	2343.79
493.05	2310.37
493.41	2274.20
493.77	2240.67
494.13	2205.58
494.49	2169.00
494.85	2137.14
495.21	2110.16
495.57	2078.82
495.93	2049.09
496.29	2019.44
496.64	1997.27
497.00	1966.42
497.36	1939.84
497.72	1912.08
498.08	1890.22
498.44	1864.70
498.80	1842.87
499.16	1826.13
499.52	1811.43
499.88	1789.04
500.24	1770.45
500.60	1755.73
500.96	1736.21
501.32	1714.82
501.68	1702.88
502.03	1685.86
502.39	1665.13
502.75	1646.01
503.11	1630.02
503.47	1607.36
503.83	1591.49
504.19	1575.48
504.55	1562.85
504.91	1547.26
505.26	1532.09
505.62	1519.73
505.98	1512.97
506.34	1498.04
506.70	1485.33
507.06	1474.87
507.42	1458.86
507.78	1441.47
508.13	1433.48
508.49	1423.51
508.85	1415.53
509.21	1406.45
509.57	1393.86
509.93	1380.03
510.28	1369.17
510.64	1353.58
511.00	1340.64
511.36	1332.30
511.72	1324.74
512.07	1317.00
512.43	1310.11
512.79	1307.56
513.15	1303.28
513.51	1292.44
513.86	1282.24
514.22	1277.11
514.58	1264.26
514.94	1256.10
515.30	1255.72
515.65	1251.98
516.01	1244.81
516.37	1242.75
516.73	1237.39
517.08	1226.84
517.44	1221.60
517.80	1219.07
518.16	1214.20
518.51	1209.68
518.87	1207.62
519.23	1208.75
519.59	1206.59
519.94	1202.43
520.30	1196.32
520.66	1193.65
521.01	1186.96
521.37	1179.63
521.73	1173.69
522.09	1172.21
522.44	1167.18
522.80	1164.91
523.16	1164.77
523.51	1165.47
523.87	1163.83
524.23	1161.91
524.58	1160.60
524.94	1155.12
525.30	1151.59
525.65	1151.80
526.01	1151.59
526.37	1147.66
526.72	1148.10
527.08	1151.05
527.44	1148.15
527.79	1144.10
528.15	1142.88
528.51	1139.00
528.86	1130.39
529.22	1127.65
529.58	1125.68
529.93	1122.83
530.29	1120.58
530.65	1124.46
531.00	1123.48
531.36	1123.11
531.71	1122.90
532.07	1124.70
532.43	1120.20
532.78	1121.14
533.14	1118.68
533.49	1117.04
533.85	1119.20
534.21	1119.48
534.56	1113.74
534.92	1112.81
535.27	1110.05
535.63	1102.77
535.98	1099.35
536.34	1100.71
536.69	1098.83
537.05	1097.55
537.41	1098.46
537.76	1098.02
538.12	1095.30
538.47	1096.12
538.83	1095.46
539.18	1094.04
539.54	1095.23
539.89	1097.76
540.25	1095.65
540.60	1096.61
540.96	1096.24
541.31	1093.87
541.67	1093.52
542.02	1092.23
542.38	1091.02
542.73	1092.47
543.09	1093.01
543.44	1091.39
543.80	1093.38
544.15	1094.88
544.51	1097.31
544.86	1099.02
545.22	1097.59
545.57	1097.59
545.93	1094.29
546.28	1087.41
546.64	1086.97
546.99	1088.93
547.35	1087.51
547.70	1088.98
548.05	1090.43
548.41	1091.51
548.76	1088.07
549.12	1086.64
549.47	1087.30
549.83	1086.45
550.18	1082.71
550.53	1085.47
550.89	1083.11
551.24	1080.04
551.60	1081.00
551.95	1084.51
552.30	1084.79
552.66	1088.16
553.01	1090.20
553.37	1092.09
553.72	1090.43
554.07	1087.76
554.43	1086.90
554.78	1083.64
555.13	1080.65
555.49	1080.02
555.84	1080.95
556.19	1081.54
556.55	1084.14
556.90	1087.06
557.26	1084.16
557.61	1085.96
557.96	1086.55
558.32	1084.42
558.67	1081.05
559.02	1081.80
559.37	1076.04
559.73	1077.93
560.08	1080.63
560.43	1080.70
560.79	1079.64
561.14	1081.63
561.49	1078.92
561.85	1077.11
562.20	1075.76
562.55	1078.10
562.90	1078.50
563.26	1078.82
563.61	1079.81
563.96	1082.08
564.32	1080.02
564.67	1079.57
565.02	1080.27
565.37	1078.17
565.73	1076.41
566.08	1077.58
566.43	1077.44
566.78	1076.11
567.14	1079.10
567.49	1078.82
567.84	1082.92
568.19	1083.11
568.54	1082.50
568.90	1079.78
569.25	1082.54
569.60	1078.61
569.95	1080.18
570.31	1081.28
570.66	1081.23
571.01	1079.78
571.36	1079.34
571.71	1075.78
572.06	1073.09
572.42	1071.45
572.77	1072.48
573.12	1071.82
573.47	1073.23
573.82	1075.87
574.18	1077.51
574.53	1077.21
574.88	1077.33
575.23	1078.54
575.58	1077.96
575.93	1079.46
576.28	1077.35
576.64	1074.87
576.99	1074.63
577.34	1075.41
577.69	1076.27
578.04	1075.05
578.39	1080.48
578.74	1081.42
579.09	1081.07
579.44	1079.29
579.80	1082.61
580.15	1080.39
580.50	1077.63
580.85	1077.28
581.20	1076.93
581.55	1073.00
581.90	1071.12
582.25	1071.90
582.60	1071.50
582.95	1069.88
583.30	1070.33
583.65	1070.68
584.00	1071.80
584.35	1073.81
584.71	1076.60
585.06	1077.93
585.41	1076.86
585.76	1076.18
586.11	1073.28
586.46	1073.65
586.81	1074.49
587.16	1076.20
587.51	1075.27
587.86	1073.09
588.21	1069.74
588.56	1071.66
588.91	1072.90
589.26	1075.24
589.61	1081.75
589.96	1082.85
590.31	1080.81
590.66	1083.90
591.01	1084.79
591.36	1081.40
591.71	1080.23
592.06	1081.26
592.41	1076.46
592.76	1073.46
593.10	1075.03
593.45	1076.88
593.80	1075.85
594.15	1077.35
594.50	1077.91
594.85	1077.14
595.20	1077.91
595.55	1078.17
595.90	1077.84
596.25	1077.63
596.60	1076.41
596.95	1076.11
597.30	1075.38
597.64	1083.71
597.99	1083.04
598.34	1084.00
598.69	1083.90
599.04	1082.76
599.39	1071.59
599.74	1072.36
600.09	1075.62
600.44	1075.10
600.78	1076.39
601.13	1079.31
601.48	1079.85
601.83	1075.41
602.18	1074.00
602.53	1073.28
602.88	1071.61
603.22	1068.71
603.57	1067.68
603.92	1068.17
604.27	1070.72
604.62	1073.98
604.97	1078.00
605.31	1082.80
605.66	1083.46
606.01	1083.01
606.36	1078.73
606.71	1076.30
607.05	1075.01
607.40	1077.98
607.75	1077.51
608.10	1079.99
608.44	1079.36
608.79	1076.27
609.14	1073.32
609.49	1075.29
609.84	1075.05
610.18	1075.73
610.53	1078.92
610.88	1075.59
611.23	1072.11
611.57	1072.06
611.92	1072.69
612.27	1071.54
612.62	1074.40
612.96	1076.08
613.31	1075.87
613.66	1074.68
614.00	1073.39
614.35	1073.32
614.70	1075.66
615.05	1073.23
615.39	1077.51
615.74	1079.01
616.09	1078.82
616.43	1075.62
616.78	1075.92
617.13	1075.76
617.47	1074.66
617.82	1076.34
618.17	1077.63
618.51	1080.48
618.86	1077.14
619.21	1079.38
619.55	1076.25
619.90	1075.50
620.25	1074.94
620.59	1076.11
620.94	1073.37
621.29	1074.75
621.63	1074.26
621.98	1072.74
622.32	1073.79
622.67	1073.14
623.02	1075.05
623.36	1076.90
623.71	1077.23
624.05	1076.08
624.40	1079.43
624.75	1077.49
625.09	1075.08
625.44	1076.86
625.78	1076.79
626.13	1076.74
626.48	1077.58
626.82	1078.66
627.17	1078.59
627.51	1080.13
627.86	1077.14
628.20	1073.65
628.55	1071.82
628.89	1074.24
629.24	1073.00
629.58	1076.69
629.93	1079.76
630.28	1077.96
630.62	1075.03
630.97	1073.88
631.31	1071.59
631.66	1071.24
632.00	1073.30
632.35	1073.25
632.69	1072.27
633.04	1073.02
633.38	1073.63
633.73	1072.20
634.07	1074.31
634.42	1076.62
634.76	1077.49
635.11	1077.77
635.45	1081.23
635.79	1078.66
636.14	1079.64
636.48	1077.25
636.83	1074.73
637.17	1073.30
637.52	1073.21
637.86	1072.69
638.21	1071.52
638.55	1074.87
638.89	1077.21
639.24	1077.40
639.58	1077.51
639.93	1080.13
640.27	1080.81
640.61	1077.82
640.96	1077.75
641.30	1072.76
641.65	1071.31
641.99	1069.74
642.33	1072.20
642.68	1072.48
643.02	1076.48
643.37	1077.33
643.71	1079.29
644.05	1075.97
644.40	1078.73
644.74	1079.57
645.08	1078.94
645.43	1075.76
645.77	1079.71
646.11	1076.55
646.46	1075.01
646.80	1073.86
647.14	1073.51
647.49	1070.12
647.83	1071.43
648.17	1068.83
648.52	1071.80
648.86	1070.30
649.20	1070.61
649.55	1071.12
649.89	1074.35
650.23	1073.00
650.57	1077.23
650.92	1078.89
651.26	1080.41
651.60	1079.78
651.95	1078.80
652.29	1077.65
652.63	1079.36
652.97	1075.52
653.32	1075.41
653.66	1076.55
654.00	1076.88
654.34	1075.29
654.69	1075.43
655.03	1075.27
655.37	1073.98
655.71	1073.32
656.05	1071.05
656.40	1072.08
656.74	1070.91
657.08	1069.72
657.42	1067.96
657.76	1070.54
658.11	1072.67
658.45	1078.05
658.79	1079.38
659.13	1081.75
659.47	1081.42
659.82	1079.81
660.16	1075.87
660.50	1076.44
660.84	1077.23
661.18	1074.66
661.52	1072.69
661.87	1072.48
662.21	1072.60
662.55	1071.08
662.89	1070.98
663.23	1073.00
663.57	1072.25
663.91	1071.71
664.25	1072.01
664.60	1073.60
664.94	1073.84
665.28	1074.61
665.62	1074.38
665.96	1072.81
666.30	1073.00
666.64	1071.99
666.98	1073.18
667.32	1072.20
667.66	1073.58
668.01	1074.73
668.35	1074.54
668.69	1075.17
669.03	1073.49
669.37	1075.38
669.71	1074.98
670.05	1075.03
670.39	1071.15
670.73	1072.57
671.07	1070.40
671.41	1068.92
671.75	1069.79
672.09	1073.35
672.43	1074.47
672.77	1074.45
673.11	1074.96
673.45	1074.14
673.79	1073.91
674.13	1075.69
674.47	1077.63
674.81	1077.98
675.15	1077.79
675.49	1075.92
675.83	1075.29
676.17	1074.35
676.51	1076.06
676.85	1075.80
677.19	1074.70
677.53	1073.39
677.87	1075.20
678.21	1077.93
678.55	1076.53
678.89	1080.37
679.23	1079.55
679.57	1075.94
679.90	1071.47
680.24	1072.92
680.58	1072.76
680.92	1075.71
681.26	1073.98
681.60	1073.84
681.94	1072.92
682.28	1070.26
682.62	1067.92
682.96	1070.23
683.29	1069.88
683.63	1070.42
683.97	1072.95
684.31	1075.34
684.65	1075.13
684.99	1075.34
685.33	1078.26
685.67	1076.58
686.00	1074.96
686.34	1076.95
686.68	1076.08
687.02	1074.77
687.36	1076.72
687.70	1075.03
688.03	1074.96
688.37	1074.61
688.71	1072.62
689.05	1068.92
689.39	1069.48
689.72	1068.83
690.06	1070.40
690.40	1070.40
690.74	1073.70
691.08	1078.19
691.41	1078.96
691.75	1080.02
692.09	1077.75
692.43	1075.20
692.76	1070.72
693.10	1067.99
693.44	1066.72
693.78	1067.94
694.11	1071.10
694.45	1072.46
694.79	1074.63
695.13	1073.49
695.46	1076.93
695.80	1072.88
696.14	1075.48
696.48	1075.27
696.81	1078.00
697.15	1076.86
697.49	1078.75
697.82	1077.56
698.16	1078.38
698.50	1076.83
698.83	1078.40
699.17	1077.96
699.51	1077.37
699.84	1076.79
700.18	1078.89
700.52	1077.00
700.85	1079.76
701.19	1079.03
701.53	1078.59
701.86	1077.56
702.20	1075.94
702.54	1071.68
702.87	1072.32
703.21	1071.90
703.55	1069.86
703.88	1072.55
704.22	1076.46
704.55	1075.20
704.89	1077.11
705.23	1078.71
705.56	1077.93
705.90	1074.68
706.23	1073.86
706.57	1071.26
706.91	1072.29
707.24	1069.41
707.58	1073.37
707.91	1072.27
708.25	1071.59
708.58	1070.82
708.92	1073.60
709.26	1070.54
709.59	1072.11
709.93	1073.86
710.26	1070.44
710.60	1069.74
710.93	1072.08
711.27	1072.04
711.60	1071.15
711.94	1073.25
712.27	1070.77
712.61	1066.72
712.94	1066.63
713.28	1066.65
713.61	1065.86
713.95	1068.22
714.28	1070.33
714.62	1073.63
714.95	1074.91
715.29	1075.55
715.62	1074.70
715.96	1078.66
716.29	1074.24
716.63	1075.01
716.96	1076.67
717.29	1075.17
717.63	1068.83
717.96	1072.06
718.30	1070.33
718.63	1069.04
718.97	1073.81
719.30	1078.00
719.63	1075.62
719.97	1074.35
720.30	1074.91
720.64	1073.16
720.97	1070.14
721.30	1072.90
721.64	1077.07
721.97	1078.89
722.31	1080.30
722.64	1083.79
722.97	1080.51
723.31	1080.06
723.64	1077.98
723.97	1077.98
724.31	1076.39
724.64	1078.00
724.98	1074.10
725.31	1072.41
725.64	1068.78
725.98	1070.07
726.31	1073.79
726.64	1076.34
726.97	1076.37
727.31	1079.17
727.64	1078.89
727.97	1076.48
728.31	1075.90
728.64	1077.89
728.97	1077.00
729.31	1078.00
729.64	1078.14
729.97	1075.92
730.30	1072.01
730.64	1075.57
730.97	1072.85
731.30	1070.12
731.63	1069.84
731.97	1074.82
732.30	1072.78
732.63	1071.61
732.96	1074.61
733.30	1076.67
733.63	1071.90
733.96	1070.16
734.29	1074.42
734.63	1070.35
734.96	1071.29
735.29	1074.77
735.62	1075.76
735.95	1073.81
736.29	1076.69
736.62	1077.68
736.95	1076.69
737.28	1077.89
737.61	1077.28
737.94	1079.90
738.28	1079.01
738.61	1079.95
738.94	1079.48
739.27	1079.34
739.60	1074.84
739.93	1072.34
740.27	1071.33
740.60	1068.83
740.93	1069.65
741.26	1073.84
741.59	1075.57
741.92	1077.23
742.25	1076.41
742.58	1072.32
742.91	1068.41
743.25	1066.93
743.58	1064.64
743.91	1068.41
744.24	1072.90
744.57	1073.25
744.90	1075.83
745.23	1078.12
745.56	1076.97
745.89	1072.15
746.22	1070.98
746.55	1070.87
746.88	1068.92
747.21	1068.92
747.54	1073.04
747.87	1079.50
748.20	1077.09
748.53	1077.47
748.87	1077.96
749.20	1077.65
749.53	1070.80
749.86	1072.55
750.19	1073.60
750.52	1074.52
750.85	1076.06
751.18	1077.33
751.51	1075.92
751.84	1077.00
752.16	1075.38
752.49	1073.07
752.82	1074.47
753.15	1076.06
753.48	1075.03
753.81	1074.28
754.14	1072.88
754.47	1073.28
754.80	1072.53
755.13	1073.37
755.46	1074.12
755.79	1075.45
756.12	1075.08
756.45	1074.52
756.78	1074.59
757.11	1075.73
757.43	1074.68
757.76	1075.01
758.09	1077.07
758.42	1075.43
758.75	1075.31
759.08	1078.10
759.41	1077.14
759.74	1074.49
760.07	1073.39
760.39	1071.15
760.72	1069.34
761.05	1070.72
761.38	1071.03
761.71	1069.60
762.04	1070.14
762.36	1069.30
762.69	1067.68
763.02	1068.03
763.35	1069.84
763.68	1067.87
764.01	1066.47
764.33	1068.15
764.66	1070.56
764.99	1070.33
765.32	1073.72
765.65	1079.78
765.97	1077.79
766.30	1074.00
