SpectraSuite Data File
++++++++++++++++++++++++++++++++++++
Date: Mon Aug 26 10:22:06 PDT 2019
User: corrico
Dark Spectrum Present: No
Reference Spectrum Present: No
Number of Sampled Component Spectra: 1
Spectrometers: USB2+H06089
Integration Time (usec): 2000 (USB2+H06089)
Spectra Averaged: 20 (USB2+H06089)
Boxcar Smoothing: 2 (USB2+H06089)
Correct for Electrical Dark: No (USB2+H06089)
Strobe/Lamp Enabled: No (USB2+H06089)
Correct for Detector Non-linearity: No (USB2+H06089)
Correct for Stray Light: No (USB2+H06089)
Number of Pixels in Processed Spectrum: 2048
>>>>>Begin Processed Spectral Data<<<<<
339.70	1043.18
340.07	1043.18
340.45	1004.39
340.82	980.22
341.19	955.06
341.57	925.54
341.94	913.11
342.31	905.37
342.69	899.82
343.06	894.62
343.43	898.60
343.81	898.48
344.18	903.87
344.55	906.09
344.93	913.11
345.30	915.99
345.67	925.68
346.04	932.31
346.42	943.98
346.79	950.51
347.16	956.34
347.54	965.33
347.91	973.17
348.28	981.50
348.65	993.91
349.03	1008.12
349.40	1014.81
349.77	1020.22
350.14	1028.24
350.52	1031.73
350.89	1036.23
351.26	1043.22
351.63	1050.57
352.01	1052.54
352.38	1059.33
352.75	1063.63
353.12	1067.68
353.50	1070.61
353.87	1077.89
354.24	1079.48
354.61	1082.19
354.98	1080.91
355.36	1085.26
355.73	1085.52
356.10	1085.38
356.47	1085.80
356.84	1088.30
357.22	1088.42
357.59	1087.13
357.96	1089.36
358.33	1089.36
358.70	1089.10
359.08	1086.15
359.45	1088.63
359.82	1086.48
360.19	1084.58
360.56	1082.40
360.94	1083.90
361.31	1080.46
361.68	1082.97
362.05	1084.86
362.42	1085.28
362.79	1084.58
363.16	1083.34
363.54	1081.70
363.91	1079.10
364.28	1079.20
364.65	1076.90
365.02	1079.38
365.39	1078.17
365.76	1075.55
366.14	1076.32
366.51	1075.94
366.88	1072.57
367.25	1074.42
367.62	1074.10
367.99	1071.66
368.36	1072.06
368.73	1074.10
369.10	1071.45
369.48	1073.11
369.85	1075.13
370.22	1078.61
370.59	1077.21
370.96	1077.18
371.33	1075.05
371.70	1078.12
372.07	1075.62
372.44	1075.92
372.81	1078.14
373.18	1080.74
373.55	1078.07
373.93	1079.55
374.30	1078.17
374.67	1074.98
375.04	1075.08
375.41	1076.93
375.78	1078.17
376.15	1080.32
376.52	1079.71
376.89	1083.25
377.26	1081.19
377.63	1079.95
378.00	1082.43
378.37	1084.96
378.74	1082.47
379.11	1081.58
379.48	1079.50
379.85	1080.70
380.22	1082.03
380.59	1081.47
380.96	1082.80
381.33	1084.21
381.70	1081.87
382.07	1081.73
382.44	1083.76
382.81	1083.93
383.18	1084.91
383.55	1087.32
383.92	1086.94
384.29	1087.74
384.66	1089.14
385.03	1087.27
385.40	1086.01
385.77	1085.68
386.14	1084.86
386.51	1084.46
386.88	1085.91
387.25	1083.22
387.62	1083.41
387.99	1082.03
388.36	1081.35
388.73	1080.86
389.10	1081.05
389.46	1081.63
389.83	1081.58
390.20	1080.98
390.57	1082.03
390.94	1084.14
391.31	1087.20
391.68	1087.16
392.05	1089.19
392.42	1088.07
392.79	1088.02
393.16	1088.02
393.53	1088.77
393.89	1089.47
394.26	1094.32
394.63	1095.98
395.00	1094.32
395.37	1095.16
395.74	1093.43
396.11	1088.35
396.48	1086.15
396.84	1086.36
397.21	1087.32
397.58	1086.73
397.95	1089.43
398.32	1089.00
398.69	1088.63
399.06	1089.54
399.42	1091.32
399.79	1089.50
400.16	1090.01
400.53	1089.03
400.90	1088.56
401.27	1086.59
401.64	1092.07
402.00	1093.50
402.37	1093.66
402.74	1092.00
403.11	1095.75
403.48	1093.50
403.84	1092.73
404.21	1091.02
404.58	1092.49
404.95	1091.81
405.32	1093.94
405.68	1094.13
406.05	1097.55
406.42	1098.27
406.79	1099.42
407.16	1096.38
407.52	1099.56
407.89	1099.07
408.26	1099.98
408.63	1096.59
408.99	1096.52
409.36	1093.99
409.73	1094.83
410.10	1093.33
410.47	1097.20
410.83	1096.31
411.20	1098.20
411.57	1097.88
411.94	1098.79
412.30	1097.73
412.67	1098.16
413.04	1095.53
413.40	1095.89
413.77	1097.34
414.14	1100.24
414.51	1103.38
414.87	1107.52
415.24	1106.30
415.61	1107.61
415.97	1108.95
416.34	1111.15
416.71	1111.05
417.08	1119.48
417.44	1119.81
417.81	1121.02
418.18	1119.99
418.54	1119.27
418.91	1119.99
419.28	1119.95
419.64	1118.99
420.01	1120.20
420.38	1124.16
420.74	1122.50
421.11	1126.48
421.48	1129.82
421.84	1132.75
422.21	1135.53
422.58	1137.06
422.94	1137.08
423.31	1138.48
423.68	1140.24
424.04	1141.88
424.41	1147.75
424.77	1149.53
425.14	1151.40
425.51	1156.20
425.87	1161.70
426.24	1166.83
426.61	1174.43
426.97	1184.50
427.34	1190.28
427.70	1194.91
428.07	1202.01
428.44	1213.64
428.80	1220.68
429.17	1231.89
429.53	1246.69
429.90	1260.85
430.27	1271.43
430.63	1284.25
431.00	1296.47
431.36	1310.19
431.73	1317.49
432.09	1332.65
432.46	1351.43
432.83	1371.11
433.19	1391.52
433.56	1420.26
433.92	1446.71
434.29	1475.10
434.65	1507.73
435.02	1533.36
435.38	1565.58
435.75	1597.11
436.11	1633.04
436.48	1667.16
436.84	1715.07
437.21	1760.06
437.57	1806.47
437.94	1854.31
438.30	1908.45
438.67	1963.52
439.03	2024.24
439.40	2099.48
439.76	2167.99
440.13	2249.28
440.49	2331.83
440.86	2413.61
441.22	2495.85
441.59	2590.50
441.95	2695.24
442.32	2802.49
442.68	2916.80
443.05	3038.44
443.41	3168.31
443.78	3288.55
444.14	3425.14
444.51	3570.23
444.87	3738.07
445.24	3900.99
445.60	4082.74
445.96	4265.84
446.33	4471.80
446.69	4667.66
447.06	4895.14
447.42	5125.02
447.79	5365.82
448.15	5636.01
448.51	5924.25
448.88	6248.60
449.24	6555.86
449.61	6913.71
449.97	7275.06
450.33	7657.93
450.70	8007.16
451.06	8444.75
451.43	8846.99
451.79	9305.38
452.15	9789.90
452.52	10339.69
452.88	10884.31
453.24	11520.82
453.61	12215.16
453.97	12918.19
454.34	13610.68
454.70	14419.06
455.06	15218.14
455.43	15988.85
455.79	16687.90
456.15	17514.74
456.52	18281.71
456.88	19204.26
457.24	20125.94
457.61	21247.94
457.97	22305.52
458.33	23396.18
458.70	24445.68
459.06	25424.98
459.42	26467.69
459.79	27397.68
460.15	28474.82
460.51	29491.76
460.88	30607.28
461.24	31565.19
461.60	32730.03
461.96	33782.66
462.33	34829.86
462.69	35877.91
463.05	37037.71
463.42	38057.63
463.78	39010.48
464.14	39760.22
464.50	40503.72
464.87	41006.79
465.23	41333.88
465.59	41698.38
465.95	42022.84
466.32	42255.31
466.68	42531.77
467.04	42736.17
467.40	42811.75
467.77	42932.61
468.13	42854.04
468.49	42673.84
468.85	42566.25
469.22	42418.14
469.58	42163.84
469.94	42037.52
470.30	41834.43
470.66	41457.75
471.03	40944.21
471.39	40568.27
471.75	39841.11
472.11	39114.03
472.47	38599.13
472.84	38070.90
473.20	37351.74
473.56	36964.38
473.92	36406.66
474.28	35783.33
474.65	35128.19
475.01	34434.87
475.37	33585.38
475.73	32895.78
476.09	32194.40
476.45	31554.77
476.81	31024.55
477.18	30460.15
477.54	29981.09
477.90	29512.56
478.26	28915.19
478.62	28370.08
478.98	27962.78
479.34	27508.13
479.71	26958.64
480.07	26562.88
480.43	26149.96
480.79	25659.74
481.15	25197.39
481.51	24813.63
481.87	24465.74
482.23	24072.69
482.59	23753.44
482.96	23416.26
483.32	23103.92
483.68	22700.60
484.04	22367.21
484.40	21940.51
484.76	21518.42
485.12	21053.59
485.48	20624.87
485.84	20124.49
486.20	19696.52
486.56	19257.09
486.92	18877.85
487.28	18466.66
487.64	18064.14
488.00	17648.88
488.37	17246.05
488.73	16790.65
489.09	16325.66
489.45	15868.50
489.81	15409.74
490.17	14974.61
490.53	14569.16
490.89	14165.74
491.25	13765.60
491.61	13381.90
491.97	12983.26
492.33	12585.48
492.69	12226.23
493.05	11897.65
493.41	11573.69
493.77	11255.05
494.13	10942.68
494.49	10641.39
494.85	10350.62
495.21	10071.63
495.57	9799.07
495.93	9536.09
496.29	9287.48
496.64	9050.92
497.00	8785.95
497.36	8536.85
497.72	8293.55
498.08	8067.69
498.44	7832.93
498.80	7630.36
499.16	7430.59
499.52	7234.71
499.88	7054.23
500.24	6881.20
500.60	6715.07
500.96	6559.70
501.32	6408.06
501.68	6234.09
502.03	6061.07
502.39	5893.89
502.75	5719.66
503.11	5560.22
503.47	5412.25
503.83	5278.38
504.19	5150.96
504.55	5035.59
504.91	4923.18
505.26	4808.30
505.62	4690.97
505.98	4576.31
506.34	4448.05
506.70	4325.43
507.06	4212.38
507.42	4104.71
507.78	4004.14
508.13	3920.56
508.49	3842.67
508.85	3769.22
509.21	3686.18
509.57	3607.40
509.93	3518.34
510.28	3426.66
510.64	3336.04
511.00	3258.21
511.36	3178.80
511.72	3107.72
512.07	3043.33
512.43	2985.99
512.79	2926.79
513.15	2869.89
513.51	2816.04
513.86	2757.13
514.22	2702.31
514.58	2651.31
514.94	2602.58
515.30	2557.90
515.65	2518.04
516.01	2479.89
516.37	2437.74
516.73	2393.22
517.08	2350.90
517.44	2304.05
517.80	2261.52
518.16	2228.38
518.51	2196.64
518.87	2162.19
519.23	2132.81
519.59	2102.20
519.94	2071.12
520.30	2039.99
520.66	2008.86
521.01	1982.06
521.37	1952.38
521.73	1926.66
522.09	1900.42
522.44	1883.34
522.80	1860.80
523.16	1837.39
523.51	1813.26
523.87	1789.48
524.23	1761.65
524.58	1739.98
524.94	1719.80
525.30	1696.63
525.65	1683.90
526.01	1669.57
526.37	1652.63
526.72	1636.83
527.08	1619.84
527.44	1600.13
527.79	1581.50
528.15	1567.55
528.51	1552.27
528.86	1539.30
529.22	1528.00
529.58	1517.07
529.93	1501.38
530.29	1488.88
530.65	1474.47
531.00	1460.14
531.36	1446.36
531.71	1435.64
532.07	1418.13
532.43	1408.98
532.78	1393.95
533.14	1383.49
533.49	1373.71
533.85	1370.38
534.21	1361.72
534.56	1358.07
534.92	1347.66
535.27	1339.44
535.63	1330.90
535.98	1322.40
536.34	1313.39
536.69	1308.29
537.05	1303.42
537.41	1299.72
537.76	1294.01
538.12	1288.58
538.47	1282.87
538.83	1275.38
539.18	1266.37
539.54	1262.25
539.89	1256.59
540.25	1251.23
540.60	1247.83
540.96	1243.39
541.31	1239.43
541.67	1235.78
542.02	1232.60
542.38	1229.88
542.73	1231.07
543.09	1227.66
543.44	1225.22
543.80	1222.51
544.15	1216.73
544.51	1212.26
544.86	1208.04
545.22	1205.00
545.57	1202.73
545.93	1202.33
546.28	1198.87
546.64	1195.73
546.99	1188.08
547.35	1184.10
547.70	1181.17
548.05	1178.53
548.41	1179.35
548.76	1180.80
549.12	1180.61
549.47	1176.38
549.83	1175.23
550.18	1168.89
550.53	1167.62
550.89	1164.00
551.24	1161.09
551.60	1157.16
551.95	1154.59
552.30	1148.81
552.66	1146.70
553.01	1149.30
553.37	1146.91
553.72	1147.12
554.07	1148.55
554.43	1146.93
554.78	1140.47
555.13	1140.24
555.49	1138.53
555.84	1138.46
556.19	1134.60
556.55	1137.71
556.90	1134.48
557.26	1134.60
557.61	1132.80
557.96	1133.62
558.32	1128.93
558.67	1130.60
559.02	1127.32
559.37	1123.08
559.73	1119.17
560.08	1118.75
560.43	1115.45
560.79	1118.19
561.14	1121.02
561.49	1123.04
561.85	1121.07
562.20	1119.64
562.55	1115.17
562.90	1113.23
563.26	1112.01
563.61	1113.04
563.96	1114.87
564.32	1117.11
564.67	1116.65
565.02	1118.07
565.37	1116.44
565.73	1113.37
566.08	1110.40
566.43	1107.99
566.78	1104.66
567.14	1106.30
567.49	1106.00
567.84	1106.56
568.19	1105.55
568.54	1106.21
568.90	1103.42
569.25	1104.55
569.60	1103.28
569.95	1102.18
570.31	1100.89
570.66	1101.15
571.01	1101.83
571.36	1102.93
571.71	1104.41
572.06	1103.77
572.42	1104.22
572.77	1104.26
573.12	1101.88
573.47	1100.40
573.82	1100.92
574.18	1097.73
574.53	1091.18
574.88	1093.31
575.23	1093.29
575.58	1090.55
575.93	1091.46
576.28	1096.82
576.64	1094.76
576.99	1095.30
577.34	1100.71
577.69	1099.40
578.04	1095.51
578.39	1093.92
578.74	1093.38
579.09	1088.89
579.44	1089.50
579.80	1090.53
580.15	1092.82
580.50	1094.93
580.85	1097.55
581.20	1100.24
581.55	1099.44
581.90	1099.77
582.25	1099.58
582.60	1099.63
582.95	1094.57
583.30	1096.96
583.65	1096.49
584.00	1095.67
584.35	1095.32
584.71	1098.16
585.06	1095.51
585.41	1096.17
585.76	1095.98
586.11	1092.68
586.46	1093.45
586.81	1093.10
587.16	1091.34
587.51	1092.94
587.86	1095.63
588.21	1092.16
588.56	1093.08
588.91	1094.13
589.26	1092.19
589.61	1087.74
589.96	1088.37
590.31	1086.31
590.66	1086.52
591.01	1083.25
591.36	1086.78
591.71	1085.45
592.06	1086.38
592.41	1084.96
592.76	1082.76
593.10	1083.06
593.45	1084.98
593.80	1085.87
594.15	1082.92
594.50	1084.25
594.85	1082.66
595.20	1080.56
595.55	1080.51
595.90	1081.23
596.25	1082.38
596.60	1081.47
596.95	1087.02
597.30	1086.20
597.64	1101.41
597.99	1102.06
598.34	1103.96
598.69	1100.19
599.04	1100.40
599.39	1088.19
599.74	1092.14
600.09	1093.05
600.44	1094.01
600.78	1094.57
601.13	1090.71
601.48	1087.23
601.83	1087.53
602.18	1086.13
602.53	1085.70
602.88	1088.23
603.22	1088.37
603.57	1085.59
603.92	1088.16
604.27	1085.54
604.62	1084.65
604.97	1087.53
605.31	1086.94
605.66	1081.44
606.01	1083.22
606.36	1084.70
606.71	1082.10
607.05	1082.85
607.40	1090.41
607.75	1093.36
608.10	1093.40
608.44	1093.76
608.79	1093.50
609.14	1089.31
609.49	1086.38
609.84	1086.29
610.18	1083.93
610.53	1082.43
610.88	1082.57
611.23	1083.71
611.57	1083.34
611.92	1082.61
612.27	1085.77
612.62	1084.44
612.96	1083.69
613.31	1084.77
613.66	1084.72
614.00	1085.59
614.35	1086.97
614.70	1087.39
615.05	1086.64
615.39	1093.33
615.74	1089.99
616.09	1089.75
616.43	1090.97
616.78	1091.13
617.13	1089.64
617.47	1093.29
617.82	1094.55
618.17	1093.29
618.51	1090.48
618.86	1086.34
619.21	1082.54
619.55	1081.02
619.90	1078.68
620.25	1082.03
620.59	1083.39
620.94	1084.72
621.29	1085.45
621.63	1087.11
621.98	1083.90
622.32	1082.59
622.67	1082.94
623.02	1081.51
623.36	1082.05
623.71	1082.78
624.05	1082.24
624.40	1080.39
624.75	1081.07
625.09	1077.70
625.44	1075.76
625.78	1076.53
626.13	1077.68
626.48	1077.70
626.82	1079.24
627.17	1082.85
627.51	1084.74
627.86	1085.33
628.20	1085.21
628.55	1086.87
628.89	1080.86
629.24	1077.30
629.58	1074.77
629.93	1074.14
630.28	1075.36
630.62	1080.74
630.97	1081.70
631.31	1083.32
631.66	1084.30
632.00	1084.84
632.35	1084.25
632.69	1084.39
633.04	1082.78
633.38	1086.06
633.73	1082.15
634.07	1081.47
634.42	1082.33
634.76	1082.08
635.11	1076.51
635.45	1078.24
635.79	1079.27
636.14	1079.01
636.48	1081.40
636.83	1084.53
637.17	1085.19
637.52	1089.80
637.86	1091.32
638.21	1089.14
638.55	1088.33
638.89	1088.84
639.24	1082.69
639.58	1078.68
639.93	1079.41
640.27	1078.24
640.61	1076.55
640.96	1077.42
641.30	1080.41
641.65	1083.08
641.99	1081.73
642.33	1084.14
642.68	1085.40
643.02	1088.04
643.37	1085.17
643.71	1088.40
644.05	1086.59
644.40	1086.85
644.74	1084.93
645.08	1085.05
645.43	1082.45
645.77	1081.82
646.11	1080.65
646.46	1081.02
646.80	1082.66
647.14	1085.26
647.49	1082.99
647.83	1082.69
648.17	1082.38
648.52	1082.40
648.86	1083.18
649.20	1084.89
649.55	1084.09
649.89	1085.10
650.23	1084.00
650.57	1079.90
650.92	1081.07
651.26	1082.01
651.60	1080.23
651.95	1079.62
652.29	1083.36
652.63	1081.54
652.97	1081.00
653.32	1079.15
653.66	1081.66
654.00	1077.70
654.34	1082.69
654.69	1084.04
655.03	1089.07
655.37	1090.15
655.71	1093.43
656.05	1090.06
656.40	1089.57
656.74	1086.92
657.08	1081.68
657.42	1079.17
657.76	1079.55
658.11	1078.80
658.45	1079.60
658.79	1079.95
659.13	1079.55
659.47	1077.11
659.82	1079.22
660.16	1081.02
660.50	1088.09
660.84	1088.33
661.18	1089.75
661.52	1087.74
661.87	1083.64
662.21	1081.14
662.55	1081.77
662.89	1081.80
663.23	1080.25
663.57	1081.21
663.91	1077.00
664.25	1079.48
664.60	1081.68
664.94	1082.83
665.28	1084.30
665.62	1087.93
665.96	1086.43
666.30	1083.97
666.64	1082.76
666.98	1080.72
667.32	1079.69
667.66	1080.72
668.01	1081.94
668.35	1083.86
668.69	1086.27
669.03	1085.61
669.37	1085.35
669.71	1082.87
670.05	1082.90
670.39	1081.28
670.73	1081.02
671.07	1081.56
671.41	1080.20
671.75	1079.95
672.09	1081.23
672.43	1079.27
672.77	1076.83
673.11	1079.10
673.45	1078.43
673.79	1078.03
674.13	1081.37
674.47	1082.01
674.81	1081.94
675.15	1081.00
675.49	1079.88
675.83	1080.46
676.17	1080.23
676.51	1082.24
676.85	1084.18
677.19	1081.84
677.53	1081.42
677.87	1083.53
678.21	1077.77
678.55	1075.22
678.89	1076.53
679.23	1075.73
679.57	1071.82
679.90	1077.82
680.24	1081.02
680.58	1082.92
680.92	1080.53
681.26	1081.82
681.60	1078.21
681.94	1075.48
682.28	1073.88
682.62	1073.35
682.96	1074.66
683.29	1075.20
683.63	1076.15
683.97	1075.43
684.31	1078.54
684.65	1078.71
684.99	1083.90
685.33	1083.76
685.67	1085.12
686.00	1085.28
686.34	1084.30
686.68	1079.34
687.02	1080.11
687.36	1081.02
687.70	1077.68
688.03	1076.95
688.37	1077.04
688.71	1076.83
689.05	1075.83
689.39	1076.97
689.72	1076.44
690.06	1078.99
690.40	1077.89
690.74	1077.28
691.08	1077.65
691.41	1080.46
691.75	1078.38
692.09	1077.91
692.43	1082.05
692.76	1083.13
693.10	1081.02
693.44	1083.50
693.78	1086.27
694.11	1083.90
694.45	1084.28
694.79	1083.01
695.13	1082.03
695.46	1080.23
695.80	1078.64
696.14	1072.92
696.48	1074.33
696.81	1075.92
697.15	1073.56
697.49	1073.14
697.82	1080.79
698.16	1078.05
698.50	1074.45
698.83	1075.64
699.17	1074.24
699.51	1072.18
699.84	1078.66
700.18	1079.20
700.52	1081.49
700.85	1087.34
701.19	1090.08
701.53	1086.17
701.86	1085.82
702.20	1084.96
702.54	1080.06
702.87	1076.72
703.21	1075.90
703.55	1078.45
703.88	1077.56
704.22	1081.00
704.55	1080.98
704.89	1083.36
705.23	1083.69
705.56	1084.32
705.90	1082.36
706.23	1081.73
706.57	1080.88
706.91	1078.45
707.24	1077.28
707.58	1075.94
707.91	1076.04
708.25	1075.76
708.58	1076.93
708.92	1080.41
709.26	1083.71
709.59	1085.19
709.93	1086.17
710.26	1084.96
710.60	1083.71
710.93	1079.97
711.27	1078.64
711.60	1078.52
711.94	1077.72
712.27	1076.08
712.61	1075.97
712.94	1077.51
713.28	1078.05
713.61	1078.68
713.95	1077.79
714.28	1078.17
714.62	1077.42
714.95	1076.88
715.29	1078.50
715.62	1080.63
715.96	1081.77
716.29	1080.67
716.63	1077.82
716.96	1075.27
717.29	1073.25
717.63	1075.50
717.96	1076.20
718.30	1079.92
718.63	1081.07
718.97	1082.31
719.30	1077.70
719.63	1076.65
719.97	1074.47
720.30	1073.98
720.64	1075.90
720.97	1076.23
721.30	1078.82
721.64	1077.98
721.97	1081.75
722.31	1081.47
722.64	1085.89
722.97	1083.97
723.31	1085.07
723.64	1081.91
723.97	1080.04
724.31	1079.85
724.64	1080.37
724.98	1081.98
725.31	1083.60
725.64	1083.20
725.98	1082.45
726.31	1081.80
726.64	1082.36
726.97	1078.78
727.31	1082.01
727.64	1081.23
727.97	1079.43
728.31	1078.19
728.64	1082.92
728.97	1081.40
729.31	1081.42
729.64	1085.00
729.97	1084.74
730.30	1082.52
730.64	1082.90
730.97	1081.51
731.30	1081.61
731.63	1083.15
731.97	1082.26
732.30	1078.05
732.63	1079.24
732.96	1076.65
733.30	1075.45
733.63	1075.90
733.96	1080.06
734.29	1082.78
734.63	1082.31
734.96	1081.61
735.29	1081.94
735.62	1081.49
735.95	1081.16
736.29	1082.22
736.62	1080.84
736.95	1080.58
737.28	1082.33
737.61	1081.70
737.94	1079.99
738.28	1081.87
738.61	1083.08
738.94	1081.94
739.27	1081.75
739.60	1083.74
739.93	1082.19
740.27	1079.27
740.60	1076.90
740.93	1075.57
741.26	1076.72
741.59	1080.25
741.92	1082.10
742.25	1083.86
742.58	1083.86
742.91	1081.61
743.25	1078.94
743.58	1078.71
743.91	1079.55
744.24	1079.34
744.57	1078.28
744.90	1077.61
745.23	1079.50
745.56	1079.90
745.89	1081.33
746.22	1087.04
746.55	1085.59
746.88	1083.74
747.21	1081.40
747.54	1079.41
747.87	1075.71
748.20	1077.30
748.53	1078.28
748.87	1077.33
749.20	1074.12
749.53	1077.30
749.86	1078.89
750.19	1076.95
750.52	1078.71
750.85	1080.27
751.18	1078.59
751.51	1077.33
751.84	1077.82
752.16	1078.50
752.49	1081.44
752.82	1080.16
753.15	1079.76
753.48	1079.24
753.81	1079.88
754.14	1077.00
754.47	1077.37
754.80	1077.07
755.13	1077.65
755.46	1075.66
755.79	1075.20
756.12	1075.52
756.45	1074.73
756.78	1077.25
757.11	1079.69
757.43	1081.73
757.76	1079.55
758.09	1081.89
758.42	1082.80
758.75	1079.83
759.08	1079.08
759.41	1081.98
759.74	1080.18
760.07	1079.03
760.39	1082.24
760.72	1084.32
761.05	1081.42
761.38	1080.67
761.71	1079.24
762.04	1076.15
762.36	1073.91
762.69	1076.37
763.02	1077.84
763.35	1080.06
763.68	1081.33
