SpectraSuite Data File
++++++++++++++++++++++++++++++++++++
Date: Mon Aug 26 10:22:12 PDT 2019
User: corrico
Dark Spectrum Present: No
Reference Spectrum Present: No
Number of Sampled Component Spectra: 1
Spectrometers: USB2+H06089
Integration Time (usec): 2000 (USB2+H06089)
Spectra Averaged: 20 (USB2+H06089)
Boxcar Smoothing: 2 (USB2+H06089)
Correct for Electrical Dark: No (USB2+H06089)
Strobe/Lamp Enabled: No (USB2+H06089)
Correct for Detector Non-linearity: No (USB2+H06089)
Correct for Stray Light: No (USB2+H06089)
Number of Pixels in Processed Spectrum: 2048
>>>>>Begin Processed Spectral Data<<<<<
339.70	1023.87
340.07	1023.87
340.45	994.24
340.82	972.00
341.19	948.29
341.57	926.31
341.94	912.90
342.31	901.48
342.69	899.23
343.06	900.10
343.43	899.49
343.81	900.59
344.18	905.65
344.55	907.96
344.93	910.87
345.30	912.34
345.67	921.05
346.04	928.42
346.42	934.69
346.79	941.85
347.16	953.21
347.54	958.64
347.91	968.65
348.28	978.62
348.65	991.90
349.03	1002.40
349.40	1015.23
349.77	1022.37
350.14	1031.50
350.52	1036.04
350.89	1039.64
351.26	1042.54
351.63	1051.09
352.01	1055.86
352.38	1057.45
352.75	1060.80
353.12	1068.55
353.50	1073.37
353.87	1077.25
354.24	1082.10
354.61	1087.27
354.98	1085.24
355.36	1084.18
355.73	1083.18
356.10	1085.03
356.47	1083.55
356.84	1085.03
357.22	1079.95
357.59	1079.99
357.96	1078.87
358.33	1080.16
358.70	1078.85
359.08	1081.89
359.45	1082.85
359.82	1081.98
360.19	1083.27
360.56	1087.04
360.94	1088.12
361.31	1087.11
361.68	1086.97
362.05	1084.63
362.42	1082.19
362.79	1079.90
363.16	1077.56
363.54	1074.96
363.91	1074.03
364.28	1073.70
364.65	1075.22
365.02	1076.86
365.39	1078.00
365.76	1075.66
366.14	1072.29
366.51	1071.68
366.88	1070.05
367.25	1068.59
367.62	1071.66
367.99	1071.24
368.36	1071.12
368.73	1071.75
369.10	1074.28
369.48	1073.60
369.85	1075.41
370.22	1075.17
370.59	1074.66
370.96	1074.75
371.33	1076.15
371.70	1078.03
372.07	1077.75
372.44	1078.47
372.81	1080.09
373.18	1078.14
373.55	1078.73
373.93	1079.46
374.30	1081.75
374.67	1080.30
375.04	1078.45
375.41	1074.96
375.78	1074.26
376.15	1072.60
376.52	1074.75
376.89	1075.22
377.26	1072.95
377.63	1074.94
378.00	1076.95
378.37	1076.30
378.74	1080.20
379.11	1084.18
379.48	1081.54
379.85	1078.05
380.22	1079.06
380.59	1078.73
380.96	1079.01
381.33	1081.21
381.70	1082.76
382.07	1080.44
382.44	1082.08
382.81	1083.06
383.18	1082.54
383.55	1088.02
383.92	1089.40
384.29	1088.75
384.66	1090.55
385.03	1092.54
385.40	1089.24
385.77	1087.79
386.14	1088.07
386.51	1083.48
386.88	1082.17
387.25	1082.38
387.62	1082.94
387.99	1082.47
388.36	1084.89
388.73	1083.86
389.10	1084.32
389.46	1084.02
389.83	1080.95
390.20	1082.15
390.57	1083.11
390.94	1081.77
391.31	1081.16
391.68	1081.58
392.05	1077.49
392.42	1076.25
392.79	1077.61
393.16	1079.36
393.53	1081.96
393.89	1087.51
394.26	1089.00
394.63	1087.67
395.00	1088.19
395.37	1086.03
395.74	1085.84
396.11	1086.57
396.48	1087.62
396.84	1085.10
397.21	1085.68
397.58	1085.66
397.95	1084.79
398.32	1085.99
398.69	1088.07
399.06	1089.07
399.42	1088.51
399.79	1089.64
400.16	1088.21
400.53	1087.76
400.90	1085.66
401.27	1084.81
401.64	1087.44
402.00	1087.62
402.37	1087.55
402.74	1089.19
403.11	1089.47
403.48	1086.29
403.84	1087.34
404.21	1088.47
404.58	1089.94
404.95	1091.32
405.32	1095.04
405.68	1093.38
406.05	1097.38
406.42	1097.85
406.79	1096.12
407.16	1095.30
407.52	1097.41
407.89	1095.86
408.26	1093.85
408.63	1096.38
408.99	1097.01
409.36	1098.02
409.73	1096.45
410.10	1095.86
410.47	1093.94
410.83	1094.81
411.20	1093.92
411.57	1095.63
411.94	1098.18
412.30	1099.96
412.67	1098.90
413.04	1101.36
413.40	1098.76
413.77	1102.13
414.14	1104.01
414.51	1104.15
414.87	1102.65
415.24	1104.80
415.61	1103.84
415.97	1104.10
416.34	1102.23
416.71	1101.71
417.08	1105.60
417.44	1107.03
417.81	1108.01
418.18	1112.55
418.54	1118.47
418.91	1117.42
419.28	1119.27
419.64	1118.75
420.01	1119.60
420.38	1118.24
420.74	1121.47
421.11	1123.46
421.48	1126.73
421.84	1129.89
422.21	1132.68
422.58	1134.27
422.94	1136.92
423.31	1139.89
423.68	1142.37
424.04	1145.11
424.41	1146.93
424.77	1147.56
425.14	1152.74
425.51	1158.42
425.87	1166.01
426.24	1170.85
426.61	1178.20
426.97	1185.11
427.34	1190.96
427.70	1196.93
428.07	1207.27
428.44	1216.19
428.80	1222.72
429.17	1231.45
429.53	1241.94
429.90	1254.60
430.27	1268.13
430.63	1281.35
431.00	1293.94
431.36	1306.46
431.73	1316.69
432.09	1329.12
432.46	1344.12
432.83	1364.77
433.19	1385.90
433.56	1410.08
433.92	1436.39
434.29	1463.33
434.65	1494.97
435.02	1523.57
435.38	1555.26
435.75	1586.49
436.11	1628.87
436.48	1662.88
436.84	1703.65
437.21	1753.15
437.57	1798.77
437.94	1848.44
438.30	1900.52
438.67	1960.36
439.03	2020.00
439.40	2093.28
439.76	2158.79
440.13	2233.36
440.49	2314.11
440.86	2390.16
441.22	2472.59
441.59	2565.63
441.95	2667.72
442.32	2766.16
442.68	2888.06
443.05	3009.18
443.41	3134.61
443.78	3263.50
444.14	3404.12
444.51	3538.84
444.87	3708.46
445.24	3872.14
445.60	4049.88
445.96	4240.54
446.33	4459.33
446.69	4648.19
447.06	4864.87
447.42	5090.78
447.79	5313.32
448.15	5565.35
448.51	5843.52
448.88	6169.00
449.24	6470.13
449.61	6828.89
449.97	7182.43
450.33	7565.90
450.70	7914.62
451.06	8346.58
451.43	8740.50
451.79	9206.50
452.15	9684.27
452.52	10219.62
452.88	10755.00
453.24	11384.04
453.61	12074.89
453.97	12776.70
454.34	13465.13
454.70	14283.84
455.06	15084.92
455.43	15831.95
455.79	16505.08
456.15	17296.14
456.52	18045.74
456.88	18937.93
457.24	19837.75
457.61	20978.83
457.97	22061.73
458.33	23152.02
458.70	24220.85
459.06	25217.70
459.42	26225.16
459.79	27120.19
460.15	28139.14
460.51	29099.41
460.88	30201.38
461.24	31169.48
461.60	32328.95
461.96	33363.82
462.33	34388.25
462.69	35390.00
463.05	36477.74
463.42	37458.28
463.78	38378.49
464.14	39134.30
464.50	39874.23
464.87	40411.08
465.23	40777.70
465.59	41211.40
465.95	41547.08
466.32	41787.90
466.68	42028.65
467.04	42167.72
467.40	42186.96
467.77	42299.64
468.13	42215.40
468.49	42041.57
468.85	41950.52
469.22	41790.03
469.58	41515.95
469.94	41353.90
470.30	41142.78
470.66	40781.19
471.03	40283.45
471.39	39911.19
471.75	39220.38
472.11	38508.60
472.47	37996.77
472.84	37484.78
473.20	36771.55
473.56	36348.87
473.92	35775.65
474.28	35148.76
474.65	34492.01
475.01	33816.79
475.37	33004.13
475.73	32340.61
476.09	31639.85
476.45	31018.09
476.81	30506.17
477.18	29978.66
477.54	29504.44
477.90	29047.08
478.26	28486.24
478.62	27939.35
478.98	27477.59
479.34	27042.43
479.71	26479.67
480.07	26034.95
480.43	25601.53
480.79	25150.44
481.15	24687.78
481.51	24358.07
481.87	24038.52
482.23	23673.11
482.59	23340.17
482.96	23018.77
483.32	22702.21
483.68	22308.25
484.04	21969.60
484.40	21569.98
484.76	21138.50
485.12	20683.52
485.48	20249.78
485.84	19764.05
486.20	19333.85
486.56	18891.00
486.92	18510.10
487.28	18120.08
487.64	17719.19
488.00	17321.53
488.37	16951.96
488.73	16525.61
489.09	16081.61
489.45	15672.53
489.81	15238.48
490.17	14804.80
490.53	14393.87
490.89	13988.09
491.25	13570.29
491.61	13179.53
491.97	12782.60
492.33	12385.06
492.69	12026.98
493.05	11690.44
493.41	11366.51
493.77	11054.61
494.13	10750.64
494.49	10459.92
494.85	10183.11
495.21	9907.84
495.57	9651.41
495.93	9399.71
496.29	9144.92
496.64	8916.29
497.00	8667.33
497.36	8418.70
497.72	8175.96
498.08	7956.60
498.44	7730.79
498.80	7524.56
499.16	7323.51
499.52	7130.11
499.88	6950.08
500.24	6776.74
500.60	6605.27
500.96	6449.18
501.32	6287.73
501.68	6113.81
502.03	5932.30
502.39	5771.62
502.75	5602.31
503.11	5451.34
503.47	5318.54
503.83	5199.59
504.19	5071.12
504.55	4953.60
504.91	4842.97
505.26	4728.49
505.62	4609.78
505.98	4501.08
506.34	4390.17
506.70	4271.15
507.06	4162.46
507.42	4059.03
507.78	3962.74
508.13	3872.91
508.49	3795.67
508.85	3715.97
509.21	3635.34
509.57	3551.72
509.93	3462.19
510.28	3375.97
510.64	3289.97
511.00	3209.83
511.36	3142.10
511.72	3075.96
512.07	3016.25
512.43	2961.81
512.79	2907.18
513.15	2845.62
513.51	2790.71
513.86	2730.70
514.22	2674.86
514.58	2623.60
514.94	2571.99
515.30	2522.93
515.65	2476.17
516.01	2435.02
516.37	2390.97
516.73	2357.95
517.08	2320.83
517.44	2284.01
517.80	2244.64
518.16	2210.26
518.51	2173.75
518.87	2141.08
519.23	2112.90
519.59	2080.88
519.94	2050.01
520.30	2023.04
520.66	1993.01
521.01	1961.42
521.37	1936.72
521.73	1909.62
522.09	1880.13
522.44	1860.87
522.80	1837.41
523.16	1810.33
523.51	1788.75
523.87	1769.91
524.23	1748.01
524.58	1727.69
524.94	1711.03
525.30	1692.98
525.65	1673.81
526.01	1657.29
526.37	1636.43
526.72	1620.66
527.08	1605.23
527.44	1591.70
527.79	1573.10
528.15	1559.99
528.51	1546.11
528.86	1529.91
529.22	1515.03
529.58	1501.29
529.93	1488.88
530.29	1474.91
530.65	1462.53
531.00	1446.76
531.36	1437.35
531.71	1424.26
532.07	1413.87
532.43	1402.89
532.78	1395.40
533.14	1385.08
533.49	1379.02
533.85	1371.81
534.21	1365.63
534.56	1358.05
534.92	1350.37
535.27	1340.92
535.63	1334.74
535.98	1325.89
536.34	1321.49
536.69	1316.88
537.05	1308.66
537.41	1298.01
537.76	1292.77
538.12	1280.20
538.47	1272.06
538.83	1270.56
539.18	1267.28
539.54	1259.40
539.89	1257.17
540.25	1252.42
540.60	1250.76
540.96	1245.05
541.31	1242.85
541.67	1238.49
542.02	1231.36
542.38	1224.33
542.73	1222.63
543.09	1220.80
543.44	1217.80
543.80	1214.86
544.15	1211.81
544.51	1209.19
544.86	1206.50
545.22	1203.01
545.57	1203.76
545.93	1197.96
546.28	1192.95
546.64	1189.30
546.99	1188.80
547.35	1185.43
547.70	1186.32
548.05	1184.78
548.41	1180.85
548.76	1173.43
549.12	1165.82
549.47	1159.50
549.83	1154.02
550.18	1154.42
550.53	1153.49
550.89	1155.71
551.24	1157.51
551.60	1159.85
551.95	1151.61
552.30	1152.15
552.66	1149.72
553.01	1147.94
553.37	1144.94
553.72	1148.43
554.07	1145.39
554.43	1142.53
554.78	1141.46
555.13	1139.93
555.49	1137.41
555.84	1137.55
556.19	1137.66
556.55	1134.46
556.90	1134.25
557.26	1134.60
557.61	1135.07
557.96	1135.35
558.32	1131.60
558.67	1128.89
559.02	1127.06
559.37	1122.33
559.73	1118.40
560.08	1120.16
560.43	1120.81
560.79	1118.42
561.14	1118.66
561.49	1121.49
561.85	1118.71
562.20	1113.98
562.55	1113.46
562.90	1112.88
563.26	1109.48
563.61	1109.02
563.96	1110.26
564.32	1110.56
564.67	1111.01
565.02	1112.41
565.37	1112.90
565.73	1111.64
566.08	1110.91
566.43	1109.91
566.78	1108.92
567.14	1109.72
567.49	1110.07
567.84	1112.67
568.19	1111.26
568.54	1110.87
568.90	1108.43
569.25	1107.71
569.60	1102.84
569.95	1102.93
570.31	1100.52
570.66	1100.73
571.01	1099.65
571.36	1101.55
571.71	1100.15
572.06	1101.34
572.42	1101.29
572.77	1102.88
573.12	1102.70
573.47	1101.36
573.82	1101.13
574.18	1100.38
574.53	1099.58
574.88	1099.35
575.23	1100.87
575.58	1100.66
575.93	1100.00
576.28	1098.79
576.64	1095.86
576.99	1095.77
577.34	1096.63
577.69	1097.22
578.04	1099.93
578.39	1103.77
578.74	1100.15
579.09	1097.06
579.44	1094.93
579.80	1089.03
580.15	1088.93
580.50	1092.12
580.85	1094.13
581.20	1096.89
581.55	1102.79
581.90	1099.75
582.25	1100.19
582.60	1098.32
582.95	1098.55
583.30	1094.65
583.65	1093.78
584.00	1092.45
584.35	1092.96
584.71	1090.34
585.06	1091.39
585.41	1090.08
585.76	1091.60
586.11	1092.61
586.46	1092.05
586.81	1091.18
587.16	1093.76
587.51	1091.81
587.86	1089.73
588.21	1089.71
588.56	1092.05
588.91	1090.85
589.26	1090.85
589.61	1088.84
589.96	1090.50
590.31	1088.98
590.66	1088.12
591.01	1089.57
591.36	1093.40
591.71	1088.84
592.06	1089.52
592.41	1091.13
592.76	1088.84
593.10	1086.29
593.45	1089.99
593.80	1087.32
594.15	1086.20
594.50	1086.62
594.85	1086.29
595.20	1086.59
595.55	1085.80
595.90	1086.45
596.25	1085.54
596.60	1085.99
596.95	1085.63
597.30	1087.39
597.64	1096.45
597.99	1098.95
598.34	1100.71
598.69	1098.55
599.04	1098.46
599.39	1088.02
599.74	1086.08
600.09	1083.32
600.44	1084.46
600.78	1083.62
601.13	1083.48
601.48	1083.34
601.83	1083.88
602.18	1083.36
602.53	1086.57
602.88	1087.55
603.22	1088.72
603.57	1089.92
603.92	1090.46
604.27	1089.07
604.62	1086.90
604.97	1085.89
605.31	1083.27
605.66	1085.12
606.01	1084.67
606.36	1087.37
606.71	1089.26
607.05	1089.99
607.40	1089.92
607.75	1086.01
608.10	1085.33
608.44	1082.66
608.79	1082.99
609.14	1081.28
609.49	1085.19
609.84	1084.44
610.18	1087.67
610.53	1088.07
610.88	1090.08
611.23	1089.64
611.57	1088.35
611.92	1081.82
612.27	1082.29
612.62	1079.88
612.96	1082.19
613.31	1083.20
613.66	1086.73
614.00	1085.47
614.35	1085.52
614.70	1081.23
615.05	1084.21
615.39	1083.74
615.74	1085.21
616.09	1084.44
616.43	1086.43
616.78	1082.47
617.13	1083.71
617.47	1083.06
617.82	1085.24
618.17	1085.49
618.51	1085.19
618.86	1083.32
619.21	1084.86
619.55	1085.10
619.90	1083.53
620.25	1085.89
620.59	1087.93
620.94	1086.97
621.29	1087.72
621.63	1092.30
621.98	1088.61
622.32	1087.55
622.67	1089.89
623.02	1086.50
623.36	1080.84
623.71	1080.20
624.05	1081.16
624.40	1078.45
624.75	1079.97
625.09	1081.26
625.44	1084.84
625.78	1083.50
626.13	1083.67
626.48	1084.04
626.82	1083.57
627.17	1083.90
627.51	1083.81
627.86	1083.69
628.20	1081.40
628.55	1080.86
628.89	1082.83
629.24	1083.50
629.58	1086.10
629.93	1090.50
630.28	1093.38
630.62	1091.02
630.97	1088.44
631.31	1084.93
631.66	1081.49
632.00	1080.04
632.35	1082.05
632.69	1087.86
633.04	1086.97
633.38	1086.92
633.73	1086.01
634.07	1085.03
634.42	1080.32
634.76	1085.73
635.11	1089.33
635.45	1088.93
635.79	1087.72
636.14	1086.78
636.48	1081.68
636.83	1079.88
637.17	1082.17
637.52	1083.69
637.86	1084.42
638.21	1085.63
638.55	1083.36
638.89	1081.40
639.24	1078.87
639.58	1080.27
639.93	1081.40
640.27	1084.65
640.61	1084.46
640.96	1086.36
641.30	1084.86
641.65	1082.17
641.99	1080.11
642.33	1083.69
642.68	1084.46
643.02	1084.98
643.37	1088.42
643.71	1091.11
644.05	1088.35
644.40	1087.09
644.74	1088.21
645.08	1086.03
645.43	1082.80
645.77	1080.46
646.11	1076.15
646.46	1074.96
646.80	1075.01
647.14	1076.30
647.49	1078.73
647.83	1080.04
648.17	1081.23
648.52	1079.90
648.86	1078.10
649.20	1076.95
649.55	1080.04
649.89	1081.02
650.23	1083.57
650.57	1083.67
650.92	1088.30
651.26	1086.71
651.60	1088.44
651.95	1088.89
652.29	1090.20
652.63	1087.18
652.97	1087.67
653.32	1084.07
653.66	1082.64
654.00	1082.31
654.34	1082.61
654.69	1082.19
655.03	1082.71
655.37	1082.01
655.71	1082.29
656.05	1081.19
656.40	1083.60
656.74	1084.74
657.08	1085.28
657.42	1084.02
657.76	1084.07
658.11	1083.08
658.45	1081.02
658.79	1081.73
659.13	1085.61
659.47	1085.00
659.82	1085.89
660.16	1085.73
660.50	1085.49
660.84	1083.55
661.18	1085.66
661.52	1082.03
661.87	1084.58
662.21	1082.66
662.55	1081.89
662.89	1081.47
663.23	1085.19
663.57	1081.12
663.91	1081.23
664.25	1077.28
664.60	1076.41
664.94	1075.66
665.28	1075.71
665.62	1079.88
665.96	1082.22
666.30	1082.19
666.64	1085.73
666.98	1085.47
667.32	1084.81
667.66	1085.91
668.01	1086.22
668.35	1082.38
668.69	1084.65
669.03	1083.34
669.37	1085.05
669.71	1085.38
670.05	1085.52
670.39	1085.17
670.73	1083.83
671.07	1084.91
671.41	1085.61
671.75	1085.26
672.09	1083.95
672.43	1086.01
672.77	1083.74
673.11	1082.10
673.45	1080.34
673.79	1079.67
674.13	1078.38
674.47	1075.94
674.81	1077.44
675.15	1076.58
675.49	1081.37
675.83	1079.74
676.17	1079.08
676.51	1077.91
676.85	1080.44
677.19	1078.66
677.53	1077.75
677.87	1081.16
678.21	1080.53
678.55	1076.65
678.89	1075.85
679.23	1077.68
679.57	1077.86
679.90	1077.00
680.24	1082.61
680.58	1082.80
680.92	1080.39
681.26	1081.96
681.60	1082.99
681.94	1081.77
682.28	1083.15
682.62	1086.94
682.96	1083.83
683.29	1080.20
683.63	1078.59
683.97	1076.23
684.31	1076.20
684.65	1074.77
684.99	1079.53
685.33	1082.69
685.67	1083.13
686.00	1079.99
686.34	1080.88
686.68	1078.87
687.02	1077.86
687.36	1077.65
687.70	1080.11
688.03	1080.63
688.37	1080.93
688.71	1079.31
689.05	1080.77
689.39	1077.68
689.72	1078.80
690.06	1078.80
690.40	1080.09
690.74	1080.72
691.08	1084.37
691.41	1081.68
691.75	1084.09
692.09	1084.21
692.43	1080.20
692.76	1081.05
693.10	1084.74
693.44	1084.25
693.78	1084.70
694.11	1084.72
694.45	1082.90
694.79	1079.01
695.13	1076.18
695.46	1074.14
695.80	1076.62
696.14	1077.89
696.48	1079.36
696.81	1081.23
697.15	1081.33
697.49	1082.08
697.82	1079.55
698.16	1081.82
698.50	1080.32
698.83	1079.81
699.17	1077.58
699.51	1077.96
699.84	1077.11
700.18	1078.80
700.52	1081.12
700.85	1081.30
701.19	1082.47
701.53	1083.29
701.86	1078.89
702.20	1076.04
702.54	1081.56
702.87	1082.26
703.21	1076.65
703.55	1078.87
703.88	1080.23
704.22	1076.13
704.55	1076.62
704.89	1079.67
705.23	1081.73
705.56	1078.89
705.90	1078.26
706.23	1077.72
706.57	1078.66
706.91	1078.43
707.24	1080.91
707.58	1080.74
707.91	1081.82
708.25	1079.95
708.58	1078.75
708.92	1079.83
709.26	1080.70
709.59	1077.33
709.93	1079.60
710.26	1078.33
710.60	1075.99
710.93	1073.72
711.27	1074.61
711.60	1074.35
711.94	1073.63
712.27	1072.64
712.61	1074.75
712.94	1073.72
713.28	1075.64
713.61	1075.94
713.95	1077.75
714.28	1077.49
714.62	1078.99
714.95	1077.77
715.29	1080.23
715.62	1078.99
715.96	1080.88
716.29	1081.77
716.63	1082.45
716.96	1083.88
717.29	1085.66
717.63	1086.03
717.96	1085.52
718.30	1084.09
718.63	1082.87
718.97	1082.52
719.30	1081.98
719.63	1083.11
719.97	1085.07
720.30	1085.52
720.64	1084.21
720.97	1082.94
721.30	1083.43
721.64	1083.76
721.97	1083.57
722.31	1085.56
722.64	1086.20
722.97	1082.26
723.31	1081.21
723.64	1082.24
723.97	1081.35
724.31	1079.67
724.64	1081.16
724.98	1081.70
725.31	1080.60
725.64	1077.09
725.98	1079.81
726.31	1081.21
726.64	1078.47
726.97	1077.75
727.31	1082.94
727.64	1081.05
727.97	1077.02
728.31	1078.17
728.64	1077.42
728.97	1076.30
729.31	1074.19
729.64	1079.24
729.97	1080.67
730.30	1081.00
730.64	1079.74
730.97	1082.54
731.30	1082.08
731.63	1082.43
731.97	1084.49
732.30	1085.17
732.63	1085.21
732.96	1084.81
733.30	1082.47
733.63	1079.36
733.96	1080.34
734.29	1079.92
734.63	1078.96
734.96	1080.27
735.29	1081.47
735.62	1081.87
735.95	1080.13
736.29	1078.73
736.62	1078.07
736.95	1077.30
737.28	1075.55
737.61	1076.06
737.94	1079.15
738.28	1079.34
738.61	1078.66
738.94	1078.19
739.27	1078.99
739.60	1077.28
739.93	1077.49
740.27	1079.74
740.60	1079.67
740.93	1079.06
741.26	1078.07
741.59	1077.56
741.92	1077.28
742.25	1078.33
742.58	1077.82
742.91	1079.74
743.25	1080.44
743.58	1079.76
743.91	1080.84
744.24	1083.48
744.57	1080.86
744.90	1080.30
745.23	1080.09
745.56	1081.19
745.89	1081.73
746.22	1082.15
746.55	1080.23
746.88	1081.21
747.21	1079.10
747.54	1076.88
747.87	1079.71
748.20	1081.02
748.53	1081.96
748.87	1085.28
749.20	1083.88
749.53	1081.94
749.86	1083.64
750.19	1081.00
750.52	1078.59
750.85	1079.95
751.18	1079.15
751.51	1077.70
751.84	1078.78
752.16	1076.93
752.49	1074.94
752.82	1077.72
753.15	1076.79
753.48	1077.79
753.81	1082.43
754.14	1084.21
754.47	1084.25
754.80	1086.71
755.13	1086.97
755.46	1081.75
755.79	1081.56
756.12	1080.25
756.45	1080.02
756.78	1079.17
757.11	1078.05
757.43	1076.34
757.76	1074.14
758.09	1071.38
758.42	1071.82
758.75	1078.50
759.08	1081.26
759.41	1083.06
759.74	1086.69
760.07	1087.69
760.39	1084.46
760.72	1085.80
761.05	1081.30
761.38	1080.86
761.71	1079.71
762.04	1080.88
762.36	1077.96
762.69	1080.86
763.02	1077.89
763.35	1076.27
763.68	1074.75
