SpectraSuite Data File
++++++++++++++++++++++++++++++++++++
Date: Mon Aug 26 10:21:58 PDT 2019
User: corrico
Dark Spectrum Present: No
Reference Spectrum Present: No
Number of Sampled Component Spectra: 1
Spectrometers: USB2+H06089
Integration Time (usec): 2000 (USB2+H06089)
Spectra Averaged: 20 (USB2+H06089)
Boxcar Smoothing: 2 (USB2+H06089)
Correct for Electrical Dark: No (USB2+H06089)
Strobe/Lamp Enabled: No (USB2+H06089)
Correct for Detector Non-linearity: No (USB2+H06089)
Correct for Stray Light: No (USB2+H06089)
Number of Pixels in Processed Spectrum: 2048
>>>>>Begin Processed Spectral Data<<<<<
339.70	1024.34
340.07	1024.34
340.45	990.12
340.82	967.98
341.19	947.57
341.57	921.26
341.94	909.84
342.31	900.33
342.69	894.27
343.06	888.19
343.43	887.23
343.81	888.23
344.18	893.34
344.55	901.34
344.93	905.55
345.30	915.52
345.67	926.83
346.04	933.52
346.42	937.52
346.79	949.11
347.16	958.29
347.54	967.06
347.91	977.97
348.28	989.39
348.65	997.91
349.03	1004.53
349.40	1013.52
349.77	1017.50
350.14	1026.58
350.52	1032.69
350.89	1039.55
351.26	1042.22
351.63	1048.72
352.01	1052.47
352.38	1057.43
352.75	1059.14
353.12	1062.91
353.50	1066.77
353.87	1063.54
354.24	1063.98
354.61	1066.58
354.98	1069.81
355.36	1071.50
355.73	1076.32
356.10	1078.73
356.47	1077.40
356.84	1079.13
357.22	1079.01
357.59	1080.60
357.96	1081.58
358.33	1083.22
358.70	1082.29
359.08	1081.80
359.45	1079.17
359.82	1077.33
360.19	1078.85
360.56	1078.31
360.94	1077.84
361.31	1081.07
361.68	1077.30
362.05	1073.84
362.42	1070.68
362.79	1068.06
363.16	1065.29
363.54	1069.55
363.91	1072.15
364.28	1072.62
364.65	1076.72
365.02	1076.20
365.39	1071.36
365.76	1067.89
366.14	1066.56
366.51	1064.10
366.88	1064.12
367.25	1067.64
367.62	1066.72
367.99	1068.31
368.36	1065.74
368.73	1063.82
369.10	1061.08
369.48	1063.00
369.85	1061.22
370.22	1061.04
370.59	1067.05
370.96	1068.03
371.33	1068.64
371.70	1070.33
372.07	1073.16
372.44	1071.71
372.81	1071.31
373.18	1072.92
373.55	1072.27
373.93	1069.37
374.30	1066.91
374.67	1068.34
375.04	1063.66
375.41	1061.57
375.78	1063.75
376.15	1060.99
376.52	1063.28
376.89	1067.12
377.26	1071.29
377.63	1072.57
378.00	1074.19
378.37	1069.91
378.74	1068.45
379.11	1063.89
379.48	1065.01
379.85	1067.05
380.22	1069.46
380.59	1071.29
380.96	1076.60
381.33	1074.38
381.70	1074.00
382.07	1073.23
382.44	1074.28
382.81	1072.53
383.18	1074.94
383.55	1076.37
383.92	1078.64
384.29	1078.64
384.66	1077.91
385.03	1077.37
385.40	1075.27
385.77	1074.00
386.14	1072.69
386.51	1072.22
386.88	1070.72
387.25	1072.27
387.62	1075.55
387.99	1075.71
388.36	1075.87
388.73	1074.40
389.10	1074.12
389.46	1067.68
389.83	1069.25
390.20	1070.40
390.57	1071.92
390.94	1073.07
391.31	1075.80
391.68	1076.18
392.05	1075.13
392.42	1073.18
392.79	1072.06
393.16	1072.83
393.53	1068.34
393.89	1069.62
394.26	1072.92
394.63	1070.44
395.00	1069.60
395.37	1073.63
395.74	1075.34
396.11	1074.75
396.48	1080.39
396.84	1080.67
397.21	1081.35
397.58	1078.45
397.95	1081.23
398.32	1079.10
398.69	1077.75
399.06	1074.00
399.42	1077.72
399.79	1076.30
400.16	1075.45
400.53	1078.45
400.90	1080.77
401.27	1082.90
401.64	1083.79
402.00	1084.39
402.37	1082.50
402.74	1084.53
403.11	1078.31
403.48	1079.53
403.84	1078.75
404.21	1079.76
404.58	1075.29
404.95	1079.08
405.32	1077.14
405.68	1076.34
406.05	1078.45
406.42	1079.95
406.79	1077.58
407.16	1077.72
407.52	1078.73
407.89	1077.30
408.26	1075.50
408.63	1076.69
408.99	1078.14
409.36	1080.56
409.73	1079.64
410.10	1082.94
410.47	1082.26
410.83	1080.51
411.20	1082.52
411.57	1082.94
411.94	1081.89
412.30	1080.70
412.67	1079.97
413.04	1077.54
413.40	1081.02
413.77	1084.53
414.14	1086.80
414.51	1087.72
414.87	1087.76
415.24	1085.91
415.61	1084.32
415.97	1085.80
416.34	1085.82
416.71	1086.50
417.08	1086.24
417.44	1089.80
417.81	1090.64
418.18	1090.69
418.54	1094.15
418.91	1096.82
419.28	1097.73
419.64	1094.04
420.01	1096.31
420.38	1093.12
420.74	1092.54
421.11	1089.31
421.48	1093.73
421.84	1097.17
422.21	1099.82
422.58	1102.04
422.94	1104.15
423.31	1107.82
423.68	1105.58
424.04	1106.09
424.41	1108.20
424.77	1109.46
425.14	1111.29
425.51	1114.49
425.87	1120.70
426.24	1120.81
426.61	1123.06
426.97	1123.25
427.34	1123.67
427.70	1120.09
428.07	1122.87
428.44	1124.18
428.80	1124.35
429.17	1131.04
429.53	1138.69
429.90	1145.90
430.27	1153.21
430.63	1160.81
431.00	1164.35
431.36	1169.80
431.73	1172.68
432.09	1174.32
432.46	1183.05
432.83	1191.36
433.19	1199.66
433.56	1209.26
433.92	1224.50
434.29	1235.24
434.65	1243.92
435.02	1253.50
435.38	1269.41
435.75	1280.48
436.11	1294.15
436.48	1312.78
436.84	1331.88
437.21	1347.77
437.57	1367.08
437.94	1386.72
438.30	1406.29
438.67	1425.71
439.03	1451.11
439.40	1480.13
439.76	1505.32
440.13	1536.44
440.49	1572.14
440.86	1602.17
441.22	1636.41
441.59	1675.33
441.95	1713.53
442.32	1750.39
442.68	1796.74
443.05	1846.12
443.41	1896.82
443.78	1954.21
444.14	2012.42
444.51	2064.35
444.87	2129.91
445.24	2198.98
445.60	2267.09
445.96	2339.30
446.33	2429.73
446.69	2506.53
447.06	2591.93
447.42	2682.30
447.79	2781.24
448.15	2883.49
448.51	2995.28
448.88	3116.19
449.24	3232.35
449.61	3371.35
449.97	3512.42
450.33	3658.44
450.70	3796.84
451.06	3960.75
451.43	4110.57
451.79	4293.08
452.15	4481.85
452.52	4700.03
452.88	4919.10
453.24	5160.88
453.61	5410.36
453.97	5659.56
454.34	5896.11
454.70	6169.28
455.06	6436.01
455.43	6698.57
455.79	6959.91
456.15	7284.47
456.52	7601.52
456.88	7993.02
457.24	8385.55
457.61	8838.49
457.97	9242.45
458.33	9650.82
458.70	10058.55
459.06	10451.80
459.42	10872.96
459.79	11283.04
460.15	11740.27
460.51	12116.25
460.88	12498.25
461.24	12831.87
461.60	13236.03
461.96	13590.77
462.33	13940.07
462.69	14336.97
463.05	14777.58
463.42	15174.16
463.78	15524.82
464.14	15879.36
464.50	16223.38
464.87	16477.04
465.23	16614.25
465.59	16776.37
465.95	16896.94
466.32	16950.02
466.68	16987.47
467.04	17036.24
467.40	17096.23
467.77	17157.09
468.13	17185.69
468.49	17160.90
468.85	17163.73
469.22	17114.37
469.58	17027.63
469.94	16931.44
470.30	16789.76
470.66	16568.49
471.03	16265.18
471.39	16003.37
471.75	15661.48
472.11	15375.56
472.47	15130.91
472.84	14912.61
473.20	14626.94
473.56	14416.86
473.92	14110.18
474.28	13839.63
474.65	13585.31
475.01	13343.42
475.37	13082.96
475.73	12893.00
476.09	12683.78
476.45	12489.75
476.81	12290.27
477.18	12085.15
477.54	11908.65
477.90	11722.69
478.26	11492.92
478.62	11313.78
478.98	11158.53
479.34	11038.06
479.71	10903.41
480.07	10790.22
480.43	10656.60
480.79	10488.55
481.15	10293.68
481.51	10122.79
481.87	9969.14
482.23	9786.90
482.59	9634.98
482.96	9469.25
483.32	9323.31
483.68	9157.32
484.04	9031.35
484.40	8893.54
484.76	8762.87
485.12	8613.71
485.48	8491.65
485.84	8347.64
486.20	8198.12
486.56	8041.14
486.92	7899.33
487.28	7724.98
487.64	7548.37
488.00	7382.89
488.37	7223.03
488.73	7047.42
489.09	6877.59
489.45	6731.01
489.81	6580.42
490.17	6430.25
490.53	6268.96
490.89	6106.55
491.25	5943.42
491.61	5779.84
491.97	5622.15
492.33	5485.51
492.69	5362.24
493.05	5245.12
493.41	5135.04
493.77	5029.13
494.13	4914.42
494.49	4805.17
494.85	4688.23
495.21	4574.93
495.57	4467.71
495.93	4361.96
496.29	4255.77
496.64	4161.24
497.00	4070.10
497.36	3980.71
497.72	3897.53
498.08	3819.75
498.44	3748.39
498.80	3665.82
499.16	3576.64
499.52	3493.46
499.88	3413.09
500.24	3319.39
500.60	3245.27
500.96	3180.32
501.32	3118.06
501.68	3053.49
502.03	2999.23
502.39	2937.35
502.75	2883.98
503.11	2835.70
503.47	2788.68
503.83	2738.92
504.19	2696.44
504.55	2647.47
504.91	2586.36
505.26	2532.93
505.62	2479.82
505.98	2428.24
506.34	2380.82
506.70	2341.87
507.06	2304.75
507.42	2268.24
507.78	2233.81
508.13	2199.31
508.49	2166.26
508.85	2131.64
509.21	2097.26
509.57	2062.97
509.93	2027.86
510.28	1992.73
510.64	1959.29
511.00	1932.16
511.36	1902.90
511.72	1874.37
512.07	1854.76
512.43	1828.57
512.79	1803.17
513.15	1780.38
513.51	1756.08
513.86	1731.25
514.22	1709.41
514.58	1688.98
514.94	1670.04
515.30	1653.71
515.65	1634.05
516.01	1615.62
516.37	1596.34
516.73	1581.55
517.08	1565.54
517.44	1554.28
517.80	1542.69
518.16	1533.99
518.51	1521.75
518.87	1507.05
519.23	1490.45
519.59	1480.37
519.94	1466.91
520.30	1454.20
520.66	1445.66
521.01	1430.86
521.37	1419.18
521.73	1405.26
522.09	1392.62
522.44	1382.16
522.80	1375.70
523.16	1367.74
523.51	1357.49
523.87	1350.30
524.23	1341.43
524.58	1334.20
524.94	1324.46
525.30	1317.79
525.65	1311.80
526.01	1307.56
526.37	1300.89
526.72	1295.14
527.08	1291.95
527.44	1284.23
527.79	1274.98
528.15	1268.85
528.51	1263.68
528.86	1253.97
529.22	1248.14
529.58	1245.35
529.93	1240.62
530.29	1234.68
530.65	1235.48
531.00	1231.03
531.36	1222.56
531.71	1214.18
532.07	1211.27
532.43	1205.49
532.78	1199.90
533.14	1196.48
533.49	1197.46
533.85	1195.87
534.21	1191.71
534.56	1186.91
534.92	1185.46
535.27	1182.74
535.63	1181.97
535.98	1180.61
536.34	1180.38
536.69	1180.05
537.05	1178.23
537.41	1169.38
537.76	1165.19
538.12	1162.68
538.47	1160.13
538.83	1154.89
539.18	1156.72
539.54	1152.53
539.89	1148.29
540.25	1144.48
540.60	1143.49
540.96	1142.37
541.31	1142.23
541.67	1145.08
542.02	1142.95
542.38	1142.65
542.73	1139.77
543.09	1137.03
543.44	1135.07
543.80	1131.93
544.15	1130.92
544.51	1128.91
544.86	1129.89
545.22	1127.04
545.57	1130.06
545.93	1129.82
546.28	1128.84
546.64	1126.01
546.99	1126.55
547.35	1123.27
547.70	1122.66
548.05	1121.44
548.41	1122.43
548.76	1122.40
549.12	1120.30
549.47	1117.16
549.83	1116.37
550.18	1114.42
550.53	1108.55
550.89	1105.93
551.24	1106.18
551.60	1104.41
551.95	1105.48
552.30	1105.06
552.66	1107.14
553.01	1105.51
553.37	1104.38
553.72	1100.61
554.07	1102.60
554.43	1103.05
554.78	1100.61
555.13	1100.59
555.49	1099.93
555.84	1101.03
556.19	1100.75
556.55	1103.12
556.90	1103.82
557.26	1104.19
557.61	1100.36
557.96	1099.61
558.32	1096.05
558.67	1093.40
559.02	1095.25
559.37	1100.50
559.73	1100.26
560.08	1101.06
560.43	1099.02
560.79	1098.81
561.14	1092.21
561.49	1090.64
561.85	1095.46
562.20	1097.01
562.55	1096.49
562.90	1097.62
563.26	1096.12
563.61	1091.65
563.96	1090.67
564.32	1090.81
564.67	1091.25
565.02	1093.12
565.37	1093.24
565.73	1093.92
566.08	1089.94
566.43	1090.39
566.78	1086.62
567.14	1084.56
567.49	1086.45
567.84	1087.55
568.19	1084.98
568.54	1090.64
568.90	1090.95
569.25	1088.89
569.60	1085.63
569.95	1087.81
570.31	1084.04
570.66	1085.70
571.01	1084.32
571.36	1086.10
571.71	1086.69
572.06	1085.07
572.42	1081.96
572.77	1082.08
573.12	1083.22
573.47	1081.70
573.82	1082.69
574.18	1085.38
574.53	1090.85
574.88	1089.50
575.23	1089.07
575.58	1092.30
575.93	1090.81
576.28	1084.63
576.64	1087.62
576.99	1089.59
577.34	1085.89
577.69	1083.48
578.04	1086.24
578.39	1083.95
578.74	1081.91
579.09	1082.76
579.44	1086.15
579.80	1081.54
580.15	1082.71
580.50	1083.67
580.85	1084.93
581.20	1083.08
581.55	1084.07
581.90	1082.97
582.25	1081.44
582.60	1081.26
582.95	1081.80
583.30	1084.51
583.65	1085.89
584.00	1088.33
584.35	1088.40
584.71	1089.78
585.06	1086.59
585.41	1087.62
585.76	1084.09
586.11	1082.43
586.46	1082.31
586.81	1083.20
587.16	1081.70
587.51	1082.19
587.86	1082.71
588.21	1081.00
588.56	1080.74
588.91	1079.62
589.26	1078.82
589.61	1079.50
589.96	1080.06
590.31	1080.20
590.66	1079.38
591.01	1081.09
591.36	1081.94
591.71	1082.19
592.06	1082.97
592.41	1083.36
592.76	1081.75
593.10	1079.24
593.45	1080.56
593.80	1079.88
594.15	1076.90
594.50	1078.33
594.85	1079.85
595.20	1075.94
595.55	1077.25
595.90	1081.96
596.25	1080.65
596.60	1080.98
596.95	1082.01
597.30	1082.59
597.64	1091.53
597.99	1093.15
598.34	1093.97
598.69	1091.30
599.04	1088.77
599.39	1080.46
599.74	1078.92
600.09	1076.04
600.44	1078.61
600.78	1078.96
601.13	1077.42
601.48	1075.31
601.83	1075.97
602.18	1075.17
602.53	1075.69
602.88	1075.01
603.22	1077.44
603.57	1078.14
603.92	1080.23
604.27	1080.84
604.62	1082.24
604.97	1079.22
605.31	1078.07
605.66	1075.22
606.01	1074.96
606.36	1073.95
606.71	1074.73
607.05	1074.07
607.40	1076.41
607.75	1078.61
608.10	1079.48
608.44	1083.57
608.79	1084.93
609.14	1086.13
609.49	1082.22
609.84	1082.03
610.18	1080.98
610.53	1081.23
610.88	1079.22
611.23	1079.76
611.57	1078.68
611.92	1078.61
612.27	1077.51
612.62	1076.79
612.96	1078.75
613.31	1079.55
613.66	1079.78
614.00	1079.24
614.35	1080.58
614.70	1080.20
615.05	1080.25
615.39	1080.65
615.74	1079.57
616.09	1078.87
616.43	1079.43
616.78	1075.90
617.13	1074.19
617.47	1074.49
617.82	1075.94
618.17	1073.49
618.51	1075.97
618.86	1075.83
619.21	1079.46
619.55	1078.47
619.90	1080.02
620.25	1079.17
620.59	1078.45
620.94	1076.95
621.29	1078.57
621.63	1077.37
621.98	1081.91
622.32	1084.53
622.67	1082.45
623.02	1080.13
623.36	1081.77
623.71	1079.24
624.05	1078.03
624.40	1081.09
624.75	1079.17
625.09	1081.51
625.44	1079.06
625.78	1077.40
626.13	1075.99
626.48	1077.89
626.82	1072.85
627.17	1074.17
627.51	1075.13
627.86	1073.56
628.20	1073.46
628.55	1076.51
628.89	1075.03
629.24	1077.00
629.58	1077.86
629.93	1079.60
630.28	1076.55
630.62	1077.49
630.97	1073.25
631.31	1074.14
631.66	1073.14
632.00	1074.00
632.35	1074.12
632.69	1078.36
633.04	1079.22
633.38	1079.69
633.73	1081.12
634.07	1082.17
634.42	1081.44
634.76	1080.95
635.11	1081.44
635.45	1080.18
635.79	1081.98
636.14	1083.64
636.48	1081.07
636.83	1077.79
637.17	1081.07
637.52	1077.47
637.86	1076.67
638.21	1080.70
638.55	1082.61
638.89	1080.77
639.24	1080.39
639.58	1078.26
639.93	1075.97
640.27	1075.69
640.61	1072.48
640.96	1074.28
641.30	1075.13
641.65	1074.31
641.99	1075.36
642.33	1077.21
642.68	1076.79
643.02	1079.60
643.37	1079.03
643.71	1078.78
644.05	1078.17
644.40	1079.17
644.74	1077.00
645.08	1074.96
645.43	1072.67
645.77	1074.33
646.11	1071.73
646.46	1070.63
646.80	1072.41
647.14	1075.97
647.49	1074.24
647.83	1075.17
648.17	1076.32
648.52	1077.14
648.86	1073.88
649.20	1075.87
649.55	1078.43
649.89	1079.17
650.23	1082.45
650.57	1080.77
650.92	1081.80
651.26	1080.70
651.60	1078.07
651.95	1073.51
652.29	1076.53
652.63	1075.24
652.97	1073.11
653.32	1074.68
653.66	1077.68
654.00	1079.38
654.34	1078.71
654.69	1079.90
655.03	1080.18
655.37	1077.25
655.71	1074.49
656.05	1074.07
656.40	1074.21
656.74	1073.51
657.08	1073.86
657.42	1074.10
657.76	1074.33
658.11	1075.80
658.45	1079.29
658.79	1080.34
659.13	1078.85
659.47	1081.21
659.82	1079.13
660.16	1077.37
660.50	1077.77
660.84	1079.69
661.18	1077.89
661.52	1079.50
661.87	1077.51
662.21	1076.60
662.55	1076.13
662.89	1073.53
663.23	1074.47
663.57	1076.39
663.91	1078.19
664.25	1080.48
664.60	1083.39
664.94	1081.23
665.28	1078.05
665.62	1077.09
665.96	1077.14
666.30	1078.19
666.64	1079.36
666.98	1081.28
667.32	1078.68
667.66	1078.26
668.01	1075.24
668.35	1074.94
668.69	1075.97
669.03	1075.87
669.37	1072.92
669.71	1075.59
670.05	1075.85
670.39	1073.88
670.73	1076.46
671.07	1076.86
671.41	1074.73
671.75	1074.45
672.09	1072.32
672.43	1069.34
672.77	1070.19
673.11	1070.00
673.45	1070.16
673.79	1073.81
674.13	1075.24
674.47	1078.17
674.81	1080.70
675.15	1078.61
675.49	1073.53
675.83	1075.41
676.17	1073.74
676.51	1072.50
676.85	1073.65
677.19	1076.93
677.53	1077.68
677.87	1076.51
678.21	1075.90
678.55	1075.34
678.89	1075.85
679.23	1075.90
679.57	1078.05
679.90	1081.42
680.24	1083.64
680.58	1085.33
680.92	1084.09
681.26	1083.76
681.60	1083.22
681.94	1080.74
682.28	1081.30
682.62	1079.74
682.96	1079.34
683.29	1077.75
683.63	1076.83
683.97	1072.85
684.31	1077.09
684.65	1076.32
684.99	1075.55
685.33	1074.42
685.67	1077.93
686.00	1073.56
686.34	1073.32
686.68	1072.34
687.02	1075.13
687.36	1071.47
687.70	1074.33
688.03	1075.92
688.37	1078.12
688.71	1078.92
689.05	1079.43
689.39	1077.77
689.72	1077.68
690.06	1079.17
690.40	1076.48
690.74	1077.75
691.08	1079.67
691.41	1078.80
691.75	1074.10
692.09	1079.10
692.43	1078.94
692.76	1076.88
693.10	1078.00
693.44	1076.32
693.78	1072.25
694.11	1074.66
694.45	1078.54
694.79	1076.32
695.13	1082.03
695.46	1082.69
695.80	1080.58
696.14	1072.46
696.48	1074.84
696.81	1074.56
697.15	1075.99
697.49	1078.31
697.82	1083.06
698.16	1079.08
698.50	1078.61
698.83	1075.97
699.17	1073.58
699.51	1072.81
699.84	1075.13
700.18	1071.36
700.52	1073.53
700.85	1073.60
701.19	1073.86
701.53	1073.37
701.86	1075.83
702.20	1077.47
702.54	1082.80
702.87	1085.61
703.21	1087.18
703.55	1088.19
703.88	1085.40
704.22	1079.43
704.55	1078.78
704.89	1077.79
705.23	1076.48
705.56	1077.44
705.90	1076.83
706.23	1076.65
706.57	1078.14
706.91	1075.03
707.24	1075.20
707.58	1073.77
707.91	1073.37
708.25	1072.41
708.58	1076.74
708.92	1076.13
709.26	1080.25
709.59	1079.50
709.93	1077.30
710.26	1077.63
710.60	1077.37
710.93	1077.56
711.27	1075.71
711.60	1077.00
711.94	1078.05
712.27	1076.27
712.61	1075.03
712.94	1074.14
713.28	1072.46
713.61	1070.68
713.95	1074.28
714.28	1075.03
714.62	1076.79
714.95	1079.50
715.29	1076.55
715.62	1072.20
715.96	1073.53
716.29	1073.04
716.63	1073.67
716.96	1075.17
717.29	1080.30
717.63	1077.58
717.96	1077.58
718.30	1072.92
718.63	1072.39
718.97	1070.30
719.30	1071.52
719.63	1075.31
719.97	1079.90
720.30	1079.90
720.64	1080.30
720.97	1081.94
721.30	1080.25
721.64	1077.65
721.97	1078.40
722.31	1079.22
722.64	1077.04
722.97	1074.56
723.31	1071.57
723.64	1072.13
723.97	1072.39
724.31	1072.74
724.64	1073.63
724.98	1079.41
725.31	1079.50
725.64	1076.30
725.98	1073.23
726.31	1072.74
726.64	1070.40
726.97	1070.70
727.31	1073.07
727.64	1077.77
727.97	1077.68
728.31	1080.30
728.64	1078.47
728.97	1080.39
729.31	1078.50
729.64	1079.62
729.97	1076.46
730.30	1076.20
730.64	1072.36
730.97	1073.35
731.30	1073.04
731.63	1075.55
731.97	1077.68
732.30	1078.99
732.63	1076.20
732.96	1076.58
733.30	1075.22
733.63	1075.48
733.96	1075.22
734.29	1076.51
734.63	1078.40
734.96	1080.18
735.29	1077.96
735.62	1079.31
735.95	1079.97
736.29	1076.97
736.62	1076.67
736.95	1078.52
737.28	1076.74
737.61	1077.25
737.94	1079.78
738.28	1079.48
738.61	1079.13
738.94	1080.91
739.27	1078.78
739.60	1079.97
739.93	1079.67
740.27	1079.53
740.60	1078.71
740.93	1081.26
741.26	1081.61
741.59	1083.04
741.92	1081.51
742.25	1081.82
742.58	1081.75
742.91	1079.36
743.25	1078.31
743.58	1078.19
743.91	1080.77
744.24	1082.05
744.57	1082.36
744.90	1083.06
745.23	1086.85
745.56	1084.74
745.89	1079.67
746.22	1078.33
746.55	1077.09
746.88	1076.44
747.21	1076.15
747.54	1079.41
747.87	1080.04
748.20	1079.01
748.53	1077.42
748.87	1075.03
749.20	1076.62
749.53	1076.60
749.86	1077.47
750.19	1080.48
750.52	1081.12
750.85	1078.36
751.18	1077.51
751.51	1077.51
751.84	1078.28
752.16	1079.57
752.49	1079.50
752.82	1079.97
753.15	1081.33
753.48	1078.66
753.81	1080.67
754.14	1081.68
754.47	1084.49
754.80	1079.85
755.13	1075.05
755.46	1071.71
755.79	1070.75
756.12	1071.52
756.45	1073.30
756.78	1073.56
757.11	1074.49
757.43	1073.35
757.76	1070.87
758.09	1071.36
758.42	1073.60
758.75	1075.48
759.08	1075.24
759.41	1076.20
759.74	1078.00
760.07	1079.08
760.39	1077.51
760.72	1080.88
761.05	1083.01
761.38	1084.35
761.71	1088.02
762.04	1087.44
762.36	1085.73
762.69	1083.55
763.02	1080.48
763.35	1076.51
763.68	1077.70
764.01	1078.40
764.33	1075.29
764.66	1076.34
764.99	1076.74
