SpectraSuite Data File
++++++++++++++++++++++++++++++++++++
Date: Mon Aug 26 10:22:22 PDT 2019
User: corrico
Dark Spectrum Present: No
Reference Spectrum Present: No
Number of Sampled Component Spectra: 1
Spectrometers: USB2+H06089
Integration Time (usec): 2000 (USB2+H06089)
Spectra Averaged: 20 (USB2+H06089)
Boxcar Smoothing: 2 (USB2+H06089)
Correct for Electrical Dark: No (USB2+H06089)
Strobe/Lamp Enabled: No (USB2+H06089)
Correct for Detector Non-linearity: No (USB2+H06089)
Correct for Stray Light: No (USB2+H06089)
Number of Pixels in Processed Spectrum: 2048
>>>>>Begin Processed Spectral Data<<<<<
339.70	1030.65
340.07	1030.65
340.45	999.08
340.82	977.36
341.19	951.45
341.57	928.00
341.94	916.16
342.31	905.44
342.69	899.09
343.06	900.01
343.43	894.32
343.81	893.83
344.18	897.69
344.55	900.87
344.93	902.98
345.30	909.46
345.67	916.93
346.04	927.46
346.42	937.24
346.79	944.34
347.16	955.29
347.54	966.59
347.91	975.00
348.28	983.35
348.65	996.46
349.03	1005.10
349.40	1011.44
349.77	1020.38
350.14	1029.84
350.52	1033.53
350.89	1039.13
351.26	1045.92
351.63	1049.71
352.01	1054.72
352.38	1064.17
352.75	1071.10
353.12	1075.29
353.50	1076.32
353.87	1076.15
354.24	1074.40
354.61	1072.78
354.98	1070.30
355.36	1074.03
355.73	1075.34
356.10	1076.34
356.47	1077.63
356.84	1079.71
357.22	1080.65
357.59	1081.28
357.96	1085.05
358.33	1087.60
358.70	1089.71
359.08	1089.82
359.45	1089.59
359.82	1087.23
360.19	1084.28
360.56	1082.80
360.94	1077.70
361.31	1078.87
361.68	1078.94
362.05	1078.07
362.42	1075.62
362.79	1076.67
363.16	1076.18
363.54	1073.37
363.91	1079.57
364.28	1081.21
364.65	1082.19
365.02	1083.25
365.39	1082.78
365.76	1075.78
366.14	1076.20
366.51	1074.70
366.88	1071.85
367.25	1073.21
367.62	1072.83
367.99	1071.26
368.36	1072.36
368.73	1074.12
369.10	1074.31
369.48	1077.28
369.85	1076.18
370.22	1075.80
370.59	1076.13
370.96	1077.79
371.33	1076.93
371.70	1080.44
372.07	1079.43
372.44	1075.10
372.81	1074.03
373.18	1076.25
373.55	1074.80
373.93	1075.73
374.30	1079.34
374.67	1080.11
375.04	1078.61
375.41	1079.88
375.78	1079.22
376.15	1077.49
376.52	1076.44
376.89	1078.47
377.26	1075.15
377.63	1075.43
378.00	1077.56
378.37	1079.46
378.74	1077.82
379.11	1081.58
379.48	1082.40
379.85	1082.03
380.22	1079.62
380.59	1081.66
380.96	1083.25
381.33	1083.88
381.70	1082.50
382.07	1081.94
382.44	1081.05
382.81	1081.96
383.18	1079.62
383.55	1080.77
383.92	1082.90
384.29	1082.83
384.66	1081.61
385.03	1081.84
385.40	1081.82
385.77	1077.04
386.14	1074.03
386.51	1072.50
386.88	1074.17
387.25	1076.41
387.62	1078.66
387.99	1079.10
388.36	1078.40
388.73	1079.36
389.10	1079.50
389.46	1082.90
389.83	1085.99
390.20	1087.81
390.57	1087.79
390.94	1085.26
391.31	1084.93
391.68	1085.00
392.05	1083.55
392.42	1083.83
392.79	1084.91
393.16	1085.89
393.53	1088.30
393.89	1086.31
394.26	1086.45
394.63	1084.89
395.00	1084.58
395.37	1084.46
395.74	1086.80
396.11	1088.04
396.48	1090.36
396.84	1092.21
397.21	1090.46
397.58	1091.72
397.95	1090.95
398.32	1094.81
398.69	1095.37
399.06	1095.16
399.42	1095.67
399.79	1096.03
400.16	1091.13
400.53	1087.95
400.90	1086.22
401.27	1086.41
401.64	1086.41
402.00	1087.88
402.37	1088.68
402.74	1087.81
403.11	1088.14
403.48	1088.79
403.84	1090.69
404.21	1088.86
404.58	1090.62
404.95	1090.50
405.32	1089.43
405.68	1087.48
406.05	1089.03
406.42	1092.35
406.79	1090.20
407.16	1091.23
407.52	1093.80
407.89	1093.69
408.26	1091.65
408.63	1093.78
408.99	1094.01
409.36	1092.54
409.73	1093.90
410.10	1094.11
410.47	1094.27
410.83	1094.74
411.20	1096.05
411.57	1097.22
411.94	1100.43
412.30	1101.32
412.67	1102.32
413.04	1104.50
413.40	1103.75
413.77	1102.18
414.14	1103.49
414.51	1104.03
414.87	1102.88
415.24	1104.55
415.61	1105.74
415.97	1105.29
416.34	1106.58
416.71	1104.83
417.08	1105.04
417.44	1104.17
417.81	1106.96
418.18	1106.46
418.54	1110.47
418.91	1111.24
419.28	1109.91
419.64	1109.13
420.01	1111.22
420.38	1110.14
420.74	1111.40
421.11	1117.58
421.48	1118.71
421.84	1120.84
422.21	1124.84
422.58	1129.87
422.94	1131.32
423.31	1135.16
423.68	1136.26
424.04	1137.80
424.41	1135.11
424.77	1138.04
425.14	1140.54
425.51	1144.85
425.87	1147.71
426.24	1154.45
426.61	1159.92
426.97	1163.95
427.34	1164.49
427.70	1170.38
428.07	1176.28
428.44	1183.56
428.80	1191.47
429.17	1202.15
429.53	1210.20
429.90	1219.58
430.27	1225.11
430.63	1233.98
431.00	1244.72
431.36	1259.44
431.73	1266.81
432.09	1280.32
432.46	1294.90
432.83	1313.04
433.19	1328.44
433.56	1349.58
433.92	1372.84
434.29	1394.35
434.65	1416.54
435.02	1441.23
435.38	1472.38
435.75	1498.55
436.11	1528.84
436.48	1560.32
436.84	1593.65
437.21	1628.22
437.57	1664.52
437.94	1706.77
438.30	1748.33
438.67	1792.34
439.03	1841.32
439.40	1894.31
439.76	1948.22
440.13	2008.60
440.49	2076.71
440.86	2145.10
441.22	2216.00
441.59	2290.42
441.95	2368.81
442.32	2449.53
442.68	2538.92
443.05	2635.98
443.41	2734.40
443.78	2837.60
444.14	2947.93
444.51	3057.02
444.87	3197.62
445.24	3340.88
445.60	3502.00
445.96	3654.77
446.33	3830.50
446.69	3989.63
447.06	4167.42
447.42	4340.97
447.79	4531.63
448.15	4745.83
448.51	4975.25
448.88	5234.16
449.24	5475.45
449.61	5750.63
449.97	6020.40
450.33	6305.40
450.70	6557.17
451.06	6890.30
451.43	7197.73
451.79	7563.79
452.15	7952.51
452.52	8409.99
452.88	8865.48
453.24	9396.22
453.61	9970.24
453.97	10535.62
454.34	11082.65
454.70	11734.07
455.06	12376.82
455.43	13013.00
455.79	13622.25
456.15	14333.18
456.52	14988.72
456.88	15765.87
457.24	16478.57
457.61	17318.82
457.97	18093.75
458.33	18872.04
458.70	19621.39
459.06	20364.37
459.42	21197.39
459.79	21964.62
460.15	22849.18
460.51	23707.97
460.88	24655.20
461.24	25438.70
461.60	26385.63
461.96	27263.47
462.33	28093.45
462.69	28859.30
463.05	29725.20
463.42	30462.38
463.78	31107.80
464.14	31644.07
464.50	32237.35
464.87	32684.67
465.23	33021.19
465.59	33380.58
465.95	33712.07
466.32	33986.69
466.68	34236.40
467.04	34379.03
467.40	34495.49
467.77	34650.84
468.13	34624.36
468.49	34528.03
468.85	34481.03
469.22	34335.61
469.58	33987.06
469.94	33749.87
470.30	33447.38
470.66	33021.21
471.03	32439.87
471.39	32073.95
471.75	31439.78
472.11	30860.13
472.47	30495.54
472.84	30193.14
473.20	29714.97
473.56	29457.28
473.92	29039.78
474.28	28531.27
474.65	28034.61
475.01	27538.86
475.37	26957.40
475.73	26498.30
476.09	25975.55
476.45	25456.02
476.81	24959.73
477.18	24445.61
477.54	23977.01
477.90	23628.85
478.26	23218.11
478.62	22871.27
478.98	22576.08
479.34	22256.74
479.71	21832.19
480.07	21477.65
480.43	21102.39
480.79	20711.89
481.15	20344.94
481.51	20036.58
481.87	19768.40
482.23	19498.79
482.59	19241.38
482.96	18963.09
483.32	18666.73
483.68	18297.61
484.04	17953.10
484.40	17597.15
484.76	17241.23
485.12	16888.53
485.48	16584.26
485.84	16223.75
486.20	15868.90
486.56	15507.55
486.92	15185.04
487.28	14836.30
487.64	14496.13
488.00	14179.95
488.37	13862.74
488.73	13501.94
489.09	13143.16
489.45	12830.70
489.81	12503.61
490.17	12197.91
490.53	11919.18
490.89	11628.69
491.25	11325.31
491.61	11020.62
491.97	10705.33
492.33	10375.99
492.69	10069.50
493.05	9763.87
493.41	9473.83
493.77	9206.59
494.13	8962.24
494.49	8715.29
494.85	8475.81
495.21	8252.54
495.57	8026.87
495.93	7796.04
496.29	7592.23
496.64	7409.90
497.00	7210.56
497.36	7012.83
497.72	6830.32
498.08	6641.13
498.44	6453.11
498.80	6286.21
499.16	6117.01
499.52	5963.36
499.88	5835.56
500.24	5713.51
500.60	5588.90
500.96	5481.04
501.32	5365.37
501.68	5239.59
502.03	5109.72
502.39	4981.88
502.75	4840.79
503.11	4712.08
503.47	4590.56
503.83	4467.50
504.19	4346.59
504.55	4245.15
504.91	4149.84
505.26	4060.06
505.62	3982.40
505.98	3898.21
506.34	3808.40
506.70	3719.42
507.06	3620.53
507.42	3532.38
507.78	3450.77
508.13	3371.26
508.49	3293.79
508.85	3233.12
509.21	3161.08
509.57	3093.37
509.93	3031.23
510.28	2969.88
510.64	2899.06
511.00	2834.46
511.36	2774.21
511.72	2715.68
512.07	2664.58
512.43	2616.98
512.79	2567.52
513.15	2524.69
513.51	2478.25
513.86	2427.67
514.22	2384.87
514.58	2339.88
514.94	2296.84
515.30	2261.19
515.65	2223.16
516.01	2194.16
516.37	2168.20
516.73	2137.00
517.08	2110.93
517.44	2086.87
517.80	2053.52
518.16	2024.35
518.51	2000.01
518.87	1972.37
519.23	1945.90
519.59	1922.54
519.94	1894.52
520.30	1868.64
520.66	1840.48
521.01	1814.10
521.37	1786.67
521.73	1768.34
522.09	1750.18
522.44	1729.21
522.80	1707.87
523.16	1690.01
523.51	1667.28
523.87	1645.49
524.23	1626.25
524.58	1611.06
524.94	1594.51
525.30	1576.80
525.65	1561.28
526.01	1548.62
526.37	1536.84
526.72	1525.23
527.08	1516.20
527.44	1506.86
527.79	1489.52
528.15	1474.23
528.51	1457.31
528.86	1443.95
529.22	1428.62
529.58	1423.91
529.93	1412.79
530.29	1403.81
530.65	1395.87
531.00	1386.11
531.36	1375.84
531.71	1366.92
532.07	1360.48
532.43	1353.98
532.78	1343.33
533.14	1334.34
533.49	1328.09
533.85	1325.56
534.21	1314.12
534.56	1307.19
534.92	1300.78
535.27	1295.09
535.63	1284.60
535.98	1277.30
536.34	1278.00
536.69	1274.96
537.05	1267.77
537.41	1260.66
537.76	1255.86
538.12	1247.44
538.47	1239.78
538.83	1236.36
539.18	1234.28
539.54	1231.61
539.89	1227.54
540.25	1222.34
540.60	1219.04
540.96	1214.20
541.31	1209.75
541.67	1207.20
542.02	1207.88
542.38	1204.93
542.73	1200.67
543.09	1198.94
543.44	1197.25
543.80	1195.24
544.15	1192.46
544.51	1193.72
544.86	1192.22
545.22	1188.01
545.57	1183.12
545.93	1176.05
546.28	1171.67
546.64	1169.52
546.99	1165.03
547.35	1163.97
547.70	1167.60
548.05	1164.84
548.41	1159.99
548.76	1160.39
549.12	1157.09
549.47	1150.02
549.83	1147.49
550.18	1148.01
550.53	1148.48
550.89	1146.07
551.24	1145.06
551.60	1145.36
551.95	1144.48
552.30	1142.16
552.66	1141.15
553.01	1142.58
553.37	1140.33
553.72	1140.22
554.07	1138.25
554.43	1136.89
554.78	1134.06
555.13	1131.53
555.49	1126.01
555.84	1121.89
556.19	1118.66
556.55	1118.96
556.90	1118.38
557.26	1121.80
557.61	1120.63
557.96	1122.47
558.32	1122.75
558.67	1121.87
559.02	1120.77
559.37	1120.23
559.73	1121.23
560.08	1118.35
560.43	1118.75
560.79	1117.09
561.14	1118.50
561.49	1115.17
561.85	1113.25
562.20	1113.25
562.55	1111.97
562.90	1107.94
563.26	1108.62
563.61	1108.92
563.96	1109.39
564.32	1106.82
564.67	1111.29
565.02	1107.82
565.37	1109.18
565.73	1109.53
566.08	1109.11
566.43	1105.44
566.78	1107.56
567.14	1107.82
567.49	1103.66
567.84	1103.54
568.19	1100.50
568.54	1099.44
568.90	1096.70
569.25	1095.86
569.60	1094.72
569.95	1093.99
570.31	1094.11
570.66	1096.05
571.01	1098.09
571.36	1100.22
571.71	1102.53
572.06	1101.43
572.42	1098.60
572.77	1097.90
573.12	1095.35
573.47	1096.14
573.82	1095.63
574.18	1094.25
574.53	1092.52
574.88	1094.43
575.23	1094.39
575.58	1094.46
575.93	1096.89
576.28	1096.33
576.64	1093.43
576.99	1095.86
577.34	1097.64
577.69	1094.97
578.04	1097.66
578.39	1100.05
578.74	1098.67
579.09	1098.37
579.44	1099.35
579.80	1095.70
580.15	1098.46
580.50	1097.95
580.85	1098.02
581.20	1097.01
581.55	1097.38
581.90	1093.26
582.25	1090.36
582.60	1086.97
582.95	1088.54
583.30	1087.62
583.65	1088.98
584.00	1092.35
584.35	1092.94
584.71	1094.08
585.06	1098.25
585.41	1096.47
585.76	1093.12
586.11	1091.86
586.46	1089.92
586.81	1085.99
587.16	1086.50
587.51	1086.48
587.86	1089.96
588.21	1089.73
588.56	1089.43
588.91	1088.96
589.26	1089.29
589.61	1087.37
589.96	1090.90
590.31	1093.24
590.66	1094.65
591.01	1094.25
591.36	1091.32
591.71	1088.14
592.06	1089.22
592.41	1089.40
592.76	1088.54
593.10	1087.81
593.45	1089.24
593.80	1086.50
594.15	1086.13
594.50	1086.52
594.85	1088.14
595.20	1086.80
595.55	1088.65
595.90	1085.63
596.25	1085.21
596.60	1085.24
596.95	1084.14
597.30	1080.18
597.64	1090.83
597.99	1092.96
598.34	1093.10
598.69	1094.15
599.04	1095.21
599.39	1086.97
599.74	1087.04
600.09	1087.27
600.44	1087.02
600.78	1087.55
601.13	1086.15
601.48	1084.60
601.83	1083.97
602.18	1084.18
602.53	1085.68
602.88	1085.12
603.22	1086.29
603.57	1088.98
603.92	1086.94
604.27	1085.38
604.62	1085.80
604.97	1084.77
605.31	1083.39
605.66	1083.32
606.01	1085.70
606.36	1085.26
606.71	1083.34
607.05	1081.84
607.40	1081.26
607.75	1079.17
608.10	1078.68
608.44	1077.09
608.79	1080.37
609.14	1082.17
609.49	1083.20
609.84	1086.27
610.18	1088.28
610.53	1084.35
610.88	1081.40
611.23	1080.81
611.57	1079.76
611.92	1081.87
612.27	1083.22
612.62	1086.03
612.96	1086.92
613.31	1084.74
613.66	1085.96
614.00	1088.21
614.35	1084.04
614.70	1085.42
615.05	1086.43
615.39	1084.98
615.74	1082.12
616.09	1085.52
616.43	1080.56
616.78	1080.51
617.13	1079.64
617.47	1080.56
617.82	1080.27
618.17	1082.61
618.51	1084.00
618.86	1084.09
619.21	1083.13
619.55	1080.74
619.90	1079.55
620.25	1079.38
620.59	1081.28
620.94	1082.90
621.29	1081.49
621.63	1081.51
621.98	1078.85
622.32	1075.31
622.67	1077.23
623.02	1080.77
623.36	1082.12
623.71	1085.84
624.05	1087.37
624.40	1084.02
624.75	1086.69
625.09	1088.21
625.44	1087.39
625.78	1088.89
626.13	1090.27
626.48	1090.83
626.82	1089.29
627.17	1090.22
627.51	1087.58
627.86	1089.10
628.20	1086.62
628.55	1086.55
628.89	1081.87
629.24	1083.15
629.58	1081.73
629.93	1081.07
630.28	1079.53
630.62	1080.39
630.97	1078.43
631.31	1075.85
631.66	1075.45
632.00	1077.30
632.35	1077.09
632.69	1079.62
633.04	1080.79
633.38	1081.07
633.73	1080.20
634.07	1082.33
634.42	1079.71
634.76	1082.38
635.11	1082.38
635.45	1083.11
635.79	1080.86
636.14	1081.80
636.48	1080.20
636.83	1082.10
637.17	1080.88
637.52	1085.56
637.86	1086.76
638.21	1087.46
638.55	1088.28
638.89	1088.37
639.24	1084.09
639.58	1083.29
639.93	1081.77
640.27	1079.36
640.61	1083.13
640.96	1085.35
641.30	1086.20
641.65	1086.97
641.99	1087.97
642.33	1084.00
642.68	1082.90
643.02	1082.57
643.37	1080.81
643.71	1083.13
644.05	1083.34
644.40	1085.00
644.74	1086.36
645.08	1087.37
645.43	1083.90
645.77	1084.67
646.11	1086.17
646.46	1089.52
646.80	1088.75
647.14	1092.63
647.49	1093.36
647.83	1090.22
648.17	1086.71
648.52	1087.25
648.86	1085.96
649.20	1084.63
649.55	1081.54
649.89	1080.02
650.23	1083.71
650.57	1081.70
650.92	1084.04
651.26	1087.88
651.60	1088.23
651.95	1084.32
652.29	1084.96
652.63	1082.66
652.97	1082.26
653.32	1081.42
653.66	1082.83
654.00	1077.96
654.34	1076.06
654.69	1076.51
655.03	1079.62
655.37	1079.71
655.71	1083.22
656.05	1084.86
656.40	1084.96
656.74	1084.21
657.08	1083.76
657.42	1081.98
657.76	1080.81
658.11	1079.43
658.45	1076.72
658.79	1078.05
659.13	1079.74
659.47	1081.23
659.82	1085.07
660.16	1086.15
660.50	1085.63
660.84	1085.94
661.18	1088.35
661.52	1085.38
661.87	1085.40
662.21	1081.16
662.55	1083.90
662.89	1082.29
663.23	1083.25
663.57	1081.94
663.91	1085.89
664.25	1081.91
664.60	1081.21
664.94	1079.03
665.28	1080.67
665.62	1080.27
665.96	1081.21
666.30	1080.06
666.64	1079.48
666.98	1076.13
667.32	1072.92
667.66	1071.99
668.01	1073.04
668.35	1074.12
668.69	1077.35
669.03	1079.27
669.37	1079.41
669.71	1079.78
670.05	1081.54
670.39	1079.92
670.73	1080.04
671.07	1078.96
671.41	1081.12
671.75	1078.47
672.09	1081.80
672.43	1084.70
672.77	1087.93
673.11	1086.64
673.45	1087.65
673.79	1087.90
674.13	1086.99
674.47	1086.45
674.81	1087.09
675.15	1087.20
675.49	1084.65
675.83	1084.14
676.17	1084.32
676.51	1080.93
676.85	1077.82
677.19	1076.72
677.53	1076.46
677.87	1073.88
678.21	1075.41
678.55	1078.33
678.89	1075.90
679.23	1076.46
679.57	1077.75
679.90	1074.77
680.24	1078.12
680.58	1081.73
680.92	1083.18
681.26	1083.71
681.60	1088.09
681.94	1081.96
682.28	1081.75
682.62	1079.57
682.96	1080.48
683.29	1081.33
683.63	1083.53
683.97	1085.47
684.31	1086.03
684.65	1085.40
684.99	1086.27
685.33	1086.71
685.67	1079.88
686.00	1075.55
686.34	1075.97
686.68	1073.02
687.02	1071.47
687.36	1075.73
687.70	1077.72
688.03	1077.42
688.37	1073.88
688.71	1078.14
689.05	1076.55
689.39	1078.24
689.72	1075.78
690.06	1080.93
690.40	1076.90
690.74	1077.79
691.08	1077.35
691.41	1080.65
691.75	1077.65
692.09	1079.17
692.43	1080.39
692.76	1080.06
693.10	1079.08
693.44	1079.83
693.78	1080.86
694.11	1080.06
694.45	1079.43
694.79	1081.56
695.13	1082.87
695.46	1084.42
695.80	1084.46
696.14	1083.53
696.48	1082.69
696.81	1083.08
697.15	1081.63
697.49	1081.33
697.82	1081.09
698.16	1077.49
698.50	1075.55
698.83	1076.08
699.17	1077.84
699.51	1079.17
699.84	1080.27
700.18	1082.31
700.52	1082.45
700.85	1081.70
701.19	1082.90
701.53	1084.56
701.86	1082.64
702.20	1080.51
702.54	1080.37
702.87	1081.44
703.21	1080.63
703.55	1082.73
703.88	1084.79
704.22	1087.41
704.55	1084.51
704.89	1086.01
705.23	1082.54
705.56	1082.87
705.90	1080.79
706.23	1084.35
706.57	1085.94
706.91	1084.81
707.24	1083.93
707.58	1083.81
707.91	1083.95
708.25	1082.50
708.58	1083.18
708.92	1079.71
709.26	1078.31
709.59	1079.85
709.93	1078.68
710.26	1081.68
710.60	1087.86
710.93	1088.12
711.27	1080.16
711.60	1079.71
711.94	1079.41
712.27	1075.31
712.61	1076.13
712.94	1082.94
713.28	1085.19
713.61	1086.27
713.95	1085.94
714.28	1088.07
714.62	1083.71
714.95	1079.43
715.29	1078.66
715.62	1078.80
715.96	1076.46
716.29	1077.28
716.63	1077.02
716.96	1073.28
717.29	1073.98
717.63	1075.50
717.96	1076.65
718.30	1077.75
718.63	1080.41
718.97	1076.83
719.30	1074.38
719.63	1075.27
719.97	1074.52
720.30	1075.52
720.64	1078.71
720.97	1081.66
721.30	1080.18
721.64	1081.70
721.97	1082.15
722.31	1086.50
722.64	1083.18
722.97	1083.79
723.31	1082.87
723.64	1082.78
723.97	1082.36
724.31	1085.40
724.64	1085.77
724.98	1089.12
725.31	1087.72
725.64	1084.53
725.98	1083.15
726.31	1083.22
726.64	1078.89
726.97	1080.06
727.31	1078.96
727.64	1079.08
727.97	1077.14
728.31	1080.02
728.64	1082.15
728.97	1082.99
729.31	1082.40
729.64	1083.46
729.97	1080.67
730.30	1074.87
730.64	1070.19
730.97	1071.92
731.30	1070.21
731.63	1069.93
731.97	1072.78
732.30	1078.31
732.63	1077.84
732.96	1077.00
733.30	1078.99
733.63	1077.16
733.96	1077.93
734.29	1075.83
734.63	1077.63
734.96	1078.87
735.29	1079.64
735.62	1075.64
735.95	1077.56
736.29	1079.81
736.62	1075.08
736.95	1073.81
737.28	1072.08
737.61	1068.67
737.94	1067.75
738.28	1071.87
738.61	1074.80
738.94	1077.82
739.27	1080.44
739.60	1079.74
739.93	1078.21
740.27	1077.77
740.60	1079.67
740.93	1079.34
741.26	1077.86
741.59	1078.87
741.92	1079.55
742.25	1079.69
742.58	1081.47
742.91	1081.07
743.25	1078.71
743.58	1078.31
743.91	1076.79
744.24	1074.61
744.57	1074.89
744.90	1074.35
745.23	1072.69
745.56	1072.95
745.89	1074.21
746.22	1076.86
746.55	1078.43
746.88	1077.56
747.21	1077.86
747.54	1075.94
747.87	1074.35
748.20	1075.29
748.53	1079.97
748.87	1076.01
749.20	1080.95
749.53	1079.78
749.86	1079.38
750.19	1075.38
750.52	1079.57
750.85	1078.21
751.18	1083.18
751.51	1083.67
751.84	1084.25
752.16	1082.33
752.49	1078.50
752.82	1074.14
753.15	1072.60
753.48	1070.58
753.81	1070.12
754.14	1071.38
754.47	1073.07
754.80	1074.38
755.13	1076.93
755.46	1077.58
755.79	1079.43
756.12	1079.36
756.45	1080.23
756.78	1078.28
757.11	1077.07
757.43	1074.91
757.76	1074.94
758.09	1078.73
758.42	1081.07
758.75	1083.15
759.08	1083.20
759.41	1083.01
759.74	1080.23
760.07	1078.78
760.39	1080.18
760.72	1079.97
761.05	1077.89
761.38	1075.97
761.71	1079.74
762.04	1074.61
762.36	1075.90
762.69	1073.72
763.02	1073.28
763.35	1071.68
763.68	1073.18
764.01	1071.97
