SpectraSuite Data File
++++++++++++++++++++++++++++++++++++
Date: Mon Aug 26 10:21:58 PDT 2019
User: corrico
Dark Spectrum Present: No
Reference Spectrum Present: No
Number of Sampled Component Spectra: 1
Spectrometers: USB2+H06089
Integration Time (usec): 2000 (USB2+H06089)
Spectra Averaged: 20 (USB2+H06089)
Boxcar Smoothing: 2 (USB2+H06089)
Correct for Electrical Dark: No (USB2+H06089)
Strobe/Lamp Enabled: No (USB2+H06089)
Correct for Detector Non-linearity: No (USB2+H06089)
Correct for Stray Light: No (USB2+H06089)
Number of Pixels in Processed Spectrum: 2048
>>>>>Begin Processed Spectral Data<<<<<
339.70	1034.17
340.07	1034.17
340.45	993.81
340.82	968.86
341.19	943.07
341.57	917.72
341.94	907.17
342.31	899.94
342.69	895.37
343.06	894.97
343.43	893.64
343.81	894.97
344.18	901.71
344.55	908.62
344.93	910.98
345.30	915.50
345.67	924.04
346.04	928.77
346.42	933.15
346.79	942.98
347.16	951.97
347.54	959.97
347.91	968.16
348.28	978.88
348.65	987.19
349.03	996.37
349.40	1003.95
349.77	1012.35
350.14	1025.55
350.52	1034.47
350.89	1038.68
351.26	1044.49
351.63	1049.36
352.01	1047.88
352.38	1048.93
352.75	1055.68
353.12	1060.68
353.50	1066.14
353.87	1067.17
354.24	1069.93
354.61	1071.47
354.98	1076.15
355.36	1076.48
355.73	1081.96
356.10	1083.88
356.47	1084.72
356.84	1082.61
357.22	1080.53
357.59	1075.57
357.96	1076.04
358.33	1075.29
358.70	1072.97
359.08	1075.57
359.45	1081.56
359.82	1083.41
360.19	1082.38
360.56	1080.04
360.94	1078.66
361.31	1075.22
361.68	1072.74
362.05	1071.59
362.42	1075.45
362.79	1073.77
363.16	1073.81
363.54	1071.52
363.91	1070.89
364.28	1066.25
364.65	1065.58
365.02	1064.97
365.39	1062.79
365.76	1064.29
366.14	1069.93
366.51	1067.26
366.88	1066.68
367.25	1067.24
367.62	1065.39
367.99	1061.32
368.36	1063.66
368.73	1060.68
369.10	1061.81
369.48	1061.99
369.85	1062.14
370.22	1061.76
370.59	1065.74
370.96	1066.39
371.33	1068.83
371.70	1069.55
372.07	1072.36
372.44	1070.77
372.81	1069.44
373.18	1068.59
373.55	1069.98
373.93	1068.57
374.30	1067.35
374.67	1067.47
375.04	1068.67
375.41	1067.19
375.78	1067.68
376.15	1073.88
376.52	1076.11
376.89	1075.43
377.26	1076.30
377.63	1074.07
378.00	1068.67
378.37	1067.73
378.74	1064.55
379.11	1060.87
379.48	1063.56
379.85	1065.41
380.22	1067.33
380.59	1069.02
380.96	1073.84
381.33	1073.88
381.70	1073.60
382.07	1072.36
382.44	1073.98
382.81	1074.33
383.18	1074.10
383.55	1073.35
383.92	1074.68
384.29	1074.70
384.66	1071.54
385.03	1073.21
385.40	1075.80
385.77	1075.38
386.14	1076.18
386.51	1075.08
386.88	1074.54
387.25	1070.42
387.62	1069.48
387.99	1069.65
388.36	1070.68
388.73	1070.77
389.10	1072.60
389.46	1076.13
389.83	1076.13
390.20	1079.78
390.57	1080.51
390.94	1081.66
391.31	1081.73
391.68	1078.94
392.05	1075.15
392.42	1073.42
392.79	1071.57
393.16	1068.45
393.53	1068.59
393.89	1070.61
394.26	1072.90
394.63	1076.20
395.00	1078.59
395.37	1082.26
395.74	1085.56
396.11	1081.82
396.48	1079.99
396.84	1076.15
397.21	1075.10
397.58	1074.73
397.95	1076.93
398.32	1077.58
398.69	1079.81
399.06	1080.41
399.42	1075.64
399.79	1076.72
400.16	1080.93
400.53	1080.86
400.90	1079.38
401.27	1081.51
401.64	1082.54
402.00	1079.88
402.37	1084.44
402.74	1084.89
403.11	1083.81
403.48	1081.44
403.84	1079.46
404.21	1075.41
404.58	1075.10
404.95	1076.15
405.32	1076.13
405.68	1079.06
406.05	1082.17
406.42	1081.35
406.79	1081.07
407.16	1083.46
407.52	1081.00
407.89	1076.95
408.26	1079.06
408.63	1082.94
408.99	1084.81
409.36	1087.41
409.73	1085.52
410.10	1090.20
410.47	1086.50
410.83	1082.97
411.20	1082.64
411.57	1086.24
411.94	1079.71
412.30	1076.79
412.67	1077.77
413.04	1077.47
413.40	1076.60
413.77	1080.06
414.14	1083.36
414.51	1084.23
414.87	1085.14
415.24	1085.35
415.61	1083.64
415.97	1084.65
416.34	1082.78
416.71	1081.23
417.08	1082.94
417.44	1085.28
417.81	1083.22
418.18	1085.19
418.54	1084.60
418.91	1082.64
419.28	1081.42
419.64	1087.16
420.01	1091.23
420.38	1092.35
420.74	1093.52
421.11	1095.18
421.48	1096.24
421.84	1095.30
422.21	1097.15
422.58	1101.95
422.94	1104.24
423.31	1103.73
423.68	1105.53
424.04	1109.93
424.41	1108.88
424.77	1111.03
425.14	1112.64
425.51	1115.10
425.87	1116.60
426.24	1119.90
426.61	1122.94
426.97	1125.59
427.34	1127.55
427.70	1129.14
428.07	1131.88
428.44	1134.13
428.80	1141.22
429.17	1145.67
429.53	1152.60
429.90	1159.78
430.27	1168.58
430.63	1173.83
431.00	1178.69
431.36	1185.76
431.73	1194.42
432.09	1198.99
432.46	1203.29
432.83	1213.38
433.19	1225.39
433.56	1231.17
433.92	1242.99
434.29	1255.39
434.65	1268.38
435.02	1278.47
435.38	1295.39
435.75	1310.93
436.11	1330.71
436.48	1352.31
436.84	1371.32
437.21	1393.60
437.57	1414.06
437.94	1433.34
438.30	1453.68
438.67	1481.49
439.03	1503.37
439.40	1533.45
439.76	1566.24
440.13	1600.76
440.49	1640.88
440.86	1686.00
441.22	1727.25
441.59	1771.55
441.95	1821.50
442.32	1861.29
442.68	1911.56
443.05	1969.54
443.41	2027.82
443.78	2085.70
444.14	2153.18
444.51	2214.76
444.87	2285.23
445.24	2354.60
445.60	2431.93
445.96	2507.14
446.33	2608.48
446.69	2699.39
447.06	2800.71
447.42	2899.06
447.79	3011.29
448.15	3132.25
448.51	3253.49
448.88	3396.35
449.24	3533.39
449.61	3696.48
449.97	3846.11
450.33	4015.59
450.70	4171.63
451.06	4365.01
451.43	4533.92
451.79	4742.72
452.15	4959.57
452.52	5193.04
452.88	5431.42
453.24	5706.95
453.61	5999.33
453.97	6294.24
454.34	6589.01
454.70	6916.75
455.06	7240.40
455.43	7544.76
455.79	7854.79
456.15	8224.20
456.52	8570.25
456.88	8998.24
457.24	9433.30
457.61	9934.78
457.97	10392.94
458.33	10882.02
458.70	11366.41
459.06	11818.93
459.42	12313.65
459.79	12753.63
460.15	13265.99
460.51	13696.58
460.88	14178.50
461.24	14577.32
461.60	15071.72
461.96	15463.10
462.33	15849.55
462.69	16225.60
463.05	16661.41
463.42	17087.53
463.78	17472.26
464.14	17828.42
464.50	18208.17
464.87	18514.74
465.23	18664.56
465.59	18860.79
465.95	19010.67
466.32	19103.69
466.68	19155.69
467.04	19221.09
467.40	19217.04
467.77	19271.90
468.13	19231.78
468.49	19108.16
468.85	19002.93
469.22	18937.41
469.58	18793.94
469.94	18698.56
470.30	18586.26
470.66	18395.98
471.03	18118.60
471.39	17874.18
471.75	17488.69
472.11	17142.93
472.47	16898.39
472.84	16648.79
473.20	16335.51
473.56	16124.21
473.92	15804.35
474.28	15460.74
474.65	15154.59
475.01	14864.98
475.37	14544.23
475.73	14309.89
476.09	14064.02
476.45	13814.87
476.81	13572.65
477.18	13346.06
477.54	13159.66
477.90	12989.39
478.26	12777.36
478.62	12612.98
478.98	12499.70
479.34	12389.65
479.71	12238.68
480.07	12076.65
480.43	11894.42
480.79	11640.14
481.15	11376.71
481.51	11173.11
481.87	11014.12
482.23	10822.85
482.59	10652.34
482.96	10494.07
483.32	10307.65
483.68	10105.99
484.04	9930.42
484.40	9775.32
484.76	9612.49
485.12	9461.40
485.48	9344.00
485.84	9208.44
486.20	9055.53
486.56	8887.53
486.92	8727.72
487.28	8522.62
487.64	8332.45
488.00	8147.08
488.37	7971.40
488.73	7766.74
489.09	7570.93
489.45	7391.18
489.81	7210.89
490.17	7025.42
490.53	6852.57
490.89	6678.16
491.25	6484.38
491.61	6308.47
491.97	6129.77
492.33	5966.10
492.69	5816.63
493.05	5685.44
493.41	5558.00
493.77	5435.54
494.13	5311.78
494.49	5194.47
494.85	5086.05
495.21	4972.33
495.57	4872.60
495.93	4767.04
496.29	4649.61
496.64	4522.64
497.00	4406.48
497.36	4301.20
497.72	4202.31
498.08	4109.93
498.44	4030.22
498.80	3947.41
499.16	3848.26
499.52	3748.02
499.88	3661.70
500.24	3559.98
500.60	3466.43
500.96	3386.85
501.32	3318.18
501.68	3249.93
502.03	3196.80
502.39	3139.90
502.75	3086.09
503.11	3034.64
503.47	2982.94
503.83	2919.65
504.19	2870.43
504.55	2814.28
504.91	2753.99
505.26	2701.38
505.62	2656.70
505.98	2600.62
506.34	2543.16
506.70	2490.99
507.06	2440.64
507.42	2391.56
507.78	2343.23
508.13	2305.64
508.49	2266.50
508.85	2224.82
509.21	2187.70
509.57	2158.89
509.93	2126.38
510.28	2094.31
510.64	2061.73
511.00	2032.38
511.36	2002.02
511.72	1972.42
512.07	1945.92
512.43	1920.18
512.79	1891.64
513.15	1858.24
513.51	1831.52
513.86	1805.86
514.22	1782.88
514.58	1760.13
514.94	1742.32
515.30	1718.87
515.65	1696.07
516.01	1679.85
516.37	1662.04
516.73	1645.26
517.08	1634.12
517.44	1620.66
517.80	1601.16
518.16	1585.99
518.51	1570.90
518.87	1553.20
519.23	1540.05
519.59	1528.67
519.94	1516.15
520.30	1504.03
520.66	1488.60
521.01	1477.23
521.37	1467.73
521.73	1452.98
522.09	1439.57
522.44	1431.78
522.80	1420.03
523.16	1406.26
523.51	1395.36
523.87	1384.68
524.23	1372.51
524.58	1360.20
524.94	1348.10
525.30	1343.54
525.65	1340.47
526.01	1336.31
526.37	1331.60
526.72	1325.26
527.08	1313.67
527.44	1302.44
527.79	1291.39
528.15	1285.19
528.51	1279.45
528.86	1274.40
529.22	1268.10
529.58	1262.48
529.93	1255.30
530.29	1255.98
530.65	1250.90
531.00	1244.91
531.36	1241.44
531.71	1236.55
532.07	1228.80
532.43	1224.03
532.78	1220.12
533.14	1212.54
533.49	1205.66
533.85	1197.09
534.21	1194.12
534.56	1192.29
534.92	1191.45
535.27	1190.05
535.63	1190.70
535.98	1185.53
536.34	1182.13
536.69	1179.35
537.05	1178.11
537.41	1176.70
537.76	1175.91
538.12	1172.66
538.47	1169.17
538.83	1164.77
539.18	1159.34
539.54	1159.36
539.89	1156.86
540.25	1154.84
540.60	1149.72
540.96	1146.93
541.31	1145.39
541.67	1147.00
542.02	1146.75
542.38	1148.78
542.73	1145.90
543.09	1141.95
543.44	1134.81
543.80	1132.42
544.15	1133.38
544.51	1135.70
544.86	1132.52
545.22	1134.43
545.57	1132.05
545.93	1129.00
546.28	1126.52
546.64	1129.05
546.99	1127.53
547.35	1127.81
547.70	1124.25
548.05	1123.57
548.41	1119.76
548.76	1117.93
549.12	1117.21
549.47	1117.77
549.83	1118.96
550.18	1116.95
550.53	1116.72
550.89	1116.62
551.24	1111.82
551.60	1106.72
551.95	1107.40
552.30	1104.64
552.66	1103.63
553.01	1108.15
553.37	1109.11
553.72	1108.59
554.07	1107.75
554.43	1106.65
554.78	1103.59
555.13	1102.37
555.49	1101.67
555.84	1102.32
556.19	1100.29
556.55	1102.16
556.90	1103.35
557.26	1103.23
557.61	1102.98
557.96	1102.30
558.32	1100.59
558.67	1094.57
559.02	1092.61
559.37	1090.10
559.73	1087.51
560.08	1088.82
560.43	1089.82
560.79	1090.32
561.14	1094.57
561.49	1097.03
561.85	1096.52
562.20	1098.74
562.55	1096.92
562.90	1092.23
563.26	1092.91
563.61	1087.58
563.96	1087.93
564.32	1087.62
564.67	1092.19
565.02	1091.74
565.37	1096.03
565.73	1095.75
566.08	1097.31
566.43	1092.28
566.78	1090.71
567.14	1090.39
567.49	1088.51
567.84	1086.22
568.19	1088.19
568.54	1090.24
568.90	1087.16
569.25	1087.13
569.60	1089.26
569.95	1086.66
570.31	1086.50
570.66	1089.31
571.01	1087.76
571.36	1086.52
571.71	1086.52
572.06	1086.78
572.42	1084.11
572.77	1084.53
573.12	1084.16
573.47	1085.52
573.82	1086.66
574.18	1086.43
574.53	1088.14
574.88	1088.63
575.23	1089.19
575.58	1084.42
575.93	1083.83
576.28	1082.73
576.64	1083.25
576.99	1081.58
577.34	1085.03
577.69	1089.57
578.04	1088.84
578.39	1088.89
578.74	1089.89
579.09	1089.78
579.44	1085.68
579.80	1088.63
580.15	1086.73
580.50	1087.34
580.85	1085.47
581.20	1087.90
581.55	1088.51
581.90	1091.06
582.25	1086.83
582.60	1086.24
582.95	1086.01
583.30	1085.89
583.65	1083.15
584.00	1085.28
584.35	1086.62
584.71	1085.05
585.06	1080.65
585.41	1082.29
585.76	1082.54
586.11	1080.60
586.46	1081.49
586.81	1084.21
587.16	1082.90
587.51	1086.92
587.86	1088.65
588.21	1088.21
588.56	1085.49
588.91	1087.53
589.26	1079.85
589.61	1078.47
589.96	1078.07
590.31	1077.23
590.66	1072.62
591.01	1077.44
591.36	1079.78
591.71	1081.14
592.06	1084.72
592.41	1088.00
592.76	1086.22
593.10	1086.03
593.45	1084.02
593.80	1084.30
594.15	1084.04
594.50	1082.85
594.85	1080.41
595.20	1079.01
595.55	1078.43
595.90	1078.61
596.25	1079.31
596.60	1080.39
596.95	1084.09
597.30	1084.96
597.64	1095.30
597.99	1096.52
598.34	1091.81
598.69	1090.67
599.04	1087.65
599.39	1075.80
599.74	1075.83
600.09	1082.10
600.44	1084.72
600.78	1083.06
601.13	1083.41
601.48	1082.08
601.83	1079.41
602.18	1077.18
602.53	1078.57
602.88	1078.36
603.22	1080.06
603.57	1079.69
603.92	1078.00
604.27	1077.93
604.62	1077.35
604.97	1078.59
605.31	1082.76
605.66	1086.90
606.01	1084.11
606.36	1086.29
606.71	1085.61
607.05	1082.69
607.40	1079.55
607.75	1084.91
608.10	1086.36
608.44	1085.14
608.79	1085.10
609.14	1085.05
609.49	1084.60
609.84	1083.67
610.18	1079.20
610.53	1078.45
610.88	1078.96
611.23	1079.46
611.57	1077.23
611.92	1082.26
612.27	1078.12
612.62	1079.69
612.96	1076.20
613.31	1076.58
613.66	1078.40
614.00	1081.82
614.35	1079.95
614.70	1083.55
615.05	1084.46
615.39	1082.05
615.74	1084.81
616.09	1088.14
616.43	1085.05
616.78	1085.63
617.13	1088.37
617.47	1085.70
617.82	1081.05
618.17	1082.36
618.51	1082.01
618.86	1078.99
619.21	1079.71
619.55	1080.53
619.90	1080.74
620.25	1080.65
620.59	1081.47
620.94	1081.82
621.29	1080.81
621.63	1080.23
621.98	1078.82
622.32	1075.69
622.67	1074.54
623.02	1072.06
623.36	1073.79
623.71	1075.20
624.05	1075.66
624.40	1075.59
624.75	1081.33
625.09	1080.02
625.44	1080.51
625.78	1082.69
626.13	1086.34
626.48	1082.97
626.82	1082.83
627.17	1083.01
627.51	1080.60
627.86	1079.24
628.20	1079.57
628.55	1078.57
628.89	1077.89
629.24	1078.75
629.58	1075.41
629.93	1077.61
630.28	1079.48
630.62	1075.48
630.97	1075.85
631.31	1076.13
631.66	1074.54
632.00	1075.10
632.35	1080.27
632.69	1078.61
633.04	1079.57
633.38	1080.88
633.73	1081.00
634.07	1080.41
634.42	1084.23
634.76	1086.10
635.11	1085.61
635.45	1084.23
635.79	1081.66
636.14	1080.32
636.48	1077.89
636.83	1079.17
637.17	1080.13
637.52	1081.09
637.86	1082.29
638.21	1082.83
638.55	1079.15
638.89	1078.07
639.24	1079.24
639.58	1077.25
639.93	1076.72
640.27	1075.41
640.61	1072.78
640.96	1071.17
641.30	1070.51
641.65	1070.87
641.99	1071.66
642.33	1072.69
642.68	1071.15
643.02	1073.98
643.37	1074.47
643.71	1074.21
644.05	1073.67
644.40	1076.72
644.74	1076.25
645.08	1074.24
645.43	1075.24
645.77	1075.05
646.11	1072.74
646.46	1071.54
646.80	1074.98
647.14	1076.08
647.49	1076.65
647.83	1078.21
648.17	1079.46
648.52	1077.00
648.86	1078.87
649.20	1083.25
649.55	1081.40
649.89	1080.23
650.23	1079.17
650.57	1079.36
650.92	1080.18
651.26	1082.71
651.60	1083.22
651.95	1087.76
652.29	1085.28
652.63	1080.11
652.97	1077.98
653.32	1078.12
653.66	1075.48
654.00	1076.01
654.34	1078.03
654.69	1075.34
655.03	1072.43
655.37	1070.96
655.71	1071.75
656.05	1073.56
656.40	1078.75
656.74	1082.54
657.08	1085.14
657.42	1083.41
657.76	1078.54
658.11	1077.21
658.45	1074.61
658.79	1073.16
659.13	1071.99
659.47	1075.83
659.82	1078.24
660.16	1076.25
660.50	1077.33
660.84	1078.80
661.18	1076.81
661.52	1072.11
661.87	1072.97
662.21	1073.00
662.55	1070.75
662.89	1072.48
663.23	1077.70
663.57	1080.39
663.91	1078.36
664.25	1081.07
664.60	1082.92
664.94	1078.87
665.28	1082.47
665.62	1086.27
665.96	1089.26
666.30	1086.94
666.64	1089.80
666.98	1085.10
667.32	1083.83
667.66	1081.33
668.01	1080.25
668.35	1076.76
668.69	1077.40
669.03	1074.87
669.37	1074.84
669.71	1076.30
670.05	1078.64
670.39	1078.68
670.73	1078.31
671.07	1077.49
671.41	1076.06
671.75	1076.58
672.09	1075.62
672.43	1073.32
672.77	1071.90
673.11	1074.17
673.45	1073.16
673.79	1075.69
674.13	1077.75
674.47	1079.31
674.81	1072.81
675.15	1075.45
675.49	1073.93
675.83	1078.03
676.17	1080.11
676.51	1085.75
676.85	1085.28
677.19	1083.48
677.53	1081.02
677.87	1078.85
678.21	1078.38
678.55	1079.36
678.89	1082.17
679.23	1083.11
679.57	1084.86
679.90	1086.83
680.24	1080.06
680.58	1079.64
680.92	1075.87
681.26	1076.08
681.60	1076.25
681.94	1080.74
682.28	1079.27
682.62	1082.71
682.96	1081.96
683.29	1079.81
683.63	1079.27
683.97	1079.83
684.31	1082.59
684.65	1083.76
684.99	1084.81
685.33	1085.87
685.67	1086.76
686.00	1087.30
686.34	1089.17
686.68	1086.59
687.02	1085.26
687.36	1087.20
687.70	1083.08
688.03	1078.68
688.37	1079.15
688.71	1081.56
689.05	1080.74
689.39	1077.98
689.72	1079.88
690.06	1080.30
690.40	1076.79
690.74	1075.59
691.08	1075.76
691.41	1074.75
691.75	1078.00
692.09	1080.46
692.43	1081.94
692.76	1082.17
693.10	1081.35
693.44	1078.07
693.78	1075.85
694.11	1074.21
694.45	1074.70
694.79	1074.98
695.13	1076.13
695.46	1076.90
695.80	1077.91
696.14	1080.84
696.48	1081.30
696.81	1079.43
697.15	1076.97
697.49	1075.43
697.82	1073.53
698.16	1072.53
698.50	1072.62
698.83	1074.17
699.17	1074.45
699.51	1076.37
699.84	1077.79
700.18	1077.89
700.52	1076.46
700.85	1077.84
701.19	1079.69
701.53	1079.97
701.86	1079.95
702.20	1081.94
702.54	1080.44
702.87	1079.22
703.21	1077.51
703.55	1076.74
703.88	1077.72
704.22	1076.55
704.55	1076.39
704.89	1079.08
705.23	1080.16
705.56	1080.44
705.90	1082.31
706.23	1081.56
706.57	1080.37
706.91	1082.38
707.24	1081.26
707.58	1079.83
707.91	1080.30
708.25	1082.43
708.58	1079.74
708.92	1078.12
709.26	1076.81
709.59	1078.47
709.93	1073.42
710.26	1072.46
710.60	1075.31
710.93	1078.14
711.27	1075.94
711.60	1078.00
711.94	1082.08
712.27	1081.12
712.61	1080.04
712.94	1079.20
713.28	1078.50
713.61	1076.86
713.95	1076.20
714.28	1074.91
714.62	1075.62
714.95	1074.49
715.29	1075.59
715.62	1075.15
715.96	1076.34
716.29	1078.07
716.63	1080.63
716.96	1080.30
717.29	1081.49
717.63	1081.47
717.96	1079.81
718.30	1075.73
718.63	1072.88
718.97	1074.17
719.30	1074.75
719.63	1075.29
719.97	1079.85
720.30	1083.76
720.64	1083.27
720.97	1082.50
721.30	1082.19
721.64	1078.87
721.97	1073.00
722.31	1069.27
722.64	1068.15
722.97	1066.58
723.31	1068.97
723.64	1074.24
723.97	1075.05
724.31	1074.75
724.64	1075.24
724.98	1074.84
725.31	1075.36
725.64	1076.51
725.98	1079.22
726.31	1080.79
726.64	1082.69
726.97	1079.41
727.31	1079.88
727.64	1078.17
727.97	1074.63
728.31	1071.26
728.64	1071.40
728.97	1069.58
729.31	1069.72
729.64	1072.39
729.97	1072.69
730.30	1073.21
730.64	1077.89
730.97	1076.39
731.30	1076.67
731.63	1075.76
731.97	1077.18
732.30	1074.84
732.63	1077.21
732.96	1076.51
733.30	1075.29
733.63	1074.31
733.96	1072.97
734.29	1069.93
734.63	1069.41
734.96	1071.12
735.29	1071.97
735.62	1071.54
735.95	1072.48
736.29	1073.09
736.62	1075.57
736.95	1076.69
737.28	1081.02
737.61	1082.10
737.94	1083.27
738.28	1085.40
738.61	1084.98
738.94	1079.03
739.27	1076.81
739.60	1075.73
739.93	1072.62
740.27	1069.81
740.60	1073.58
740.93	1079.17
741.26	1080.04
741.59	1082.80
741.92	1084.39
742.25	1085.47
742.58	1079.76
742.91	1077.58
743.25	1076.69
743.58	1076.15
743.91	1073.72
744.24	1076.60
744.57	1075.10
744.90	1074.82
745.23	1074.45
745.56	1074.87
745.89	1073.65
746.22	1076.72
746.55	1075.15
746.88	1075.36
747.21	1078.03
747.54	1082.45
747.87	1083.13
748.20	1083.93
748.53	1084.35
748.87	1081.37
749.20	1078.17
749.53	1078.45
749.86	1076.95
750.19	1076.67
750.52	1077.84
750.85	1077.30
751.18	1074.54
751.51	1075.73
751.84	1077.16
752.16	1077.93
752.49	1077.65
752.82	1079.13
753.15	1077.42
753.48	1078.38
753.81	1077.23
754.14	1077.11
754.47	1074.80
754.80	1076.95
755.13	1074.21
755.46	1075.92
755.79	1076.55
756.12	1081.98
756.45	1081.35
756.78	1082.54
757.11	1082.59
757.43	1086.43
757.76	1082.78
758.09	1083.48
758.42	1081.66
758.75	1077.40
759.08	1072.57
759.41	1074.14
759.74	1072.85
760.07	1074.61
760.39	1077.25
760.72	1078.71
761.05	1079.85
761.38	1079.83
761.71	1077.21
762.04	1076.32
762.36	1077.02
762.69	1076.62
763.02	1077.68
763.35	1079.15
763.68	1079.90
764.01	1080.02
764.33	1079.41
764.66	1079.36
