SpectraSuite Data File
++++++++++++++++++++++++++++++++++++
Date: Mon Aug 26 10:22:12 PDT 2019
User: corrico
Dark Spectrum Present: No
Reference Spectrum Present: No
Number of Sampled Component Spectra: 1
Spectrometers: USB2+H06089
Integration Time (usec): 2000 (USB2+H06089)
Spectra Averaged: 20 (USB2+H06089)
Boxcar Smoothing: 2 (USB2+H06089)
Correct for Electrical Dark: No (USB2+H06089)
Strobe/Lamp Enabled: No (USB2+H06089)
Correct for Detector Non-linearity: No (USB2+H06089)
Correct for Stray Light: No (USB2+H06089)
Number of Pixels in Processed Spectrum: 2048
>>>>>Begin Processed Spectral Data<<<<<
339.70	1030.07
340.07	1030.07
340.45	992.79
340.82	970.78
341.19	945.16
341.57	919.29
341.94	907.40
342.31	902.21
342.69	899.51
343.06	896.73
343.43	895.68
343.81	898.74
344.18	899.94
344.55	898.67
344.93	908.06
345.30	915.69
345.67	922.73
346.04	929.17
346.42	939.28
346.79	941.74
347.16	951.40
347.54	959.50
347.91	969.36
348.28	983.10
348.65	995.10
349.03	1002.31
349.40	1012.05
349.77	1019.87
350.14	1024.20
350.52	1033.35
350.89	1038.99
351.26	1046.06
351.63	1051.60
352.01	1054.25
352.38	1058.09
352.75	1060.64
353.12	1061.46
353.50	1064.55
353.87	1068.90
354.24	1067.78
354.61	1071.59
354.98	1077.21
355.36	1077.07
355.73	1078.43
356.10	1082.05
356.47	1085.38
356.84	1085.77
357.22	1085.96
357.59	1086.73
357.96	1084.23
358.33	1081.37
358.70	1080.44
359.08	1080.53
359.45	1080.34
359.82	1083.64
360.19	1083.46
360.56	1081.75
360.94	1082.19
361.31	1078.59
361.68	1074.94
362.05	1072.34
362.42	1071.40
362.79	1073.98
363.16	1075.17
363.54	1076.62
363.91	1079.10
364.28	1079.06
364.65	1079.20
365.02	1082.90
365.39	1082.26
365.76	1081.19
366.14	1080.39
366.51	1076.95
366.88	1073.35
367.25	1071.82
367.62	1070.28
367.99	1074.03
368.36	1075.59
368.73	1075.36
369.10	1078.05
369.48	1081.68
369.85	1076.06
370.22	1074.82
370.59	1074.91
370.96	1074.49
371.33	1071.99
371.70	1076.27
372.07	1077.28
372.44	1077.54
372.81	1074.77
373.18	1075.15
373.55	1074.49
373.93	1074.42
374.30	1074.47
374.67	1076.37
375.04	1076.18
375.41	1075.27
375.78	1077.79
376.15	1079.99
376.52	1079.03
376.89	1082.36
377.26	1082.15
377.63	1080.27
378.00	1080.51
378.37	1081.35
378.74	1079.48
379.11	1080.41
379.48	1079.83
379.85	1079.27
380.22	1080.13
380.59	1077.33
380.96	1077.77
381.33	1077.18
381.70	1076.95
382.07	1073.35
382.44	1076.41
382.81	1078.87
383.18	1080.04
383.55	1079.06
383.92	1083.11
384.29	1083.62
384.66	1082.03
385.03	1080.09
385.40	1085.05
385.77	1085.84
386.14	1087.44
386.51	1087.39
386.88	1090.53
387.25	1083.55
387.62	1084.18
387.99	1080.98
388.36	1080.93
388.73	1081.16
389.10	1085.47
389.46	1086.36
389.83	1086.01
390.20	1084.44
390.57	1085.96
390.94	1084.25
391.31	1082.76
391.68	1087.09
392.05	1091.30
392.42	1089.61
392.79	1088.16
393.16	1091.58
393.53	1091.37
393.89	1090.41
394.26	1088.42
394.63	1091.42
395.00	1091.65
395.37	1089.64
395.74	1090.83
396.11	1095.37
396.48	1092.80
396.84	1089.82
397.21	1089.78
397.58	1086.03
397.95	1084.32
398.32	1086.94
398.69	1086.71
399.06	1088.96
399.42	1089.89
399.79	1088.96
400.16	1089.80
400.53	1088.14
400.90	1087.76
401.27	1090.76
401.64	1091.77
402.00	1091.25
402.37	1091.86
402.74	1091.23
403.11	1090.60
403.48	1090.88
403.84	1088.37
404.21	1091.86
404.58	1092.05
404.95	1091.49
405.32	1093.05
405.68	1100.29
406.05	1100.47
406.42	1098.86
406.79	1099.33
407.16	1097.76
407.52	1092.02
407.89	1093.29
408.26	1096.40
408.63	1097.22
408.99	1097.34
409.36	1098.58
409.73	1095.11
410.10	1094.22
410.47	1092.89
410.83	1094.25
411.20	1093.17
411.57	1096.52
411.94	1099.05
412.30	1100.36
412.67	1100.36
413.04	1102.02
413.40	1099.86
413.77	1098.27
414.14	1097.83
414.51	1099.40
414.87	1101.81
415.24	1103.28
415.61	1104.33
415.97	1105.48
416.34	1107.61
416.71	1106.30
417.08	1109.91
417.44	1109.37
417.81	1111.01
418.18	1108.74
418.54	1110.70
418.91	1107.96
419.28	1110.70
419.64	1110.63
420.01	1114.05
420.38	1118.31
420.74	1121.84
421.11	1124.30
421.48	1125.63
421.84	1127.48
422.21	1128.82
422.58	1130.60
422.94	1133.47
423.31	1139.21
423.68	1144.03
424.04	1147.52
424.41	1153.02
424.77	1156.04
425.14	1159.81
425.51	1161.19
425.87	1163.81
426.24	1166.59
426.61	1171.51
426.97	1179.98
427.34	1186.63
427.70	1191.78
428.07	1200.44
428.44	1210.36
428.80	1215.67
429.17	1223.98
429.53	1238.17
429.90	1251.77
430.27	1259.84
430.63	1271.52
431.00	1287.29
431.36	1301.22
431.73	1314.66
432.09	1334.50
432.46	1350.44
432.83	1369.10
433.19	1385.43
433.56	1408.02
433.92	1431.82
434.29	1459.46
434.65	1488.25
435.02	1523.55
435.38	1554.93
435.75	1586.44
436.11	1628.33
436.48	1666.32
436.84	1707.54
437.21	1752.31
437.57	1802.21
437.94	1851.08
438.30	1908.33
438.67	1965.00
439.03	2026.30
439.40	2095.72
439.76	2158.89
440.13	2230.60
440.49	2313.99
440.86	2393.29
441.22	2480.62
441.59	2577.82
441.95	2679.59
442.32	2777.02
442.68	2897.91
443.05	3020.06
443.41	3150.38
443.78	3275.79
444.14	3417.49
444.51	3553.85
444.87	3711.25
445.24	3873.42
445.60	4061.02
445.96	4248.33
446.33	4456.59
446.69	4654.09
447.06	4867.61
447.42	5081.58
447.79	5308.05
448.15	5573.45
448.51	5844.34
448.88	6166.02
449.24	6473.01
449.61	6824.74
449.97	7164.68
450.33	7552.14
450.70	7905.42
451.06	8325.71
451.43	8730.13
451.79	9190.25
452.15	9671.68
452.52	10213.77
452.88	10770.21
453.24	11398.27
453.61	12098.72
453.97	12802.61
454.34	13479.57
454.70	14277.06
455.06	15068.42
455.43	15828.88
455.79	16508.50
456.15	17304.80
456.52	18046.84
456.88	18944.83
457.24	19841.12
457.61	20950.81
457.97	22014.00
458.33	23115.34
458.70	24181.46
459.06	25173.12
459.42	26178.40
459.79	27082.25
460.15	28105.20
460.51	29066.81
460.88	30139.97
461.24	31098.32
461.60	32248.35
461.96	33309.99
462.33	34339.22
462.69	35364.44
463.05	36469.69
463.42	37465.42
463.78	38365.99
464.14	39110.59
464.50	39842.24
464.87	40390.02
465.23	40746.99
465.59	41162.49
465.95	41496.79
466.32	41744.84
466.68	41998.20
467.04	42138.33
467.40	42147.38
467.77	42254.70
468.13	42170.53
468.49	42002.04
468.85	41901.28
469.22	41747.97
469.58	41474.06
469.94	41310.71
470.30	41087.07
470.66	40696.63
471.03	40209.12
471.39	39839.83
471.75	39129.57
472.11	38405.59
472.47	37931.89
472.84	37398.18
473.20	36693.00
473.56	36302.01
473.92	35719.85
474.28	35088.12
474.65	34454.82
475.01	33768.87
475.37	32956.59
475.73	32308.73
476.09	31615.35
476.45	30982.86
476.81	30474.69
477.18	29938.75
477.54	29457.54
477.90	29011.38
478.26	28455.13
478.62	27925.19
478.98	27470.66
479.34	27037.59
479.71	26486.81
480.07	26034.25
480.43	25580.56
480.79	25124.36
481.15	24676.85
481.51	24310.84
481.87	24014.29
482.23	23661.93
482.59	23324.00
482.96	22986.87
483.32	22698.73
483.68	22288.43
484.04	21936.83
484.40	21520.17
484.76	21091.74
485.12	20613.85
485.48	20172.80
485.84	19699.38
486.20	19286.20
486.56	18860.53
486.92	18484.61
487.28	18114.32
487.64	17712.85
488.00	17323.24
488.37	16950.96
488.73	16532.89
489.09	16082.92
489.45	15659.19
489.81	15210.77
490.17	14770.72
490.53	14361.55
490.89	13959.17
491.25	13553.69
491.61	13160.25
491.97	12770.67
492.33	12367.67
492.69	12012.26
493.05	11675.34
493.41	11351.74
493.77	11026.33
494.13	10727.73
494.49	10436.21
494.85	10167.15
495.21	9900.84
495.57	9653.98
495.93	9391.94
496.29	9130.01
496.64	8895.63
497.00	8650.97
497.36	8386.42
497.72	8151.24
498.08	7929.27
498.44	7703.71
498.80	7499.12
499.16	7309.96
499.52	7116.35
499.88	6948.72
500.24	6770.98
500.60	6603.77
500.96	6447.05
501.32	6294.24
501.68	6122.09
502.03	5958.72
502.39	5797.39
502.75	5632.41
503.11	5479.05
503.47	5340.47
503.83	5203.06
504.19	5075.99
504.55	4961.94
504.91	4848.40
505.26	4736.10
505.62	4617.50
505.98	4506.37
506.34	4386.42
506.70	4267.64
507.06	4155.93
507.42	4057.81
507.78	3959.86
508.13	3866.07
508.49	3793.07
508.85	3715.86
509.21	3633.19
509.57	3554.83
509.93	3474.81
510.28	3378.87
510.64	3290.68
511.00	3211.96
511.36	3138.59
511.72	3074.18
512.07	3016.44
512.43	2958.39
512.79	2906.64
513.15	2846.75
513.51	2783.08
513.86	2724.90
514.22	2673.90
514.58	2614.99
514.94	2566.16
515.30	2518.58
515.65	2478.65
516.01	2441.93
516.37	2402.68
516.73	2362.16
517.08	2331.48
517.44	2290.92
517.80	2250.59
518.16	2216.53
518.51	2184.70
518.87	2149.10
519.23	2113.93
519.59	2081.44
519.94	2049.54
520.30	2020.96
520.66	1988.73
521.01	1966.35
521.37	1941.73
521.73	1917.48
522.09	1888.65
522.44	1863.30
522.80	1841.28
523.16	1816.19
523.51	1792.36
523.87	1771.18
524.23	1753.97
524.58	1731.39
524.94	1712.15
525.30	1695.79
525.65	1677.44
526.01	1662.55
526.37	1644.81
526.72	1627.68
527.08	1609.14
527.44	1589.90
527.79	1567.69
528.15	1548.03
528.51	1530.97
528.86	1517.09
529.22	1505.74
529.58	1492.16
529.93	1482.78
530.29	1471.89
530.65	1457.85
531.00	1446.69
531.36	1435.71
531.71	1424.33
532.07	1410.92
532.43	1403.08
532.78	1391.64
533.14	1382.98
533.49	1374.78
533.85	1370.36
534.21	1360.95
534.56	1353.20
534.92	1345.06
535.27	1338.74
535.63	1329.61
535.98	1322.12
536.34	1315.40
536.69	1311.26
537.05	1301.69
537.41	1294.18
537.76	1286.03
538.12	1276.32
538.47	1267.35
538.83	1262.06
539.18	1255.21
539.54	1249.00
539.89	1247.86
540.25	1246.43
540.60	1241.77
540.96	1236.69
541.31	1237.93
541.67	1236.67
542.02	1231.43
542.38	1231.33
542.73	1228.99
543.09	1227.70
543.44	1225.39
543.80	1219.77
544.15	1215.18
544.51	1214.81
544.86	1210.67
545.22	1202.31
545.57	1203.18
545.93	1196.51
546.28	1194.63
546.64	1189.86
546.99	1186.65
547.35	1182.65
547.70	1182.37
548.05	1179.14
548.41	1176.80
548.76	1174.25
549.12	1172.23
549.47	1171.20
549.83	1167.18
550.18	1164.42
550.53	1164.16
550.89	1161.96
551.24	1156.97
551.60	1155.36
551.95	1153.60
552.30	1153.28
552.66	1153.53
553.01	1151.47
553.37	1149.46
553.72	1146.79
554.07	1147.00
554.43	1145.97
554.78	1146.82
555.13	1144.69
555.49	1142.88
555.84	1141.34
556.19	1136.19
556.55	1135.96
556.90	1136.00
557.26	1135.58
557.61	1133.43
557.96	1134.01
558.32	1133.54
558.67	1131.09
559.02	1130.41
559.37	1128.70
559.73	1127.81
560.08	1125.17
560.43	1126.50
560.79	1124.09
561.14	1126.27
561.49	1126.15
561.85	1121.30
562.20	1119.22
562.55	1117.96
562.90	1116.48
563.26	1112.20
563.61	1117.96
563.96	1118.52
564.32	1117.77
564.67	1117.65
565.02	1119.01
565.37	1115.87
565.73	1113.02
566.08	1114.82
566.43	1112.20
566.78	1109.44
567.14	1105.86
567.49	1109.67
567.84	1108.83
568.19	1108.36
568.54	1112.36
568.90	1111.61
569.25	1105.01
569.60	1105.62
569.95	1100.94
570.31	1099.33
570.66	1100.54
571.01	1104.45
571.36	1101.81
571.71	1103.96
572.06	1103.59
572.42	1103.14
572.77	1102.39
573.12	1102.42
573.47	1102.44
573.82	1101.20
574.18	1102.39
574.53	1099.26
574.88	1097.45
575.23	1094.13
575.58	1095.65
575.93	1093.85
576.28	1096.14
576.64	1097.08
576.99	1100.22
577.34	1096.49
577.69	1098.04
578.04	1096.80
578.39	1093.90
578.74	1095.60
579.09	1095.98
579.44	1094.76
579.80	1094.60
580.15	1097.27
580.50	1094.72
580.85	1097.41
581.20	1098.34
581.55	1100.57
581.90	1101.39
582.25	1101.81
582.60	1097.17
582.95	1096.21
583.30	1091.77
583.65	1091.58
584.00	1091.44
584.35	1094.50
584.71	1093.33
585.06	1094.62
585.41	1092.94
585.76	1091.18
586.11	1091.58
586.46	1092.07
586.81	1091.70
587.16	1090.27
587.51	1090.29
587.86	1087.60
588.21	1087.37
588.56	1089.64
588.91	1091.23
589.26	1092.75
589.61	1095.07
589.96	1096.21
590.31	1096.33
590.66	1095.53
591.01	1093.40
591.36	1092.26
591.71	1094.29
592.06	1093.05
592.41	1092.49
592.76	1092.89
593.10	1092.80
593.45	1089.85
593.80	1089.64
594.15	1091.86
594.50	1093.83
594.85	1094.06
595.20	1093.40
595.55	1093.01
595.90	1092.42
596.25	1090.32
596.60	1091.44
596.95	1087.67
597.30	1085.80
597.64	1095.91
597.99	1098.02
598.34	1097.08
598.69	1098.04
599.04	1098.02
599.39	1085.96
599.74	1082.59
600.09	1079.88
600.44	1081.61
600.78	1083.18
601.13	1085.77
601.48	1089.00
601.83	1086.87
602.18	1087.95
602.53	1090.48
602.88	1091.06
603.22	1085.38
603.57	1089.12
603.92	1090.97
604.27	1087.23
604.62	1086.01
604.97	1093.43
605.31	1092.49
605.66	1091.32
606.01	1091.67
606.36	1091.49
606.71	1086.97
607.05	1087.48
607.40	1086.66
607.75	1086.34
608.10	1085.77
608.44	1085.66
608.79	1087.34
609.14	1087.97
609.49	1089.92
609.84	1088.28
610.18	1089.92
610.53	1088.89
610.88	1087.46
611.23	1086.64
611.57	1087.51
611.92	1085.61
612.27	1084.89
612.62	1086.29
612.96	1087.11
613.31	1086.36
613.66	1087.76
614.00	1088.61
614.35	1088.04
614.70	1085.96
615.05	1085.21
615.39	1082.45
615.74	1081.66
616.09	1080.34
616.43	1079.48
616.78	1081.02
617.13	1081.91
617.47	1081.37
617.82	1081.26
618.17	1081.21
618.51	1083.62
618.86	1084.35
619.21	1084.98
619.55	1084.44
619.90	1083.06
620.25	1081.33
620.59	1081.07
620.94	1082.29
621.29	1083.97
621.63	1087.41
621.98	1086.52
622.32	1084.07
622.67	1084.84
623.02	1084.39
623.36	1082.90
623.71	1080.72
624.05	1083.60
624.40	1082.15
624.75	1079.60
625.09	1080.25
625.44	1083.76
625.78	1082.19
626.13	1083.57
626.48	1085.26
626.82	1083.79
627.17	1084.77
627.51	1085.35
627.86	1082.36
628.20	1082.73
628.55	1084.91
628.89	1081.16
629.24	1082.24
629.58	1082.01
629.93	1083.15
630.28	1085.68
630.62	1087.86
630.97	1090.55
631.31	1091.46
631.66	1092.12
632.00	1089.85
632.35	1087.25
632.69	1086.27
633.04	1085.75
633.38	1083.13
633.73	1081.23
634.07	1082.29
634.42	1080.65
634.76	1082.61
635.11	1085.84
635.45	1088.89
635.79	1093.76
636.14	1093.78
636.48	1087.97
636.83	1085.49
637.17	1083.83
637.52	1079.83
637.86	1079.41
638.21	1082.36
638.55	1081.56
638.89	1079.85
639.24	1078.87
639.58	1078.26
639.93	1078.40
640.27	1077.68
640.61	1081.33
640.96	1083.41
641.30	1083.62
641.65	1081.54
641.99	1084.70
642.33	1081.70
642.68	1082.12
643.02	1084.67
643.37	1086.13
643.71	1085.10
644.05	1086.15
644.40	1086.97
644.74	1086.52
645.08	1087.44
645.43	1087.51
645.77	1084.39
646.11	1080.67
646.46	1078.19
646.80	1079.67
647.14	1079.85
647.49	1082.52
647.83	1085.45
648.17	1087.02
648.52	1087.06
648.86	1087.97
649.20	1087.30
649.55	1086.97
649.89	1087.62
650.23	1086.76
650.57	1084.30
650.92	1079.83
651.26	1075.41
651.60	1070.47
651.95	1069.34
652.29	1072.74
652.63	1079.64
652.97	1081.16
653.32	1084.60
653.66	1086.57
654.00	1085.45
654.34	1084.21
654.69	1087.25
655.03	1084.70
655.37	1083.15
655.71	1082.71
656.05	1081.70
656.40	1080.37
656.74	1083.48
657.08	1083.53
657.42	1080.37
657.76	1076.62
658.11	1075.38
658.45	1075.66
658.79	1077.30
659.13	1079.46
659.47	1083.39
659.82	1083.60
660.16	1081.84
660.50	1080.86
660.84	1080.48
661.18	1081.73
661.52	1081.75
661.87	1083.11
662.21	1083.50
662.55	1086.01
662.89	1081.94
663.23	1081.37
663.57	1078.03
663.91	1077.82
664.25	1075.59
664.60	1078.66
664.94	1079.85
665.28	1081.26
665.62	1082.50
665.96	1080.86
666.30	1079.76
666.64	1079.48
666.98	1079.50
667.32	1075.66
667.66	1080.27
668.01	1083.13
668.35	1083.95
668.69	1084.32
669.03	1087.06
669.37	1083.06
669.71	1080.58
670.05	1079.13
670.39	1080.77
670.73	1082.52
671.07	1082.92
671.41	1085.26
671.75	1086.36
672.09	1085.21
672.43	1083.69
672.77	1082.99
673.11	1081.75
673.45	1082.61
673.79	1084.77
674.13	1081.37
674.47	1081.98
674.81	1081.42
675.15	1080.72
675.49	1077.18
675.83	1078.31
676.17	1080.18
676.51	1080.16
676.85	1080.37
677.19	1082.73
677.53	1083.69
677.87	1081.98
678.21	1082.78
678.55	1085.61
678.89	1084.89
679.23	1085.70
679.57	1088.16
679.90	1088.12
680.24	1086.48
680.58	1087.67
680.92	1087.74
681.26	1087.67
681.60	1086.73
681.94	1083.11
682.28	1083.90
682.62	1083.39
682.96	1080.86
683.29	1081.66
683.63	1082.17
683.97	1077.40
684.31	1076.72
684.65	1078.61
684.99	1079.34
685.33	1080.93
685.67	1083.71
686.00	1085.33
686.34	1085.00
686.68	1084.04
687.02	1081.84
687.36	1081.14
687.70	1080.63
688.03	1078.99
688.37	1078.68
688.71	1079.27
689.05	1083.08
689.39	1082.87
689.72	1083.83
690.06	1085.00
690.40	1085.96
690.74	1083.46
691.08	1085.31
691.41	1086.55
691.75	1084.86
692.09	1086.41
692.43	1084.53
692.76	1082.59
693.10	1082.66
693.44	1084.18
693.78	1081.58
694.11	1081.82
694.45	1082.22
694.79	1081.40
695.13	1078.07
695.46	1077.23
695.80	1079.24
696.14	1077.65
696.48	1078.50
696.81	1076.76
697.15	1078.33
697.49	1076.60
697.82	1076.15
698.16	1076.30
698.50	1081.47
698.83	1085.05
699.17	1087.11
699.51	1087.48
699.84	1087.51
700.18	1090.22
700.52	1089.31
700.85	1086.94
701.19	1091.04
701.53	1090.83
701.86	1086.71
702.20	1081.30
702.54	1085.38
702.87	1084.67
703.21	1083.86
703.55	1084.37
703.88	1088.16
704.22	1084.02
704.55	1081.98
704.89	1081.44
705.23	1082.64
705.56	1081.61
705.90	1082.12
706.23	1080.74
706.57	1082.73
706.91	1083.08
707.24	1084.72
707.58	1088.91
707.91	1089.10
708.25	1086.36
708.58	1085.66
708.92	1083.48
709.26	1079.99
709.59	1080.63
709.93	1081.26
710.26	1081.07
710.60	1082.59
710.93	1084.23
711.27	1084.28
711.60	1084.16
711.94	1082.92
712.27	1081.49
712.61	1079.99
712.94	1078.03
713.28	1077.40
713.61	1077.09
713.95	1078.52
714.28	1079.74
714.62	1081.77
714.95	1080.95
715.29	1082.80
715.62	1082.73
715.96	1080.63
716.29	1083.27
716.63	1085.17
716.96	1082.83
717.29	1082.71
717.63	1081.73
717.96	1077.61
718.30	1077.14
718.63	1074.91
718.97	1075.71
719.30	1078.07
719.63	1078.89
719.97	1075.97
720.30	1077.44
720.64	1080.51
720.97	1081.82
721.30	1080.20
721.64	1082.38
721.97	1084.35
722.31	1079.41
722.64	1082.22
722.97	1084.23
723.31	1085.56
723.64	1084.30
723.97	1087.11
724.31	1084.89
724.64	1084.74
724.98	1085.75
725.31	1085.82
725.64	1083.55
725.98	1079.64
726.31	1079.48
726.64	1077.98
726.97	1076.39
727.31	1078.07
727.64	1076.83
727.97	1076.67
728.31	1080.65
728.64	1081.21
728.97	1079.20
729.31	1079.88
729.64	1080.13
729.97	1077.18
730.30	1079.76
730.64	1079.38
730.97	1081.28
731.30	1084.25
731.63	1081.61
731.97	1081.77
732.30	1082.78
732.63	1080.74
732.96	1077.02
733.30	1078.57
733.63	1077.51
733.96	1077.47
734.29	1081.42
734.63	1082.83
734.96	1084.39
735.29	1081.68
735.62	1082.05
735.95	1079.38
736.29	1079.46
736.62	1078.36
736.95	1083.81
737.28	1085.35
737.61	1085.17
737.94	1081.61
738.28	1081.84
738.61	1079.20
738.94	1075.45
739.27	1074.21
739.60	1077.58
739.93	1076.79
740.27	1075.22
740.60	1078.00
740.93	1082.29
741.26	1079.50
741.59	1075.59
741.92	1076.62
742.25	1075.71
742.58	1076.25
742.91	1081.47
743.25	1091.32
743.58	1093.59
743.91	1093.05
744.24	1088.51
744.57	1085.56
744.90	1078.92
745.23	1076.51
745.56	1078.96
745.89	1079.10
746.22	1075.43
746.55	1075.62
746.88	1073.44
747.21	1071.01
747.54	1070.61
747.87	1074.35
748.20	1075.29
748.53	1078.00
748.87	1078.45
749.20	1079.03
749.53	1078.33
749.86	1078.64
750.19	1079.92
750.52	1078.43
750.85	1078.10
751.18	1078.45
751.51	1079.20
751.84	1075.83
752.16	1075.24
752.49	1081.21
752.82	1084.67
753.15	1084.63
753.48	1086.50
753.81	1088.00
754.14	1084.28
754.47	1081.96
754.80	1081.96
755.13	1083.64
755.46	1085.42
755.79	1087.86
756.12	1090.01
756.45	1088.42
756.78	1086.55
757.11	1083.71
757.43	1082.15
757.76	1080.11
758.09	1081.73
758.42	1080.95
758.75	1084.09
759.08	1081.63
759.41	1077.84
759.74	1077.42
760.07	1075.76
760.39	1074.61
760.72	1076.55
761.05	1077.72
761.38	1076.65
761.71	1077.84
762.04	1080.27
762.36	1080.39
762.69	1082.19
763.02	1083.15
763.35	1084.09
763.68	1079.88
