SpectraSuite Data File
++++++++++++++++++++++++++++++++++++
Date: Mon Aug 26 10:22:09 PDT 2019
User: corrico
Dark Spectrum Present: No
Reference Spectrum Present: No
Number of Sampled Component Spectra: 1
Spectrometers: USB2+H06089
Integration Time (usec): 2000 (USB2+H06089)
Spectra Averaged: 20 (USB2+H06089)
Boxcar Smoothing: 2 (USB2+H06089)
Correct for Electrical Dark: No (USB2+H06089)
Strobe/Lamp Enabled: No (USB2+H06089)
Correct for Detector Non-linearity: No (USB2+H06089)
Correct for Stray Light: No (USB2+H06089)
Number of Pixels in Processed Spectrum: 2048
>>>>>Begin Processed Spectral Data<<<<<
339.70	1038.38
340.07	1038.38
340.45	999.32
340.82	976.78
341.19	951.64
341.57	924.56
341.94	912.11
342.31	904.64
342.69	896.14
343.06	891.81
343.43	890.29
343.81	893.20
344.18	894.60
344.55	900.66
344.93	906.26
345.30	912.08
345.67	916.72
346.04	927.41
346.42	933.99
346.79	941.50
347.16	950.94
347.54	963.72
347.91	972.19
348.28	982.32
348.65	992.50
349.03	1002.50
349.40	1008.51
349.77	1017.99
350.14	1025.95
350.52	1032.11
350.89	1040.88
351.26	1049.15
351.63	1052.19
352.01	1058.32
352.38	1064.64
352.75	1065.58
353.12	1068.22
353.50	1076.15
353.87	1078.64
354.24	1080.58
354.61	1082.47
354.98	1081.87
355.36	1078.45
355.73	1077.68
356.10	1077.96
356.47	1079.76
356.84	1082.19
357.22	1085.66
357.59	1086.55
357.96	1085.84
358.33	1085.96
358.70	1085.35
359.08	1083.25
359.45	1081.26
359.82	1083.55
360.19	1081.96
360.56	1079.69
360.94	1080.48
361.31	1080.44
361.68	1078.45
362.05	1074.26
362.42	1076.25
362.79	1073.77
363.16	1073.16
363.54	1075.29
363.91	1076.58
364.28	1077.44
364.65	1075.45
365.02	1078.78
365.39	1074.68
365.76	1078.71
366.14	1076.37
366.51	1080.16
366.88	1077.44
367.25	1079.41
367.62	1074.82
367.99	1073.95
368.36	1071.26
368.73	1070.23
369.10	1070.26
369.48	1072.97
369.85	1073.07
370.22	1072.43
370.59	1074.47
370.96	1073.63
371.33	1073.44
371.70	1073.21
372.07	1075.85
372.44	1078.38
372.81	1079.99
373.18	1077.93
373.55	1077.79
373.93	1077.93
374.30	1073.09
374.67	1071.99
375.04	1075.36
375.41	1077.91
375.78	1078.36
376.15	1079.24
376.52	1079.74
376.89	1078.94
377.26	1075.69
377.63	1076.04
378.00	1077.79
378.37	1076.69
378.74	1077.14
379.11	1079.74
379.48	1079.81
379.85	1080.34
380.22	1081.70
380.59	1083.95
380.96	1083.04
381.33	1081.16
381.70	1081.80
382.07	1082.24
382.44	1079.83
382.81	1083.32
383.18	1085.59
383.55	1086.62
383.92	1086.17
384.29	1089.07
384.66	1087.18
385.03	1086.20
385.40	1084.70
385.77	1086.71
386.14	1084.86
386.51	1085.59
386.88	1084.93
387.25	1086.34
387.62	1082.59
387.99	1078.52
388.36	1077.09
388.73	1082.78
389.10	1082.99
389.46	1085.21
389.83	1088.40
390.20	1089.40
390.57	1085.91
390.94	1086.57
391.31	1086.66
391.68	1089.61
392.05	1086.52
392.42	1087.16
392.79	1084.53
393.16	1085.47
393.53	1083.06
393.89	1085.94
394.26	1084.84
394.63	1085.70
395.00	1086.76
395.37	1087.20
395.74	1084.86
396.11	1085.56
396.48	1084.81
396.84	1082.94
397.21	1082.19
397.58	1084.42
397.95	1083.08
398.32	1085.28
398.69	1084.98
399.06	1088.70
399.42	1088.02
399.79	1087.55
400.16	1088.98
400.53	1092.45
400.90	1089.19
401.27	1092.75
401.64	1096.66
402.00	1097.03
402.37	1097.80
402.74	1099.21
403.11	1093.40
403.48	1091.56
403.84	1089.47
404.21	1086.31
404.58	1087.32
404.95	1091.53
405.32	1094.62
405.68	1098.02
406.05	1095.79
406.42	1095.79
406.79	1095.04
407.16	1089.00
407.52	1086.06
407.89	1088.40
408.26	1089.17
408.63	1091.37
408.99	1095.65
409.36	1095.63
409.73	1097.03
410.10	1095.44
410.47	1093.85
410.83	1091.86
411.20	1094.43
411.57	1096.42
411.94	1099.05
412.30	1101.99
412.67	1105.60
413.04	1105.95
413.40	1101.99
413.77	1096.35
414.14	1096.19
414.51	1096.00
414.87	1097.57
415.24	1100.50
415.61	1105.67
415.97	1106.72
416.34	1106.49
416.71	1105.46
417.08	1108.06
417.44	1109.32
417.81	1107.52
418.18	1106.82
418.54	1108.85
418.91	1107.56
419.28	1107.00
419.64	1114.56
420.01	1119.81
420.38	1121.44
420.74	1124.51
421.11	1125.98
421.48	1122.10
421.84	1124.46
422.21	1125.54
422.58	1127.55
422.94	1132.73
423.31	1134.88
423.68	1136.49
424.04	1138.48
424.41	1143.54
424.77	1148.31
425.14	1152.78
425.51	1156.44
425.87	1162.01
426.24	1165.87
426.61	1169.64
426.97	1180.33
427.34	1188.29
427.70	1195.17
428.07	1205.49
428.44	1216.75
428.80	1220.92
429.17	1226.79
429.53	1237.70
429.90	1245.19
430.27	1254.90
430.63	1270.56
431.00	1287.65
431.36	1302.77
431.73	1320.16
432.09	1336.05
432.46	1351.68
432.83	1370.50
433.19	1389.76
433.56	1413.59
433.92	1440.74
434.29	1466.67
434.65	1493.94
435.02	1524.06
435.38	1554.35
435.75	1586.32
436.11	1629.32
436.48	1669.74
436.84	1714.23
437.21	1761.07
437.57	1803.99
437.94	1848.51
438.30	1905.38
438.67	1957.34
439.03	2018.01
439.40	2092.79
439.76	2165.35
440.13	2237.95
440.49	2323.85
440.86	2402.75
441.22	2491.78
441.59	2580.46
441.95	2681.41
442.32	2788.05
442.68	2910.48
443.05	3028.68
443.41	3156.66
443.78	3290.02
444.14	3422.45
444.51	3552.14
444.87	3719.49
445.24	3885.85
445.60	4071.20
445.96	4260.10
446.33	4478.08
446.69	4677.49
447.06	4896.28
447.42	5114.07
447.79	5351.19
448.15	5619.42
448.51	5895.08
448.88	6214.59
449.24	6516.61
449.61	6865.03
449.97	7222.52
450.33	7603.28
450.70	7969.08
451.06	8409.64
451.43	8817.62
451.79	9276.27
452.15	9776.51
452.52	10310.25
452.88	10865.54
453.24	11506.10
453.61	12207.30
453.97	12897.62
454.34	13603.33
454.70	14413.42
455.06	15224.95
455.43	15987.64
455.79	16693.31
456.15	17509.41
456.52	18253.53
456.88	19161.69
457.24	20066.75
457.61	21194.44
457.97	22259.31
458.33	23371.65
458.70	24440.95
459.06	25445.44
459.42	26462.31
459.79	27393.02
460.15	28450.26
460.51	29421.17
460.88	30533.15
461.24	31523.86
461.60	32677.18
461.96	33727.26
462.33	34771.47
462.69	35819.84
463.05	36938.92
463.42	37958.78
463.78	38877.96
464.14	39631.28
464.50	40348.71
464.87	40883.42
465.23	41226.57
465.59	41631.97
465.95	41954.17
466.32	42227.85
466.68	42449.06
467.04	42596.46
467.40	42647.93
467.77	42777.76
468.13	42651.11
468.49	42501.16
468.85	42403.18
469.22	42255.96
469.58	41996.65
469.94	41842.90
470.30	41614.89
470.66	41232.84
471.03	40725.27
471.39	40359.68
471.75	39660.07
472.11	38965.40
472.47	38490.58
472.84	37973.60
473.20	37246.84
473.56	36862.69
473.92	36305.92
474.28	35661.39
474.65	34995.25
475.01	34314.59
475.37	33478.48
475.73	32774.31
476.09	32081.63
476.45	31432.48
476.81	30881.22
477.18	30318.62
477.54	29838.58
477.90	29364.17
478.26	28785.78
478.62	28266.28
478.98	27822.25
479.34	27364.70
479.71	26797.78
480.07	26360.33
480.43	25916.40
480.79	25442.26
481.15	24977.38
481.51	24632.90
481.87	24314.73
482.23	23945.34
482.59	23613.36
482.96	23304.39
483.32	22966.93
483.68	22565.50
484.04	22223.06
484.40	21814.99
484.76	21369.40
485.12	20914.61
485.48	20489.14
485.84	19983.03
486.20	19556.65
486.56	19124.56
486.92	18742.54
487.28	18335.64
487.64	17943.93
488.00	17550.18
488.37	17160.53
488.73	16726.01
489.09	16269.56
489.45	15848.61
489.81	15385.89
490.17	14932.20
490.53	14528.76
490.89	14129.74
491.25	13699.48
491.61	13313.11
491.97	12916.69
492.33	12506.63
492.69	12144.48
493.05	11811.16
493.41	11477.80
493.77	11158.74
494.13	10852.32
494.49	10551.25
494.85	10266.76
495.21	9991.16
495.57	9744.87
495.93	9490.33
496.29	9240.01
496.64	9009.14
497.00	8760.79
497.36	8498.74
497.72	8257.08
498.08	8030.89
498.44	7805.36
498.80	7601.57
499.16	7406.06
499.52	7209.01
499.88	7027.86
500.24	6850.42
500.60	6678.88
500.96	6525.27
501.32	6365.04
501.68	6194.72
502.03	6011.62
502.39	5848.74
502.75	5675.38
503.11	5512.50
503.47	5372.16
503.83	5241.14
504.19	5110.91
504.55	4990.30
504.91	4889.54
505.26	4770.04
505.62	4663.24
505.98	4552.95
506.34	4436.42
506.70	4313.19
507.06	4207.02
507.42	4098.16
507.78	3998.57
508.13	3907.78
508.49	3828.11
508.85	3746.43
509.21	3661.84
509.57	3585.07
509.93	3502.17
510.28	3413.95
510.64	3328.78
511.00	3259.13
511.36	3184.77
511.72	3118.41
512.07	3056.25
512.43	2993.24
512.79	2928.01
513.15	2863.18
513.51	2803.05
513.86	2743.93
514.22	2696.53
514.58	2643.96
514.94	2596.29
515.30	2550.04
515.65	2505.10
516.01	2461.00
516.37	2421.40
516.73	2384.07
517.08	2345.54
517.44	2307.86
517.80	2267.35
518.16	2228.52
518.51	2191.63
518.87	2156.92
519.23	2127.08
519.59	2099.60
519.94	2070.41
520.30	2039.00
520.66	2007.27
521.01	1974.01
521.37	1944.73
521.73	1916.71
522.09	1890.54
522.44	1868.94
522.80	1847.90
523.16	1826.62
523.51	1806.21
523.87	1785.41
524.23	1763.69
524.58	1742.22
524.94	1720.34
525.30	1698.71
525.65	1679.19
526.01	1661.03
526.37	1643.57
526.72	1624.78
527.08	1609.70
527.44	1596.57
527.79	1579.49
528.15	1563.59
528.51	1551.38
528.86	1539.49
529.22	1523.57
529.58	1511.10
529.93	1498.15
530.29	1482.45
530.65	1467.33
531.00	1456.33
531.36	1447.25
531.71	1435.59
532.07	1425.18
532.43	1413.85
532.78	1397.98
533.14	1388.20
533.49	1381.29
533.85	1375.30
534.21	1367.55
534.56	1362.10
534.92	1352.50
535.27	1340.75
535.63	1331.72
535.98	1323.81
536.34	1316.41
536.69	1311.38
537.05	1305.32
537.41	1298.32
537.76	1293.47
538.12	1286.19
538.47	1277.98
538.83	1273.30
539.18	1269.41
539.54	1262.79
539.89	1261.97
540.25	1259.82
540.60	1256.28
540.96	1252.05
541.31	1245.40
541.67	1239.48
542.02	1232.13
542.38	1223.98
542.73	1219.89
543.09	1217.80
543.44	1212.56
543.80	1210.03
544.15	1212.26
544.51	1209.24
544.86	1205.47
545.22	1206.24
545.57	1203.90
545.93	1198.12
546.28	1194.70
546.64	1192.55
546.99	1186.16
547.35	1183.77
547.70	1181.74
548.05	1178.39
548.41	1177.06
548.76	1174.88
549.12	1172.44
549.47	1169.99
549.83	1165.52
550.18	1162.87
550.53	1162.22
550.89	1158.40
551.24	1155.41
551.60	1156.62
551.95	1158.52
552.30	1153.58
552.66	1154.05
553.01	1151.73
553.37	1148.15
553.72	1141.41
554.07	1142.37
554.43	1139.44
554.78	1141.83
555.13	1140.36
555.49	1140.03
555.84	1136.89
556.19	1134.67
556.55	1131.49
556.90	1130.34
557.26	1128.30
557.61	1131.88
557.96	1132.96
558.32	1128.44
558.67	1128.98
559.02	1127.32
559.37	1120.55
559.73	1117.79
560.08	1121.26
560.43	1120.30
560.79	1118.47
561.14	1117.70
561.49	1115.83
561.85	1115.20
562.20	1111.03
562.55	1112.55
562.90	1114.00
563.26	1115.29
563.61	1111.99
563.96	1115.83
564.32	1114.59
564.67	1114.91
565.02	1115.36
565.37	1116.06
565.73	1113.86
566.08	1113.28
566.43	1109.95
566.78	1107.52
567.14	1101.46
567.49	1100.24
567.84	1099.00
568.19	1101.50
568.54	1099.89
568.90	1104.08
569.25	1101.41
569.60	1101.34
569.95	1099.98
570.31	1101.92
570.66	1101.76
571.01	1101.74
571.36	1102.72
571.71	1103.19
572.06	1102.23
572.42	1100.57
572.77	1100.92
573.12	1099.77
573.47	1095.04
573.82	1094.22
574.18	1095.21
574.53	1098.48
574.88	1098.51
575.23	1100.73
575.58	1102.32
575.93	1099.72
576.28	1096.92
576.64	1097.10
576.99	1095.56
577.34	1092.54
577.69	1095.37
578.04	1097.22
578.39	1099.47
578.74	1101.41
579.09	1102.06
579.44	1098.44
579.80	1099.47
580.15	1096.94
580.50	1097.01
580.85	1096.96
581.20	1097.01
581.55	1096.35
581.90	1095.42
582.25	1095.07
582.60	1092.49
582.95	1094.20
583.30	1090.81
583.65	1092.05
584.00	1091.37
584.35	1093.59
584.71	1093.38
585.06	1092.35
585.41	1091.06
585.76	1091.27
586.11	1089.80
586.46	1088.49
586.81	1090.78
587.16	1088.04
587.51	1085.66
587.86	1086.92
588.21	1086.62
588.56	1084.09
588.91	1087.20
589.26	1090.06
589.61	1090.55
589.96	1092.75
590.31	1090.67
590.66	1088.23
591.01	1085.47
591.36	1083.60
591.71	1082.10
592.06	1085.91
592.41	1089.45
592.76	1088.37
593.10	1088.33
593.45	1090.95
593.80	1093.94
594.15	1092.23
594.50	1096.63
594.85	1100.64
595.20	1100.78
595.55	1096.38
595.90	1094.15
596.25	1091.18
596.60	1085.49
596.95	1084.81
597.30	1085.84
597.64	1098.39
597.99	1099.98
598.34	1104.12
598.69	1102.18
599.04	1104.17
599.39	1094.01
599.74	1093.01
600.09	1091.58
600.44	1091.13
600.78	1088.98
601.13	1085.26
601.48	1084.60
601.83	1084.51
602.18	1084.35
602.53	1086.45
602.88	1089.43
603.22	1091.39
603.57	1091.39
603.92	1091.27
604.27	1088.00
604.62	1085.61
604.97	1086.41
605.31	1085.96
605.66	1085.24
606.01	1088.40
606.36	1091.34
606.71	1087.93
607.05	1086.06
607.40	1085.10
607.75	1081.47
608.10	1079.95
608.44	1079.24
608.79	1078.43
609.14	1081.12
609.49	1084.04
609.84	1085.26
610.18	1088.33
610.53	1090.27
610.88	1089.89
611.23	1087.67
611.57	1086.66
611.92	1085.73
612.27	1082.85
612.62	1080.60
612.96	1079.20
613.31	1080.56
613.66	1078.92
614.00	1083.50
614.35	1084.67
614.70	1088.28
615.05	1084.93
615.39	1085.05
615.74	1082.76
616.09	1082.31
616.43	1080.93
616.78	1082.87
617.13	1082.40
617.47	1082.26
617.82	1084.16
618.17	1083.48
618.51	1085.80
618.86	1088.02
619.21	1091.42
619.55	1090.88
619.90	1092.75
620.25	1091.70
620.59	1090.67
620.94	1088.21
621.29	1085.84
621.63	1083.41
621.98	1079.24
622.32	1080.84
622.67	1081.00
623.02	1082.43
623.36	1082.87
623.71	1084.23
624.05	1082.90
624.40	1081.80
624.75	1081.80
625.09	1081.75
625.44	1084.91
625.78	1085.42
626.13	1085.45
626.48	1086.71
626.82	1088.04
627.17	1088.77
627.51	1086.94
627.86	1086.01
628.20	1085.49
628.55	1083.22
628.89	1081.40
629.24	1083.27
629.58	1085.54
629.93	1085.99
630.28	1088.33
630.62	1089.64
630.97	1089.31
631.31	1085.07
631.66	1082.26
632.00	1080.39
632.35	1077.11
632.69	1074.89
633.04	1077.79
633.38	1080.84
633.73	1080.72
634.07	1081.63
634.42	1081.70
634.76	1083.36
635.11	1082.71
635.45	1083.76
635.79	1083.27
636.14	1084.11
636.48	1081.16
636.83	1080.72
637.17	1078.80
637.52	1079.08
637.86	1078.03
638.21	1080.25
638.55	1075.05
638.89	1074.98
639.24	1075.08
639.58	1076.65
639.93	1075.97
640.27	1080.98
640.61	1081.16
640.96	1081.28
641.30	1082.73
641.65	1084.16
641.99	1082.83
642.33	1082.66
642.68	1081.12
643.02	1079.83
643.37	1076.44
643.71	1077.72
644.05	1079.64
644.40	1082.50
644.74	1081.19
645.08	1082.97
645.43	1082.76
645.77	1080.30
646.11	1077.91
646.46	1079.76
646.80	1081.26
647.14	1080.30
647.49	1079.99
647.83	1077.30
648.17	1074.52
648.52	1075.08
648.86	1077.33
649.20	1080.81
649.55	1084.74
649.89	1087.67
650.23	1086.36
650.57	1083.32
650.92	1079.95
651.26	1076.48
651.60	1073.86
651.95	1073.70
652.29	1076.51
652.63	1076.60
652.97	1081.49
653.32	1084.02
653.66	1083.81
654.00	1084.35
654.34	1085.42
654.69	1085.54
655.03	1087.65
655.37	1087.20
655.71	1086.92
656.05	1086.66
656.40	1086.78
656.74	1081.61
657.08	1085.89
657.42	1085.35
657.76	1084.23
658.11	1081.75
658.45	1085.42
658.79	1081.35
659.13	1079.13
659.47	1081.07
659.82	1081.19
660.16	1081.44
660.50	1078.85
660.84	1080.70
661.18	1078.66
661.52	1078.64
661.87	1076.72
662.21	1076.34
662.55	1075.97
662.89	1080.46
663.23	1080.37
663.57	1077.54
663.91	1077.63
664.25	1077.33
664.60	1077.72
664.94	1078.61
665.28	1079.90
665.62	1081.12
665.96	1082.12
666.30	1079.46
666.64	1078.17
666.98	1080.95
667.32	1084.04
667.66	1081.47
668.01	1081.44
668.35	1084.16
668.69	1082.85
669.03	1082.45
669.37	1085.75
669.71	1087.23
670.05	1084.02
670.39	1085.38
670.73	1086.66
671.07	1083.88
671.41	1083.69
671.75	1084.39
672.09	1082.61
672.43	1082.26
672.77	1082.92
673.11	1082.61
673.45	1086.31
673.79	1087.32
674.13	1085.05
674.47	1086.38
674.81	1084.63
675.15	1083.04
675.49	1083.64
675.83	1082.10
676.17	1080.18
676.51	1083.69
676.85	1082.97
677.19	1083.76
677.53	1085.07
677.87	1087.74
678.21	1085.38
678.55	1082.66
678.89	1080.34
679.23	1080.39
679.57	1076.97
679.90	1075.83
680.24	1076.97
680.58	1076.20
680.92	1075.99
681.26	1077.04
681.60	1076.48
681.94	1076.65
682.28	1074.61
682.62	1076.90
682.96	1077.54
683.29	1079.62
683.63	1079.78
683.97	1082.08
684.31	1077.56
684.65	1077.70
684.99	1078.78
685.33	1080.02
685.67	1081.00
686.00	1083.04
686.34	1082.69
686.68	1081.51
687.02	1085.35
687.36	1086.69
687.70	1086.99
688.03	1085.21
688.37	1080.16
688.71	1075.24
689.05	1074.89
689.39	1076.41
689.72	1079.81
690.06	1082.64
690.40	1082.97
690.74	1082.05
691.08	1081.16
691.41	1083.67
691.75	1086.01
692.09	1088.82
692.43	1088.47
692.76	1089.26
693.10	1085.19
693.44	1081.98
693.78	1081.82
694.11	1077.96
694.45	1074.73
694.79	1075.97
695.13	1078.59
695.46	1074.45
695.80	1078.31
696.14	1080.41
696.48	1077.23
696.81	1079.08
697.15	1083.57
697.49	1083.50
697.82	1082.47
698.16	1081.70
698.50	1080.84
698.83	1078.61
699.17	1081.73
699.51	1082.85
699.84	1086.20
700.18	1084.58
700.52	1085.73
700.85	1084.51
701.19	1085.24
701.53	1085.63
701.86	1085.14
702.20	1083.69
702.54	1081.47
702.87	1078.78
703.21	1077.04
703.55	1076.97
703.88	1075.55
704.22	1074.17
704.55	1074.59
704.89	1077.09
705.23	1074.00
705.56	1077.00
705.90	1080.27
706.23	1081.07
706.57	1080.91
706.91	1088.04
707.24	1087.04
707.58	1084.25
707.91	1083.93
708.25	1083.76
708.58	1081.91
708.92	1079.36
709.26	1082.47
709.59	1083.55
709.93	1081.09
710.26	1075.99
710.60	1077.14
710.93	1074.54
711.27	1075.13
711.60	1076.18
711.94	1084.16
712.27	1081.68
712.61	1083.50
712.94	1082.66
713.28	1083.90
713.61	1079.46
713.95	1081.09
714.28	1078.57
714.62	1076.72
714.95	1075.50
715.29	1076.27
715.62	1078.38
715.96	1081.82
716.29	1081.68
716.63	1083.32
716.96	1082.99
717.29	1080.74
717.63	1080.67
717.96	1082.83
718.30	1079.50
718.63	1079.10
718.97	1079.17
719.30	1078.36
719.63	1078.36
719.97	1077.70
720.30	1079.17
720.64	1082.17
720.97	1082.22
721.30	1083.36
721.64	1084.23
721.97	1081.68
722.31	1078.54
722.64	1076.53
722.97	1077.14
723.31	1079.53
723.64	1080.46
723.97	1082.12
724.31	1082.24
724.64	1079.15
724.98	1080.23
725.31	1079.88
725.64	1079.27
725.98	1080.95
726.31	1081.51
726.64	1078.89
726.97	1081.19
727.31	1082.17
727.64	1079.81
727.97	1078.59
728.31	1079.10
728.64	1075.41
728.97	1076.06
729.31	1079.31
729.64	1080.91
729.97	1082.73
730.30	1083.93
730.64	1081.77
730.97	1078.03
731.30	1079.50
731.63	1079.22
731.97	1080.11
732.30	1080.60
732.63	1080.81
732.96	1079.10
733.30	1075.66
733.63	1074.26
733.96	1073.21
734.29	1074.26
734.63	1074.17
734.96	1076.34
735.29	1077.63
735.62	1078.00
735.95	1080.60
736.29	1080.81
736.62	1083.36
736.95	1087.95
737.28	1089.80
737.61	1090.64
737.94	1090.74
738.28	1086.83
738.61	1080.86
738.94	1078.99
739.27	1074.77
739.60	1072.97
739.93	1072.83
740.27	1073.04
740.60	1071.90
740.93	1075.29
741.26	1077.23
741.59	1080.58
741.92	1080.72
742.25	1083.60
742.58	1081.30
742.91	1081.21
743.25	1076.08
743.58	1077.93
743.91	1075.66
744.24	1077.79
744.57	1077.75
744.90	1079.81
745.23	1075.55
745.56	1077.30
745.89	1072.97
746.22	1073.67
746.55	1076.65
746.88	1080.51
747.21	1080.04
747.54	1084.25
747.87	1081.42
748.20	1078.26
748.53	1078.57
748.87	1076.86
749.20	1072.13
749.53	1072.04
749.86	1073.02
750.19	1073.09
750.52	1073.74
750.85	1071.52
751.18	1074.77
751.51	1075.13
751.84	1073.37
752.16	1074.19
752.49	1079.81
752.82	1075.36
753.15	1074.61
753.48	1076.23
753.81	1074.59
754.14	1073.67
754.47	1077.35
754.80	1075.52
755.13	1073.11
755.46	1076.51
755.79	1077.40
756.12	1078.36
756.45	1078.38
756.78	1079.20
757.11	1077.82
757.43	1078.45
757.76	1076.11
758.09	1076.88
758.42	1076.88
758.75	1072.69
759.08	1069.41
759.41	1069.72
759.74	1074.52
760.07	1071.05
760.39	1076.20
760.72	1079.67
761.05	1079.81
761.38	1075.71
761.71	1080.23
762.04	1077.09
762.36	1076.90
762.69	1075.85
763.02	1075.87
763.35	1074.40
763.68	1080.11
