SpectraSuite Data File
++++++++++++++++++++++++++++++++++++
Date: Mon Aug 26 10:22:17 PDT 2019
User: corrico
Dark Spectrum Present: No
Reference Spectrum Present: No
Number of Sampled Component Spectra: 1
Spectrometers: USB2+H06089
Integration Time (usec): 2000 (USB2+H06089)
Spectra Averaged: 20 (USB2+H06089)
Boxcar Smoothing: 2 (USB2+H06089)
Correct for Electrical Dark: No (USB2+H06089)
Strobe/Lamp Enabled: No (USB2+H06089)
Correct for Detector Non-linearity: No (USB2+H06089)
Correct for Stray Light: No (USB2+H06089)
Number of Pixels in Processed Spectrum: 2048
>>>>>Begin Processed Spectral Data<<<<<
339.70	1039.67
340.07	1039.67
340.45	996.16
340.82	971.49
341.19	946.68
341.57	917.84
341.94	910.28
342.31	905.27
342.69	901.57
343.06	899.30
343.43	899.98
343.81	900.29
344.18	902.93
344.55	906.09
344.93	909.30
345.30	916.95
345.67	926.06
346.04	931.86
346.42	940.71
346.79	950.02
347.16	959.08
347.54	963.97
347.91	974.51
348.28	982.14
348.65	991.73
349.03	999.22
349.40	1009.73
349.77	1017.34
350.14	1026.16
350.52	1035.29
350.89	1042.19
351.26	1049.38
351.63	1056.54
352.01	1062.44
352.38	1065.67
352.75	1066.58
353.12	1070.07
353.50	1073.49
353.87	1075.83
354.24	1074.70
354.61	1080.27
354.98	1080.16
355.36	1082.12
355.73	1084.86
356.10	1087.34
356.47	1086.15
356.84	1084.89
357.22	1081.54
357.59	1079.92
357.96	1081.66
358.33	1081.82
358.70	1084.49
359.08	1083.22
359.45	1084.42
359.82	1083.34
360.19	1084.39
360.56	1083.43
360.94	1084.63
361.31	1082.76
361.68	1083.13
362.05	1083.04
362.42	1081.89
362.79	1079.83
363.16	1079.90
363.54	1078.36
363.91	1074.98
364.28	1078.52
364.65	1080.53
365.02	1076.13
365.39	1075.80
365.76	1076.51
366.14	1072.46
366.51	1071.94
366.88	1075.31
367.25	1077.07
367.62	1077.96
367.99	1076.30
368.36	1076.23
368.73	1075.13
369.10	1075.03
369.48	1077.96
369.85	1081.02
370.22	1082.10
370.59	1083.90
370.96	1081.33
371.33	1075.29
371.70	1074.94
372.07	1070.65
372.44	1066.44
372.81	1069.48
373.18	1070.07
373.55	1069.16
373.93	1074.24
374.30	1075.43
374.67	1071.57
375.04	1073.25
375.41	1073.63
375.78	1071.29
376.15	1073.00
376.52	1073.37
376.89	1072.88
377.26	1075.36
377.63	1075.64
378.00	1075.08
378.37	1076.67
378.74	1075.62
379.11	1072.32
379.48	1071.87
379.85	1069.39
380.22	1069.84
380.59	1074.63
380.96	1074.12
381.33	1077.40
381.70	1079.76
382.07	1081.56
382.44	1077.70
382.81	1079.83
383.18	1078.31
383.55	1082.26
383.92	1082.80
384.29	1086.57
384.66	1084.07
385.03	1084.96
385.40	1083.88
385.77	1082.29
386.14	1081.35
386.51	1085.00
386.88	1083.15
387.25	1080.23
387.62	1078.17
387.99	1078.59
388.36	1080.93
388.73	1084.14
389.10	1087.97
389.46	1090.08
389.83	1090.29
390.20	1088.35
390.57	1089.26
390.94	1087.37
391.31	1087.18
391.68	1085.56
392.05	1085.31
392.42	1085.21
392.79	1087.09
393.16	1086.83
393.53	1088.14
393.89	1087.41
394.26	1086.76
394.63	1084.79
395.00	1086.38
395.37	1090.06
395.74	1090.01
396.11	1088.07
396.48	1088.04
396.84	1087.02
397.21	1084.96
397.58	1089.00
397.95	1090.74
398.32	1092.77
398.69	1091.91
399.06	1088.56
399.42	1086.06
399.79	1085.47
400.16	1085.26
400.53	1086.06
400.90	1088.21
401.27	1085.94
401.64	1085.59
402.00	1088.07
402.37	1089.96
402.74	1091.09
403.11	1096.05
403.48	1095.56
403.84	1093.78
404.21	1091.86
404.58	1090.10
404.95	1087.37
405.32	1088.16
405.68	1088.14
406.05	1088.16
406.42	1089.29
406.79	1090.15
407.16	1090.69
407.52	1091.91
407.89	1094.67
408.26	1094.57
408.63	1096.03
408.99	1099.79
409.36	1097.73
409.73	1095.77
410.10	1099.75
410.47	1098.83
410.83	1096.12
411.20	1097.95
411.57	1100.82
411.94	1099.61
412.30	1100.17
412.67	1100.50
413.04	1099.26
413.40	1096.10
413.77	1095.79
414.14	1094.74
414.51	1095.00
414.87	1094.39
415.24	1096.42
415.61	1093.97
415.97	1096.75
416.34	1098.44
416.71	1102.37
417.08	1103.56
417.44	1108.20
417.81	1109.95
418.18	1110.42
418.54	1112.22
418.91	1113.21
419.28	1113.30
419.64	1113.88
420.01	1112.92
420.38	1112.34
420.74	1113.77
421.11	1116.22
421.48	1116.86
421.84	1122.12
422.21	1124.49
422.58	1129.14
422.94	1128.82
423.31	1132.28
423.68	1134.36
424.04	1136.12
424.41	1136.05
424.77	1142.23
425.14	1144.97
425.51	1147.87
425.87	1151.99
426.24	1157.21
426.61	1156.76
426.97	1158.49
427.34	1163.15
427.70	1168.30
428.07	1174.36
428.44	1185.01
428.80	1193.51
429.17	1203.18
429.53	1211.04
429.90	1217.90
430.27	1230.02
430.63	1238.45
431.00	1246.19
431.36	1258.11
431.73	1274.52
432.09	1286.03
432.46	1303.98
432.83	1319.45
433.19	1336.49
433.56	1353.27
433.92	1371.72
434.29	1392.53
434.65	1415.79
435.02	1440.46
435.38	1463.68
435.75	1493.75
436.11	1524.51
436.48	1559.10
436.84	1593.88
437.21	1632.73
437.57	1669.69
437.94	1705.99
438.30	1747.68
438.67	1792.50
439.03	1840.36
439.40	1893.24
439.76	1952.87
440.13	2011.95
440.49	2078.00
440.86	2139.32
441.22	2207.50
441.59	2279.68
441.95	2363.82
442.32	2452.34
442.68	2552.42
443.05	2649.42
443.41	2752.31
443.78	2850.52
444.14	2954.60
444.51	3065.33
444.87	3199.40
445.24	3334.05
445.60	3488.29
445.96	3644.87
446.33	3812.85
446.69	3978.58
447.06	4162.08
447.42	4340.92
447.79	4531.46
448.15	4756.41
448.51	4984.94
448.88	5244.27
449.24	5492.42
449.61	5771.46
449.97	6036.87
450.33	6320.27
450.70	6578.54
451.06	6906.08
451.43	7209.74
451.79	7566.81
452.15	7964.12
452.52	8420.57
452.88	8887.18
453.24	9428.54
453.61	10013.51
453.97	10587.88
454.34	11123.91
454.70	11761.66
455.06	12389.95
455.43	13021.90
455.79	13605.86
456.15	14326.37
456.52	14976.08
456.88	15756.35
457.24	16475.43
457.61	17336.47
457.97	18107.02
458.33	18919.60
458.70	19682.36
459.06	20465.08
459.42	21289.37
459.79	22082.32
460.15	22964.75
460.51	23825.88
460.88	24727.24
461.24	25529.77
461.60	26479.91
461.96	27351.48
462.33	28202.40
462.69	29010.31
463.05	29886.21
463.42	30634.27
463.78	31298.44
464.14	31843.97
464.50	32441.25
464.87	32892.60
465.23	33220.32
465.59	33580.37
465.95	33912.75
466.32	34180.74
466.68	34432.67
467.04	34600.61
467.40	34742.16
467.77	34891.16
468.13	34866.35
468.49	34758.06
468.85	34671.83
469.22	34516.35
469.58	34175.66
469.94	33940.41
470.30	33632.09
470.66	33221.94
471.03	32604.13
471.39	32219.14
471.75	31583.75
472.11	31015.87
472.47	30676.37
472.84	30409.97
473.20	29915.93
473.56	29662.97
473.92	29221.00
474.28	28682.33
474.65	28175.21
475.01	27711.01
475.37	27121.14
475.73	26685.57
476.09	26199.40
476.45	25691.55
476.81	25159.31
477.18	24630.39
477.54	24156.93
477.90	23763.18
478.26	23308.08
478.62	22967.63
478.98	22673.99
479.34	22341.79
479.71	21920.83
480.07	21571.15
480.43	21198.65
480.79	20802.68
481.15	20451.39
481.51	20135.35
481.87	19867.92
482.23	19584.92
482.59	19338.11
482.96	19064.48
483.32	18773.69
483.68	18409.13
484.04	18072.61
484.40	17694.17
484.76	17314.28
485.12	16937.71
485.48	16633.95
485.84	16274.03
486.20	15914.36
486.56	15549.91
486.92	15247.86
487.28	14887.23
487.64	14537.56
488.00	14216.23
488.37	13897.09
488.73	13534.24
489.09	13188.94
489.45	12875.40
489.81	12566.85
490.17	12276.27
490.53	11992.39
490.89	11684.84
491.25	11381.60
491.61	11070.66
491.97	10753.64
492.33	10432.75
492.69	10140.72
493.05	9842.26
493.41	9554.07
493.77	9265.99
494.13	9006.73
494.49	8747.33
494.85	8496.54
495.21	8258.28
495.57	8032.25
495.93	7816.13
496.29	7610.63
496.64	7433.38
497.00	7245.06
497.36	7056.22
497.72	6861.49
498.08	6678.20
498.44	6494.82
498.80	6321.72
499.16	6156.83
499.52	6006.63
499.88	5870.79
500.24	5739.06
500.60	5615.83
500.96	5502.62
501.32	5378.90
501.68	5255.13
502.03	5126.45
502.39	4993.21
502.75	4856.56
503.11	4734.72
503.47	4613.03
503.83	4496.82
504.19	4386.02
504.55	4280.28
504.91	4179.68
505.26	4090.91
505.62	4000.37
505.98	3911.67
506.34	3818.84
506.70	3725.52
507.06	3633.47
507.42	3543.22
507.78	3464.51
508.13	3388.91
508.49	3313.87
508.85	3243.05
509.21	3176.46
509.57	3104.60
509.93	3035.58
510.28	2973.11
510.64	2903.90
511.00	2838.09
511.36	2779.97
511.72	2728.88
512.07	2676.07
512.43	2624.93
512.79	2579.20
513.15	2530.12
513.51	2482.65
513.86	2435.91
514.22	2395.77
514.58	2354.49
514.94	2314.30
515.30	2273.06
515.65	2234.58
516.01	2196.76
516.37	2164.97
516.73	2138.97
517.08	2112.05
517.44	2081.74
517.80	2057.78
518.16	2028.14
518.51	1998.89
518.87	1973.87
519.23	1949.01
519.59	1922.59
519.94	1894.50
520.30	1868.96
520.66	1841.04
521.01	1821.73
521.37	1795.50
521.73	1777.38
522.09	1753.15
522.44	1732.28
522.80	1706.70
523.16	1689.02
523.51	1668.22
523.87	1648.18
524.23	1635.96
524.58	1622.32
524.94	1604.55
525.30	1587.56
525.65	1575.16
526.01	1557.14
526.37	1541.43
526.72	1526.73
527.08	1513.37
527.44	1505.08
527.79	1488.51
528.15	1471.64
528.51	1463.07
528.86	1449.80
529.22	1431.78
529.58	1420.17
529.93	1411.18
530.29	1399.92
530.65	1390.25
531.00	1381.50
531.36	1375.21
531.71	1367.65
532.07	1357.30
532.43	1347.96
532.78	1339.37
533.14	1329.14
533.49	1325.40
533.85	1322.45
534.21	1315.92
534.56	1310.33
534.92	1304.47
535.27	1297.66
535.63	1288.72
535.98	1282.40
536.34	1274.94
536.69	1272.83
537.05	1264.05
537.41	1259.70
537.76	1257.87
538.12	1257.52
538.47	1251.32
538.83	1252.28
539.18	1248.07
539.54	1240.60
539.89	1233.51
540.25	1229.25
540.60	1222.63
540.96	1217.73
541.31	1219.56
541.67	1216.28
542.02	1211.13
542.38	1208.23
542.73	1204.84
543.09	1200.20
543.44	1201.51
543.80	1199.10
544.15	1194.82
544.51	1191.68
544.86	1188.03
545.22	1180.64
545.57	1179.93
545.93	1178.34
546.28	1176.54
546.64	1175.46
546.99	1174.62
547.35	1169.43
547.70	1165.07
548.05	1163.71
548.41	1160.39
548.76	1159.90
549.12	1159.76
549.47	1158.35
549.83	1155.62
550.18	1152.18
550.53	1147.89
550.89	1144.94
551.24	1147.21
551.60	1142.20
551.95	1141.43
552.30	1141.71
552.66	1141.01
553.01	1137.87
553.37	1138.18
553.72	1134.46
554.07	1129.05
554.43	1129.12
554.78	1124.32
555.13	1125.40
555.49	1125.73
555.84	1126.94
556.19	1125.42
556.55	1128.77
556.90	1128.28
557.26	1127.27
557.61	1123.41
557.96	1122.75
558.32	1119.95
558.67	1119.31
559.02	1121.42
559.37	1121.96
559.73	1119.24
560.08	1117.11
560.43	1114.42
560.79	1111.64
561.14	1111.64
561.49	1110.58
561.85	1107.61
562.20	1108.13
562.55	1108.22
562.90	1109.74
563.26	1111.01
563.61	1111.01
563.96	1107.49
564.32	1107.52
564.67	1108.50
565.02	1103.77
565.37	1107.73
565.73	1108.59
566.08	1108.01
566.43	1102.67
566.78	1107.21
567.14	1106.98
567.49	1106.39
567.84	1103.84
568.19	1103.35
568.54	1100.85
568.90	1097.64
569.25	1096.87
569.60	1095.32
569.95	1095.00
570.31	1094.25
570.66	1093.66
571.01	1093.45
571.36	1095.35
571.71	1094.67
572.06	1095.35
572.42	1096.66
572.77	1097.80
573.12	1093.26
573.47	1094.69
573.82	1093.64
574.18	1094.18
574.53	1091.37
574.88	1093.31
575.23	1090.57
575.58	1091.02
575.93	1088.16
576.28	1088.86
576.64	1089.19
576.99	1091.84
577.34	1092.75
577.69	1091.98
578.04	1093.80
578.39	1095.42
578.74	1097.71
579.09	1096.07
579.44	1095.60
579.80	1092.91
580.15	1092.28
580.50	1089.52
580.85	1090.13
581.20	1090.90
581.55	1091.02
581.90	1090.81
582.25	1091.09
582.60	1093.52
582.95	1092.16
583.30	1092.70
583.65	1093.10
584.00	1093.08
584.35	1091.74
584.71	1092.05
585.06	1092.56
585.41	1092.56
585.76	1092.70
586.11	1090.34
586.46	1091.51
586.81	1088.16
587.16	1083.93
587.51	1083.18
587.86	1086.50
588.21	1084.98
588.56	1089.94
588.91	1094.90
589.26	1097.66
589.61	1096.12
589.96	1098.67
590.31	1095.39
590.66	1091.46
591.01	1088.09
591.36	1087.39
591.71	1088.02
592.06	1089.45
592.41	1092.40
592.76	1095.39
593.10	1094.20
593.45	1090.03
593.80	1088.89
594.15	1091.04
594.50	1088.28
594.85	1087.48
595.20	1088.68
595.55	1091.02
595.90	1089.61
596.25	1090.57
596.60	1091.27
596.95	1090.95
597.30	1086.52
597.64	1096.80
597.99	1096.31
598.34	1097.64
598.69	1095.35
599.04	1099.42
599.39	1086.78
599.74	1086.48
600.09	1083.69
600.44	1088.40
600.78	1088.21
601.13	1087.30
601.48	1084.60
601.83	1087.30
602.18	1082.90
602.53	1083.27
602.88	1084.67
603.22	1087.58
603.57	1086.31
603.92	1093.26
604.27	1089.68
604.62	1089.99
604.97	1092.19
605.31	1091.77
605.66	1086.99
606.01	1088.65
606.36	1086.71
606.71	1083.36
607.05	1085.00
607.40	1087.48
607.75	1088.49
608.10	1089.14
608.44	1086.57
608.79	1082.69
609.14	1081.12
609.49	1081.44
609.84	1081.96
610.18	1083.39
610.53	1084.14
610.88	1086.31
611.23	1084.79
611.57	1083.97
611.92	1087.23
612.27	1086.43
612.62	1084.18
612.96	1085.28
613.31	1084.42
613.66	1081.02
614.00	1082.71
614.35	1083.53
614.70	1082.76
615.05	1085.21
615.39	1084.70
615.74	1087.65
616.09	1088.21
616.43	1088.40
616.78	1083.79
617.13	1086.34
617.47	1085.12
617.82	1083.04
618.17	1081.56
618.51	1087.60
618.86	1084.63
619.21	1083.43
619.55	1083.97
619.90	1086.62
620.25	1084.18
620.59	1087.55
620.94	1087.04
621.29	1086.66
621.63	1088.21
621.98	1090.34
622.32	1088.00
622.67	1086.90
623.02	1085.45
623.36	1083.55
623.71	1080.02
624.05	1079.71
624.40	1080.41
624.75	1083.53
625.09	1081.42
625.44	1084.60
625.78	1088.58
626.13	1089.94
626.48	1088.72
626.82	1087.41
627.17	1084.30
627.51	1082.97
627.86	1085.33
628.20	1082.92
628.55	1081.61
628.89	1082.97
629.24	1079.38
629.58	1077.14
629.93	1077.72
630.28	1081.80
630.62	1082.54
630.97	1085.47
631.31	1083.81
631.66	1085.00
632.00	1084.63
632.35	1081.30
632.69	1078.99
633.04	1081.58
633.38	1081.33
633.73	1084.09
634.07	1086.24
634.42	1085.80
634.76	1083.27
635.11	1083.04
635.45	1080.84
635.79	1080.79
636.14	1082.31
636.48	1081.23
636.83	1082.94
637.17	1082.66
637.52	1081.68
637.86	1082.26
638.21	1082.24
638.55	1081.30
638.89	1081.61
639.24	1083.29
639.58	1083.57
639.93	1087.20
640.27	1087.76
640.61	1085.28
640.96	1084.23
641.30	1083.01
641.65	1080.95
641.99	1079.50
642.33	1083.43
642.68	1082.73
643.02	1085.19
643.37	1083.86
643.71	1084.07
644.05	1081.19
644.40	1084.23
644.74	1083.25
645.08	1083.50
645.43	1084.51
645.77	1082.94
646.11	1081.26
646.46	1078.03
646.80	1078.85
647.14	1078.57
647.49	1079.41
647.83	1077.33
648.17	1081.02
648.52	1080.46
648.86	1080.41
649.20	1082.08
649.55	1082.38
649.89	1080.65
650.23	1085.70
650.57	1085.33
650.92	1084.81
651.26	1086.50
651.60	1087.13
651.95	1081.35
652.29	1080.37
652.63	1078.24
652.97	1077.72
653.32	1079.78
653.66	1080.56
654.00	1080.46
654.34	1084.65
654.69	1084.23
655.03	1082.69
655.37	1083.90
655.71	1085.70
656.05	1084.77
656.40	1085.05
656.74	1085.14
657.08	1084.44
657.42	1082.12
657.76	1080.79
658.11	1081.49
658.45	1078.78
658.79	1077.77
659.13	1079.85
659.47	1082.03
659.82	1081.66
660.16	1084.14
660.50	1084.81
660.84	1082.85
661.18	1080.09
661.52	1079.38
661.87	1076.41
662.21	1076.01
662.55	1078.57
662.89	1079.62
663.23	1081.07
663.57	1082.40
663.91	1081.51
664.25	1076.51
664.60	1079.34
664.94	1076.41
665.28	1077.33
665.62	1078.57
665.96	1083.06
666.30	1077.33
666.64	1081.14
666.98	1081.26
667.32	1080.53
667.66	1078.45
668.01	1084.46
668.35	1084.11
668.69	1082.92
669.03	1084.32
669.37	1088.72
669.71	1088.47
670.05	1087.67
670.39	1088.77
670.73	1088.14
671.07	1084.98
671.41	1082.94
671.75	1083.79
672.09	1080.77
672.43	1081.49
672.77	1079.97
673.11	1077.79
673.45	1075.10
673.79	1078.45
674.13	1077.98
674.47	1079.38
674.81	1080.39
675.15	1084.51
675.49	1084.02
675.83	1084.02
676.17	1083.69
676.51	1082.26
676.85	1079.01
677.19	1081.05
677.53	1082.15
677.87	1085.14
678.21	1085.49
678.55	1087.51
678.89	1086.34
679.23	1084.58
679.57	1083.18
679.90	1083.81
680.24	1084.14
680.58	1083.18
680.92	1081.16
681.26	1080.23
681.60	1079.55
681.94	1080.88
682.28	1081.73
682.62	1084.65
682.96	1084.72
683.29	1086.24
683.63	1082.83
683.97	1084.02
684.31	1082.76
684.65	1082.24
684.99	1082.22
685.33	1081.91
685.67	1083.29
686.00	1085.21
686.34	1084.79
686.68	1083.18
687.02	1085.24
687.36	1081.98
687.70	1081.54
688.03	1084.51
688.37	1086.57
688.71	1083.25
689.05	1082.57
689.39	1081.68
689.72	1081.37
690.06	1079.60
690.40	1077.93
690.74	1077.47
691.08	1079.20
691.41	1077.56
691.75	1076.67
692.09	1081.70
692.43	1082.50
692.76	1081.00
693.10	1077.72
693.44	1079.97
693.78	1079.67
694.11	1080.79
694.45	1081.19
694.79	1081.56
695.13	1079.67
695.46	1076.97
695.80	1078.71
696.14	1077.11
696.48	1078.03
696.81	1076.76
697.15	1078.33
697.49	1076.20
697.82	1077.98
698.16	1078.66
698.50	1081.94
698.83	1083.97
699.17	1084.11
699.51	1082.45
699.84	1083.41
700.18	1084.28
700.52	1081.80
700.85	1077.75
701.19	1078.54
701.53	1075.50
701.86	1073.86
702.20	1075.87
702.54	1078.36
702.87	1082.05
703.21	1085.82
703.55	1085.87
703.88	1086.73
704.22	1088.96
704.55	1083.04
704.89	1080.32
705.23	1079.41
705.56	1074.54
705.90	1073.00
706.23	1073.70
706.57	1074.28
706.91	1074.07
707.24	1077.54
707.58	1078.99
707.91	1080.98
708.25	1082.73
708.58	1083.20
708.92	1083.36
709.26	1079.50
709.59	1078.24
709.93	1077.51
710.26	1076.62
710.60	1073.00
710.93	1077.21
711.27	1076.34
711.60	1078.00
711.94	1082.22
712.27	1083.53
712.61	1082.90
712.94	1082.38
713.28	1082.31
713.61	1081.09
713.95	1081.30
714.28	1077.30
714.62	1078.07
714.95	1075.78
715.29	1073.44
715.62	1073.39
715.96	1072.71
716.29	1075.13
716.63	1075.71
716.96	1074.89
717.29	1072.60
717.63	1078.21
717.96	1078.05
718.30	1078.96
718.63	1079.62
718.97	1080.53
719.30	1077.07
719.63	1077.91
719.97	1076.58
720.30	1078.24
720.64	1080.98
720.97	1082.19
721.30	1080.72
721.64	1083.18
721.97	1082.59
722.31	1081.87
722.64	1082.66
722.97	1083.93
723.31	1079.01
723.64	1078.17
723.97	1079.48
724.31	1079.48
724.64	1078.94
724.98	1080.09
725.31	1080.44
725.64	1076.67
725.98	1075.43
726.31	1073.30
726.64	1074.03
726.97	1071.08
727.31	1069.25
727.64	1071.40
727.97	1073.09
728.31	1074.42
728.64	1078.57
728.97	1083.20
729.31	1082.90
729.64	1083.20
729.97	1082.97
730.30	1083.88
730.64	1081.98
730.97	1082.47
731.30	1078.78
731.63	1079.08
731.97	1076.08
732.30	1081.96
732.63	1080.34
732.96	1080.20
733.30	1080.72
733.63	1085.45
733.96	1082.01
734.29	1083.50
734.63	1092.28
734.96	1094.34
735.29	1089.50
735.62	1089.92
735.95	1089.71
736.29	1085.99
736.62	1085.52
736.95	1082.12
737.28	1079.83
737.61	1078.54
737.94	1078.89
738.28	1076.51
738.61	1082.57
738.94	1083.57
739.27	1083.67
739.60	1080.39
739.93	1083.06
740.27	1080.88
740.60	1085.28
740.93	1084.72
741.26	1084.02
741.59	1083.57
741.92	1081.84
742.25	1075.24
742.58	1074.03
742.91	1073.28
743.25	1070.21
743.58	1069.79
743.91	1071.15
744.24	1068.03
744.57	1069.79
744.90	1071.50
745.23	1072.97
745.56	1073.70
745.89	1074.82
746.22	1076.95
746.55	1076.60
746.88	1077.54
747.21	1080.18
747.54	1082.43
747.87	1080.20
748.20	1076.83
748.53	1077.65
748.87	1075.78
749.20	1078.94
749.53	1083.81
749.86	1087.27
750.19	1082.80
750.52	1083.81
750.85	1082.17
751.18	1079.71
751.51	1080.09
751.84	1084.14
752.16	1082.19
752.49	1083.93
752.82	1081.47
753.15	1080.67
753.48	1081.94
753.81	1082.47
754.14	1081.94
754.47	1082.73
754.80	1081.89
755.13	1081.35
755.46	1081.26
755.79	1076.23
756.12	1072.88
756.45	1074.52
756.78	1072.67
757.11	1072.57
757.43	1075.80
757.76	1078.71
758.09	1078.14
758.42	1077.93
758.75	1077.04
759.08	1075.41
759.41	1075.66
759.74	1074.12
760.07	1073.09
760.39	1073.88
760.72	1075.73
761.05	1074.87
761.38	1076.15
761.71	1078.10
762.04	1077.58
762.36	1078.71
762.69	1081.19
763.02	1079.90
763.35	1082.45
763.68	1080.91
764.01	1079.99
