SpectraSuite Data File
++++++++++++++++++++++++++++++++++++
Date: Mon Aug 26 10:22:24 PDT 2019
User: corrico
Dark Spectrum Present: No
Reference Spectrum Present: No
Number of Sampled Component Spectra: 1
Spectrometers: USB2+H06089
Integration Time (usec): 2000 (USB2+H06089)
Spectra Averaged: 20 (USB2+H06089)
Boxcar Smoothing: 2 (USB2+H06089)
Correct for Electrical Dark: No (USB2+H06089)
Strobe/Lamp Enabled: No (USB2+H06089)
Correct for Detector Non-linearity: No (USB2+H06089)
Correct for Stray Light: No (USB2+H06089)
Number of Pixels in Processed Spectrum: 2048
>>>>>Begin Processed Spectral Data<<<<<
339.70	1027.38
340.07	1027.38
340.45	992.48
340.82	971.14
341.19	948.29
341.57	921.98
341.94	907.19
342.31	903.99
342.69	897.78
343.06	897.55
343.43	898.65
343.81	902.96
344.18	904.31
344.55	910.98
344.93	911.92
345.30	918.00
345.67	924.25
346.04	932.45
346.42	939.42
346.79	948.71
347.16	957.51
347.54	969.01
347.91	977.90
348.28	988.08
348.65	997.14
349.03	1006.69
349.40	1012.45
349.77	1020.47
350.14	1026.44
350.52	1034.91
350.89	1040.53
351.26	1047.60
351.63	1050.13
352.01	1057.85
352.38	1061.83
352.75	1067.59
353.12	1072.55
353.50	1074.31
353.87	1073.58
354.24	1075.03
354.61	1076.30
354.98	1075.20
355.36	1083.15
355.73	1083.86
356.10	1086.50
356.47	1083.95
356.84	1085.42
357.22	1082.05
357.59	1083.36
357.96	1081.66
358.33	1085.49
358.70	1085.21
359.08	1083.97
359.45	1087.72
359.82	1086.71
360.19	1086.15
360.56	1088.68
360.94	1090.20
361.31	1087.18
361.68	1085.94
362.05	1086.06
362.42	1083.32
362.79	1085.45
363.16	1080.79
363.54	1080.60
363.91	1076.53
364.28	1073.95
364.65	1071.12
365.02	1071.45
365.39	1070.09
365.76	1072.92
366.14	1074.98
366.51	1075.62
366.88	1076.11
367.25	1078.43
367.62	1074.21
367.99	1071.54
368.36	1070.82
368.73	1071.08
369.10	1069.48
369.48	1073.86
369.85	1073.25
370.22	1074.28
370.59	1076.67
370.96	1080.09
371.33	1075.45
371.70	1074.42
372.07	1073.18
372.44	1070.30
372.81	1068.88
373.18	1071.97
373.55	1071.57
373.93	1069.20
374.30	1070.80
374.67	1071.15
375.04	1071.17
375.41	1075.45
375.78	1075.92
376.15	1075.01
376.52	1075.76
376.89	1075.78
377.26	1076.25
377.63	1077.75
378.00	1079.34
378.37	1077.40
378.74	1078.24
379.11	1077.82
379.48	1078.85
379.85	1079.46
380.22	1081.14
380.59	1079.22
380.96	1082.05
381.33	1083.95
381.70	1085.63
382.07	1084.07
382.44	1086.78
382.81	1089.50
383.18	1089.33
383.55	1085.84
383.92	1085.26
384.29	1084.81
384.66	1075.87
385.03	1075.71
385.40	1076.23
385.77	1078.75
386.14	1079.48
386.51	1083.46
386.88	1083.34
387.25	1082.90
387.62	1081.00
387.99	1079.62
388.36	1078.00
388.73	1078.71
389.10	1080.09
389.46	1079.95
389.83	1079.67
390.20	1083.13
390.57	1082.22
390.94	1081.44
391.31	1085.45
391.68	1087.41
392.05	1085.54
392.42	1087.09
392.79	1089.17
393.16	1089.33
393.53	1089.19
393.89	1091.60
394.26	1088.79
394.63	1088.44
395.00	1085.47
395.37	1086.22
395.74	1083.83
396.11	1084.72
396.48	1086.73
396.84	1090.17
397.21	1089.94
397.58	1091.77
397.95	1094.29
398.32	1092.70
398.69	1090.29
399.06	1091.65
399.42	1089.12
399.79	1086.78
400.16	1086.78
400.53	1084.79
400.90	1083.74
401.27	1088.89
401.64	1088.28
402.00	1089.07
402.37	1094.60
402.74	1091.84
403.11	1090.74
403.48	1091.65
403.84	1096.19
404.21	1092.98
404.58	1093.99
404.95	1090.57
405.32	1090.99
405.68	1087.16
406.05	1087.04
406.42	1088.07
406.79	1088.35
407.16	1090.41
407.52	1089.22
407.89	1089.82
408.26	1091.18
408.63	1097.03
408.99	1098.37
409.36	1100.92
409.73	1103.00
410.10	1102.67
410.47	1102.37
410.83	1100.73
411.20	1098.98
411.57	1098.98
411.94	1101.39
412.30	1096.28
412.67	1095.02
413.04	1096.52
413.40	1097.41
413.77	1095.84
414.14	1101.76
414.51	1102.49
414.87	1103.70
415.24	1102.95
415.61	1102.88
415.97	1098.34
416.34	1102.51
416.71	1100.05
417.08	1099.70
417.44	1101.85
417.81	1106.00
418.18	1102.44
418.54	1105.90
418.91	1108.45
419.28	1107.82
419.64	1107.07
420.01	1109.72
420.38	1112.11
420.74	1110.61
421.11	1114.66
421.48	1116.04
421.84	1119.74
422.21	1121.37
422.58	1129.47
422.94	1127.88
423.31	1126.43
423.68	1129.07
424.04	1130.57
424.41	1128.54
424.77	1135.04
425.14	1141.64
425.51	1145.46
425.87	1147.24
426.24	1153.44
426.61	1159.36
426.97	1164.00
427.34	1168.25
427.70	1173.90
428.07	1180.50
428.44	1188.27
428.80	1196.83
429.17	1203.99
429.53	1214.27
429.90	1223.44
430.27	1230.21
430.63	1238.10
431.00	1247.86
431.36	1260.50
431.73	1271.24
432.09	1285.82
432.46	1302.46
432.83	1319.01
433.19	1335.79
433.56	1353.32
433.92	1370.69
434.29	1391.00
434.65	1413.03
435.02	1435.38
435.38	1464.31
435.75	1492.11
436.11	1525.09
436.48	1560.36
436.84	1598.31
437.21	1631.21
437.57	1668.33
437.94	1711.26
438.30	1753.32
438.67	1796.64
439.03	1848.02
439.40	1905.95
439.76	1956.80
440.13	2012.60
440.49	2076.80
440.86	2144.12
441.22	2210.31
441.59	2283.64
441.95	2367.33
442.32	2454.59
442.68	2553.52
443.05	2649.79
443.41	2752.94
443.78	2852.39
444.14	2954.69
444.51	3060.62
444.87	3198.90
445.24	3335.19
445.60	3490.67
445.96	3650.53
446.33	3825.25
446.69	3985.67
447.06	4161.07
447.42	4343.64
447.79	4533.17
448.15	4750.56
448.51	4983.16
448.88	5250.90
449.24	5492.46
449.61	5768.32
449.97	6039.82
450.33	6319.38
450.70	6583.81
451.06	6913.54
451.43	7224.02
451.79	7588.77
452.15	7995.13
452.52	8435.36
452.88	8896.89
453.24	9431.84
453.61	10006.80
453.97	10563.56
454.34	11100.27
454.70	11734.11
455.06	12372.33
455.43	12994.16
455.79	13600.41
456.15	14327.52
456.52	14984.69
456.88	15753.12
457.24	16476.65
457.61	17327.92
457.97	18097.61
458.33	18883.86
458.70	19642.17
459.06	20412.56
459.42	21242.40
459.79	22018.10
460.15	22923.77
460.51	23795.27
460.88	24712.22
461.24	25502.20
461.60	26458.45
461.96	27322.22
462.33	28144.87
462.69	28934.47
463.05	29776.11
463.42	30499.59
463.78	31136.73
464.14	31676.04
464.50	32262.93
464.87	32737.19
465.23	33078.30
465.59	33453.25
465.95	33795.56
466.32	34053.60
466.68	34284.33
467.04	34429.68
467.40	34566.97
467.77	34716.84
468.13	34694.42
468.49	34617.46
468.85	34531.66
469.22	34349.49
469.58	33987.55
469.94	33763.91
470.30	33442.53
470.66	33041.34
471.03	32471.52
471.39	32094.95
471.75	31455.23
472.11	30877.33
472.47	30531.68
472.84	30230.20
473.20	29748.65
473.56	29475.00
473.92	29033.83
474.28	28515.75
474.65	27987.82
475.01	27506.49
475.37	26948.76
475.73	26495.59
476.09	25962.67
476.45	25458.05
476.81	24947.96
477.18	24397.25
477.54	23937.20
477.90	23577.18
478.26	23154.17
478.62	22812.22
478.98	22516.82
479.34	22188.98
479.71	21783.53
480.07	21457.14
480.43	21085.02
480.79	20698.15
481.15	20339.47
481.51	20016.99
481.87	19757.09
482.23	19466.42
482.59	19217.74
482.96	18941.46
483.32	18657.58
483.68	18282.02
484.04	17954.32
484.40	17587.91
484.76	17224.54
485.12	16850.64
485.48	16527.90
485.84	16177.99
486.20	15831.17
486.56	15471.99
486.92	15168.26
487.28	14821.37
487.64	14461.42
488.00	14140.72
488.37	13826.55
488.73	13474.58
489.09	13122.03
489.45	12811.41
489.81	12490.88
490.17	12185.06
490.53	11897.48
490.89	11593.21
491.25	11302.21
491.61	10993.92
491.97	10681.32
492.33	10353.27
492.69	10060.11
493.05	9755.49
493.41	9470.84
493.77	9194.02
494.13	8939.93
494.49	8692.54
494.85	8444.14
495.21	8212.73
495.57	7994.38
495.93	7764.00
496.29	7557.17
496.64	7378.09
497.00	7181.84
497.36	6985.33
497.72	6811.68
498.08	6620.25
498.44	6433.88
498.80	6265.50
499.16	6105.66
499.52	5956.52
499.88	5827.89
500.24	5704.87
500.60	5577.47
500.96	5469.88
501.32	5351.71
501.68	5237.11
502.03	5107.75
502.39	4986.00
502.75	4838.36
503.11	4711.83
503.47	4590.35
503.83	4473.51
504.19	4355.15
504.55	4258.44
504.91	4158.13
505.26	4058.96
505.62	3967.14
505.98	3883.65
506.34	3785.77
506.70	3699.40
507.06	3612.45
507.42	3534.40
507.78	3454.86
508.13	3382.45
508.49	3301.00
508.85	3228.49
509.21	3154.43
509.57	3085.67
509.93	3018.78
510.28	2948.82
510.64	2886.23
511.00	2816.79
511.36	2755.54
511.72	2701.98
512.07	2659.90
512.43	2607.31
512.79	2564.03
513.15	2516.15
513.51	2468.33
513.86	2420.86
514.22	2380.35
514.58	2334.36
514.94	2299.53
515.30	2263.60
515.65	2223.84
516.01	2193.29
516.37	2168.51
516.73	2131.60
517.08	2107.49
517.44	2080.99
517.80	2050.03
518.16	2020.07
518.51	1997.48
518.87	1961.88
519.23	1935.86
519.59	1907.98
519.94	1879.01
520.30	1853.07
520.66	1833.74
521.01	1811.13
521.37	1792.29
521.73	1775.41
522.09	1756.34
522.44	1734.24
522.80	1714.49
523.16	1692.65
523.51	1667.16
523.87	1643.83
524.23	1625.46
524.58	1606.45
524.94	1593.20
525.30	1580.54
525.65	1565.37
526.01	1549.41
526.37	1538.25
526.72	1522.07
527.08	1512.29
527.44	1501.97
527.79	1490.41
528.15	1474.19
528.51	1459.39
528.86	1443.43
529.22	1436.48
529.58	1422.93
529.93	1413.00
530.29	1400.88
530.65	1392.71
531.00	1378.25
531.36	1372.58
531.71	1359.80
532.07	1354.96
532.43	1347.05
532.78	1341.36
533.14	1327.67
533.49	1324.81
533.85	1317.58
534.21	1306.74
534.56	1299.00
534.92	1297.05
535.27	1293.03
535.63	1288.28
535.98	1284.98
536.34	1274.30
536.69	1269.41
537.05	1258.90
537.41	1250.67
537.76	1244.14
538.12	1242.36
538.47	1237.37
538.83	1235.03
539.18	1231.85
539.54	1229.95
539.89	1224.99
540.25	1219.89
540.60	1215.81
540.96	1218.01
541.31	1214.25
541.67	1216.61
542.02	1215.81
542.38	1215.77
542.73	1208.68
543.09	1205.54
543.44	1199.74
543.80	1195.48
544.15	1191.50
544.51	1189.65
544.86	1186.93
545.22	1181.81
545.57	1178.93
545.93	1175.30
546.28	1171.23
546.64	1170.17
546.99	1170.55
547.35	1168.25
547.70	1164.42
548.05	1161.05
548.41	1158.03
548.76	1155.43
549.12	1152.67
549.47	1152.60
549.83	1149.48
550.18	1148.55
550.53	1145.60
550.89	1143.77
551.24	1142.49
551.60	1142.88
551.95	1140.80
552.30	1141.17
552.66	1141.81
553.01	1138.51
553.37	1134.76
553.72	1133.76
554.07	1133.12
554.43	1134.88
554.78	1136.21
555.13	1135.70
555.49	1134.62
555.84	1132.94
556.19	1128.33
556.55	1126.48
556.90	1127.25
557.26	1124.72
557.61	1124.53
557.96	1123.04
558.32	1118.45
558.67	1117.40
559.02	1115.85
559.37	1112.83
559.73	1112.85
560.08	1113.79
560.43	1112.41
560.79	1116.32
561.14	1118.61
561.49	1115.97
561.85	1116.76
562.20	1117.79
562.55	1116.74
562.90	1114.77
563.26	1115.73
563.61	1116.32
563.96	1113.30
564.32	1109.77
564.67	1109.09
565.02	1110.58
565.37	1109.95
565.73	1112.55
566.08	1112.99
566.43	1109.88
566.78	1108.52
567.14	1106.77
567.49	1102.32
567.84	1100.52
568.19	1101.92
568.54	1100.15
568.90	1099.61
569.25	1104.73
569.60	1106.51
569.95	1106.39
570.31	1107.56
570.66	1109.02
571.01	1105.76
571.36	1105.55
571.71	1104.01
572.06	1101.64
572.42	1100.03
572.77	1096.73
573.12	1095.32
573.47	1098.06
573.82	1096.10
574.18	1095.79
574.53	1100.78
574.88	1100.00
575.23	1097.57
575.58	1098.60
575.93	1098.83
576.28	1095.67
576.64	1095.67
576.99	1097.08
577.34	1096.78
577.69	1095.93
578.04	1094.08
578.39	1097.17
578.74	1096.87
579.09	1098.51
579.44	1100.03
579.80	1101.83
580.15	1098.51
580.50	1094.65
580.85	1095.44
581.20	1092.63
581.55	1090.85
581.90	1093.43
582.25	1094.88
582.60	1092.02
582.95	1092.75
583.30	1095.49
583.65	1091.98
584.00	1094.95
584.35	1094.72
584.71	1094.25
585.06	1093.43
585.41	1093.78
585.76	1090.57
586.11	1090.78
586.46	1089.73
586.81	1088.16
587.16	1089.33
587.51	1089.36
587.86	1091.34
588.21	1095.07
588.56	1095.28
588.91	1094.55
589.26	1093.31
589.61	1089.05
589.96	1082.97
590.31	1083.83
590.66	1083.48
591.01	1085.61
591.36	1089.87
591.71	1092.47
592.06	1091.58
592.41	1087.32
592.76	1088.56
593.10	1083.93
593.45	1083.34
593.80	1086.87
594.15	1090.41
594.50	1089.12
594.85	1093.57
595.20	1093.78
595.55	1089.99
595.90	1091.49
596.25	1089.73
596.60	1086.94
596.95	1088.70
597.30	1086.94
597.64	1094.74
597.99	1096.63
598.34	1098.72
598.69	1098.53
599.04	1099.65
599.39	1090.46
599.74	1087.95
600.09	1085.80
600.44	1088.30
600.78	1089.61
601.13	1090.62
601.48	1092.05
601.83	1092.77
602.18	1088.33
602.53	1086.76
602.88	1087.53
603.22	1089.12
603.57	1089.45
603.92	1088.07
604.27	1094.18
604.62	1090.50
604.97	1085.03
605.31	1084.72
605.66	1086.71
606.01	1081.40
606.36	1084.44
606.71	1086.36
607.05	1087.37
607.40	1086.13
607.75	1084.56
608.10	1081.49
608.44	1084.89
608.79	1082.36
609.14	1082.71
609.49	1085.87
609.84	1084.91
610.18	1081.40
610.53	1082.01
610.88	1080.56
611.23	1077.68
611.57	1080.18
611.92	1080.34
612.27	1080.74
612.62	1083.60
612.96	1080.91
613.31	1080.46
613.66	1079.17
614.00	1077.79
614.35	1080.18
614.70	1083.90
615.05	1083.62
615.39	1082.71
615.74	1082.26
616.09	1079.78
616.43	1077.35
616.78	1075.83
617.13	1078.14
617.47	1082.12
617.82	1081.02
618.17	1083.46
618.51	1084.65
618.86	1085.73
619.21	1084.42
619.55	1084.30
619.90	1082.40
620.25	1081.63
620.59	1080.95
620.94	1080.56
621.29	1081.14
621.63	1082.47
621.98	1085.96
622.32	1086.17
622.67	1084.42
623.02	1087.02
623.36	1089.33
623.71	1085.87
624.05	1085.82
624.40	1086.97
624.75	1085.00
625.09	1085.94
625.44	1087.93
625.78	1087.65
626.13	1089.17
626.48	1088.89
626.82	1086.64
627.17	1086.94
627.51	1089.71
627.86	1090.27
628.20	1089.96
628.55	1088.49
628.89	1090.67
629.24	1090.36
629.58	1089.12
629.93	1085.49
630.28	1087.97
630.62	1086.17
630.97	1085.05
631.31	1084.70
631.66	1088.30
632.00	1083.22
632.35	1084.60
632.69	1084.86
633.04	1084.98
633.38	1084.18
633.73	1088.21
634.07	1086.90
634.42	1087.30
634.76	1089.75
635.11	1090.76
635.45	1090.78
635.79	1092.42
636.14	1092.09
636.48	1087.20
636.83	1084.91
637.17	1088.42
637.52	1083.55
637.86	1080.88
638.21	1083.25
638.55	1085.54
638.89	1080.67
639.24	1082.05
639.58	1082.69
639.93	1081.54
640.27	1082.31
640.61	1084.53
640.96	1085.28
641.30	1087.60
641.65	1088.75
641.99	1087.88
642.33	1085.77
642.68	1085.05
643.02	1084.46
643.37	1082.61
643.71	1085.03
644.05	1085.91
644.40	1087.58
644.74	1084.86
645.08	1085.26
645.43	1084.16
645.77	1081.66
646.11	1081.42
646.46	1085.07
646.80	1085.05
647.14	1083.95
647.49	1084.91
647.83	1081.98
648.17	1080.53
648.52	1081.28
648.86	1081.47
649.20	1082.90
649.55	1082.43
649.89	1081.33
650.23	1084.28
650.57	1084.56
650.92	1082.90
651.26	1085.19
651.60	1085.00
651.95	1084.39
652.29	1082.29
652.63	1082.83
652.97	1083.50
653.32	1085.70
653.66	1083.69
654.00	1085.38
654.34	1085.40
654.69	1082.19
655.03	1081.66
655.37	1080.39
655.71	1077.33
656.05	1077.35
656.40	1081.98
656.74	1077.72
657.08	1079.55
657.42	1081.14
657.76	1081.09
658.11	1081.61
658.45	1085.99
658.79	1088.44
659.13	1089.40
659.47	1090.78
659.82	1088.63
660.16	1085.75
660.50	1081.02
660.84	1077.98
661.18	1077.16
661.52	1075.48
661.87	1076.76
662.21	1077.51
662.55	1082.03
662.89	1083.50
663.23	1085.63
663.57	1083.34
663.91	1082.92
664.25	1080.09
664.60	1077.00
664.94	1074.45
665.28	1076.55
665.62	1077.00
665.96	1079.62
666.30	1081.70
666.64	1083.43
666.98	1083.60
667.32	1081.82
667.66	1079.31
668.01	1079.95
668.35	1079.24
668.69	1079.90
669.03	1084.30
669.37	1083.34
669.71	1081.75
670.05	1082.19
670.39	1083.01
670.73	1081.16
671.07	1082.26
671.41	1081.98
671.75	1078.61
672.09	1075.64
672.43	1071.68
672.77	1072.15
673.11	1074.17
673.45	1078.80
673.79	1082.59
674.13	1086.66
674.47	1088.91
674.81	1085.45
675.15	1082.10
675.49	1078.52
675.83	1076.30
676.17	1078.07
676.51	1081.28
676.85	1083.57
677.19	1084.81
677.53	1088.26
677.87	1084.30
678.21	1082.29
678.55	1082.45
678.89	1084.44
679.23	1082.26
679.57	1085.40
679.90	1088.49
680.24	1086.78
680.58	1085.05
680.92	1085.54
681.26	1086.83
681.60	1086.41
681.94	1089.59
682.28	1089.17
682.62	1088.61
682.96	1084.49
683.29	1080.63
683.63	1077.56
683.97	1076.44
684.31	1078.92
684.65	1080.51
684.99	1080.23
685.33	1079.62
685.67	1082.40
686.00	1082.52
686.34	1081.26
686.68	1080.95
687.02	1080.51
687.36	1077.91
687.70	1075.80
688.03	1076.32
688.37	1075.66
688.71	1079.15
689.05	1080.91
689.39	1081.82
689.72	1081.19
690.06	1085.89
690.40	1086.73
690.74	1089.14
691.08	1088.63
691.41	1090.29
691.75	1087.34
692.09	1084.84
692.43	1081.26
692.76	1078.87
693.10	1076.39
693.44	1075.38
693.78	1075.17
694.11	1073.93
694.45	1077.47
694.79	1077.72
695.13	1080.91
695.46	1080.32
695.80	1079.99
696.14	1078.24
696.48	1081.33
696.81	1080.51
697.15	1083.76
697.49	1089.43
697.82	1090.81
698.16	1088.63
698.50	1087.46
698.83	1082.66
699.17	1077.98
699.51	1078.07
699.84	1076.55
700.18	1077.02
700.52	1082.57
700.85	1087.83
701.19	1088.51
701.53	1088.79
701.86	1088.65
702.20	1084.00
702.54	1081.26
702.87	1078.00
703.21	1078.33
703.55	1078.99
703.88	1082.40
704.22	1080.20
704.55	1078.96
704.89	1080.60
705.23	1081.35
705.56	1079.88
705.90	1079.38
706.23	1081.68
706.57	1082.10
706.91	1079.24
707.24	1079.92
707.58	1082.22
707.91	1080.91
708.25	1077.04
708.58	1079.78
708.92	1080.09
709.26	1080.06
709.59	1080.53
709.93	1082.47
710.26	1083.22
710.60	1082.78
710.93	1082.12
711.27	1085.24
711.60	1082.08
711.94	1084.04
712.27	1084.04
712.61	1083.11
712.94	1080.16
713.28	1079.99
713.61	1075.36
713.95	1073.95
714.28	1073.44
714.62	1073.11
714.95	1074.12
715.29	1071.64
715.62	1070.63
715.96	1071.43
716.29	1071.85
716.63	1074.28
716.96	1078.89
717.29	1080.02
717.63	1081.49
717.96	1080.65
718.30	1078.82
718.63	1078.64
718.97	1079.92
719.30	1081.80
719.63	1084.79
719.97	1086.27
720.30	1085.52
720.64	1084.25
720.97	1080.91
721.30	1079.15
721.64	1080.11
721.97	1082.05
722.31	1084.67
722.64	1086.83
722.97	1089.07
723.31	1087.41
723.64	1082.61
723.97	1077.75
724.31	1076.30
724.64	1074.96
724.98	1074.96
725.31	1078.89
725.64	1083.06
725.98	1081.89
726.31	1081.47
726.64	1081.73
726.97	1077.84
727.31	1076.44
727.64	1076.44
727.97	1077.49
728.31	1077.70
728.64	1078.14
728.97	1076.90
729.31	1079.48
729.64	1078.59
729.97	1078.89
730.30	1081.82
730.64	1083.11
730.97	1082.38
731.30	1083.06
731.63	1078.52
731.97	1074.47
732.30	1074.82
732.63	1074.38
732.96	1075.59
733.30	1077.42
733.63	1079.78
733.96	1076.23
734.29	1079.46
734.63	1081.47
734.96	1085.05
735.29	1088.26
735.62	1091.79
735.95	1085.63
736.29	1080.27
736.62	1076.81
736.95	1073.70
737.28	1071.17
737.61	1072.48
737.94	1075.73
738.28	1077.61
738.61	1081.14
738.94	1079.99
739.27	1080.32
739.60	1076.76
739.93	1078.99
740.27	1074.33
740.60	1077.86
740.93	1076.34
741.26	1079.53
741.59	1079.46
741.92	1084.46
742.25	1083.41
742.58	1086.83
742.91	1083.83
743.25	1081.09
743.58	1079.60
743.91	1079.83
744.24	1077.93
744.57	1079.20
744.90	1081.98
745.23	1081.63
745.56	1082.73
745.89	1084.77
746.22	1082.01
746.55	1080.34
746.88	1081.35
747.21	1078.94
747.54	1078.52
747.87	1078.07
748.20	1077.23
748.53	1072.01
748.87	1074.38
749.20	1074.26
749.53	1078.61
749.86	1075.34
750.19	1077.18
750.52	1077.42
750.85	1075.76
751.18	1075.97
751.51	1079.60
751.84	1080.18
752.16	1079.99
752.49	1082.73
752.82	1081.44
753.15	1079.74
753.48	1078.14
753.81	1076.53
754.14	1073.65
754.47	1070.96
754.80	1075.92
755.13	1076.60
755.46	1076.23
755.79	1076.48
756.12	1079.83
756.45	1076.34
756.78	1077.35
757.11	1077.82
757.43	1077.25
757.76	1075.80
758.09	1079.17
758.42	1081.40
758.75	1081.77
759.08	1082.64
759.41	1083.64
759.74	1081.77
760.07	1082.64
760.39	1084.84
760.72	1085.26
761.05	1084.32
761.38	1083.46
761.71	1082.08
762.04	1080.77
762.36	1080.02
762.69	1078.99
763.02	1080.41
763.35	1078.87
763.68	1080.18
764.01	1079.62
