SpectraSuite Data File
++++++++++++++++++++++++++++++++++++
Date: Mon Aug 26 10:21:48 PDT 2019
User: corrico
Dark Spectrum Present: No
Reference Spectrum Present: No
Number of Sampled Component Spectra: 1
Spectrometers: USB2+H06089
Integration Time (usec): 2000 (USB2+H06089)
Spectra Averaged: 20 (USB2+H06089)
Boxcar Smoothing: 2 (USB2+H06089)
Correct for Electrical Dark: No (USB2+H06089)
Strobe/Lamp Enabled: No (USB2+H06089)
Correct for Detector Non-linearity: No (USB2+H06089)
Correct for Stray Light: No (USB2+H06089)
Number of Pixels in Processed Spectrum: 2048
>>>>>Begin Processed Spectral Data<<<<<
339.70	1020.59
340.07	1020.59
340.45	988.31
340.82	967.41
341.19	943.31
341.57	921.40
341.94	911.66
342.31	905.27
342.69	901.08
343.06	900.78
343.43	897.55
343.81	897.90
344.18	898.79
344.55	898.32
344.93	901.43
345.30	906.65
345.67	914.19
346.04	923.48
346.42	935.47
346.79	944.85
347.16	956.41
347.54	965.14
347.91	972.16
348.28	981.64
348.65	990.35
349.03	996.46
349.40	1003.29
349.77	1010.06
350.14	1015.77
350.52	1021.48
350.89	1025.15
351.26	1030.07
351.63	1037.54
352.01	1045.82
352.38	1051.42
352.75	1060.03
353.12	1064.15
353.50	1065.76
353.87	1065.20
354.24	1070.61
354.61	1071.92
354.98	1075.83
355.36	1077.91
355.73	1084.49
356.10	1083.57
356.47	1085.68
356.84	1086.97
357.22	1089.52
357.59	1084.16
357.96	1083.34
358.33	1081.02
358.70	1078.64
359.08	1076.20
359.45	1076.93
359.82	1077.58
360.19	1077.16
360.56	1076.34
360.94	1075.27
361.31	1073.88
361.68	1071.03
362.05	1070.75
362.42	1068.55
362.79	1067.96
363.16	1066.30
363.54	1067.85
363.91	1065.22
364.28	1065.88
364.65	1064.31
365.02	1065.22
365.39	1061.20
365.76	1064.15
366.14	1065.81
366.51	1066.28
366.88	1066.00
367.25	1067.45
367.62	1064.10
367.99	1062.93
368.36	1062.63
368.73	1063.12
369.10	1064.22
369.48	1066.51
369.85	1069.51
370.22	1072.01
370.59	1071.38
370.96	1070.61
371.33	1067.61
371.70	1066.65
372.07	1065.41
372.44	1065.93
372.81	1068.67
373.18	1069.02
373.55	1067.99
373.93	1068.15
374.30	1068.17
374.67	1063.56
375.04	1066.04
375.41	1064.50
375.78	1068.55
376.15	1069.84
376.52	1072.43
376.89	1074.10
377.26	1075.94
377.63	1070.16
378.00	1070.07
378.37	1072.25
378.74	1070.58
379.11	1068.59
379.48	1073.49
379.85	1072.81
380.22	1072.06
380.59	1072.18
380.96	1073.02
381.33	1070.30
381.70	1070.96
382.07	1068.83
382.44	1068.45
382.81	1070.51
383.18	1070.75
383.55	1071.24
383.92	1072.32
384.29	1070.65
384.66	1068.27
385.03	1070.47
385.40	1069.39
385.77	1070.84
386.14	1071.17
386.51	1072.83
386.88	1069.88
387.25	1070.12
387.62	1067.14
387.99	1065.81
388.36	1067.17
388.73	1068.81
389.10	1069.25
389.46	1071.24
389.83	1076.67
390.20	1072.74
390.57	1072.25
390.94	1072.76
391.31	1073.63
391.68	1072.92
392.05	1075.17
392.42	1076.76
392.79	1073.84
393.16	1071.59
393.53	1070.42
393.89	1070.75
394.26	1067.82
394.63	1068.59
395.00	1071.40
395.37	1072.34
395.74	1072.04
396.11	1074.47
396.48	1076.39
396.84	1073.18
397.21	1072.41
397.58	1070.33
397.95	1069.98
398.32	1071.43
398.69	1075.57
399.06	1075.48
399.42	1078.45
399.79	1075.29
400.16	1073.30
400.53	1070.77
400.90	1070.89
401.27	1069.16
401.64	1071.85
402.00	1073.00
402.37	1074.35
402.74	1077.40
403.11	1076.01
403.48	1075.90
403.84	1076.46
404.21	1074.59
404.58	1074.59
404.95	1074.91
405.32	1075.29
405.68	1074.26
406.05	1077.00
406.42	1075.24
406.79	1075.90
407.16	1073.77
407.52	1073.18
407.89	1071.38
408.26	1071.26
408.63	1070.94
408.99	1075.24
409.36	1074.28
409.73	1074.26
410.10	1072.36
410.47	1076.60
410.83	1076.27
411.20	1079.17
411.57	1080.02
411.94	1079.38
412.30	1078.12
412.67	1077.63
413.04	1076.55
413.40	1077.42
413.77	1079.76
414.14	1078.10
414.51	1076.48
414.87	1077.51
415.24	1076.81
415.61	1077.93
415.97	1077.61
416.34	1076.13
416.71	1074.84
417.08	1072.50
417.44	1071.71
417.81	1073.07
418.18	1075.90
418.54	1077.68
418.91	1082.08
419.28	1081.12
419.64	1082.03
420.01	1079.50
420.38	1077.79
420.74	1074.59
421.11	1075.71
421.48	1076.18
421.84	1078.80
422.21	1081.21
422.58	1081.28
422.94	1082.97
423.31	1081.14
423.68	1081.80
424.04	1083.18
424.41	1085.21
424.77	1084.49
425.14	1087.27
425.51	1089.73
425.87	1091.27
426.24	1093.47
426.61	1092.12
426.97	1093.45
427.34	1094.20
427.70	1093.01
428.07	1092.89
428.44	1099.23
428.80	1099.16
429.17	1100.85
429.53	1103.38
429.90	1105.15
430.27	1100.92
430.63	1104.10
431.00	1104.64
431.36	1105.27
431.73	1111.19
432.09	1117.02
432.46	1120.32
432.83	1122.71
433.19	1128.28
433.56	1127.88
433.92	1133.03
434.29	1134.27
434.65	1138.20
435.02	1140.47
435.38	1144.64
435.75	1147.75
436.11	1152.18
436.48	1157.51
436.84	1162.43
437.21	1166.83
437.57	1172.84
437.94	1181.90
438.30	1192.85
438.67	1200.79
439.03	1209.64
439.40	1218.41
439.76	1225.57
440.13	1234.14
440.49	1243.43
440.86	1254.97
441.22	1269.95
441.59	1280.79
441.95	1291.67
442.32	1307.61
442.68	1322.68
443.05	1337.22
443.41	1361.19
443.78	1376.70
444.14	1395.43
444.51	1413.03
444.87	1436.62
445.24	1455.58
445.60	1481.89
445.96	1505.34
446.33	1535.81
446.69	1561.63
447.06	1590.04
447.42	1619.86
447.79	1651.53
448.15	1686.78
448.51	1717.32
448.88	1754.23
449.24	1792.66
449.61	1838.23
449.97	1883.99
450.33	1934.66
450.70	1979.30
451.06	2026.04
451.43	2071.61
451.79	2123.94
452.15	2186.62
452.52	2253.00
452.88	2320.90
453.24	2390.76
453.61	2467.77
453.97	2547.25
454.34	2630.06
454.70	2722.56
455.06	2815.59
455.43	2908.28
455.79	2988.56
456.15	3084.90
456.52	3175.26
456.88	3289.41
457.24	3395.88
457.61	3525.78
457.97	3646.06
458.33	3774.09
458.70	3901.88
459.06	4022.47
459.42	4149.63
459.79	4273.75
460.15	4411.02
460.51	4523.58
460.88	4660.22
461.24	4787.99
461.60	4928.28
461.96	5063.51
462.33	5192.38
462.69	5308.64
463.05	5423.56
463.42	5533.78
463.78	5634.54
464.14	5739.09
464.50	5845.91
464.87	5934.05
465.23	5989.57
465.59	6055.22
465.95	6116.76
466.32	6167.36
466.68	6212.58
467.04	6246.37
467.40	6260.44
467.77	6257.19
468.13	6245.49
468.49	6224.72
468.85	6219.86
469.22	6198.84
469.58	6170.66
469.94	6143.88
470.30	6106.08
470.66	6049.04
471.03	5983.56
471.39	5929.91
471.75	5833.81
472.11	5743.56
472.47	5672.92
472.84	5599.64
473.20	5507.35
473.56	5455.32
473.92	5378.93
474.28	5307.54
474.65	5238.84
475.01	5179.00
475.37	5091.72
475.73	5025.65
476.09	4946.25
476.45	4875.78
476.81	4810.29
477.18	4750.21
477.54	4690.90
477.90	4636.37
478.26	4569.31
478.62	4511.01
478.98	4462.42
479.34	4420.97
479.71	4378.44
480.07	4338.11
480.43	4294.27
480.79	4246.32
481.15	4197.10
481.51	4143.99
481.87	4098.65
482.23	4041.99
482.59	3993.91
482.96	3941.93
483.32	3898.35
483.68	3853.86
484.04	3820.04
484.40	3776.55
484.76	3729.08
485.12	3682.06
485.48	3628.11
485.84	3572.17
486.20	3517.08
486.56	3472.65
486.92	3427.25
487.28	3384.09
487.64	3334.42
488.00	3286.35
488.37	3230.41
488.73	3171.24
489.09	3111.79
489.45	3059.31
489.81	3012.43
490.17	2961.36
490.53	2909.26
490.89	2860.30
491.25	2809.72
491.61	2757.24
491.97	2711.56
492.33	2665.68
492.69	2619.83
493.05	2575.78
493.41	2530.33
493.77	2484.78
494.13	2447.31
494.49	2408.20
494.85	2371.01
495.21	2334.54
495.57	2299.83
495.93	2260.58
496.29	2227.30
496.64	2189.22
497.00	2154.42
497.36	2122.19
497.72	2093.16
498.08	2061.89
498.44	2038.23
498.80	2010.33
499.16	1983.37
499.52	1956.15
499.88	1936.30
500.24	1917.20
500.60	1897.82
500.96	1878.68
501.32	1859.72
501.68	1836.43
502.03	1808.98
502.39	1785.57
502.75	1760.29
503.11	1737.73
503.47	1716.43
503.83	1695.18
504.19	1676.90
504.55	1662.06
504.91	1646.36
505.26	1625.71
505.62	1611.44
505.98	1595.82
506.34	1576.19
506.70	1556.34
507.06	1539.16
507.42	1524.67
507.78	1507.94
508.13	1493.50
508.49	1483.92
508.85	1479.69
509.21	1462.41
509.57	1451.27
509.93	1442.00
510.28	1428.76
510.64	1412.44
511.00	1404.42
511.36	1393.18
511.72	1380.82
512.07	1370.03
512.43	1359.69
512.79	1348.10
513.15	1340.59
513.51	1329.89
513.86	1320.25
514.22	1312.97
514.58	1306.09
514.94	1299.18
515.30	1295.51
515.65	1287.90
516.01	1280.30
516.37	1272.57
516.73	1267.63
517.08	1261.78
517.44	1257.52
517.80	1251.27
518.16	1248.23
518.51	1240.18
518.87	1233.20
519.23	1227.77
519.59	1223.35
519.94	1219.47
520.30	1216.73
520.66	1212.54
521.01	1205.89
521.37	1204.70
521.73	1198.47
522.09	1192.64
522.44	1190.68
522.80	1190.68
523.16	1184.87
523.51	1182.39
523.87	1178.55
524.23	1175.21
524.58	1172.14
524.94	1167.67
525.30	1166.92
525.65	1165.12
526.01	1162.73
526.37	1162.05
526.72	1159.06
527.08	1152.22
527.44	1150.02
527.79	1148.81
528.15	1142.65
528.51	1140.50
528.86	1140.40
529.22	1136.00
529.58	1136.42
529.93	1136.54
530.29	1133.92
530.65	1134.53
531.00	1136.75
531.36	1131.91
531.71	1131.81
532.07	1133.57
532.43	1130.88
532.78	1127.18
533.14	1125.03
533.49	1123.41
533.85	1121.19
534.21	1120.11
534.56	1119.92
534.92	1118.50
535.27	1117.14
535.63	1116.30
535.98	1115.24
536.34	1113.02
536.69	1109.84
537.05	1106.07
537.41	1103.16
537.76	1100.29
538.12	1098.30
538.47	1101.95
538.83	1103.31
539.18	1104.55
539.54	1103.52
539.89	1104.48
540.25	1102.81
540.60	1099.49
540.96	1098.67
541.31	1100.17
541.67	1101.46
542.02	1098.90
542.38	1097.88
542.73	1098.11
543.09	1099.07
543.44	1098.83
543.80	1102.67
544.15	1105.74
544.51	1105.34
544.86	1100.92
545.22	1099.16
545.57	1093.64
545.93	1092.66
546.28	1090.20
546.64	1087.72
546.99	1086.78
547.35	1089.17
547.70	1091.02
548.05	1090.95
548.41	1095.37
548.76	1095.18
549.12	1094.25
549.47	1090.81
549.83	1089.43
550.18	1091.18
550.53	1091.77
550.89	1092.91
551.24	1093.12
551.60	1093.55
551.95	1090.06
552.30	1089.61
552.66	1086.78
553.01	1086.15
553.37	1086.62
553.72	1087.06
554.07	1082.87
554.43	1084.07
554.78	1081.94
555.13	1078.21
555.49	1075.17
555.84	1076.37
556.19	1073.79
556.55	1076.65
556.90	1079.74
557.26	1080.65
557.61	1079.10
557.96	1080.16
558.32	1078.78
558.67	1081.00
559.02	1079.34
559.37	1079.78
559.73	1081.42
560.08	1083.15
560.43	1079.74
560.79	1082.12
561.14	1080.88
561.49	1078.96
561.85	1077.75
562.20	1078.80
562.55	1080.39
562.90	1081.44
563.26	1085.82
563.61	1084.46
563.96	1086.38
564.32	1084.23
564.67	1086.73
565.02	1083.08
565.37	1085.56
565.73	1083.97
566.08	1082.71
566.43	1082.87
566.78	1082.38
567.14	1080.88
567.49	1083.41
567.84	1081.96
568.19	1076.74
568.54	1079.78
568.90	1077.11
569.25	1075.27
569.60	1076.90
569.95	1079.46
570.31	1074.54
570.66	1078.24
571.01	1075.10
571.36	1078.26
571.71	1079.31
572.06	1079.53
572.42	1077.86
572.77	1080.79
573.12	1082.45
573.47	1080.11
573.82	1083.27
574.18	1086.55
574.53	1085.33
574.88	1079.78
575.23	1081.96
575.58	1080.13
575.93	1074.45
576.28	1073.07
576.64	1072.60
576.99	1072.69
577.34	1074.10
577.69	1078.52
578.04	1079.53
578.39	1080.58
578.74	1080.20
579.09	1078.21
579.44	1076.39
579.80	1076.62
580.15	1077.91
580.50	1076.90
580.85	1078.14
581.20	1076.93
581.55	1076.93
581.90	1072.97
582.25	1075.31
582.60	1073.14
582.95	1073.63
583.30	1073.81
583.65	1079.22
584.00	1077.77
584.35	1079.36
584.71	1078.10
585.06	1077.61
585.41	1077.09
585.76	1080.13
586.11	1080.84
586.46	1081.47
586.81	1082.94
587.16	1081.80
587.51	1081.02
587.86	1079.24
588.21	1079.76
588.56	1076.34
588.91	1077.56
589.26	1074.28
589.61	1075.34
589.96	1075.71
590.31	1077.65
590.66	1072.74
591.01	1075.59
591.36	1077.61
591.71	1078.10
592.06	1078.71
592.41	1082.80
592.76	1081.44
593.10	1079.34
593.45	1075.17
593.80	1072.25
594.15	1070.07
594.50	1067.73
594.85	1067.14
595.20	1072.67
595.55	1075.92
595.90	1076.48
596.25	1076.30
596.60	1077.82
596.95	1076.55
597.30	1076.46
597.64	1089.26
597.99	1092.09
598.34	1091.63
598.69	1089.33
599.04	1088.77
599.39	1076.58
599.74	1077.40
600.09	1076.97
600.44	1077.21
600.78	1076.18
601.13	1075.71
601.48	1073.51
601.83	1073.56
602.18	1072.76
602.53	1072.53
602.88	1077.21
603.22	1077.40
603.57	1077.09
603.92	1078.14
604.27	1078.94
604.62	1073.49
604.97	1073.95
605.31	1074.70
605.66	1074.84
606.01	1074.07
606.36	1076.01
606.71	1077.28
607.05	1073.86
607.40	1075.99
607.75	1078.28
608.10	1079.41
608.44	1079.60
608.79	1081.96
609.14	1084.18
609.49	1083.76
609.84	1081.14
610.18	1081.61
610.53	1085.03
610.88	1085.28
611.23	1084.84
611.57	1087.60
611.92	1088.02
612.27	1086.24
612.62	1084.93
612.96	1082.47
613.31	1079.71
613.66	1078.31
614.00	1078.57
614.35	1075.22
614.70	1078.24
615.05	1077.86
615.39	1078.07
615.74	1074.03
616.09	1075.45
616.43	1075.10
616.78	1073.42
617.13	1069.55
617.47	1072.64
617.82	1072.04
618.17	1067.82
618.51	1069.44
618.86	1074.00
619.21	1074.03
619.55	1075.48
619.90	1076.25
620.25	1075.92
620.59	1071.99
620.94	1069.72
621.29	1067.10
621.63	1068.99
621.98	1067.47
622.32	1069.77
622.67	1072.69
623.02	1071.73
623.36	1071.01
623.71	1074.61
624.05	1074.35
624.40	1071.19
624.75	1073.53
625.09	1074.94
625.44	1073.98
625.78	1073.14
626.13	1075.57
626.48	1074.00
626.82	1074.28
627.17	1073.56
627.51	1075.43
627.86	1072.48
628.20	1074.38
628.55	1074.17
628.89	1078.36
629.24	1076.83
629.58	1077.18
629.93	1078.36
630.28	1075.69
630.62	1072.97
630.97	1073.30
631.31	1075.24
631.66	1073.98
632.00	1074.80
632.35	1074.07
632.69	1075.69
633.04	1076.58
633.38	1073.93
633.73	1076.13
634.07	1077.14
634.42	1075.17
634.76	1073.65
635.11	1073.95
635.45	1072.55
635.79	1071.66
636.14	1073.79
636.48	1075.92
636.83	1076.11
637.17	1077.47
637.52	1077.47
637.86	1078.00
638.21	1073.07
638.55	1074.66
638.89	1077.40
639.24	1077.42
639.58	1071.94
639.93	1073.39
640.27	1073.44
640.61	1070.28
640.96	1069.58
641.30	1072.76
641.65	1075.24
641.99	1072.92
642.33	1070.77
642.68	1070.12
643.02	1069.32
643.37	1066.18
643.71	1068.29
644.05	1069.88
644.40	1072.46
644.74	1074.94
645.08	1076.81
645.43	1078.92
645.77	1079.95
646.11	1078.78
646.46	1076.86
646.80	1076.93
647.14	1077.98
647.49	1078.54
647.83	1080.51
648.17	1083.01
648.52	1085.82
648.86	1081.12
649.20	1082.31
649.55	1077.56
649.89	1073.79
650.23	1072.25
650.57	1072.60
650.92	1069.48
651.26	1073.18
651.60	1075.20
651.95	1075.73
652.29	1079.27
652.63	1079.20
652.97	1077.77
653.32	1078.43
653.66	1076.79
654.00	1075.43
654.34	1076.79
654.69	1079.41
655.03	1078.54
655.37	1080.84
655.71	1081.00
656.05	1078.68
656.40	1078.71
656.74	1077.49
657.08	1077.98
657.42	1075.97
657.76	1078.73
658.11	1077.28
658.45	1080.34
658.79	1077.49
659.13	1078.36
659.47	1078.96
659.82	1078.31
660.16	1079.10
660.50	1076.83
660.84	1077.02
661.18	1075.78
661.52	1074.03
661.87	1070.16
662.21	1072.71
662.55	1074.12
662.89	1074.03
663.23	1080.98
663.57	1083.18
663.91	1085.07
664.25	1085.54
664.60	1085.63
664.94	1078.17
665.28	1076.60
665.62	1074.07
665.96	1073.18
666.30	1073.16
666.64	1076.97
666.98	1076.65
667.32	1077.07
667.66	1076.04
668.01	1076.58
668.35	1078.17
668.69	1078.57
669.03	1079.38
669.37	1080.51
669.71	1080.84
670.05	1077.14
670.39	1076.74
670.73	1076.90
671.07	1073.11
671.41	1072.50
671.75	1073.23
672.09	1074.75
672.43	1073.16
672.77	1076.25
673.11	1074.63
673.45	1075.48
673.79	1073.32
674.13	1073.70
674.47	1073.25
674.81	1077.47
675.15	1079.06
675.49	1079.62
675.83	1080.18
676.17	1080.74
676.51	1078.00
676.85	1076.74
677.19	1075.76
677.53	1077.40
677.87	1076.55
678.21	1077.00
678.55	1077.37
678.89	1079.85
679.23	1081.12
679.57	1080.46
679.90	1079.69
680.24	1078.57
680.58	1080.32
680.92	1077.16
681.26	1080.72
681.60	1078.33
681.94	1076.86
682.28	1074.63
682.62	1075.41
682.96	1071.54
683.29	1074.52
683.63	1073.81
683.97	1073.44
684.31	1077.00
684.65	1077.89
684.99	1077.51
685.33	1078.33
685.67	1080.27
686.00	1075.71
686.34	1076.51
686.68	1078.12
687.02	1081.02
687.36	1081.51
687.70	1081.16
688.03	1080.56
688.37	1078.73
688.71	1076.74
689.05	1074.84
689.39	1077.79
689.72	1079.60
690.06	1082.03
690.40	1081.66
690.74	1082.08
691.08	1078.66
691.41	1077.30
691.75	1073.72
692.09	1073.04
692.43	1071.29
692.76	1072.90
693.10	1070.02
693.44	1069.46
693.78	1068.06
694.11	1066.70
694.45	1064.97
694.79	1066.84
695.13	1069.55
695.46	1070.89
695.80	1072.34
696.14	1073.60
696.48	1074.38
696.81	1071.85
697.15	1072.53
697.49	1075.41
697.82	1074.84
698.16	1074.80
698.50	1078.24
698.83	1079.50
699.17	1076.39
699.51	1076.08
699.84	1076.18
700.18	1075.27
700.52	1072.90
700.85	1074.21
701.19	1076.55
701.53	1078.17
701.86	1075.13
702.20	1074.35
702.54	1073.42
702.87	1073.46
703.21	1070.77
703.55	1069.27
703.88	1069.62
704.22	1072.62
704.55	1070.51
704.89	1071.15
705.23	1072.62
705.56	1073.07
705.90	1069.86
706.23	1068.69
706.57	1067.54
706.91	1070.02
707.24	1067.73
707.58	1067.99
707.91	1069.88
708.25	1067.71
708.58	1066.37
708.92	1068.64
709.26	1068.78
709.59	1066.63
709.93	1068.01
710.26	1064.01
710.60	1064.62
710.93	1065.55
711.27	1067.87
711.60	1071.40
711.94	1078.03
712.27	1078.59
712.61	1078.96
712.94	1079.41
713.28	1074.96
713.61	1073.63
713.95	1073.51
714.28	1070.80
714.62	1070.98
714.95	1072.62
715.29	1071.31
715.62	1074.68
715.96	1075.03
716.29	1075.57
716.63	1076.74
716.96	1078.33
717.29	1075.34
717.63	1076.53
717.96	1075.36
718.30	1073.70
718.63	1071.50
718.97	1074.40
719.30	1074.40
719.63	1074.40
719.97	1073.84
720.30	1076.65
720.64	1075.76
720.97	1075.55
721.30	1075.87
721.64	1079.36
721.97	1076.01
722.31	1074.17
722.64	1075.29
722.97	1076.72
723.31	1077.63
723.64	1079.27
723.97	1077.09
724.31	1079.31
724.64	1074.70
724.98	1070.84
725.31	1069.77
725.64	1071.38
725.98	1069.84
726.31	1072.90
726.64	1077.11
726.97	1081.14
727.31	1081.02
727.64	1081.02
727.97	1081.56
728.31	1080.48
728.64	1077.25
728.97	1080.11
729.31	1080.65
729.64	1079.03
729.97	1078.40
730.30	1080.37
730.64	1076.46
730.97	1073.35
731.30	1073.81
731.63	1068.67
731.97	1068.59
732.30	1068.36
732.63	1071.36
732.96	1070.65
733.30	1077.18
733.63	1077.28
733.96	1079.13
734.29	1077.72
734.63	1078.71
734.96	1078.89
735.29	1078.19
735.62	1078.59
735.95	1078.00
736.29	1077.58
736.62	1072.55
736.95	1069.95
737.28	1068.50
737.61	1071.24
737.94	1070.89
738.28	1072.71
738.61	1072.97
738.94	1074.87
739.27	1072.76
739.60	1074.63
739.93	1073.60
740.27	1076.37
740.60	1076.13
740.93	1076.97
741.26	1075.99
741.59	1077.30
741.92	1076.55
742.25	1072.25
742.58	1069.88
742.91	1069.74
743.25	1069.81
743.58	1065.37
743.91	1068.08
744.24	1068.08
744.57	1066.91
744.90	1067.03
745.23	1070.00
745.56	1069.23
745.89	1069.91
746.22	1071.15
746.55	1069.09
746.88	1068.67
747.21	1070.68
747.54	1072.41
747.87	1072.90
748.20	1076.44
748.53	1078.99
748.87	1083.25
749.20	1079.06
749.53	1078.07
749.86	1078.07
750.19	1074.42
750.52	1071.01
750.85	1074.73
751.18	1078.54
751.51	1079.10
751.84	1079.90
752.16	1078.38
752.49	1079.17
752.82	1076.13
753.15	1076.01
753.48	1080.18
753.81	1079.92
754.14	1079.41
754.47	1079.38
754.80	1080.32
755.13	1076.60
755.46	1076.69
755.79	1075.87
756.12	1076.51
756.45	1075.31
756.78	1077.25
757.11	1076.76
757.43	1076.81
757.76	1074.24
758.09	1073.79
758.42	1072.95
758.75	1074.19
759.08	1077.00
759.41	1078.28
759.74	1077.07
760.07	1077.89
760.39	1073.74
760.72	1072.36
761.05	1074.00
761.38	1075.83
761.71	1075.50
762.04	1078.80
762.36	1076.32
762.69	1075.10
763.02	1073.02
763.35	1072.71
763.68	1075.64
764.01	1075.92
764.33	1077.93
764.66	1080.25
764.99	1079.48
765.32	1075.64
765.65	1075.76
765.97	1072.78
766.30	1073.81
