SpectraSuite Data File
++++++++++++++++++++++++++++++++++++
Date: Mon Aug 26 10:22:27 PDT 2019
User: corrico
Dark Spectrum Present: No
Reference Spectrum Present: No
Number of Sampled Component Spectra: 1
Spectrometers: USB2+H06089
Integration Time (usec): 2000 (USB2+H06089)
Spectra Averaged: 20 (USB2+H06089)
Boxcar Smoothing: 2 (USB2+H06089)
Correct for Electrical Dark: No (USB2+H06089)
Strobe/Lamp Enabled: No (USB2+H06089)
Correct for Detector Non-linearity: No (USB2+H06089)
Correct for Stray Light: No (USB2+H06089)
Number of Pixels in Processed Spectrum: 2048
>>>>>Begin Processed Spectral Data<<<<<
339.70	1034.40
340.07	1034.40
340.45	998.89
340.82	977.62
341.19	952.41
341.57	928.07
341.94	917.77
342.31	909.95
342.69	901.25
343.06	897.27
343.43	894.79
343.81	893.71
344.18	897.29
344.55	904.24
344.93	909.60
345.30	914.47
345.67	925.26
346.04	929.10
346.42	936.78
346.79	946.37
347.16	960.09
347.54	967.95
347.91	978.48
348.28	988.81
348.65	998.26
349.03	1004.70
349.40	1013.45
349.77	1019.35
350.14	1027.50
350.52	1036.11
350.89	1042.80
351.26	1045.68
351.63	1052.47
352.01	1051.39
352.38	1055.86
352.75	1058.86
353.12	1063.63
353.50	1068.43
353.87	1071.54
354.24	1068.55
354.61	1070.54
354.98	1073.53
355.36	1077.07
355.73	1081.07
356.10	1086.03
356.47	1086.94
356.84	1087.62
357.22	1084.91
357.59	1084.16
357.96	1083.76
358.33	1083.81
358.70	1083.08
359.08	1085.59
359.45	1085.07
359.82	1086.08
360.19	1085.26
360.56	1084.11
360.94	1080.41
361.31	1081.05
361.68	1077.42
362.05	1079.10
362.42	1079.76
362.79	1081.23
363.16	1078.61
363.54	1079.78
363.91	1078.38
364.28	1076.55
364.65	1073.18
365.02	1077.42
365.39	1076.18
365.76	1074.33
366.14	1075.22
366.51	1078.21
366.88	1072.67
367.25	1071.68
367.62	1071.19
367.99	1070.12
368.36	1070.16
368.73	1074.42
369.10	1078.50
369.48	1079.20
369.85	1080.95
370.22	1079.08
370.59	1076.74
370.96	1076.48
371.33	1074.33
371.70	1072.27
372.07	1071.85
372.44	1075.36
372.81	1072.74
373.18	1074.54
373.55	1076.88
373.93	1080.58
374.30	1079.22
374.67	1081.21
375.04	1082.17
375.41	1081.68
375.78	1079.99
376.15	1077.77
376.52	1080.06
376.89	1080.48
377.26	1080.63
377.63	1080.63
378.00	1081.63
378.37	1077.00
378.74	1078.38
379.11	1078.71
379.48	1079.22
379.85	1082.19
380.22	1081.91
380.59	1082.38
380.96	1082.05
381.33	1082.40
381.70	1083.41
382.07	1087.23
382.44	1085.40
382.81	1085.14
383.18	1086.45
383.55	1083.76
383.92	1083.34
384.29	1084.70
384.66	1084.51
385.03	1083.43
385.40	1082.03
385.77	1081.00
386.14	1082.36
386.51	1081.12
386.88	1081.73
387.25	1087.97
387.62	1089.99
387.99	1090.34
388.36	1091.81
388.73	1091.67
389.10	1086.08
389.46	1084.91
389.83	1080.98
390.20	1082.64
390.57	1080.67
390.94	1084.96
391.31	1084.23
391.68	1084.72
392.05	1085.68
392.42	1090.69
392.79	1088.26
393.16	1089.17
393.53	1090.39
393.89	1089.75
394.26	1085.12
394.63	1085.00
395.00	1085.52
395.37	1087.41
395.74	1085.33
396.11	1086.97
396.48	1090.29
396.84	1088.42
397.21	1085.87
397.58	1088.33
397.95	1086.06
398.32	1081.68
398.69	1083.53
399.06	1085.47
399.42	1084.07
399.79	1087.88
400.16	1089.26
400.53	1089.47
400.90	1086.90
401.27	1087.72
401.64	1087.37
402.00	1087.62
402.37	1087.79
402.74	1089.94
403.11	1090.57
403.48	1090.50
403.84	1090.74
404.21	1091.13
404.58	1091.91
404.95	1090.24
405.32	1089.31
405.68	1091.37
406.05	1091.16
406.42	1089.78
406.79	1090.03
407.16	1090.24
407.52	1089.80
407.89	1089.43
408.26	1092.09
408.63	1095.56
408.99	1099.33
409.36	1099.16
409.73	1101.88
410.10	1101.03
410.47	1098.76
410.83	1096.89
411.20	1094.65
411.57	1092.70
411.94	1092.00
412.30	1093.15
412.67	1092.49
413.04	1097.20
413.40	1098.16
413.77	1098.83
414.14	1101.36
414.51	1102.93
414.87	1100.26
415.24	1102.42
415.61	1104.71
415.97	1104.64
416.34	1105.04
416.71	1109.51
417.08	1107.61
417.44	1107.59
417.81	1106.77
418.18	1106.70
418.54	1105.04
418.91	1107.31
419.28	1111.78
419.64	1110.70
420.01	1111.71
420.38	1113.46
420.74	1115.12
421.11	1112.39
421.48	1116.39
421.84	1120.11
422.21	1122.78
422.58	1121.80
422.94	1124.70
423.31	1126.52
423.68	1125.70
424.04	1129.99
424.41	1137.34
424.77	1137.87
425.14	1141.36
425.51	1146.77
425.87	1148.13
426.24	1151.05
426.61	1155.17
426.97	1161.96
427.34	1166.69
427.70	1173.64
428.07	1180.45
428.44	1189.53
428.80	1198.52
429.17	1206.01
429.53	1213.43
429.90	1225.90
430.27	1235.15
430.63	1240.48
431.00	1254.34
431.36	1266.98
431.73	1274.02
432.09	1286.73
432.46	1304.26
432.83	1316.97
433.19	1329.52
433.56	1348.57
433.92	1368.84
434.29	1385.29
434.65	1409.49
435.02	1436.27
435.38	1463.61
435.75	1490.66
436.11	1521.16
436.48	1553.91
436.84	1588.69
437.21	1625.06
437.57	1659.77
437.94	1705.50
438.30	1748.33
438.67	1794.79
439.03	1843.01
439.40	1900.16
439.76	1955.61
440.13	2014.01
440.49	2077.09
440.86	2143.74
441.22	2214.80
441.59	2287.97
441.95	2368.88
442.32	2451.43
442.68	2541.75
443.05	2632.14
443.41	2729.32
443.78	2830.25
444.14	2939.85
444.51	3048.95
444.87	3191.48
445.24	3333.77
445.60	3483.84
445.96	3636.30
446.33	3810.18
446.69	3966.01
447.06	4139.49
447.42	4320.16
447.79	4509.51
448.15	4735.04
448.51	4966.24
448.88	5224.15
449.24	5476.57
449.61	5750.95
449.97	6012.93
450.33	6298.05
450.70	6562.23
451.06	6878.02
451.43	7193.31
451.79	7555.60
452.15	7960.61
452.52	8410.72
452.88	8876.86
453.24	9399.05
453.61	9970.10
453.97	10524.57
454.34	11072.21
454.70	11711.97
455.06	12363.15
455.43	12994.86
455.79	13597.34
456.15	14309.29
456.52	14970.56
456.88	15734.88
457.24	16459.37
457.61	17294.73
457.97	18056.65
458.33	18830.90
458.70	19582.09
459.06	20346.53
459.42	21184.56
459.79	21971.57
460.15	22885.48
460.51	23752.58
460.88	24678.89
461.24	25481.93
461.60	26453.44
461.96	27304.29
462.33	28130.24
462.69	28890.33
463.05	29716.05
463.42	30420.83
463.78	31054.65
464.14	31590.47
464.50	32199.52
464.87	32682.68
465.23	33018.87
465.59	33386.24
465.95	33727.52
466.32	33987.11
466.68	34184.58
467.04	34327.16
467.40	34449.85
467.77	34584.11
468.13	34557.57
468.49	34490.04
468.85	34403.86
469.22	34251.47
469.58	33908.75
469.94	33658.14
470.30	33341.21
470.66	32938.22
471.03	32350.53
471.39	31980.31
471.75	31351.69
472.11	30765.90
472.47	30420.67
472.84	30115.28
473.20	29628.40
473.56	29373.63
473.92	28969.86
474.28	28430.23
474.65	27933.57
475.01	27450.25
475.37	26859.73
475.73	26372.57
476.09	25858.36
476.45	25329.98
476.81	24801.91
477.18	24268.85
477.54	23838.24
477.90	23476.42
478.26	23069.09
478.62	22729.83
478.98	22445.36
479.34	22108.42
479.71	21695.81
480.07	21339.20
480.43	20988.59
480.79	20594.00
481.15	20241.73
481.51	19920.56
481.87	19669.21
482.23	19379.19
482.59	19127.58
482.96	18836.47
483.32	18556.47
483.68	18174.10
484.04	17837.76
484.40	17483.47
484.76	17133.59
485.12	16758.00
485.48	16439.22
485.84	16085.05
486.20	15725.03
486.56	15361.54
486.92	15051.66
487.28	14695.73
487.64	14340.58
488.00	14018.80
488.37	13685.09
488.73	13329.37
489.09	12986.93
489.45	12672.55
489.81	12359.01
490.17	12067.43
490.53	11787.62
490.89	11493.22
491.25	11198.22
491.61	10889.27
491.97	10572.71
492.33	10252.11
492.69	9965.32
493.05	9663.88
493.41	9374.90
493.77	9103.07
494.13	8852.49
494.49	8607.34
494.85	8371.00
495.21	8156.88
495.57	7942.33
495.93	7722.81
496.29	7509.23
496.64	7332.03
497.00	7133.41
497.36	6945.00
497.72	6760.43
498.08	6585.57
498.44	6394.48
498.80	6226.46
499.16	6070.76
499.52	5926.54
499.88	5799.26
500.24	5685.63
500.60	5564.41
500.96	5440.65
501.32	5318.33
501.68	5197.30
502.03	5063.70
502.39	4939.72
502.75	4809.01
503.11	4685.26
503.47	4559.27
503.83	4442.45
504.19	4321.89
504.55	4217.41
504.91	4121.89
505.26	4029.02
505.62	3942.49
505.98	3856.71
506.34	3763.82
506.70	3670.36
507.06	3582.68
507.42	3496.88
507.78	3419.90
508.13	3350.55
508.49	3280.66
508.85	3207.80
509.21	3141.37
509.57	3071.37
509.93	3005.39
510.28	2937.07
510.64	2876.38
511.00	2809.18
511.36	2752.68
511.72	2693.86
512.07	2646.56
512.43	2592.35
512.79	2541.99
513.15	2491.57
513.51	2444.36
513.86	2394.25
514.22	2354.84
514.58	2317.81
514.94	2284.48
515.30	2250.96
515.65	2218.92
516.01	2189.85
516.37	2161.23
516.73	2131.81
517.08	2104.28
517.44	2073.81
517.80	2041.77
518.16	2013.31
518.51	1983.09
518.87	1953.88
519.23	1927.06
519.59	1901.90
519.94	1874.21
520.30	1847.20
520.66	1822.93
521.01	1802.14
521.37	1778.10
521.73	1758.89
522.09	1741.38
522.44	1723.34
522.80	1703.84
523.16	1686.22
523.51	1666.56
523.87	1650.92
524.23	1630.84
524.58	1613.17
524.94	1596.92
525.30	1583.14
525.65	1563.74
526.01	1549.01
526.37	1536.91
526.72	1526.15
527.08	1510.46
527.44	1497.97
527.79	1487.06
528.15	1474.61
528.51	1456.59
528.86	1443.76
529.22	1428.85
529.58	1413.94
529.93	1402.00
530.29	1396.39
530.65	1385.50
531.00	1378.76
531.36	1369.99
531.71	1357.79
532.07	1349.86
532.43	1345.11
532.78	1338.51
533.14	1329.89
533.49	1326.19
533.85	1317.96
534.21	1309.74
534.56	1303.47
534.92	1300.94
535.27	1296.70
535.63	1293.99
535.98	1287.15
536.34	1278.82
536.69	1271.71
537.05	1264.50
537.41	1252.96
537.76	1249.12
538.12	1246.62
538.47	1242.96
538.83	1236.90
539.18	1238.52
539.54	1234.84
539.89	1228.43
540.25	1225.11
540.60	1220.94
540.96	1214.04
541.31	1209.80
541.67	1207.11
542.02	1203.29
542.38	1203.32
542.73	1201.98
543.09	1194.82
543.44	1191.01
543.80	1187.68
544.15	1183.33
544.51	1179.21
544.86	1180.31
545.22	1180.31
545.57	1179.65
545.93	1177.94
546.28	1176.19
546.64	1173.19
546.99	1169.71
547.35	1165.24
547.70	1165.10
548.05	1164.32
548.41	1162.45
548.76	1163.76
549.12	1164.25
549.47	1158.14
549.83	1149.72
550.18	1148.76
550.53	1143.35
550.89	1140.94
551.24	1138.41
551.60	1139.12
551.95	1136.85
552.30	1137.27
552.66	1137.71
553.01	1138.25
553.37	1136.03
553.72	1131.70
554.07	1132.21
554.43	1126.52
554.78	1125.03
555.13	1126.48
555.49	1128.91
555.84	1126.43
556.19	1129.36
556.55	1128.26
556.90	1126.76
557.26	1123.78
557.61	1123.32
557.96	1118.14
558.32	1116.46
558.67	1115.55
559.02	1115.92
559.37	1114.40
559.73	1118.59
560.08	1119.08
560.43	1117.25
560.79	1116.65
561.14	1112.60
561.49	1106.82
561.85	1105.48
562.20	1108.15
562.55	1109.46
562.90	1110.28
563.26	1109.69
563.61	1106.58
563.96	1106.63
564.32	1104.31
564.67	1105.20
565.02	1107.19
565.37	1109.06
565.73	1106.63
566.08	1107.71
566.43	1105.18
566.78	1102.88
567.14	1103.75
567.49	1104.78
567.84	1100.38
568.19	1102.18
568.54	1099.26
568.90	1098.55
569.25	1097.15
569.60	1096.31
569.95	1092.54
570.31	1097.34
570.66	1096.75
571.01	1096.35
571.36	1099.86
571.71	1104.17
572.06	1104.08
572.42	1102.49
572.77	1103.28
573.12	1104.71
573.47	1101.85
573.82	1098.83
574.18	1097.95
574.53	1096.54
574.88	1094.97
575.23	1096.14
575.58	1096.87
575.93	1096.59
576.28	1096.82
576.64	1094.43
576.99	1095.39
577.34	1091.91
577.69	1093.94
578.04	1091.34
578.39	1089.82
578.74	1085.70
579.09	1088.16
579.44	1088.61
579.80	1088.75
580.15	1089.12
580.50	1093.94
580.85	1093.55
581.20	1092.35
581.55	1090.88
581.90	1094.36
582.25	1091.09
582.60	1088.61
582.95	1086.43
583.30	1088.09
583.65	1088.21
584.00	1089.29
584.35	1091.58
584.71	1094.34
585.06	1095.39
585.41	1093.17
585.76	1091.56
586.11	1093.94
586.46	1092.87
586.81	1094.46
587.16	1090.85
587.51	1091.67
587.86	1088.58
588.21	1085.68
588.56	1085.00
588.91	1088.98
589.26	1091.42
589.61	1090.17
589.96	1090.62
590.31	1089.31
590.66	1089.50
591.01	1083.57
591.36	1083.55
591.71	1081.68
592.06	1079.85
592.41	1079.97
592.76	1081.68
593.10	1080.30
593.45	1085.07
593.80	1085.45
594.15	1083.32
594.50	1083.71
594.85	1085.63
595.20	1082.43
595.55	1081.40
595.90	1083.95
596.25	1084.67
596.60	1086.08
596.95	1086.87
597.30	1087.39
597.64	1096.17
597.99	1099.54
598.34	1098.02
598.69	1098.72
599.04	1100.57
599.39	1092.05
599.74	1088.35
600.09	1085.14
600.44	1086.41
600.78	1083.34
601.13	1084.14
601.48	1084.49
601.83	1089.43
602.18	1089.10
602.53	1089.89
602.88	1086.83
603.22	1086.71
603.57	1088.79
603.92	1086.87
604.27	1085.31
604.62	1086.29
604.97	1085.68
605.31	1080.84
605.66	1083.43
606.01	1085.96
606.36	1086.73
606.71	1089.14
607.05	1090.13
607.40	1086.59
607.75	1085.03
608.10	1083.46
608.44	1082.52
608.79	1081.40
609.14	1084.14
609.49	1085.21
609.84	1086.85
610.18	1082.29
610.53	1085.33
610.88	1083.01
611.23	1085.59
611.57	1080.93
611.92	1087.18
612.27	1085.26
612.62	1084.93
612.96	1081.09
613.31	1082.38
613.66	1078.92
614.00	1078.03
614.35	1078.31
614.70	1078.52
615.05	1079.29
615.39	1079.64
615.74	1080.70
616.09	1081.09
616.43	1079.71
616.78	1079.50
617.13	1078.05
617.47	1080.79
617.82	1080.53
618.17	1085.59
618.51	1084.21
618.86	1084.89
619.21	1081.73
619.55	1082.03
619.90	1076.95
620.25	1078.52
620.59	1078.68
620.94	1079.31
621.29	1078.47
621.63	1083.55
621.98	1082.76
622.32	1082.24
622.67	1082.31
623.02	1083.76
623.36	1083.76
623.71	1084.49
624.05	1086.76
624.40	1083.57
624.75	1082.33
625.09	1082.08
625.44	1083.27
625.78	1083.18
626.13	1084.14
626.48	1083.34
626.82	1080.98
627.17	1079.64
627.51	1078.40
627.86	1079.06
628.20	1080.86
628.55	1080.30
628.89	1079.62
629.24	1080.70
629.58	1082.15
629.93	1081.66
630.28	1083.83
630.62	1086.36
630.97	1085.10
631.31	1086.36
631.66	1088.98
632.00	1086.90
632.35	1085.10
632.69	1085.05
633.04	1085.91
633.38	1081.19
633.73	1078.96
634.07	1078.40
634.42	1079.38
634.76	1075.34
635.11	1076.88
635.45	1078.94
635.79	1078.73
636.14	1074.35
636.48	1079.48
636.83	1080.53
637.17	1080.32
637.52	1080.06
637.86	1083.04
638.21	1080.56
638.55	1084.14
638.89	1085.33
639.24	1086.31
639.58	1086.97
639.93	1084.09
640.27	1081.14
640.61	1080.46
640.96	1078.36
641.30	1076.37
641.65	1079.57
641.99	1078.10
642.33	1080.25
642.68	1084.51
643.02	1085.52
643.37	1084.65
643.71	1081.12
644.05	1078.28
644.40	1075.27
644.74	1072.41
645.08	1070.87
645.43	1075.13
645.77	1076.32
646.11	1078.64
646.46	1083.69
646.80	1084.00
647.14	1085.07
647.49	1088.04
647.83	1088.30
648.17	1086.87
648.52	1088.75
648.86	1089.24
649.20	1085.12
649.55	1081.98
649.89	1079.57
650.23	1077.79
650.57	1076.25
650.92	1075.76
651.26	1076.74
651.60	1079.97
651.95	1078.82
652.29	1080.06
652.63	1083.50
652.97	1084.79
653.32	1081.33
653.66	1082.52
654.00	1080.98
654.34	1081.14
654.69	1084.44
655.03	1084.86
655.37	1085.07
655.71	1082.38
656.05	1081.49
656.40	1077.18
656.74	1079.22
657.08	1080.51
657.42	1086.62
657.76	1085.63
658.11	1088.14
658.45	1089.52
658.79	1085.10
659.13	1084.35
659.47	1083.29
659.82	1082.22
660.16	1082.40
660.50	1087.53
660.84	1085.17
661.18	1084.25
661.52	1084.63
661.87	1083.18
662.21	1083.53
662.55	1083.29
662.89	1085.84
663.23	1080.74
663.57	1080.44
663.91	1077.18
664.25	1076.34
664.60	1073.56
664.94	1079.17
665.28	1081.82
665.62	1082.50
665.96	1081.77
666.30	1082.87
666.64	1078.57
666.98	1074.80
667.32	1074.54
667.66	1077.91
668.01	1076.79
668.35	1078.26
668.69	1079.90
669.03	1081.28
669.37	1078.78
669.71	1080.60
670.05	1083.43
670.39	1082.69
670.73	1080.51
671.07	1082.17
671.41	1080.32
671.75	1079.01
672.09	1078.99
672.43	1081.77
672.77	1082.59
673.11	1084.16
673.45	1084.42
673.79	1085.66
674.13	1084.79
674.47	1081.98
674.81	1081.30
675.15	1080.95
675.49	1082.40
675.83	1084.21
676.17	1086.83
676.51	1089.14
676.85	1086.92
677.19	1083.97
677.53	1084.56
677.87	1081.23
678.21	1081.14
678.55	1083.67
678.89	1084.79
679.23	1083.50
679.57	1086.27
679.90	1087.06
680.24	1086.69
680.58	1088.19
680.92	1085.91
681.26	1085.49
681.60	1082.76
681.94	1084.21
682.28	1082.47
682.62	1082.01
682.96	1080.88
683.29	1082.59
683.63	1081.49
683.97	1081.80
684.31	1082.71
684.65	1084.23
684.99	1082.03
685.33	1080.84
685.67	1080.58
686.00	1081.12
686.34	1080.58
686.68	1079.62
687.02	1081.89
687.36	1082.08
687.70	1082.52
688.03	1081.51
688.37	1084.23
688.71	1082.10
689.05	1081.61
689.39	1079.22
689.72	1078.73
690.06	1076.69
690.40	1077.14
690.74	1079.46
691.08	1083.15
691.41	1083.29
691.75	1083.60
692.09	1082.85
692.43	1079.20
692.76	1076.58
693.10	1078.03
693.44	1078.61
693.78	1081.82
694.11	1084.04
694.45	1084.53
694.79	1083.67
695.13	1083.64
695.46	1080.02
695.80	1078.24
696.14	1077.58
696.48	1076.06
696.81	1075.90
697.15	1074.75
697.49	1074.87
697.82	1073.32
698.16	1074.96
698.50	1075.80
698.83	1077.07
699.17	1079.92
699.51	1080.93
699.84	1082.66
700.18	1082.59
700.52	1083.43
700.85	1082.97
701.19	1085.45
701.53	1085.66
701.86	1085.35
702.20	1083.22
702.54	1081.56
702.87	1081.68
703.21	1076.86
703.55	1075.78
703.88	1078.45
704.22	1078.57
704.55	1077.14
704.89	1079.95
705.23	1079.92
705.56	1080.11
705.90	1080.37
706.23	1084.81
706.57	1085.24
706.91	1088.23
707.24	1086.85
707.58	1085.82
707.91	1081.00
708.25	1077.86
708.58	1077.40
708.92	1077.35
709.26	1078.43
709.59	1078.80
709.93	1082.83
710.26	1082.29
710.60	1082.99
710.93	1081.77
711.27	1082.97
711.60	1081.51
711.94	1079.83
712.27	1079.76
712.61	1080.51
712.94	1077.54
713.28	1076.86
713.61	1074.12
713.95	1074.31
714.28	1071.57
714.62	1076.65
714.95	1075.38
715.29	1077.86
715.62	1079.15
715.96	1080.72
716.29	1077.44
716.63	1080.95
716.96	1082.05
717.29	1081.09
717.63	1081.35
717.96	1080.65
718.30	1079.36
718.63	1077.56
718.97	1076.95
719.30	1078.80
719.63	1081.07
719.97	1078.92
720.30	1082.69
720.64	1082.10
720.97	1082.05
721.30	1082.50
721.64	1085.99
721.97	1083.83
722.31	1088.35
722.64	1087.58
722.97	1085.45
723.31	1088.02
723.64	1090.29
723.97	1086.34
724.31	1087.13
724.64	1086.85
724.98	1081.30
725.31	1080.51
725.64	1079.01
725.98	1079.71
726.31	1082.47
726.64	1083.60
726.97	1082.97
727.31	1083.34
727.64	1082.59
727.97	1080.88
728.31	1080.16
728.64	1077.70
728.97	1079.99
729.31	1078.26
729.64	1077.35
729.97	1079.01
730.30	1080.20
730.64	1078.75
730.97	1080.23
731.30	1078.47
731.63	1076.83
731.97	1077.68
732.30	1078.75
732.63	1078.14
732.96	1082.69
733.30	1083.53
733.63	1078.80
733.96	1074.80
734.29	1072.81
734.63	1067.64
734.96	1069.23
735.29	1073.51
735.62	1076.69
735.95	1076.67
736.29	1080.70
736.62	1077.54
736.95	1079.46
737.28	1080.93
737.61	1086.57
737.94	1085.17
738.28	1086.03
738.61	1082.33
738.94	1083.53
739.27	1079.78
739.60	1078.75
739.93	1078.47
740.27	1079.71
740.60	1076.53
740.93	1075.94
741.26	1077.77
741.59	1082.73
741.92	1080.39
742.25	1082.01
742.58	1083.81
742.91	1081.56
743.25	1074.28
743.58	1073.91
743.91	1074.07
744.24	1074.61
744.57	1075.27
744.90	1078.47
745.23	1081.77
745.56	1082.19
745.89	1081.91
746.22	1083.34
746.55	1084.07
746.88	1083.13
747.21	1081.68
747.54	1078.28
747.87	1078.28
748.20	1074.59
748.53	1072.76
748.87	1073.44
749.20	1074.24
749.53	1071.87
749.86	1073.81
750.19	1076.44
750.52	1072.36
750.85	1076.48
751.18	1077.40
751.51	1079.99
751.84	1081.33
752.16	1084.46
752.49	1081.84
752.82	1082.80
753.15	1084.70
753.48	1082.29
753.81	1083.34
754.14	1081.51
754.47	1078.94
754.80	1076.93
755.13	1076.30
755.46	1072.60
755.79	1074.24
756.12	1076.46
756.45	1075.64
756.78	1076.95
757.11	1082.36
757.43	1079.64
757.76	1080.93
758.09	1080.72
758.42	1079.22
758.75	1073.91
759.08	1074.56
759.41	1073.67
759.74	1074.00
760.07	1076.06
760.39	1078.07
760.72	1082.08
761.05	1080.56
761.38	1078.54
761.71	1079.31
762.04	1078.43
762.36	1072.85
762.69	1073.44
763.02	1077.35
763.35	1075.43
763.68	1078.82
764.01	1081.35
