SpectraSuite Data File
++++++++++++++++++++++++++++++++++++
Date: Mon Aug 26 10:22:25 PDT 2019
User: corrico
Dark Spectrum Present: No
Reference Spectrum Present: No
Number of Sampled Component Spectra: 1
Spectrometers: USB2+H06089
Integration Time (usec): 2000 (USB2+H06089)
Spectra Averaged: 20 (USB2+H06089)
Boxcar Smoothing: 2 (USB2+H06089)
Correct for Electrical Dark: No (USB2+H06089)
Strobe/Lamp Enabled: No (USB2+H06089)
Correct for Detector Non-linearity: No (USB2+H06089)
Correct for Stray Light: No (USB2+H06089)
Number of Pixels in Processed Spectrum: 2048
>>>>>Begin Processed Spectral Data<<<<<
339.70	1029.48
340.07	1029.48
340.45	992.55
340.82	971.98
341.19	946.44
341.57	924.14
341.94	917.91
342.31	910.37
342.69	903.26
343.06	900.36
343.43	897.13
343.81	896.66
344.18	899.30
344.55	904.73
344.93	913.58
345.30	918.26
345.67	925.19
346.04	932.59
346.42	938.41
346.79	948.55
347.16	957.05
347.54	966.13
347.91	975.63
348.28	983.38
348.65	989.41
349.03	1003.93
349.40	1013.71
349.77	1021.62
350.14	1033.00
350.52	1038.87
350.89	1041.42
351.26	1047.72
351.63	1050.67
352.01	1055.82
352.38	1063.59
352.75	1068.95
353.12	1069.77
353.50	1073.02
353.87	1075.73
354.24	1076.88
354.61	1075.87
354.98	1076.74
355.36	1081.05
355.73	1079.81
356.10	1074.63
356.47	1075.55
356.84	1077.09
357.22	1076.34
357.59	1076.58
357.96	1080.37
358.33	1082.64
358.70	1082.45
359.08	1082.78
359.45	1084.18
359.82	1085.45
360.19	1084.16
360.56	1084.96
360.94	1083.67
361.31	1082.47
361.68	1082.01
362.05	1081.21
362.42	1081.28
362.79	1081.89
363.16	1083.57
363.54	1082.57
363.91	1083.39
364.28	1079.99
364.65	1076.37
365.02	1074.84
365.39	1075.92
365.76	1072.18
366.14	1071.50
366.51	1074.17
366.88	1073.07
367.25	1072.08
367.62	1073.35
367.99	1074.17
368.36	1074.28
368.73	1072.90
369.10	1068.59
369.48	1068.52
369.85	1070.30
370.22	1070.26
370.59	1073.98
370.96	1078.47
371.33	1078.24
371.70	1081.05
372.07	1083.41
372.44	1084.28
372.81	1081.26
373.18	1083.76
373.55	1079.50
373.93	1074.61
374.30	1071.05
374.67	1073.84
375.04	1074.52
375.41	1072.22
375.78	1074.73
376.15	1075.87
376.52	1074.24
376.89	1072.18
377.26	1076.34
377.63	1074.73
378.00	1075.85
378.37	1078.92
378.74	1079.64
379.11	1079.57
379.48	1083.97
379.85	1082.80
380.22	1081.35
380.59	1082.24
380.96	1082.22
381.33	1078.64
381.70	1080.13
382.07	1081.54
382.44	1079.20
382.81	1079.29
383.18	1081.66
383.55	1080.32
383.92	1077.79
384.29	1080.20
384.66	1080.48
385.03	1078.68
385.40	1076.86
385.77	1079.88
386.14	1079.41
386.51	1078.10
386.88	1080.37
387.25	1083.88
387.62	1084.25
387.99	1086.06
388.36	1086.57
388.73	1083.46
389.10	1086.69
389.46	1085.87
389.83	1083.18
390.20	1086.83
390.57	1090.36
390.94	1088.68
391.31	1087.13
391.68	1088.75
392.05	1087.16
392.42	1087.76
392.79	1085.14
393.16	1086.31
393.53	1087.86
393.89	1084.32
394.26	1086.64
394.63	1087.69
395.00	1090.99
395.37	1091.77
395.74	1096.70
396.11	1094.32
396.48	1093.10
396.84	1093.08
397.21	1091.13
397.58	1088.79
397.95	1088.26
398.32	1086.97
398.69	1085.40
399.06	1084.28
399.42	1087.67
399.79	1089.31
400.16	1093.26
400.53	1090.36
400.90	1090.76
401.27	1090.10
401.64	1088.89
402.00	1088.70
402.37	1091.53
402.74	1093.03
403.11	1093.47
403.48	1092.98
403.84	1092.73
404.21	1093.97
404.58	1094.81
404.95	1092.30
405.32	1094.04
405.68	1093.05
406.05	1094.29
406.42	1094.04
406.79	1092.33
407.16	1091.18
407.52	1091.37
407.89	1088.49
408.26	1088.89
408.63	1094.74
408.99	1095.18
409.36	1098.13
409.73	1098.09
410.10	1096.68
410.47	1093.69
410.83	1093.55
411.20	1093.64
411.57	1094.60
411.94	1094.55
412.30	1097.31
412.67	1099.12
413.04	1097.45
413.40	1098.60
413.77	1099.75
414.14	1098.20
414.51	1097.73
414.87	1099.26
415.24	1097.76
415.61	1100.82
415.97	1100.61
416.34	1103.54
416.71	1099.54
417.08	1098.67
417.44	1097.13
417.81	1101.22
418.18	1099.96
418.54	1107.26
418.91	1110.72
419.28	1111.38
419.64	1109.95
420.01	1110.94
420.38	1113.79
420.74	1117.56
421.11	1118.92
421.48	1122.90
421.84	1124.98
422.21	1124.42
422.58	1124.58
422.94	1128.70
423.31	1131.84
423.68	1134.39
424.04	1138.18
424.41	1140.96
424.77	1142.32
425.14	1142.65
425.51	1144.80
425.87	1147.03
426.24	1151.57
426.61	1158.49
426.97	1166.71
427.34	1168.77
427.70	1172.61
428.07	1179.07
428.44	1185.97
428.80	1188.59
429.17	1201.63
429.53	1211.34
429.90	1225.69
430.27	1231.78
430.63	1244.98
431.00	1252.75
431.36	1263.09
431.73	1270.12
432.09	1285.77
432.46	1299.79
432.83	1317.46
433.19	1339.98
433.56	1357.93
433.92	1374.71
434.29	1392.74
434.65	1414.74
435.02	1433.44
435.38	1458.34
435.75	1487.04
436.11	1518.56
436.48	1548.10
436.84	1581.59
437.21	1616.37
437.57	1656.47
437.94	1695.32
438.30	1744.68
438.67	1789.13
439.03	1842.00
439.40	1892.14
439.76	1950.84
440.13	2004.43
440.49	2067.40
440.86	2126.68
441.22	2198.37
441.59	2262.60
441.95	2348.54
442.32	2429.55
442.68	2526.33
443.05	2621.82
443.41	2720.03
443.78	2812.53
444.14	2920.54
444.51	3022.68
444.87	3155.09
445.24	3299.08
445.60	3452.22
445.96	3605.71
446.33	3778.72
446.69	3937.58
447.06	4116.77
447.42	4297.55
447.79	4489.33
448.15	4702.37
448.51	4928.47
448.88	5185.20
449.24	5428.17
449.61	5703.11
449.97	5984.09
450.33	6265.82
450.70	6524.62
451.06	6850.07
451.43	7155.42
451.79	7506.78
452.15	7905.32
452.52	8353.35
452.88	8802.29
453.24	9317.27
453.61	9886.40
453.97	10434.74
454.34	10955.51
454.70	11590.52
455.06	12235.38
455.43	12864.38
455.79	13460.89
456.15	14174.19
456.52	14822.96
456.88	15584.67
457.24	16291.04
457.61	17131.18
457.97	17893.68
458.33	18674.41
458.70	19418.84
459.06	20169.52
459.42	20992.38
459.79	21743.53
460.15	22628.60
460.51	23483.39
460.88	24405.02
461.24	25183.86
461.60	26152.47
461.96	26982.19
462.33	27804.16
462.69	28559.57
463.05	29410.77
463.42	30122.37
463.78	30778.61
464.14	31323.01
464.50	31923.03
464.87	32392.38
465.23	32737.59
465.59	33122.16
465.95	33442.49
466.32	33702.66
466.68	33910.80
467.04	34023.43
467.40	34126.23
467.77	34281.90
468.13	34257.49
468.49	34198.74
468.85	34166.02
469.22	34011.38
469.58	33652.43
469.94	33400.03
470.30	33075.73
470.66	32655.95
471.03	32087.93
471.39	31728.79
471.75	31118.38
472.11	30533.29
472.47	30163.02
472.84	29852.25
473.20	29366.77
473.56	29107.21
473.92	28677.74
474.28	28163.13
474.65	27663.61
475.01	27161.94
475.37	26577.04
475.73	26109.07
476.09	25592.82
476.45	25082.19
476.81	24572.84
477.18	24059.05
477.54	23619.56
477.90	23250.62
478.26	22829.44
478.62	22509.12
478.98	22214.91
479.34	21900.98
479.71	21512.33
480.07	21179.67
480.43	20823.84
480.79	20443.27
481.15	20093.52
481.51	19786.37
481.87	19528.07
482.23	19224.48
482.59	18953.00
482.96	18675.86
483.32	18385.84
483.68	18021.42
484.04	17697.54
484.40	17357.06
484.76	16998.63
485.12	16650.55
485.48	16327.60
485.84	15992.48
486.20	15648.14
486.56	15288.29
486.92	14975.66
487.28	14633.22
487.64	14273.05
488.00	13943.20
488.37	13624.68
488.73	13270.56
489.09	12924.09
489.45	12619.44
489.81	12314.17
490.17	12022.19
490.53	11731.09
490.89	11433.82
491.25	11136.90
491.61	10837.08
491.97	10523.66
492.33	10205.51
492.69	9911.58
493.05	9617.26
493.41	9327.69
493.77	9050.45
494.13	8806.43
494.49	8564.28
494.85	8329.50
495.21	8107.97
495.57	7895.14
495.93	7685.57
496.29	7496.60
496.64	7307.32
497.00	7114.39
497.36	6934.89
497.72	6750.25
498.08	6562.65
498.44	6383.67
498.80	6221.80
499.16	6059.88
499.52	5907.18
499.88	5775.34
500.24	5668.94
500.60	5545.76
500.96	5424.87
501.32	5307.54
501.68	5192.85
502.03	5058.83
502.39	4936.45
502.75	4805.31
503.11	4686.57
503.47	4553.54
503.83	4431.03
504.19	4310.00
504.55	4206.81
504.91	4112.27
505.26	4027.41
505.62	3945.58
505.98	3860.97
506.34	3767.44
506.70	3671.97
507.06	3584.67
507.42	3495.78
507.78	3417.93
508.13	3348.39
508.49	3273.01
508.85	3203.12
509.21	3135.50
509.57	3065.03
509.93	2996.00
510.28	2930.37
510.64	2859.46
511.00	2788.98
511.36	2733.39
511.72	2675.98
512.07	2628.84
512.43	2583.39
512.79	2537.02
513.15	2488.53
513.51	2444.81
513.86	2393.97
514.22	2348.31
514.58	2307.96
514.94	2266.69
515.30	2229.01
515.65	2195.12
516.01	2167.31
516.37	2140.16
516.73	2115.45
517.08	2088.86
517.44	2060.09
517.80	2033.27
518.16	2005.68
518.51	1978.27
518.87	1950.44
519.23	1924.86
519.59	1900.59
519.94	1877.60
520.30	1853.31
520.66	1829.69
521.01	1808.27
521.37	1783.89
521.73	1761.65
522.09	1739.70
522.44	1717.23
522.80	1698.67
523.16	1679.92
523.51	1660.24
523.87	1643.66
524.23	1625.78
524.58	1606.38
524.94	1589.88
525.30	1573.07
525.65	1557.56
526.01	1547.98
526.37	1534.95
526.72	1518.35
527.08	1504.45
527.44	1489.21
527.79	1472.03
528.15	1458.36
528.51	1447.41
528.86	1436.76
529.22	1426.11
529.58	1416.23
529.93	1407.88
530.29	1398.63
530.65	1390.37
531.00	1381.10
531.36	1373.10
531.71	1363.71
532.07	1351.54
532.43	1344.01
532.78	1336.26
533.14	1328.09
533.49	1321.33
533.85	1317.86
534.21	1306.72
534.56	1298.69
534.92	1291.81
535.27	1286.24
535.63	1280.55
535.98	1277.82
536.34	1275.01
536.69	1270.84
537.05	1267.17
537.41	1265.25
537.76	1261.62
538.12	1254.53
538.47	1246.87
538.83	1241.33
539.18	1233.02
539.54	1228.01
539.89	1229.60
540.25	1228.45
540.60	1224.83
540.96	1221.88
541.31	1219.07
541.67	1211.13
542.02	1208.02
542.38	1202.38
542.73	1198.68
543.09	1191.01
543.44	1191.78
543.80	1187.73
544.15	1184.15
544.51	1182.74
544.86	1182.84
545.22	1178.79
545.57	1177.83
545.93	1175.23
546.28	1174.06
546.64	1173.85
546.99	1168.89
547.35	1164.65
547.70	1164.53
548.05	1161.16
548.41	1158.47
548.76	1155.97
549.12	1154.98
549.47	1152.46
549.83	1151.24
550.18	1148.62
550.53	1147.17
550.89	1145.46
551.24	1146.25
551.60	1142.42
551.95	1140.10
552.30	1137.69
552.66	1139.72
553.01	1135.11
553.37	1135.49
553.72	1131.63
554.07	1132.82
554.43	1130.50
554.78	1131.44
555.13	1129.96
555.49	1128.00
555.84	1125.10
556.19	1126.01
556.55	1124.98
556.90	1123.64
557.26	1125.17
557.61	1129.03
557.96	1123.18
558.32	1121.09
558.67	1117.32
559.02	1118.07
559.37	1115.50
559.73	1114.12
560.08	1112.18
560.43	1113.93
560.79	1116.08
561.14	1113.72
561.49	1111.78
561.85	1112.74
562.20	1112.57
562.55	1111.40
562.90	1108.03
563.26	1110.68
563.61	1109.88
563.96	1108.66
564.32	1107.19
564.67	1107.73
565.02	1108.95
565.37	1109.27
565.73	1108.13
566.08	1105.88
566.43	1105.06
566.78	1101.76
567.14	1099.96
567.49	1100.92
567.84	1101.39
568.19	1103.84
568.54	1105.18
568.90	1105.93
569.25	1106.89
569.60	1104.97
569.95	1106.35
570.31	1107.28
570.66	1103.70
571.01	1101.22
571.36	1102.60
571.71	1096.49
572.06	1095.86
572.42	1097.45
572.77	1097.88
573.12	1096.05
573.47	1100.43
573.82	1097.92
574.18	1097.43
574.53	1098.88
574.88	1098.41
575.23	1097.48
575.58	1099.05
575.93	1101.55
576.28	1099.58
576.64	1098.86
576.99	1099.02
577.34	1097.03
577.69	1095.23
578.04	1095.70
578.39	1095.86
578.74	1093.24
579.09	1093.69
579.44	1091.81
579.80	1090.88
580.15	1087.53
580.50	1088.19
580.85	1089.03
581.20	1089.05
581.55	1085.07
581.90	1089.26
582.25	1090.64
582.60	1089.71
582.95	1091.27
583.30	1095.09
583.65	1093.57
584.00	1093.15
584.35	1092.02
584.71	1087.60
585.06	1084.74
585.41	1087.06
585.76	1088.04
586.11	1089.54
586.46	1095.93
586.81	1097.95
587.16	1096.85
587.51	1092.56
587.86	1088.61
588.21	1084.11
588.56	1084.16
588.91	1084.60
589.26	1086.62
589.61	1089.87
589.96	1088.56
590.31	1085.49
590.66	1082.66
591.01	1082.26
591.36	1080.20
591.71	1082.29
592.06	1082.73
592.41	1081.96
592.76	1082.59
593.10	1083.29
593.45	1082.17
593.80	1087.83
594.15	1090.43
594.50	1088.61
594.85	1090.10
595.20	1092.94
595.55	1088.82
595.90	1087.34
596.25	1088.72
596.60	1087.58
596.95	1086.29
597.30	1087.55
597.64	1097.71
597.99	1097.01
598.34	1097.66
598.69	1095.35
599.04	1091.86
599.39	1082.24
599.74	1081.63
600.09	1080.44
600.44	1079.60
600.78	1082.59
601.13	1084.44
601.48	1084.53
601.83	1083.74
602.18	1088.23
602.53	1089.89
602.88	1087.81
603.22	1088.77
603.57	1089.14
603.92	1085.80
604.27	1082.36
604.62	1084.42
604.97	1086.71
605.31	1088.16
605.66	1090.06
606.01	1091.93
606.36	1089.43
606.71	1088.12
607.05	1089.73
607.40	1089.82
607.75	1087.39
608.10	1085.63
608.44	1085.24
608.79	1081.87
609.14	1080.48
609.49	1083.93
609.84	1085.89
610.18	1087.65
610.53	1088.44
610.88	1088.70
611.23	1085.99
611.57	1086.52
611.92	1084.00
612.27	1084.23
612.62	1085.91
612.96	1083.11
613.31	1081.26
613.66	1081.49
614.00	1081.70
614.35	1081.56
614.70	1085.68
615.05	1087.51
615.39	1088.14
615.74	1085.63
616.09	1085.26
616.43	1083.39
616.78	1079.57
617.13	1078.26
617.47	1079.92
617.82	1078.31
618.17	1084.02
618.51	1089.75
618.86	1089.85
619.21	1089.78
619.55	1090.83
619.90	1084.58
620.25	1082.17
620.59	1083.95
620.94	1082.45
621.29	1081.19
621.63	1084.25
621.98	1083.08
622.32	1082.45
622.67	1084.42
623.02	1082.38
623.36	1079.67
623.71	1082.71
624.05	1083.57
624.40	1083.15
624.75	1085.56
625.09	1087.18
625.44	1087.32
625.78	1082.61
626.13	1082.05
626.48	1083.01
626.82	1082.85
627.17	1079.50
627.51	1081.28
627.86	1078.94
628.20	1078.59
628.55	1078.43
628.89	1077.96
629.24	1079.38
629.58	1082.36
629.93	1081.33
630.28	1080.37
630.62	1084.58
630.97	1086.10
631.31	1087.55
631.66	1089.40
632.00	1088.68
632.35	1085.63
632.69	1083.46
633.04	1083.76
633.38	1083.53
633.73	1086.43
634.07	1085.96
634.42	1088.09
634.76	1085.42
635.11	1086.50
635.45	1082.78
635.79	1085.26
636.14	1081.70
636.48	1083.29
636.83	1084.21
637.17	1086.59
637.52	1085.24
637.86	1087.83
638.21	1088.68
638.55	1083.88
638.89	1080.32
639.24	1079.69
639.58	1078.54
639.93	1077.28
640.27	1078.12
640.61	1083.83
640.96	1081.75
641.30	1078.57
641.65	1078.33
641.99	1079.71
642.33	1076.27
642.68	1076.51
643.02	1079.27
643.37	1078.54
643.71	1077.86
644.05	1079.43
644.40	1082.76
644.74	1084.44
645.08	1087.46
645.43	1088.82
645.77	1087.74
646.11	1088.12
646.46	1086.83
646.80	1082.66
647.14	1082.26
647.49	1082.52
647.83	1081.14
648.17	1082.05
648.52	1084.65
648.86	1085.03
649.20	1087.23
649.55	1088.40
649.89	1085.91
650.23	1084.00
650.57	1083.22
650.92	1083.41
651.26	1081.30
651.60	1081.66
651.95	1081.84
652.29	1083.76
652.63	1083.74
652.97	1083.18
653.32	1087.18
653.66	1088.75
654.00	1087.93
654.34	1087.74
654.69	1091.93
655.03	1089.89
655.37	1091.53
655.71	1085.35
656.05	1087.23
656.40	1086.17
656.74	1085.45
657.08	1081.77
657.42	1085.59
657.76	1085.31
658.11	1085.28
658.45	1085.66
658.79	1088.09
659.13	1089.33
659.47	1088.86
659.82	1089.64
660.16	1086.62
660.50	1082.76
660.84	1078.99
661.18	1074.24
661.52	1071.33
661.87	1071.97
662.21	1076.04
662.55	1080.70
662.89	1082.36
663.23	1083.79
663.57	1087.46
663.91	1086.41
664.25	1088.79
664.60	1088.33
664.94	1087.32
665.28	1086.99
665.62	1086.22
665.96	1079.36
666.30	1080.18
666.64	1083.41
666.98	1083.57
667.32	1084.07
667.66	1086.20
668.01	1086.99
668.35	1083.36
668.69	1081.16
669.03	1083.76
669.37	1082.03
669.71	1081.37
670.05	1080.48
670.39	1080.25
670.73	1078.00
671.07	1078.96
671.41	1078.57
671.75	1078.26
672.09	1079.10
672.43	1077.28
672.77	1078.80
673.11	1080.20
673.45	1080.20
673.79	1079.22
674.13	1083.76
674.47	1088.23
674.81	1087.79
675.15	1087.83
675.49	1090.01
675.83	1084.89
676.17	1078.99
676.51	1078.73
676.85	1079.57
677.19	1077.58
677.53	1077.42
677.87	1078.10
678.21	1076.58
678.55	1074.52
678.89	1074.52
679.23	1078.28
679.57	1079.95
679.90	1082.92
680.24	1086.13
680.58	1083.97
680.92	1083.25
681.26	1083.76
681.60	1080.39
681.94	1082.61
682.28	1085.10
682.62	1085.03
682.96	1083.20
683.29	1086.15
683.63	1083.46
683.97	1084.30
684.31	1082.01
684.65	1081.87
684.99	1079.22
685.33	1080.04
685.67	1080.79
686.00	1082.87
686.34	1082.59
686.68	1082.69
687.02	1081.00
687.36	1080.18
687.70	1078.92
688.03	1078.47
688.37	1080.46
688.71	1081.37
689.05	1080.95
689.39	1081.09
689.72	1080.98
690.06	1078.17
690.40	1076.18
690.74	1076.20
691.08	1078.45
691.41	1077.42
691.75	1080.02
692.09	1080.81
692.43	1081.80
692.76	1080.51
693.10	1081.98
693.44	1080.98
693.78	1081.37
694.11	1076.65
694.45	1075.24
694.79	1076.62
695.13	1076.32
695.46	1075.73
695.80	1081.80
696.14	1083.06
696.48	1079.78
696.81	1081.84
697.15	1083.39
697.49	1083.86
697.82	1083.29
698.16	1086.59
698.50	1086.83
698.83	1086.57
699.17	1080.41
699.51	1079.24
699.84	1080.37
700.18	1079.76
700.52	1081.26
700.85	1081.89
701.19	1081.35
701.53	1077.98
701.86	1078.28
702.20	1074.42
702.54	1077.35
702.87	1077.18
703.21	1081.40
703.55	1079.50
703.88	1082.22
704.22	1081.02
704.55	1082.73
704.89	1078.87
705.23	1081.84
705.56	1081.56
705.90	1081.42
706.23	1080.46
706.57	1080.13
706.91	1076.37
707.24	1076.58
707.58	1078.87
707.91	1079.24
708.25	1077.37
708.58	1077.42
708.92	1078.17
709.26	1080.23
709.59	1082.10
709.93	1087.48
710.26	1088.82
710.60	1085.52
710.93	1081.40
711.27	1080.04
711.60	1077.35
711.94	1079.81
712.27	1080.13
712.61	1078.40
712.94	1078.36
713.28	1079.62
713.61	1078.40
713.95	1080.27
714.28	1080.39
714.62	1080.74
714.95	1080.98
715.29	1080.84
715.62	1080.09
715.96	1083.25
716.29	1084.32
716.63	1084.60
716.96	1081.00
717.29	1081.82
717.63	1080.46
717.96	1080.60
718.30	1079.48
718.63	1079.67
718.97	1080.18
719.30	1080.32
719.63	1080.13
719.97	1081.63
720.30	1084.74
720.64	1084.79
720.97	1081.75
721.30	1080.04
721.64	1078.33
721.97	1075.78
722.31	1073.98
722.64	1075.17
722.97	1073.14
723.31	1072.53
723.64	1076.48
723.97	1078.43
724.31	1082.24
724.64	1084.81
724.98	1088.44
725.31	1085.28
725.64	1084.28
725.98	1079.50
726.31	1079.22
726.64	1075.43
726.97	1078.52
727.31	1077.68
727.64	1078.57
727.97	1078.61
728.31	1082.10
728.64	1081.09
728.97	1082.03
729.31	1081.94
729.64	1081.66
729.97	1079.57
730.30	1079.36
730.64	1080.60
730.97	1084.07
731.30	1083.95
731.63	1083.53
731.97	1081.87
732.30	1081.56
732.63	1078.52
732.96	1080.30
733.30	1081.35
733.63	1079.90
733.96	1079.83
734.29	1083.01
734.63	1084.51
734.96	1083.76
735.29	1087.37
735.62	1086.52
735.95	1083.48
736.29	1079.64
736.62	1080.88
736.95	1077.63
737.28	1074.84
737.61	1078.00
737.94	1078.82
738.28	1073.67
738.61	1075.97
738.94	1075.66
739.27	1073.04
739.60	1074.73
739.93	1079.62
740.27	1075.29
740.60	1080.93
740.93	1082.54
741.26	1081.19
741.59	1082.52
741.92	1085.00
742.25	1082.83
742.58	1081.49
742.91	1079.85
743.25	1078.28
743.58	1080.48
743.91	1077.51
744.24	1077.51
744.57	1080.23
744.90	1076.20
745.23	1076.67
745.56	1076.51
745.89	1080.25
746.22	1078.92
746.55	1079.97
746.88	1077.42
747.21	1078.99
747.54	1077.28
747.87	1078.73
748.20	1081.19
748.53	1079.92
748.87	1077.35
749.20	1076.67
749.53	1075.73
749.86	1075.20
750.19	1077.84
750.52	1081.63
750.85	1081.87
751.18	1082.71
751.51	1081.73
751.84	1081.12
752.16	1080.30
752.49	1078.99
752.82	1075.43
753.15	1076.67
753.48	1077.56
753.81	1075.36
754.14	1076.90
754.47	1078.38
754.80	1077.35
755.13	1078.43
755.46	1080.37
755.79	1080.37
756.12	1083.60
756.45	1083.53
756.78	1081.02
757.11	1081.35
757.43	1079.95
757.76	1079.88
758.09	1082.38
758.42	1082.33
758.75	1084.09
759.08	1085.73
759.41	1085.47
759.74	1081.87
760.07	1083.01
760.39	1082.92
760.72	1078.94
761.05	1073.44
761.38	1075.62
761.71	1073.79
762.04	1071.66
762.36	1072.83
762.69	1077.49
763.02	1079.15
763.35	1079.60
763.68	1080.16
764.01	1085.19
