SpectraSuite Data File
++++++++++++++++++++++++++++++++++++
Date: Mon Aug 26 10:22:28 PDT 2019
User: corrico
Dark Spectrum Present: No
Reference Spectrum Present: No
Number of Sampled Component Spectra: 1
Spectrometers: USB2+H06089
Integration Time (usec): 2000 (USB2+H06089)
Spectra Averaged: 20 (USB2+H06089)
Boxcar Smoothing: 2 (USB2+H06089)
Correct for Electrical Dark: No (USB2+H06089)
Strobe/Lamp Enabled: No (USB2+H06089)
Correct for Detector Non-linearity: No (USB2+H06089)
Correct for Stray Light: No (USB2+H06089)
Number of Pixels in Processed Spectrum: 2048
>>>>>Begin Processed Spectral Data<<<<<
339.70	1036.51
340.07	1036.51
340.45	996.46
340.82	971.35
341.19	944.59
341.57	921.19
341.94	914.26
342.31	907.57
342.69	905.16
343.06	903.07
343.43	897.46
343.81	894.74
344.18	901.06
344.55	906.61
344.93	912.97
345.30	921.96
345.67	930.32
346.04	935.75
346.42	940.01
346.79	947.19
347.16	954.84
347.54	962.69
347.91	972.45
348.28	984.52
348.65	996.04
349.03	1005.73
349.40	1013.59
349.77	1019.84
350.14	1024.15
350.52	1032.46
350.89	1040.56
351.26	1047.72
351.63	1055.42
352.01	1061.81
352.38	1062.65
352.75	1065.90
353.12	1071.80
353.50	1074.38
353.87	1079.90
354.24	1085.80
354.61	1086.29
354.98	1085.24
355.36	1084.25
355.73	1083.81
356.10	1080.23
356.47	1078.61
356.84	1078.28
357.22	1081.16
357.59	1081.51
357.96	1082.22
358.33	1082.83
358.70	1080.46
359.08	1081.89
359.45	1083.32
359.82	1082.50
360.19	1083.20
360.56	1086.34
360.94	1083.27
361.31	1077.96
361.68	1077.84
362.05	1078.33
362.42	1074.68
362.79	1073.37
363.16	1074.35
363.54	1074.98
363.91	1076.15
364.28	1078.21
364.65	1079.06
365.02	1078.00
365.39	1076.48
365.76	1074.28
366.14	1076.27
366.51	1076.18
366.88	1079.36
367.25	1079.27
367.62	1079.48
367.99	1077.91
368.36	1079.31
368.73	1077.96
369.10	1080.02
369.48	1079.99
369.85	1077.37
370.22	1078.19
370.59	1078.47
370.96	1078.19
371.33	1080.48
371.70	1081.61
372.07	1076.88
372.44	1072.97
372.81	1075.80
373.18	1073.04
373.55	1075.48
373.93	1078.66
374.30	1082.10
374.67	1079.95
375.04	1079.31
375.41	1079.62
375.78	1079.50
376.15	1080.30
376.52	1080.18
376.89	1079.95
377.26	1080.60
377.63	1081.19
378.00	1079.78
378.37	1080.23
378.74	1081.84
379.11	1080.27
379.48	1080.60
379.85	1082.64
380.22	1085.14
380.59	1084.28
380.96	1085.21
381.33	1086.22
381.70	1084.09
382.07	1081.70
382.44	1081.26
382.81	1079.97
383.18	1077.93
383.55	1081.37
383.92	1082.24
384.29	1083.93
384.66	1085.70
385.03	1086.50
385.40	1084.09
385.77	1082.43
386.14	1082.29
386.51	1083.13
386.88	1083.08
387.25	1081.66
387.62	1084.58
387.99	1085.99
388.36	1085.77
388.73	1087.79
389.10	1091.13
389.46	1091.46
389.83	1089.33
390.20	1087.83
390.57	1087.93
390.94	1088.56
391.31	1082.50
391.68	1083.32
392.05	1085.42
392.42	1081.51
392.79	1077.93
393.16	1081.21
393.53	1080.46
393.89	1080.04
394.26	1083.83
394.63	1087.95
395.00	1089.71
395.37	1095.89
395.74	1097.17
396.11	1096.54
396.48	1096.80
396.84	1094.01
397.21	1089.94
397.58	1090.06
397.95	1090.81
398.32	1088.44
398.69	1090.55
399.06	1090.17
399.42	1089.24
399.79	1087.06
400.16	1088.79
400.53	1089.12
400.90	1086.62
401.27	1087.34
401.64	1087.93
402.00	1086.80
402.37	1087.18
402.74	1090.53
403.11	1088.58
403.48	1087.86
403.84	1088.54
404.21	1089.54
404.58	1093.78
404.95	1095.89
405.32	1096.94
405.68	1099.58
406.05	1098.16
406.42	1097.31
406.79	1098.16
407.16	1100.82
407.52	1094.95
407.89	1094.39
408.26	1089.31
408.63	1089.54
408.99	1089.19
409.36	1097.22
409.73	1098.69
410.10	1099.21
410.47	1099.07
410.83	1099.65
411.20	1096.12
411.57	1097.85
411.94	1099.35
412.30	1099.07
412.67	1096.73
413.04	1096.75
413.40	1095.49
413.77	1095.49
414.14	1098.53
414.51	1099.93
414.87	1100.71
415.24	1100.85
415.61	1101.13
415.97	1097.06
416.34	1097.90
416.71	1097.76
417.08	1097.99
417.44	1099.68
417.81	1101.67
418.18	1104.92
418.54	1105.60
418.91	1109.88
419.28	1112.74
419.64	1116.22
420.01	1116.93
420.38	1119.48
420.74	1118.38
421.11	1118.57
421.48	1120.48
421.84	1120.02
422.21	1121.91
422.58	1124.77
422.94	1127.04
423.31	1126.80
423.68	1129.82
424.04	1134.97
424.41	1139.02
424.77	1140.80
425.14	1145.62
425.51	1146.89
425.87	1147.38
426.24	1149.44
426.61	1156.79
426.97	1162.45
427.34	1170.81
427.70	1179.04
428.07	1186.37
428.44	1194.59
428.80	1199.59
429.17	1206.22
429.53	1213.83
429.90	1226.67
430.27	1234.52
430.63	1245.96
431.00	1260.61
431.36	1272.50
431.73	1281.16
432.09	1295.32
432.46	1308.69
432.83	1319.36
433.19	1336.24
433.56	1355.45
433.92	1372.93
434.29	1395.83
434.65	1417.26
435.02	1443.27
435.38	1470.77
435.75	1498.06
436.11	1527.60
436.48	1562.26
436.84	1595.26
437.21	1627.47
437.57	1665.34
437.94	1706.93
438.30	1753.13
438.67	1799.29
439.03	1849.75
439.40	1904.12
439.76	1962.82
440.13	2022.57
440.49	2087.22
440.86	2152.82
441.22	2226.08
441.59	2298.62
441.95	2378.71
442.32	2464.61
442.68	2561.83
443.05	2658.15
443.41	2754.46
443.78	2855.31
444.14	2966.25
444.51	3076.54
444.87	3215.73
445.24	3354.71
445.60	3505.33
445.96	3656.53
446.33	3824.18
446.69	3981.98
447.06	4162.50
447.42	4346.68
447.79	4538.09
448.15	4763.83
448.51	4992.97
448.88	5262.34
449.24	5509.11
449.61	5782.25
449.97	6057.77
450.33	6339.72
450.70	6593.24
451.06	6917.22
451.43	7229.80
451.79	7595.93
452.15	8001.05
452.52	8452.75
452.88	8922.24
453.24	9463.16
453.61	10037.88
453.97	10617.35
454.34	11168.71
454.70	11819.92
455.06	12468.76
455.43	13092.75
455.79	13675.02
456.15	14393.26
456.52	15055.47
456.88	15821.97
457.24	16541.69
457.61	17404.74
457.97	18174.66
458.33	18946.96
458.70	19722.15
459.06	20503.87
459.42	21343.20
459.79	22135.20
460.15	23038.15
460.51	23881.98
460.88	24829.48
461.24	25610.54
461.60	26570.32
461.96	27446.62
462.33	28297.17
462.69	29052.11
463.05	29914.06
463.42	30602.04
463.78	31254.79
464.14	31809.03
464.50	32419.74
464.87	32897.47
465.23	33276.64
465.59	33633.94
465.95	33937.28
466.32	34187.90
466.68	34421.35
467.04	34560.96
467.40	34693.39
467.77	34857.79
468.13	34861.98
468.49	34749.11
468.85	34671.90
469.22	34489.55
469.58	34131.56
469.94	33852.36
470.30	33554.22
470.66	33134.07
471.03	32548.36
471.39	32168.04
471.75	31546.65
472.11	30921.45
472.47	30573.08
472.84	30245.03
473.20	29747.23
473.56	29477.55
473.92	29085.51
474.28	28559.50
474.65	28084.49
475.01	27605.75
475.37	27031.85
475.73	26566.27
476.09	26033.85
476.45	25514.98
476.81	25002.87
477.18	24473.60
477.54	24008.63
477.90	23657.48
478.26	23239.34
478.62	22890.51
478.98	22610.23
479.34	22292.71
479.71	21867.91
480.07	21514.88
480.43	21148.07
480.79	20739.35
481.15	20382.63
481.51	20080.53
481.87	19840.56
482.23	19571.37
482.59	19328.17
482.96	19060.43
483.32	18772.43
483.68	18385.66
484.04	18035.84
484.40	17658.80
484.76	17276.45
485.12	16905.64
485.48	16592.03
485.84	16239.60
486.20	15885.75
486.56	15528.03
486.92	15224.25
487.28	14876.87
487.64	14520.75
488.00	14194.34
488.37	13870.20
488.73	13501.43
489.09	13135.60
489.45	12820.33
489.81	12499.61
490.17	12194.19
490.53	11908.32
490.89	11598.22
491.25	11302.80
491.61	10988.32
491.97	10666.64
492.33	10322.51
492.69	10042.09
493.05	9739.58
493.41	9454.22
493.77	9187.33
494.13	8944.59
494.49	8692.42
494.85	8442.71
495.21	8219.03
495.57	7997.47
495.93	7775.80
496.29	7562.39
496.64	7380.43
497.00	7190.97
497.36	6998.69
497.72	6829.78
498.08	6654.80
498.44	6476.47
498.80	6309.52
499.16	6142.17
499.52	5976.84
499.88	5841.74
500.24	5712.64
500.60	5581.26
500.96	5473.79
501.32	5357.42
501.68	5235.71
502.03	5112.74
502.39	4984.73
502.75	4840.65
503.11	4718.82
503.47	4595.55
503.83	4470.17
504.19	4348.79
504.55	4242.27
504.91	4141.55
505.26	4048.03
505.62	3959.93
505.98	3876.56
506.34	3790.45
506.70	3698.75
507.06	3611.70
507.42	3529.69
507.78	3450.07
508.13	3375.33
508.49	3300.58
508.85	3232.42
509.21	3158.65
509.57	3090.30
509.93	3025.31
510.28	2961.15
510.64	2899.90
511.00	2843.17
511.36	2783.67
511.72	2723.12
512.07	2673.10
512.43	2617.19
512.79	2560.62
513.15	2512.61
513.51	2472.42
513.86	2422.45
514.22	2379.51
514.58	2344.02
514.94	2309.76
515.30	2270.88
515.65	2234.11
516.01	2203.08
516.37	2169.42
516.73	2133.94
517.08	2106.41
517.44	2077.18
517.80	2043.94
518.16	2016.00
518.51	1991.61
518.87	1962.12
519.23	1938.62
519.59	1917.98
519.94	1890.29
520.30	1864.59
520.66	1841.28
521.01	1821.97
521.37	1794.56
521.73	1775.16
522.09	1756.60
522.44	1740.38
522.80	1714.82
523.16	1699.07
523.51	1679.97
523.87	1662.37
524.23	1639.26
524.58	1617.08
524.94	1597.70
525.30	1579.53
525.65	1559.76
526.01	1546.49
526.37	1535.74
526.72	1520.86
527.08	1507.73
527.44	1495.49
527.79	1482.59
528.15	1470.65
528.51	1462.27
528.86	1452.33
529.22	1438.82
529.58	1425.25
529.93	1413.89
530.29	1399.24
530.65	1388.41
531.00	1379.58
531.36	1370.03
531.71	1363.15
532.07	1357.91
532.43	1351.66
532.78	1341.64
533.14	1333.80
533.49	1326.12
533.85	1320.46
534.21	1314.42
534.56	1313.11
534.92	1305.86
535.27	1297.05
535.63	1287.22
535.98	1280.69
536.34	1271.14
536.69	1268.99
537.05	1266.42
537.41	1263.49
537.76	1257.83
538.12	1256.59
538.47	1252.37
538.83	1249.17
539.18	1245.40
539.54	1240.98
539.89	1235.85
540.25	1226.89
540.60	1221.15
540.96	1216.07
541.31	1212.73
541.67	1206.71
542.02	1207.97
542.38	1204.65
542.73	1206.83
543.09	1202.75
543.44	1202.68
543.80	1199.50
544.15	1195.99
544.51	1189.46
544.86	1185.41
545.22	1183.26
545.57	1178.60
545.93	1175.04
546.28	1172.84
546.64	1171.79
546.99	1169.68
547.35	1167.69
547.70	1166.87
548.05	1162.75
548.41	1160.48
548.76	1157.77
549.12	1156.74
549.47	1154.94
549.83	1150.61
550.18	1148.92
550.53	1141.76
550.89	1139.40
551.24	1137.45
551.60	1137.73
551.95	1136.17
552.30	1138.27
552.66	1136.00
553.01	1135.18
553.37	1133.64
553.72	1131.20
554.07	1129.78
554.43	1131.44
554.78	1130.78
555.13	1127.27
555.49	1129.38
555.84	1131.02
556.19	1127.51
556.55	1125.66
556.90	1129.12
557.26	1124.00
557.61	1117.18
557.96	1116.46
558.32	1117.35
558.67	1115.48
559.02	1117.44
559.37	1121.63
559.73	1119.13
560.08	1117.89
560.43	1115.12
560.79	1112.11
561.14	1110.21
561.49	1111.73
561.85	1109.84
562.20	1109.81
562.55	1110.07
562.90	1110.58
563.26	1111.59
563.61	1110.33
563.96	1110.96
564.32	1110.96
564.67	1109.18
565.02	1104.78
565.37	1099.96
565.73	1099.05
566.08	1098.88
566.43	1096.07
566.78	1095.79
567.14	1101.18
567.49	1101.62
567.84	1097.43
568.19	1098.25
568.54	1100.89
568.90	1098.65
569.25	1096.47
569.60	1098.72
569.95	1100.85
570.31	1099.49
570.66	1098.39
571.01	1098.81
571.36	1099.56
571.71	1096.45
572.06	1097.20
572.42	1100.26
572.77	1100.80
573.12	1103.91
573.47	1103.42
573.82	1101.99
574.18	1099.23
574.53	1098.09
574.88	1093.78
575.23	1095.75
575.58	1095.67
575.93	1094.67
576.28	1095.18
576.64	1096.33
576.99	1094.90
577.34	1094.08
577.69	1093.85
578.04	1093.33
578.39	1093.52
578.74	1092.28
579.09	1090.55
579.44	1090.60
579.80	1091.23
580.15	1087.97
580.50	1087.51
580.85	1089.99
581.20	1092.12
581.55	1091.23
581.90	1091.06
582.25	1090.34
582.60	1089.75
582.95	1087.58
583.30	1087.44
583.65	1090.34
584.00	1095.37
584.35	1095.46
584.71	1093.92
585.06	1091.11
585.41	1089.75
585.76	1085.61
586.11	1089.03
586.46	1093.73
586.81	1096.14
587.16	1096.42
587.51	1098.30
587.86	1096.03
588.21	1096.35
588.56	1093.99
588.91	1091.67
589.26	1090.90
589.61	1089.19
589.96	1086.15
590.31	1088.21
590.66	1088.21
591.01	1087.86
591.36	1085.54
591.71	1087.04
592.06	1087.44
592.41	1086.31
592.76	1084.65
593.10	1085.45
593.45	1084.96
593.80	1084.00
594.15	1085.66
594.50	1087.72
594.85	1085.66
595.20	1086.62
595.55	1084.89
595.90	1085.28
596.25	1085.24
596.60	1090.29
596.95	1090.39
597.30	1092.77
597.64	1105.62
597.99	1104.87
598.34	1104.03
598.69	1101.62
599.04	1104.05
599.39	1087.88
599.74	1090.62
600.09	1090.90
600.44	1090.43
600.78	1086.34
601.13	1090.95
601.48	1091.02
601.83	1089.24
602.18	1090.41
602.53	1090.53
602.88	1089.52
603.22	1090.13
603.57	1092.70
603.92	1091.09
604.27	1093.19
604.62	1092.52
604.97	1090.29
605.31	1088.89
605.66	1091.34
606.01	1091.63
606.36	1090.88
606.71	1089.64
607.05	1085.61
607.40	1083.86
607.75	1083.57
608.10	1083.01
608.44	1081.37
608.79	1081.16
609.14	1078.33
609.49	1076.06
609.84	1077.02
610.18	1079.74
610.53	1080.60
610.88	1082.47
611.23	1083.71
611.57	1083.88
611.92	1083.83
612.27	1085.14
612.62	1086.10
612.96	1085.40
613.31	1087.18
613.66	1086.99
614.00	1087.60
614.35	1087.23
614.70	1088.96
615.05	1088.70
615.39	1088.56
615.74	1090.20
616.09	1090.15
616.43	1088.23
616.78	1087.58
617.13	1086.71
617.47	1084.89
617.82	1084.32
618.17	1084.32
618.51	1084.98
618.86	1085.89
619.21	1084.51
619.55	1083.95
619.90	1084.25
620.25	1082.76
620.59	1083.86
620.94	1086.24
621.29	1089.75
621.63	1090.01
621.98	1090.90
622.32	1087.76
622.67	1086.43
623.02	1081.12
623.36	1082.36
623.71	1079.20
624.05	1079.08
624.40	1080.51
624.75	1084.72
625.09	1086.13
625.44	1087.95
625.78	1089.94
626.13	1090.76
626.48	1089.87
626.82	1087.32
627.17	1087.72
627.51	1087.13
627.86	1084.89
628.20	1081.70
628.55	1080.53
628.89	1080.20
629.24	1080.72
629.58	1082.05
629.93	1081.07
630.28	1080.11
630.62	1081.07
630.97	1078.38
631.31	1076.69
631.66	1081.09
632.00	1084.70
632.35	1085.10
632.69	1089.19
633.04	1089.61
633.38	1088.12
633.73	1089.19
634.07	1089.00
634.42	1088.37
634.76	1089.94
635.11	1088.26
635.45	1085.84
635.79	1087.11
636.14	1086.55
636.48	1087.72
636.83	1089.80
637.17	1090.32
637.52	1087.97
637.86	1086.57
638.21	1083.67
638.55	1084.77
638.89	1085.99
639.24	1088.07
639.58	1086.69
639.93	1086.87
640.27	1088.00
640.61	1084.65
640.96	1081.61
641.30	1081.91
641.65	1082.29
641.99	1077.23
642.33	1076.95
642.68	1075.48
643.02	1076.60
643.37	1077.54
643.71	1081.89
644.05	1083.74
644.40	1084.91
644.74	1083.32
645.08	1083.11
645.43	1083.88
645.77	1084.77
646.11	1087.95
646.46	1089.92
646.80	1087.95
647.14	1087.41
647.49	1085.28
647.83	1083.50
648.17	1083.81
648.52	1083.15
648.86	1080.74
649.20	1085.24
649.55	1086.31
649.89	1086.41
650.23	1088.47
650.57	1090.67
650.92	1088.58
651.26	1085.56
651.60	1084.60
651.95	1082.50
652.29	1080.41
652.63	1078.94
652.97	1083.67
653.32	1082.80
653.66	1081.98
654.00	1085.14
654.34	1086.80
654.69	1086.22
655.03	1086.71
655.37	1088.58
655.71	1084.72
656.05	1081.02
656.40	1077.91
656.74	1079.50
657.08	1080.18
657.42	1079.88
657.76	1080.60
658.11	1082.47
658.45	1082.43
658.79	1081.66
659.13	1083.43
659.47	1085.80
659.82	1085.96
660.16	1083.43
660.50	1085.94
660.84	1086.50
661.18	1082.97
661.52	1080.39
661.87	1080.18
662.21	1076.46
662.55	1077.61
662.89	1079.92
663.23	1082.36
663.57	1081.87
663.91	1080.41
664.25	1076.15
664.60	1075.31
664.94	1071.92
665.28	1072.83
665.62	1075.69
665.96	1074.77
666.30	1072.71
666.64	1074.87
666.98	1076.58
667.32	1076.30
667.66	1080.51
668.01	1084.79
668.35	1087.46
668.69	1086.48
669.03	1083.57
669.37	1083.20
669.71	1084.46
670.05	1081.42
670.39	1079.69
670.73	1082.73
671.07	1082.43
671.41	1079.57
671.75	1079.34
672.09	1080.39
672.43	1085.59
672.77	1089.45
673.11	1090.17
673.45	1089.85
673.79	1092.07
674.13	1090.71
674.47	1084.81
674.81	1084.02
675.15	1085.45
675.49	1081.94
675.83	1078.05
676.17	1077.70
676.51	1081.28
676.85	1079.50
677.19	1083.13
677.53	1082.73
677.87	1086.08
678.21	1081.23
678.55	1080.25
678.89	1076.67
679.23	1077.33
679.57	1076.60
679.90	1076.30
680.24	1080.53
680.58	1082.99
680.92	1084.11
681.26	1082.78
681.60	1081.96
681.94	1078.45
682.28	1079.64
682.62	1080.20
682.96	1078.82
683.29	1083.32
683.63	1083.97
683.97	1080.39
684.31	1079.81
684.65	1083.67
684.99	1080.09
685.33	1080.46
685.67	1083.27
686.00	1080.60
686.34	1082.76
686.68	1084.46
687.02	1084.37
687.36	1084.98
687.70	1086.57
688.03	1082.43
688.37	1081.77
688.71	1082.83
689.05	1080.93
689.39	1081.84
689.72	1083.83
690.06	1087.27
690.40	1087.09
690.74	1087.55
691.08	1085.56
691.41	1085.24
691.75	1085.56
692.09	1084.42
692.43	1084.16
692.76	1087.04
693.10	1086.06
693.44	1081.49
693.78	1084.86
694.11	1085.26
694.45	1082.05
694.79	1082.54
695.13	1082.94
695.46	1078.14
695.80	1077.33
696.14	1080.25
696.48	1080.91
696.81	1084.56
697.15	1085.63
697.49	1087.83
697.82	1085.52
698.16	1083.11
698.50	1077.07
698.83	1077.96
699.17	1077.49
699.51	1077.25
699.84	1076.67
700.18	1079.34
700.52	1080.56
700.85	1080.32
701.19	1081.94
701.53	1085.10
701.86	1086.90
702.20	1085.40
702.54	1083.67
702.87	1084.93
703.21	1083.01
703.55	1079.90
703.88	1081.05
704.22	1080.04
704.55	1079.10
704.89	1079.92
705.23	1081.35
705.56	1080.44
705.90	1080.70
706.23	1079.74
706.57	1078.36
706.91	1079.62
707.24	1078.17
707.58	1079.31
707.91	1081.14
708.25	1080.48
708.58	1080.56
708.92	1081.66
709.26	1081.16
709.59	1078.96
709.93	1080.32
710.26	1083.32
710.60	1084.72
710.93	1085.35
711.27	1086.08
711.60	1083.20
711.94	1078.71
712.27	1077.14
712.61	1077.09
712.94	1079.55
713.28	1083.46
713.61	1082.50
713.95	1084.86
714.28	1083.88
714.62	1082.05
714.95	1081.58
715.29	1082.69
715.62	1081.82
715.96	1081.40
716.29	1080.53
716.63	1078.00
716.96	1079.31
717.29	1078.68
717.63	1080.16
717.96	1081.56
718.30	1081.87
718.63	1080.44
718.97	1080.58
719.30	1081.96
719.63	1081.42
719.97	1083.48
720.30	1085.89
720.64	1086.24
720.97	1084.81
721.30	1082.85
721.64	1084.02
721.97	1084.02
722.31	1082.66
722.64	1083.46
722.97	1086.36
723.31	1082.94
723.64	1081.61
723.97	1079.97
724.31	1079.06
724.64	1077.96
724.98	1081.19
725.31	1077.11
725.64	1076.97
725.98	1078.31
726.31	1077.25
726.64	1075.41
726.97	1078.94
727.31	1079.13
727.64	1081.14
727.97	1081.09
728.31	1079.88
728.64	1079.20
728.97	1081.89
729.31	1077.98
729.64	1075.66
729.97	1078.66
730.30	1077.72
730.64	1076.97
730.97	1079.10
731.30	1083.88
731.63	1081.63
731.97	1083.43
732.30	1084.21
732.63	1083.74
732.96	1080.32
733.30	1080.06
733.63	1079.76
733.96	1079.67
734.29	1080.65
734.63	1080.34
734.96	1081.87
735.29	1081.58
735.62	1082.10
735.95	1081.68
736.29	1083.90
736.62	1083.13
736.95	1084.86
737.28	1085.24
737.61	1083.27
737.94	1080.60
738.28	1080.46
738.61	1078.54
738.94	1077.42
739.27	1076.67
739.60	1079.20
739.93	1079.43
740.27	1078.14
740.60	1076.53
740.93	1078.17
741.26	1078.33
741.59	1078.43
741.92	1078.87
742.25	1081.42
742.58	1080.20
742.91	1079.92
743.25	1078.54
743.58	1078.96
743.91	1079.36
744.24	1080.20
744.57	1080.32
744.90	1081.89
745.23	1083.25
745.56	1082.01
745.89	1079.60
746.22	1075.29
746.55	1074.14
746.88	1072.71
747.21	1075.94
747.54	1078.96
747.87	1084.32
748.20	1088.00
748.53	1087.11
748.87	1085.84
749.20	1084.60
749.53	1081.07
749.86	1080.11
750.19	1079.55
750.52	1074.66
750.85	1072.64
751.18	1076.01
751.51	1073.18
751.84	1076.13
752.16	1077.72
752.49	1080.02
752.82	1080.79
753.15	1080.51
753.48	1079.83
753.81	1078.54
754.14	1080.30
754.47	1078.87
754.80	1082.17
755.13	1084.91
755.46	1085.73
755.79	1088.26
756.12	1088.89
756.45	1087.09
756.78	1084.11
757.11	1082.17
757.43	1076.20
757.76	1074.38
758.09	1075.38
758.42	1075.50
758.75	1078.21
759.08	1079.97
759.41	1078.54
759.74	1076.58
760.07	1076.27
760.39	1075.08
760.72	1076.23
761.05	1079.55
761.38	1081.40
761.71	1081.80
762.04	1083.36
762.36	1083.39
762.69	1081.44
763.02	1081.37
763.35	1081.16
763.68	1083.79
764.01	1082.54
