SpectraSuite Data File
++++++++++++++++++++++++++++++++++++
Date: Mon Aug 26 10:22:17 PDT 2019
User: corrico
Dark Spectrum Present: No
Reference Spectrum Present: No
Number of Sampled Component Spectra: 1
Spectrometers: USB2+H06089
Integration Time (usec): 2000 (USB2+H06089)
Spectra Averaged: 20 (USB2+H06089)
Boxcar Smoothing: 2 (USB2+H06089)
Correct for Electrical Dark: No (USB2+H06089)
Strobe/Lamp Enabled: No (USB2+H06089)
Correct for Detector Non-linearity: No (USB2+H06089)
Correct for Stray Light: No (USB2+H06089)
Number of Pixels in Processed Spectrum: 2048
>>>>>Begin Processed Spectral Data<<<<<
339.70	1024.34
340.07	1024.34
340.45	992.32
340.82	972.40
341.19	950.23
341.57	926.62
341.94	913.86
342.31	906.65
342.69	899.63
343.06	898.67
343.43	898.41
343.81	901.36
344.18	903.31
344.55	906.58
344.93	907.17
345.30	914.31
345.67	918.94
346.04	927.16
346.42	938.84
346.79	949.70
347.16	954.54
347.54	962.64
347.91	973.99
348.28	983.26
348.65	994.47
349.03	1004.89
349.40	1014.39
349.77	1019.72
350.14	1027.19
350.52	1031.33
350.89	1040.02
351.26	1047.60
351.63	1054.67
352.01	1058.81
352.38	1063.91
352.75	1066.18
353.12	1067.33
353.50	1068.29
353.87	1069.37
354.24	1072.92
354.61	1073.77
354.98	1076.32
355.36	1078.68
355.73	1078.85
356.10	1078.59
356.47	1080.30
356.84	1085.66
357.22	1089.24
357.59	1091.25
357.96	1092.14
358.33	1090.85
358.70	1085.80
359.08	1079.69
359.45	1075.52
359.82	1073.14
360.19	1073.98
360.56	1074.87
360.94	1075.29
361.31	1078.47
361.68	1078.17
362.05	1079.03
362.42	1077.37
362.79	1077.42
363.16	1075.76
363.54	1074.98
363.91	1073.72
364.28	1072.18
364.65	1072.46
365.02	1072.01
365.39	1072.48
365.76	1070.33
366.14	1073.49
366.51	1074.75
366.88	1079.43
367.25	1079.57
367.62	1081.12
367.99	1080.81
368.36	1079.34
368.73	1073.67
369.10	1073.07
369.48	1073.07
369.85	1070.56
370.22	1069.25
370.59	1071.24
370.96	1070.77
371.33	1072.43
371.70	1072.81
372.07	1077.02
372.44	1081.63
372.81	1084.07
373.18	1084.39
373.55	1083.81
373.93	1081.07
374.30	1075.76
374.67	1075.15
375.04	1072.83
375.41	1073.11
375.78	1075.36
376.15	1075.41
376.52	1072.64
376.89	1071.05
377.26	1074.52
377.63	1073.46
378.00	1078.96
378.37	1081.16
378.74	1084.00
379.11	1081.61
379.48	1080.06
379.85	1074.84
380.22	1074.12
380.59	1070.19
380.96	1072.88
381.33	1076.86
381.70	1077.09
382.07	1080.93
382.44	1085.56
382.81	1082.57
383.18	1080.93
383.55	1081.89
383.92	1078.45
384.29	1078.14
384.66	1077.61
385.03	1071.45
385.40	1071.01
385.77	1071.47
386.14	1067.82
386.51	1066.61
386.88	1075.13
387.25	1076.06
387.62	1076.44
387.99	1077.49
388.36	1080.41
388.73	1077.47
389.10	1076.76
389.46	1077.23
389.83	1080.11
390.20	1081.28
390.57	1081.49
390.94	1084.09
391.31	1085.84
391.68	1084.79
392.05	1084.56
392.42	1086.48
392.79	1081.63
393.16	1076.97
393.53	1079.15
393.89	1078.45
394.26	1077.25
394.63	1084.49
395.00	1088.26
395.37	1087.97
395.74	1088.42
396.11	1089.19
396.48	1086.01
396.84	1086.48
397.21	1084.35
397.58	1084.89
397.95	1083.93
398.32	1084.98
398.69	1083.76
399.06	1082.87
399.42	1083.83
399.79	1085.21
400.16	1085.59
400.53	1086.01
400.90	1089.36
401.27	1089.96
401.64	1088.61
402.00	1088.04
402.37	1090.88
402.74	1089.66
403.11	1089.59
403.48	1093.01
403.84	1091.86
404.21	1090.53
404.58	1090.67
404.95	1091.63
405.32	1090.67
405.68	1091.20
406.05	1089.94
406.42	1091.32
406.79	1087.60
407.16	1086.76
407.52	1090.01
407.89	1091.79
408.26	1089.75
408.63	1091.25
408.99	1092.70
409.36	1089.22
409.73	1090.55
410.10	1093.31
410.47	1095.98
410.83	1098.06
411.20	1102.88
411.57	1101.25
411.94	1104.50
412.30	1104.01
412.67	1102.81
413.04	1100.43
413.40	1104.85
413.77	1102.42
414.14	1101.85
414.51	1101.83
414.87	1106.61
415.24	1104.05
415.61	1101.55
415.97	1101.13
416.34	1100.33
416.71	1096.63
417.08	1099.07
417.44	1106.54
417.81	1110.75
418.18	1111.85
418.54	1112.67
418.91	1112.04
419.28	1107.96
419.64	1110.14
420.01	1113.46
420.38	1115.48
420.74	1115.41
421.11	1118.96
421.48	1119.99
421.84	1120.81
422.21	1121.87
422.58	1124.84
422.94	1128.14
423.31	1127.86
423.68	1130.31
424.04	1134.46
424.41	1136.33
424.77	1141.17
425.14	1146.56
425.51	1149.37
425.87	1155.80
426.24	1161.89
426.61	1160.06
426.97	1163.43
427.34	1168.54
427.70	1171.79
428.07	1176.38
428.44	1186.18
428.80	1194.63
429.17	1204.37
429.53	1210.34
429.90	1222.70
430.27	1230.37
430.63	1241.94
431.00	1253.43
431.36	1268.22
431.73	1276.39
432.09	1291.04
432.46	1302.41
432.83	1318.07
433.19	1333.24
433.56	1352.85
433.92	1372.79
434.29	1394.61
434.65	1414.64
435.02	1436.27
435.38	1465.36
435.75	1489.91
436.11	1520.29
436.48	1551.96
436.84	1586.98
437.21	1618.97
437.57	1657.85
437.94	1698.08
438.30	1739.18
438.67	1784.61
439.03	1834.02
439.40	1887.06
439.76	1939.84
440.13	2004.36
440.49	2069.01
440.86	2138.01
441.22	2211.60
441.59	2284.78
441.95	2361.46
442.32	2441.55
442.68	2534.71
443.05	2630.32
443.41	2731.80
443.78	2837.76
444.14	2943.74
444.51	3052.95
444.87	3181.09
445.24	3318.51
445.60	3460.76
445.96	3617.58
446.33	3788.65
446.69	3953.89
447.06	4128.42
447.42	4311.85
447.79	4500.66
448.15	4711.66
448.51	4938.72
448.88	5199.64
449.24	5438.84
449.61	5718.98
449.97	5991.72
450.33	6268.31
450.70	6527.19
451.06	6854.12
451.43	7156.77
451.79	7516.09
452.15	7917.63
452.52	8369.66
452.88	8843.20
453.24	9383.28
453.61	9960.85
453.97	10528.92
454.34	11057.46
454.70	11683.32
455.06	12310.56
455.43	12937.36
455.79	13526.42
456.15	14256.58
456.52	14903.85
456.88	15677.24
457.24	16392.41
457.61	17238.23
457.97	18008.01
458.33	18802.20
458.70	19546.54
459.06	20302.32
459.42	21118.82
459.79	21869.78
460.15	22747.74
460.51	23608.89
460.88	24519.24
461.24	25297.75
461.60	26250.28
461.96	27103.61
462.33	27931.84
462.69	28746.74
463.05	29632.24
463.42	30386.96
463.78	31062.19
464.14	31605.82
464.50	32173.66
464.87	32629.83
465.23	32958.67
465.59	33314.27
465.95	33661.44
466.32	33947.01
466.68	34178.40
467.04	34337.27
467.40	34470.12
467.77	34591.41
468.13	34560.54
468.49	34470.22
468.85	34386.28
469.22	34223.34
469.58	33907.46
469.94	33673.05
470.30	33398.53
470.66	33004.13
471.03	32416.12
471.39	32012.51
471.75	31383.35
472.11	30772.22
472.47	30412.80
472.84	30131.87
473.20	29664.96
473.56	29407.05
473.92	28995.98
474.28	28472.15
474.65	27983.75
475.01	27522.17
475.37	26958.41
475.73	26500.04
476.09	26014.07
476.45	25502.71
476.81	25014.36
477.18	24487.34
477.54	24038.75
477.90	23663.45
478.26	23231.99
478.62	22856.01
478.98	22549.45
479.34	22214.61
479.71	21781.75
480.07	21423.91
480.43	21052.53
480.79	20659.42
481.15	20307.56
481.51	20003.58
481.87	19749.93
482.23	19474.26
482.59	19217.04
482.96	18951.53
483.32	18657.60
483.68	18293.95
484.04	17962.39
484.40	17608.97
484.76	17230.63
485.12	16856.66
485.48	16528.96
485.84	16158.31
486.20	15802.10
486.56	15443.42
486.92	15145.37
487.28	14806.25
487.64	14469.59
488.00	14153.27
488.37	13830.16
488.73	13462.48
489.09	13107.54
489.45	12809.07
489.81	12486.76
490.17	12190.80
490.53	11915.57
490.89	11630.10
491.25	11320.91
491.61	11005.88
491.97	10695.19
492.33	10377.05
492.69	10065.52
493.05	9764.53
493.41	9495.39
493.77	9215.16
494.13	8960.60
494.49	8719.83
494.85	8482.80
495.21	8244.75
495.57	8025.44
495.93	7809.41
496.29	7606.27
496.64	7418.75
497.00	7227.74
497.36	7037.69
497.72	6847.05
498.08	6659.46
498.44	6475.05
498.80	6305.31
499.16	6135.04
499.52	5981.17
499.88	5846.61
500.24	5725.98
500.60	5599.68
500.96	5482.78
501.32	5359.71
501.68	5234.30
502.03	5100.14
502.39	4975.30
502.75	4845.35
503.11	4719.11
503.47	4598.50
503.83	4471.34
504.19	4349.11
504.55	4245.66
504.91	4159.16
505.26	4068.55
505.62	3990.45
505.98	3906.52
506.34	3809.01
506.70	3711.22
507.06	3620.81
507.42	3532.59
507.78	3453.60
508.13	3380.60
508.49	3301.79
508.85	3228.56
509.21	3153.90
509.57	3083.40
509.93	3016.90
510.28	2958.13
510.64	2894.82
511.00	2835.14
511.36	2778.57
511.72	2725.44
512.07	2669.33
512.43	2618.24
512.79	2568.50
513.15	2518.11
513.51	2468.38
513.86	2420.11
514.22	2378.92
514.58	2340.00
514.94	2301.00
515.30	2266.08
515.65	2234.65
516.01	2200.41
516.37	2167.92
516.73	2136.42
517.08	2104.75
517.44	2072.57
517.80	2046.63
518.16	2018.50
518.51	1994.86
518.87	1970.19
519.23	1943.86
519.59	1915.61
519.94	1890.10
520.30	1867.02
520.66	1838.96
521.01	1816.40
521.37	1794.04
521.73	1771.74
522.09	1749.18
522.44	1732.28
522.80	1713.18
523.16	1689.66
523.51	1668.68
523.87	1650.69
524.23	1634.19
524.58	1617.26
524.94	1604.16
525.30	1587.54
525.65	1570.62
526.01	1553.65
526.37	1539.00
526.72	1524.72
527.08	1513.30
527.44	1504.33
527.79	1491.39
528.15	1480.18
528.51	1465.57
528.86	1450.87
529.22	1433.79
529.58	1422.37
529.93	1410.59
530.29	1400.46
530.65	1388.57
531.00	1379.04
531.36	1368.35
531.71	1356.32
532.07	1347.87
532.43	1340.40
532.78	1330.06
533.14	1323.57
533.49	1316.11
533.85	1309.27
534.21	1301.95
534.56	1299.21
534.92	1294.20
535.27	1291.13
535.63	1283.06
535.98	1279.45
536.34	1273.39
536.69	1266.46
537.05	1257.73
537.41	1256.82
537.76	1254.81
538.12	1249.38
538.47	1243.78
538.83	1238.99
539.18	1236.46
539.54	1226.67
539.89	1224.54
540.25	1220.82
540.60	1218.69
540.96	1211.91
541.31	1212.14
541.67	1206.62
542.02	1206.94
542.38	1204.02
542.73	1205.12
543.09	1202.94
543.44	1198.56
543.80	1195.10
544.15	1195.26
544.51	1190.91
544.86	1186.98
545.22	1186.46
545.57	1180.87
545.93	1172.28
546.28	1168.18
546.64	1166.03
546.99	1165.17
547.35	1165.59
547.70	1167.48
548.05	1166.24
548.41	1162.99
548.76	1162.12
549.12	1158.78
549.47	1157.28
549.83	1153.72
550.18	1155.85
550.53	1150.35
550.89	1150.72
551.24	1147.31
551.60	1145.76
551.95	1139.77
552.30	1138.41
552.66	1131.51
553.01	1127.72
553.37	1128.07
553.72	1129.85
554.07	1130.08
554.43	1128.49
554.78	1129.82
555.13	1126.71
555.49	1127.67
555.84	1126.52
556.19	1128.09
556.55	1125.45
556.90	1127.90
557.26	1124.79
557.61	1124.11
557.96	1123.88
558.32	1127.62
558.67	1126.64
559.02	1123.20
559.37	1122.36
559.73	1117.93
560.08	1116.22
560.43	1113.32
560.79	1114.42
561.14	1114.10
561.49	1116.20
561.85	1117.63
562.20	1114.21
562.55	1110.42
562.90	1107.19
563.26	1106.82
563.61	1100.17
563.96	1101.55
564.32	1103.70
564.67	1101.90
565.02	1100.43
565.37	1102.91
565.73	1103.68
566.08	1102.23
566.43	1102.23
566.78	1100.08
567.14	1100.36
567.49	1100.80
567.84	1101.50
568.19	1105.36
568.54	1105.48
568.90	1102.25
569.25	1101.60
569.60	1099.61
569.95	1097.29
570.31	1099.37
570.66	1101.85
571.01	1100.99
571.36	1101.27
571.71	1100.50
572.06	1099.19
572.42	1097.01
572.77	1095.11
573.12	1096.82
573.47	1097.13
573.82	1093.73
574.18	1091.72
574.53	1090.39
574.88	1088.33
575.23	1086.59
575.58	1087.88
575.93	1089.29
576.28	1089.47
576.64	1090.36
576.99	1088.68
577.34	1092.75
577.69	1089.99
578.04	1091.11
578.39	1088.65
578.74	1089.43
579.09	1084.02
579.44	1086.57
579.80	1089.07
580.15	1089.75
580.50	1092.00
580.85	1095.18
581.20	1092.52
581.55	1089.52
581.90	1091.53
582.25	1092.28
582.60	1090.99
582.95	1091.70
583.30	1092.94
583.65	1090.29
584.00	1089.07
584.35	1089.47
584.71	1092.37
585.06	1090.03
585.41	1090.78
585.76	1087.51
586.11	1085.40
586.46	1084.67
586.81	1082.26
587.16	1081.84
587.51	1086.92
587.86	1088.98
588.21	1087.62
588.56	1092.26
588.91	1092.98
589.26	1090.88
589.61	1089.54
589.96	1093.01
590.31	1091.60
590.66	1090.41
591.01	1092.28
591.36	1094.22
591.71	1089.54
592.06	1088.40
592.41	1091.04
592.76	1085.35
593.10	1085.47
593.45	1087.74
593.80	1087.30
594.15	1083.39
594.50	1085.03
594.85	1085.91
595.20	1087.25
595.55	1089.59
595.90	1091.67
596.25	1091.46
596.60	1088.23
596.95	1085.31
597.30	1081.21
597.64	1086.45
597.99	1087.95
598.34	1088.70
598.69	1085.94
599.04	1085.19
599.39	1078.96
599.74	1077.54
600.09	1077.14
600.44	1079.76
600.78	1083.88
601.13	1085.05
601.48	1084.14
601.83	1083.64
602.18	1083.79
602.53	1081.49
602.88	1079.69
603.22	1082.12
603.57	1084.86
603.92	1083.15
604.27	1084.11
604.62	1086.52
604.97	1084.58
605.31	1081.66
605.66	1083.71
606.01	1085.31
606.36	1082.19
606.71	1082.97
607.05	1083.04
607.40	1081.21
607.75	1080.98
608.10	1082.15
608.44	1083.32
608.79	1085.66
609.14	1084.49
609.49	1082.85
609.84	1084.65
610.18	1083.08
610.53	1082.22
610.88	1087.18
611.23	1084.72
611.57	1084.11
611.92	1084.02
612.27	1082.85
612.62	1081.94
612.96	1085.19
613.31	1082.08
613.66	1081.87
614.00	1083.88
614.35	1083.76
614.70	1085.19
615.05	1088.09
615.39	1086.71
615.74	1083.48
616.09	1080.53
616.43	1077.84
616.78	1077.21
617.13	1080.67
617.47	1084.02
617.82	1083.48
618.17	1085.40
618.51	1081.61
618.86	1079.76
619.21	1076.55
619.55	1079.50
619.90	1076.46
620.25	1078.82
620.59	1077.68
620.94	1079.83
621.29	1078.59
621.63	1079.03
621.98	1079.64
622.32	1081.02
622.67	1080.30
623.02	1080.56
623.36	1081.12
623.71	1078.38
624.05	1078.19
624.40	1079.22
624.75	1081.77
625.09	1081.91
625.44	1083.76
625.78	1085.68
626.13	1084.00
626.48	1080.63
626.82	1081.87
627.17	1083.93
627.51	1084.98
627.86	1086.55
628.20	1088.70
628.55	1086.83
628.89	1084.02
629.24	1078.92
629.58	1076.23
629.93	1074.17
630.28	1073.42
630.62	1075.90
630.97	1077.47
631.31	1080.13
631.66	1081.94
632.00	1082.66
632.35	1084.56
632.69	1088.91
633.04	1087.74
633.38	1086.94
633.73	1086.99
634.07	1082.36
634.42	1075.78
634.76	1076.58
635.11	1074.21
635.45	1075.57
635.79	1079.76
636.14	1082.61
636.48	1082.90
636.83	1083.90
637.17	1087.86
637.52	1085.73
637.86	1083.74
638.21	1081.16
638.55	1085.35
638.89	1080.84
639.24	1078.14
639.58	1078.78
639.93	1082.47
640.27	1077.33
640.61	1074.10
640.96	1076.25
641.30	1077.44
641.65	1077.02
641.99	1078.71
642.33	1080.63
642.68	1078.17
643.02	1080.58
643.37	1077.75
643.71	1078.10
644.05	1080.20
644.40	1083.22
644.74	1079.34
645.08	1079.22
645.43	1079.38
645.77	1077.42
646.11	1077.70
646.46	1080.44
646.80	1081.75
647.14	1082.90
647.49	1085.99
647.83	1085.14
648.17	1085.35
648.52	1086.97
648.86	1085.66
649.20	1086.29
649.55	1087.60
649.89	1085.47
650.23	1085.38
650.57	1083.20
650.92	1084.79
651.26	1084.04
651.60	1083.29
651.95	1083.48
652.29	1084.46
652.63	1081.47
652.97	1080.02
653.32	1082.05
653.66	1081.12
654.00	1080.51
654.34	1081.56
654.69	1080.37
655.03	1080.93
655.37	1082.22
655.71	1084.02
656.05	1081.61
656.40	1085.10
656.74	1083.76
657.08	1081.96
657.42	1082.45
657.76	1081.98
658.11	1079.95
658.45	1077.77
658.79	1079.36
659.13	1077.61
659.47	1078.59
659.82	1079.99
660.16	1083.25
660.50	1084.86
660.84	1086.69
661.18	1086.41
661.52	1085.84
661.87	1085.77
662.21	1084.77
662.55	1082.61
662.89	1084.04
663.23	1085.35
663.57	1083.64
663.91	1081.61
664.25	1084.56
664.60	1086.57
664.94	1085.17
665.28	1085.38
665.62	1083.01
665.96	1082.71
666.30	1080.48
666.64	1079.76
666.98	1080.67
667.32	1084.02
667.66	1081.47
668.01	1079.78
668.35	1078.73
668.69	1076.23
669.03	1074.98
669.37	1075.43
669.71	1076.04
670.05	1077.82
670.39	1079.71
670.73	1082.17
671.07	1084.93
671.41	1084.49
671.75	1083.41
672.09	1082.15
672.43	1080.09
672.77	1077.86
673.11	1074.45
673.45	1078.68
673.79	1079.17
674.13	1077.16
674.47	1077.49
674.81	1080.46
675.15	1076.90
675.49	1080.86
675.83	1084.63
676.17	1084.70
676.51	1085.84
676.85	1089.03
677.19	1086.08
677.53	1085.26
677.87	1084.07
678.21	1081.30
678.55	1078.12
678.89	1077.98
679.23	1077.96
679.57	1076.27
679.90	1079.48
680.24	1079.24
680.58	1080.77
680.92	1078.80
681.26	1081.14
681.60	1079.69
681.94	1080.37
682.28	1079.46
682.62	1080.18
682.96	1078.57
683.29	1080.65
683.63	1082.66
683.97	1081.44
684.31	1079.08
684.65	1080.41
684.99	1076.20
685.33	1075.76
685.67	1078.40
686.00	1081.75
686.34	1081.14
686.68	1087.16
687.02	1084.86
687.36	1081.19
687.70	1081.66
688.03	1083.27
688.37	1075.66
688.71	1076.06
689.05	1078.64
689.39	1078.73
689.72	1078.19
690.06	1080.95
690.40	1078.59
690.74	1078.61
691.08	1076.18
691.41	1078.43
691.75	1077.37
692.09	1082.29
692.43	1080.48
692.76	1080.81
693.10	1076.37
693.44	1077.44
693.78	1076.08
694.11	1075.36
694.45	1076.20
694.79	1077.51
695.13	1079.76
695.46	1078.71
695.80	1080.23
696.14	1078.71
696.48	1080.74
696.81	1080.16
697.15	1079.06
697.49	1078.00
697.82	1078.24
698.16	1076.60
698.50	1076.23
698.83	1078.14
699.17	1079.67
699.51	1077.98
699.84	1077.11
700.18	1078.59
700.52	1077.30
700.85	1075.92
701.19	1078.54
701.53	1081.56
701.86	1080.39
702.20	1082.05
702.54	1081.91
702.87	1081.05
703.21	1078.71
703.55	1081.28
703.88	1081.56
704.22	1081.28
704.55	1082.12
704.89	1085.07
705.23	1082.47
705.56	1079.60
705.90	1080.53
706.23	1080.60
706.57	1081.44
706.91	1081.28
707.24	1082.92
707.58	1084.67
707.91	1084.37
708.25	1079.15
708.58	1079.55
708.92	1077.89
709.26	1075.99
709.59	1075.48
709.93	1076.11
710.26	1076.15
710.60	1078.80
710.93	1080.37
711.27	1080.23
711.60	1081.51
711.94	1083.69
712.27	1080.81
712.61	1083.13
712.94	1082.10
713.28	1080.70
713.61	1078.24
713.95	1078.33
714.28	1070.96
714.62	1073.53
714.95	1074.14
715.29	1072.25
715.62	1074.31
715.96	1081.33
716.29	1080.91
716.63	1081.73
716.96	1085.03
717.29	1083.46
717.63	1079.74
717.96	1080.95
718.30	1081.05
718.63	1078.28
718.97	1078.17
719.30	1078.12
719.63	1076.69
719.97	1076.27
720.30	1077.82
720.64	1077.65
720.97	1078.31
721.30	1078.05
721.64	1080.63
721.97	1079.55
722.31	1079.43
722.64	1082.01
722.97	1083.55
723.31	1078.45
723.64	1081.58
723.97	1082.78
724.31	1077.89
724.64	1076.23
724.98	1077.25
725.31	1075.27
725.64	1074.96
725.98	1077.16
726.31	1078.21
726.64	1079.20
726.97	1080.09
727.31	1080.98
727.64	1079.62
727.97	1077.75
728.31	1079.99
728.64	1078.24
728.97	1079.15
729.31	1081.70
729.64	1082.12
729.97	1078.64
730.30	1077.44
730.64	1075.15
730.97	1075.73
731.30	1078.36
731.63	1079.62
731.97	1082.87
732.30	1086.57
732.63	1083.15
732.96	1081.82
733.30	1081.30
733.63	1079.88
733.96	1077.65
734.29	1080.98
734.63	1080.02
734.96	1080.65
735.29	1080.70
735.62	1079.36
735.95	1078.57
736.29	1075.92
736.62	1077.04
736.95	1074.52
737.28	1075.57
737.61	1076.08
737.94	1077.79
738.28	1077.25
738.61	1078.24
738.94	1075.87
739.27	1075.48
739.60	1078.26
739.93	1078.00
740.27	1078.75
740.60	1080.58
740.93	1081.37
741.26	1080.11
741.59	1079.31
741.92	1081.12
742.25	1082.33
742.58	1079.06
742.91	1080.88
743.25	1083.15
743.58	1082.19
743.91	1081.75
744.24	1082.85
744.57	1081.61
744.90	1080.86
745.23	1080.74
745.56	1081.68
745.89	1082.87
746.22	1082.54
746.55	1084.07
746.88	1083.29
747.21	1081.47
747.54	1079.78
747.87	1079.29
748.20	1076.44
748.53	1079.13
748.87	1078.78
749.20	1080.67
749.53	1078.21
749.86	1080.18
750.19	1076.72
750.52	1077.47
750.85	1075.20
751.18	1075.80
751.51	1072.81
751.84	1075.43
752.16	1072.62
752.49	1077.61
752.82	1077.61
753.15	1079.01
753.48	1078.36
753.81	1082.12
754.14	1079.74
754.47	1083.20
754.80	1084.35
755.13	1084.49
755.46	1084.98
755.79	1084.58
756.12	1081.75
756.45	1082.38
756.78	1083.71
757.11	1083.34
757.43	1083.29
757.76	1089.24
758.09	1086.92
758.42	1082.05
758.75	1082.12
759.08	1080.39
759.41	1073.32
759.74	1072.39
760.07	1075.62
760.39	1074.77
760.72	1074.52
761.05	1076.11
761.38	1078.85
761.71	1076.18
762.04	1076.41
762.36	1075.73
762.69	1074.49
763.02	1072.90
763.35	1073.70
763.68	1072.81
764.01	1073.56
