SpectraSuite Data File
++++++++++++++++++++++++++++++++++++
Date: Mon Aug 26 10:22:16 PDT 2019
User: corrico
Dark Spectrum Present: No
Reference Spectrum Present: No
Number of Sampled Component Spectra: 1
Spectrometers: USB2+H06089
Integration Time (usec): 2000 (USB2+H06089)
Spectra Averaged: 20 (USB2+H06089)
Boxcar Smoothing: 2 (USB2+H06089)
Correct for Electrical Dark: No (USB2+H06089)
Strobe/Lamp Enabled: No (USB2+H06089)
Correct for Detector Non-linearity: No (USB2+H06089)
Correct for Stray Light: No (USB2+H06089)
Number of Pixels in Processed Spectrum: 2048
>>>>>Begin Processed Spectral Data<<<<<
339.70	1025.39
340.07	1025.39
340.45	989.20
340.82	967.95
341.19	943.19
341.57	919.74
341.94	910.98
342.31	903.94
342.69	895.49
343.06	895.11
343.43	892.75
343.81	893.17
344.18	899.28
344.55	904.06
344.93	909.70
345.30	917.28
345.67	925.31
346.04	933.10
346.42	944.45
346.79	954.47
347.16	961.96
347.54	971.67
347.91	976.82
348.28	986.65
348.65	994.77
349.03	1005.45
349.40	1012.38
349.77	1021.50
350.14	1027.12
350.52	1032.55
350.89	1038.92
351.26	1047.04
351.63	1054.04
352.01	1058.93
352.38	1063.21
352.75	1065.08
353.12	1064.36
353.50	1064.05
353.87	1067.85
354.24	1071.12
354.61	1074.82
354.98	1076.60
355.36	1081.70
355.73	1083.67
356.10	1085.59
356.47	1082.15
356.84	1084.16
357.22	1085.94
357.59	1084.93
357.96	1081.58
358.33	1086.10
358.70	1086.78
359.08	1082.87
359.45	1082.22
359.82	1084.07
360.19	1085.07
360.56	1081.58
360.94	1083.18
361.31	1082.33
361.68	1080.65
362.05	1077.91
362.42	1079.43
362.79	1078.92
363.16	1078.19
363.54	1076.65
363.91	1078.99
364.28	1078.78
364.65	1077.93
365.02	1078.17
365.39	1079.20
365.76	1075.80
366.14	1075.34
366.51	1073.18
366.88	1073.88
367.25	1071.87
367.62	1070.49
367.99	1070.09
368.36	1070.42
368.73	1069.79
369.10	1071.92
369.48	1073.88
369.85	1074.52
370.22	1075.13
370.59	1074.56
370.96	1076.48
371.33	1074.80
371.70	1071.90
372.07	1072.22
372.44	1073.93
372.81	1073.02
373.18	1075.80
373.55	1075.38
373.93	1076.95
374.30	1075.59
374.67	1075.80
375.04	1073.28
375.41	1077.96
375.78	1077.02
376.15	1076.01
376.52	1075.92
376.89	1077.18
377.26	1074.68
377.63	1074.52
378.00	1075.50
378.37	1074.00
378.74	1073.49
379.11	1071.97
379.48	1071.71
379.85	1072.97
380.22	1073.49
380.59	1073.42
380.96	1074.14
381.33	1075.36
381.70	1073.16
382.07	1071.57
382.44	1071.15
382.81	1072.83
383.18	1074.59
383.55	1076.81
383.92	1074.91
384.29	1079.36
384.66	1078.66
385.03	1076.39
385.40	1078.61
385.77	1085.14
386.14	1083.86
386.51	1084.28
386.88	1086.13
387.25	1084.00
387.62	1079.22
387.99	1079.29
388.36	1080.02
388.73	1078.21
389.10	1076.48
389.46	1079.53
389.83	1080.63
390.20	1080.53
390.57	1081.77
390.94	1085.03
391.31	1088.42
391.68	1085.63
392.05	1087.60
392.42	1088.09
392.79	1088.04
393.16	1086.10
393.53	1088.72
393.89	1086.83
394.26	1086.90
394.63	1086.38
395.00	1086.97
395.37	1086.97
395.74	1089.75
396.11	1088.93
396.48	1092.47
396.84	1092.56
397.21	1093.05
397.58	1092.73
397.95	1095.75
398.32	1094.18
398.69	1092.66
399.06	1092.45
399.42	1089.73
399.79	1088.23
400.16	1086.24
400.53	1087.79
400.90	1084.98
401.27	1087.13
401.64	1087.46
402.00	1088.47
402.37	1087.67
402.74	1088.37
403.11	1090.78
403.48	1090.57
403.84	1090.48
404.21	1091.20
404.58	1095.37
404.95	1094.27
405.32	1092.56
405.68	1093.97
406.05	1092.59
406.42	1090.34
406.79	1089.43
407.16	1089.05
407.52	1089.57
407.89	1091.79
408.26	1091.34
408.63	1091.20
408.99	1092.45
409.36	1089.57
409.73	1089.40
410.10	1089.50
410.47	1091.06
410.83	1091.98
411.20	1092.87
411.57	1093.50
411.94	1094.67
412.30	1095.79
412.67	1095.53
413.04	1093.17
413.40	1094.50
413.77	1095.39
414.14	1094.06
414.51	1097.34
414.87	1104.05
415.24	1101.03
415.61	1101.64
415.97	1104.55
416.34	1104.71
416.71	1102.67
417.08	1104.62
417.44	1104.78
417.81	1104.17
418.18	1105.27
418.54	1108.13
418.91	1107.00
419.28	1105.15
419.64	1105.11
420.01	1105.90
420.38	1107.49
420.74	1113.84
421.11	1119.34
421.48	1124.04
421.84	1124.91
422.21	1124.88
422.58	1124.49
422.94	1125.10
423.31	1126.76
423.68	1128.93
424.04	1129.31
424.41	1132.68
424.77	1135.30
425.14	1134.39
425.51	1136.10
425.87	1141.08
426.24	1145.20
426.61	1151.17
426.97	1159.81
427.34	1164.86
427.70	1171.63
428.07	1178.23
428.44	1181.71
428.80	1189.16
429.17	1197.84
429.53	1209.57
429.90	1219.00
430.27	1230.16
430.63	1238.21
431.00	1249.26
431.36	1254.62
431.73	1264.24
432.09	1275.19
432.46	1289.40
432.83	1303.07
433.19	1320.02
433.56	1336.56
433.92	1356.50
434.29	1380.19
434.65	1403.57
435.02	1426.51
435.38	1453.85
435.75	1481.89
436.11	1508.10
436.48	1536.56
436.84	1571.34
437.21	1602.99
437.57	1633.79
437.94	1670.93
438.30	1712.80
438.67	1754.89
439.03	1805.93
439.40	1862.62
439.76	1920.46
440.13	1977.57
440.49	2039.54
440.86	2102.01
441.22	2167.87
441.59	2237.74
441.95	2314.74
442.32	2394.74
442.68	2488.50
443.05	2579.95
443.41	2678.09
443.78	2779.20
444.14	2886.93
444.51	2990.71
444.87	3125.60
445.24	3256.57
445.60	3398.60
445.96	3546.87
446.33	3709.77
446.69	3861.56
447.06	4032.70
447.42	4212.45
447.79	4393.40
448.15	4608.80
448.51	4839.32
448.88	5091.27
449.24	5328.44
449.61	5598.63
449.97	5854.99
450.33	6130.73
450.70	6381.10
451.06	6688.31
451.43	6989.59
451.79	7343.57
452.15	7716.77
452.52	8157.02
452.88	8621.22
453.24	9144.36
453.61	9699.77
453.97	10260.35
454.34	10784.84
454.70	11400.63
455.06	12013.06
455.43	12618.23
455.79	13186.13
456.15	13861.33
456.52	14485.04
456.88	15212.08
457.24	15888.87
457.61	16707.00
457.97	17462.85
458.33	18220.32
458.70	18957.33
459.06	19713.49
459.42	20503.70
459.79	21239.66
460.15	22097.72
460.51	22916.23
460.88	23768.51
461.24	24522.24
461.60	25434.91
461.96	26256.27
462.33	27085.08
462.69	27888.33
463.05	28745.36
463.42	29487.94
463.78	30164.52
464.14	30700.76
464.50	31274.64
464.87	31730.10
465.23	32053.38
465.59	32384.00
465.95	32700.40
466.32	32962.82
466.68	33170.70
467.04	33301.38
467.40	33434.08
467.77	33577.61
468.13	33567.26
468.49	33515.84
468.85	33471.23
469.22	33312.82
469.58	32980.89
469.94	32743.35
470.30	32437.67
470.66	32018.69
471.03	31458.53
471.39	31092.66
471.75	30503.62
472.11	29949.40
472.47	29626.92
472.84	29341.03
473.20	28877.18
473.56	28599.15
473.92	28170.88
474.28	27667.50
474.65	27187.83
475.01	26724.61
475.37	26185.56
475.73	25762.79
476.09	25279.47
476.45	24799.73
476.81	24332.63
477.18	23826.12
477.54	23374.18
477.90	23008.78
478.26	22580.79
478.62	22203.59
478.98	21904.35
479.34	21577.40
479.71	21174.90
480.07	20830.65
480.43	20511.00
480.79	20129.12
481.15	19790.89
481.51	19470.57
481.87	19223.99
482.23	18918.53
482.59	18671.60
482.96	18393.50
483.32	18116.85
483.68	17746.18
484.04	17424.02
484.40	17063.54
484.76	16712.10
485.12	16350.70
485.48	16047.16
485.84	15706.28
486.20	15364.26
486.56	15015.85
486.92	14732.57
487.28	14406.98
487.64	14075.49
488.00	13774.92
488.37	13451.22
488.73	13098.25
489.09	12751.89
489.45	12450.74
489.81	12134.37
490.17	11866.82
490.53	11615.45
490.89	11327.44
491.25	11038.36
491.61	10753.92
491.97	10444.87
492.33	10116.97
492.69	9826.06
493.05	9534.06
493.41	9251.13
493.77	8984.36
494.13	8728.51
494.49	8487.18
494.85	8249.43
495.21	8020.92
495.57	7806.41
495.93	7595.88
496.29	7397.19
496.64	7214.37
497.00	7033.64
497.36	6842.16
497.72	6664.77
498.08	6484.62
498.44	6311.28
498.80	6147.91
499.16	5994.84
499.52	5842.47
499.88	5716.76
500.24	5586.02
500.60	5457.38
500.96	5338.60
501.32	5228.50
501.68	5113.88
502.03	4994.33
502.39	4875.78
502.75	4741.74
503.11	4615.89
503.47	4491.21
503.83	4369.87
504.19	4256.01
504.55	4155.36
504.91	4065.00
505.26	3978.42
505.62	3900.69
505.98	3817.11
506.34	3733.97
506.70	3642.13
507.06	3554.64
507.42	3464.91
507.78	3386.19
508.13	3313.92
508.49	3243.19
508.85	3172.67
509.21	3106.78
509.57	3038.79
509.93	2970.70
510.28	2904.16
510.64	2845.83
511.00	2785.82
511.36	2727.57
511.72	2673.66
512.07	2626.06
512.43	2573.09
512.79	2522.49
513.15	2477.36
513.51	2426.32
513.86	2379.32
514.22	2338.22
514.58	2300.28
514.94	2262.55
515.30	2233.99
515.65	2195.84
516.01	2168.16
516.37	2135.83
516.73	2106.34
517.08	2076.41
517.44	2046.49
517.80	2016.39
518.16	1992.57
518.51	1966.05
518.87	1939.02
519.23	1915.78
519.59	1893.94
519.94	1866.55
520.30	1841.84
520.66	1817.15
521.01	1798.28
521.37	1773.70
521.73	1757.34
522.09	1739.81
522.44	1722.89
522.80	1703.37
523.16	1683.55
523.51	1662.58
523.87	1644.72
524.23	1625.81
524.58	1602.75
524.94	1585.83
525.30	1565.84
525.65	1547.94
526.01	1531.72
526.37	1521.28
526.72	1506.74
527.08	1497.90
527.44	1487.39
527.79	1475.59
528.15	1465.32
528.51	1453.47
528.86	1441.63
529.22	1426.28
529.58	1411.95
529.93	1400.41
530.29	1391.64
530.65	1380.28
531.00	1375.74
531.36	1368.75
531.71	1360.18
532.07	1349.88
532.43	1343.14
532.78	1333.31
533.14	1326.50
533.49	1320.51
533.85	1317.04
534.21	1309.93
534.56	1304.05
534.92	1299.07
535.27	1293.24
535.63	1287.18
535.98	1281.23
536.34	1273.98
536.69	1267.63
537.05	1261.10
537.41	1253.82
537.76	1251.23
538.12	1246.08
538.47	1240.27
538.83	1237.02
539.18	1232.95
539.54	1226.44
539.89	1225.25
540.25	1220.66
540.60	1216.87
540.96	1213.61
541.31	1211.58
541.67	1207.90
542.02	1208.18
542.38	1203.36
542.73	1202.52
543.09	1197.25
543.44	1196.01
543.80	1190.84
544.15	1189.95
544.51	1185.90
544.86	1186.89
545.22	1184.17
545.57	1182.60
545.93	1177.50
546.28	1175.60
546.64	1173.03
546.99	1170.34
547.35	1167.01
547.70	1165.19
548.05	1161.23
548.41	1161.51
548.76	1157.63
549.12	1159.15
549.47	1158.12
549.83	1157.61
550.18	1152.83
550.53	1149.20
550.89	1145.15
551.24	1144.59
551.60	1143.23
551.95	1140.89
552.30	1140.78
552.66	1137.80
553.01	1133.10
553.37	1131.63
553.72	1129.33
554.07	1129.99
554.43	1130.74
554.78	1131.06
555.13	1131.09
555.49	1133.17
555.84	1132.82
556.19	1129.36
556.55	1128.70
556.90	1123.69
557.26	1119.57
557.61	1117.02
557.96	1119.95
558.32	1119.88
558.67	1122.33
559.02	1120.39
559.37	1118.26
559.73	1116.01
560.08	1115.36
560.43	1114.12
560.79	1113.49
561.14	1111.94
561.49	1110.82
561.85	1106.46
562.20	1103.68
562.55	1103.94
562.90	1104.64
563.26	1107.73
563.61	1110.79
563.96	1111.61
564.32	1113.42
564.67	1113.16
565.02	1106.32
565.37	1104.57
565.73	1100.57
566.08	1100.66
566.43	1100.15
566.78	1099.84
567.14	1096.00
567.49	1100.36
567.84	1100.89
568.19	1100.52
568.54	1103.98
568.90	1107.00
569.25	1103.96
569.60	1100.99
569.95	1100.71
570.31	1097.17
570.66	1097.06
571.01	1094.93
571.36	1096.66
571.71	1095.67
572.06	1095.21
572.42	1095.58
572.77	1095.00
573.12	1094.32
573.47	1094.60
573.82	1094.55
574.18	1094.39
574.53	1096.49
574.88	1092.70
575.23	1090.10
575.58	1093.78
575.93	1093.15
576.28	1094.15
576.64	1094.48
576.99	1095.21
577.34	1092.82
577.69	1091.98
578.04	1090.69
578.39	1092.35
578.74	1093.19
579.09	1090.57
579.44	1091.60
579.80	1090.15
580.15	1088.68
580.50	1090.95
580.85	1092.07
581.20	1089.85
581.55	1089.96
581.90	1086.78
582.25	1082.47
582.60	1085.61
582.95	1087.37
583.30	1089.68
583.65	1091.67
584.00	1094.83
584.35	1090.99
584.71	1092.09
585.06	1091.81
585.41	1095.49
585.76	1094.04
586.11	1093.03
586.46	1091.46
586.81	1091.70
587.16	1088.82
587.51	1085.61
587.86	1085.66
588.21	1086.85
588.56	1085.75
588.91	1085.82
589.26	1088.21
589.61	1090.69
589.96	1088.07
590.31	1087.18
590.66	1088.72
591.01	1090.74
591.36	1092.75
591.71	1095.23
592.06	1098.32
592.41	1094.20
592.76	1092.09
593.10	1090.85
593.45	1088.12
593.80	1084.02
594.15	1085.87
594.50	1086.03
594.85	1087.11
595.20	1089.33
595.55	1088.37
595.90	1089.38
596.25	1088.09
596.60	1084.18
596.95	1082.92
597.30	1081.23
597.64	1090.55
597.99	1091.86
598.34	1096.63
598.69	1096.45
599.04	1101.20
599.39	1090.57
599.74	1091.13
600.09	1086.78
600.44	1088.33
600.78	1086.43
601.13	1087.55
601.48	1087.74
601.83	1087.06
602.18	1084.11
602.53	1085.87
602.88	1084.86
603.22	1087.86
603.57	1087.41
603.92	1087.46
604.27	1084.84
604.62	1084.65
604.97	1077.70
605.31	1079.27
605.66	1080.34
606.01	1084.74
606.36	1084.84
606.71	1086.43
607.05	1083.71
607.40	1082.31
607.75	1080.34
608.10	1081.82
608.44	1081.61
608.79	1084.67
609.14	1086.64
609.49	1086.48
609.84	1086.57
610.18	1089.26
610.53	1090.57
610.88	1088.65
611.23	1087.30
611.57	1086.10
611.92	1083.76
612.27	1082.01
612.62	1080.63
612.96	1082.80
613.31	1084.28
613.66	1083.57
614.00	1080.98
614.35	1084.23
614.70	1084.35
615.05	1084.81
615.39	1088.33
615.74	1088.89
616.09	1088.37
616.43	1087.02
616.78	1084.51
617.13	1081.28
617.47	1085.77
617.82	1085.66
618.17	1086.01
618.51	1087.69
618.86	1087.27
619.21	1086.27
619.55	1084.89
619.90	1086.06
620.25	1083.71
620.59	1085.42
620.94	1084.09
621.29	1086.99
621.63	1084.39
621.98	1083.06
622.32	1080.98
622.67	1080.63
623.02	1080.02
623.36	1081.87
623.71	1083.36
624.05	1087.18
624.40	1087.11
624.75	1084.23
625.09	1082.57
625.44	1085.03
625.78	1081.80
626.13	1084.77
626.48	1084.84
626.82	1085.10
627.17	1084.21
627.51	1086.59
627.86	1085.38
628.20	1088.28
628.55	1087.53
628.89	1084.72
629.24	1085.26
629.58	1080.65
629.93	1080.13
630.28	1081.47
630.62	1084.98
630.97	1083.76
631.31	1087.32
631.66	1087.90
632.00	1086.90
632.35	1084.81
632.69	1083.27
633.04	1082.22
633.38	1082.12
633.73	1083.39
634.07	1082.94
634.42	1085.73
634.76	1085.26
635.11	1085.31
635.45	1083.08
635.79	1085.61
636.14	1087.32
636.48	1089.47
636.83	1089.68
637.17	1093.26
637.52	1091.25
637.86	1087.62
638.21	1088.37
638.55	1085.66
638.89	1085.94
639.24	1085.14
639.58	1088.30
639.93	1085.35
640.27	1088.51
640.61	1086.15
640.96	1083.71
641.30	1080.44
641.65	1079.78
641.99	1077.04
642.33	1075.34
642.68	1079.20
643.02	1077.84
643.37	1078.78
643.71	1078.85
644.05	1080.27
644.40	1080.34
644.74	1080.39
645.08	1080.11
645.43	1078.94
645.77	1077.44
646.11	1080.44
646.46	1081.73
646.80	1087.44
647.14	1088.00
647.49	1084.58
647.83	1081.98
648.17	1081.75
648.52	1076.72
648.86	1077.47
649.20	1084.00
649.55	1083.79
649.89	1084.81
650.23	1084.46
650.57	1080.74
650.92	1077.00
651.26	1074.49
651.60	1072.53
651.95	1073.11
652.29	1078.03
652.63	1079.69
652.97	1082.29
653.32	1083.88
653.66	1082.64
654.00	1080.63
654.34	1081.28
654.69	1081.89
655.03	1082.10
655.37	1081.68
655.71	1084.98
656.05	1084.93
656.40	1082.26
656.74	1079.15
657.08	1080.25
657.42	1078.43
657.76	1077.00
658.11	1079.20
658.45	1080.37
658.79	1083.83
659.13	1082.43
659.47	1081.77
659.82	1079.64
660.16	1083.97
660.50	1082.17
660.84	1082.19
661.18	1082.03
661.52	1080.67
661.87	1076.20
662.21	1076.44
662.55	1076.48
662.89	1080.02
663.23	1081.07
663.57	1081.07
663.91	1081.23
664.25	1083.43
664.60	1080.58
664.94	1081.49
665.28	1081.82
665.62	1081.12
665.96	1079.76
666.30	1082.57
666.64	1082.99
666.98	1086.08
667.32	1084.32
667.66	1084.37
668.01	1083.06
668.35	1083.74
668.69	1081.33
669.03	1081.89
669.37	1079.92
669.71	1082.36
670.05	1082.22
670.39	1081.37
670.73	1082.52
671.07	1084.46
671.41	1080.91
671.75	1079.64
672.09	1078.96
672.43	1077.11
672.77	1077.68
673.11	1075.78
673.45	1078.82
673.79	1081.77
674.13	1081.35
674.47	1081.19
674.81	1085.12
675.15	1083.53
675.49	1080.30
675.83	1080.77
676.17	1081.87
676.51	1078.14
676.85	1077.11
677.19	1078.47
677.53	1079.46
677.87	1076.20
678.21	1079.27
678.55	1080.93
678.89	1083.74
679.23	1085.52
679.57	1086.55
679.90	1084.42
680.24	1084.00
680.58	1079.20
680.92	1075.52
681.26	1076.15
681.60	1077.51
681.94	1076.65
682.28	1078.03
682.62	1077.02
682.96	1077.79
683.29	1076.04
683.63	1074.49
683.97	1072.69
684.31	1072.06
684.65	1069.77
684.99	1074.63
685.33	1074.31
685.67	1077.33
686.00	1083.27
686.34	1085.91
686.68	1085.24
687.02	1084.56
687.36	1085.00
687.70	1082.01
688.03	1079.57
688.37	1079.03
688.71	1078.45
689.05	1078.96
689.39	1080.70
689.72	1081.21
690.06	1079.97
690.40	1082.26
690.74	1082.24
691.08	1079.71
691.41	1080.13
691.75	1080.30
692.09	1082.38
692.43	1082.17
692.76	1082.80
693.10	1082.54
693.44	1081.12
693.78	1076.83
694.11	1077.28
694.45	1077.51
694.79	1075.80
695.13	1075.45
695.46	1077.82
695.80	1077.77
696.14	1079.03
696.48	1076.60
696.81	1076.51
697.15	1074.89
697.49	1070.89
697.82	1070.09
698.16	1074.38
698.50	1075.38
698.83	1075.78
699.17	1077.00
699.51	1076.01
699.84	1077.47
700.18	1076.83
700.52	1075.57
700.85	1077.79
701.19	1078.57
701.53	1077.58
701.86	1078.10
702.20	1080.18
702.54	1078.45
702.87	1079.64
703.21	1079.22
703.55	1078.96
703.88	1082.31
704.22	1083.46
704.55	1079.97
704.89	1082.01
705.23	1082.52
705.56	1082.83
705.90	1085.99
706.23	1087.76
706.57	1085.70
706.91	1083.46
707.24	1080.91
707.58	1078.78
707.91	1079.95
708.25	1081.16
708.58	1086.48
708.92	1086.73
709.26	1083.69
709.59	1082.17
709.93	1082.15
710.26	1080.23
710.60	1079.36
710.93	1081.87
711.27	1080.63
711.60	1080.84
711.94	1077.30
712.27	1078.17
712.61	1077.75
712.94	1078.45
713.28	1078.00
713.61	1083.36
713.95	1082.59
714.28	1084.37
714.62	1082.64
714.95	1080.84
715.29	1078.54
715.62	1077.54
715.96	1075.94
716.29	1078.31
716.63	1077.93
716.96	1076.39
717.29	1075.52
717.63	1075.17
717.96	1076.88
718.30	1079.78
718.63	1081.40
718.97	1083.06
719.30	1082.45
719.63	1080.60
719.97	1080.48
720.30	1081.98
720.64	1083.95
720.97	1083.32
721.30	1085.38
721.64	1084.11
721.97	1080.65
722.31	1074.21
722.64	1078.64
722.97	1076.53
723.31	1077.14
723.64	1077.68
723.97	1078.96
724.31	1073.49
724.64	1071.99
724.98	1068.71
725.31	1071.43
725.64	1072.78
725.98	1077.51
726.31	1076.62
726.64	1076.72
726.97	1074.70
727.31	1078.17
727.64	1073.86
727.97	1076.62
728.31	1077.77
728.64	1076.37
728.97	1075.59
729.31	1078.57
729.64	1080.39
729.97	1083.69
730.30	1084.56
730.64	1084.46
730.97	1080.32
731.30	1078.24
731.63	1075.08
731.97	1075.73
732.30	1074.70
732.63	1078.12
732.96	1078.17
733.30	1080.25
733.63	1080.67
733.96	1080.72
734.29	1082.17
734.63	1082.80
734.96	1080.98
735.29	1080.32
735.62	1081.66
735.95	1080.30
736.29	1082.31
736.62	1082.61
736.95	1081.49
737.28	1079.53
737.61	1077.23
737.94	1073.63
738.28	1075.97
738.61	1081.07
738.94	1082.12
739.27	1084.74
739.60	1088.21
739.93	1087.09
740.27	1082.15
740.60	1082.50
740.93	1082.45
741.26	1081.07
741.59	1080.98
741.92	1083.34
742.25	1079.22
742.58	1078.80
742.91	1079.31
743.25	1079.13
743.58	1078.40
743.91	1082.08
744.24	1084.74
744.57	1086.80
744.90	1086.22
745.23	1083.62
745.56	1082.10
745.89	1080.16
746.22	1076.65
746.55	1076.65
746.88	1077.02
747.21	1078.05
747.54	1078.64
747.87	1081.94
748.20	1084.91
748.53	1085.40
748.87	1084.77
749.20	1083.22
749.53	1079.92
749.86	1078.24
750.19	1079.46
750.52	1080.46
750.85	1078.80
751.18	1077.56
751.51	1072.92
751.84	1072.74
752.16	1075.01
752.49	1076.53
752.82	1078.36
753.15	1082.99
753.48	1081.94
753.81	1077.75
754.14	1075.59
754.47	1075.71
754.80	1077.37
755.13	1078.12
755.46	1081.37
755.79	1082.45
756.12	1082.03
756.45	1079.90
756.78	1081.07
757.11	1081.23
757.43	1085.96
757.76	1087.72
758.09	1086.50
758.42	1087.20
758.75	1083.93
759.08	1078.54
759.41	1076.97
759.74	1077.79
760.07	1075.64
760.39	1076.48
760.72	1077.47
761.05	1074.31
761.38	1074.87
761.71	1073.14
762.04	1076.39
762.36	1077.18
762.69	1079.62
763.02	1082.05
763.35	1084.35
763.68	1082.97
764.01	1082.97
