SpectraSuite Data File
++++++++++++++++++++++++++++++++++++
Date: Mon Aug 26 10:21:58 PDT 2019
User: corrico
Dark Spectrum Present: No
Reference Spectrum Present: No
Number of Sampled Component Spectra: 1
Spectrometers: USB2+H06089
Integration Time (usec): 2000 (USB2+H06089)
Spectra Averaged: 20 (USB2+H06089)
Boxcar Smoothing: 2 (USB2+H06089)
Correct for Electrical Dark: No (USB2+H06089)
Strobe/Lamp Enabled: No (USB2+H06089)
Correct for Detector Non-linearity: No (USB2+H06089)
Correct for Stray Light: No (USB2+H06089)
Number of Pixels in Processed Spectrum: 2048
>>>>>Begin Processed Spectral Data<<<<<
339.70	1027.03
340.07	1027.03
340.45	993.16
340.82	967.48
341.19	943.59
341.57	917.09
341.94	905.34
342.31	895.18
342.69	891.51
343.06	890.39
343.43	891.86
343.81	893.38
344.18	898.70
344.55	907.03
344.93	908.74
345.30	915.52
345.67	920.25
346.04	928.51
346.42	936.71
346.79	947.50
347.16	952.60
347.54	964.70
347.91	971.88
348.28	979.72
348.65	986.35
349.03	996.34
349.40	1004.00
349.77	1012.91
350.14	1020.43
350.52	1027.99
350.89	1033.25
351.26	1039.34
351.63	1046.50
352.01	1049.07
352.38	1055.84
352.75	1061.29
353.12	1065.13
353.50	1066.14
353.87	1068.24
354.24	1069.74
354.61	1073.44
354.98	1077.21
355.36	1078.80
355.73	1081.26
356.10	1081.16
356.47	1079.71
356.84	1074.63
357.22	1073.04
357.59	1073.16
357.96	1073.35
358.33	1071.54
358.70	1073.88
359.08	1072.71
359.45	1073.30
359.82	1075.97
360.19	1076.86
360.56	1074.47
360.94	1075.36
361.31	1070.80
361.68	1069.13
362.05	1070.30
362.42	1069.06
362.79	1069.48
363.16	1074.05
363.54	1074.35
363.91	1074.03
364.28	1074.91
364.65	1071.47
365.02	1069.84
365.39	1064.71
365.76	1063.52
366.14	1064.24
366.51	1067.00
366.88	1066.75
367.25	1069.95
367.62	1068.62
367.99	1068.03
368.36	1067.38
368.73	1067.80
369.10	1068.01
369.48	1071.08
369.85	1069.53
370.22	1071.03
370.59	1069.11
370.96	1067.78
371.33	1065.58
371.70	1069.48
372.07	1067.64
372.44	1068.57
372.81	1069.53
373.18	1067.21
373.55	1065.18
373.93	1068.50
374.30	1069.72
374.67	1067.47
375.04	1066.02
375.41	1066.00
375.78	1063.47
376.15	1065.27
376.52	1064.24
376.89	1069.09
377.26	1068.43
377.63	1067.59
378.00	1067.10
378.37	1071.24
378.74	1071.71
379.11	1075.34
379.48	1079.46
379.85	1077.86
380.22	1076.27
380.59	1074.40
380.96	1072.25
381.33	1070.96
381.70	1075.08
382.07	1075.55
382.44	1076.81
382.81	1078.43
383.18	1075.73
383.55	1071.17
383.92	1071.08
384.29	1074.03
384.66	1070.33
385.03	1071.68
385.40	1069.13
385.77	1068.48
386.14	1067.17
386.51	1070.16
386.88	1072.53
387.25	1077.07
387.62	1078.94
387.99	1076.41
388.36	1077.98
388.73	1075.45
389.10	1074.31
389.46	1074.89
389.83	1079.67
390.20	1077.65
390.57	1078.03
390.94	1078.26
391.31	1079.60
391.68	1076.32
392.05	1077.58
392.42	1078.21
392.79	1076.01
393.16	1074.66
393.53	1073.23
393.89	1074.66
394.26	1071.75
394.63	1074.42
395.00	1075.64
395.37	1077.14
395.74	1076.95
396.11	1081.05
396.48	1080.46
396.84	1076.60
397.21	1078.36
397.58	1078.40
397.95	1075.92
398.32	1078.17
398.69	1082.12
399.06	1080.56
399.42	1078.89
399.79	1079.62
400.16	1080.95
400.53	1080.67
400.90	1080.63
401.27	1083.08
401.64	1083.81
402.00	1080.93
402.37	1081.21
402.74	1082.17
403.11	1082.66
403.48	1082.17
403.84	1087.27
404.21	1085.99
404.58	1086.62
404.95	1086.36
405.32	1088.42
405.68	1081.70
406.05	1081.33
406.42	1079.78
406.79	1076.88
407.16	1077.70
407.52	1082.36
407.89	1082.47
408.26	1086.24
408.63	1086.38
408.99	1083.41
409.36	1080.88
409.73	1081.26
410.10	1080.23
410.47	1080.63
410.83	1082.38
411.20	1081.84
411.57	1083.04
411.94	1082.22
412.30	1081.28
412.67	1081.05
413.04	1082.97
413.40	1083.39
413.77	1082.61
414.14	1083.53
414.51	1089.22
414.87	1089.71
415.24	1089.57
415.61	1091.11
415.97	1095.02
416.34	1090.24
416.71	1089.68
417.08	1089.61
417.44	1087.79
417.81	1082.57
418.18	1083.55
418.54	1085.77
418.91	1088.16
419.28	1088.61
419.64	1090.92
420.01	1093.62
420.38	1094.29
420.74	1091.25
421.11	1096.99
421.48	1097.27
421.84	1096.42
422.21	1097.57
422.58	1099.07
422.94	1097.57
423.31	1100.36
423.68	1101.97
424.04	1101.95
424.41	1105.58
424.77	1108.13
425.14	1110.58
425.51	1111.52
425.87	1117.25
426.24	1120.25
426.61	1120.25
426.97	1126.50
427.34	1131.60
427.70	1132.05
428.07	1137.80
428.44	1145.15
428.80	1151.71
429.17	1156.08
429.53	1160.81
429.90	1165.45
430.27	1171.11
430.63	1173.17
431.00	1182.27
431.36	1192.18
431.73	1194.45
432.09	1202.80
432.46	1210.53
432.83	1219.79
433.19	1226.89
433.56	1243.95
433.92	1254.83
434.29	1268.69
434.65	1280.74
435.02	1300.45
435.38	1316.27
435.75	1330.08
436.11	1352.83
436.48	1371.20
436.84	1388.22
437.21	1409.14
437.57	1437.49
437.94	1458.13
438.30	1484.65
438.67	1511.54
439.03	1544.22
439.40	1575.48
439.76	1611.41
440.13	1650.15
440.49	1692.91
440.86	1732.46
441.22	1776.82
441.59	1821.62
441.95	1879.26
442.32	1933.21
442.68	1995.56
443.05	2060.96
443.41	2129.84
443.78	2189.01
444.14	2255.78
444.51	2322.28
444.87	2399.19
445.24	2469.78
445.60	2555.30
445.96	2649.98
446.33	2754.88
446.69	2852.57
447.06	2966.58
447.42	3081.25
447.79	3190.36
448.15	3321.43
448.51	3461.72
448.88	3619.99
449.24	3760.33
449.61	3942.05
449.97	4109.04
450.33	4283.53
450.70	4453.64
451.06	4666.56
451.43	4847.34
451.79	5069.18
452.15	5307.05
452.52	5560.15
452.88	5821.26
453.24	6130.35
453.61	6459.43
453.97	6787.83
454.34	7102.31
454.70	7475.44
455.06	7828.30
455.43	8169.87
455.79	8504.50
456.15	8903.96
456.52	9266.88
456.88	9733.73
457.24	10205.67
457.61	10754.11
457.97	11250.84
458.33	11795.06
458.70	12310.96
459.06	12790.58
459.42	13299.04
459.79	13791.42
460.15	14329.09
460.51	14813.37
460.88	15354.59
461.24	15808.28
461.60	16358.21
461.96	16795.71
462.33	17227.28
462.69	17636.05
463.05	18127.26
463.42	18563.91
463.78	18966.98
464.14	19344.08
464.50	19766.48
464.87	20100.22
465.23	20290.08
465.59	20541.29
465.95	20709.57
466.32	20811.86
466.68	20876.13
467.04	20958.94
467.40	20965.37
467.77	21021.76
468.13	20999.45
468.49	20891.11
468.85	20799.66
469.22	20732.68
469.58	20593.74
469.94	20487.34
470.30	20356.25
470.66	20136.54
471.03	19817.06
471.39	19548.44
471.75	19117.14
472.11	18725.55
472.47	18444.64
472.84	18151.39
473.20	17809.04
473.56	17565.91
473.92	17199.92
474.28	16812.11
474.65	16467.85
475.01	16118.40
475.37	15741.62
475.73	15490.04
476.09	15207.77
476.45	14972.78
476.81	14724.83
477.18	14489.58
477.54	14297.21
477.90	14133.37
478.26	13886.16
478.62	13704.96
478.98	13577.49
479.34	13449.42
479.71	13267.33
480.07	13082.82
480.43	12883.10
480.79	12609.99
481.15	12321.91
481.51	12110.03
481.87	11943.47
482.23	11729.57
482.59	11534.86
482.96	11348.84
483.32	11141.65
483.68	10912.56
484.04	10735.43
484.40	10569.74
484.76	10396.40
485.12	10225.22
485.48	10091.08
485.84	9934.57
486.20	9776.93
486.56	9593.36
486.92	9410.01
487.28	9192.81
487.64	8987.61
488.00	8796.13
488.37	8619.70
488.73	8422.25
489.09	8226.47
489.45	8025.14
489.81	7812.66
490.17	7600.68
490.53	7393.17
490.89	7171.75
491.25	6961.67
491.61	6758.23
491.97	6558.16
492.33	6388.47
492.69	6240.06
493.05	6090.96
493.41	5962.58
493.77	5834.79
494.13	5702.60
494.49	5571.11
494.85	5451.46
495.21	5318.98
495.57	5203.57
495.93	5073.88
496.29	4944.29
496.64	4813.17
497.00	4693.90
497.36	4576.47
497.72	4478.50
498.08	4389.91
498.44	4300.24
498.80	4212.92
499.16	4107.48
499.52	3993.54
499.88	3882.11
500.24	3771.91
500.60	3665.72
500.96	3579.52
501.32	3506.45
501.68	3439.16
502.03	3370.47
502.39	3312.14
502.75	3243.61
503.11	3180.20
503.47	3122.63
503.83	3066.38
504.19	3002.72
504.55	2953.45
504.91	2895.69
505.26	2837.03
505.62	2784.35
505.98	2724.29
506.34	2662.90
506.70	2607.57
507.06	2551.25
507.42	2495.32
507.78	2455.46
508.13	2412.32
508.49	2370.28
508.85	2331.45
509.21	2297.61
509.57	2259.79
509.93	2224.45
510.28	2193.76
510.64	2155.24
511.00	2117.86
511.36	2080.67
511.72	2051.48
512.07	2012.79
512.43	1987.40
512.79	1958.79
513.15	1931.55
513.51	1902.72
513.86	1877.65
514.22	1850.05
514.58	1829.50
514.94	1804.37
515.30	1780.35
515.65	1762.52
516.01	1738.46
516.37	1715.29
516.73	1698.13
517.08	1676.83
517.44	1655.62
517.80	1639.90
518.16	1622.13
518.51	1603.08
518.87	1587.44
519.23	1574.64
519.59	1563.81
519.94	1549.36
520.30	1533.03
520.66	1518.49
521.01	1500.31
521.37	1484.44
521.73	1469.08
522.09	1458.15
522.44	1446.17
522.80	1434.51
523.16	1425.22
523.51	1417.59
523.87	1409.19
524.23	1400.18
524.58	1392.08
524.94	1382.81
525.30	1374.67
525.65	1365.63
526.01	1356.29
526.37	1347.89
526.72	1338.51
527.08	1324.72
527.44	1313.51
527.79	1307.03
528.15	1299.96
528.51	1294.64
528.86	1292.56
529.22	1287.62
529.58	1281.77
529.93	1275.90
530.29	1268.43
530.65	1260.85
531.00	1256.66
531.36	1248.75
531.71	1243.11
532.07	1236.90
532.43	1230.58
532.78	1221.64
533.14	1219.96
533.49	1211.88
533.85	1206.50
534.21	1206.90
534.56	1206.66
534.92	1202.64
535.27	1203.36
535.63	1199.03
535.98	1193.58
536.34	1191.36
536.69	1186.82
537.05	1182.49
537.41	1180.22
537.76	1178.06
538.12	1173.76
538.47	1169.64
538.83	1170.78
539.18	1171.53
539.54	1169.14
539.89	1167.41
540.25	1164.95
540.60	1159.31
540.96	1154.98
541.31	1148.36
541.67	1145.48
542.02	1144.01
542.38	1143.80
542.73	1142.95
543.09	1145.65
543.44	1145.46
543.80	1145.72
544.15	1142.02
544.51	1141.74
544.86	1142.04
545.22	1141.53
545.57	1141.20
545.93	1138.95
546.28	1135.82
546.64	1132.98
546.99	1127.90
547.35	1126.57
547.70	1125.54
548.05	1123.39
548.41	1118.12
548.76	1117.09
549.12	1115.85
549.47	1115.12
549.83	1114.35
550.18	1116.06
550.53	1117.79
550.89	1117.49
551.24	1116.04
551.60	1113.46
551.95	1111.71
552.30	1111.12
552.66	1109.27
553.01	1111.80
553.37	1114.59
553.72	1115.55
554.07	1114.56
554.43	1111.92
554.78	1108.41
555.13	1105.88
555.49	1103.40
555.84	1101.41
556.19	1104.03
556.55	1103.89
556.90	1103.70
557.26	1103.94
557.61	1104.52
557.96	1103.23
558.32	1099.82
558.67	1098.58
559.02	1100.43
559.37	1100.00
559.73	1098.58
560.08	1100.22
560.43	1101.15
560.79	1098.41
561.14	1096.05
561.49	1095.14
561.85	1094.76
562.20	1092.61
562.55	1093.71
562.90	1094.88
563.26	1092.07
563.61	1092.45
563.96	1094.50
564.32	1093.71
564.67	1094.32
565.02	1095.72
565.37	1096.56
565.73	1094.65
566.08	1088.58
566.43	1086.55
566.78	1086.92
567.14	1088.68
567.49	1088.07
567.84	1094.62
568.19	1094.67
568.54	1093.87
568.90	1089.94
569.25	1087.62
569.60	1085.70
569.95	1085.73
570.31	1087.90
570.66	1086.36
571.01	1087.81
571.36	1087.44
571.71	1085.63
572.06	1084.25
572.42	1085.14
572.77	1087.18
573.12	1087.69
573.47	1090.83
573.82	1088.26
574.18	1088.58
574.53	1087.16
574.88	1086.45
575.23	1085.03
575.58	1086.97
575.93	1088.82
576.28	1087.58
576.64	1087.37
576.99	1086.52
577.34	1086.52
577.69	1085.52
578.04	1086.94
578.39	1083.76
578.74	1085.03
579.09	1086.87
579.44	1086.17
579.80	1086.97
580.15	1090.57
580.50	1089.66
580.85	1084.79
581.20	1082.57
581.55	1080.79
581.90	1076.51
582.25	1076.11
582.60	1076.53
582.95	1080.06
583.30	1079.38
583.65	1080.23
584.00	1079.29
584.35	1081.21
584.71	1075.62
585.06	1076.79
585.41	1079.27
585.76	1080.16
586.11	1077.70
586.46	1080.34
586.81	1079.67
587.16	1077.16
587.51	1076.86
587.86	1079.48
588.21	1080.56
588.56	1081.49
588.91	1084.96
589.26	1087.58
589.61	1085.87
589.96	1085.00
590.31	1086.31
590.66	1084.46
591.01	1084.00
591.36	1084.46
591.71	1083.90
592.06	1083.20
592.41	1085.35
592.76	1085.52
593.10	1087.58
593.45	1086.64
593.80	1082.92
594.15	1080.30
594.50	1077.28
594.85	1072.46
595.20	1077.25
595.55	1078.64
595.90	1081.12
596.25	1081.63
596.60	1086.34
596.95	1087.09
597.30	1089.40
597.64	1099.35
597.99	1102.28
598.34	1097.01
598.69	1093.05
599.04	1088.86
599.39	1074.87
599.74	1070.56
600.09	1073.84
600.44	1076.41
600.78	1079.36
601.13	1080.51
601.48	1077.56
601.83	1074.87
602.18	1072.32
602.53	1073.39
602.88	1074.61
603.22	1079.90
603.57	1083.88
603.92	1081.84
604.27	1080.58
604.62	1080.41
604.97	1080.44
605.31	1080.32
605.66	1081.80
606.01	1082.71
606.36	1080.30
606.71	1079.06
607.05	1081.44
607.40	1081.33
607.75	1079.99
608.10	1083.27
608.44	1081.70
608.79	1080.11
609.14	1083.29
609.49	1081.94
609.84	1079.15
610.18	1079.22
610.53	1075.31
610.88	1071.90
611.23	1071.90
611.57	1073.93
611.92	1075.52
612.27	1077.30
612.62	1078.17
612.96	1077.11
613.31	1075.66
613.66	1073.21
614.00	1074.84
614.35	1076.25
614.70	1078.73
615.05	1080.72
615.39	1082.50
615.74	1077.89
616.09	1076.90
616.43	1078.03
616.78	1077.82
617.13	1075.45
617.47	1078.61
617.82	1079.60
618.17	1079.10
618.51	1080.41
618.86	1083.74
619.21	1082.83
619.55	1083.60
619.90	1084.25
620.25	1082.69
620.59	1084.28
620.94	1088.33
621.29	1088.09
621.63	1085.99
621.98	1085.03
622.32	1086.10
622.67	1081.44
623.02	1078.80
623.36	1079.90
623.71	1079.27
624.05	1078.14
624.40	1078.03
624.75	1079.48
625.09	1077.91
625.44	1077.72
625.78	1072.50
626.13	1073.18
626.48	1071.54
626.82	1072.64
627.17	1074.94
627.51	1076.83
627.86	1075.24
628.20	1076.04
628.55	1076.74
628.89	1078.89
629.24	1078.17
629.58	1080.25
629.93	1079.15
630.28	1077.84
630.62	1077.42
630.97	1080.88
631.31	1081.42
631.66	1084.46
632.00	1085.10
632.35	1082.17
632.69	1080.93
633.04	1078.47
633.38	1075.94
633.73	1077.18
634.07	1076.65
634.42	1073.81
634.76	1075.59
635.11	1075.24
635.45	1073.84
635.79	1070.19
636.14	1070.51
636.48	1069.88
636.83	1072.08
637.17	1067.82
637.52	1072.29
637.86	1075.94
638.21	1076.65
638.55	1073.86
638.89	1077.75
639.24	1077.33
639.58	1075.29
639.93	1075.48
640.27	1078.36
640.61	1079.20
640.96	1082.94
641.30	1082.31
641.65	1081.87
641.99	1078.94
642.33	1078.36
642.68	1075.36
643.02	1077.79
643.37	1079.15
643.71	1079.31
644.05	1080.91
644.40	1078.82
644.74	1076.72
645.08	1075.20
645.43	1076.69
645.77	1075.17
646.11	1072.41
646.46	1072.90
646.80	1072.69
647.14	1072.53
647.49	1075.17
647.83	1080.34
648.17	1078.03
648.52	1076.41
648.86	1072.95
649.20	1070.21
649.55	1068.95
649.89	1071.90
650.23	1073.53
650.57	1078.50
650.92	1079.67
651.26	1078.87
651.60	1077.54
651.95	1076.86
652.29	1076.34
652.63	1075.27
652.97	1079.76
653.32	1078.99
653.66	1081.05
654.00	1080.02
654.34	1078.66
654.69	1076.74
655.03	1080.25
655.37	1079.46
655.71	1079.95
656.05	1082.03
656.40	1080.20
656.74	1079.29
657.08	1080.04
657.42	1078.24
657.76	1074.94
658.11	1073.35
658.45	1074.24
658.79	1072.53
659.13	1074.17
659.47	1076.32
659.82	1078.07
660.16	1077.98
660.50	1077.51
660.84	1076.18
661.18	1074.73
661.52	1075.05
661.87	1072.36
662.21	1070.14
662.55	1069.62
662.89	1072.34
663.23	1072.55
663.57	1073.07
663.91	1077.00
664.25	1076.83
664.60	1076.95
664.94	1075.57
665.28	1077.56
665.62	1074.61
665.96	1077.30
666.30	1074.33
666.64	1074.98
666.98	1073.23
667.32	1075.85
667.66	1078.68
668.01	1079.74
668.35	1077.63
668.69	1076.37
669.03	1074.96
669.37	1072.06
669.71	1072.22
670.05	1074.54
670.39	1075.13
670.73	1071.73
671.07	1070.65
671.41	1072.78
671.75	1075.97
672.09	1076.55
672.43	1081.02
672.77	1081.02
673.11	1079.36
673.45	1073.81
673.79	1074.49
674.13	1076.06
674.47	1079.17
674.81	1078.40
675.15	1081.84
675.49	1083.27
675.83	1080.02
676.17	1078.07
676.51	1079.06
676.85	1075.48
677.19	1072.60
677.53	1072.29
677.87	1070.84
678.21	1070.63
678.55	1074.14
678.89	1074.56
679.23	1075.34
679.57	1073.35
679.90	1074.12
680.24	1073.04
680.58	1074.49
680.92	1075.20
681.26	1076.62
681.60	1074.28
681.94	1075.66
682.28	1075.57
682.62	1077.72
682.96	1077.89
683.29	1080.13
683.63	1079.62
683.97	1080.09
684.31	1077.54
684.65	1076.46
684.99	1078.33
685.33	1076.62
685.67	1076.13
686.00	1076.25
686.34	1080.11
686.68	1074.75
687.02	1074.42
687.36	1073.51
687.70	1075.38
688.03	1070.40
688.37	1072.48
688.71	1073.37
689.05	1073.09
689.39	1071.22
689.72	1076.23
690.06	1080.72
690.40	1083.36
690.74	1083.97
691.08	1085.00
691.41	1083.08
691.75	1080.09
692.09	1078.50
692.43	1076.06
692.76	1074.54
693.10	1073.42
693.44	1071.54
693.78	1072.13
694.11	1075.45
694.45	1076.08
694.79	1075.13
695.13	1078.19
695.46	1078.45
695.80	1077.98
696.14	1076.90
696.48	1079.83
696.81	1076.83
697.15	1073.70
697.49	1073.02
697.82	1076.62
698.16	1077.42
698.50	1077.23
698.83	1079.06
699.17	1078.07
699.51	1074.03
699.84	1074.40
700.18	1076.55
700.52	1076.25
700.85	1077.30
701.19	1079.60
701.53	1078.87
701.86	1079.10
702.20	1077.98
702.54	1081.94
702.87	1081.58
703.21	1079.99
703.55	1076.86
703.88	1076.79
704.22	1074.14
704.55	1071.92
704.89	1071.64
705.23	1073.88
705.56	1072.60
705.90	1071.24
706.23	1073.58
706.57	1073.65
706.91	1071.52
707.24	1074.24
707.58	1073.51
707.91	1073.18
708.25	1072.01
708.58	1074.14
708.92	1073.04
709.26	1072.76
709.59	1070.63
709.93	1068.06
710.26	1069.58
710.60	1070.23
710.93	1071.24
711.27	1076.95
711.60	1081.02
711.94	1079.06
712.27	1080.06
712.61	1081.44
712.94	1079.34
713.28	1077.86
713.61	1078.07
713.95	1076.01
714.28	1075.71
714.62	1073.37
714.95	1074.82
715.29	1073.35
715.62	1077.61
715.96	1077.51
716.29	1081.19
716.63	1081.23
716.96	1085.40
717.29	1084.58
717.63	1084.11
717.96	1080.95
718.30	1080.98
718.63	1079.36
718.97	1077.86
719.30	1079.48
719.63	1079.76
719.97	1081.61
720.30	1079.99
720.64	1078.40
720.97	1076.95
721.30	1077.72
721.64	1073.74
721.97	1074.54
722.31	1078.26
722.64	1076.48
722.97	1075.22
723.31	1079.62
723.64	1079.20
723.97	1075.97
724.31	1080.37
724.64	1084.11
724.98	1080.65
725.31	1081.58
725.64	1083.01
725.98	1077.16
726.31	1073.79
726.64	1074.38
726.97	1074.26
727.31	1072.97
727.64	1075.99
727.97	1075.57
728.31	1076.65
728.64	1075.83
728.97	1074.89
729.31	1070.89
729.64	1072.92
729.97	1072.06
730.30	1070.47
730.64	1071.29
730.97	1075.08
731.30	1073.98
731.63	1072.69
731.97	1075.20
732.30	1075.45
732.63	1074.47
732.96	1074.84
733.30	1075.66
733.63	1075.85
733.96	1076.74
734.29	1076.48
734.63	1077.04
734.96	1079.78
735.29	1079.10
735.62	1080.46
735.95	1082.92
736.29	1082.45
736.62	1080.16
736.95	1083.53
737.28	1082.33
737.61	1080.04
737.94	1080.58
738.28	1082.05
738.61	1078.17
738.94	1078.21
739.27	1076.39
739.60	1074.00
739.93	1074.05
740.27	1078.28
740.60	1077.68
740.93	1077.77
741.26	1078.12
741.59	1078.82
741.92	1072.50
742.25	1072.01
742.58	1073.00
742.91	1072.71
743.25	1070.72
743.58	1070.56
743.91	1071.68
744.24	1074.31
744.57	1077.68
744.90	1079.03
745.23	1080.44
745.56	1079.20
745.89	1079.03
746.22	1078.26
746.55	1078.94
746.88	1082.38
747.21	1081.61
747.54	1080.06
747.87	1077.82
748.20	1075.66
748.53	1077.04
748.87	1077.98
749.20	1081.61
749.53	1081.07
749.86	1082.17
750.19	1079.20
750.52	1078.33
750.85	1072.34
751.18	1071.57
751.51	1069.79
751.84	1068.48
752.16	1069.09
752.49	1067.89
752.82	1067.99
753.15	1067.99
753.48	1067.14
753.81	1068.52
754.14	1072.60
754.47	1075.36
754.80	1077.09
755.13	1077.30
755.46	1074.73
755.79	1075.24
756.12	1075.90
756.45	1074.89
756.78	1075.24
757.11	1074.66
757.43	1076.08
757.76	1074.87
758.09	1078.21
758.42	1082.57
758.75	1087.06
759.08	1082.54
759.41	1080.79
759.74	1077.56
760.07	1074.21
760.39	1071.94
760.72	1074.87
761.05	1076.01
761.38	1073.23
761.71	1073.42
762.04	1073.58
762.36	1071.17
762.69	1068.45
763.02	1070.75
763.35	1069.81
763.68	1068.88
764.01	1073.63
764.33	1074.38
764.66	1075.29
