SpectraSuite Data File
++++++++++++++++++++++++++++++++++++
Date: Mon Aug 26 10:22:14 PDT 2019
User: corrico
Dark Spectrum Present: No
Reference Spectrum Present: No
Number of Sampled Component Spectra: 1
Spectrometers: USB2+H06089
Integration Time (usec): 2000 (USB2+H06089)
Spectra Averaged: 20 (USB2+H06089)
Boxcar Smoothing: 2 (USB2+H06089)
Correct for Electrical Dark: No (USB2+H06089)
Strobe/Lamp Enabled: No (USB2+H06089)
Correct for Detector Non-linearity: No (USB2+H06089)
Correct for Stray Light: No (USB2+H06089)
Number of Pixels in Processed Spectrum: 2048
>>>>>Begin Processed Spectral Data<<<<<
339.70	1049.03
340.07	1049.03
340.45	1004.32
340.82	980.78
341.19	953.07
341.57	925.31
341.94	915.99
342.31	909.30
342.69	900.78
343.06	896.05
343.43	895.35
343.81	898.37
344.18	898.95
344.55	906.07
344.93	913.37
345.30	916.79
345.67	919.55
346.04	927.02
346.42	933.78
346.79	942.84
347.16	954.99
347.54	965.10
347.91	977.36
348.28	988.69
348.65	998.59
349.03	1005.61
349.40	1015.79
349.77	1023.40
350.14	1027.00
350.52	1032.50
350.89	1038.64
351.26	1046.13
351.63	1049.96
352.01	1055.77
352.38	1061.78
352.75	1066.75
353.12	1067.21
353.50	1072.20
353.87	1072.39
354.24	1072.57
354.61	1075.76
354.98	1078.80
355.36	1080.27
355.73	1084.74
356.10	1085.91
356.47	1085.33
356.84	1085.42
357.22	1086.24
357.59	1088.61
357.96	1088.84
358.33	1089.19
358.70	1091.60
359.08	1089.73
359.45	1085.17
359.82	1083.15
360.19	1081.98
360.56	1077.98
360.94	1078.03
361.31	1077.02
361.68	1078.73
362.05	1076.74
362.42	1074.91
362.79	1074.03
363.16	1074.84
363.54	1074.89
363.91	1075.03
364.28	1078.14
364.65	1077.00
365.02	1076.53
365.39	1077.89
365.76	1080.34
366.14	1079.55
366.51	1082.59
366.88	1083.93
367.25	1082.19
367.62	1083.57
367.99	1080.53
368.36	1079.50
368.73	1079.81
369.10	1076.60
369.48	1073.44
369.85	1075.03
370.22	1073.95
370.59	1077.14
370.96	1079.57
371.33	1078.66
371.70	1079.81
372.07	1080.77
372.44	1076.06
372.81	1076.65
373.18	1078.36
373.55	1078.80
373.93	1078.68
374.30	1081.54
374.67	1081.84
375.04	1081.05
375.41	1080.34
375.78	1081.73
376.15	1079.95
376.52	1078.78
376.89	1078.61
377.26	1077.23
377.63	1074.21
378.00	1074.59
378.37	1074.52
378.74	1076.27
379.11	1081.44
379.48	1081.89
379.85	1083.25
380.22	1082.80
380.59	1078.85
380.96	1075.48
381.33	1077.28
381.70	1079.22
382.07	1082.52
382.44	1084.84
382.81	1083.79
383.18	1081.26
383.55	1080.81
383.92	1077.65
384.29	1078.21
384.66	1077.72
385.03	1080.74
385.40	1078.66
385.77	1080.09
386.14	1081.91
386.51	1083.69
386.88	1082.69
387.25	1083.36
387.62	1080.63
387.99	1078.68
388.36	1079.76
388.73	1080.32
389.10	1079.06
389.46	1080.27
389.83	1083.55
390.20	1084.23
390.57	1084.39
390.94	1083.86
391.31	1088.47
391.68	1086.22
392.05	1085.17
392.42	1085.28
392.79	1086.45
393.16	1083.13
393.53	1086.24
393.89	1085.61
394.26	1085.49
394.63	1087.06
395.00	1089.05
395.37	1085.82
395.74	1088.26
396.11	1091.70
396.48	1091.74
396.84	1094.34
397.21	1096.68
397.58	1093.33
397.95	1091.11
398.32	1092.54
398.69	1091.46
399.06	1088.44
399.42	1090.62
399.79	1093.43
400.16	1089.96
400.53	1086.22
400.90	1088.26
401.27	1089.22
401.64	1085.28
402.00	1088.04
402.37	1088.89
402.74	1091.81
403.11	1089.75
403.48	1091.04
403.84	1088.70
404.21	1090.03
404.58	1086.66
404.95	1088.28
405.32	1091.02
405.68	1092.45
406.05	1093.22
406.42	1093.57
406.79	1093.12
407.16	1093.64
407.52	1092.56
407.89	1092.70
408.26	1095.44
408.63	1099.40
408.99	1097.43
409.36	1102.65
409.73	1102.44
410.10	1101.81
410.47	1099.65
410.83	1098.98
411.20	1096.49
411.57	1099.72
411.94	1099.21
412.30	1101.15
412.67	1103.40
413.04	1100.00
413.40	1097.45
413.77	1099.86
414.14	1098.90
414.51	1097.38
414.87	1101.67
415.24	1105.62
415.61	1105.13
415.97	1105.90
416.34	1108.71
416.71	1110.54
417.08	1107.99
417.44	1106.93
417.81	1107.64
418.18	1109.46
418.54	1109.84
418.91	1112.46
419.28	1114.66
419.64	1114.02
420.01	1114.75
420.38	1115.50
420.74	1117.96
421.11	1123.62
421.48	1127.67
421.84	1128.23
422.21	1130.29
422.58	1131.49
422.94	1131.32
423.31	1136.12
423.68	1141.25
424.04	1144.29
424.41	1148.38
424.77	1150.65
425.14	1150.49
425.51	1153.46
425.87	1159.20
426.24	1165.19
426.61	1171.77
426.97	1184.99
427.34	1192.08
427.70	1195.36
428.07	1198.49
428.44	1208.63
428.80	1211.95
429.17	1220.50
429.53	1236.76
429.90	1250.97
430.27	1257.80
430.63	1272.46
431.00	1287.18
431.36	1303.37
431.73	1318.73
432.09	1340.00
432.46	1354.91
432.83	1377.36
433.19	1397.42
433.56	1417.71
433.92	1441.37
434.29	1468.41
434.65	1496.56
435.02	1522.07
435.38	1557.67
435.75	1587.47
436.11	1625.90
436.48	1661.57
436.84	1703.00
437.21	1750.88
437.57	1801.79
437.94	1847.64
438.30	1899.25
438.67	1957.90
439.03	2013.21
439.40	2079.07
439.76	2150.53
440.13	2227.51
440.49	2309.08
440.86	2388.07
441.22	2477.29
441.59	2572.30
441.95	2670.48
442.32	2769.39
442.68	2891.12
443.05	3005.93
443.41	3127.59
443.78	3259.50
444.14	3402.27
444.51	3543.34
444.87	3720.12
445.24	3887.35
445.60	4062.84
445.96	4239.08
446.33	4435.67
446.69	4620.76
447.06	4842.97
447.42	5070.79
447.79	5317.77
448.15	5588.73
448.51	5876.36
448.88	6194.27
449.24	6499.06
449.61	6844.05
449.97	7208.12
450.33	7582.91
450.70	7941.53
451.06	8381.97
451.43	8787.49
451.79	9249.12
452.15	9741.66
452.52	10265.12
452.88	10802.27
453.24	11426.82
453.61	12087.81
453.97	12731.27
454.34	13376.49
454.70	14140.02
455.06	14884.89
455.43	15622.40
455.79	16330.03
456.15	17192.15
456.52	18009.35
456.88	19018.09
457.24	20004.79
457.61	21159.15
457.97	22226.90
458.33	23290.58
458.70	24329.03
459.06	25312.31
459.42	26381.32
459.79	27337.27
460.15	28422.18
460.51	29396.22
460.88	30463.48
461.24	31377.01
461.60	32536.09
461.96	33609.62
462.33	34629.02
462.69	35601.07
463.05	36671.51
463.42	37571.80
463.78	38395.32
464.14	39151.94
464.50	39958.56
464.87	40579.15
465.23	41062.36
465.59	41543.99
465.95	41907.67
466.32	42206.01
466.68	42497.88
467.04	42673.16
467.40	42772.47
467.77	42962.05
468.13	42917.84
468.49	42715.81
468.85	42562.97
469.22	42383.24
469.58	42037.36
469.94	41865.51
470.30	41680.45
470.66	41347.20
471.03	40775.97
471.39	40351.14
471.75	39529.45
472.11	38689.41
472.47	38112.35
472.84	37546.87
473.20	36814.75
473.56	36419.60
473.92	35884.41
474.28	35259.54
474.65	34677.49
475.01	34091.35
475.37	33312.87
475.73	32667.16
476.09	31946.14
476.45	31275.55
476.81	30670.22
477.18	30054.49
477.54	29525.11
477.90	29071.44
478.26	28481.18
478.62	27945.13
478.98	27550.45
479.34	27124.54
479.71	26609.53
480.07	26232.47
480.43	25809.49
480.79	25348.26
481.15	24917.90
481.51	24519.85
481.87	24149.79
482.23	23745.93
482.59	23389.23
482.96	23006.06
483.32	22675.53
483.68	22295.10
484.04	22000.90
484.40	21599.87
484.76	21230.34
485.12	20826.53
485.48	20436.08
485.84	19985.18
486.20	19590.78
486.56	19175.70
486.92	18777.88
487.28	18336.95
487.64	17852.72
488.00	17396.45
488.37	16910.04
488.73	16410.01
489.09	15914.47
489.45	15504.29
489.81	15091.19
490.17	14707.20
490.53	14326.56
490.89	13955.12
491.25	13570.92
491.61	13180.17
491.97	12802.29
492.33	12440.35
492.69	12113.11
493.05	11788.32
493.41	11462.59
493.77	11117.64
494.13	10786.34
494.49	10455.57
494.85	10136.58
495.21	9844.95
495.57	9584.73
495.93	9313.86
496.29	9062.65
496.64	8829.93
497.00	8586.79
497.36	8346.63
497.72	8138.70
498.08	7940.20
498.44	7740.74
498.80	7543.13
499.16	7356.75
499.52	7155.44
499.88	6971.07
500.24	6804.24
500.60	6646.79
500.96	6490.47
501.32	6346.34
501.68	6190.11
502.03	6030.04
502.39	5879.17
502.75	5723.71
503.11	5584.26
503.47	5453.24
503.83	5310.30
504.19	5165.80
504.55	5033.88
504.91	4893.71
505.26	4762.19
505.62	4636.84
505.98	4529.24
506.34	4417.50
506.70	4310.73
507.06	4202.31
507.42	4106.12
507.78	4013.85
508.13	3921.19
508.49	3831.34
508.85	3748.74
509.21	3662.47
509.57	3576.10
509.93	3495.12
510.28	3415.12
510.64	3338.42
511.00	3264.30
511.36	3186.80
511.72	3114.74
512.07	3046.25
512.43	2976.83
512.79	2915.00
513.15	2850.21
513.51	2789.75
513.86	2738.05
514.22	2688.20
514.58	2634.72
514.94	2592.00
515.30	2553.10
515.65	2508.59
516.01	2464.75
516.37	2424.80
516.73	2387.14
517.08	2343.41
517.44	2296.32
517.80	2256.93
518.16	2219.13
518.51	2183.32
518.87	2148.19
519.23	2119.21
519.59	2083.01
519.94	2049.91
520.30	2014.64
520.66	1983.09
521.01	1955.85
521.37	1933.54
521.73	1909.53
522.09	1888.63
522.44	1873.62
522.80	1854.62
523.16	1835.49
523.51	1812.84
523.87	1794.37
524.23	1770.17
524.58	1743.25
524.94	1720.97
525.30	1701.43
525.65	1679.90
526.01	1656.70
526.37	1642.92
526.72	1625.85
527.08	1606.26
527.44	1587.37
527.79	1573.26
528.15	1554.84
528.51	1540.10
528.86	1528.88
529.22	1515.40
529.58	1503.14
529.93	1490.73
530.29	1476.08
530.65	1460.82
531.00	1447.62
531.36	1437.16
531.71	1425.50
532.07	1415.91
532.43	1406.85
532.78	1399.50
533.14	1388.45
533.49	1379.18
533.85	1369.26
534.21	1362.07
534.56	1353.84
534.92	1345.13
535.27	1337.69
535.63	1333.17
535.98	1326.94
536.34	1318.52
536.69	1312.53
537.05	1306.35
537.41	1297.97
537.76	1292.14
538.12	1286.08
538.47	1281.44
538.83	1274.45
539.18	1268.80
539.54	1262.51
539.89	1261.01
540.25	1253.29
540.60	1250.15
540.96	1248.44
541.31	1245.87
541.67	1240.25
542.02	1236.83
542.38	1232.41
542.73	1230.28
543.09	1224.50
543.44	1221.13
543.80	1219.07
544.15	1213.61
544.51	1208.11
544.86	1207.55
545.22	1205.14
545.57	1202.59
545.93	1204.67
546.28	1200.09
546.64	1193.86
546.99	1191.26
547.35	1187.92
547.70	1183.33
548.05	1181.13
548.41	1180.47
548.76	1176.45
549.12	1172.89
549.47	1170.13
549.83	1168.61
550.18	1166.03
550.53	1163.13
550.89	1163.53
551.24	1157.61
551.60	1155.78
551.95	1153.77
552.30	1154.47
552.66	1149.44
553.01	1150.30
553.37	1148.55
553.72	1146.53
554.07	1145.67
554.43	1144.15
554.78	1142.81
555.13	1138.20
555.49	1137.90
555.84	1133.73
556.19	1134.93
556.55	1134.97
556.90	1134.83
557.26	1130.71
557.61	1129.89
557.96	1125.14
558.32	1125.96
558.67	1126.78
559.02	1126.27
559.37	1125.45
559.73	1128.77
560.08	1123.62
560.43	1122.97
560.79	1123.74
561.14	1122.85
561.49	1116.30
561.85	1116.67
562.20	1114.80
562.55	1114.26
562.90	1113.42
563.26	1116.30
563.61	1118.40
563.96	1119.60
564.32	1116.69
564.67	1115.64
565.02	1117.54
565.37	1114.66
565.73	1111.05
566.08	1109.65
566.43	1107.35
566.78	1102.21
567.14	1099.72
567.49	1100.03
567.84	1101.41
568.19	1101.01
568.54	1098.09
568.90	1098.25
569.25	1096.89
569.60	1096.26
569.95	1097.27
570.31	1099.75
570.66	1100.96
571.01	1104.05
571.36	1103.40
571.71	1103.52
572.06	1103.94
572.42	1105.90
572.77	1104.19
573.12	1104.90
573.47	1103.49
573.82	1101.64
574.18	1101.03
574.53	1099.47
574.88	1099.68
575.23	1099.84
575.58	1104.22
575.93	1100.19
576.28	1099.33
576.64	1098.76
576.99	1098.74
577.34	1099.23
577.69	1101.34
578.04	1100.75
578.39	1099.63
578.74	1098.11
579.09	1095.82
579.44	1094.15
579.80	1095.86
580.15	1098.34
580.50	1101.67
580.85	1099.28
581.20	1099.84
581.55	1098.72
581.90	1100.03
582.25	1097.90
582.60	1100.45
582.95	1098.62
583.30	1099.47
583.65	1096.78
584.00	1097.06
584.35	1093.99
584.71	1093.05
585.06	1093.55
585.41	1091.70
585.76	1091.63
586.11	1091.79
586.46	1092.84
586.81	1091.30
587.16	1091.98
587.51	1088.89
587.86	1089.78
588.21	1088.35
588.56	1086.08
588.91	1085.42
589.26	1085.42
589.61	1087.20
589.96	1091.84
590.31	1091.44
590.66	1088.84
591.01	1092.37
591.36	1092.40
591.71	1086.43
592.06	1088.70
592.41	1087.86
592.76	1086.34
593.10	1085.49
593.45	1086.76
593.80	1088.56
594.15	1094.01
594.50	1093.69
594.85	1090.53
595.20	1094.20
595.55	1092.23
595.90	1091.13
596.25	1091.81
596.60	1091.23
596.95	1089.10
597.30	1087.88
597.64	1098.27
597.99	1099.40
598.34	1099.65
598.69	1099.98
599.04	1102.02
599.39	1089.36
599.74	1084.39
600.09	1087.69
600.44	1085.63
600.78	1084.37
601.13	1086.43
601.48	1083.41
601.83	1082.69
602.18	1086.80
602.53	1086.31
602.88	1082.69
603.22	1086.87
603.57	1084.30
603.92	1083.13
604.27	1085.07
604.62	1086.01
604.97	1085.66
605.31	1088.56
605.66	1087.67
606.01	1086.31
606.36	1088.26
606.71	1090.53
607.05	1090.15
607.40	1088.28
607.75	1091.46
608.10	1087.37
608.44	1087.83
608.79	1088.84
609.14	1091.16
609.49	1086.85
609.84	1091.02
610.18	1089.50
610.53	1086.57
610.88	1085.82
611.23	1086.45
611.57	1085.45
611.92	1088.75
612.27	1089.03
612.62	1087.09
612.96	1084.14
613.31	1083.90
613.66	1079.34
614.00	1080.09
614.35	1081.21
614.70	1083.74
615.05	1083.83
615.39	1086.22
615.74	1083.86
616.09	1083.81
616.43	1086.64
616.78	1087.18
617.13	1087.76
617.47	1087.32
617.82	1087.46
618.17	1084.37
618.51	1083.93
618.86	1081.35
619.21	1083.08
619.55	1081.51
619.90	1079.43
620.25	1077.16
620.59	1079.57
620.94	1081.05
621.29	1081.40
621.63	1088.19
621.98	1090.76
622.32	1090.55
622.67	1089.12
623.02	1088.98
623.36	1083.36
623.71	1082.99
624.05	1080.91
624.40	1081.61
624.75	1083.06
625.09	1082.66
625.44	1082.08
625.78	1081.91
626.13	1081.70
626.48	1082.87
626.82	1082.19
627.17	1085.05
627.51	1084.74
627.86	1087.23
628.20	1085.21
628.55	1089.31
628.89	1086.69
629.24	1087.81
629.58	1086.27
629.93	1086.43
630.28	1085.82
630.62	1086.97
630.97	1089.47
631.31	1087.27
631.66	1087.20
632.00	1085.84
632.35	1082.83
632.69	1078.47
633.04	1079.92
633.38	1080.44
633.73	1082.45
634.07	1084.58
634.42	1089.64
634.76	1089.14
635.11	1092.52
635.45	1089.80
635.79	1087.48
636.14	1080.39
636.48	1080.63
636.83	1075.45
637.17	1075.36
637.52	1079.78
637.86	1086.08
638.21	1087.04
638.55	1089.92
638.89	1089.99
639.24	1092.61
639.58	1087.97
639.93	1088.33
640.27	1086.15
640.61	1087.27
640.96	1081.07
641.30	1082.52
641.65	1080.27
641.99	1081.21
642.33	1081.80
642.68	1082.03
643.02	1084.98
643.37	1086.13
643.71	1088.30
644.05	1084.51
644.40	1085.77
644.74	1081.77
645.08	1080.58
645.43	1076.76
645.77	1078.54
646.11	1077.68
646.46	1077.84
646.80	1080.81
647.14	1081.14
647.49	1082.59
647.83	1086.52
648.17	1085.12
648.52	1082.57
648.86	1083.43
649.20	1081.23
649.55	1079.34
649.89	1082.61
650.23	1087.04
650.57	1087.69
650.92	1088.77
651.26	1087.93
651.60	1087.93
651.95	1086.15
652.29	1086.20
652.63	1086.52
652.97	1084.04
653.32	1085.26
653.66	1083.57
654.00	1084.23
654.34	1082.71
654.69	1086.50
655.03	1085.31
655.37	1084.09
655.71	1083.53
656.05	1083.64
656.40	1081.73
656.74	1083.01
657.08	1083.76
657.42	1082.17
657.76	1085.73
658.11	1084.58
658.45	1080.56
658.79	1081.89
659.13	1079.34
659.47	1079.64
659.82	1082.73
660.16	1084.30
660.50	1084.02
660.84	1089.00
661.18	1087.46
661.52	1086.64
661.87	1087.83
662.21	1089.73
662.55	1086.85
662.89	1086.08
663.23	1084.28
663.57	1082.22
663.91	1075.90
664.25	1074.75
664.60	1075.03
664.94	1072.62
665.28	1077.21
665.62	1079.27
665.96	1079.03
666.30	1080.77
666.64	1083.90
666.98	1080.37
667.32	1081.00
667.66	1083.20
668.01	1080.13
668.35	1081.05
668.69	1081.30
669.03	1081.70
669.37	1083.69
669.71	1085.99
670.05	1084.00
670.39	1084.63
670.73	1084.74
671.07	1083.55
671.41	1081.16
671.75	1081.66
672.09	1079.57
672.43	1079.71
672.77	1080.65
673.11	1081.94
673.45	1080.77
673.79	1081.61
674.13	1081.56
674.47	1080.65
674.81	1077.96
675.15	1082.99
675.49	1084.21
675.83	1084.86
676.17	1086.15
676.51	1091.20
676.85	1087.39
677.19	1082.87
677.53	1081.84
677.87	1080.60
678.21	1077.96
678.55	1076.13
678.89	1077.04
679.23	1075.99
679.57	1077.33
679.90	1074.75
680.24	1076.13
680.58	1078.61
680.92	1079.97
681.26	1079.64
681.60	1081.91
681.94	1085.70
682.28	1086.15
682.62	1084.74
682.96	1084.60
683.29	1087.83
683.63	1083.01
683.97	1082.24
684.31	1084.63
684.65	1086.71
684.99	1081.23
685.33	1082.99
685.67	1081.82
686.00	1083.32
686.34	1080.63
686.68	1081.96
687.02	1081.80
687.36	1082.66
687.70	1080.39
688.03	1081.07
688.37	1079.03
688.71	1079.41
689.05	1080.63
689.39	1077.16
689.72	1075.97
690.06	1082.01
690.40	1082.29
690.74	1082.29
691.08	1089.17
691.41	1087.67
691.75	1087.74
692.09	1089.59
692.43	1090.81
692.76	1087.13
693.10	1088.65
693.44	1084.60
693.78	1079.34
694.11	1076.34
694.45	1074.82
694.79	1075.10
695.13	1075.20
695.46	1077.37
695.80	1080.48
696.14	1080.53
696.48	1079.57
696.81	1078.28
697.15	1078.07
697.49	1078.75
697.82	1081.30
698.16	1078.26
698.50	1083.11
698.83	1085.99
699.17	1083.88
699.51	1080.98
699.84	1082.78
700.18	1080.58
700.52	1076.04
700.85	1078.47
701.19	1081.77
701.53	1081.51
701.86	1078.85
702.20	1081.07
702.54	1076.46
702.87	1073.72
703.21	1076.79
703.55	1078.64
703.88	1079.76
704.22	1082.90
704.55	1083.67
704.89	1081.63
705.23	1079.88
705.56	1078.21
705.90	1078.05
706.23	1077.00
706.57	1076.62
706.91	1078.78
707.24	1080.91
707.58	1080.06
707.91	1080.56
708.25	1081.68
708.58	1081.98
708.92	1077.56
709.26	1076.81
709.59	1079.60
709.93	1078.17
710.26	1079.50
710.60	1081.56
710.93	1082.71
711.27	1081.05
711.60	1082.10
711.94	1079.62
712.27	1079.69
712.61	1077.65
712.94	1077.54
713.28	1076.23
713.61	1076.20
713.95	1078.45
714.28	1079.97
714.62	1079.31
714.95	1081.77
715.29	1083.43
715.62	1081.47
715.96	1082.43
716.29	1086.29
716.63	1088.23
716.96	1088.42
717.29	1090.50
717.63	1089.92
717.96	1083.81
718.30	1082.43
718.63	1080.88
718.97	1080.51
719.30	1080.79
719.63	1083.95
719.97	1082.47
720.30	1082.69
720.64	1079.95
720.97	1077.02
721.30	1075.66
721.64	1078.94
721.97	1078.68
722.31	1082.40
722.64	1082.17
722.97	1083.93
723.31	1080.39
723.64	1079.64
723.97	1075.78
724.31	1080.44
724.64	1078.21
724.98	1079.88
725.31	1080.63
725.64	1080.20
725.98	1079.48
726.31	1079.69
726.64	1080.44
726.97	1081.49
727.31	1082.40
727.64	1080.56
727.97	1081.40
728.31	1080.46
728.64	1078.61
728.97	1078.31
729.31	1079.81
729.64	1082.47
729.97	1081.12
730.30	1080.84
730.64	1082.69
730.97	1082.05
731.30	1078.87
731.63	1079.17
731.97	1080.65
732.30	1080.06
732.63	1078.00
732.96	1079.57
733.30	1082.03
733.63	1085.47
733.96	1086.59
734.29	1088.79
734.63	1088.47
734.96	1083.39
735.29	1078.99
735.62	1077.23
735.95	1076.51
736.29	1074.12
736.62	1076.18
736.95	1078.54
737.28	1078.89
737.61	1081.05
737.94	1079.38
738.28	1080.65
738.61	1080.16
738.94	1079.36
739.27	1078.78
739.60	1082.94
739.93	1083.43
740.27	1084.04
740.60	1083.32
740.93	1082.69
741.26	1084.18
741.59	1081.00
741.92	1077.11
742.25	1078.96
742.58	1078.21
742.91	1076.62
743.25	1081.05
743.58	1084.14
743.91	1083.83
744.24	1082.50
744.57	1082.40
744.90	1082.36
745.23	1084.44
745.56	1082.99
745.89	1084.49
746.22	1085.10
746.55	1082.08
746.88	1076.74
747.21	1078.38
747.54	1076.20
747.87	1072.60
748.20	1074.52
748.53	1078.45
748.87	1077.65
749.20	1078.57
749.53	1079.64
749.86	1080.09
750.19	1080.18
750.52	1079.27
750.85	1080.20
751.18	1078.99
751.51	1078.10
751.84	1079.24
752.16	1084.28
752.49	1086.17
752.82	1089.03
753.15	1088.49
753.48	1085.49
753.81	1081.23
754.14	1079.15
754.47	1082.29
754.80	1080.37
755.13	1080.56
755.46	1080.74
755.79	1080.56
756.12	1080.72
756.45	1082.10
756.78	1081.30
757.11	1079.78
757.43	1078.19
757.76	1071.73
758.09	1071.99
758.42	1070.19
758.75	1070.89
759.08	1074.14
759.41	1077.25
759.74	1077.63
760.07	1080.79
760.39	1086.50
760.72	1083.86
761.05	1083.29
761.38	1083.13
761.71	1083.76
762.04	1080.63
762.36	1081.54
762.69	1077.86
763.02	1075.76
763.35	1075.50
763.68	1073.74
