SpectraSuite Data File
++++++++++++++++++++++++++++++++++++
Date: Mon Aug 26 10:22:05 PDT 2019
User: corrico
Dark Spectrum Present: No
Reference Spectrum Present: No
Number of Sampled Component Spectra: 1
Spectrometers: USB2+H06089
Integration Time (usec): 2000 (USB2+H06089)
Spectra Averaged: 20 (USB2+H06089)
Boxcar Smoothing: 2 (USB2+H06089)
Correct for Electrical Dark: No (USB2+H06089)
Strobe/Lamp Enabled: No (USB2+H06089)
Correct for Detector Non-linearity: No (USB2+H06089)
Correct for Stray Light: No (USB2+H06089)
Number of Pixels in Processed Spectrum: 2048
>>>>>Begin Processed Spectral Data<<<<<
339.70	1022.11
340.07	1022.11
340.45	995.94
340.82	975.96
341.19	952.18
341.57	926.76
341.94	913.84
342.31	904.99
342.69	900.43
343.06	900.45
343.43	901.39
343.81	903.56
344.18	902.49
344.55	908.74
344.93	913.37
345.30	920.21
345.67	923.79
346.04	930.39
346.42	935.75
346.79	941.20
347.16	948.92
347.54	961.02
347.91	973.55
348.28	980.29
348.65	993.84
349.03	1005.68
349.40	1015.30
349.77	1021.90
350.14	1035.57
350.52	1041.98
350.89	1046.01
351.26	1052.56
351.63	1056.35
352.01	1056.49
352.38	1059.86
352.75	1062.56
353.12	1065.60
353.50	1069.30
353.87	1072.41
354.24	1076.13
354.61	1079.71
354.98	1081.23
355.36	1083.11
355.73	1084.42
356.10	1082.69
356.47	1084.07
356.84	1083.43
357.22	1084.30
357.59	1086.27
357.96	1089.64
358.33	1088.63
358.70	1092.12
359.08	1093.22
359.45	1092.96
359.82	1092.07
360.19	1095.25
360.56	1093.01
360.94	1090.43
361.31	1088.84
361.68	1087.11
362.05	1082.78
362.42	1077.77
362.79	1078.38
363.16	1075.92
363.54	1076.53
363.91	1075.66
364.28	1077.63
364.65	1075.73
365.02	1078.43
365.39	1077.02
365.76	1079.01
366.14	1077.54
366.51	1080.02
366.88	1079.46
367.25	1081.56
367.62	1081.47
367.99	1079.36
368.36	1080.23
368.73	1079.46
369.10	1074.45
369.48	1072.85
369.85	1076.11
370.22	1073.04
370.59	1071.52
370.96	1074.61
371.33	1077.25
371.70	1077.51
372.07	1077.77
372.44	1079.34
372.81	1078.80
373.18	1076.76
373.55	1077.79
373.93	1078.03
374.30	1078.75
374.67	1079.97
375.04	1081.77
375.41	1084.16
375.78	1085.63
376.15	1084.93
376.52	1083.79
376.89	1081.77
377.26	1080.63
377.63	1081.51
378.00	1083.90
378.37	1086.52
378.74	1087.04
379.11	1084.30
379.48	1082.66
379.85	1081.21
380.22	1080.37
380.59	1081.33
380.96	1083.41
381.33	1082.17
381.70	1081.40
382.07	1077.25
382.44	1072.46
382.81	1070.89
383.18	1074.66
383.55	1077.18
383.92	1078.45
384.29	1083.34
384.66	1084.74
385.03	1082.50
385.40	1082.66
385.77	1085.14
386.14	1087.34
386.51	1089.64
386.88	1089.22
387.25	1086.69
387.62	1086.48
387.99	1085.31
388.36	1084.04
388.73	1085.19
389.10	1087.46
389.46	1085.91
389.83	1084.44
390.20	1085.21
390.57	1083.97
390.94	1081.84
391.31	1084.56
391.68	1083.81
392.05	1084.39
392.42	1085.82
392.79	1085.94
393.16	1084.18
393.53	1086.78
393.89	1083.71
394.26	1083.71
394.63	1084.77
395.00	1089.80
395.37	1087.86
395.74	1089.82
396.11	1090.97
396.48	1094.25
396.84	1093.12
397.21	1092.75
397.58	1093.38
397.95	1092.63
398.32	1090.76
398.69	1089.38
399.06	1090.53
399.42	1091.25
399.79	1092.26
400.16	1094.13
400.53	1094.11
400.90	1097.45
401.27	1096.99
401.64	1095.23
402.00	1089.68
402.37	1089.59
402.74	1086.87
403.11	1086.71
403.48	1088.16
403.84	1093.22
404.21	1091.58
404.58	1093.05
404.95	1094.53
405.32	1097.59
405.68	1100.00
406.05	1102.30
406.42	1103.33
406.79	1104.69
407.16	1104.26
407.52	1103.40
407.89	1104.19
408.26	1102.58
408.63	1098.44
408.99	1097.31
409.36	1097.62
409.73	1097.01
410.10	1098.76
410.47	1103.52
410.83	1103.96
411.20	1100.47
411.57	1100.99
411.94	1100.08
412.30	1097.50
412.67	1098.48
413.04	1100.00
413.40	1099.77
413.77	1100.71
414.14	1101.88
414.51	1099.21
414.87	1103.49
415.24	1107.24
415.61	1108.17
415.97	1108.08
416.34	1110.87
416.71	1110.40
417.08	1110.30
417.44	1112.06
417.81	1111.52
418.18	1114.05
418.54	1112.36
418.91	1111.97
419.28	1110.56
419.64	1114.47
420.01	1114.24
420.38	1117.54
420.74	1119.48
421.11	1122.50
421.48	1124.70
421.84	1127.88
422.21	1131.04
422.58	1132.98
422.94	1134.01
423.31	1136.00
423.68	1140.57
424.04	1141.10
424.41	1146.16
424.77	1148.59
425.14	1153.42
425.51	1155.71
425.87	1157.54
426.24	1161.14
426.61	1171.32
426.97	1179.96
427.34	1188.17
427.70	1199.99
428.07	1207.86
428.44	1215.70
428.80	1223.23
429.17	1231.33
429.53	1240.91
429.90	1253.92
430.27	1266.11
430.63	1278.03
431.00	1294.11
431.36	1310.19
431.73	1324.77
432.09	1339.61
432.46	1359.36
432.83	1378.95
433.19	1402.47
433.56	1425.46
433.92	1451.79
434.29	1473.46
434.65	1498.50
435.02	1525.30
435.38	1557.16
435.75	1588.01
436.11	1632.08
436.48	1671.68
436.84	1717.41
437.21	1762.12
437.57	1811.67
437.94	1860.89
438.30	1917.13
438.67	1970.59
439.03	2035.70
439.40	2103.93
439.76	2172.63
440.13	2248.48
440.49	2333.21
440.86	2408.25
441.22	2494.43
441.59	2584.75
441.95	2690.00
442.32	2789.01
442.68	2912.59
443.05	3035.77
443.41	3165.76
443.78	3286.37
444.14	3424.77
444.51	3556.68
444.87	3724.56
445.24	3889.95
445.60	4077.47
445.96	4265.25
446.33	4485.52
446.69	4682.83
447.06	4900.31
447.42	5126.57
447.79	5366.80
448.15	5639.90
448.51	5925.74
448.88	6250.38
449.24	6562.60
449.61	6914.53
449.97	7270.31
450.33	7649.08
450.70	8007.89
451.06	8442.90
451.43	8847.65
451.79	9303.93
452.15	9787.61
452.52	10316.47
452.88	10860.98
453.24	11500.69
453.61	12207.79
453.97	12921.96
454.34	13644.08
454.70	14471.42
455.06	15282.43
455.43	16031.71
455.79	16735.77
456.15	17550.72
456.52	18291.12
456.88	19210.23
457.24	20130.27
457.61	21239.47
457.97	22285.88
458.33	23380.90
458.70	24420.17
459.06	25401.25
459.42	26396.73
459.79	27319.27
460.15	28378.81
460.51	29385.92
460.88	30495.73
461.24	31493.41
461.60	32647.50
461.96	33674.06
462.33	34717.61
462.69	35777.66
463.05	36911.75
463.42	37948.70
463.78	38902.63
464.14	39639.69
464.50	40351.51
464.87	40870.08
465.23	41182.80
465.59	41563.70
465.95	41884.73
466.32	42154.69
466.68	42434.03
467.04	42626.16
467.40	42707.92
467.77	42832.95
468.13	42720.09
468.49	42534.27
468.85	42406.65
469.22	42256.31
469.58	42020.01
469.94	41913.92
470.30	41701.18
470.66	41362.16
471.03	40824.30
471.39	40436.12
471.75	39676.83
472.11	38953.89
472.47	38436.70
472.84	37916.16
473.20	37200.59
473.56	36831.11
473.92	36301.97
474.28	35714.05
474.65	35073.35
475.01	34390.54
475.37	33555.91
475.73	32858.73
476.09	32117.49
476.45	31489.75
476.81	30949.04
477.18	30397.97
477.54	29932.13
477.90	29497.80
478.26	28903.49
478.62	28366.97
478.98	27945.34
479.34	27504.99
479.71	26942.23
480.07	26546.89
480.43	26104.70
480.79	25625.75
481.15	25119.43
481.51	24712.94
481.87	24360.16
482.23	24023.38
482.59	23680.39
482.96	23368.59
483.32	23089.76
483.68	22694.68
484.04	22326.77
484.40	21920.31
484.76	21509.34
485.12	21051.25
485.48	20633.72
485.84	20157.75
486.20	19724.77
486.56	19255.94
486.92	18861.46
487.28	18448.76
487.64	18030.39
488.00	17629.97
488.37	17246.66
488.73	16782.20
489.09	16306.09
489.45	15862.77
489.81	15408.36
490.17	14956.51
490.53	14574.94
490.89	14182.31
491.25	13776.09
491.61	13371.34
491.97	12977.38
492.33	12566.55
492.69	12210.08
493.05	11887.67
493.41	11560.58
493.77	11246.46
494.13	10946.15
494.49	10642.11
494.85	10347.20
495.21	10071.72
495.57	9798.30
495.93	9518.87
496.29	9263.37
496.64	9018.51
497.00	8763.34
497.36	8513.07
497.72	8278.71
498.08	8046.90
498.44	7820.62
498.80	7607.58
499.16	7405.57
499.52	7217.65
499.88	7036.07
500.24	6861.42
500.60	6704.58
500.96	6555.16
501.32	6392.07
501.68	6231.18
502.03	6057.19
502.39	5888.95
502.75	5713.08
503.11	5551.52
503.47	5404.65
503.83	5272.85
504.19	5146.16
504.55	5031.15
504.91	4921.56
505.26	4804.65
505.62	4692.00
505.98	4576.92
506.34	4458.23
506.70	4333.01
507.06	4220.81
507.42	4114.71
507.78	4014.60
508.13	3927.09
508.49	3855.24
508.85	3778.30
509.21	3693.48
509.57	3616.92
509.93	3525.71
510.28	3430.45
510.64	3340.76
511.00	3258.54
511.36	3176.04
511.72	3108.09
512.07	3043.28
512.43	2983.39
512.79	2922.51
513.15	2867.02
513.51	2806.26
513.86	2753.01
514.22	2702.50
514.58	2652.79
514.94	2602.63
515.30	2561.62
515.65	2517.85
516.01	2474.51
516.37	2434.18
516.73	2392.71
517.08	2350.86
517.44	2310.27
517.80	2273.32
518.16	2232.73
518.51	2199.00
518.87	2161.51
519.23	2132.06
519.59	2101.82
519.94	2071.91
520.30	2043.01
520.66	2016.16
521.01	1987.42
521.37	1955.40
521.73	1929.84
522.09	1904.12
522.44	1882.05
522.80	1859.81
523.16	1840.76
523.51	1820.26
523.87	1799.12
524.23	1774.76
524.58	1748.31
524.94	1721.07
525.30	1698.74
525.65	1675.33
526.01	1659.65
526.37	1639.24
526.72	1623.89
527.08	1606.05
527.44	1592.97
527.79	1575.58
528.15	1563.17
528.51	1550.00
528.86	1540.24
529.22	1526.73
529.58	1511.12
529.93	1500.12
530.29	1487.36
530.65	1473.65
531.00	1463.30
531.36	1453.22
531.71	1442.47
532.07	1429.95
532.43	1417.92
532.78	1403.88
533.14	1395.22
533.49	1386.02
533.85	1378.36
534.21	1370.57
534.56	1362.40
534.92	1352.67
535.27	1344.26
535.63	1339.00
535.98	1329.59
536.34	1318.80
536.69	1313.16
537.05	1306.28
537.41	1298.11
537.76	1295.04
538.12	1293.36
538.47	1287.25
538.83	1281.91
539.18	1275.57
539.54	1268.24
539.89	1260.64
540.25	1255.46
540.60	1252.14
540.96	1249.87
541.31	1246.41
541.67	1247.90
542.02	1246.71
542.38	1241.23
542.73	1235.17
543.09	1233.98
543.44	1227.38
543.80	1224.10
544.15	1221.76
544.51	1220.64
544.86	1213.05
545.22	1208.02
545.57	1199.59
545.93	1196.04
546.28	1193.11
546.64	1192.55
546.99	1191.10
547.35	1189.53
547.70	1183.89
548.05	1183.40
548.41	1180.85
548.76	1178.95
549.12	1179.26
549.47	1178.74
549.83	1172.14
550.18	1172.66
550.53	1168.98
550.89	1165.66
551.24	1162.45
551.60	1162.66
551.95	1155.24
552.30	1152.27
552.66	1153.02
553.01	1150.35
553.37	1142.56
553.72	1142.81
554.07	1143.21
554.43	1139.61
554.78	1141.27
555.13	1143.94
555.49	1142.81
555.84	1142.04
556.19	1141.57
556.55	1139.26
556.90	1137.78
557.26	1136.19
557.61	1135.30
557.96	1130.95
558.32	1129.43
558.67	1127.83
559.02	1126.73
559.37	1121.51
559.73	1121.82
560.08	1121.70
560.43	1122.54
560.79	1119.43
561.14	1121.58
561.49	1121.87
561.85	1118.00
562.20	1118.94
562.55	1120.74
562.90	1123.46
563.26	1121.28
563.61	1122.97
563.96	1120.55
564.32	1121.49
564.67	1114.40
565.02	1116.79
565.37	1118.14
565.73	1118.07
566.08	1113.56
566.43	1116.44
566.78	1115.12
567.14	1108.92
567.49	1107.14
567.84	1105.88
568.19	1106.16
568.54	1104.99
568.90	1109.60
569.25	1108.55
569.60	1112.60
569.95	1109.98
570.31	1106.98
570.66	1104.15
571.01	1105.25
571.36	1100.47
571.71	1100.38
572.06	1100.40
572.42	1097.99
572.77	1096.87
573.12	1097.31
573.47	1098.02
573.82	1100.40
574.18	1104.29
574.53	1104.38
574.88	1106.58
575.23	1105.13
575.58	1102.16
575.93	1098.16
576.28	1095.91
576.64	1095.28
576.99	1094.20
577.34	1094.48
577.69	1097.27
578.04	1098.76
578.39	1100.08
578.74	1096.45
579.09	1100.57
579.44	1097.38
579.80	1097.48
580.15	1095.89
580.50	1101.48
580.85	1098.81
581.20	1101.46
581.55	1101.55
581.90	1103.77
582.25	1100.45
582.60	1098.11
582.95	1096.96
583.30	1095.46
583.65	1092.59
584.00	1094.60
584.35	1096.14
584.71	1097.13
585.06	1096.14
585.41	1096.26
585.76	1097.78
586.11	1097.90
586.46	1097.06
586.81	1099.75
587.16	1098.41
587.51	1097.15
587.86	1099.26
588.21	1097.99
588.56	1095.70
588.91	1093.71
589.26	1090.90
589.61	1087.79
589.96	1091.74
590.31	1091.70
590.66	1093.80
591.01	1093.80
591.36	1093.71
591.71	1089.00
592.06	1088.16
592.41	1088.23
592.76	1091.06
593.10	1092.52
593.45	1090.57
593.80	1092.42
594.15	1094.86
594.50	1092.19
594.85	1093.57
595.20	1097.20
595.55	1094.72
595.90	1090.22
596.25	1093.36
596.60	1087.09
596.95	1086.62
597.30	1085.63
597.64	1097.95
597.99	1099.49
598.34	1101.18
598.69	1102.74
599.04	1106.54
599.39	1094.50
599.74	1090.62
600.09	1091.70
600.44	1093.85
600.78	1091.95
601.13	1093.69
601.48	1093.52
601.83	1094.27
602.18	1089.66
602.53	1090.06
602.88	1090.13
603.22	1088.72
603.57	1086.34
603.92	1084.32
604.27	1082.03
604.62	1082.31
604.97	1085.68
605.31	1084.77
605.66	1087.76
606.01	1088.86
606.36	1087.97
606.71	1090.48
607.05	1092.87
607.40	1091.86
607.75	1092.07
608.10	1092.63
608.44	1088.49
608.79	1089.36
609.14	1088.49
609.49	1088.77
609.84	1087.25
610.18	1086.73
610.53	1086.10
610.88	1090.43
611.23	1092.07
611.57	1090.24
611.92	1092.00
612.27	1091.34
612.62	1086.99
612.96	1085.38
613.31	1086.92
613.66	1084.72
614.00	1083.90
614.35	1083.50
614.70	1083.01
615.05	1083.41
615.39	1083.18
615.74	1080.81
616.09	1080.44
616.43	1079.78
616.78	1078.61
617.13	1080.34
617.47	1082.45
617.82	1088.47
618.17	1090.20
618.51	1090.88
618.86	1090.27
619.21	1094.13
619.55	1091.04
619.90	1091.37
620.25	1088.14
620.59	1087.25
620.94	1084.51
621.29	1084.02
621.63	1080.74
621.98	1083.97
622.32	1083.15
622.67	1083.64
623.02	1084.37
623.36	1091.02
623.71	1093.57
624.05	1094.90
624.40	1092.68
624.75	1093.50
625.09	1090.90
625.44	1087.86
625.78	1086.36
626.13	1089.71
626.48	1087.23
626.82	1086.64
627.17	1086.50
627.51	1088.21
627.86	1088.79
628.20	1086.87
628.55	1087.13
628.89	1089.61
629.24	1089.82
629.58	1087.79
629.93	1088.44
630.28	1087.69
630.62	1088.58
630.97	1088.28
631.31	1087.25
631.66	1086.59
632.00	1085.40
632.35	1082.40
632.69	1081.70
633.04	1081.61
633.38	1085.12
633.73	1085.26
634.07	1087.46
634.42	1088.47
634.76	1089.75
635.11	1090.20
635.45	1091.02
635.79	1087.60
636.14	1086.69
636.48	1082.22
636.83	1080.72
637.17	1080.95
637.52	1081.05
637.86	1079.83
638.21	1082.08
638.55	1079.95
638.89	1079.20
639.24	1076.95
639.58	1077.40
639.93	1075.87
640.27	1075.64
640.61	1077.30
640.96	1078.73
641.30	1082.47
641.65	1085.40
641.99	1087.04
642.33	1084.86
642.68	1085.99
643.02	1082.66
643.37	1081.96
643.71	1081.47
644.05	1083.13
644.40	1086.03
644.74	1085.70
645.08	1087.23
645.43	1088.68
645.77	1085.96
646.11	1085.84
646.46	1086.62
646.80	1087.11
647.14	1086.97
647.49	1086.13
647.83	1084.74
648.17	1083.20
648.52	1082.29
648.86	1084.04
649.20	1086.92
649.55	1088.65
649.89	1089.14
650.23	1088.77
650.57	1084.77
650.92	1086.34
651.26	1080.02
651.60	1080.02
651.95	1077.49
652.29	1078.59
652.63	1077.28
652.97	1077.86
653.32	1077.93
653.66	1078.61
654.00	1079.15
654.34	1077.93
654.69	1079.97
655.03	1079.69
655.37	1079.97
655.71	1076.48
656.05	1077.37
656.40	1077.07
656.74	1074.94
657.08	1077.77
657.42	1080.81
657.76	1078.59
658.11	1078.45
658.45	1080.34
658.79	1077.33
659.13	1077.21
659.47	1079.60
659.82	1083.71
660.16	1083.97
660.50	1084.89
660.84	1086.69
661.18	1086.71
661.52	1084.37
661.87	1086.22
662.21	1081.89
662.55	1078.92
662.89	1076.23
663.23	1077.16
663.57	1075.10
663.91	1077.89
664.25	1076.25
664.60	1078.00
664.94	1076.44
665.28	1078.17
665.62	1079.78
665.96	1082.94
666.30	1084.63
666.64	1085.75
666.98	1086.90
667.32	1088.19
667.66	1086.59
668.01	1082.03
668.35	1081.56
668.69	1080.44
669.03	1079.57
669.37	1082.40
669.71	1085.66
670.05	1082.73
670.39	1081.68
670.73	1080.88
671.07	1078.17
671.41	1075.97
671.75	1078.52
672.09	1079.41
672.43	1080.09
672.77	1082.76
673.11	1081.23
673.45	1085.38
673.79	1084.11
674.13	1083.62
674.47	1083.22
674.81	1085.40
675.15	1078.61
675.49	1076.65
675.83	1075.13
676.17	1074.38
676.51	1073.44
676.85	1075.99
677.19	1078.87
677.53	1081.26
677.87	1078.21
678.21	1078.40
678.55	1078.21
678.89	1077.47
679.23	1076.76
679.57	1078.87
679.90	1080.41
680.24	1080.93
680.58	1082.08
680.92	1082.57
681.26	1082.87
681.60	1083.06
681.94	1083.55
682.28	1081.63
682.62	1079.36
682.96	1082.80
683.29	1082.36
683.63	1084.63
683.97	1084.39
684.31	1085.40
684.65	1082.33
684.99	1082.99
685.33	1079.41
685.67	1080.39
686.00	1081.89
686.34	1080.91
686.68	1081.40
687.02	1083.27
687.36	1083.74
687.70	1082.59
688.03	1081.12
688.37	1079.24
688.71	1079.01
689.05	1080.34
689.39	1082.57
689.72	1084.07
690.06	1086.41
690.40	1084.58
690.74	1080.34
691.08	1075.71
691.41	1074.42
691.75	1073.84
692.09	1073.25
692.43	1072.81
692.76	1073.88
693.10	1074.28
693.44	1073.60
693.78	1073.60
694.11	1078.87
694.45	1078.96
694.79	1077.91
695.13	1078.54
695.46	1079.13
695.80	1074.54
696.14	1079.78
696.48	1082.45
696.81	1083.08
697.15	1084.51
697.49	1087.13
697.82	1087.32
698.16	1088.28
698.50	1086.55
698.83	1086.27
699.17	1087.41
699.51	1082.52
699.84	1079.71
700.18	1081.94
700.52	1081.51
700.85	1079.62
701.19	1080.16
701.53	1081.37
701.86	1078.43
702.20	1077.70
702.54	1076.97
702.87	1079.64
703.21	1079.29
703.55	1078.75
703.88	1079.08
704.22	1079.17
704.55	1076.62
704.89	1079.97
705.23	1081.51
705.56	1082.61
705.90	1082.36
706.23	1083.08
706.57	1081.73
706.91	1082.73
707.24	1082.50
707.58	1083.41
707.91	1080.86
708.25	1081.82
708.58	1078.47
708.92	1078.61
709.26	1081.33
709.59	1086.80
709.93	1083.57
710.26	1089.45
710.60	1088.54
710.93	1085.84
711.27	1080.27
711.60	1078.03
711.94	1076.25
712.27	1078.96
712.61	1080.81
712.94	1084.44
713.28	1085.99
713.61	1083.69
713.95	1079.64
714.28	1079.08
714.62	1079.13
714.95	1077.72
715.29	1077.56
715.62	1078.12
715.96	1077.89
716.29	1077.23
716.63	1080.72
716.96	1084.23
717.29	1083.41
717.63	1080.93
717.96	1080.60
718.30	1080.27
718.63	1079.17
718.97	1083.29
719.30	1082.73
719.63	1083.90
719.97	1082.57
720.30	1085.14
720.64	1082.59
720.97	1086.62
721.30	1089.19
721.64	1090.76
721.97	1086.03
722.31	1084.93
722.64	1081.00
722.97	1076.88
723.31	1076.79
723.64	1076.53
723.97	1078.75
724.31	1081.77
724.64	1082.64
724.98	1083.93
725.31	1084.21
725.64	1084.04
725.98	1084.32
726.31	1083.88
726.64	1081.09
726.97	1080.48
727.31	1079.03
727.64	1075.78
727.97	1076.18
728.31	1078.43
728.64	1077.91
728.97	1080.06
729.31	1080.67
729.64	1078.21
729.97	1074.07
730.30	1075.41
730.64	1073.11
730.97	1073.42
731.30	1075.50
731.63	1077.02
731.97	1077.77
732.30	1079.15
732.63	1080.86
732.96	1081.07
733.30	1082.43
733.63	1085.05
733.96	1083.46
734.29	1085.89
734.63	1085.66
734.96	1087.60
735.29	1083.43
735.62	1086.27
735.95	1083.43
736.29	1086.24
736.62	1082.78
736.95	1083.69
737.28	1082.99
737.61	1083.34
737.94	1077.91
738.28	1078.75
738.61	1078.21
738.94	1076.81
739.27	1075.62
739.60	1077.40
739.93	1079.31
740.27	1077.47
740.60	1079.76
740.93	1081.61
741.26	1083.57
741.59	1081.47
741.92	1084.74
742.25	1084.77
742.58	1082.38
742.91	1080.53
743.25	1080.23
743.58	1078.45
743.91	1075.45
744.24	1078.00
744.57	1080.23
744.90	1080.32
745.23	1081.14
745.56	1081.16
745.89	1080.98
746.22	1077.75
746.55	1079.53
746.88	1078.31
747.21	1079.31
747.54	1077.56
747.87	1077.56
748.20	1075.66
748.53	1077.37
748.87	1080.79
749.20	1082.99
749.53	1085.73
749.86	1085.42
750.19	1085.26
750.52	1084.44
750.85	1082.90
751.18	1082.26
751.51	1084.96
751.84	1083.60
752.16	1080.84
752.49	1080.06
752.82	1081.09
753.15	1079.67
753.48	1078.85
753.81	1081.75
754.14	1081.58
754.47	1078.99
754.80	1078.03
755.13	1077.40
755.46	1073.28
755.79	1076.65
756.12	1080.02
756.45	1081.23
756.78	1083.95
757.11	1083.57
757.43	1082.52
757.76	1081.89
758.09	1082.31
758.42	1081.26
758.75	1082.64
759.08	1081.61
759.41	1079.78
759.74	1078.85
760.07	1080.11
760.39	1080.81
760.72	1080.02
761.05	1078.12
761.38	1075.87
761.71	1076.48
762.04	1075.64
762.36	1075.71
762.69	1076.06
763.02	1075.87
763.35	1075.24
763.68	1073.98
