SpectraSuite Data File
++++++++++++++++++++++++++++++++++++
Date: Mon Aug 26 10:22:10 PDT 2019
User: corrico
Dark Spectrum Present: No
Reference Spectrum Present: No
Number of Sampled Component Spectra: 1
Spectrometers: USB2+H06089
Integration Time (usec): 2000 (USB2+H06089)
Spectra Averaged: 20 (USB2+H06089)
Boxcar Smoothing: 2 (USB2+H06089)
Correct for Electrical Dark: No (USB2+H06089)
Strobe/Lamp Enabled: No (USB2+H06089)
Correct for Detector Non-linearity: No (USB2+H06089)
Correct for Stray Light: No (USB2+H06089)
Number of Pixels in Processed Spectrum: 2048
>>>>>Begin Processed Spectral Data<<<<<
339.70	1006.55
340.07	1006.55
340.45	975.77
340.82	957.82
341.19	939.35
341.57	920.49
341.94	912.04
342.31	908.32
342.69	904.94
343.06	899.54
343.43	895.98
343.81	898.58
344.18	902.30
344.55	902.67
344.93	911.47
345.30	918.75
345.67	925.19
346.04	931.53
346.42	944.99
346.79	951.99
347.16	960.77
347.54	968.54
347.91	978.34
348.28	984.92
348.65	996.93
349.03	1009.73
349.40	1015.54
349.77	1024.62
350.14	1031.33
350.52	1034.14
350.89	1038.05
351.26	1045.68
351.63	1048.56
352.01	1055.58
352.38	1060.43
352.75	1062.63
353.12	1067.38
353.50	1069.51
353.87	1067.73
354.24	1070.82
354.61	1075.05
354.98	1077.54
355.36	1078.87
355.73	1084.74
356.10	1083.29
356.47	1079.92
356.84	1078.52
357.22	1078.82
357.59	1077.49
357.96	1079.46
358.33	1080.41
358.70	1080.25
359.08	1081.66
359.45	1080.44
359.82	1081.58
360.19	1083.57
360.56	1084.44
360.94	1086.31
361.31	1087.27
361.68	1085.14
362.05	1081.19
362.42	1080.04
362.79	1074.91
363.16	1073.91
363.54	1072.92
363.91	1074.31
364.28	1072.55
364.65	1070.12
365.02	1071.52
365.39	1071.36
365.76	1072.46
366.14	1075.66
366.51	1081.02
366.88	1080.04
367.25	1081.96
367.62	1077.44
367.99	1073.09
368.36	1071.73
368.73	1068.67
369.10	1068.81
369.48	1070.14
369.85	1074.00
370.22	1071.54
370.59	1071.40
370.96	1068.03
371.33	1071.29
371.70	1070.28
372.07	1072.06
372.44	1073.77
372.81	1075.17
373.18	1073.09
373.55	1071.75
373.93	1071.99
374.30	1074.80
374.67	1075.10
375.04	1079.01
375.41	1081.82
375.78	1079.88
376.15	1076.58
376.52	1076.04
376.89	1073.02
377.26	1072.36
377.63	1075.03
378.00	1076.53
378.37	1076.55
378.74	1078.85
379.11	1078.82
379.48	1076.67
379.85	1077.28
380.22	1077.00
380.59	1074.54
380.96	1075.05
381.33	1076.55
381.70	1075.01
382.07	1077.00
382.44	1076.60
382.81	1075.48
383.18	1078.31
383.55	1077.84
383.92	1077.49
384.29	1078.96
384.66	1080.72
385.03	1079.78
385.40	1084.65
385.77	1087.55
386.14	1087.65
386.51	1085.89
386.88	1085.52
387.25	1083.01
387.62	1080.93
387.99	1082.05
388.36	1083.04
388.73	1082.94
389.10	1081.56
389.46	1084.00
389.83	1081.91
390.20	1081.66
390.57	1083.67
390.94	1085.84
391.31	1085.84
391.68	1087.32
392.05	1087.06
392.42	1083.39
392.79	1083.76
393.16	1082.61
393.53	1083.08
393.89	1085.49
394.26	1087.97
394.63	1086.36
395.00	1087.02
395.37	1087.13
395.74	1086.50
396.11	1086.41
396.48	1089.43
396.84	1090.20
397.21	1091.67
397.58	1093.26
397.95	1092.12
398.32	1093.57
398.69	1094.88
399.06	1095.63
399.42	1095.42
399.79	1097.57
400.16	1094.13
400.53	1090.41
400.90	1090.32
401.27	1091.79
401.64	1093.85
402.00	1092.66
402.37	1091.56
402.74	1091.32
403.11	1089.07
403.48	1086.78
403.84	1090.78
404.21	1092.80
404.58	1090.69
404.95	1092.02
405.32	1092.37
405.68	1091.04
406.05	1091.42
406.42	1094.97
406.79	1092.68
407.16	1092.37
407.52	1092.35
407.89	1092.42
408.26	1091.06
408.63	1092.80
408.99	1095.16
409.36	1094.69
409.73	1097.03
410.10	1096.00
410.47	1097.17
410.83	1096.03
411.20	1098.39
411.57	1094.46
411.94	1098.37
412.30	1099.72
412.67	1100.71
413.04	1101.92
413.40	1106.82
413.77	1104.94
414.14	1104.99
414.51	1103.80
414.87	1099.89
415.24	1100.22
415.61	1102.46
415.97	1101.50
416.34	1102.63
416.71	1105.81
417.08	1106.72
417.44	1104.64
417.81	1109.16
418.18	1111.75
418.54	1113.37
418.91	1111.50
419.28	1115.71
419.64	1116.69
420.01	1118.42
420.38	1120.67
420.74	1124.53
421.11	1124.11
421.48	1124.67
421.84	1124.63
422.21	1125.21
422.58	1126.80
422.94	1129.33
423.31	1130.10
423.68	1135.14
424.04	1142.09
424.41	1144.73
424.77	1148.88
425.14	1153.35
425.51	1156.04
425.87	1155.92
426.24	1160.77
426.61	1167.13
426.97	1174.83
427.34	1180.45
427.70	1190.49
428.07	1197.93
428.44	1209.61
428.80	1218.20
429.17	1231.92
429.53	1244.88
429.90	1262.95
430.27	1270.84
430.63	1283.43
431.00	1294.62
431.36	1306.86
431.73	1317.14
432.09	1335.06
432.46	1348.87
432.83	1368.42
433.19	1388.76
433.56	1416.14
433.92	1444.60
434.29	1476.34
434.65	1503.26
435.02	1532.49
435.38	1563.99
435.75	1592.38
436.11	1628.69
436.48	1670.49
436.84	1716.34
437.21	1759.90
437.57	1804.67
437.94	1853.68
438.30	1908.00
438.67	1961.60
439.03	2022.08
439.40	2091.36
439.76	2162.44
440.13	2237.15
440.49	2317.69
440.86	2394.65
441.22	2482.84
441.59	2573.35
441.95	2676.47
442.32	2781.68
442.68	2904.49
443.05	3026.45
443.41	3158.83
443.78	3286.39
444.14	3428.32
444.51	3568.03
444.87	3735.73
445.24	3905.72
445.60	4090.93
445.96	4272.58
446.33	4490.58
446.69	4694.76
447.06	4910.40
447.42	5134.46
447.79	5378.86
448.15	5641.72
448.51	5912.54
448.88	6236.01
449.24	6541.05
449.61	6898.42
449.97	7249.13
450.33	7642.48
450.70	7993.96
451.06	8424.90
451.43	8827.24
451.79	9289.42
452.15	9785.71
452.52	10328.29
452.88	10885.22
453.24	11522.74
453.61	12234.35
453.97	12931.09
454.34	13632.43
454.70	14452.62
455.06	15254.98
455.43	15997.70
455.79	16683.15
456.15	17489.28
456.52	18236.26
456.88	19146.10
457.24	20063.75
457.61	21195.05
457.97	22261.05
458.33	23357.89
458.70	24417.22
459.06	25426.81
459.42	26455.19
459.79	27398.15
460.15	28463.93
460.51	29462.01
460.88	30563.53
461.24	31536.78
461.60	32682.47
461.96	33744.37
462.33	34773.25
462.69	35799.38
463.05	36934.68
463.42	37958.95
463.78	38873.63
464.14	39644.56
464.50	40382.43
464.87	40877.11
465.23	41214.52
465.59	41614.61
465.95	41936.22
466.32	42169.78
466.68	42431.97
467.04	42581.74
467.40	42599.18
467.77	42684.79
468.13	42614.77
468.49	42442.97
468.85	42331.68
469.22	42202.06
469.58	41961.26
469.94	41820.13
470.30	41613.23
470.66	41279.54
471.03	40760.43
471.39	40406.47
471.75	39678.19
472.11	38988.43
472.47	38455.07
472.84	37924.80
473.20	37180.21
473.56	36773.44
473.92	36182.90
474.28	35559.06
474.65	34933.71
475.01	34241.31
475.37	33404.59
475.73	32727.78
476.09	32024.12
476.45	31362.52
476.81	30836.91
477.18	30315.04
477.54	29826.50
477.90	29365.58
478.26	28801.32
478.62	28259.58
478.98	27794.99
479.34	27349.84
479.71	26790.22
480.07	26358.57
480.43	25918.84
480.79	25454.89
481.15	24972.16
481.51	24601.51
481.87	24260.50
482.23	23903.40
482.59	23575.02
482.96	23255.98
483.32	22946.92
483.68	22565.95
484.04	22215.31
484.40	21811.59
484.76	21379.13
485.12	20924.30
485.48	20468.85
485.84	19988.29
486.20	19541.86
486.56	19095.73
486.92	18708.18
487.28	18327.24
487.64	17906.67
488.00	17517.53
488.37	17142.67
488.73	16713.55
489.09	16243.86
489.45	15816.76
489.81	15363.16
490.17	14925.20
490.53	14507.95
490.89	14111.58
491.25	13708.99
491.61	13312.64
491.97	12913.81
492.33	12513.72
492.69	12154.66
493.05	11837.38
493.41	11518.57
493.77	11197.92
494.13	10898.82
494.49	10596.31
494.85	10291.85
495.21	10013.35
495.57	9767.41
495.93	9497.78
496.29	9251.37
496.64	9019.35
497.00	8759.24
497.36	8485.99
497.72	8244.51
498.08	8006.29
498.44	7767.02
498.80	7559.56
499.16	7360.61
499.52	7161.52
499.88	6989.40
500.24	6824.16
500.60	6662.10
500.96	6508.66
501.32	6353.03
501.68	6180.68
502.03	5999.61
502.39	5836.43
502.75	5669.13
503.11	5514.58
503.47	5375.32
503.83	5254.34
504.19	5128.42
504.55	5009.24
504.91	4894.95
505.26	4776.14
505.62	4653.59
505.98	4537.22
506.34	4421.25
506.70	4300.36
507.06	4196.72
507.42	4093.83
507.78	3996.63
508.13	3899.10
508.49	3825.54
508.85	3741.58
509.21	3654.68
509.57	3569.79
509.93	3494.96
510.28	3401.55
510.64	3326.42
511.00	3253.72
511.36	3186.45
511.72	3114.78
512.07	3058.78
512.43	2993.83
512.79	2931.71
513.15	2864.11
513.51	2802.70
513.86	2744.77
514.22	2691.83
514.58	2641.95
514.94	2592.75
515.30	2551.11
515.65	2502.50
516.01	2456.37
516.37	2417.66
516.73	2382.64
517.08	2346.18
517.44	2307.39
517.80	2271.51
518.16	2233.95
518.51	2197.74
518.87	2161.16
519.23	2130.10
519.59	2096.04
519.94	2063.37
520.30	2032.03
520.66	2002.00
521.01	1972.86
521.37	1947.58
521.73	1920.97
522.09	1896.04
522.44	1870.35
522.80	1844.81
523.16	1819.25
523.51	1797.53
523.87	1778.67
524.23	1759.78
524.58	1740.77
524.94	1725.16
525.30	1702.86
525.65	1680.29
526.01	1660.31
526.37	1641.30
526.72	1620.82
527.08	1605.91
527.44	1589.48
527.79	1571.20
528.15	1557.77
528.51	1539.74
528.86	1526.01
529.22	1512.29
529.58	1502.81
529.93	1489.68
530.29	1481.04
530.65	1467.87
531.00	1457.40
531.36	1444.84
531.71	1434.58
532.07	1421.78
532.43	1412.63
532.78	1399.62
533.14	1390.16
533.49	1377.19
533.85	1371.74
534.21	1363.85
534.56	1355.05
534.92	1346.28
535.27	1341.13
535.63	1331.06
535.98	1321.19
536.34	1315.19
536.69	1308.55
537.05	1300.21
537.41	1291.20
537.76	1283.88
538.12	1276.72
538.47	1271.40
538.83	1266.89
539.18	1264.19
539.54	1260.07
539.89	1257.71
540.25	1253.97
540.60	1250.95
540.96	1247.39
541.31	1244.25
541.67	1240.02
542.02	1237.61
542.38	1235.26
542.73	1230.58
543.09	1228.34
543.44	1223.70
543.80	1216.73
544.15	1211.72
544.51	1207.18
544.86	1206.20
545.22	1203.41
545.57	1202.97
545.93	1200.20
546.28	1197.07
546.64	1188.10
546.99	1185.69
547.35	1180.94
547.70	1176.63
548.05	1173.52
548.41	1174.36
548.76	1172.47
549.12	1169.64
549.47	1166.85
549.83	1164.16
550.18	1159.67
550.53	1158.24
550.89	1156.88
551.24	1153.74
551.60	1156.01
551.95	1155.55
552.30	1153.30
552.66	1149.76
553.01	1145.74
553.37	1140.50
553.72	1138.34
554.07	1134.32
554.43	1136.21
554.78	1140.24
555.13	1141.41
555.49	1144.66
555.84	1145.20
556.19	1140.29
556.55	1136.19
556.90	1134.86
557.26	1127.60
557.61	1125.12
557.96	1123.18
558.32	1122.45
558.67	1122.71
559.02	1123.62
559.37	1124.65
559.73	1124.96
560.08	1122.26
560.43	1119.31
560.79	1119.85
561.14	1118.12
561.49	1118.82
561.85	1121.35
562.20	1117.84
562.55	1114.63
562.90	1112.06
563.26	1111.80
563.61	1110.91
563.96	1114.17
564.32	1111.97
564.67	1115.38
565.02	1116.15
565.37	1114.94
565.73	1114.26
566.08	1116.46
566.43	1110.54
566.78	1108.90
567.14	1104.94
567.49	1101.57
567.84	1102.18
568.19	1103.14
568.54	1101.62
568.90	1104.55
569.25	1102.77
569.60	1103.00
569.95	1104.03
570.31	1103.35
570.66	1099.42
571.01	1103.70
571.36	1099.89
571.71	1100.66
572.06	1101.97
572.42	1105.62
572.77	1103.47
573.12	1105.32
573.47	1100.96
573.82	1098.39
574.18	1099.72
574.53	1100.85
574.88	1100.22
575.23	1103.26
575.58	1105.11
575.93	1104.50
576.28	1102.39
576.64	1101.85
576.99	1099.51
577.34	1094.67
577.69	1092.66
578.04	1093.19
578.39	1089.43
578.74	1090.20
579.09	1093.55
579.44	1090.29
579.80	1084.93
580.15	1086.41
580.50	1085.63
580.85	1086.59
581.20	1088.37
581.55	1092.66
581.90	1092.45
582.25	1094.83
582.60	1092.82
582.95	1093.57
583.30	1096.52
583.65	1094.62
584.00	1095.21
584.35	1093.64
584.71	1092.77
585.06	1087.62
585.41	1090.50
585.76	1086.59
586.11	1086.97
586.46	1087.44
586.81	1088.77
587.16	1091.16
587.51	1091.11
587.86	1092.56
588.21	1093.19
588.56	1093.31
588.91	1090.10
589.26	1090.08
589.61	1087.62
589.96	1087.97
590.31	1088.54
590.66	1090.46
591.01	1091.93
591.36	1095.63
591.71	1093.90
592.06	1092.21
592.41	1088.21
592.76	1087.13
593.10	1085.84
593.45	1083.32
593.80	1082.59
594.15	1084.58
594.50	1083.71
594.85	1082.19
595.20	1085.77
595.55	1087.90
595.90	1087.67
596.25	1088.30
596.60	1086.62
596.95	1084.79
597.30	1080.79
597.64	1092.61
597.99	1094.39
598.34	1097.27
598.69	1095.16
599.04	1097.34
599.39	1085.61
599.74	1084.14
600.09	1082.73
600.44	1084.00
600.78	1084.96
601.13	1083.62
601.48	1083.46
601.83	1081.82
602.18	1085.49
602.53	1086.22
602.88	1087.44
603.22	1086.43
603.57	1088.51
603.92	1082.61
604.27	1078.64
604.62	1078.61
604.97	1082.17
605.31	1080.25
605.66	1083.76
606.01	1085.47
606.36	1085.03
606.71	1081.56
607.05	1079.83
607.40	1079.20
607.75	1079.06
608.10	1078.68
608.44	1075.80
608.79	1076.67
609.14	1078.40
609.49	1079.97
609.84	1077.86
610.18	1080.27
610.53	1083.13
610.88	1082.19
611.23	1082.29
611.57	1087.02
611.92	1089.57
612.27	1090.60
612.62	1091.98
612.96	1089.87
613.31	1089.10
613.66	1085.52
614.00	1081.58
614.35	1079.69
614.70	1079.50
615.05	1080.02
615.39	1085.47
615.74	1086.22
616.09	1085.77
616.43	1087.48
616.78	1083.53
617.13	1078.14
617.47	1076.20
617.82	1074.91
618.17	1077.49
618.51	1080.11
618.86	1079.10
619.21	1081.51
619.55	1082.76
619.90	1079.27
620.25	1080.11
620.59	1080.37
620.94	1079.31
621.29	1078.31
621.63	1077.91
621.98	1076.06
622.32	1080.13
622.67	1084.16
623.02	1085.19
623.36	1088.16
623.71	1086.10
624.05	1085.80
624.40	1082.31
624.75	1079.88
625.09	1078.45
625.44	1082.78
625.78	1083.48
626.13	1085.54
626.48	1088.54
626.82	1090.46
627.17	1087.39
627.51	1088.49
627.86	1089.68
628.20	1089.22
628.55	1085.73
628.89	1088.00
629.24	1084.91
629.58	1083.69
629.93	1085.38
630.28	1087.06
630.62	1085.56
630.97	1087.81
631.31	1087.18
631.66	1083.86
632.00	1083.50
632.35	1084.51
632.69	1081.96
633.04	1082.66
633.38	1083.50
633.73	1086.57
634.07	1084.09
634.42	1084.60
634.76	1084.32
635.11	1082.43
635.45	1079.67
635.79	1079.71
636.14	1079.41
636.48	1077.70
636.83	1082.73
637.17	1082.83
637.52	1084.65
637.86	1084.49
638.21	1085.80
638.55	1082.61
638.89	1085.03
639.24	1079.10
639.58	1079.34
639.93	1078.73
640.27	1081.42
640.61	1078.05
640.96	1083.20
641.30	1082.92
641.65	1083.13
641.99	1082.29
642.33	1086.17
642.68	1086.15
643.02	1087.04
643.37	1086.20
643.71	1082.52
644.05	1077.54
644.40	1077.07
644.74	1077.02
645.08	1076.79
645.43	1080.18
645.77	1079.92
646.11	1080.13
646.46	1081.87
646.80	1081.70
647.14	1080.39
647.49	1079.85
647.83	1078.54
648.17	1074.82
648.52	1075.90
648.86	1074.84
649.20	1077.84
649.55	1077.44
649.89	1080.13
650.23	1080.65
650.57	1083.53
650.92	1080.63
651.26	1085.00
651.60	1083.29
651.95	1083.74
652.29	1081.87
652.63	1084.00
652.97	1084.63
653.32	1084.23
653.66	1080.16
654.00	1079.57
654.34	1078.99
654.69	1074.75
655.03	1077.49
655.37	1077.28
655.71	1077.02
656.05	1076.69
656.40	1078.03
656.74	1075.48
657.08	1078.12
657.42	1080.67
657.76	1080.79
658.11	1081.61
658.45	1080.18
658.79	1081.54
659.13	1079.50
659.47	1081.09
659.82	1077.09
660.16	1078.21
660.50	1078.50
660.84	1080.63
661.18	1079.01
661.52	1080.53
661.87	1080.84
662.21	1080.13
662.55	1080.13
662.89	1079.31
663.23	1079.36
663.57	1078.54
663.91	1079.31
664.25	1078.47
664.60	1079.34
664.94	1077.42
665.28	1076.53
665.62	1076.18
665.96	1075.99
666.30	1074.68
666.64	1076.11
666.98	1079.31
667.32	1079.62
667.66	1077.70
668.01	1079.81
668.35	1083.53
668.69	1083.46
669.03	1082.66
669.37	1082.19
669.71	1080.06
670.05	1077.21
670.39	1076.44
670.73	1075.48
671.07	1074.31
671.41	1076.04
671.75	1076.93
672.09	1077.00
672.43	1081.63
672.77	1084.18
673.11	1084.74
673.45	1084.51
673.79	1084.00
674.13	1079.62
674.47	1076.90
674.81	1074.52
675.15	1073.60
675.49	1072.57
675.83	1073.53
676.17	1077.02
676.51	1077.35
676.85	1077.44
677.19	1075.55
677.53	1075.34
677.87	1077.37
678.21	1079.22
678.55	1081.05
678.89	1082.22
679.23	1079.90
679.57	1077.28
679.90	1075.29
680.24	1074.59
680.58	1073.44
680.92	1073.37
681.26	1073.93
681.60	1075.43
681.94	1076.18
682.28	1082.66
682.62	1087.39
682.96	1090.20
683.29	1091.30
683.63	1091.98
683.97	1087.27
684.31	1084.93
684.65	1083.93
684.99	1082.17
685.33	1081.77
685.67	1082.94
686.00	1083.22
686.34	1079.50
686.68	1081.56
687.02	1080.06
687.36	1081.07
687.70	1082.29
688.03	1081.82
688.37	1079.50
688.71	1080.53
689.05	1081.33
689.39	1076.67
689.72	1077.00
690.06	1077.04
690.40	1077.42
690.74	1075.48
691.08	1081.56
691.41	1083.01
691.75	1085.68
692.09	1086.15
692.43	1084.84
692.76	1082.36
693.10	1083.34
693.44	1080.16
693.78	1079.03
694.11	1079.62
694.45	1077.61
694.79	1075.43
695.13	1078.85
695.46	1080.11
695.80	1076.72
696.14	1077.77
696.48	1078.47
696.81	1078.31
697.15	1077.68
697.49	1080.46
697.82	1081.40
698.16	1081.49
698.50	1080.23
698.83	1079.99
699.17	1082.08
699.51	1077.51
699.84	1079.17
700.18	1079.88
700.52	1079.03
700.85	1079.01
701.19	1082.99
701.53	1081.54
701.86	1082.38
702.20	1082.45
702.54	1083.57
702.87	1082.85
703.21	1082.38
703.55	1080.72
703.88	1081.16
704.22	1079.48
704.55	1080.84
704.89	1082.78
705.23	1082.45
705.56	1080.16
705.90	1079.74
706.23	1079.64
706.57	1078.36
706.91	1079.01
707.24	1083.36
707.58	1084.70
707.91	1083.36
708.25	1080.70
708.58	1080.86
708.92	1079.97
709.26	1078.85
709.59	1081.87
709.93	1086.80
710.26	1087.60
710.60	1087.88
710.93	1086.66
711.27	1081.75
711.60	1078.66
711.94	1074.80
712.27	1074.61
712.61	1073.58
712.94	1075.76
713.28	1077.70
713.61	1079.67
713.95	1078.24
714.28	1079.83
714.62	1080.74
714.95	1082.43
715.29	1078.92
715.62	1076.58
715.96	1077.09
716.29	1075.83
716.63	1074.00
716.96	1077.82
717.29	1080.37
717.63	1078.66
717.96	1075.87
718.30	1073.81
718.63	1071.12
718.97	1071.97
719.30	1072.15
719.63	1077.00
719.97	1075.52
720.30	1078.94
720.64	1077.86
720.97	1078.66
721.30	1076.08
721.64	1078.10
721.97	1075.10
722.31	1074.05
722.64	1072.11
722.97	1070.56
723.31	1072.50
723.64	1073.42
723.97	1076.76
724.31	1078.14
724.64	1082.73
724.98	1081.84
725.31	1082.85
725.64	1081.35
725.98	1082.17
726.31	1079.95
726.64	1079.36
726.97	1078.26
727.31	1075.73
727.64	1076.37
727.97	1075.73
728.31	1074.12
728.64	1072.83
728.97	1074.33
729.31	1074.96
729.64	1075.76
729.97	1076.69
730.30	1078.99
730.64	1078.89
730.97	1079.29
731.30	1081.75
731.63	1082.19
731.97	1082.59
732.30	1081.75
732.63	1080.65
732.96	1077.07
733.30	1078.80
733.63	1081.07
733.96	1079.08
734.29	1077.04
734.63	1079.71
734.96	1079.64
735.29	1076.90
735.62	1078.57
735.95	1080.60
736.29	1080.67
736.62	1080.04
736.95	1078.52
737.28	1078.12
737.61	1078.47
737.94	1077.33
738.28	1077.00
738.61	1082.78
738.94	1085.80
739.27	1086.38
739.60	1085.26
739.93	1085.77
740.27	1080.65
740.60	1078.80
740.93	1076.74
741.26	1077.89
741.59	1075.43
741.92	1075.90
742.25	1074.82
742.58	1074.45
742.91	1073.67
743.25	1075.76
743.58	1075.62
743.91	1075.10
744.24	1072.39
744.57	1070.98
744.90	1071.92
745.23	1072.76
745.56	1075.80
745.89	1079.83
746.22	1082.24
746.55	1081.42
746.88	1080.06
747.21	1080.65
747.54	1080.09
747.87	1076.65
748.20	1074.42
748.53	1076.60
748.87	1075.83
749.20	1077.04
749.53	1080.11
749.86	1082.10
750.19	1082.22
750.52	1081.12
750.85	1080.02
751.18	1081.00
751.51	1081.70
751.84	1079.92
752.16	1081.51
752.49	1083.46
752.82	1083.34
753.15	1084.44
753.48	1084.96
753.81	1082.97
754.14	1080.06
754.47	1077.79
754.80	1075.66
755.13	1075.13
755.46	1075.55
755.79	1074.80
756.12	1078.17
756.45	1076.48
756.78	1074.49
757.11	1074.77
757.43	1075.36
757.76	1072.67
758.09	1071.15
758.42	1074.14
758.75	1074.70
759.08	1075.97
759.41	1075.38
759.74	1074.26
760.07	1069.62
760.39	1069.84
760.72	1069.37
761.05	1069.23
761.38	1073.74
761.71	1076.27
762.04	1074.33
762.36	1073.70
762.69	1076.04
763.02	1073.79
763.35	1074.80
763.68	1076.30
