SpectraSuite Data File
++++++++++++++++++++++++++++++++++++
Date: Mon Aug 26 10:21:56 PDT 2019
User: corrico
Dark Spectrum Present: No
Reference Spectrum Present: No
Number of Sampled Component Spectra: 1
Spectrometers: USB2+H06089
Integration Time (usec): 2000 (USB2+H06089)
Spectra Averaged: 20 (USB2+H06089)
Boxcar Smoothing: 2 (USB2+H06089)
Correct for Electrical Dark: No (USB2+H06089)
Strobe/Lamp Enabled: No (USB2+H06089)
Correct for Detector Non-linearity: No (USB2+H06089)
Correct for Stray Light: No (USB2+H06089)
Number of Pixels in Processed Spectrum: 2048
>>>>>Begin Processed Spectral Data<<<<<
339.70	1029.60
340.07	1029.60
340.45	995.08
340.82	970.01
341.19	946.56
341.57	921.26
341.94	907.52
342.31	898.86
342.69	895.65
343.06	892.26
343.43	888.77
343.81	891.46
344.18	894.46
344.55	903.12
344.93	907.14
345.30	916.76
345.67	924.89
346.04	933.76
346.42	938.53
346.79	945.65
347.16	952.29
347.54	959.64
347.91	966.45
348.28	974.81
348.65	985.27
349.03	995.83
349.40	1004.37
349.77	1013.78
350.14	1019.49
350.52	1023.75
350.89	1030.19
351.26	1033.58
351.63	1039.76
352.01	1044.60
352.38	1050.41
352.75	1052.09
353.12	1056.47
353.50	1059.91
353.87	1064.52
354.24	1068.03
354.61	1070.82
354.98	1075.50
355.36	1075.92
355.73	1077.72
356.10	1077.28
356.47	1077.75
356.84	1073.84
357.22	1072.97
357.59	1071.12
357.96	1074.19
358.33	1077.35
358.70	1080.51
359.08	1079.20
359.45	1078.96
359.82	1076.27
360.19	1073.74
360.56	1071.26
360.94	1071.12
361.31	1073.42
361.68	1073.58
362.05	1072.48
362.42	1071.99
362.79	1071.22
363.16	1069.67
363.54	1070.16
363.91	1066.93
364.28	1068.55
364.65	1068.88
365.02	1068.57
365.39	1068.41
365.76	1068.69
366.14	1064.01
366.51	1066.18
366.88	1063.91
367.25	1061.32
367.62	1060.57
367.99	1063.98
368.36	1058.79
368.73	1060.66
369.10	1059.54
369.48	1061.74
369.85	1059.58
370.22	1064.48
370.59	1064.17
370.96	1065.51
371.33	1064.41
371.70	1065.32
372.07	1061.83
372.44	1056.85
372.81	1056.33
373.18	1056.12
373.55	1055.70
373.93	1055.49
374.30	1060.89
374.67	1061.22
375.04	1065.55
375.41	1066.25
375.78	1068.85
376.15	1066.77
376.52	1068.13
376.89	1065.37
377.26	1068.36
377.63	1066.02
378.00	1065.46
378.37	1063.56
378.74	1063.38
379.11	1060.99
379.48	1061.71
379.85	1063.12
380.22	1063.80
380.59	1061.15
380.96	1060.96
381.33	1062.95
381.70	1062.98
382.07	1064.34
382.44	1066.28
382.81	1066.51
383.18	1067.00
383.55	1069.09
383.92	1071.54
384.29	1071.08
384.66	1070.63
385.03	1067.57
385.40	1064.57
385.77	1063.28
386.14	1064.38
386.51	1068.45
386.88	1068.92
387.25	1070.00
387.62	1070.87
387.99	1070.63
388.36	1066.49
388.73	1067.21
389.10	1068.13
389.46	1068.36
389.83	1070.77
390.20	1072.83
390.57	1074.52
390.94	1074.28
391.31	1073.28
391.68	1071.31
392.05	1072.46
392.42	1074.84
392.79	1071.50
393.16	1068.67
393.53	1069.58
393.89	1068.01
394.26	1065.13
394.63	1065.88
395.00	1070.84
395.37	1068.45
395.74	1068.29
396.11	1070.12
396.48	1069.51
396.84	1065.39
397.21	1067.05
397.58	1067.75
397.95	1068.06
398.32	1070.63
398.69	1069.95
399.06	1069.55
399.42	1068.55
399.79	1066.44
400.16	1066.07
400.53	1068.29
400.90	1069.72
401.27	1072.25
401.64	1071.94
402.00	1072.55
402.37	1074.49
402.74	1073.58
403.11	1073.53
403.48	1076.15
403.84	1076.30
404.21	1072.22
404.58	1071.45
404.95	1068.64
405.32	1067.66
405.68	1067.52
406.05	1070.82
406.42	1071.75
406.79	1073.39
407.16	1073.88
407.52	1072.01
407.89	1068.76
408.26	1064.10
408.63	1065.25
408.99	1064.24
409.36	1067.03
409.73	1069.27
410.10	1076.46
410.47	1075.50
410.83	1074.21
411.20	1072.06
411.57	1072.83
411.94	1072.48
412.30	1071.01
412.67	1070.49
413.04	1072.85
413.40	1072.95
413.77	1069.41
414.14	1070.75
414.51	1073.21
414.87	1071.47
415.24	1069.93
415.61	1069.77
415.97	1069.74
416.34	1068.27
416.71	1069.81
417.08	1070.14
417.44	1071.59
417.81	1069.84
418.18	1072.34
418.54	1070.87
418.91	1071.85
419.28	1075.29
419.64	1076.86
420.01	1074.42
420.38	1076.13
420.74	1073.77
421.11	1073.07
421.48	1073.98
421.84	1075.38
422.21	1074.38
422.58	1074.56
422.94	1070.14
423.31	1069.65
423.68	1067.82
424.04	1066.72
424.41	1069.09
424.77	1072.46
425.14	1070.05
425.51	1072.69
425.87	1073.53
426.24	1071.01
426.61	1068.97
426.97	1071.90
427.34	1069.20
427.70	1073.44
428.07	1077.82
428.44	1079.48
428.80	1078.92
429.17	1084.25
429.53	1083.27
429.90	1081.89
430.27	1084.81
430.63	1088.37
431.00	1087.55
431.36	1085.49
431.73	1086.27
432.09	1083.79
432.46	1080.37
432.83	1076.44
433.19	1079.41
433.56	1080.02
433.92	1081.23
434.29	1084.96
434.65	1092.23
435.02	1093.17
435.38	1096.99
435.75	1102.46
436.11	1102.35
436.48	1103.52
436.84	1108.06
437.21	1110.68
437.57	1109.81
437.94	1112.97
438.30	1116.79
438.67	1118.54
439.03	1121.80
439.40	1126.17
439.76	1127.06
440.13	1129.29
440.49	1132.23
440.86	1136.61
441.22	1142.02
441.59	1148.01
441.95	1151.01
442.32	1155.38
442.68	1155.80
443.05	1159.88
443.41	1167.90
443.78	1175.65
444.14	1179.44
444.51	1184.59
444.87	1190.05
445.24	1195.19
445.60	1198.33
445.96	1205.59
446.33	1215.21
446.69	1221.88
447.06	1229.60
447.42	1238.45
447.79	1252.28
448.15	1265.55
448.51	1281.49
448.88	1296.47
449.24	1309.88
449.61	1323.64
449.97	1335.46
450.33	1345.29
450.70	1359.62
451.06	1376.80
451.43	1391.87
451.79	1411.58
452.15	1435.33
452.52	1457.90
452.88	1482.64
453.24	1508.10
453.61	1533.21
453.97	1558.75
454.34	1582.69
454.70	1610.73
455.06	1639.76
455.43	1665.48
455.79	1691.86
456.15	1727.08
456.52	1757.72
456.88	1792.66
457.24	1833.44
457.61	1873.41
457.97	1907.72
458.33	1944.66
458.70	1984.38
459.06	2022.29
459.42	2062.29
459.79	2098.97
460.15	2146.04
460.51	2186.32
460.88	2229.43
461.24	2265.64
461.60	2311.04
461.96	2349.10
462.33	2384.89
462.69	2417.61
463.05	2458.08
463.42	2495.20
463.78	2530.31
464.14	2559.94
464.50	2597.69
464.87	2624.04
465.23	2642.02
465.59	2665.82
465.95	2692.72
466.32	2702.20
466.68	2720.38
467.04	2737.00
467.40	2739.78
467.77	2741.73
468.13	2742.62
468.49	2736.86
468.85	2735.66
469.22	2732.79
469.58	2721.79
469.94	2716.54
470.30	2710.41
470.66	2696.48
471.03	2673.71
471.39	2655.01
471.75	2627.79
472.11	2594.91
472.47	2565.72
472.84	2538.90
473.20	2512.31
473.56	2496.74
473.92	2475.68
474.28	2452.81
474.65	2435.02
475.01	2422.81
475.37	2397.53
475.73	2380.09
476.09	2362.30
476.45	2345.43
476.81	2320.52
477.18	2304.28
477.54	2287.87
477.90	2270.48
478.26	2248.53
478.62	2226.58
478.98	2202.94
479.34	2183.70
479.71	2164.15
480.07	2148.87
480.43	2137.56
480.79	2127.59
481.15	2112.75
481.51	2097.40
481.87	2086.26
482.23	2073.50
482.59	2056.25
482.96	2041.65
483.32	2027.09
483.68	2006.35
484.04	1988.03
484.40	1974.03
484.76	1957.44
485.12	1940.47
485.48	1923.69
485.84	1913.55
486.20	1898.29
486.56	1881.98
486.92	1870.21
487.28	1855.25
487.64	1831.54
488.00	1811.79
488.37	1793.88
488.73	1774.66
489.09	1755.24
489.45	1739.42
489.81	1720.79
490.17	1703.49
490.53	1688.65
490.89	1675.52
491.25	1658.48
491.61	1644.02
491.97	1630.21
492.33	1611.86
492.69	1597.88
493.05	1580.77
493.41	1569.42
493.77	1556.78
494.13	1544.82
494.49	1532.93
494.85	1521.91
495.21	1504.73
495.57	1491.39
495.93	1477.16
496.29	1462.39
496.64	1450.99
497.00	1442.43
497.36	1431.59
497.72	1424.03
498.08	1414.48
498.44	1407.20
498.80	1397.79
499.16	1390.98
499.52	1378.93
499.88	1372.47
500.24	1361.54
500.60	1354.59
500.96	1346.25
501.32	1343.05
501.68	1332.75
502.03	1326.69
502.39	1322.22
502.75	1310.47
503.11	1302.81
503.47	1297.27
503.83	1287.79
504.19	1274.63
504.55	1269.65
504.91	1261.97
505.26	1254.04
505.62	1250.95
505.98	1245.26
506.34	1241.14
506.70	1233.30
507.06	1230.79
507.42	1225.57
507.78	1223.30
508.13	1220.50
508.49	1215.21
508.85	1211.37
509.21	1205.66
509.57	1199.45
509.93	1193.60
510.28	1195.78
510.64	1189.27
511.00	1186.89
511.36	1184.47
511.72	1180.31
512.07	1172.84
512.43	1169.19
512.79	1168.07
513.15	1163.71
513.51	1158.59
513.86	1155.69
514.22	1155.92
514.58	1152.13
514.94	1149.86
515.30	1150.23
515.65	1146.82
516.01	1142.86
516.37	1137.59
516.73	1138.69
517.08	1136.94
517.44	1137.95
517.80	1136.47
518.16	1137.95
518.51	1132.63
518.87	1129.00
519.23	1127.51
519.59	1125.31
519.94	1123.76
520.30	1124.72
520.66	1121.28
521.01	1116.01
521.37	1113.77
521.73	1110.89
522.09	1109.53
522.44	1110.96
522.80	1111.45
523.16	1109.34
523.51	1110.70
523.87	1109.16
524.23	1110.05
524.58	1109.46
524.94	1113.25
525.30	1107.45
525.65	1104.78
526.01	1101.13
526.37	1099.37
526.72	1097.41
527.08	1098.37
527.44	1099.14
527.79	1098.62
528.15	1099.89
528.51	1097.29
528.86	1099.89
529.22	1099.96
529.58	1099.07
529.93	1096.45
530.29	1095.28
530.65	1091.74
531.00	1091.27
531.36	1093.47
531.71	1090.41
532.07	1092.52
532.43	1093.38
532.78	1094.65
533.14	1091.86
533.49	1096.19
533.85	1093.50
534.21	1093.50
534.56	1092.26
534.92	1094.55
535.27	1094.29
535.63	1093.90
535.98	1094.25
536.34	1094.06
536.69	1092.42
537.05	1091.30
537.41	1092.82
537.76	1088.77
538.12	1086.29
538.47	1088.91
538.83	1088.58
539.18	1086.64
539.54	1088.00
539.89	1088.75
540.25	1085.84
540.60	1084.56
540.96	1084.84
541.31	1086.50
541.67	1086.13
542.02	1083.97
542.38	1083.22
542.73	1082.90
543.09	1082.33
543.44	1082.45
543.80	1086.29
544.15	1084.96
544.51	1081.87
544.86	1080.60
545.22	1077.42
545.57	1072.69
545.93	1074.10
546.28	1076.69
546.64	1075.59
546.99	1077.16
547.35	1074.84
547.70	1077.44
548.05	1074.21
548.41	1075.27
548.76	1075.64
549.12	1081.42
549.47	1078.07
549.83	1081.28
550.18	1082.36
550.53	1083.22
550.89	1080.86
551.24	1081.40
551.60	1079.67
551.95	1077.37
552.30	1075.36
552.66	1073.35
553.01	1074.75
553.37	1076.55
553.72	1075.36
554.07	1075.64
554.43	1078.80
554.78	1077.51
555.13	1074.35
555.49	1074.66
555.84	1076.60
556.19	1074.00
556.55	1073.02
556.90	1079.67
557.26	1079.36
557.61	1078.38
557.96	1082.15
558.32	1081.40
558.67	1076.72
559.02	1077.84
559.37	1076.65
559.73	1074.80
560.08	1077.37
560.43	1077.72
560.79	1079.81
561.14	1080.70
561.49	1077.89
561.85	1079.62
562.20	1079.67
562.55	1079.06
562.90	1077.79
563.26	1079.78
563.61	1076.23
563.96	1074.47
564.32	1072.20
564.67	1073.23
565.02	1073.79
565.37	1074.10
565.73	1078.75
566.08	1079.81
566.43	1077.72
566.78	1075.29
567.14	1075.94
567.49	1076.08
567.84	1077.47
568.19	1080.48
568.54	1080.20
568.90	1080.02
569.25	1077.65
569.60	1074.82
569.95	1074.56
570.31	1075.73
570.66	1076.88
571.01	1077.25
571.36	1076.48
571.71	1073.53
572.06	1073.91
572.42	1073.77
572.77	1072.78
573.12	1074.80
573.47	1076.04
573.82	1076.41
574.18	1077.84
574.53	1076.95
574.88	1075.55
575.23	1078.36
575.58	1082.76
575.93	1079.78
576.28	1081.05
576.64	1085.24
576.99	1084.00
577.34	1080.95
577.69	1080.95
578.04	1078.59
578.39	1076.55
578.74	1076.15
579.09	1072.83
579.44	1072.39
579.80	1074.52
580.15	1073.21
580.50	1074.00
580.85	1076.41
581.20	1076.76
581.55	1077.11
581.90	1076.13
582.25	1075.03
582.60	1074.33
582.95	1074.49
583.30	1074.61
583.65	1074.07
584.00	1073.67
584.35	1077.16
584.71	1076.20
585.06	1074.14
585.41	1075.97
585.76	1073.98
586.11	1073.23
586.46	1076.06
586.81	1077.75
587.16	1078.10
587.51	1078.38
587.86	1076.37
588.21	1073.14
588.56	1072.90
588.91	1072.41
589.26	1075.38
589.61	1072.71
589.96	1073.32
590.31	1074.35
590.66	1073.88
591.01	1073.58
591.36	1075.94
591.71	1074.77
592.06	1073.79
592.41	1073.93
592.76	1067.07
593.10	1065.76
593.45	1065.65
593.80	1063.05
594.15	1063.49
594.50	1070.58
594.85	1072.71
595.20	1076.60
595.55	1079.83
595.90	1082.26
596.25	1079.31
596.60	1079.34
596.95	1077.65
597.30	1076.83
597.64	1087.97
597.99	1093.26
598.34	1091.81
598.69	1093.38
599.04	1093.92
599.39	1082.94
599.74	1081.73
600.09	1082.03
600.44	1081.07
600.78	1081.09
601.13	1078.40
601.48	1077.84
601.83	1076.41
602.18	1074.59
602.53	1072.88
602.88	1073.49
603.22	1073.84
603.57	1074.42
603.92	1073.39
604.27	1076.01
604.62	1076.41
604.97	1073.30
605.31	1074.66
605.66	1077.56
606.01	1075.41
606.36	1075.41
606.71	1076.81
607.05	1079.24
607.40	1076.60
607.75	1077.77
608.10	1077.28
608.44	1076.74
608.79	1074.82
609.14	1075.43
609.49	1074.75
609.84	1072.41
610.18	1070.47
610.53	1066.72
610.88	1069.13
611.23	1069.44
611.57	1071.17
611.92	1071.26
612.27	1073.32
612.62	1073.02
612.96	1070.80
613.31	1070.14
613.66	1071.15
614.00	1070.82
614.35	1070.47
614.70	1072.60
615.05	1073.81
615.39	1071.10
615.74	1072.90
616.09	1071.85
616.43	1069.53
616.78	1071.75
617.13	1077.63
617.47	1077.21
617.82	1078.03
618.17	1082.47
618.51	1079.48
618.86	1076.32
619.21	1077.37
619.55	1076.90
619.90	1077.14
620.25	1079.03
620.59	1083.04
620.94	1082.22
621.29	1079.92
621.63	1077.68
621.98	1077.58
622.32	1073.93
622.67	1073.72
623.02	1076.76
623.36	1077.61
623.71	1076.13
624.05	1080.32
624.40	1078.36
624.75	1076.81
625.09	1073.77
625.44	1073.51
625.78	1069.39
626.13	1070.05
626.48	1069.88
626.82	1072.11
627.17	1070.70
627.51	1069.20
627.86	1069.04
628.20	1069.41
628.55	1069.53
628.89	1072.55
629.24	1070.58
629.58	1071.36
629.93	1071.47
630.28	1072.41
630.62	1070.44
630.97	1073.72
631.31	1077.61
631.66	1078.05
632.00	1079.43
632.35	1080.46
632.69	1080.86
633.04	1076.46
633.38	1076.53
633.73	1075.31
634.07	1076.55
634.42	1076.23
634.76	1074.75
635.11	1076.79
635.45	1075.24
635.79	1073.86
636.14	1072.62
636.48	1074.31
636.83	1071.29
637.17	1069.37
637.52	1065.25
637.86	1067.89
638.21	1068.71
638.55	1067.54
638.89	1068.27
639.24	1071.47
639.58	1067.89
639.93	1068.62
640.27	1071.47
640.61	1074.33
640.96	1073.21
641.30	1077.00
641.65	1072.11
641.99	1071.36
642.33	1066.58
642.68	1067.07
643.02	1065.39
643.37	1070.40
643.71	1071.29
644.05	1074.94
644.40	1074.87
644.74	1074.56
645.08	1073.91
645.43	1072.25
645.77	1072.27
646.11	1074.21
646.46	1074.33
646.80	1075.20
647.14	1077.23
647.49	1075.64
647.83	1076.55
648.17	1077.96
648.52	1077.11
648.86	1076.62
649.20	1078.05
649.55	1073.86
649.89	1075.73
650.23	1074.77
650.57	1075.05
650.92	1072.83
651.26	1074.24
651.60	1072.27
651.95	1070.72
652.29	1071.17
652.63	1075.43
652.97	1076.76
653.32	1075.78
653.66	1075.31
654.00	1073.28
654.34	1069.60
654.69	1071.12
655.03	1071.08
655.37	1072.22
655.71	1074.87
656.05	1074.70
656.40	1071.08
656.74	1071.29
657.08	1070.42
657.42	1069.98
657.76	1070.44
658.11	1074.56
658.45	1073.49
658.79	1073.72
659.13	1070.65
659.47	1071.40
659.82	1069.25
660.16	1070.75
660.50	1073.53
660.84	1074.12
661.18	1075.45
661.52	1076.81
661.87	1076.60
662.21	1075.48
662.55	1076.44
662.89	1073.44
663.23	1073.58
663.57	1074.73
663.91	1074.70
664.25	1076.32
664.60	1079.36
664.94	1076.76
665.28	1075.15
665.62	1074.80
665.96	1073.51
666.30	1074.96
666.64	1076.01
666.98	1078.87
667.32	1079.24
667.66	1080.11
668.01	1076.44
668.35	1074.17
668.69	1070.84
669.03	1070.75
669.37	1070.05
669.71	1071.15
670.05	1072.81
670.39	1074.28
670.73	1072.53
671.07	1071.85
671.41	1072.92
671.75	1072.34
672.09	1072.64
672.43	1074.49
672.77	1074.98
673.11	1076.39
673.45	1077.89
673.79	1074.33
674.13	1074.54
674.47	1072.67
674.81	1069.74
675.15	1071.36
675.49	1075.45
675.83	1076.44
676.17	1078.40
676.51	1079.78
676.85	1077.02
677.19	1074.35
677.53	1071.12
677.87	1073.44
678.21	1070.21
678.55	1071.36
678.89	1075.57
679.23	1078.00
679.57	1074.35
679.90	1079.34
680.24	1078.33
680.58	1075.17
680.92	1078.80
681.26	1079.85
681.60	1074.21
681.94	1075.57
682.28	1078.89
682.62	1075.73
682.96	1075.73
683.29	1075.41
683.63	1072.22
683.97	1068.69
684.31	1065.69
684.65	1065.15
684.99	1067.10
685.33	1070.12
685.67	1068.81
686.00	1072.22
686.34	1074.17
686.68	1076.06
687.02	1075.57
687.36	1077.61
687.70	1077.25
688.03	1076.76
688.37	1075.20
688.71	1074.87
689.05	1076.41
689.39	1075.29
689.72	1075.48
690.06	1076.97
690.40	1077.61
690.74	1073.25
691.08	1073.44
691.41	1073.09
691.75	1070.65
692.09	1070.16
692.43	1077.14
692.76	1076.95
693.10	1075.57
693.44	1078.19
693.78	1077.86
694.11	1072.62
694.45	1068.85
694.79	1067.24
695.13	1066.14
695.46	1068.45
695.80	1070.21
696.14	1075.29
696.48	1080.20
696.81	1080.58
697.15	1079.15
697.49	1075.52
697.82	1075.17
698.16	1072.64
698.50	1073.60
698.83	1072.64
699.17	1076.97
699.51	1074.70
699.84	1073.58
700.18	1073.74
700.52	1075.29
700.85	1071.87
701.19	1072.34
701.53	1073.58
701.86	1069.09
702.20	1068.10
702.54	1067.71
702.87	1070.68
703.21	1070.44
703.55	1072.32
703.88	1074.07
704.22	1079.31
704.55	1078.45
704.89	1079.27
705.23	1077.93
705.56	1075.15
705.90	1070.75
706.23	1072.15
706.57	1072.69
706.91	1075.29
707.24	1076.44
707.58	1078.94
707.91	1078.57
708.25	1075.22
708.58	1074.70
708.92	1075.59
709.26	1074.61
709.59	1071.64
709.93	1071.33
710.26	1071.10
710.60	1070.35
710.93	1070.47
711.27	1072.53
711.60	1077.37
711.94	1077.42
712.27	1075.97
712.61	1072.90
712.94	1072.08
713.28	1069.60
713.61	1072.71
713.95	1074.94
714.28	1076.46
714.62	1077.44
714.95	1077.79
715.29	1073.18
715.62	1071.61
715.96	1071.31
716.29	1067.94
716.63	1066.89
716.96	1069.27
717.29	1066.42
717.63	1067.35
717.96	1069.32
718.30	1069.91
718.63	1069.20
718.97	1073.11
719.30	1072.22
719.63	1071.29
719.97	1071.36
720.30	1073.70
720.64	1072.64
720.97	1075.52
721.30	1078.50
721.64	1081.33
721.97	1077.28
722.31	1074.63
722.64	1074.12
722.97	1070.63
723.31	1067.99
723.64	1071.92
723.97	1077.47
724.31	1079.10
724.64	1081.84
724.98	1083.25
725.31	1079.99
725.64	1077.23
725.98	1074.33
726.31	1072.13
726.64	1069.06
726.97	1071.82
727.31	1073.32
727.64	1068.62
727.97	1068.22
728.31	1070.05
728.64	1069.70
728.97	1065.55
729.31	1071.24
729.64	1071.68
729.97	1073.04
730.30	1072.20
730.64	1076.25
730.97	1074.35
731.30	1072.64
731.63	1071.10
731.97	1070.05
732.30	1068.17
732.63	1070.63
732.96	1073.02
733.30	1072.43
733.63	1072.62
733.96	1073.72
734.29	1073.07
734.63	1074.87
734.96	1076.04
735.29	1076.25
735.62	1077.47
735.95	1076.04
736.29	1073.30
736.62	1072.20
736.95	1075.64
737.28	1073.30
737.61	1074.91
737.94	1073.95
738.28	1074.07
738.61	1069.98
738.94	1071.26
739.27	1070.16
739.60	1073.44
739.93	1073.74
740.27	1075.66
740.60	1074.77
740.93	1074.66
741.26	1072.83
741.59	1072.04
741.92	1072.85
742.25	1072.60
742.58	1074.80
742.91	1076.06
743.25	1077.93
743.58	1078.00
743.91	1080.20
744.24	1077.51
744.57	1077.14
744.90	1074.68
745.23	1076.41
745.56	1076.25
745.89	1078.05
746.22	1078.00
746.55	1080.56
746.88	1079.60
747.21	1079.22
747.54	1077.04
747.87	1076.23
748.20	1071.78
748.53	1071.01
748.87	1069.86
749.20	1073.00
749.53	1075.41
749.86	1075.97
750.19	1073.35
750.52	1072.88
750.85	1073.23
751.18	1071.50
751.51	1073.70
751.84	1074.77
752.16	1078.10
752.49	1075.50
752.82	1076.69
753.15	1077.68
753.48	1076.58
753.81	1074.94
754.14	1075.57
754.47	1074.38
754.80	1072.92
755.13	1073.32
755.46	1073.79
755.79	1074.17
756.12	1073.44
756.45	1073.72
756.78	1075.80
757.11	1075.80
757.43	1074.26
757.76	1074.05
758.09	1078.26
758.42	1078.43
758.75	1076.62
759.08	1079.57
759.41	1081.61
759.74	1077.75
760.07	1074.07
760.39	1074.07
760.72	1071.08
761.05	1068.29
761.38	1069.86
761.71	1069.93
762.04	1070.12
762.36	1070.54
762.69	1070.77
763.02	1069.72
763.35	1073.04
763.68	1073.74
764.01	1075.59
764.33	1078.19
764.66	1078.12
764.99	1075.15
765.32	1074.10
765.65	1070.80
765.97	1068.29
766.30	1066.11
