SpectraSuite Data File
++++++++++++++++++++++++++++++++++++
Date: Mon Aug 26 10:22:24 PDT 2019
User: corrico
Dark Spectrum Present: No
Reference Spectrum Present: No
Number of Sampled Component Spectra: 1
Spectrometers: USB2+H06089
Integration Time (usec): 2000 (USB2+H06089)
Spectra Averaged: 20 (USB2+H06089)
Boxcar Smoothing: 2 (USB2+H06089)
Correct for Electrical Dark: No (USB2+H06089)
Strobe/Lamp Enabled: No (USB2+H06089)
Correct for Detector Non-linearity: No (USB2+H06089)
Correct for Stray Light: No (USB2+H06089)
Number of Pixels in Processed Spectrum: 2048
>>>>>Begin Processed Spectral Data<<<<<
339.70	1032.41
340.07	1032.41
340.45	996.79
340.82	974.01
341.19	952.57
341.57	928.40
341.94	918.17
342.31	909.42
342.69	904.27
343.06	894.90
343.43	890.78
343.81	892.45
344.18	897.22
344.55	901.39
344.93	910.16
345.30	920.56
345.67	927.67
346.04	933.66
346.42	944.45
346.79	953.11
347.16	959.78
347.54	969.75
347.91	976.89
348.28	983.96
348.65	992.83
349.03	1001.02
349.40	1010.34
349.77	1018.74
350.14	1026.89
350.52	1032.81
350.89	1040.67
351.26	1044.77
351.63	1050.53
352.01	1055.86
352.38	1061.34
352.75	1064.03
353.12	1068.97
353.50	1071.38
353.87	1070.98
354.24	1074.35
354.61	1076.65
354.98	1078.03
355.36	1084.28
355.73	1087.20
356.10	1086.36
356.47	1088.21
356.84	1086.64
357.22	1084.02
357.59	1086.50
357.96	1087.69
358.33	1085.40
358.70	1086.22
359.08	1084.00
359.45	1081.61
359.82	1080.95
360.19	1079.64
360.56	1080.23
360.94	1080.44
361.31	1079.76
361.68	1079.81
362.05	1082.05
362.42	1082.33
362.79	1084.32
363.16	1085.87
363.54	1083.15
363.91	1080.84
364.28	1079.92
364.65	1080.02
365.02	1078.24
365.39	1081.40
365.76	1083.62
366.14	1082.22
366.51	1079.62
366.88	1080.93
367.25	1078.47
367.62	1078.50
367.99	1080.20
368.36	1079.92
368.73	1077.89
369.10	1080.51
369.48	1080.51
369.85	1078.05
370.22	1077.86
370.59	1078.05
370.96	1073.46
371.33	1071.71
371.70	1070.40
372.07	1071.26
372.44	1072.41
372.81	1073.18
373.18	1075.71
373.55	1078.14
373.93	1079.46
374.30	1080.23
374.67	1080.81
375.04	1078.05
375.41	1077.84
375.78	1078.17
376.15	1077.75
376.52	1076.65
376.89	1077.86
377.26	1074.75
377.63	1074.84
378.00	1073.98
378.37	1075.66
378.74	1073.35
379.11	1074.70
379.48	1072.25
379.85	1070.87
380.22	1071.08
380.59	1072.34
380.96	1073.53
381.33	1073.77
381.70	1074.54
382.07	1079.46
382.44	1078.87
382.81	1080.60
383.18	1082.71
383.55	1086.34
383.92	1084.56
384.29	1091.39
384.66	1091.84
385.03	1089.26
385.40	1085.94
385.77	1085.35
386.14	1078.24
386.51	1077.11
386.88	1081.89
387.25	1082.19
387.62	1081.91
387.99	1082.76
388.36	1084.63
388.73	1083.69
389.10	1083.34
389.46	1079.85
389.83	1082.26
390.20	1082.43
390.57	1083.39
390.94	1086.97
391.31	1089.40
391.68	1087.30
392.05	1086.06
392.42	1084.56
392.79	1083.69
393.16	1083.11
393.53	1086.27
393.89	1085.70
394.26	1084.09
394.63	1082.83
395.00	1086.13
395.37	1085.21
395.74	1086.01
396.11	1087.79
396.48	1087.27
396.84	1084.70
397.21	1083.76
397.58	1085.40
397.95	1085.40
398.32	1089.45
398.69	1093.94
399.06	1094.25
399.42	1095.56
399.79	1093.40
400.16	1090.29
400.53	1089.19
400.90	1088.16
401.27	1084.98
401.64	1085.87
402.00	1086.85
402.37	1087.67
402.74	1087.83
403.11	1087.67
403.48	1090.60
403.84	1088.91
404.21	1087.27
404.58	1088.49
404.95	1087.79
405.32	1087.09
405.68	1091.02
406.05	1089.33
406.42	1092.61
406.79	1095.44
407.16	1095.75
407.52	1093.92
407.89	1094.90
408.26	1094.15
408.63	1093.33
408.99	1092.61
409.36	1093.05
409.73	1096.73
410.10	1094.20
410.47	1096.54
410.83	1096.87
411.20	1098.30
411.57	1096.96
411.94	1099.28
412.30	1098.65
412.67	1099.12
413.04	1098.13
413.40	1097.76
413.77	1098.69
414.14	1098.30
414.51	1096.96
414.87	1096.73
415.24	1099.47
415.61	1100.54
415.97	1103.38
416.34	1103.73
416.71	1104.92
417.08	1104.03
417.44	1103.09
417.81	1101.92
418.18	1105.34
418.54	1103.45
418.91	1104.87
419.28	1103.77
419.64	1107.47
420.01	1109.25
420.38	1113.65
420.74	1109.41
421.11	1113.72
421.48	1112.76
421.84	1114.73
422.21	1114.63
422.58	1122.71
422.94	1124.86
423.31	1129.26
423.68	1132.02
424.04	1133.08
424.41	1133.64
424.77	1136.31
425.14	1138.65
425.51	1144.48
425.87	1152.97
426.24	1158.31
426.61	1164.11
426.97	1167.46
427.34	1168.96
427.70	1172.87
428.07	1180.82
428.44	1186.79
428.80	1194.31
429.17	1200.51
429.53	1210.38
429.90	1220.92
430.27	1231.05
430.63	1242.08
431.00	1255.79
431.36	1263.30
431.73	1271.89
432.09	1286.31
432.46	1301.67
432.83	1317.98
433.19	1335.58
433.56	1353.58
433.92	1371.11
434.29	1387.38
434.65	1408.02
435.02	1432.27
435.38	1461.95
435.75	1490.83
436.11	1521.91
436.48	1553.39
436.84	1591.59
437.21	1625.71
437.57	1662.97
437.94	1705.95
438.30	1754.61
438.67	1797.27
439.03	1848.51
439.40	1902.34
439.76	1956.92
440.13	2015.51
440.49	2081.46
440.86	2144.07
441.22	2216.09
441.59	2290.82
441.95	2370.59
442.32	2454.89
442.68	2550.53
443.05	2644.36
443.41	2743.13
443.78	2841.34
444.14	2946.24
444.51	3054.59
444.87	3190.85
445.24	3334.37
445.60	3489.34
445.96	3648.10
446.33	3826.66
446.69	3990.00
447.06	4167.63
447.42	4347.83
447.79	4543.14
448.15	4766.10
448.51	4995.05
448.88	5255.63
449.24	5496.56
449.61	5775.27
449.97	6038.30
450.33	6326.54
450.70	6587.84
451.06	6921.41
451.43	7225.02
451.79	7597.38
452.15	7997.56
452.52	8448.26
452.88	8921.61
453.24	9448.42
453.61	10016.09
453.97	10575.08
454.34	11113.03
454.70	11737.11
455.06	12378.25
455.43	13003.99
455.79	13609.91
456.15	14334.21
456.52	14998.60
456.88	15770.34
457.24	16506.53
457.61	17362.82
457.97	18131.19
458.33	18916.63
458.70	19694.18
459.06	20434.30
459.42	21254.38
459.79	22029.61
460.15	22937.23
460.51	23793.93
460.88	24732.98
461.24	25533.89
461.60	26496.74
461.96	27341.90
462.33	28180.10
462.69	28970.24
463.05	29805.44
463.42	30529.55
463.78	31187.92
464.14	31711.29
464.50	32287.34
464.87	32774.92
465.23	33120.78
465.59	33482.51
465.95	33832.16
466.32	34134.63
466.68	34363.75
467.04	34508.79
467.40	34662.35
467.77	34800.96
468.13	34760.35
468.49	34673.26
468.85	34612.68
469.22	34444.42
469.58	34099.45
469.94	33852.62
470.30	33553.94
470.66	33133.86
471.03	32552.40
471.39	32187.77
471.75	31564.89
472.11	30973.76
472.47	30609.22
472.84	30304.58
473.20	29797.34
473.56	29516.38
473.92	29075.68
474.28	28557.51
474.65	28038.59
475.01	27564.30
475.37	26979.68
475.73	26529.50
476.09	25995.11
476.45	25476.94
476.81	24960.18
477.18	24453.45
477.54	23984.10
477.90	23646.57
478.26	23222.89
478.62	22867.24
478.98	22550.59
479.34	22243.54
479.71	21818.75
480.07	21460.00
480.43	21106.06
480.79	20715.71
481.15	20359.90
481.51	20051.09
481.87	19820.17
482.23	19536.87
482.59	19296.69
482.96	18999.86
483.32	18711.23
483.68	18331.73
484.04	17985.47
484.40	17622.71
484.76	17267.11
485.12	16896.61
485.48	16573.10
485.84	16232.41
486.20	15882.59
486.56	15510.68
486.92	15190.78
487.28	14842.83
487.64	14492.25
488.00	14156.10
488.37	13825.64
488.73	13470.25
489.09	13117.04
489.45	12802.26
489.81	12493.38
490.17	12209.31
490.53	11926.64
490.89	11631.18
491.25	11324.57
491.61	11013.06
491.97	10688.92
492.33	10368.15
492.69	10062.38
493.05	9756.24
493.41	9457.26
493.77	9170.34
494.13	8914.87
494.49	8663.17
494.85	8422.07
495.21	8209.48
495.57	8001.36
495.93	7777.88
496.29	7571.28
496.64	7384.65
497.00	7177.25
497.36	6990.27
497.72	6801.57
498.08	6620.28
498.44	6443.78
498.80	6280.36
499.16	6111.05
499.52	5960.38
499.88	5833.53
500.24	5707.98
500.60	5581.69
500.96	5463.47
501.32	5350.96
501.68	5230.82
502.03	5103.75
502.39	4983.82
502.75	4852.14
503.11	4724.02
503.47	4599.39
503.83	4479.27
504.19	4362.01
504.55	4259.35
504.91	4162.57
505.26	4071.83
505.62	3989.30
505.98	3900.78
506.34	3809.41
506.70	3711.20
507.06	3616.83
507.42	3528.69
507.78	3444.66
508.13	3367.16
508.49	3292.92
508.85	3224.79
509.21	3156.14
509.57	3093.30
509.93	3027.53
510.28	2961.64
510.64	2900.13
511.00	2830.83
511.36	2765.95
511.72	2708.75
512.07	2660.02
512.43	2606.05
512.79	2558.84
513.15	2513.74
513.51	2465.66
513.86	2424.05
514.22	2385.97
514.58	2346.55
514.94	2311.91
515.30	2281.79
515.65	2241.39
516.01	2205.11
516.37	2175.20
516.73	2142.64
517.08	2108.54
517.44	2080.24
517.80	2052.65
518.16	2025.08
518.51	1994.79
518.87	1966.85
519.23	1939.23
519.59	1912.24
519.94	1882.31
520.30	1860.52
520.66	1838.30
521.01	1813.03
521.37	1795.05
521.73	1773.89
522.09	1750.74
522.44	1732.35
522.80	1712.76
523.16	1690.22
523.51	1669.39
523.87	1649.35
524.23	1629.29
524.58	1614.10
524.94	1596.15
525.30	1581.43
525.65	1565.00
526.01	1550.25
526.37	1538.11
526.72	1521.07
527.08	1509.48
527.44	1499.30
527.79	1485.23
528.15	1472.03
528.51	1461.24
528.86	1446.03
529.22	1431.50
529.58	1419.86
529.93	1410.97
530.29	1400.79
530.65	1392.01
531.00	1385.57
531.36	1378.06
531.71	1363.46
532.07	1355.71
532.43	1349.32
532.78	1339.89
533.14	1333.82
533.49	1327.36
533.85	1318.07
534.21	1309.95
534.56	1303.51
534.92	1293.10
535.27	1287.13
535.63	1282.12
535.98	1276.29
536.34	1274.19
536.69	1269.86
537.05	1265.48
537.41	1260.10
537.76	1254.22
538.12	1245.68
538.47	1243.08
538.83	1237.82
539.18	1235.85
539.54	1232.60
539.89	1228.80
540.25	1226.79
540.60	1224.62
540.96	1216.82
541.31	1212.30
541.67	1212.30
542.02	1204.25
542.38	1199.01
542.73	1200.32
543.09	1197.18
543.44	1191.59
543.80	1191.19
544.15	1188.99
544.51	1185.90
544.86	1184.55
545.22	1183.87
545.57	1182.65
545.93	1180.47
546.28	1175.11
546.64	1172.14
546.99	1168.72
547.35	1165.14
547.70	1162.24
548.05	1164.09
548.41	1161.47
548.76	1157.16
549.12	1154.45
549.47	1153.74
549.83	1150.05
550.18	1149.48
550.53	1150.49
550.89	1150.37
551.24	1147.66
551.60	1143.56
551.95	1141.76
552.30	1136.94
552.66	1135.93
553.01	1137.01
553.37	1139.51
553.72	1134.27
554.07	1136.94
554.43	1133.43
554.78	1132.87
555.13	1127.27
555.49	1130.41
555.84	1125.80
556.19	1126.24
556.55	1118.80
556.90	1119.45
557.26	1117.47
557.61	1119.20
557.96	1117.16
558.32	1122.85
558.67	1123.32
559.02	1122.83
559.37	1119.99
559.73	1122.05
560.08	1117.63
560.43	1117.58
560.79	1114.45
561.14	1113.72
561.49	1110.84
561.85	1111.31
562.20	1109.39
562.55	1109.72
562.90	1112.29
563.26	1111.12
563.61	1110.68
563.96	1111.52
564.32	1111.54
564.67	1107.85
565.02	1107.10
565.37	1107.38
565.73	1107.07
566.08	1107.47
566.43	1111.17
566.78	1108.34
567.14	1106.91
567.49	1105.29
567.84	1105.08
568.19	1101.41
568.54	1103.91
568.90	1100.00
569.25	1100.08
569.60	1097.92
569.95	1097.92
570.31	1095.86
570.66	1098.76
571.01	1097.78
571.36	1099.96
571.71	1096.89
572.06	1099.40
572.42	1102.16
572.77	1101.29
573.12	1098.98
573.47	1099.77
573.82	1098.02
574.18	1096.61
574.53	1101.13
574.88	1101.74
575.23	1102.35
575.58	1100.31
575.93	1096.17
576.28	1090.83
576.64	1092.19
576.99	1089.71
577.34	1091.77
577.69	1095.11
578.04	1093.22
578.39	1093.92
578.74	1096.12
579.09	1095.77
579.44	1095.14
579.80	1095.37
580.15	1093.66
580.50	1095.72
580.85	1096.59
581.20	1095.32
581.55	1099.77
581.90	1098.13
582.25	1096.19
582.60	1092.75
582.95	1090.53
583.30	1087.72
583.65	1087.65
584.00	1085.89
584.35	1086.08
584.71	1092.09
585.06	1091.95
585.41	1092.89
585.76	1095.65
586.11	1097.55
586.46	1090.17
586.81	1088.51
587.16	1085.94
587.51	1081.89
587.86	1084.39
588.21	1086.59
588.56	1087.46
588.91	1089.57
589.26	1093.43
589.61	1093.12
589.96	1094.01
590.31	1093.08
590.66	1091.23
591.01	1087.81
591.36	1083.36
591.71	1083.83
592.06	1085.14
592.41	1088.42
592.76	1089.43
593.10	1092.37
593.45	1092.56
593.80	1094.46
594.15	1090.64
594.50	1089.50
594.85	1085.63
595.20	1085.68
595.55	1082.50
595.90	1083.43
596.25	1083.90
596.60	1084.91
596.95	1085.33
597.30	1087.18
597.64	1098.23
597.99	1101.67
598.34	1104.19
598.69	1104.15
599.04	1102.02
599.39	1093.50
599.74	1087.46
600.09	1087.13
600.44	1082.36
600.78	1082.97
601.13	1080.74
601.48	1081.23
601.83	1078.07
602.18	1081.61
602.53	1080.41
602.88	1082.73
603.22	1088.00
603.57	1087.02
603.92	1083.86
604.27	1084.04
604.62	1081.61
604.97	1077.09
605.31	1077.25
605.66	1082.10
606.01	1083.76
606.36	1084.60
606.71	1084.74
607.05	1086.20
607.40	1084.00
607.75	1081.84
608.10	1078.38
608.44	1076.81
608.79	1078.00
609.14	1079.20
609.49	1080.88
609.84	1085.33
610.18	1089.78
610.53	1088.61
610.88	1090.29
611.23	1091.11
611.57	1089.29
611.92	1085.63
612.27	1085.38
612.62	1085.28
612.96	1083.60
613.31	1082.80
613.66	1087.83
614.00	1091.06
614.35	1087.51
614.70	1089.66
615.05	1089.40
615.39	1088.14
615.74	1086.69
616.09	1087.44
616.43	1086.43
616.78	1087.58
617.13	1085.07
617.47	1082.90
617.82	1083.32
618.17	1079.57
618.51	1082.36
618.86	1084.37
619.21	1086.17
619.55	1086.78
619.90	1088.51
620.25	1085.91
620.59	1085.07
620.94	1085.10
621.29	1082.92
621.63	1084.21
621.98	1086.08
622.32	1088.40
622.67	1088.21
623.02	1088.42
623.36	1089.94
623.71	1087.51
624.05	1087.23
624.40	1085.54
624.75	1088.00
625.09	1084.28
625.44	1083.08
625.78	1084.51
626.13	1089.00
626.48	1088.23
626.82	1090.27
627.17	1093.22
627.51	1089.07
627.86	1084.56
628.20	1085.52
628.55	1088.33
628.89	1088.07
629.24	1089.22
629.58	1088.72
629.93	1084.56
630.28	1083.88
630.62	1082.17
630.97	1081.91
631.31	1082.43
631.66	1083.97
632.00	1081.42
632.35	1079.57
632.69	1076.08
633.04	1077.56
633.38	1077.72
633.73	1077.68
634.07	1078.66
634.42	1081.96
634.76	1081.16
635.11	1084.09
635.45	1087.04
635.79	1087.44
636.14	1086.48
636.48	1085.89
636.83	1082.26
637.17	1079.78
637.52	1079.46
637.86	1080.11
638.21	1081.68
638.55	1083.41
638.89	1081.58
639.24	1083.88
639.58	1085.03
639.93	1084.07
640.27	1084.67
640.61	1089.22
640.96	1091.34
641.30	1089.75
641.65	1091.53
641.99	1087.30
642.33	1082.38
642.68	1077.86
643.02	1078.19
643.37	1074.87
643.71	1077.28
644.05	1079.50
644.40	1081.87
644.74	1080.37
645.08	1081.70
645.43	1080.70
645.77	1081.42
646.11	1082.94
646.46	1086.29
646.80	1087.18
647.14	1088.00
647.49	1086.01
647.83	1083.81
648.17	1081.21
648.52	1078.03
648.86	1078.66
649.20	1081.33
649.55	1081.26
649.89	1083.08
650.23	1086.20
650.57	1086.06
650.92	1085.33
651.26	1081.16
651.60	1083.08
651.95	1085.91
652.29	1084.74
652.63	1082.12
652.97	1087.55
653.32	1085.35
653.66	1082.03
654.00	1083.62
654.34	1081.40
654.69	1080.32
655.03	1076.97
655.37	1077.79
655.71	1078.52
656.05	1085.42
656.40	1082.64
656.74	1085.49
657.08	1084.67
657.42	1083.01
657.76	1080.84
658.11	1084.70
658.45	1084.84
658.79	1082.73
659.13	1083.48
659.47	1084.70
659.82	1083.81
660.16	1083.55
660.50	1083.81
660.84	1085.40
661.18	1083.20
661.52	1082.73
661.87	1083.06
662.21	1087.55
662.55	1084.86
662.89	1086.59
663.23	1087.79
663.57	1087.09
663.91	1083.67
664.25	1086.22
664.60	1086.41
664.94	1085.31
665.28	1086.52
665.62	1090.74
665.96	1089.22
666.30	1086.17
666.64	1083.20
666.98	1081.96
667.32	1077.72
667.66	1079.34
668.01	1080.79
668.35	1084.14
668.69	1088.02
669.03	1090.03
669.37	1090.29
669.71	1090.78
670.05	1091.84
670.39	1090.78
670.73	1086.92
671.07	1082.15
671.41	1081.19
671.75	1076.51
672.09	1075.08
672.43	1077.84
672.77	1080.58
673.11	1078.99
673.45	1081.44
673.79	1081.94
674.13	1081.00
674.47	1080.60
674.81	1082.90
675.15	1084.32
675.49	1079.85
675.83	1079.95
676.17	1080.86
676.51	1081.51
676.85	1082.87
677.19	1085.19
677.53	1083.81
677.87	1082.33
678.21	1081.94
678.55	1077.54
678.89	1079.76
679.23	1080.58
679.57	1080.77
679.90	1078.85
680.24	1080.32
680.58	1076.44
680.92	1075.41
681.26	1074.98
681.60	1079.69
681.94	1078.92
682.28	1079.29
682.62	1080.04
682.96	1083.32
683.29	1080.06
683.63	1079.88
683.97	1080.58
684.31	1083.83
684.65	1079.46
684.99	1078.82
685.33	1081.21
685.67	1085.05
686.00	1082.57
686.34	1085.21
686.68	1085.12
687.02	1083.36
687.36	1079.76
687.70	1083.08
688.03	1082.71
688.37	1082.31
688.71	1086.24
689.05	1085.38
689.39	1082.15
689.72	1082.05
690.06	1081.00
690.40	1078.21
690.74	1081.56
691.08	1082.22
691.41	1079.50
691.75	1080.67
692.09	1081.14
692.43	1079.71
692.76	1080.32
693.10	1081.14
693.44	1078.94
693.78	1077.93
694.11	1078.03
694.45	1076.86
694.79	1077.21
695.13	1082.17
695.46	1080.32
695.80	1077.02
696.14	1079.81
696.48	1080.67
696.81	1080.30
697.15	1082.03
697.49	1086.83
697.82	1083.62
698.16	1083.15
698.50	1081.07
698.83	1084.04
699.17	1080.77
699.51	1082.10
699.84	1083.53
700.18	1084.81
700.52	1081.37
700.85	1086.15
701.19	1083.93
701.53	1083.88
701.86	1084.53
702.20	1085.00
702.54	1080.58
702.87	1078.52
703.21	1078.36
703.55	1075.38
703.88	1075.69
704.22	1076.18
704.55	1080.41
704.89	1077.18
705.23	1079.90
705.56	1078.52
705.90	1081.09
706.23	1079.64
706.57	1083.08
706.91	1081.40
707.24	1080.20
707.58	1077.79
707.91	1079.31
708.25	1077.44
708.58	1077.00
708.92	1079.34
709.26	1080.84
709.59	1079.99
709.93	1081.91
710.26	1081.82
710.60	1082.85
710.93	1081.77
711.27	1081.12
711.60	1081.66
711.94	1084.02
712.27	1084.46
712.61	1082.03
712.94	1083.15
713.28	1081.77
713.61	1081.16
713.95	1082.01
714.28	1086.36
714.62	1086.15
714.95	1086.36
715.29	1083.62
715.62	1081.40
715.96	1077.86
716.29	1079.01
716.63	1078.73
716.96	1080.88
717.29	1080.56
717.63	1080.81
717.96	1078.89
718.30	1078.45
718.63	1078.24
718.97	1079.46
719.30	1079.48
719.63	1082.26
719.97	1081.23
720.30	1080.88
720.64	1076.53
720.97	1075.83
721.30	1071.26
721.64	1073.91
721.97	1069.93
722.31	1070.77
722.64	1070.75
722.97	1076.72
723.31	1074.82
723.64	1077.54
723.97	1078.89
724.31	1079.71
724.64	1075.10
724.98	1077.35
725.31	1080.39
725.64	1081.49
725.98	1080.02
726.31	1080.79
726.64	1078.57
726.97	1074.52
727.31	1074.05
727.64	1072.81
727.97	1074.82
728.31	1075.90
728.64	1075.76
728.97	1075.48
729.31	1078.57
729.64	1074.33
729.97	1074.42
730.30	1073.56
730.64	1072.92
730.97	1070.65
731.30	1075.90
731.63	1073.88
731.97	1078.59
732.30	1085.19
732.63	1083.27
732.96	1081.54
733.30	1083.64
733.63	1084.74
733.96	1080.60
734.29	1086.45
734.63	1084.74
734.96	1086.22
735.29	1086.22
735.62	1082.61
735.95	1081.16
736.29	1082.08
736.62	1081.56
736.95	1079.10
737.28	1081.54
737.61	1084.42
737.94	1083.36
738.28	1085.12
738.61	1083.53
738.94	1085.03
739.27	1082.19
739.60	1080.20
739.93	1077.00
740.27	1080.27
740.60	1080.95
740.93	1079.95
741.26	1082.01
741.59	1084.93
741.92	1082.85
742.25	1079.88
742.58	1080.81
742.91	1080.65
743.25	1077.96
743.58	1081.12
743.91	1078.78
744.24	1078.52
744.57	1079.13
744.90	1079.38
745.23	1078.85
745.56	1079.43
745.89	1076.93
746.22	1074.66
746.55	1072.67
746.88	1072.57
747.21	1073.02
747.54	1078.80
747.87	1081.91
748.20	1084.21
748.53	1083.81
748.87	1085.82
749.20	1081.05
749.53	1077.98
749.86	1078.43
750.19	1078.94
750.52	1081.51
750.85	1084.63
751.18	1085.96
751.51	1084.14
751.84	1078.94
752.16	1078.12
752.49	1075.48
752.82	1075.48
753.15	1074.73
753.48	1078.10
753.81	1073.44
754.14	1074.61
754.47	1073.95
754.80	1076.11
755.13	1076.62
755.46	1078.47
755.79	1079.38
756.12	1081.63
756.45	1082.97
756.78	1085.24
757.11	1086.78
757.43	1086.31
757.76	1086.80
758.09	1087.79
758.42	1086.45
758.75	1085.19
759.08	1082.43
759.41	1079.06
759.74	1077.58
760.07	1075.41
760.39	1073.70
760.72	1075.66
761.05	1079.22
761.38	1077.54
761.71	1076.60
762.04	1076.48
762.36	1076.86
762.69	1077.00
763.02	1077.91
763.35	1080.67
763.68	1082.90
764.01	1079.99
