SpectraSuite Data File
++++++++++++++++++++++++++++++++++++
Date: Mon Aug 26 10:22:03 PDT 2019
User: corrico
Dark Spectrum Present: No
Reference Spectrum Present: No
Number of Sampled Component Spectra: 1
Spectrometers: USB2+H06089
Integration Time (usec): 2000 (USB2+H06089)
Spectra Averaged: 20 (USB2+H06089)
Boxcar Smoothing: 2 (USB2+H06089)
Correct for Electrical Dark: No (USB2+H06089)
Strobe/Lamp Enabled: No (USB2+H06089)
Correct for Detector Non-linearity: No (USB2+H06089)
Correct for Stray Light: No (USB2+H06089)
Number of Pixels in Processed Spectrum: 2048
>>>>>Begin Processed Spectral Data<<<<<
339.70	1021.18
340.07	1021.18
340.45	992.53
340.82	973.36
341.19	951.19
341.57	925.07
341.94	915.73
342.31	906.86
342.69	903.96
343.06	900.59
343.43	901.97
343.81	900.10
344.18	906.16
344.55	908.67
344.93	917.28
345.30	925.07
345.67	931.04
346.04	934.06
346.42	942.37
346.79	947.36
347.16	954.35
347.54	961.77
347.91	971.37
348.28	979.94
348.65	990.68
349.03	1000.60
349.40	1014.01
349.77	1022.49
350.14	1028.99
350.52	1037.75
350.89	1044.39
351.26	1047.25
351.63	1053.33
352.01	1055.72
352.38	1054.79
352.75	1055.79
353.12	1059.33
353.50	1059.49
353.87	1066.49
354.24	1071.29
354.61	1074.19
354.98	1076.51
355.36	1083.90
355.73	1084.25
356.10	1087.62
356.47	1094.81
356.84	1095.96
357.22	1094.06
357.59	1092.96
357.96	1091.39
358.33	1086.71
358.70	1086.38
359.08	1084.79
359.45	1085.73
359.82	1085.19
360.19	1084.25
360.56	1081.82
360.94	1084.28
361.31	1085.21
361.68	1086.55
362.05	1085.26
362.42	1082.24
362.79	1078.99
363.16	1074.70
363.54	1072.34
363.91	1073.70
364.28	1074.63
364.65	1073.16
365.02	1075.59
365.39	1072.01
365.76	1071.17
366.14	1072.29
366.51	1071.19
366.88	1066.79
367.25	1069.32
367.62	1068.64
367.99	1068.41
368.36	1070.58
368.73	1073.02
369.10	1071.68
369.48	1073.81
369.85	1073.53
370.22	1073.46
370.59	1073.25
370.96	1077.49
371.33	1073.91
371.70	1075.78
372.07	1079.31
372.44	1079.17
372.81	1075.69
373.18	1077.54
373.55	1077.14
373.93	1073.81
374.30	1075.69
374.67	1076.74
375.04	1078.68
375.41	1079.92
375.78	1079.90
376.15	1077.89
376.52	1079.36
376.89	1079.43
377.26	1079.48
377.63	1080.79
378.00	1084.74
378.37	1082.87
378.74	1081.26
379.11	1081.28
379.48	1081.87
379.85	1080.04
380.22	1081.44
380.59	1083.81
380.96	1084.60
381.33	1084.60
381.70	1084.49
382.07	1084.11
382.44	1081.40
382.81	1078.73
383.18	1078.26
383.55	1075.76
383.92	1076.76
384.29	1077.18
384.66	1079.76
385.03	1081.49
385.40	1083.57
385.77	1084.18
386.14	1085.14
386.51	1082.40
386.88	1078.50
387.25	1079.03
387.62	1076.83
387.99	1076.74
388.36	1078.36
388.73	1081.42
389.10	1082.05
389.46	1081.42
389.83	1083.60
390.20	1085.94
390.57	1088.02
390.94	1089.80
391.31	1092.54
391.68	1092.26
392.05	1092.37
392.42	1088.77
392.79	1088.02
393.16	1084.67
393.53	1081.73
393.89	1077.40
394.26	1077.21
394.63	1078.54
395.00	1082.99
395.37	1084.35
395.74	1089.00
396.11	1091.98
396.48	1088.84
396.84	1089.29
397.21	1089.40
397.58	1089.52
397.95	1089.12
398.32	1092.77
398.69	1090.90
399.06	1092.75
399.42	1090.36
399.79	1090.43
400.16	1090.10
400.53	1092.52
400.90	1092.63
401.27	1092.47
401.64	1094.04
402.00	1093.24
402.37	1091.95
402.74	1092.05
403.11	1092.05
403.48	1092.19
403.84	1091.51
404.21	1091.84
404.58	1088.84
404.95	1091.11
405.32	1089.71
405.68	1089.22
406.05	1087.34
406.42	1087.30
406.79	1085.82
407.16	1084.84
407.52	1084.53
407.89	1087.13
408.26	1092.28
408.63	1095.56
408.99	1096.05
409.36	1097.92
409.73	1102.58
410.10	1099.86
410.47	1099.65
410.83	1100.08
411.20	1101.08
411.57	1095.53
411.94	1095.51
412.30	1094.34
412.67	1094.67
413.04	1090.48
413.40	1090.76
413.77	1092.09
414.14	1094.90
414.51	1094.83
414.87	1100.78
415.24	1104.03
415.61	1106.30
415.97	1104.73
416.34	1107.78
416.71	1108.31
417.08	1108.81
417.44	1109.44
417.81	1108.88
418.18	1110.58
418.54	1110.05
418.91	1112.01
419.28	1110.37
419.64	1113.72
420.01	1113.74
420.38	1113.79
420.74	1112.22
421.11	1114.61
421.48	1116.86
421.84	1119.41
422.21	1125.89
422.58	1131.37
422.94	1135.28
423.31	1136.45
423.68	1136.89
424.04	1135.49
424.41	1136.21
424.77	1139.05
425.14	1143.47
425.51	1152.74
425.87	1155.50
426.24	1159.34
426.61	1164.56
426.97	1172.84
427.34	1179.42
427.70	1190.33
428.07	1198.05
428.44	1206.78
428.80	1214.20
429.17	1218.93
429.53	1227.61
429.90	1240.20
430.27	1249.85
430.63	1257.52
431.00	1270.23
431.36	1282.82
431.73	1294.95
432.09	1310.72
432.46	1332.19
432.83	1347.21
433.19	1364.86
433.56	1386.70
433.92	1409.40
434.29	1428.57
434.65	1457.87
435.02	1482.85
435.38	1511.12
435.75	1539.25
436.11	1572.65
436.48	1605.00
436.84	1648.81
437.21	1687.99
437.57	1731.15
437.94	1777.43
438.30	1830.74
438.67	1879.36
439.03	1936.98
439.40	1997.86
439.76	2059.30
440.13	2125.30
440.49	2200.74
440.86	2274.53
441.22	2357.20
441.59	2440.62
441.95	2535.69
442.32	2629.36
442.68	2736.20
443.05	2844.03
443.41	2963.05
443.78	3079.82
444.14	3204.52
444.51	3328.85
444.87	3475.53
445.24	3620.74
445.60	3779.12
445.96	3940.06
446.33	4128.10
446.69	4306.63
447.06	4507.75
447.42	4708.39
447.79	4920.63
448.15	5163.43
448.51	5418.11
448.88	5714.56
449.24	5992.66
449.61	6326.98
449.97	6657.07
450.33	7004.36
450.70	7322.46
451.06	7720.19
451.43	8090.18
451.79	8507.31
452.15	8952.71
452.52	9438.98
452.88	9928.60
453.24	10479.42
453.61	11095.50
453.97	11702.35
454.34	12313.39
454.70	13028.19
455.06	13735.43
455.43	14402.49
455.79	15048.40
456.15	15820.01
456.52	16518.96
456.88	17407.83
457.24	18264.04
457.61	19291.26
457.97	20216.24
458.33	21162.16
458.70	22036.87
459.06	22899.75
459.42	23796.06
459.79	24659.35
460.15	25700.16
460.51	26652.76
460.88	27666.07
461.24	28560.74
461.60	29593.52
461.96	30484.94
462.33	31378.42
462.69	32308.57
463.05	33297.96
463.42	34179.33
463.78	35005.05
464.14	35665.93
464.50	36323.48
464.87	36799.85
465.23	37121.22
465.59	37497.58
465.95	37854.56
466.32	38143.36
466.68	38458.65
467.04	38659.80
467.40	38751.01
467.77	38911.83
468.13	38865.16
468.49	38719.55
468.85	38628.32
469.22	38498.91
469.58	38205.69
469.94	37987.60
470.30	37746.12
470.66	37390.48
471.03	36838.65
471.39	36438.23
471.75	35764.04
472.11	35074.47
472.47	34559.84
472.84	34080.94
473.20	33424.54
473.56	33085.74
473.92	32589.95
474.28	32066.56
474.65	31505.39
475.01	30950.94
475.37	30222.68
475.73	29586.08
476.09	28894.50
476.45	28291.51
476.81	27751.99
477.18	27188.41
477.54	26739.05
477.90	26351.90
478.26	25845.13
478.62	25391.51
478.98	25057.63
479.34	24712.78
479.71	24246.12
480.07	23903.61
480.43	23524.79
480.79	23070.82
481.15	22629.26
481.51	22291.31
481.87	21967.61
482.23	21614.80
482.59	21320.24
482.96	20981.45
483.32	20642.10
483.68	20246.52
484.04	19903.10
484.40	19509.98
484.76	19140.27
485.12	18749.49
485.48	18408.85
485.84	18012.79
486.20	17662.31
486.56	17269.69
486.92	16941.29
487.28	16570.97
487.64	16217.41
488.00	15844.94
488.37	15482.78
488.73	15043.47
489.09	14599.51
489.45	14180.77
489.81	13774.97
490.17	13403.85
490.53	13076.27
490.89	12759.73
491.25	12420.92
491.61	12064.81
491.97	11707.41
492.33	11337.37
492.69	11004.59
493.05	10689.93
493.41	10404.87
493.77	10108.47
494.13	9842.28
494.49	9563.10
494.85	9296.33
495.21	9017.69
495.57	8777.22
495.93	8532.63
496.29	8295.51
496.64	8087.53
497.00	7881.61
497.36	7665.04
497.72	7466.15
498.08	7276.47
498.44	7072.02
498.80	6873.40
499.16	6695.15
499.52	6511.86
499.88	6349.15
500.24	6199.77
500.60	6074.49
500.96	5936.32
501.32	5808.06
501.68	5658.95
502.03	5504.26
502.39	5353.48
502.75	5215.04
503.11	5074.47
503.47	4957.30
503.83	4847.25
504.19	4732.73
504.55	4618.09
504.91	4509.81
505.26	4399.11
505.62	4288.54
505.98	4183.75
506.34	4079.37
506.70	3982.56
507.06	3882.04
507.42	3786.94
507.78	3698.33
508.13	3611.17
508.49	3526.72
508.85	3450.89
509.21	3377.84
509.57	3303.85
509.93	3235.84
510.28	3163.00
510.64	3099.20
511.00	3028.86
511.36	2963.40
511.72	2900.84
512.07	2843.54
512.43	2785.99
512.79	2734.49
513.15	2683.59
513.51	2633.13
513.86	2582.22
514.22	2534.38
514.58	2487.31
514.94	2443.07
515.30	2396.33
515.65	2353.74
516.01	2320.78
516.37	2281.04
516.73	2244.88
517.08	2213.51
517.44	2180.09
517.80	2142.18
518.16	2112.08
518.51	2079.07
518.87	2049.91
519.23	2023.49
519.59	1990.67
519.94	1963.05
520.30	1938.67
520.66	1910.37
521.01	1880.74
521.37	1862.29
521.73	1840.32
522.09	1819.91
522.44	1796.83
522.80	1778.22
523.16	1750.98
523.51	1730.69
523.87	1710.63
524.23	1694.34
524.58	1676.95
524.94	1662.81
525.30	1642.14
525.65	1624.45
526.01	1605.16
526.37	1586.86
526.72	1571.23
527.08	1558.66
527.44	1540.17
527.79	1527.22
528.15	1515.26
528.51	1504.68
528.86	1490.50
529.22	1481.11
529.58	1464.87
529.93	1452.04
530.29	1434.77
530.65	1422.88
531.00	1411.88
531.36	1402.29
531.71	1391.05
532.07	1383.91
532.43	1375.56
532.78	1365.33
533.14	1358.33
533.49	1351.82
533.85	1343.28
534.21	1334.67
534.56	1328.14
534.92	1321.09
535.27	1311.94
535.63	1302.20
535.98	1296.42
536.34	1288.91
536.69	1284.09
537.05	1277.86
537.41	1275.87
537.76	1268.97
538.12	1267.21
538.47	1260.54
538.83	1255.09
539.18	1248.65
539.54	1248.25
539.89	1242.15
540.25	1239.45
540.60	1236.32
540.96	1233.84
541.31	1226.91
541.67	1222.77
542.02	1216.63
542.38	1213.50
542.73	1210.83
543.09	1208.89
543.44	1207.27
543.80	1204.35
544.15	1202.92
544.51	1197.98
544.86	1195.01
545.22	1189.53
545.57	1187.21
545.93	1179.77
546.28	1179.09
546.64	1176.82
546.99	1175.42
547.35	1175.16
547.70	1178.67
548.05	1174.15
548.41	1170.95
548.76	1169.50
549.12	1166.71
549.47	1159.74
549.83	1160.37
550.18	1160.09
550.53	1156.32
550.89	1156.20
551.24	1155.59
551.60	1153.91
551.95	1150.89
552.30	1152.55
552.66	1151.08
553.01	1151.61
553.37	1146.91
553.72	1146.96
554.07	1140.19
554.43	1135.51
554.78	1131.30
555.13	1130.78
555.49	1125.42
555.84	1126.06
556.19	1124.00
556.55	1124.65
556.90	1124.09
557.26	1123.83
557.61	1122.94
557.96	1123.60
558.32	1125.17
558.67	1124.09
559.02	1125.10
559.37	1122.05
559.73	1121.28
560.08	1116.79
560.43	1114.87
560.79	1115.85
561.14	1118.42
561.49	1117.30
561.85	1118.14
562.20	1117.40
562.55	1115.38
562.90	1111.50
563.26	1112.29
563.61	1113.02
563.96	1114.68
564.32	1111.75
564.67	1115.90
565.02	1112.18
565.37	1109.06
565.73	1105.83
566.08	1105.86
566.43	1102.77
566.78	1102.79
567.14	1101.99
567.49	1101.71
567.84	1101.36
568.19	1102.88
568.54	1104.73
568.90	1103.59
569.25	1104.33
569.60	1104.45
569.95	1102.72
570.31	1101.08
570.66	1103.54
571.01	1100.29
571.36	1097.22
571.71	1093.73
572.06	1095.07
572.42	1096.14
572.77	1099.44
573.12	1102.44
573.47	1102.56
573.82	1100.71
574.18	1097.34
574.53	1096.42
574.88	1095.23
575.23	1097.88
575.58	1096.40
575.93	1097.38
576.28	1098.39
576.64	1097.15
576.99	1096.00
577.34	1096.82
577.69	1098.30
578.04	1097.69
578.39	1099.86
578.74	1097.78
579.09	1097.22
579.44	1094.93
579.80	1092.54
580.15	1091.70
580.50	1090.48
580.85	1091.98
581.20	1092.16
581.55	1092.33
581.90	1092.16
582.25	1095.98
582.60	1094.79
582.95	1093.50
583.30	1093.50
583.65	1093.03
584.00	1093.66
584.35	1092.98
584.71	1092.19
585.06	1092.98
585.41	1094.39
585.76	1091.13
586.11	1093.33
586.46	1092.12
586.81	1091.77
587.16	1091.32
587.51	1090.64
587.86	1088.70
588.21	1091.60
588.56	1090.29
588.91	1089.89
589.26	1091.56
589.61	1090.99
589.96	1088.79
590.31	1086.71
590.66	1083.76
591.01	1081.87
591.36	1085.26
591.71	1085.03
592.06	1088.68
592.41	1089.05
592.76	1087.20
593.10	1086.20
593.45	1088.19
593.80	1088.40
594.15	1092.80
594.50	1097.29
594.85	1095.11
595.20	1094.76
595.55	1093.12
595.90	1089.99
596.25	1089.68
596.60	1090.32
596.95	1088.72
597.30	1087.55
597.64	1097.45
597.99	1097.97
598.34	1095.37
598.69	1094.43
599.04	1096.92
599.39	1085.12
599.74	1082.59
600.09	1085.96
600.44	1089.22
600.78	1088.14
601.13	1088.30
601.48	1087.37
601.83	1085.45
602.18	1084.28
602.53	1085.38
602.88	1087.18
603.22	1089.07
603.57	1090.17
603.92	1088.84
604.27	1088.79
604.62	1084.44
604.97	1083.53
605.31	1080.91
605.66	1081.47
606.01	1080.72
606.36	1085.52
606.71	1085.68
607.05	1088.35
607.40	1086.87
607.75	1086.50
608.10	1086.20
608.44	1087.09
608.79	1083.55
609.14	1085.26
609.49	1086.15
609.84	1082.97
610.18	1084.18
610.53	1087.04
610.88	1086.76
611.23	1084.49
611.57	1087.32
611.92	1086.69
612.27	1090.32
612.62	1090.39
612.96	1093.92
613.31	1094.48
613.66	1095.37
614.00	1090.88
614.35	1092.14
614.70	1089.50
615.05	1089.71
615.39	1088.51
615.74	1090.13
616.09	1091.42
616.43	1092.49
616.78	1091.60
617.13	1089.99
617.47	1088.79
617.82	1085.89
618.17	1083.43
618.51	1084.74
618.86	1086.01
619.21	1084.09
619.55	1085.49
619.90	1087.67
620.25	1088.72
620.59	1087.48
620.94	1085.28
621.29	1083.90
621.63	1079.85
621.98	1077.11
622.32	1080.65
622.67	1086.73
623.02	1087.18
623.36	1091.13
623.71	1090.29
624.05	1086.62
624.40	1084.67
624.75	1085.96
625.09	1085.49
625.44	1085.40
625.78	1087.51
626.13	1087.51
626.48	1086.01
626.82	1084.09
627.17	1086.71
627.51	1085.19
627.86	1083.18
628.20	1081.40
628.55	1085.24
628.89	1081.49
629.24	1085.05
629.58	1088.42
629.93	1091.27
630.28	1086.73
630.62	1088.49
630.97	1081.87
631.31	1078.43
631.66	1076.44
632.00	1075.17
632.35	1075.08
632.69	1076.08
633.04	1080.16
633.38	1082.50
633.73	1086.92
634.07	1085.80
634.42	1085.77
634.76	1083.55
635.11	1082.19
635.45	1080.48
635.79	1083.34
636.14	1084.86
636.48	1082.94
636.83	1084.58
637.17	1086.48
637.52	1082.33
637.86	1085.87
638.21	1087.69
638.55	1083.88
638.89	1083.62
639.24	1083.76
639.58	1079.41
639.93	1076.15
640.27	1077.28
640.61	1077.89
640.96	1081.75
641.30	1082.66
641.65	1084.86
641.99	1085.07
642.33	1083.88
642.68	1079.71
643.02	1080.63
643.37	1085.47
643.71	1086.83
644.05	1087.55
644.40	1089.50
644.74	1088.65
645.08	1085.80
645.43	1084.21
645.77	1082.71
646.11	1083.08
646.46	1082.45
646.80	1080.11
647.14	1083.06
647.49	1080.25
647.83	1078.82
648.17	1078.75
648.52	1081.63
648.86	1080.04
649.20	1081.96
649.55	1080.88
649.89	1082.01
650.23	1082.03
650.57	1081.56
650.92	1081.84
651.26	1085.19
651.60	1086.73
651.95	1085.38
652.29	1084.93
652.63	1085.49
652.97	1083.93
653.32	1078.78
653.66	1078.85
654.00	1080.06
654.34	1079.01
654.69	1079.10
655.03	1084.07
655.37	1083.93
655.71	1082.50
656.05	1081.84
656.40	1083.41
656.74	1081.70
657.08	1079.69
657.42	1079.81
657.76	1079.43
658.11	1076.86
658.45	1076.06
658.79	1077.72
659.13	1078.26
659.47	1079.31
659.82	1080.84
660.16	1081.68
660.50	1082.40
660.84	1084.28
661.18	1087.27
661.52	1087.76
661.87	1087.81
662.21	1086.92
662.55	1084.16
662.89	1082.38
663.23	1080.77
663.57	1077.21
663.91	1078.00
664.25	1080.32
664.60	1081.23
664.94	1080.44
665.28	1085.26
665.62	1083.53
665.96	1083.22
666.30	1079.36
666.64	1080.63
666.98	1080.88
667.32	1084.35
667.66	1083.29
668.01	1085.17
668.35	1083.81
668.69	1083.57
669.03	1083.93
669.37	1082.52
669.71	1085.35
670.05	1088.21
670.39	1085.33
670.73	1084.91
671.07	1086.97
671.41	1085.52
671.75	1083.76
672.09	1083.74
672.43	1081.82
672.77	1084.60
673.11	1083.88
673.45	1085.73
673.79	1084.35
674.13	1085.10
674.47	1081.30
674.81	1082.80
675.15	1078.50
675.49	1081.91
675.83	1080.65
676.17	1082.99
676.51	1081.07
676.85	1083.36
677.19	1080.70
677.53	1080.09
677.87	1077.72
678.21	1078.28
678.55	1077.70
678.89	1079.06
679.23	1081.12
679.57	1081.14
679.90	1081.96
680.24	1083.74
680.58	1083.57
680.92	1080.56
681.26	1080.98
681.60	1081.89
681.94	1082.03
682.28	1084.74
682.62	1086.08
682.96	1088.09
683.29	1083.67
683.63	1082.99
683.97	1083.64
684.31	1083.93
684.65	1083.25
684.99	1089.78
685.33	1091.30
685.67	1087.04
686.00	1086.15
686.34	1082.99
686.68	1079.48
687.02	1077.44
687.36	1074.89
687.70	1077.09
688.03	1079.92
688.37	1080.02
688.71	1082.66
689.05	1087.06
689.39	1085.42
689.72	1083.95
690.06	1083.50
690.40	1081.05
690.74	1080.70
691.08	1082.69
691.41	1083.27
691.75	1083.06
692.09	1086.92
692.43	1087.97
692.76	1087.95
693.10	1088.47
693.44	1090.85
693.78	1089.85
694.11	1090.01
694.45	1087.04
694.79	1086.36
695.13	1083.86
695.46	1081.23
695.80	1082.47
696.14	1081.82
696.48	1083.71
696.81	1086.76
697.15	1086.41
697.49	1083.13
697.82	1087.88
698.16	1084.70
698.50	1080.02
698.83	1081.87
699.17	1081.91
699.51	1078.05
699.84	1077.25
700.18	1079.27
700.52	1078.12
700.85	1078.50
701.19	1078.99
701.53	1077.91
701.86	1076.81
702.20	1078.00
702.54	1077.58
702.87	1078.87
703.21	1083.79
703.55	1085.68
703.88	1085.56
704.22	1086.29
704.55	1084.93
704.89	1084.02
705.23	1083.71
705.56	1082.36
705.90	1082.33
706.23	1083.50
706.57	1080.88
706.91	1080.41
707.24	1083.22
707.58	1082.94
707.91	1084.14
708.25	1084.37
708.58	1084.32
708.92	1084.11
709.26	1083.04
709.59	1081.98
709.93	1085.80
710.26	1083.41
710.60	1085.42
710.93	1088.14
711.27	1087.46
711.60	1082.03
711.94	1084.39
712.27	1080.77
712.61	1081.05
712.94	1082.05
713.28	1081.12
713.61	1081.96
713.95	1080.41
714.28	1077.56
714.62	1078.64
714.95	1082.01
715.29	1081.26
715.62	1081.77
715.96	1083.64
716.29	1081.68
716.63	1079.85
716.96	1078.03
717.29	1079.22
717.63	1077.82
717.96	1078.24
718.30	1082.57
718.63	1081.49
718.97	1075.73
719.30	1077.91
719.63	1077.58
719.97	1075.48
720.30	1078.36
720.64	1083.22
720.97	1079.99
721.30	1079.06
721.64	1076.48
721.97	1073.95
722.31	1074.24
722.64	1073.81
722.97	1074.10
723.31	1075.97
723.64	1076.81
723.97	1073.95
724.31	1076.41
724.64	1075.92
724.98	1074.19
725.31	1076.69
725.64	1078.78
725.98	1079.10
726.31	1076.95
726.64	1080.39
726.97	1078.17
727.31	1078.66
727.64	1077.96
727.97	1080.86
728.31	1081.00
728.64	1084.16
728.97	1081.58
729.31	1083.50
729.64	1083.08
729.97	1081.23
730.30	1077.33
730.64	1078.36
730.97	1077.56
731.30	1080.30
731.63	1082.50
731.97	1085.10
732.30	1085.94
732.63	1086.64
732.96	1084.44
733.30	1082.61
733.63	1081.23
733.96	1078.47
734.29	1078.61
734.63	1078.17
734.96	1075.34
735.29	1076.13
735.62	1076.39
735.95	1068.95
736.29	1070.61
736.62	1076.01
736.95	1077.25
737.28	1079.90
737.61	1084.32
737.94	1081.37
738.28	1078.82
738.61	1076.72
738.94	1075.97
739.27	1076.48
739.60	1077.30
739.93	1079.08
740.27	1077.23
740.60	1077.23
740.93	1078.57
741.26	1077.89
741.59	1077.70
741.92	1081.40
742.25	1079.88
742.58	1078.89
742.91	1081.16
743.25	1079.64
743.58	1079.67
743.91	1084.16
744.24	1084.53
744.57	1083.93
744.90	1084.63
745.23	1084.70
745.56	1085.40
745.89	1086.59
746.22	1086.50
746.55	1087.32
746.88	1083.69
747.21	1080.70
747.54	1079.88
747.87	1079.97
748.20	1078.61
748.53	1082.26
748.87	1081.91
749.20	1081.66
749.53	1082.29
749.86	1082.69
750.19	1081.12
750.52	1081.84
750.85	1083.97
751.18	1084.14
751.51	1079.74
751.84	1077.42
752.16	1076.48
752.49	1071.54
752.82	1071.61
753.15	1072.50
753.48	1073.88
753.81	1073.51
754.14	1075.10
754.47	1076.51
754.80	1079.81
755.13	1081.68
755.46	1082.78
755.79	1083.81
756.12	1080.98
756.45	1078.82
756.78	1077.33
757.11	1076.15
757.43	1077.35
757.76	1076.88
758.09	1077.25
758.42	1077.72
758.75	1079.95
759.08	1078.78
759.41	1078.85
759.74	1082.90
760.07	1080.56
760.39	1079.50
760.72	1078.52
761.05	1078.61
761.38	1070.96
761.71	1074.00
762.04	1076.34
762.36	1080.02
762.69	1081.87
763.02	1087.37
763.35	1085.96
763.68	1078.80
764.01	1076.79
