SpectraSuite Data File
++++++++++++++++++++++++++++++++++++
Date: Mon Aug 26 10:22:02 PDT 2019
User: corrico
Dark Spectrum Present: No
Reference Spectrum Present: No
Number of Sampled Component Spectra: 1
Spectrometers: USB2+H06089
Integration Time (usec): 2000 (USB2+H06089)
Spectra Averaged: 20 (USB2+H06089)
Boxcar Smoothing: 2 (USB2+H06089)
Correct for Electrical Dark: No (USB2+H06089)
Strobe/Lamp Enabled: No (USB2+H06089)
Correct for Detector Non-linearity: No (USB2+H06089)
Correct for Stray Light: No (USB2+H06089)
Number of Pixels in Processed Spectrum: 2048
>>>>>Begin Processed Spectral Data<<<<<
339.70	1021.29
340.07	1021.29
340.45	993.37
340.82	972.12
341.19	951.78
341.57	927.25
341.94	913.21
342.31	902.60
342.69	896.26
343.06	890.57
343.43	889.64
343.81	890.83
344.18	896.80
344.55	905.27
344.93	911.43
345.30	919.22
345.67	925.59
346.04	932.87
346.42	938.23
346.79	947.12
347.16	952.36
347.54	961.23
347.91	967.11
348.28	978.02
348.65	985.41
349.03	998.24
349.40	1010.97
349.77	1022.35
350.14	1028.97
350.52	1039.50
350.89	1045.77
351.26	1049.15
351.63	1053.73
352.01	1059.14
352.38	1064.22
352.75	1066.54
353.12	1073.32
353.50	1074.89
353.87	1077.44
354.24	1078.43
354.61	1078.12
354.98	1077.35
355.36	1078.24
355.73	1079.81
356.10	1078.73
356.47	1082.45
356.84	1082.22
357.22	1083.11
357.59	1080.67
357.96	1083.48
358.33	1084.04
358.70	1081.54
359.08	1079.03
359.45	1078.24
359.82	1073.32
360.19	1071.80
360.56	1073.88
360.94	1074.98
361.31	1077.16
361.68	1081.70
362.05	1082.97
362.42	1081.61
362.79	1084.60
363.16	1082.64
363.54	1077.58
363.91	1075.17
364.28	1078.82
364.65	1075.36
365.02	1077.47
365.39	1080.04
365.76	1078.45
366.14	1074.59
366.51	1072.76
366.88	1072.48
367.25	1068.08
367.62	1069.25
367.99	1070.40
368.36	1075.71
368.73	1071.22
369.10	1073.42
369.48	1074.91
369.85	1073.39
370.22	1070.82
370.59	1073.21
370.96	1075.69
371.33	1075.50
371.70	1077.07
372.07	1076.74
372.44	1076.32
372.81	1075.43
373.18	1075.45
373.55	1073.91
373.93	1071.31
374.30	1073.00
374.67	1072.29
375.04	1073.23
375.41	1075.08
375.78	1076.65
376.15	1074.87
376.52	1072.81
376.89	1072.78
377.26	1071.38
377.63	1071.78
378.00	1073.79
378.37	1078.61
378.74	1079.10
379.11	1082.38
379.48	1082.10
379.85	1081.75
380.22	1080.53
380.59	1079.46
380.96	1077.96
381.33	1080.09
381.70	1079.22
382.07	1075.87
382.44	1075.57
382.81	1076.44
383.18	1076.51
383.55	1078.10
383.92	1083.46
384.29	1082.73
384.66	1082.76
385.03	1081.73
385.40	1082.19
385.77	1080.48
386.14	1079.88
386.51	1077.21
386.88	1076.62
387.25	1074.45
387.62	1073.95
387.99	1077.89
388.36	1079.15
388.73	1079.62
389.10	1082.94
389.46	1083.46
389.83	1081.12
390.20	1083.50
390.57	1087.20
390.94	1085.80
391.31	1084.39
391.68	1085.96
392.05	1088.61
392.42	1085.31
392.79	1086.38
393.16	1087.97
393.53	1087.34
393.89	1083.39
394.26	1085.96
394.63	1084.74
395.00	1084.93
395.37	1087.18
395.74	1089.68
396.11	1089.07
396.48	1090.83
396.84	1090.92
397.21	1088.68
397.58	1087.23
397.95	1086.15
398.32	1088.42
398.69	1086.27
399.06	1086.76
399.42	1085.59
399.79	1088.04
400.16	1083.11
400.53	1085.07
400.90	1085.77
401.27	1087.83
401.64	1085.63
402.00	1090.03
402.37	1089.19
402.74	1089.54
403.11	1091.91
403.48	1089.82
403.84	1087.69
404.21	1089.66
404.58	1089.75
404.95	1087.79
405.32	1089.75
405.68	1093.33
406.05	1093.22
406.42	1092.52
406.79	1091.37
407.16	1091.93
407.52	1089.78
407.89	1089.75
408.26	1091.30
408.63	1090.53
408.99	1091.04
409.36	1093.52
409.73	1093.78
410.10	1093.31
410.47	1094.04
410.83	1096.63
411.20	1094.01
411.57	1094.69
411.94	1096.40
412.30	1097.62
412.67	1097.27
413.04	1097.80
413.40	1099.68
413.77	1097.13
414.14	1099.35
414.51	1101.18
414.87	1100.57
415.24	1099.82
415.61	1099.58
415.97	1097.57
416.34	1096.05
416.71	1097.08
417.08	1096.63
417.44	1101.36
417.81	1102.79
418.18	1102.13
418.54	1103.70
418.91	1105.86
419.28	1104.10
419.64	1104.80
420.01	1105.25
420.38	1107.85
420.74	1108.34
421.11	1112.74
421.48	1116.37
421.84	1121.26
422.21	1122.43
422.58	1125.26
422.94	1126.27
423.31	1126.08
423.68	1129.68
424.04	1131.09
424.41	1131.18
424.77	1133.71
425.14	1140.00
425.51	1142.28
425.87	1146.58
426.24	1152.41
426.61	1156.46
426.97	1164.04
427.34	1167.55
427.70	1173.59
428.07	1178.37
428.44	1185.41
428.80	1188.59
429.17	1199.81
429.53	1209.73
429.90	1220.10
430.27	1229.76
430.63	1239.24
431.00	1247.46
431.36	1258.15
431.73	1271.85
432.09	1283.36
432.46	1298.90
432.83	1319.01
433.19	1334.50
433.56	1355.61
433.92	1376.68
434.29	1398.26
434.65	1415.98
435.02	1438.52
435.38	1459.93
435.75	1488.63
436.11	1516.57
436.48	1551.03
436.84	1587.42
437.21	1625.69
437.57	1660.17
437.94	1700.63
438.30	1739.25
438.67	1784.45
439.03	1832.73
439.40	1889.73
439.76	1944.19
440.13	2009.44
440.49	2074.96
440.86	2141.87
441.22	2216.51
441.59	2293.72
441.95	2375.01
442.32	2458.69
442.68	2554.69
443.05	2649.49
443.41	2749.50
443.78	2852.01
444.14	2967.89
444.51	3082.70
444.87	3218.66
445.24	3358.60
445.60	3499.55
445.96	3642.32
446.33	3806.55
446.69	3958.81
447.06	4134.65
447.42	4328.56
447.79	4531.21
448.15	4745.30
448.51	4975.25
448.88	5220.38
449.24	5452.84
449.61	5730.17
449.97	6029.59
450.33	6335.46
450.70	6638.65
451.06	7006.98
451.43	7349.75
451.79	7725.10
452.15	8122.97
452.52	8547.80
452.88	8988.08
453.24	9479.31
453.61	10002.09
453.97	10543.58
454.34	11080.77
454.70	11686.97
455.06	12291.32
455.43	12876.36
455.79	13437.65
456.15	14129.58
456.52	14795.46
456.88	15610.41
457.24	16419.14
457.61	17338.13
457.97	18181.68
458.33	19051.28
458.70	19896.31
459.06	20724.69
459.42	21613.19
459.79	22406.51
460.15	23293.25
460.51	24066.72
460.88	24867.21
461.24	25593.57
461.60	26459.52
461.96	27223.52
462.33	27998.66
462.69	28808.39
463.05	29690.98
463.42	30542.54
463.78	31303.40
464.14	31973.10
464.50	32674.25
464.87	33183.18
465.23	33499.46
465.59	33892.81
465.95	34244.59
466.32	34500.88
466.68	34757.63
467.04	34982.68
467.40	35109.74
467.77	35238.94
468.13	35233.68
468.49	35081.82
468.85	34945.67
469.22	34854.60
469.58	34653.92
469.94	34514.08
470.30	34366.95
470.66	34047.98
471.03	33453.28
471.39	32981.89
471.75	32254.81
472.11	31569.15
472.47	31094.67
472.84	30657.41
473.20	30020.06
473.56	29637.83
473.92	29092.93
474.28	28532.25
474.65	27994.87
475.01	27532.73
475.37	26960.77
475.73	26509.91
476.09	26013.07
476.45	25567.75
476.81	25144.12
477.18	24676.60
477.54	24262.46
477.90	23865.97
478.26	23404.61
478.62	22999.18
478.98	22702.10
479.34	22429.10
479.71	22098.61
480.07	21781.91
480.43	21438.09
480.79	21014.90
481.15	20575.39
481.51	20194.42
481.87	19875.60
482.23	19543.10
482.59	19260.62
482.96	18950.69
483.32	18649.48
483.68	18272.89
484.04	17921.86
484.40	17546.62
484.76	17214.27
485.12	16856.19
485.48	16590.07
485.84	16298.51
486.20	16011.68
486.56	15683.39
486.92	15391.92
487.28	15034.13
487.64	14672.19
488.00	14334.00
488.37	13962.96
488.73	13560.99
489.09	13184.73
489.45	12847.90
489.81	12504.59
490.17	12209.90
490.53	11912.34
490.89	11598.01
491.25	11276.33
491.61	10937.96
491.97	10615.27
492.33	10325.58
492.69	10065.57
493.05	9796.62
493.41	9545.20
493.77	9270.84
494.13	9002.45
494.49	8729.03
494.85	8469.56
495.21	8226.44
495.57	8014.60
495.93	7783.38
496.29	7567.07
496.64	7376.17
497.00	7178.47
497.36	6981.09
497.72	6820.44
498.08	6665.10
498.44	6498.17
498.80	6338.80
499.16	6175.25
499.52	5998.84
499.88	5837.72
500.24	5698.29
500.60	5562.12
500.96	5439.43
501.32	5318.75
501.68	5199.31
502.03	5067.19
502.39	4944.29
502.75	4825.53
503.11	4716.23
503.47	4606.10
503.83	4505.74
504.19	4398.22
504.55	4289.97
504.91	4187.08
505.26	4086.62
505.62	3979.47
505.98	3884.47
506.34	3789.63
506.70	3699.57
507.06	3613.69
507.42	3530.30
507.78	3446.37
508.13	3371.35
508.49	3291.24
508.85	3224.72
509.21	3160.66
509.57	3098.59
509.93	3034.95
510.28	2974.40
510.64	2915.32
511.00	2850.94
511.36	2789.40
511.72	2730.96
512.07	2679.47
512.43	2627.39
512.79	2585.03
513.15	2541.19
513.51	2498.08
513.86	2453.21
514.22	2407.50
514.58	2356.62
514.94	2316.66
515.30	2276.78
515.65	2235.16
516.01	2199.78
516.37	2171.22
516.73	2136.77
517.08	2106.55
517.44	2074.63
517.80	2047.31
518.16	2018.99
518.51	1988.19
518.87	1957.67
519.23	1934.90
519.59	1900.84
519.94	1872.52
520.30	1852.56
520.66	1827.86
521.01	1808.86
521.37	1790.74
521.73	1770.69
522.09	1746.77
522.44	1727.06
522.80	1707.61
523.16	1683.13
523.51	1664.52
523.87	1645.19
524.23	1629.46
524.58	1607.92
524.94	1596.43
525.30	1580.42
525.65	1568.21
526.01	1552.34
526.37	1541.64
526.72	1527.29
527.08	1512.03
527.44	1498.74
527.79	1485.26
528.15	1471.24
528.51	1456.66
528.86	1443.13
529.22	1432.64
529.58	1422.81
529.93	1411.02
530.29	1403.43
530.65	1396.25
531.00	1384.26
531.36	1376.28
531.71	1370.62
532.07	1362.07
532.43	1351.12
532.78	1346.49
533.14	1339.91
533.49	1331.44
533.85	1325.40
534.21	1321.33
534.56	1309.46
534.92	1301.64
535.27	1293.24
535.63	1286.19
535.98	1277.14
536.34	1274.75
536.69	1270.40
537.05	1265.60
537.41	1261.24
537.76	1257.01
538.12	1252.40
538.47	1248.04
538.83	1243.83
539.18	1236.48
539.54	1233.16
539.89	1230.30
540.25	1222.67
540.60	1219.61
540.96	1216.38
541.31	1209.87
541.67	1205.33
542.02	1203.22
542.38	1200.46
542.73	1199.45
543.09	1197.30
543.44	1191.92
543.80	1189.74
544.15	1183.35
544.51	1181.92
544.86	1180.07
545.22	1176.10
545.57	1173.22
545.93	1172.23
546.28	1168.91
546.64	1168.30
546.99	1169.45
547.35	1169.03
547.70	1170.48
548.05	1162.78
548.41	1160.77
548.76	1157.84
549.12	1151.29
549.47	1145.27
549.83	1147.68
550.18	1144.99
550.53	1143.63
550.89	1145.53
551.24	1145.27
551.60	1142.98
551.95	1140.33
552.30	1137.69
552.66	1135.89
553.01	1134.11
553.37	1133.15
553.72	1132.80
554.07	1131.91
554.43	1132.09
554.78	1130.36
555.13	1131.56
555.49	1130.43
555.84	1131.81
556.19	1128.56
556.55	1126.71
556.90	1120.86
557.26	1120.25
557.61	1119.24
557.96	1120.18
558.32	1119.01
558.67	1118.38
559.02	1115.41
559.37	1111.68
559.73	1105.65
560.08	1108.90
560.43	1111.61
560.79	1114.31
561.14	1114.82
561.49	1119.08
561.85	1119.69
562.20	1121.35
562.55	1119.62
562.90	1120.23
563.26	1119.53
563.61	1114.52
563.96	1111.19
564.32	1111.26
564.67	1110.33
565.02	1107.96
565.37	1108.20
565.73	1107.96
566.08	1105.79
566.43	1105.79
566.78	1105.86
567.14	1104.57
567.49	1102.74
567.84	1101.88
568.19	1097.36
568.54	1098.09
568.90	1098.81
569.25	1097.71
569.60	1097.24
569.95	1098.23
570.31	1097.92
570.66	1101.03
571.01	1099.42
571.36	1097.64
571.71	1094.53
572.06	1092.07
572.42	1085.99
572.77	1087.09
573.12	1088.37
573.47	1090.55
573.82	1091.95
574.18	1093.62
574.53	1094.81
574.88	1093.33
575.23	1093.90
575.58	1091.49
575.93	1090.95
576.28	1092.09
576.64	1096.89
576.99	1097.06
577.34	1099.33
577.69	1099.42
578.04	1098.81
578.39	1093.17
578.74	1092.82
579.09	1089.87
579.44	1091.93
579.80	1091.13
580.15	1093.90
580.50	1095.11
580.85	1098.53
581.20	1095.51
581.55	1095.32
581.90	1095.58
582.25	1094.55
582.60	1090.36
582.95	1090.43
583.30	1087.76
583.65	1087.55
584.00	1088.91
584.35	1092.23
584.71	1093.33
585.06	1093.62
585.41	1093.47
585.76	1092.21
586.11	1087.55
586.46	1085.00
586.81	1086.57
587.16	1086.50
587.51	1085.96
587.86	1086.34
588.21	1086.83
588.56	1088.09
588.91	1084.44
589.26	1082.26
589.61	1081.89
589.96	1082.31
590.31	1082.97
590.66	1084.44
591.01	1086.80
591.36	1088.79
591.71	1091.42
592.06	1091.95
592.41	1093.19
592.76	1090.69
593.10	1092.12
593.45	1089.22
593.80	1086.94
594.15	1088.02
594.50	1089.12
594.85	1085.70
595.20	1087.30
595.55	1087.20
595.90	1086.80
596.25	1085.33
596.60	1087.25
596.95	1087.11
597.30	1086.15
597.64	1096.80
597.99	1097.57
598.34	1098.93
598.69	1095.72
599.04	1094.18
599.39	1083.57
599.74	1086.22
600.09	1084.67
600.44	1087.41
600.78	1087.48
601.13	1086.78
601.48	1084.89
601.83	1084.44
602.18	1084.51
602.53	1087.44
602.88	1087.95
603.22	1087.72
603.57	1088.40
603.92	1089.96
604.27	1088.79
604.62	1087.60
604.97	1086.45
605.31	1084.93
605.66	1083.53
606.01	1082.71
606.36	1084.56
606.71	1088.84
607.05	1089.05
607.40	1088.33
607.75	1087.83
608.10	1084.30
608.44	1077.91
608.79	1081.00
609.14	1082.66
609.49	1082.43
609.84	1085.28
610.18	1092.42
610.53	1091.84
610.88	1090.60
611.23	1088.93
611.57	1089.68
611.92	1085.45
612.27	1084.79
612.62	1083.97
612.96	1086.45
613.31	1084.21
613.66	1083.25
614.00	1082.10
614.35	1082.61
614.70	1081.82
615.05	1082.85
615.39	1082.05
615.74	1080.81
616.09	1080.18
616.43	1079.85
616.78	1076.51
617.13	1078.52
617.47	1079.50
617.82	1082.50
618.17	1081.16
618.51	1083.95
618.86	1086.29
619.21	1084.63
619.55	1079.95
619.90	1080.74
620.25	1081.00
620.59	1079.24
620.94	1080.44
621.29	1084.04
621.63	1086.94
621.98	1084.42
622.32	1082.12
622.67	1081.35
623.02	1078.43
623.36	1077.86
623.71	1079.43
624.05	1082.57
624.40	1084.91
624.75	1087.11
625.09	1086.50
625.44	1085.99
625.78	1086.99
626.13	1088.02
626.48	1088.63
626.82	1088.58
627.17	1088.75
627.51	1086.90
627.86	1085.26
628.20	1081.91
628.55	1083.32
628.89	1084.23
629.24	1081.96
629.58	1081.37
629.93	1082.94
630.28	1082.50
630.62	1079.22
630.97	1079.53
631.31	1079.29
631.66	1076.32
632.00	1075.90
632.35	1078.40
632.69	1077.54
633.04	1080.32
633.38	1084.93
633.73	1085.56
634.07	1086.10
634.42	1089.03
634.76	1086.66
635.11	1084.25
635.45	1084.32
635.79	1084.81
636.14	1082.64
636.48	1082.19
636.83	1085.35
637.17	1083.39
637.52	1086.03
637.86	1086.59
638.21	1086.17
638.55	1082.50
638.89	1082.80
639.24	1081.23
639.58	1082.57
639.93	1083.95
640.27	1084.11
640.61	1085.61
640.96	1085.54
641.30	1082.22
641.65	1081.56
641.99	1085.07
642.33	1081.70
642.68	1080.37
643.02	1080.06
643.37	1078.59
643.71	1077.07
644.05	1078.31
644.40	1077.09
644.74	1078.05
645.08	1080.25
645.43	1077.28
645.77	1077.35
646.11	1078.78
646.46	1079.43
646.80	1076.93
647.14	1077.56
647.49	1075.87
647.83	1072.08
648.17	1073.11
648.52	1075.03
648.86	1076.79
649.20	1079.43
649.55	1082.47
649.89	1082.01
650.23	1079.57
650.57	1080.93
650.92	1081.26
651.26	1082.17
651.60	1082.40
651.95	1084.86
652.29	1081.49
652.63	1080.84
652.97	1078.43
653.32	1080.48
653.66	1079.13
654.00	1079.22
654.34	1076.72
654.69	1077.82
655.03	1077.77
655.37	1079.38
655.71	1080.16
656.05	1083.62
656.40	1082.38
656.74	1080.98
657.08	1079.15
657.42	1077.51
657.76	1076.76
658.11	1078.89
658.45	1078.54
658.79	1082.57
659.13	1083.69
659.47	1084.37
659.82	1084.93
660.16	1086.85
660.50	1087.20
660.84	1087.53
661.18	1085.10
661.52	1083.29
661.87	1080.39
662.21	1078.00
662.55	1080.06
662.89	1084.49
663.23	1086.57
663.57	1090.71
663.91	1089.33
664.25	1087.37
664.60	1083.25
664.94	1082.97
665.28	1080.16
665.62	1082.31
665.96	1083.34
666.30	1085.10
666.64	1083.29
666.98	1080.53
667.32	1079.60
667.66	1079.06
668.01	1077.42
668.35	1078.45
668.69	1080.16
669.03	1079.36
669.37	1078.87
669.71	1078.07
670.05	1082.69
670.39	1084.30
670.73	1084.11
671.07	1084.35
671.41	1084.60
671.75	1079.83
672.09	1077.82
672.43	1079.31
672.77	1080.60
673.11	1082.24
673.45	1084.79
673.79	1087.34
674.13	1090.46
674.47	1091.37
674.81	1092.23
675.15	1088.51
675.49	1086.97
675.83	1083.43
676.17	1083.25
676.51	1079.55
676.85	1078.10
677.19	1075.50
677.53	1075.59
677.87	1073.98
678.21	1075.41
678.55	1079.01
678.89	1081.40
679.23	1080.77
679.57	1081.51
679.90	1082.83
680.24	1080.37
680.58	1081.98
680.92	1082.64
681.26	1079.38
681.60	1081.16
681.94	1082.97
682.28	1080.74
682.62	1079.64
682.96	1080.53
683.29	1079.08
683.63	1080.09
683.97	1081.12
684.31	1080.25
684.65	1081.94
684.99	1080.18
685.33	1079.46
685.67	1081.02
686.00	1080.60
686.34	1080.09
686.68	1083.01
687.02	1083.15
687.36	1081.75
687.70	1081.56
688.03	1082.57
688.37	1081.16
688.71	1078.64
689.05	1076.39
689.39	1078.73
689.72	1075.38
690.06	1074.56
690.40	1074.24
690.74	1075.24
691.08	1073.30
691.41	1076.58
691.75	1079.29
692.09	1083.71
692.43	1082.12
692.76	1084.77
693.10	1084.53
693.44	1080.06
693.78	1076.51
694.11	1078.19
694.45	1076.53
694.79	1073.16
695.13	1074.35
695.46	1076.53
695.80	1075.80
696.14	1078.96
696.48	1082.40
696.81	1083.57
697.15	1083.64
697.49	1083.90
697.82	1081.35
698.16	1081.07
698.50	1081.40
698.83	1080.23
699.17	1080.58
699.51	1081.02
699.84	1077.89
700.18	1079.34
700.52	1078.80
700.85	1077.40
701.19	1076.79
701.53	1075.87
701.86	1074.56
702.20	1076.27
702.54	1077.44
702.87	1078.71
703.21	1082.45
703.55	1081.42
703.88	1079.71
704.22	1078.61
704.55	1076.95
704.89	1077.44
705.23	1080.48
705.56	1081.12
705.90	1083.64
706.23	1086.62
706.57	1086.94
706.91	1083.53
707.24	1081.70
707.58	1078.38
707.91	1074.87
708.25	1074.28
708.58	1073.84
708.92	1075.27
709.26	1076.62
709.59	1076.81
709.93	1074.75
710.26	1075.94
710.60	1074.12
710.93	1072.57
711.27	1076.39
711.60	1078.33
711.94	1078.26
712.27	1083.48
712.61	1087.06
712.94	1083.86
713.28	1084.16
713.61	1086.73
713.95	1084.18
714.28	1084.39
714.62	1082.59
714.95	1079.97
715.29	1074.38
715.62	1073.98
715.96	1072.55
716.29	1073.79
716.63	1075.83
716.96	1078.59
717.29	1077.11
717.63	1077.72
717.96	1078.45
718.30	1075.94
718.63	1077.00
718.97	1078.85
719.30	1079.76
719.63	1076.69
719.97	1077.89
720.30	1074.73
720.64	1070.51
720.97	1071.59
721.30	1075.13
721.64	1073.67
721.97	1075.50
722.31	1078.82
722.64	1074.17
722.97	1074.68
723.31	1076.58
723.64	1077.04
723.97	1075.97
724.31	1079.13
724.64	1078.28
724.98	1077.61
725.31	1080.65
725.64	1078.26
725.98	1078.00
726.31	1078.89
726.64	1079.43
726.97	1074.35
727.31	1075.52
727.64	1077.30
727.97	1077.04
728.31	1076.81
728.64	1080.30
728.97	1083.53
729.31	1079.99
729.64	1079.50
729.97	1080.46
730.30	1078.64
730.64	1078.17
730.97	1082.10
731.30	1082.24
731.63	1079.24
731.97	1081.12
732.30	1081.19
732.63	1077.58
732.96	1076.88
733.30	1080.27
733.63	1076.41
733.96	1075.69
734.29	1076.30
734.63	1076.18
734.96	1076.86
735.29	1078.82
735.62	1079.41
735.95	1080.06
736.29	1081.35
736.62	1080.65
736.95	1082.83
737.28	1081.47
737.61	1079.92
737.94	1079.50
738.28	1078.52
738.61	1078.45
738.94	1079.90
739.27	1081.58
739.60	1083.50
739.93	1084.30
740.27	1082.33
740.60	1083.36
740.93	1082.50
741.26	1081.26
741.59	1080.53
741.92	1080.63
742.25	1077.49
742.58	1078.26
742.91	1075.08
743.25	1075.83
743.58	1073.28
743.91	1073.04
744.24	1070.47
744.57	1071.92
744.90	1072.27
745.23	1076.53
745.56	1080.46
745.89	1083.74
746.22	1086.69
746.55	1085.75
746.88	1080.98
747.21	1078.54
747.54	1079.01
747.87	1079.31
748.20	1081.44
748.53	1081.91
748.87	1082.59
749.20	1081.82
749.53	1080.06
749.86	1078.07
750.19	1080.88
750.52	1081.89
750.85	1081.30
751.18	1081.47
751.51	1084.28
751.84	1083.32
752.16	1081.30
752.49	1082.57
752.82	1080.70
753.15	1077.63
753.48	1078.82
753.81	1079.83
754.14	1079.10
754.47	1079.60
754.80	1079.31
755.13	1080.72
755.46	1082.26
755.79	1081.47
756.12	1082.78
756.45	1083.53
756.78	1081.49
757.11	1079.48
757.43	1080.58
757.76	1081.12
758.09	1081.35
758.42	1082.64
758.75	1082.15
759.08	1084.58
759.41	1081.42
759.74	1080.88
760.07	1080.93
760.39	1082.38
760.72	1079.06
761.05	1081.68
761.38	1083.13
761.71	1082.43
762.04	1079.83
762.36	1079.53
762.69	1080.79
763.02	1079.53
763.35	1075.80
763.68	1076.37
764.01	1078.36
