SpectraSuite Data File
++++++++++++++++++++++++++++++++++++
Date: Mon Aug 26 10:22:01 PDT 2019
User: corrico
Dark Spectrum Present: No
Reference Spectrum Present: No
Number of Sampled Component Spectra: 1
Spectrometers: USB2+H06089
Integration Time (usec): 2000 (USB2+H06089)
Spectra Averaged: 20 (USB2+H06089)
Boxcar Smoothing: 2 (USB2+H06089)
Correct for Electrical Dark: No (USB2+H06089)
Strobe/Lamp Enabled: No (USB2+H06089)
Correct for Detector Non-linearity: No (USB2+H06089)
Correct for Stray Light: No (USB2+H06089)
Number of Pixels in Processed Spectrum: 2048
>>>>>Begin Processed Spectral Data<<<<<
339.70	1031.59
340.07	1031.59
340.45	992.69
340.82	968.49
341.19	945.41
341.57	917.61
341.94	909.42
342.31	904.27
342.69	903.07
343.06	899.91
343.43	897.92
343.81	899.14
344.18	900.92
344.55	901.74
344.93	906.75
345.30	918.73
345.67	925.28
346.04	934.81
346.42	944.80
346.79	952.27
347.16	958.36
347.54	964.86
347.91	971.25
348.28	982.11
348.65	993.09
349.03	1004.84
349.40	1015.75
349.77	1023.96
350.14	1029.30
350.52	1035.36
350.89	1037.30
351.26	1044.63
351.63	1049.00
352.01	1055.25
352.38	1060.59
352.75	1065.18
353.12	1069.11
353.50	1073.65
353.87	1075.41
354.24	1076.86
354.61	1080.34
354.98	1080.46
355.36	1082.31
355.73	1086.76
356.10	1088.54
356.47	1089.31
356.84	1092.26
357.22	1091.34
357.59	1089.36
357.96	1087.51
358.33	1088.56
358.70	1086.24
359.08	1085.82
359.45	1085.47
359.82	1083.88
360.19	1081.28
360.56	1078.94
360.94	1079.64
361.31	1075.20
361.68	1077.54
362.05	1078.26
362.42	1078.68
362.79	1075.31
363.16	1078.64
363.54	1077.02
363.91	1077.00
364.28	1076.74
364.65	1079.62
365.02	1079.81
365.39	1079.60
365.76	1079.01
366.14	1079.50
366.51	1077.04
366.88	1074.82
367.25	1074.28
367.62	1073.46
367.99	1070.98
368.36	1072.97
368.73	1071.10
369.10	1070.28
369.48	1069.88
369.85	1070.91
370.22	1070.65
370.59	1072.90
370.96	1074.42
371.33	1077.21
371.70	1076.81
372.07	1075.83
372.44	1076.06
372.81	1073.72
373.18	1071.33
373.55	1073.51
373.93	1076.01
374.30	1075.76
374.67	1079.03
375.04	1078.68
375.41	1079.24
375.78	1076.76
376.15	1076.44
376.52	1072.78
376.89	1073.11
377.26	1073.11
377.63	1075.41
378.00	1077.82
378.37	1081.19
378.74	1083.08
379.11	1084.28
379.48	1085.10
379.85	1081.40
380.22	1082.99
380.59	1082.57
380.96	1083.01
381.33	1081.87
381.70	1083.83
382.07	1080.20
382.44	1080.65
382.81	1080.06
383.18	1079.92
383.55	1081.66
383.92	1084.86
384.29	1084.07
384.66	1084.04
385.03	1082.24
385.40	1081.63
385.77	1080.25
386.14	1078.12
386.51	1075.20
386.88	1076.27
387.25	1074.47
387.62	1074.10
387.99	1075.78
388.36	1077.98
388.73	1079.31
389.10	1080.81
389.46	1082.59
389.83	1084.74
390.20	1084.60
390.57	1085.17
390.94	1084.96
391.31	1086.24
391.68	1084.39
392.05	1083.15
392.42	1082.85
392.79	1084.23
393.16	1082.99
393.53	1085.45
393.89	1086.13
394.26	1082.99
394.63	1084.30
395.00	1083.81
395.37	1082.17
395.74	1084.96
396.11	1088.58
396.48	1086.73
396.84	1089.07
397.21	1091.11
397.58	1090.69
397.95	1092.82
398.32	1091.13
398.69	1090.95
399.06	1087.27
399.42	1087.51
399.79	1086.27
400.16	1085.47
400.53	1083.79
400.90	1088.65
401.27	1087.81
401.64	1085.75
402.00	1088.86
402.37	1088.89
402.74	1087.25
403.11	1088.28
403.48	1089.80
403.84	1092.84
404.21	1092.47
404.58	1091.06
404.95	1089.59
405.32	1090.15
405.68	1084.91
406.05	1084.79
406.42	1085.26
406.79	1091.11
407.16	1088.40
407.52	1089.38
407.89	1093.62
408.26	1091.53
408.63	1085.84
408.99	1088.58
409.36	1091.56
409.73	1087.37
410.10	1086.92
410.47	1086.38
410.83	1085.31
411.20	1085.80
411.57	1087.90
411.94	1087.30
412.30	1087.88
412.67	1088.04
413.04	1087.25
413.40	1088.58
413.77	1096.17
414.14	1095.49
414.51	1095.86
414.87	1097.03
415.24	1092.96
415.61	1093.08
415.97	1097.92
416.34	1099.09
416.71	1098.51
417.08	1102.81
417.44	1102.02
417.81	1103.42
418.18	1103.80
418.54	1106.49
418.91	1107.40
419.28	1110.44
419.64	1109.30
420.01	1111.24
420.38	1110.87
420.74	1110.19
421.11	1110.54
421.48	1112.88
421.84	1115.03
422.21	1117.84
422.58	1117.47
422.94	1121.23
423.31	1125.52
423.68	1126.92
424.04	1130.29
424.41	1136.85
424.77	1136.85
425.14	1139.05
425.51	1142.56
425.87	1145.18
426.24	1148.59
426.61	1152.48
426.97	1154.45
427.34	1161.89
427.70	1165.63
428.07	1173.99
428.44	1182.65
428.80	1193.49
429.17	1200.74
429.53	1210.81
429.90	1217.99
430.27	1224.69
430.63	1230.07
431.00	1240.09
431.36	1252.58
431.73	1266.07
432.09	1278.49
432.46	1295.77
432.83	1311.59
433.19	1326.66
433.56	1342.30
433.92	1363.92
434.29	1384.24
434.65	1409.52
435.02	1430.93
435.38	1457.40
435.75	1484.70
436.11	1517.60
436.48	1545.22
436.84	1579.35
437.21	1616.35
437.57	1652.04
437.94	1685.56
438.30	1726.26
438.67	1769.54
439.03	1816.96
439.40	1866.27
439.76	1918.68
440.13	1977.19
440.49	2042.05
440.86	2100.07
441.22	2167.31
441.59	2241.72
441.95	2322.68
442.32	2398.98
442.68	2494.64
443.05	2595.37
443.41	2693.96
443.78	2795.44
444.14	2907.69
444.51	3018.89
444.87	3146.05
445.24	3273.64
445.60	3410.16
445.96	3550.62
446.33	3700.41
446.69	3854.86
447.06	4027.94
447.42	4205.66
447.79	4399.65
448.15	4617.20
448.51	4820.59
448.88	5065.55
449.24	5289.82
449.61	5561.96
449.97	5838.40
450.33	6137.87
450.70	6415.99
451.06	6772.08
451.43	7096.79
451.79	7466.78
452.15	7856.71
452.52	8266.75
452.88	8681.77
453.24	9152.29
453.61	9641.95
453.97	10153.50
454.34	10665.05
454.70	11246.72
455.06	11835.36
455.43	12412.54
455.79	12942.39
456.15	13600.78
456.52	14234.74
456.88	15005.97
457.24	15784.99
457.61	16691.25
457.97	17520.71
458.33	18364.71
458.70	19195.37
459.06	19956.02
459.42	20799.55
459.79	21566.30
460.15	22420.62
460.51	23164.26
460.88	23982.42
461.24	24680.55
461.60	25535.17
461.96	26263.99
462.33	26963.84
462.69	27681.40
463.05	28480.79
463.42	29230.72
463.78	29940.06
464.14	30591.29
464.50	31301.11
464.87	31851.27
465.23	32184.33
465.59	32563.55
465.95	32909.62
466.32	33142.08
466.68	33380.09
467.04	33587.20
467.40	33711.98
467.77	33824.30
468.13	33811.22
468.49	33644.29
468.85	33516.45
469.22	33435.58
469.58	33255.06
469.94	33125.20
470.30	32970.31
470.66	32681.32
471.03	32112.97
471.39	31644.70
471.75	30944.06
472.11	30288.71
472.47	29788.51
472.84	29342.71
473.20	28701.47
473.56	28297.01
473.92	27748.76
474.28	27194.29
474.65	26702.45
475.01	26300.41
475.37	25769.60
475.73	25372.55
476.09	24933.05
476.45	24487.95
476.81	24062.06
477.18	23620.34
477.54	23200.61
477.90	22819.29
478.26	22383.34
478.62	22004.69
478.98	21727.82
479.34	21472.22
479.71	21145.92
480.07	20863.72
480.43	20547.91
480.79	20132.73
481.15	19703.99
481.51	19338.09
481.87	19021.21
482.23	18677.43
482.59	18396.99
482.96	18105.00
483.32	17804.99
483.68	17442.96
484.04	17123.34
484.40	16788.71
484.76	16482.36
485.12	16163.04
485.48	15903.68
485.84	15609.59
486.20	15327.98
486.56	15004.10
486.92	14701.70
487.28	14376.16
487.64	14051.71
488.00	13725.95
488.37	13384.49
488.73	13026.81
489.09	12658.13
489.45	12335.16
489.81	12006.48
490.17	11722.67
490.53	11424.41
490.89	11106.03
491.25	10786.57
491.61	10470.62
491.97	10154.74
492.33	9882.37
492.69	9644.13
493.05	9393.81
493.41	9160.20
493.77	8909.79
494.13	8659.65
494.49	8406.60
494.85	8169.76
495.21	7941.27
495.57	7748.76
495.93	7532.43
496.29	7318.62
496.64	7120.59
497.00	6921.60
497.36	6718.20
497.72	6548.70
498.08	6406.80
498.44	6257.19
498.80	6094.97
499.16	5934.71
499.52	5768.25
499.88	5609.96
500.24	5455.93
500.60	5331.44
500.96	5219.37
501.32	5100.21
501.68	4975.35
502.03	4858.86
502.39	4740.40
502.75	4617.32
503.11	4518.80
503.47	4421.76
503.83	4322.24
504.19	4224.92
504.55	4132.47
504.91	4034.50
505.26	3947.13
505.62	3852.47
505.98	3764.73
506.34	3667.57
506.70	3582.59
507.06	3499.05
507.42	3420.15
507.78	3338.35
508.13	3272.98
508.49	3192.72
508.85	3122.74
509.21	3054.77
509.57	2991.35
509.93	2929.25
510.28	2875.25
510.64	2814.31
511.00	2761.15
511.36	2710.08
511.72	2661.59
512.07	2613.25
512.43	2569.23
512.79	2527.92
513.15	2483.10
513.51	2437.78
513.86	2396.10
514.22	2349.52
514.58	2299.25
514.94	2255.64
515.30	2211.36
515.65	2171.36
516.01	2138.99
516.37	2111.14
516.73	2080.53
517.08	2054.26
517.44	2023.25
517.80	1995.00
518.16	1964.11
518.51	1938.83
518.87	1911.87
519.23	1886.17
519.59	1864.94
519.94	1843.62
520.30	1821.24
520.66	1798.65
521.01	1781.83
521.37	1759.64
521.73	1734.59
522.09	1713.11
522.44	1694.97
522.80	1672.38
523.16	1651.83
523.51	1632.57
523.87	1616.35
524.23	1597.67
524.58	1584.66
524.94	1570.69
525.30	1558.28
525.65	1546.91
526.01	1536.12
526.37	1519.90
526.72	1498.55
527.08	1486.33
527.44	1468.69
527.79	1453.92
528.15	1445.49
528.51	1440.23
528.86	1429.51
529.22	1421.15
529.58	1407.79
529.93	1397.88
530.29	1389.39
530.65	1381.88
531.00	1372.54
531.36	1365.77
531.71	1357.02
532.07	1347.38
532.43	1334.97
532.78	1326.78
533.14	1318.40
533.49	1311.19
533.85	1306.30
534.21	1300.71
534.56	1296.45
534.92	1293.59
535.27	1287.83
535.63	1279.64
535.98	1274.30
536.34	1270.30
536.69	1264.24
537.05	1258.76
537.41	1255.77
537.76	1251.77
538.12	1242.87
538.47	1238.03
538.83	1233.13
539.18	1230.12
539.54	1224.54
539.89	1224.54
540.25	1221.20
540.60	1217.92
540.96	1213.76
541.31	1213.52
541.67	1208.32
542.02	1205.54
542.38	1200.91
542.73	1194.47
543.09	1192.27
543.44	1188.80
543.80	1187.33
544.15	1183.30
544.51	1183.84
544.86	1178.67
545.22	1172.07
545.57	1168.42
545.93	1165.38
546.28	1165.52
546.64	1163.60
546.99	1168.09
547.35	1161.87
547.70	1160.98
548.05	1156.65
548.41	1154.63
548.76	1150.23
549.12	1152.06
549.47	1153.65
549.83	1150.30
550.18	1149.74
550.53	1147.31
550.89	1146.79
551.24	1144.24
551.60	1141.53
551.95	1141.46
552.30	1140.47
552.66	1138.09
553.01	1132.37
553.37	1134.01
553.72	1127.51
554.07	1127.67
554.43	1122.68
554.78	1123.22
555.13	1117.09
555.49	1116.22
555.84	1115.05
556.19	1115.01
556.55	1116.95
556.90	1118.40
557.26	1118.99
557.61	1114.07
557.96	1116.06
558.32	1114.12
558.67	1113.67
559.02	1115.76
559.37	1116.74
559.73	1115.08
560.08	1112.13
560.43	1113.09
560.79	1108.74
561.14	1108.34
561.49	1108.22
561.85	1107.99
562.20	1104.52
562.55	1103.80
562.90	1104.38
563.26	1104.17
563.61	1107.00
563.96	1107.45
564.32	1108.27
564.67	1103.21
565.02	1098.60
565.37	1098.02
565.73	1098.23
566.08	1100.89
566.43	1104.85
566.78	1110.44
567.14	1110.51
567.49	1110.37
567.84	1110.33
568.19	1111.80
568.54	1109.04
568.90	1108.52
569.25	1109.74
569.60	1106.98
569.95	1103.82
570.31	1105.90
570.66	1103.19
571.01	1099.65
571.36	1099.93
571.71	1099.98
572.06	1094.97
572.42	1095.51
572.77	1096.87
573.12	1096.61
573.47	1098.34
573.82	1100.12
574.18	1099.79
574.53	1096.80
574.88	1096.75
575.23	1093.26
575.58	1093.99
575.93	1092.98
576.28	1094.27
576.64	1091.37
576.99	1090.69
577.34	1088.42
577.69	1091.77
578.04	1094.48
578.39	1098.88
578.74	1098.72
579.09	1098.93
579.44	1095.93
579.80	1094.27
580.15	1089.14
580.50	1090.74
580.85	1091.58
581.20	1091.20
581.55	1090.43
581.90	1094.08
582.25	1094.60
582.60	1097.27
582.95	1098.93
583.30	1100.24
583.65	1100.82
584.00	1100.61
584.35	1095.37
584.71	1092.07
585.06	1088.68
585.41	1083.74
585.76	1083.71
586.11	1084.93
586.46	1084.81
586.81	1088.75
587.16	1090.27
587.51	1089.29
587.86	1090.81
588.21	1090.69
588.56	1090.06
588.91	1090.88
589.26	1089.26
589.61	1085.84
589.96	1087.39
590.31	1084.63
590.66	1085.61
591.01	1087.39
591.36	1090.90
591.71	1091.18
592.06	1093.22
592.41	1091.56
592.76	1091.49
593.10	1090.17
593.45	1088.19
593.80	1084.89
594.15	1085.63
594.50	1085.35
594.85	1084.14
595.20	1086.13
595.55	1090.36
595.90	1088.65
596.25	1086.15
596.60	1086.43
596.95	1085.45
597.30	1082.40
597.64	1094.93
597.99	1095.14
598.34	1095.84
598.69	1094.81
599.04	1096.52
599.39	1084.04
599.74	1086.17
600.09	1088.68
600.44	1089.03
600.78	1084.81
601.13	1082.61
601.48	1082.69
601.83	1081.63
602.18	1082.26
602.53	1085.33
602.88	1086.31
603.22	1083.93
603.57	1082.33
603.92	1081.56
604.27	1081.58
604.62	1081.89
604.97	1082.12
605.31	1082.64
605.66	1082.94
606.01	1085.10
606.36	1086.24
606.71	1088.23
607.05	1086.80
607.40	1084.91
607.75	1080.41
608.10	1080.13
608.44	1078.68
608.79	1078.03
609.14	1080.95
609.49	1080.60
609.84	1082.45
610.18	1087.53
610.53	1091.32
610.88	1089.85
611.23	1092.82
611.57	1094.11
611.92	1090.83
612.27	1087.86
612.62	1089.45
612.96	1086.13
613.31	1080.63
613.66	1080.02
614.00	1077.63
614.35	1075.83
614.70	1078.31
615.05	1081.16
615.39	1082.64
615.74	1084.25
616.09	1082.76
616.43	1081.82
616.78	1081.98
617.13	1080.16
617.47	1078.66
617.82	1081.84
618.17	1083.81
618.51	1079.95
618.86	1082.05
619.21	1083.15
619.55	1082.94
619.90	1082.31
620.25	1086.57
620.59	1085.17
620.94	1083.95
621.29	1084.46
621.63	1082.29
621.98	1080.39
622.32	1077.70
622.67	1080.18
623.02	1076.93
623.36	1078.82
623.71	1079.41
624.05	1082.01
624.40	1080.48
624.75	1082.99
625.09	1083.55
625.44	1086.24
625.78	1085.66
626.13	1087.58
626.48	1084.98
626.82	1086.34
627.17	1085.05
627.51	1087.83
627.86	1089.05
628.20	1091.20
628.55	1088.68
628.89	1084.79
629.24	1083.11
629.58	1082.33
629.93	1083.60
630.28	1083.71
630.62	1086.73
630.97	1083.20
631.31	1082.19
631.66	1082.08
632.00	1081.98
632.35	1079.57
632.69	1081.66
633.04	1081.63
633.38	1081.87
633.73	1083.25
634.07	1083.93
634.42	1082.57
634.76	1084.04
635.11	1082.59
635.45	1078.82
635.79	1080.34
636.14	1084.44
636.48	1082.92
636.83	1080.48
637.17	1084.79
637.52	1085.40
637.86	1082.45
638.21	1080.70
638.55	1084.42
638.89	1085.03
639.24	1083.46
639.58	1084.49
639.93	1085.61
640.27	1083.83
640.61	1081.19
640.96	1080.63
641.30	1078.21
641.65	1079.20
641.99	1078.43
642.33	1077.91
642.68	1078.52
643.02	1081.30
643.37	1079.69
643.71	1079.67
644.05	1080.79
644.40	1081.49
644.74	1083.57
645.08	1083.39
645.43	1084.30
645.77	1085.49
646.11	1085.31
646.46	1079.95
646.80	1083.29
647.14	1084.81
647.49	1082.80
647.83	1082.12
648.17	1086.90
648.52	1082.73
648.86	1081.84
649.20	1082.80
649.55	1082.01
649.89	1077.23
650.23	1078.33
650.57	1079.36
650.92	1080.86
651.26	1085.12
651.60	1087.86
651.95	1089.73
652.29	1089.05
652.63	1088.26
652.97	1086.57
653.32	1084.42
653.66	1085.07
654.00	1086.90
654.34	1084.04
654.69	1083.43
655.03	1086.62
655.37	1086.08
655.71	1081.68
656.05	1082.19
656.40	1081.96
656.74	1079.92
657.08	1076.65
657.42	1076.93
657.76	1075.85
658.11	1075.20
658.45	1077.25
658.79	1079.62
659.13	1083.55
659.47	1086.92
659.82	1085.61
660.16	1083.25
660.50	1082.15
660.84	1079.10
661.18	1078.96
661.52	1080.70
661.87	1081.28
662.21	1079.43
662.55	1077.16
662.89	1077.54
663.23	1075.94
663.57	1073.74
663.91	1077.86
664.25	1081.66
664.60	1083.60
664.94	1085.96
665.28	1091.88
665.62	1092.28
665.96	1089.92
666.30	1086.76
666.64	1084.77
666.98	1078.94
667.32	1076.13
667.66	1074.47
668.01	1072.18
668.35	1073.09
668.69	1074.47
669.03	1075.52
669.37	1078.26
669.71	1079.24
670.05	1078.31
670.39	1079.55
670.73	1079.85
671.07	1079.62
671.41	1079.57
671.75	1080.56
672.09	1082.47
672.43	1083.15
672.77	1083.18
673.11	1082.71
673.45	1080.63
673.79	1079.10
674.13	1075.80
674.47	1076.13
674.81	1075.90
675.15	1078.26
675.49	1078.24
675.83	1081.21
676.17	1079.36
676.51	1081.70
676.85	1081.40
677.19	1080.58
677.53	1078.47
677.87	1080.63
678.21	1081.94
678.55	1084.84
678.89	1085.24
679.23	1087.76
679.57	1085.38
679.90	1082.31
680.24	1077.35
680.58	1076.25
680.92	1073.07
681.26	1075.31
681.60	1079.08
681.94	1080.74
682.28	1080.72
682.62	1080.81
682.96	1079.06
683.29	1077.65
683.63	1077.77
683.97	1078.99
684.31	1080.58
684.65	1082.99
684.99	1082.03
685.33	1084.37
685.67	1084.49
686.00	1083.08
686.34	1087.55
686.68	1086.20
687.02	1083.06
687.36	1080.95
687.70	1080.11
688.03	1073.32
688.37	1074.49
688.71	1077.07
689.05	1075.92
689.39	1078.92
689.72	1081.94
690.06	1081.49
690.40	1078.52
690.74	1079.34
691.08	1082.66
691.41	1083.74
691.75	1085.40
692.09	1088.40
692.43	1090.39
692.76	1086.41
693.10	1083.39
693.44	1082.31
693.78	1082.38
694.11	1083.46
694.45	1085.99
694.79	1085.35
695.13	1085.99
695.46	1084.32
695.80	1082.47
696.14	1080.95
696.48	1080.37
696.81	1079.99
697.15	1076.97
697.49	1078.73
697.82	1078.54
698.16	1079.67
698.50	1076.74
698.83	1079.71
699.17	1077.82
699.51	1077.21
699.84	1078.87
700.18	1081.68
700.52	1082.26
700.85	1082.22
701.19	1082.29
701.53	1081.49
701.86	1085.07
702.20	1082.08
702.54	1083.27
702.87	1085.12
703.21	1083.86
703.55	1080.23
703.88	1086.31
704.22	1086.43
704.55	1082.24
704.89	1085.14
705.23	1083.83
705.56	1081.07
705.90	1080.84
706.23	1082.17
706.57	1077.11
706.91	1077.54
707.24	1074.33
707.58	1072.90
707.91	1072.15
708.25	1074.52
708.58	1078.12
708.92	1080.91
709.26	1083.74
709.59	1083.08
709.93	1082.76
710.26	1079.41
710.60	1079.31
710.93	1075.45
711.27	1077.82
711.60	1080.95
711.94	1080.67
712.27	1078.07
712.61	1082.36
712.94	1084.30
713.28	1083.20
713.61	1085.84
713.95	1086.48
714.28	1084.72
714.62	1081.21
714.95	1080.25
715.29	1077.70
715.62	1077.30
715.96	1072.76
716.29	1076.04
716.63	1077.00
716.96	1076.39
717.29	1075.43
717.63	1084.60
717.96	1082.71
718.30	1079.29
718.63	1080.77
718.97	1083.04
719.30	1078.03
719.63	1079.01
719.97	1084.60
720.30	1083.36
720.64	1083.53
720.97	1083.25
721.30	1078.43
721.64	1072.64
721.97	1071.59
722.31	1072.18
722.64	1073.28
722.97	1077.61
723.31	1081.12
723.64	1085.28
723.97	1086.41
724.31	1087.97
724.64	1086.01
724.98	1084.09
725.31	1080.65
725.64	1079.78
725.98	1076.62
726.31	1078.10
726.64	1079.95
726.97	1079.69
727.31	1077.82
727.64	1077.70
727.97	1077.79
728.31	1078.12
728.64	1079.36
728.97	1081.42
729.31	1083.57
729.64	1083.48
729.97	1080.39
730.30	1081.07
730.64	1080.04
730.97	1078.19
731.30	1078.85
731.63	1079.90
731.97	1081.02
732.30	1081.70
732.63	1082.87
732.96	1082.99
733.30	1082.03
733.63	1082.05
733.96	1081.16
734.29	1081.14
734.63	1079.78
734.96	1080.74
735.29	1077.77
735.62	1078.40
735.95	1077.00
736.29	1076.90
736.62	1077.30
736.95	1079.64
737.28	1078.45
737.61	1080.74
737.94	1079.31
738.28	1078.47
738.61	1077.16
738.94	1078.38
739.27	1077.51
739.60	1079.57
739.93	1083.20
740.27	1084.79
740.60	1084.23
740.93	1080.84
741.26	1080.95
741.59	1077.47
741.92	1077.65
742.25	1079.71
742.58	1081.89
742.91	1083.08
743.25	1082.71
743.58	1078.31
743.91	1075.76
744.24	1075.55
744.57	1072.67
744.90	1072.78
745.23	1075.66
745.56	1073.46
745.89	1074.40
746.22	1075.36
746.55	1077.35
746.88	1077.86
747.21	1082.31
747.54	1082.73
747.87	1083.18
748.20	1081.49
748.53	1079.31
748.87	1076.37
749.20	1075.92
749.53	1076.67
749.86	1077.70
750.19	1077.96
750.52	1079.48
750.85	1077.18
751.18	1071.75
751.51	1070.42
751.84	1070.98
752.16	1070.56
752.49	1072.69
752.82	1076.32
753.15	1078.43
753.48	1081.37
753.81	1082.05
754.14	1080.30
754.47	1082.83
754.80	1079.97
755.13	1074.80
755.46	1076.25
755.79	1076.53
756.12	1075.29
756.45	1079.24
756.78	1082.12
757.11	1080.95
757.43	1083.22
757.76	1081.80
758.09	1077.63
758.42	1077.91
758.75	1075.43
759.08	1073.00
759.41	1076.39
759.74	1078.52
760.07	1079.29
760.39	1080.37
760.72	1080.51
761.05	1077.84
761.38	1076.86
761.71	1075.78
762.04	1076.55
762.36	1078.28
762.69	1077.82
763.02	1076.72
763.35	1075.45
763.68	1075.10
764.01	1072.69
