SpectraSuite Data File
++++++++++++++++++++++++++++++++++++
Date: Mon Aug 26 10:22:12 PDT 2019
User: corrico
Dark Spectrum Present: No
Reference Spectrum Present: No
Number of Sampled Component Spectra: 1
Spectrometers: USB2+H06089
Integration Time (usec): 2000 (USB2+H06089)
Spectra Averaged: 20 (USB2+H06089)
Boxcar Smoothing: 2 (USB2+H06089)
Correct for Electrical Dark: No (USB2+H06089)
Strobe/Lamp Enabled: No (USB2+H06089)
Correct for Detector Non-linearity: No (USB2+H06089)
Correct for Stray Light: No (USB2+H06089)
Number of Pixels in Processed Spectrum: 2048
>>>>>Begin Processed Spectral Data<<<<<
339.70	1018.72
340.07	1018.72
340.45	988.92
340.82	968.89
341.19	946.47
341.57	921.16
341.94	910.52
342.31	902.35
342.69	897.46
343.06	893.55
343.43	893.08
343.81	894.41
344.18	896.66
344.55	899.54
344.93	906.56
345.30	914.56
345.67	919.69
346.04	926.76
346.42	934.20
346.79	943.07
347.16	950.59
347.54	958.10
347.91	967.72
348.28	978.91
348.65	987.31
349.03	997.00
349.40	1010.74
349.77	1018.91
350.14	1026.42
350.52	1035.76
350.89	1042.10
351.26	1045.42
351.63	1053.83
352.01	1059.00
352.38	1061.62
352.75	1066.02
353.12	1069.44
353.50	1069.86
353.87	1073.02
354.24	1077.40
354.61	1080.48
354.98	1081.26
355.36	1084.56
355.73	1089.36
356.10	1090.41
356.47	1088.79
356.84	1092.05
357.22	1091.49
357.59	1087.48
357.96	1085.84
358.33	1087.27
358.70	1086.73
359.08	1088.23
359.45	1086.73
359.82	1087.83
360.19	1086.71
360.56	1085.87
360.94	1084.18
361.31	1084.70
361.68	1081.61
362.05	1082.45
362.42	1078.26
362.79	1076.11
363.16	1074.19
363.54	1073.91
363.91	1071.29
364.28	1069.77
364.65	1069.18
365.02	1066.21
365.39	1062.74
365.76	1061.99
366.14	1066.16
366.51	1069.72
366.88	1071.59
367.25	1075.20
367.62	1075.03
367.99	1073.56
368.36	1071.24
368.73	1073.35
369.10	1073.46
369.48	1076.34
369.85	1074.56
370.22	1073.98
370.59	1074.49
370.96	1074.52
371.33	1076.53
371.70	1078.00
372.07	1075.71
372.44	1074.35
372.81	1075.92
373.18	1073.00
373.55	1074.59
373.93	1078.19
374.30	1079.78
374.67	1078.33
375.04	1078.57
375.41	1078.89
375.78	1077.18
376.15	1077.16
376.52	1074.75
376.89	1074.98
377.26	1074.31
377.63	1075.92
378.00	1078.10
378.37	1079.29
378.74	1080.41
379.11	1079.31
379.48	1077.51
379.85	1074.38
380.22	1076.53
380.59	1077.28
380.96	1078.05
381.33	1078.38
381.70	1081.63
382.07	1082.22
382.44	1083.86
382.81	1083.41
383.18	1085.47
383.55	1082.73
383.92	1082.71
384.29	1079.69
384.66	1082.99
385.03	1083.53
385.40	1086.22
385.77	1085.26
386.14	1088.42
386.51	1087.67
386.88	1088.09
387.25	1086.85
387.62	1088.96
387.99	1087.65
388.36	1088.82
388.73	1090.20
389.10	1088.09
389.46	1088.04
389.83	1088.91
390.20	1087.69
390.57	1083.46
390.94	1086.52
391.31	1086.34
391.68	1088.56
392.05	1090.27
392.42	1091.60
392.79	1091.49
393.16	1093.47
393.53	1091.72
393.89	1090.41
394.26	1090.78
394.63	1090.03
395.00	1085.14
395.37	1085.66
395.74	1085.82
396.11	1082.85
396.48	1083.71
396.84	1091.06
397.21	1090.78
397.58	1093.03
397.95	1095.65
398.32	1098.16
398.69	1094.06
399.06	1093.15
399.42	1090.34
399.79	1091.63
400.16	1091.46
400.53	1092.49
400.90	1091.39
401.27	1092.80
401.64	1091.84
402.00	1091.13
402.37	1091.06
402.74	1089.92
403.11	1090.71
403.48	1092.61
403.84	1092.00
404.21	1092.00
404.58	1094.22
404.95	1094.34
405.32	1093.92
405.68	1093.62
406.05	1091.56
406.42	1093.43
406.79	1092.02
407.16	1093.01
407.52	1093.78
407.89	1095.96
408.26	1094.27
408.63	1093.08
408.99	1094.53
409.36	1092.68
409.73	1092.33
410.10	1092.07
410.47	1097.06
410.83	1096.73
411.20	1098.25
411.57	1098.62
411.94	1098.86
412.30	1096.92
412.67	1097.01
413.04	1096.33
413.40	1095.65
413.77	1095.65
414.14	1097.29
414.51	1099.79
414.87	1101.27
415.24	1102.32
415.61	1105.22
415.97	1102.51
416.34	1097.01
416.71	1099.91
417.08	1100.57
417.44	1098.18
417.81	1100.45
418.18	1107.33
418.54	1107.45
418.91	1109.74
419.28	1113.37
419.64	1119.83
420.01	1118.64
420.38	1120.06
420.74	1120.37
421.11	1121.98
421.48	1119.57
421.84	1119.24
422.21	1121.80
422.58	1127.48
422.94	1131.25
423.31	1136.21
423.68	1140.03
424.04	1143.89
424.41	1143.09
424.77	1146.18
425.14	1147.94
425.51	1155.41
425.87	1160.72
426.24	1166.01
426.61	1173.38
426.97	1179.37
427.34	1187.05
427.70	1192.95
428.07	1204.58
428.44	1207.76
428.80	1218.04
429.17	1226.60
429.53	1237.51
429.90	1250.03
430.27	1265.46
430.63	1274.56
431.00	1290.29
431.36	1304.05
431.73	1315.57
432.09	1329.78
432.46	1349.53
432.83	1363.36
433.19	1383.02
433.56	1403.15
433.92	1429.15
434.29	1454.76
434.65	1484.39
435.02	1513.72
435.38	1547.00
435.75	1581.31
436.11	1621.69
436.48	1664.21
436.84	1711.77
437.21	1757.27
437.57	1805.28
437.94	1855.67
438.30	1904.17
438.67	1956.27
439.03	2018.52
439.40	2088.88
439.76	2154.11
440.13	2233.60
440.49	2316.40
440.86	2389.15
441.22	2472.24
441.59	2566.16
441.95	2662.24
442.32	2763.05
442.68	2889.13
443.05	3011.31
443.41	3146.03
443.78	3279.93
444.14	3422.78
444.51	3556.96
444.87	3715.60
445.24	3875.18
445.60	4055.05
445.96	4233.42
446.33	4444.56
446.69	4648.87
447.06	4868.52
447.42	5083.83
447.79	5314.42
448.15	5577.22
448.51	5848.27
448.88	6161.39
449.24	6468.00
449.61	6823.88
449.97	7167.73
450.33	7542.31
450.70	7892.15
451.06	8323.27
451.43	8724.02
451.79	9192.85
452.15	9691.83
452.52	10226.64
452.88	10763.61
453.24	11398.74
453.61	12096.43
453.97	12784.38
454.34	13465.66
454.70	14276.66
455.06	15060.15
455.43	15809.83
455.79	16497.27
456.15	17317.86
456.52	18060.84
456.88	18970.39
457.24	19859.00
457.61	20978.32
457.97	22033.22
458.33	23138.28
458.70	24186.74
459.06	25190.76
459.42	26192.23
459.79	27096.41
460.15	28119.13
460.51	29092.37
460.88	30168.15
461.24	31130.81
461.60	32283.29
461.96	33329.49
462.33	34350.45
462.69	35356.16
463.05	36464.12
463.42	37455.27
463.78	38363.91
464.14	39107.12
464.50	39882.07
464.87	40439.80
465.23	40759.21
465.59	41177.58
465.95	41527.28
466.32	41757.19
466.68	41990.87
467.04	42168.10
467.40	42199.13
467.77	42306.68
468.13	42214.63
468.49	42036.33
468.85	41937.13
469.22	41755.53
469.58	41484.66
469.94	41333.11
470.30	41078.91
470.66	40719.24
471.03	40246.40
471.39	39865.27
471.75	39139.61
472.11	38466.19
472.47	37964.71
472.84	37461.42
473.20	36767.22
473.56	36386.90
473.92	35810.99
474.28	35170.41
474.65	34501.16
475.01	33816.79
475.37	32995.94
475.73	32324.02
476.09	31626.40
476.45	30974.86
476.81	30449.18
477.18	29921.22
477.54	29445.18
477.90	29012.27
478.26	28467.82
478.62	27944.08
478.98	27493.69
479.34	27053.57
479.71	26490.89
480.07	26058.80
480.43	25605.13
480.79	25128.76
481.15	24676.81
481.51	24331.93
481.87	24010.74
482.23	23650.67
482.59	23332.43
482.96	23012.80
483.32	22685.13
483.68	22298.38
484.04	21959.84
484.40	21541.26
484.76	21105.52
485.12	20653.43
485.48	20215.49
485.84	19727.74
486.20	19294.42
486.56	18857.72
486.92	18482.91
487.28	18093.75
487.64	17704.16
488.00	17327.48
488.37	16967.22
488.73	16545.86
489.09	16094.09
489.45	15670.45
489.81	15236.21
490.17	14793.52
490.53	14387.58
490.89	13981.80
491.25	13574.36
491.61	13166.54
491.97	12775.88
492.33	12372.96
492.69	12017.83
493.05	11683.28
493.41	11361.78
493.77	11028.11
494.13	10723.75
494.49	10435.11
494.85	10157.11
495.21	9892.70
495.57	9650.89
495.93	9394.09
496.29	9147.80
496.64	8914.35
497.00	8660.71
497.36	8409.52
497.72	8167.86
498.08	7938.11
498.44	7710.87
498.80	7513.42
499.16	7314.78
499.52	7130.96
499.88	6952.75
500.24	6790.57
500.60	6619.74
500.96	6458.57
501.32	6299.97
501.68	6132.81
502.03	5953.88
502.39	5794.21
502.75	5633.90
503.11	5477.02
503.47	5336.21
503.83	5208.39
504.19	5079.15
504.55	4959.95
504.91	4845.26
505.26	4729.78
505.62	4613.76
505.98	4504.62
506.34	4385.98
506.70	4267.69
507.06	4159.20
507.42	4054.44
507.78	3952.95
508.13	3864.15
508.49	3789.30
508.85	3711.86
509.21	3630.83
509.57	3551.44
509.93	3466.87
510.28	3376.81
510.64	3296.18
511.00	3218.00
511.36	3146.22
511.72	3082.77
512.07	3023.46
512.43	2959.98
512.79	2902.43
513.15	2839.75
513.51	2775.03
513.86	2716.54
514.22	2664.70
514.58	2608.15
514.94	2562.14
515.30	2519.96
515.65	2475.73
516.01	2433.88
516.37	2397.29
516.73	2362.14
517.08	2329.09
517.44	2293.14
517.80	2255.57
518.16	2222.36
518.51	2187.35
518.87	2151.96
519.23	2118.63
519.59	2087.69
519.94	2050.92
520.30	2022.46
520.66	1992.10
521.01	1964.53
521.37	1935.65
521.73	1913.39
522.09	1885.72
522.44	1863.72
522.80	1840.06
523.16	1819.93
523.51	1799.38
523.87	1775.65
524.23	1754.07
524.58	1735.30
524.94	1716.92
525.30	1691.62
525.65	1672.57
526.01	1653.96
526.37	1633.51
526.72	1612.72
527.08	1599.29
527.44	1585.36
527.79	1572.56
528.15	1557.70
528.51	1543.35
528.86	1528.77
529.22	1512.15
529.58	1495.44
529.93	1484.25
530.29	1472.59
530.65	1461.15
531.00	1454.17
531.36	1441.21
531.71	1430.30
532.07	1419.44
532.43	1405.61
532.78	1390.16
533.14	1380.87
533.49	1369.21
533.85	1360.86
534.21	1353.95
534.56	1347.70
534.92	1340.54
535.27	1333.52
535.63	1325.09
535.98	1316.69
536.34	1310.33
536.69	1303.35
537.05	1298.30
537.41	1290.52
537.76	1285.89
538.12	1276.46
538.47	1268.29
538.83	1263.75
539.18	1259.70
539.54	1254.34
539.89	1254.78
540.25	1254.04
540.60	1243.99
540.96	1240.69
541.31	1241.02
541.67	1235.71
542.02	1232.88
542.38	1235.15
542.73	1234.05
543.09	1228.20
543.44	1223.68
543.80	1217.85
544.15	1209.82
544.51	1201.23
544.86	1195.08
545.22	1193.32
545.57	1190.72
545.93	1188.45
546.28	1188.64
546.64	1188.66
546.99	1184.50
547.35	1182.13
547.70	1181.92
548.05	1176.70
548.41	1173.87
548.76	1172.75
549.12	1169.71
549.47	1164.95
549.83	1164.32
550.18	1162.12
550.53	1158.05
550.89	1155.29
551.24	1155.62
551.60	1155.38
551.95	1153.60
552.30	1156.29
552.66	1156.74
553.01	1154.02
553.37	1149.91
553.72	1147.63
554.07	1142.77
554.43	1141.36
554.78	1139.09
555.13	1140.22
555.49	1135.25
555.84	1132.91
556.19	1128.89
556.55	1129.07
556.90	1127.81
557.26	1131.67
557.61	1131.32
557.96	1132.68
558.32	1130.36
558.67	1127.41
559.02	1122.85
559.37	1120.13
559.73	1119.22
560.08	1119.78
560.43	1119.36
560.79	1121.68
561.14	1123.13
561.49	1121.96
561.85	1121.30
562.20	1119.67
562.55	1122.05
562.90	1125.03
563.26	1125.14
563.61	1122.90
563.96	1120.70
564.32	1114.54
564.67	1109.02
565.02	1105.18
565.37	1104.10
565.73	1104.62
566.08	1104.33
566.43	1102.37
566.78	1106.61
567.14	1106.98
567.49	1106.68
567.84	1107.52
568.19	1108.45
568.54	1102.21
568.90	1102.63
569.25	1104.87
569.60	1104.36
569.95	1105.53
570.31	1104.90
570.66	1101.32
571.01	1097.90
571.36	1099.14
571.71	1097.41
572.06	1100.78
572.42	1104.48
572.77	1101.22
573.12	1099.30
573.47	1099.47
573.82	1097.50
574.18	1095.49
574.53	1097.03
574.88	1095.91
575.23	1095.77
575.58	1094.48
575.93	1094.55
576.28	1095.14
576.64	1095.42
576.99	1097.06
577.34	1099.12
577.69	1099.14
578.04	1097.52
578.39	1097.64
578.74	1095.02
579.09	1091.74
579.44	1091.09
579.80	1095.82
580.15	1097.66
580.50	1096.56
580.85	1098.27
581.20	1097.78
581.55	1094.83
581.90	1092.49
582.25	1092.82
582.60	1094.29
582.95	1092.37
583.30	1091.58
583.65	1093.50
584.00	1092.16
584.35	1087.90
584.71	1089.36
585.06	1088.65
585.41	1086.45
585.76	1088.12
586.11	1093.31
586.46	1093.45
586.81	1094.76
587.16	1094.32
587.51	1095.60
587.86	1093.85
588.21	1093.78
588.56	1090.88
588.91	1090.03
589.26	1088.07
589.61	1088.49
589.96	1088.16
590.31	1087.86
590.66	1087.39
591.01	1085.45
591.36	1084.77
591.71	1084.35
592.06	1087.74
592.41	1088.96
592.76	1090.34
593.10	1087.93
593.45	1085.56
593.80	1086.34
594.15	1083.34
594.50	1085.89
594.85	1090.36
595.20	1091.88
595.55	1091.86
595.90	1092.42
596.25	1092.16
596.60	1088.56
596.95	1091.44
597.30	1089.17
597.64	1101.64
597.99	1099.49
598.34	1099.16
598.69	1095.79
599.04	1095.58
599.39	1084.00
599.74	1084.28
600.09	1085.28
600.44	1083.50
600.78	1085.47
601.13	1087.30
601.48	1085.00
601.83	1082.61
602.18	1083.48
602.53	1080.77
602.88	1080.53
603.22	1082.29
603.57	1085.05
603.92	1091.86
604.27	1095.21
604.62	1095.11
604.97	1097.01
605.31	1098.69
605.66	1091.56
606.01	1089.75
606.36	1089.03
606.71	1084.74
607.05	1080.23
607.40	1080.98
607.75	1075.45
608.10	1074.84
608.44	1077.04
608.79	1079.36
609.14	1080.18
609.49	1086.48
609.84	1086.22
610.18	1085.47
610.53	1086.34
610.88	1086.17
611.23	1084.58
611.57	1086.52
611.92	1087.41
612.27	1086.08
612.62	1086.59
612.96	1087.13
613.31	1085.66
613.66	1086.01
614.00	1087.06
614.35	1086.69
614.70	1084.07
615.05	1083.79
615.39	1080.02
615.74	1075.50
616.09	1075.97
616.43	1077.33
616.78	1075.64
617.13	1077.33
617.47	1078.03
617.82	1078.47
618.17	1080.67
618.51	1084.56
618.86	1086.01
619.21	1088.68
619.55	1089.07
619.90	1086.97
620.25	1088.89
620.59	1090.92
620.94	1090.41
621.29	1091.81
621.63	1093.87
621.98	1091.72
622.32	1090.69
622.67	1090.29
623.02	1087.81
623.36	1086.66
623.71	1085.24
624.05	1084.63
624.40	1085.45
624.75	1081.66
625.09	1081.09
625.44	1077.86
625.78	1076.55
626.13	1074.21
626.48	1076.65
626.82	1076.32
627.17	1078.52
627.51	1074.63
627.86	1076.74
628.20	1077.37
628.55	1077.65
628.89	1077.11
629.24	1079.60
629.58	1079.46
629.93	1079.13
630.28	1075.99
630.62	1076.01
630.97	1077.49
631.31	1076.74
631.66	1075.50
632.00	1077.09
632.35	1075.31
632.69	1075.64
633.04	1074.19
633.38	1075.90
633.73	1079.03
634.07	1082.33
634.42	1083.64
634.76	1084.70
635.11	1083.97
635.45	1084.18
635.79	1082.47
636.14	1080.30
636.48	1081.12
636.83	1080.91
637.17	1076.13
637.52	1076.97
637.86	1077.72
638.21	1074.35
638.55	1074.84
638.89	1079.24
639.24	1080.48
639.58	1079.97
639.93	1084.16
640.27	1086.03
640.61	1085.70
640.96	1084.89
641.30	1085.49
641.65	1083.34
641.99	1081.70
642.33	1079.88
642.68	1078.96
643.02	1078.05
643.37	1079.99
643.71	1079.10
644.05	1079.22
644.40	1079.27
644.74	1082.12
645.08	1079.85
645.43	1080.72
645.77	1083.25
646.11	1083.83
646.46	1081.05
646.80	1083.57
647.14	1083.88
647.49	1080.93
647.83	1079.76
648.17	1080.70
648.52	1079.17
648.86	1079.13
649.20	1079.31
649.55	1079.90
649.89	1079.97
650.23	1079.62
650.57	1076.20
650.92	1075.92
651.26	1075.52
651.60	1075.78
651.95	1076.25
652.29	1080.04
652.63	1081.37
652.97	1086.22
653.32	1082.87
653.66	1081.37
654.00	1079.27
654.34	1079.22
654.69	1075.43
655.03	1077.86
655.37	1077.23
655.71	1078.12
656.05	1076.13
656.40	1076.34
656.74	1075.36
657.08	1078.31
657.42	1080.63
657.76	1082.94
658.11	1081.77
658.45	1083.55
658.79	1083.41
659.13	1081.96
659.47	1078.85
659.82	1081.54
660.16	1082.26
660.50	1081.21
660.84	1080.72
661.18	1083.27
661.52	1081.47
661.87	1076.93
662.21	1079.13
662.55	1077.37
662.89	1073.58
663.23	1072.53
663.57	1077.84
663.91	1078.26
664.25	1078.31
664.60	1080.51
664.94	1081.28
665.28	1081.16
665.62	1081.26
665.96	1084.28
666.30	1085.42
666.64	1087.60
666.98	1087.39
667.32	1085.24
667.66	1082.36
668.01	1083.43
668.35	1081.87
668.69	1080.72
669.03	1080.60
669.37	1082.71
669.71	1081.30
670.05	1082.80
670.39	1081.96
670.73	1083.53
671.07	1082.47
671.41	1083.22
671.75	1082.94
672.09	1082.45
672.43	1080.95
672.77	1080.46
673.11	1076.58
673.45	1076.48
673.79	1077.89
674.13	1080.88
674.47	1080.63
674.81	1084.98
675.15	1082.50
675.49	1081.47
675.83	1081.35
676.17	1079.69
676.51	1078.89
676.85	1082.08
677.19	1080.46
677.53	1075.17
677.87	1079.50
678.21	1081.02
678.55	1075.94
678.89	1080.60
679.23	1083.01
679.57	1082.45
679.90	1081.44
680.24	1084.96
680.58	1079.64
680.92	1077.44
681.26	1077.89
681.60	1075.85
681.94	1075.80
682.28	1076.06
682.62	1078.66
682.96	1075.73
683.29	1075.87
683.63	1078.26
683.97	1080.79
684.31	1080.23
684.65	1084.18
684.99	1085.68
685.33	1083.04
685.67	1084.21
686.00	1087.32
686.34	1086.71
686.68	1083.62
687.02	1086.36
687.36	1082.45
687.70	1076.20
688.03	1076.86
688.37	1078.85
688.71	1074.70
689.05	1079.29
689.39	1081.37
689.72	1078.54
690.06	1080.09
690.40	1081.05
690.74	1079.17
691.08	1081.44
691.41	1080.34
691.75	1079.78
692.09	1077.37
692.43	1074.42
692.76	1071.66
693.10	1072.74
693.44	1073.63
693.78	1078.40
694.11	1081.16
694.45	1085.89
694.79	1086.59
695.13	1085.82
695.46	1082.64
695.80	1082.38
696.14	1076.74
696.48	1077.89
696.81	1077.75
697.15	1081.68
697.49	1083.20
697.82	1085.91
698.16	1084.53
698.50	1081.75
698.83	1080.09
699.17	1081.61
699.51	1084.51
699.84	1083.39
700.18	1086.10
700.52	1082.47
700.85	1079.29
701.19	1074.10
701.53	1073.95
701.86	1077.58
702.20	1080.25
702.54	1082.36
702.87	1086.01
703.21	1091.42
703.55	1089.26
703.88	1089.19
704.22	1088.44
704.55	1088.61
704.89	1086.15
705.23	1082.54
705.56	1080.95
705.90	1079.13
706.23	1075.83
706.57	1074.12
706.91	1074.87
707.24	1074.59
707.58	1077.75
707.91	1078.12
708.25	1080.51
708.58	1084.63
708.92	1088.37
709.26	1086.85
709.59	1089.50
709.93	1086.92
710.26	1086.15
710.60	1083.74
710.93	1083.43
711.27	1082.38
711.60	1082.15
711.94	1080.34
712.27	1081.33
712.61	1080.79
712.94	1078.14
713.28	1077.96
713.61	1077.23
713.95	1075.73
714.28	1077.49
714.62	1078.64
714.95	1080.41
715.29	1086.08
715.62	1090.13
715.96	1088.42
716.29	1090.48
716.63	1091.30
716.96	1090.06
717.29	1085.40
717.63	1087.27
717.96	1086.08
718.30	1084.96
718.63	1081.56
718.97	1081.70
719.30	1078.71
719.63	1078.85
719.97	1078.12
720.30	1078.61
720.64	1079.90
720.97	1080.98
721.30	1083.64
721.64	1082.52
721.97	1079.85
722.31	1078.00
722.64	1076.46
722.97	1075.03
723.31	1074.73
723.64	1076.18
723.97	1078.26
724.31	1078.24
724.64	1075.55
724.98	1074.94
725.31	1078.12
725.64	1080.60
725.98	1079.95
726.31	1080.74
726.64	1080.20
726.97	1075.69
727.31	1070.61
727.64	1072.78
727.97	1072.69
728.31	1075.73
728.64	1077.30
728.97	1082.40
729.31	1084.63
729.64	1086.36
729.97	1087.13
730.30	1089.47
730.64	1086.27
730.97	1084.84
731.30	1086.80
731.63	1089.50
731.97	1086.03
732.30	1084.51
732.63	1082.31
732.96	1079.43
733.30	1074.54
733.63	1075.55
733.96	1076.44
734.29	1076.39
734.63	1079.57
734.96	1078.92
735.29	1080.88
735.62	1083.27
735.95	1085.40
736.29	1081.96
736.62	1081.02
736.95	1079.03
737.28	1079.13
737.61	1080.48
737.94	1079.53
738.28	1081.00
738.61	1084.28
738.94	1081.91
739.27	1077.21
739.60	1078.89
739.93	1079.50
740.27	1076.08
740.60	1080.46
740.93	1083.57
741.26	1083.41
741.59	1082.24
741.92	1080.72
742.25	1079.22
742.58	1079.31
742.91	1077.23
743.25	1076.97
743.58	1078.80
743.91	1076.97
744.24	1078.50
744.57	1081.63
744.90	1084.56
745.23	1085.24
745.56	1084.14
745.89	1084.46
746.22	1083.86
746.55	1083.79
746.88	1081.73
747.21	1082.15
747.54	1082.33
747.87	1081.35
748.20	1079.20
748.53	1080.91
748.87	1083.60
749.20	1083.22
749.53	1082.29
749.86	1085.54
750.19	1083.93
750.52	1079.88
750.85	1079.69
751.18	1080.39
751.51	1077.96
751.84	1078.96
752.16	1079.13
752.49	1078.45
752.82	1078.43
753.15	1077.07
753.48	1077.42
753.81	1078.31
754.14	1078.38
754.47	1078.82
754.80	1079.97
755.13	1080.63
755.46	1082.17
755.79	1081.56
756.12	1083.71
756.45	1081.84
756.78	1080.25
757.11	1079.41
757.43	1079.83
757.76	1076.86
758.09	1079.97
758.42	1075.90
758.75	1076.41
759.08	1074.31
759.41	1075.66
759.74	1074.26
760.07	1080.63
760.39	1076.69
760.72	1075.78
761.05	1075.66
761.38	1073.98
761.71	1073.18
762.04	1078.28
762.36	1080.70
762.69	1081.49
763.02	1079.08
763.35	1080.51
763.68	1079.67
764.01	1077.04
