SpectraSuite Data File
++++++++++++++++++++++++++++++++++++
Date: Mon Aug 26 10:22:05 PDT 2019
User: corrico
Dark Spectrum Present: No
Reference Spectrum Present: No
Number of Sampled Component Spectra: 1
Spectrometers: USB2+H06089
Integration Time (usec): 2000 (USB2+H06089)
Spectra Averaged: 20 (USB2+H06089)
Boxcar Smoothing: 2 (USB2+H06089)
Correct for Electrical Dark: No (USB2+H06089)
Strobe/Lamp Enabled: No (USB2+H06089)
Correct for Detector Non-linearity: No (USB2+H06089)
Correct for Stray Light: No (USB2+H06089)
Number of Pixels in Processed Spectrum: 2048
>>>>>Begin Processed Spectral Data<<<<<
339.70	1025.51
340.07	1025.51
340.45	988.71
340.82	965.33
341.19	941.43
341.57	915.45
341.94	905.97
342.31	900.52
342.69	896.75
343.06	894.18
343.43	893.97
343.81	897.74
344.18	903.91
344.55	908.60
344.93	914.96
345.30	923.88
345.67	929.99
346.04	931.04
346.42	938.74
346.79	945.81
347.16	951.38
347.54	958.71
347.91	976.45
348.28	988.13
348.65	1001.89
349.03	1011.21
349.40	1021.57
349.77	1025.55
350.14	1029.98
350.52	1033.14
350.89	1039.34
351.26	1044.96
351.63	1049.50
352.01	1055.65
352.38	1064.80
352.75	1068.76
353.12	1070.91
353.50	1072.81
353.87	1073.49
354.24	1071.17
354.61	1073.81
354.98	1076.04
355.36	1079.57
355.73	1082.71
356.10	1085.61
356.47	1089.47
356.84	1088.35
357.22	1089.50
357.59	1089.33
357.96	1087.93
358.33	1087.27
358.70	1088.21
359.08	1085.91
359.45	1086.36
359.82	1084.60
360.19	1082.87
360.56	1083.76
360.94	1083.97
361.31	1084.25
361.68	1082.45
362.05	1081.26
362.42	1078.68
362.79	1078.64
363.16	1077.14
363.54	1076.30
363.91	1074.07
364.28	1074.03
364.65	1074.33
365.02	1076.27
365.39	1079.95
365.76	1081.00
366.14	1082.47
366.51	1079.95
366.88	1076.08
367.25	1074.87
367.62	1075.34
367.99	1072.76
368.36	1070.72
368.73	1072.83
369.10	1070.26
369.48	1070.58
369.85	1075.17
370.22	1079.03
370.59	1078.52
370.96	1080.72
371.33	1082.52
371.70	1078.21
372.07	1079.85
372.44	1078.94
372.81	1080.67
373.18	1080.04
373.55	1081.84
373.93	1078.33
374.30	1076.83
374.67	1076.27
375.04	1077.63
375.41	1077.28
375.78	1076.51
376.15	1078.40
376.52	1081.54
376.89	1080.27
377.26	1081.21
377.63	1083.64
378.00	1084.28
378.37	1081.66
378.74	1082.36
379.11	1084.79
379.48	1086.64
379.85	1086.78
380.22	1088.54
380.59	1089.52
380.96	1086.80
381.33	1084.86
381.70	1084.93
382.07	1083.48
382.44	1081.51
382.81	1081.91
383.18	1085.12
383.55	1085.70
383.92	1084.11
384.29	1083.67
384.66	1083.18
385.03	1080.39
385.40	1078.82
385.77	1079.85
386.14	1082.57
386.51	1083.74
386.88	1086.64
387.25	1090.55
387.62	1092.12
387.99	1091.60
388.36	1091.81
388.73	1088.37
389.10	1087.46
389.46	1086.27
389.83	1087.69
390.20	1085.47
390.57	1084.58
390.94	1085.47
391.31	1086.57
391.68	1088.33
392.05	1090.01
392.42	1092.45
392.79	1089.19
393.16	1089.96
393.53	1084.84
393.89	1084.89
394.26	1082.08
394.63	1084.09
395.00	1081.02
395.37	1082.43
395.74	1081.61
396.11	1083.88
396.48	1085.07
396.84	1089.38
397.21	1090.10
397.58	1092.75
397.95	1091.70
398.32	1091.56
398.69	1088.70
399.06	1088.56
399.42	1087.20
399.79	1086.69
400.16	1086.97
400.53	1089.03
400.90	1090.08
401.27	1088.79
401.64	1091.11
402.00	1090.36
402.37	1092.45
402.74	1093.31
403.11	1093.80
403.48	1094.13
403.84	1094.76
404.21	1091.27
404.58	1091.11
404.95	1094.62
405.32	1096.07
405.68	1097.64
406.05	1098.72
406.42	1098.67
406.79	1099.14
407.16	1098.79
407.52	1098.37
407.89	1100.78
408.26	1099.00
408.63	1096.45
408.99	1095.77
409.36	1097.03
409.73	1091.72
410.10	1092.45
410.47	1091.16
410.83	1093.99
411.20	1091.16
411.57	1094.46
411.94	1097.95
412.30	1100.36
412.67	1101.06
413.04	1102.88
413.40	1103.70
413.77	1101.13
414.14	1103.82
414.51	1102.51
414.87	1101.39
415.24	1097.90
415.61	1101.67
415.97	1100.68
416.34	1101.97
416.71	1105.27
417.08	1108.27
417.44	1106.65
417.81	1107.47
418.18	1109.44
418.54	1109.86
418.91	1112.85
419.28	1116.86
419.64	1118.52
420.01	1118.57
420.38	1122.43
420.74	1126.94
421.11	1124.18
421.48	1128.44
421.84	1132.59
422.21	1131.30
422.58	1129.33
422.94	1134.15
423.31	1135.23
423.68	1137.64
424.04	1142.18
424.41	1146.89
424.77	1150.16
425.14	1154.45
425.51	1158.17
425.87	1164.86
426.24	1170.88
426.61	1177.17
426.97	1182.67
427.34	1189.62
427.70	1195.48
428.07	1205.28
428.44	1216.28
428.80	1225.43
429.17	1233.74
429.53	1246.15
429.90	1257.48
430.27	1266.14
430.63	1278.07
431.00	1291.58
431.36	1304.01
431.73	1318.61
432.09	1337.29
432.46	1357.32
432.83	1380.35
433.19	1400.83
433.56	1424.50
433.92	1448.58
434.29	1475.64
434.65	1499.84
435.02	1529.10
435.38	1559.62
435.75	1591.26
436.11	1628.22
436.48	1670.37
436.84	1715.21
437.21	1762.12
437.57	1811.55
437.94	1865.66
438.30	1920.08
438.67	1977.17
439.03	2041.18
439.40	2113.50
439.76	2180.91
440.13	2256.67
440.49	2340.37
440.86	2418.24
441.22	2501.82
441.59	2588.47
441.95	2686.82
442.32	2791.91
442.68	2912.49
443.05	3032.30
443.41	3160.21
443.78	3292.36
444.14	3423.71
444.51	3555.84
444.87	3721.90
445.24	3896.69
445.60	4078.57
445.96	4272.18
446.33	4492.07
446.69	4694.93
447.06	4909.13
447.42	5133.66
447.79	5367.78
448.15	5637.20
448.51	5924.01
448.88	6257.09
449.24	6563.38
449.61	6919.02
449.97	7269.12
450.33	7637.75
450.70	7994.68
451.06	8438.92
451.43	8842.05
451.79	9309.29
452.15	9798.33
452.52	10328.39
452.88	10875.81
453.24	11522.50
453.61	12236.11
453.97	12955.50
454.34	13656.39
454.70	14478.27
455.06	15289.03
455.43	16037.54
455.79	16738.27
456.15	17574.83
456.52	18325.11
456.88	19241.40
457.24	20148.74
457.61	21250.54
457.97	22299.31
458.33	23394.38
458.70	24440.51
459.06	25441.37
459.42	26464.62
459.79	27397.77
460.15	28448.91
460.51	29440.43
460.88	30545.04
461.24	31541.71
461.60	32691.64
461.96	33763.23
462.33	34826.66
462.69	35881.00
463.05	37013.58
463.42	38059.64
463.78	38997.23
464.14	39732.91
464.50	40448.90
464.87	40951.09
465.23	41259.71
465.59	41629.33
465.95	41955.41
466.32	42210.53
466.68	42503.31
467.04	42709.56
467.40	42777.57
467.77	42894.13
468.13	42821.41
468.49	42627.19
468.85	42507.62
469.22	42382.02
469.58	42137.81
469.94	42007.33
470.30	41821.44
470.66	41470.41
471.03	40965.83
471.39	40591.47
471.75	39846.43
472.11	39109.51
472.47	38575.61
472.84	38028.56
473.20	37307.91
473.56	36936.51
473.92	36384.91
474.28	35778.29
474.65	35135.63
475.01	34433.03
475.37	33599.33
475.73	32909.87
476.09	32195.85
476.45	31555.03
476.81	31038.62
477.18	30476.02
477.54	29998.58
477.90	29566.07
478.26	28964.32
478.62	28441.75
478.98	28029.37
479.34	27600.53
479.71	27022.98
480.07	26605.97
480.43	26157.27
480.79	25645.67
481.15	25157.04
481.51	24768.25
481.87	24441.14
482.23	24073.23
482.59	23751.76
482.96	23411.91
483.32	23096.76
483.68	22690.21
484.04	22343.57
484.40	21932.81
484.76	21509.24
485.12	21061.90
485.48	20633.04
485.84	20137.78
486.20	19698.25
486.56	19251.96
486.92	18871.04
487.28	18468.11
487.64	18067.84
488.00	17664.35
488.37	17272.26
488.73	16804.25
489.09	16322.97
489.45	15861.67
489.81	15392.56
490.17	14958.81
490.53	14565.46
490.89	14172.32
491.25	13777.49
491.61	13387.89
491.97	12989.11
492.33	12584.87
492.69	12228.90
493.05	11900.76
493.41	11595.39
493.77	11280.54
494.13	10982.12
494.49	10673.24
494.85	10372.32
495.21	10080.94
495.57	9793.20
495.93	9513.93
496.29	9245.14
496.64	9009.38
497.00	8753.51
497.36	8506.28
497.72	8253.01
498.08	8047.09
498.44	7811.51
498.80	7604.75
499.16	7405.92
499.52	7221.82
499.88	7034.39
500.24	6873.29
500.60	6715.96
500.96	6559.80
501.32	6402.21
501.68	6233.57
502.03	6049.30
502.39	5874.18
502.75	5704.61
503.11	5545.55
503.47	5402.73
503.83	5274.70
504.19	5142.02
504.55	5020.75
504.91	4909.81
505.26	4801.40
505.62	4677.75
505.98	4573.38
506.34	4461.20
506.70	4341.69
507.06	4230.85
507.42	4133.95
507.78	4027.80
508.13	3937.02
508.49	3855.19
508.85	3771.23
509.21	3692.01
509.57	3615.12
509.93	3524.66
510.28	3433.05
510.64	3350.64
511.00	3264.30
511.36	3183.34
511.72	3118.95
512.07	3057.51
512.43	2990.97
512.79	2934.21
513.15	2873.41
513.51	2814.56
513.86	2755.82
514.22	2703.65
514.58	2652.58
514.94	2609.77
515.30	2562.49
515.65	2519.42
516.01	2478.39
516.37	2436.85
516.73	2396.43
517.08	2356.97
517.44	2314.09
517.80	2272.82
518.16	2236.08
518.51	2201.04
518.87	2167.57
519.23	2138.43
519.59	2112.61
519.94	2080.88
520.30	2050.96
520.66	2018.48
521.01	1988.19
521.37	1952.99
521.73	1924.72
522.09	1897.59
522.44	1875.64
522.80	1852.16
523.16	1830.25
523.51	1806.10
523.87	1781.36
524.23	1761.28
524.58	1740.89
524.94	1724.83
525.30	1705.36
525.65	1687.27
526.01	1670.16
526.37	1650.97
526.72	1636.27
527.08	1618.39
527.44	1601.44
527.79	1584.36
528.15	1570.94
528.51	1550.39
528.86	1540.66
529.22	1529.03
529.58	1515.38
529.93	1503.44
530.29	1492.72
530.65	1474.96
531.00	1464.26
531.36	1454.88
531.71	1440.93
532.07	1428.78
532.43	1421.95
532.78	1410.41
533.14	1396.69
533.49	1384.38
533.85	1375.74
534.21	1363.99
534.56	1354.14
534.92	1346.51
535.27	1338.13
535.63	1326.94
535.98	1319.34
536.34	1314.23
536.69	1308.15
537.05	1304.94
537.41	1298.58
537.76	1290.50
538.12	1280.81
538.47	1276.34
538.83	1270.91
539.18	1265.34
539.54	1262.79
539.89	1259.47
540.25	1252.02
540.60	1247.37
540.96	1249.26
541.31	1248.79
541.67	1247.65
542.02	1242.24
542.38	1236.62
542.73	1231.29
543.09	1226.51
543.44	1222.79
543.80	1224.01
544.15	1225.11
544.51	1219.14
544.86	1214.06
545.22	1208.49
545.57	1202.03
545.93	1200.11
546.28	1196.55
546.64	1194.14
546.99	1191.33
547.35	1190.84
547.70	1183.63
548.05	1184.52
548.41	1184.10
548.76	1183.00
549.12	1180.43
549.47	1180.33
549.83	1175.58
550.18	1165.94
550.53	1164.18
550.89	1161.82
551.24	1159.74
551.60	1156.97
551.95	1160.18
552.30	1154.21
552.66	1155.24
553.01	1154.19
553.37	1155.71
553.72	1154.91
554.07	1156.81
554.43	1150.12
554.78	1145.06
555.13	1140.78
555.49	1138.65
555.84	1138.69
556.19	1140.15
556.55	1140.57
556.90	1142.20
557.26	1142.65
557.61	1140.31
557.96	1139.98
558.32	1141.27
558.67	1140.19
559.02	1134.04
559.37	1129.66
559.73	1126.71
560.08	1125.80
560.43	1121.37
560.79	1123.43
561.14	1126.08
561.49	1125.77
561.85	1122.71
562.20	1121.14
562.55	1119.17
562.90	1115.80
563.26	1113.60
563.61	1110.14
563.96	1111.36
564.32	1110.82
564.67	1110.09
565.02	1109.65
565.37	1111.31
565.73	1109.25
566.08	1111.87
566.43	1109.98
566.78	1109.58
567.14	1109.65
567.49	1110.19
567.84	1108.57
568.19	1111.92
568.54	1114.73
568.90	1113.14
569.25	1112.90
569.60	1110.77
569.95	1111.73
570.31	1109.69
570.66	1110.02
571.01	1110.26
571.36	1106.04
571.71	1101.69
572.06	1100.85
572.42	1099.56
572.77	1098.09
573.12	1102.58
573.47	1106.58
573.82	1105.36
574.18	1105.51
574.53	1105.95
574.88	1104.55
575.23	1100.64
575.58	1100.12
575.93	1099.82
576.28	1097.45
576.64	1099.37
576.99	1101.74
577.34	1102.98
577.69	1101.32
578.04	1104.76
578.39	1099.68
578.74	1097.76
579.09	1095.14
579.44	1096.33
579.80	1091.93
580.15	1095.14
580.50	1092.14
580.85	1092.05
581.20	1091.44
581.55	1094.81
581.90	1094.65
582.25	1095.72
582.60	1096.35
582.95	1096.07
583.30	1094.13
583.65	1092.75
584.00	1093.76
584.35	1093.52
584.71	1096.45
585.06	1095.77
585.41	1097.20
585.76	1095.46
586.11	1092.14
586.46	1088.02
586.81	1087.88
587.16	1085.24
587.51	1086.87
587.86	1090.95
588.21	1090.41
588.56	1090.20
588.91	1088.79
589.26	1089.22
589.61	1085.10
589.96	1085.99
590.31	1089.54
590.66	1091.02
591.01	1089.96
591.36	1093.99
591.71	1092.47
592.06	1091.04
592.41	1091.13
592.76	1089.26
593.10	1088.82
593.45	1091.98
593.80	1090.74
594.15	1090.67
594.50	1090.22
594.85	1089.29
595.20	1089.64
595.55	1090.90
595.90	1094.27
596.25	1097.08
596.60	1096.70
596.95	1094.41
597.30	1092.96
597.64	1102.51
597.99	1101.64
598.34	1101.67
598.69	1104.41
599.04	1104.17
599.39	1090.27
599.74	1088.16
600.09	1086.97
600.44	1082.03
600.78	1078.71
601.13	1081.23
601.48	1084.14
601.83	1084.98
602.18	1088.42
602.53	1090.60
602.88	1092.75
603.22	1091.04
603.57	1094.08
603.92	1090.64
604.27	1092.28
604.62	1085.91
604.97	1085.12
605.31	1086.08
605.66	1088.16
606.01	1087.09
606.36	1088.49
606.71	1087.69
607.05	1084.86
607.40	1088.58
607.75	1087.58
608.10	1091.04
608.44	1092.84
608.79	1090.92
609.14	1085.59
609.49	1086.52
609.84	1086.10
610.18	1087.16
610.53	1088.33
610.88	1094.25
611.23	1093.05
611.57	1093.17
611.92	1091.65
612.27	1093.15
612.62	1088.49
612.96	1089.03
613.31	1087.97
613.66	1088.58
614.00	1087.02
614.35	1088.61
614.70	1088.04
615.05	1086.78
615.39	1084.58
615.74	1081.44
616.09	1078.92
616.43	1079.88
616.78	1082.01
617.13	1084.28
617.47	1086.90
617.82	1089.07
618.17	1090.85
618.51	1089.05
618.86	1088.26
619.21	1088.42
619.55	1088.28
619.90	1087.16
620.25	1086.36
620.59	1086.27
620.94	1085.12
621.29	1085.40
621.63	1083.97
621.98	1088.02
622.32	1088.91
622.67	1090.62
623.02	1090.34
623.36	1092.00
623.71	1088.12
624.05	1088.70
624.40	1086.29
624.75	1086.59
625.09	1083.48
625.44	1084.14
625.78	1084.14
626.13	1084.28
626.48	1081.70
626.82	1082.85
627.17	1084.51
627.51	1084.79
627.86	1085.87
628.20	1090.24
628.55	1093.08
628.89	1092.98
629.24	1091.86
629.58	1090.41
629.93	1092.19
630.28	1086.97
630.62	1082.69
630.97	1083.15
631.31	1082.97
631.66	1079.38
632.00	1083.43
632.35	1086.17
632.69	1087.90
633.04	1090.22
633.38	1089.57
633.73	1084.79
634.07	1082.36
634.42	1079.67
634.76	1078.85
635.11	1076.46
635.45	1079.67
635.79	1079.48
636.14	1079.97
636.48	1080.93
636.83	1082.52
637.17	1083.34
637.52	1084.39
637.86	1084.21
638.21	1080.93
638.55	1082.22
638.89	1083.36
639.24	1087.39
639.58	1086.38
639.93	1086.90
640.27	1084.72
640.61	1082.83
640.96	1079.74
641.30	1076.39
641.65	1078.03
641.99	1081.35
642.33	1081.82
642.68	1082.01
643.02	1084.39
643.37	1081.82
643.71	1079.57
644.05	1078.19
644.40	1077.49
644.74	1076.93
645.08	1078.59
645.43	1082.05
645.77	1083.86
646.11	1085.54
646.46	1087.62
646.80	1089.50
647.14	1085.42
647.49	1086.03
647.83	1084.53
648.17	1082.19
648.52	1084.35
648.86	1086.06
649.20	1087.41
649.55	1084.65
649.89	1087.23
650.23	1083.74
650.57	1084.56
650.92	1079.90
651.26	1084.58
651.60	1087.55
651.95	1087.30
652.29	1085.40
652.63	1087.65
652.97	1086.55
653.32	1084.72
653.66	1084.70
654.00	1085.89
654.34	1085.68
654.69	1084.02
655.03	1084.70
655.37	1086.22
655.71	1088.79
656.05	1087.44
656.40	1086.17
656.74	1085.49
657.08	1084.63
657.42	1081.12
657.76	1082.57
658.11	1086.78
658.45	1083.43
658.79	1083.53
659.13	1086.38
659.47	1084.77
659.82	1081.12
660.16	1084.53
660.50	1085.07
660.84	1079.50
661.18	1081.16
661.52	1083.13
661.87	1083.53
662.21	1084.91
662.55	1085.68
662.89	1084.67
663.23	1086.52
663.57	1085.03
663.91	1082.29
664.25	1084.91
664.60	1083.29
664.94	1080.77
665.28	1080.60
665.62	1081.09
665.96	1080.60
666.30	1083.11
666.64	1081.49
666.98	1081.80
667.32	1083.62
667.66	1081.05
668.01	1079.60
668.35	1081.49
668.69	1078.66
669.03	1077.86
669.37	1081.96
669.71	1083.53
670.05	1083.34
670.39	1084.91
670.73	1086.15
671.07	1083.93
671.41	1083.81
671.75	1086.57
672.09	1086.17
672.43	1082.83
672.77	1083.53
673.11	1081.49
673.45	1079.55
673.79	1080.58
674.13	1078.80
674.47	1072.04
674.81	1072.57
675.15	1071.33
675.49	1069.04
675.83	1071.99
676.17	1075.43
676.51	1077.56
676.85	1079.57
677.19	1082.87
677.53	1080.77
677.87	1085.42
678.21	1085.31
678.55	1083.90
678.89	1083.50
679.23	1084.56
679.57	1080.98
679.90	1082.57
680.24	1082.31
680.58	1080.98
680.92	1081.09
681.26	1083.04
681.60	1078.66
681.94	1082.12
682.28	1085.52
682.62	1087.02
682.96	1086.62
683.29	1089.85
683.63	1088.49
683.97	1087.74
684.31	1089.10
684.65	1091.49
684.99	1092.14
685.33	1088.98
685.67	1085.96
686.00	1084.04
686.34	1081.02
686.68	1081.09
687.02	1080.70
687.36	1082.31
687.70	1081.51
688.03	1080.65
688.37	1078.31
688.71	1078.89
689.05	1079.38
689.39	1082.59
689.72	1081.49
690.06	1082.36
690.40	1083.13
690.74	1082.03
691.08	1078.17
691.41	1080.81
691.75	1080.72
692.09	1081.33
692.43	1082.05
692.76	1082.40
693.10	1082.10
693.44	1083.79
693.78	1083.83
694.11	1084.39
694.45	1084.11
694.79	1085.17
695.13	1081.89
695.46	1080.98
695.80	1076.97
696.14	1076.97
696.48	1075.57
696.81	1076.83
697.15	1076.97
697.49	1078.89
697.82	1082.01
698.16	1082.15
698.50	1082.19
698.83	1083.48
699.17	1083.50
699.51	1080.63
699.84	1081.00
700.18	1079.31
700.52	1078.80
700.85	1078.45
701.19	1079.57
701.53	1077.42
701.86	1078.38
702.20	1077.84
702.54	1080.95
702.87	1081.05
703.21	1084.65
703.55	1085.49
703.88	1084.14
704.22	1081.94
704.55	1080.98
704.89	1080.98
705.23	1080.84
705.56	1083.06
705.90	1082.24
706.23	1081.91
706.57	1078.94
706.91	1078.71
707.24	1077.68
707.58	1079.08
707.91	1082.24
708.25	1084.18
708.58	1083.29
708.92	1079.15
709.26	1078.87
709.59	1077.28
709.93	1074.49
710.26	1073.28
710.60	1077.86
710.93	1078.43
711.27	1077.91
711.60	1080.84
711.94	1086.17
712.27	1090.71
712.61	1089.85
712.94	1089.05
713.28	1088.12
713.61	1083.11
713.95	1079.60
714.28	1079.97
714.62	1078.31
714.95	1081.61
715.29	1084.93
715.62	1084.21
715.96	1083.08
716.29	1084.14
716.63	1081.33
716.96	1081.40
717.29	1081.73
717.63	1081.49
717.96	1081.40
718.30	1079.13
718.63	1079.43
718.97	1081.66
719.30	1084.25
719.63	1087.48
719.97	1088.82
720.30	1086.78
720.64	1080.95
720.97	1078.43
721.30	1076.76
721.64	1076.72
721.97	1077.58
722.31	1078.24
722.64	1080.25
722.97	1076.39
723.31	1074.70
723.64	1074.00
723.97	1079.27
724.31	1080.20
724.64	1085.31
724.98	1087.02
725.31	1088.51
725.64	1084.65
725.98	1081.49
726.31	1081.19
726.64	1083.32
726.97	1081.84
727.31	1080.46
727.64	1085.12
727.97	1083.20
728.31	1080.13
728.64	1080.58
728.97	1084.25
729.31	1080.37
729.64	1080.48
729.97	1081.33
730.30	1079.46
730.64	1076.62
730.97	1079.78
731.30	1079.31
731.63	1080.74
731.97	1082.19
732.30	1088.26
732.63	1085.80
732.96	1088.44
733.30	1084.98
733.63	1084.93
733.96	1082.15
734.29	1080.84
734.63	1079.85
734.96	1082.31
735.29	1081.84
735.62	1078.24
735.95	1079.34
736.29	1080.11
736.62	1080.60
736.95	1079.34
737.28	1082.57
737.61	1084.00
737.94	1085.33
738.28	1085.31
738.61	1084.42
738.94	1082.92
739.27	1082.99
739.60	1079.38
739.93	1077.21
740.27	1082.38
740.60	1081.19
740.93	1077.91
741.26	1077.56
741.59	1076.58
741.92	1074.49
742.25	1075.87
742.58	1075.57
742.91	1076.90
743.25	1080.11
743.58	1081.00
743.91	1081.02
744.24	1081.49
744.57	1081.89
744.90	1080.60
745.23	1080.67
745.56	1080.44
745.89	1080.46
746.22	1078.71
746.55	1079.57
746.88	1079.88
747.21	1078.50
747.54	1078.96
747.87	1080.41
748.20	1077.65
748.53	1075.08
748.87	1079.60
749.20	1081.02
749.53	1081.02
749.86	1081.21
750.19	1083.29
750.52	1079.41
750.85	1077.61
751.18	1078.54
751.51	1082.78
751.84	1082.17
752.16	1081.47
752.49	1084.74
752.82	1085.68
753.15	1084.14
753.48	1082.40
753.81	1084.23
754.14	1081.80
754.47	1078.59
754.80	1077.33
755.13	1076.08
755.46	1078.61
755.79	1081.07
756.12	1083.93
756.45	1085.38
756.78	1088.96
757.11	1084.46
757.43	1086.08
757.76	1084.93
758.09	1084.91
758.42	1082.38
758.75	1084.63
759.08	1079.64
759.41	1078.78
759.74	1076.25
760.07	1075.66
760.39	1073.81
760.72	1075.05
761.05	1072.76
761.38	1074.33
761.71	1076.60
762.04	1077.33
762.36	1074.05
762.69	1075.01
763.02	1075.71
763.35	1078.03
763.68	1079.17
