SpectraSuite Data File
++++++++++++++++++++++++++++++++++++
Date: Mon Aug 26 10:22:31 PDT 2019
User: corrico
Dark Spectrum Present: No
Reference Spectrum Present: No
Number of Sampled Component Spectra: 1
Spectrometers: USB2+H06089
Integration Time (usec): 2000 (USB2+H06089)
Spectra Averaged: 20 (USB2+H06089)
Boxcar Smoothing: 2 (USB2+H06089)
Correct for Electrical Dark: No (USB2+H06089)
Strobe/Lamp Enabled: No (USB2+H06089)
Correct for Detector Non-linearity: No (USB2+H06089)
Correct for Stray Light: No (USB2+H06089)
Number of Pixels in Processed Spectrum: 2048
>>>>>Begin Processed Spectral Data<<<<<
339.70	1022.23
340.07	1022.23
340.45	985.44
340.82	965.33
341.19	943.07
341.57	917.26
341.94	907.36
342.31	902.28
342.69	898.06
343.06	895.25
343.43	896.33
343.81	897.57
344.18	901.27
344.55	905.16
344.93	910.07
345.30	916.69
345.67	923.97
346.04	934.62
346.42	940.85
346.79	946.70
347.16	954.49
347.54	965.89
347.91	970.62
348.28	981.97
348.65	993.14
349.03	1002.66
349.40	1010.67
349.77	1019.94
350.14	1026.32
350.52	1037.00
350.89	1046.83
351.26	1051.32
351.63	1056.14
352.01	1063.28
352.38	1065.37
352.75	1064.52
353.12	1069.25
353.50	1072.76
353.87	1073.91
354.24	1074.75
354.61	1077.89
354.98	1079.71
355.36	1084.02
355.73	1084.35
356.10	1088.58
356.47	1088.86
356.84	1089.12
357.22	1085.56
357.59	1087.32
357.96	1085.52
358.33	1086.90
358.70	1084.84
359.08	1085.52
359.45	1083.76
359.82	1079.41
360.19	1078.78
360.56	1078.38
360.94	1075.73
361.31	1072.41
361.68	1075.78
362.05	1073.81
362.42	1072.74
362.79	1072.08
363.16	1073.60
363.54	1072.04
363.91	1070.49
364.28	1073.67
364.65	1074.91
365.02	1073.49
365.39	1074.59
365.76	1076.32
366.14	1075.29
366.51	1075.59
366.88	1077.54
367.25	1074.10
367.62	1076.04
367.99	1072.90
368.36	1072.20
368.73	1069.95
369.10	1072.25
369.48	1071.52
369.85	1074.73
370.22	1076.01
370.59	1081.14
370.96	1082.52
371.33	1081.19
371.70	1080.77
372.07	1079.62
372.44	1078.21
372.81	1075.57
373.18	1078.14
373.55	1077.44
373.93	1078.73
374.30	1078.59
374.67	1081.70
375.04	1081.73
375.41	1081.07
375.78	1082.15
376.15	1080.98
376.52	1078.99
376.89	1076.79
377.26	1079.24
377.63	1078.17
378.00	1074.84
378.37	1074.24
378.74	1074.21
379.11	1071.50
379.48	1071.99
379.85	1076.79
380.22	1079.46
380.59	1080.67
380.96	1081.63
381.33	1082.12
381.70	1080.39
382.07	1081.33
382.44	1080.20
382.81	1082.94
383.18	1082.31
383.55	1082.47
383.92	1081.91
384.29	1085.38
384.66	1086.43
385.03	1083.95
385.40	1083.88
385.77	1082.71
386.14	1081.21
386.51	1079.90
386.88	1081.66
387.25	1085.00
387.62	1086.17
387.99	1086.50
388.36	1083.08
388.73	1082.52
389.10	1082.24
389.46	1079.81
389.83	1078.05
390.20	1079.24
390.57	1078.71
390.94	1076.11
391.31	1079.20
391.68	1083.43
392.05	1086.55
392.42	1087.86
392.79	1089.33
393.16	1091.32
393.53	1087.11
393.89	1085.94
394.26	1088.00
394.63	1087.37
395.00	1082.69
395.37	1083.60
395.74	1080.23
396.11	1082.57
396.48	1081.58
396.84	1082.50
397.21	1084.98
397.58	1089.38
397.95	1084.91
398.32	1085.28
398.69	1088.70
399.06	1088.28
399.42	1088.96
399.79	1090.17
400.16	1090.74
400.53	1089.59
400.90	1090.85
401.27	1089.36
401.64	1090.17
402.00	1094.11
402.37	1094.69
402.74	1092.77
403.11	1094.88
403.48	1096.70
403.84	1095.91
404.21	1095.32
404.58	1097.48
404.95	1096.78
405.32	1094.41
405.68	1096.26
406.05	1098.20
406.42	1095.86
406.79	1092.21
407.16	1092.75
407.52	1090.10
407.89	1086.57
408.26	1087.53
408.63	1090.57
408.99	1087.72
409.36	1086.90
409.73	1086.80
410.10	1087.37
410.47	1087.27
410.83	1090.10
411.20	1091.81
411.57	1094.32
411.94	1093.52
412.30	1094.22
412.67	1093.66
413.04	1092.35
413.40	1096.59
413.77	1096.03
414.14	1097.90
414.51	1101.41
414.87	1102.63
415.24	1098.44
415.61	1098.06
415.97	1098.60
416.34	1102.86
416.71	1104.99
417.08	1108.34
417.44	1111.66
417.81	1111.99
418.18	1108.38
418.54	1105.93
418.91	1102.60
419.28	1103.35
419.64	1106.91
420.01	1109.72
420.38	1113.39
420.74	1119.92
421.11	1121.51
421.48	1119.85
421.84	1119.31
422.21	1123.88
422.58	1123.81
422.94	1128.93
423.31	1131.95
423.68	1134.72
424.04	1132.75
424.41	1132.94
424.77	1134.48
425.14	1141.50
425.51	1144.83
425.87	1149.74
426.24	1156.51
426.61	1158.17
426.97	1162.15
427.34	1169.59
427.70	1175.63
428.07	1181.99
428.44	1188.41
428.80	1191.54
429.17	1198.47
429.53	1209.75
429.90	1220.05
430.27	1232.95
430.63	1243.99
431.00	1253.82
431.36	1262.79
431.73	1272.95
432.09	1285.16
432.46	1301.60
432.83	1319.85
433.19	1337.17
433.56	1356.97
433.92	1376.56
434.29	1396.78
434.65	1419.93
435.02	1443.06
435.38	1469.25
435.75	1497.90
436.11	1529.14
436.48	1557.32
436.84	1594.56
437.21	1630.67
437.57	1668.90
437.94	1709.88
438.30	1753.51
438.67	1796.50
439.03	1845.47
439.40	1901.01
439.76	1955.38
440.13	2016.54
440.49	2083.78
440.86	2148.96
441.22	2217.26
441.59	2290.45
441.95	2373.94
442.32	2451.06
442.68	2547.30
443.05	2641.74
443.41	2744.68
443.78	2837.74
444.14	2952.35
444.51	3061.77
444.87	3201.50
445.24	3341.58
445.60	3501.04
445.96	3657.58
446.33	3823.73
446.69	3982.23
447.06	4157.03
447.42	4342.47
447.79	4527.04
448.15	4752.86
448.51	4979.63
448.88	5244.23
449.24	5483.29
449.61	5768.93
449.97	6040.31
450.33	6324.55
450.70	6573.93
451.06	6893.65
451.43	7188.67
451.79	7547.62
452.15	7953.14
452.52	8410.76
452.88	8881.19
453.24	9427.82
453.61	10000.31
453.97	10561.88
454.34	11116.61
454.70	11760.98
455.06	12404.11
455.43	13036.64
455.79	13629.78
456.15	14334.77
456.52	14992.84
456.88	15735.21
457.24	16450.03
457.61	17297.96
457.97	18068.09
458.33	18834.69
458.70	19611.42
459.06	20375.67
459.42	21213.45
459.79	21996.73
460.15	22898.16
460.51	23774.83
460.88	24704.80
461.24	25505.71
461.60	26454.65
461.96	27335.00
462.33	28167.41
462.69	28941.96
463.05	29784.70
463.42	30475.09
463.78	31118.43
464.14	31650.43
464.50	32231.87
464.87	32691.18
465.23	33069.73
465.59	33422.26
465.95	33729.74
466.32	34006.56
466.68	34246.27
467.04	34378.54
467.40	34505.51
467.77	34656.36
468.13	34610.09
468.49	34505.54
468.85	34413.58
469.22	34237.64
469.58	33892.62
469.94	33653.81
470.30	33327.71
470.66	32917.25
471.03	32323.85
471.39	31922.64
471.75	31274.82
472.11	30678.20
472.47	30309.52
472.84	29997.69
473.20	29495.17
473.56	29224.79
473.92	28803.50
474.28	28297.99
474.65	27806.27
475.01	27354.31
475.37	26800.44
475.73	26331.87
476.09	25788.05
476.45	25266.79
476.81	24759.85
477.18	24218.37
477.54	23791.19
477.90	23455.26
478.26	23051.80
478.62	22697.88
478.98	22415.80
479.34	22096.62
479.71	21685.37
480.07	21349.92
480.43	21000.41
480.79	20629.20
481.15	20273.53
481.51	19960.88
481.87	19707.40
482.23	19422.80
482.59	19158.83
482.96	18875.60
483.32	18599.79
483.68	18219.46
484.04	17884.15
484.40	17524.46
484.76	17150.79
485.12	16771.20
485.48	16447.34
485.84	16089.90
486.20	15734.46
486.56	15382.91
486.92	15078.25
487.28	14730.49
487.64	14375.62
488.00	14039.84
488.37	13714.42
488.73	13350.70
489.09	12992.76
489.45	12683.76
489.81	12381.13
490.17	12080.25
490.53	11795.11
490.89	11493.13
491.25	11190.48
491.61	10882.65
491.97	10562.91
492.33	10241.13
492.69	9955.12
493.05	9653.75
493.41	9365.86
493.77	9098.48
494.13	8847.13
494.49	8603.81
494.85	8372.56
495.21	8151.31
495.57	7940.50
495.93	7719.70
496.29	7512.96
496.64	7328.52
497.00	7136.81
497.36	6948.72
497.72	6774.63
498.08	6590.48
498.44	6404.81
498.80	6232.50
499.16	6068.07
499.52	5916.20
499.88	5787.47
500.24	5674.07
500.60	5555.61
500.96	5444.62
501.32	5325.87
501.68	5209.10
502.03	5071.73
502.39	4949.06
502.75	4804.21
503.11	4679.62
503.47	4555.90
503.83	4435.41
504.19	4315.67
504.55	4212.92
504.91	4120.23
505.26	4028.86
505.62	3946.80
505.98	3861.93
506.34	3769.22
506.70	3674.41
507.06	3588.77
507.42	3502.59
507.78	3418.24
508.13	3344.41
508.49	3266.73
508.85	3190.27
509.21	3122.39
509.57	3065.75
509.93	3009.06
510.28	2951.58
510.64	2890.77
511.00	2830.39
511.36	2764.29
511.72	2706.38
512.07	2653.25
512.43	2607.36
512.79	2556.01
513.15	2509.22
513.51	2459.36
513.86	2416.06
514.22	2368.27
514.58	2329.77
514.94	2292.74
515.30	2259.83
515.65	2221.50
516.01	2187.61
516.37	2153.76
516.73	2123.73
517.08	2091.99
517.44	2064.61
517.80	2037.53
518.16	2014.43
518.51	1989.92
518.87	1964.72
519.23	1938.83
519.59	1915.38
519.94	1887.92
520.30	1858.29
520.66	1830.21
521.01	1804.48
521.37	1781.03
521.73	1757.79
522.09	1739.56
522.44	1725.44
522.80	1706.84
523.16	1686.59
523.51	1668.29
523.87	1647.62
524.23	1626.13
524.58	1606.80
524.94	1592.50
525.30	1576.30
525.65	1563.24
526.01	1545.92
526.37	1533.87
526.72	1519.69
527.08	1508.83
527.44	1496.28
527.79	1486.40
528.15	1474.98
528.51	1463.14
528.86	1450.69
529.22	1437.44
529.58	1423.91
529.93	1411.67
530.29	1397.28
530.65	1386.81
531.00	1380.28
531.36	1372.56
531.71	1362.52
532.07	1356.04
532.43	1349.83
532.78	1340.00
533.14	1332.72
533.49	1326.97
533.85	1317.67
534.21	1305.90
534.56	1299.16
534.92	1291.58
535.27	1284.25
535.63	1282.31
535.98	1278.73
536.34	1272.17
536.69	1270.04
537.05	1264.64
537.41	1255.81
537.76	1250.60
538.12	1246.80
538.47	1237.30
538.83	1228.80
539.18	1226.58
539.54	1222.58
539.89	1217.76
540.25	1217.43
540.60	1217.52
540.96	1214.01
541.31	1207.72
541.67	1203.76
542.02	1199.50
542.38	1198.45
542.73	1194.09
543.09	1196.55
543.44	1196.25
543.80	1191.75
544.15	1187.38
544.51	1183.61
544.86	1176.56
545.22	1172.07
545.57	1173.31
545.93	1170.15
546.28	1169.80
546.64	1168.96
546.99	1167.34
547.35	1161.28
547.70	1158.28
548.05	1159.62
548.41	1157.54
548.76	1152.67
549.12	1151.92
549.47	1152.34
549.83	1145.36
550.18	1144.15
550.53	1145.81
550.89	1147.10
551.24	1145.20
551.60	1145.36
551.95	1142.58
552.30	1141.69
552.66	1140.15
553.01	1138.23
553.37	1136.63
553.72	1133.80
554.07	1129.59
554.43	1125.96
554.78	1127.25
555.13	1128.93
555.49	1131.30
555.84	1131.98
556.19	1132.75
556.55	1129.80
556.90	1127.90
557.26	1126.80
557.61	1127.39
557.96	1122.47
558.32	1120.41
558.67	1118.47
559.02	1115.92
559.37	1114.45
559.73	1119.06
560.08	1118.21
560.43	1116.46
560.79	1116.39
561.14	1112.36
561.49	1106.39
561.85	1105.08
562.20	1105.11
562.55	1105.51
562.90	1106.75
563.26	1109.16
563.61	1111.22
563.96	1109.60
564.32	1106.84
564.67	1104.80
565.02	1103.45
565.37	1099.68
565.73	1100.17
566.08	1100.50
566.43	1100.71
566.78	1099.00
567.14	1102.72
567.49	1102.49
567.84	1103.07
568.19	1102.91
568.54	1104.59
568.90	1103.68
569.25	1100.12
569.60	1100.99
569.95	1099.93
570.31	1096.47
570.66	1096.47
571.01	1098.72
571.36	1095.60
571.71	1096.61
572.06	1098.44
572.42	1095.77
572.77	1093.62
573.12	1095.84
573.47	1095.53
573.82	1094.88
574.18	1093.40
574.53	1095.91
574.88	1094.41
575.23	1092.84
575.58	1091.65
575.93	1093.80
576.28	1096.14
576.64	1095.42
576.99	1098.34
577.34	1099.68
577.69	1097.62
578.04	1094.53
578.39	1096.40
578.74	1092.75
579.09	1093.64
579.44	1095.84
579.80	1096.35
580.15	1092.07
580.50	1093.97
580.85	1093.22
581.20	1092.49
581.55	1090.67
581.90	1094.62
582.25	1095.23
582.60	1094.36
582.95	1091.79
583.30	1092.98
583.65	1092.52
584.00	1091.74
584.35	1093.05
584.71	1095.39
585.06	1094.11
585.41	1095.98
585.76	1096.56
586.11	1097.85
586.46	1097.38
586.81	1096.03
587.16	1088.65
587.51	1087.18
587.86	1085.19
588.21	1088.14
588.56	1087.93
588.91	1090.64
589.26	1090.15
589.61	1090.97
589.96	1087.58
590.31	1088.63
590.66	1089.38
591.01	1089.00
591.36	1092.19
591.71	1087.74
592.06	1087.44
592.41	1087.46
592.76	1087.53
593.10	1085.45
593.45	1089.66
593.80	1089.78
594.15	1089.64
594.50	1091.58
594.85	1089.45
595.20	1089.80
595.55	1092.21
595.90	1091.02
596.25	1087.11
596.60	1082.76
596.95	1081.98
597.30	1082.50
597.64	1092.28
597.99	1094.55
598.34	1096.78
598.69	1096.45
599.04	1092.00
599.39	1083.62
599.74	1085.56
600.09	1086.48
600.44	1086.36
600.78	1090.53
601.13	1091.86
601.48	1088.04
601.83	1088.96
602.18	1090.08
602.53	1086.03
602.88	1083.11
603.22	1087.46
603.57	1089.92
603.92	1088.30
604.27	1092.87
604.62	1090.81
604.97	1087.32
605.31	1083.13
605.66	1082.24
606.01	1077.44
606.36	1078.57
606.71	1082.19
607.05	1080.63
607.40	1080.91
607.75	1082.26
608.10	1085.80
608.44	1081.19
608.79	1085.59
609.14	1087.23
609.49	1088.28
609.84	1087.32
610.18	1091.72
610.53	1092.09
610.88	1092.47
611.23	1091.91
611.57	1092.77
611.92	1087.88
612.27	1086.64
612.62	1086.73
612.96	1085.07
613.31	1081.68
613.66	1082.66
614.00	1081.73
614.35	1080.46
614.70	1080.93
615.05	1081.49
615.39	1082.78
615.74	1082.50
616.09	1082.73
616.43	1080.77
616.78	1081.37
617.13	1081.37
617.47	1082.12
617.82	1083.27
618.17	1086.62
618.51	1087.02
618.86	1088.61
619.21	1086.69
619.55	1085.47
619.90	1083.20
620.25	1081.44
620.59	1079.24
620.94	1078.80
621.29	1079.88
621.63	1081.94
621.98	1084.11
622.32	1084.67
622.67	1086.27
623.02	1085.12
623.36	1085.21
623.71	1084.09
624.05	1081.49
624.40	1080.86
624.75	1080.74
625.09	1079.15
625.44	1079.88
625.78	1081.30
626.13	1080.56
626.48	1079.64
626.82	1078.99
627.17	1078.24
627.51	1079.88
627.86	1082.03
628.20	1083.69
628.55	1082.59
628.89	1082.97
629.24	1081.21
629.58	1079.27
629.93	1079.50
630.28	1081.77
630.62	1080.48
630.97	1079.50
631.31	1080.09
631.66	1080.67
632.00	1078.80
632.35	1079.95
632.69	1083.69
633.04	1084.60
633.38	1083.25
633.73	1084.63
634.07	1084.39
634.42	1082.69
634.76	1082.08
635.11	1080.41
635.45	1081.73
635.79	1081.49
636.14	1080.23
636.48	1081.61
636.83	1084.84
637.17	1085.77
637.52	1086.08
637.86	1088.56
638.21	1086.64
638.55	1086.57
638.89	1085.28
639.24	1083.08
639.58	1080.13
639.93	1080.13
640.27	1079.78
640.61	1079.57
640.96	1082.83
641.30	1082.69
641.65	1084.67
641.99	1082.85
642.33	1082.94
642.68	1082.10
643.02	1083.50
643.37	1081.30
643.71	1081.73
644.05	1081.07
644.40	1083.13
644.74	1082.94
645.08	1082.10
645.43	1081.54
645.77	1082.40
646.11	1082.19
646.46	1081.91
646.80	1083.69
647.14	1085.03
647.49	1083.88
647.83	1082.45
648.17	1082.36
648.52	1084.46
648.86	1083.29
649.20	1083.74
649.55	1082.57
649.89	1080.91
650.23	1078.00
650.57	1079.29
650.92	1080.27
651.26	1080.04
651.60	1079.62
651.95	1079.74
652.29	1077.96
652.63	1077.02
652.97	1076.69
653.32	1079.15
653.66	1081.66
654.00	1082.01
654.34	1082.87
654.69	1084.09
655.03	1087.04
655.37	1084.07
655.71	1085.70
656.05	1084.74
656.40	1086.66
656.74	1082.36
657.08	1083.43
657.42	1081.87
657.76	1084.00
658.11	1083.06
658.45	1088.28
658.79	1086.62
659.13	1086.36
659.47	1086.38
659.82	1088.00
660.16	1083.62
660.50	1085.47
660.84	1088.21
661.18	1087.13
661.52	1084.79
661.87	1088.82
662.21	1089.31
662.55	1085.33
662.89	1082.52
663.23	1081.19
663.57	1076.93
663.91	1079.57
664.25	1081.54
664.60	1084.11
664.94	1084.49
665.28	1087.16
665.62	1086.69
665.96	1088.00
666.30	1088.21
666.64	1090.43
666.98	1087.13
667.32	1084.14
667.66	1079.62
668.01	1079.85
668.35	1076.13
668.69	1077.44
669.03	1074.66
669.37	1075.64
669.71	1072.81
670.05	1075.27
670.39	1076.67
670.73	1078.45
671.07	1080.53
671.41	1081.66
671.75	1078.14
672.09	1077.54
672.43	1082.61
672.77	1087.76
673.11	1091.39
673.45	1096.19
673.79	1097.48
674.13	1095.93
674.47	1091.32
674.81	1088.65
675.15	1085.42
675.49	1080.32
675.83	1075.83
676.17	1074.35
676.51	1075.90
676.85	1075.43
677.19	1077.02
677.53	1080.23
677.87	1082.83
678.21	1083.43
678.55	1084.63
678.89	1086.41
679.23	1085.07
679.57	1084.09
679.90	1080.74
680.24	1079.97
680.58	1081.47
680.92	1081.02
681.26	1081.84
681.60	1082.57
681.94	1085.61
682.28	1083.39
682.62	1085.54
682.96	1085.40
683.29	1086.41
683.63	1082.94
683.97	1081.26
684.31	1077.98
684.65	1075.78
684.99	1075.24
685.33	1079.55
685.67	1082.52
686.00	1086.71
686.34	1085.91
686.68	1083.01
687.02	1080.48
687.36	1082.26
687.70	1076.90
688.03	1078.87
688.37	1080.74
688.71	1080.63
689.05	1077.61
689.39	1079.76
689.72	1077.35
690.06	1078.31
690.40	1076.83
690.74	1074.19
691.08	1073.60
691.41	1074.89
691.75	1071.64
692.09	1074.00
692.43	1077.04
692.76	1076.32
693.10	1075.90
693.44	1080.44
693.78	1078.64
694.11	1075.27
694.45	1077.61
694.79	1079.88
695.13	1078.54
695.46	1080.67
695.80	1084.14
696.14	1083.15
696.48	1084.11
696.81	1084.81
697.15	1084.56
697.49	1084.86
697.82	1082.76
698.16	1080.88
698.50	1083.95
698.83	1082.61
699.17	1080.65
699.51	1083.93
699.84	1085.52
700.18	1082.45
700.52	1083.25
700.85	1085.61
701.19	1085.24
701.53	1084.07
701.86	1082.94
702.20	1083.04
702.54	1083.11
702.87	1081.56
703.21	1081.75
703.55	1081.73
703.88	1079.29
704.22	1077.28
704.55	1077.28
704.89	1073.07
705.23	1074.14
705.56	1077.04
705.90	1075.94
706.23	1076.81
706.57	1078.14
706.91	1076.23
707.24	1076.44
707.58	1077.47
707.91	1078.43
708.25	1080.32
708.58	1080.44
708.92	1081.58
709.26	1083.36
709.59	1085.35
709.93	1082.29
710.26	1083.18
710.60	1078.66
710.93	1077.07
711.27	1075.92
711.60	1079.06
711.94	1081.94
712.27	1083.86
712.61	1083.69
712.94	1081.98
713.28	1081.00
713.61	1078.87
713.95	1079.62
714.28	1080.72
714.62	1081.28
714.95	1082.45
715.29	1081.16
715.62	1081.87
715.96	1084.28
716.29	1083.36
716.63	1084.91
716.96	1084.84
717.29	1080.91
717.63	1078.21
717.96	1078.61
718.30	1076.41
718.63	1079.50
718.97	1080.67
719.30	1079.67
719.63	1079.27
719.97	1076.46
720.30	1074.94
720.64	1078.50
720.97	1078.05
721.30	1079.69
721.64	1085.96
721.97	1087.18
722.31	1084.18
722.64	1086.13
722.97	1087.04
723.31	1084.07
723.64	1081.56
723.97	1082.57
724.31	1082.17
724.64	1080.23
724.98	1078.82
725.31	1079.06
725.64	1078.00
725.98	1073.53
726.31	1073.09
726.64	1072.57
726.97	1069.62
727.31	1071.87
727.64	1076.32
727.97	1076.11
728.31	1077.77
728.64	1082.19
728.97	1082.05
729.31	1084.86
729.64	1087.16
729.97	1089.05
730.30	1090.88
730.64	1089.00
730.97	1087.97
731.30	1087.69
731.63	1087.76
731.97	1084.35
732.30	1086.90
732.63	1085.89
732.96	1083.67
733.30	1081.51
733.63	1078.40
733.96	1075.36
734.29	1073.42
734.63	1073.70
734.96	1074.10
735.29	1073.65
735.62	1073.04
735.95	1073.67
736.29	1075.27
736.62	1074.61
736.95	1078.31
737.28	1080.93
737.61	1083.27
737.94	1081.33
738.28	1083.36
738.61	1086.22
738.94	1084.70
739.27	1081.87
739.60	1082.66
739.93	1080.20
740.27	1075.73
740.60	1077.77
740.93	1079.60
741.26	1080.04
741.59	1081.26
741.92	1081.35
742.25	1080.81
742.58	1081.98
742.91	1082.24
743.25	1082.29
743.58	1084.44
743.91	1086.17
744.24	1084.21
744.57	1082.31
744.90	1085.31
745.23	1085.24
745.56	1083.48
745.89	1085.00
746.22	1086.59
746.55	1083.74
746.88	1082.76
747.21	1082.15
747.54	1081.30
747.87	1079.53
748.20	1078.12
748.53	1077.72
748.87	1077.40
749.20	1077.16
749.53	1078.12
749.86	1079.76
750.19	1080.67
750.52	1082.59
750.85	1080.77
751.18	1080.60
751.51	1081.19
751.84	1078.40
752.16	1074.96
752.49	1074.49
752.82	1076.20
753.15	1074.52
753.48	1079.10
753.81	1081.80
754.14	1082.47
754.47	1083.39
754.80	1084.37
755.13	1083.27
755.46	1081.26
755.79	1081.94
756.12	1081.26
756.45	1080.23
756.78	1082.61
757.11	1085.68
757.43	1086.94
757.76	1086.22
758.09	1088.91
758.42	1082.87
758.75	1079.55
759.08	1077.72
759.41	1076.34
759.74	1073.95
760.07	1076.51
760.39	1077.42
760.72	1078.73
761.05	1080.27
761.38	1082.12
761.71	1085.31
762.04	1086.83
762.36	1089.68
762.69	1090.55
763.02	1087.48
763.35	1084.53
763.68	1081.89
764.01	1079.55
