SpectraSuite Data File
++++++++++++++++++++++++++++++++++++
Date: Mon Aug 26 10:21:54 PDT 2019
User: corrico
Dark Spectrum Present: No
Reference Spectrum Present: No
Number of Sampled Component Spectra: 1
Spectrometers: USB2+H06089
Integration Time (usec): 2000 (USB2+H06089)
Spectra Averaged: 20 (USB2+H06089)
Boxcar Smoothing: 2 (USB2+H06089)
Correct for Electrical Dark: No (USB2+H06089)
Strobe/Lamp Enabled: No (USB2+H06089)
Correct for Detector Non-linearity: No (USB2+H06089)
Correct for Stray Light: No (USB2+H06089)
Number of Pixels in Processed Spectrum: 2048
>>>>>Begin Processed Spectral Data<<<<<
339.70	1034.17
340.07	1034.17
340.45	999.36
340.82	973.76
341.19	949.06
341.57	921.54
341.94	910.75
342.31	900.94
342.69	898.84
343.06	895.23
343.43	894.76
343.81	893.01
344.18	895.28
344.55	897.15
344.93	902.14
345.30	907.99
345.67	916.90
346.04	923.83
346.42	931.72
346.79	940.73
347.16	949.49
347.54	958.85
347.91	970.36
348.28	980.08
348.65	990.42
349.03	997.23
349.40	1003.83
349.77	1008.42
350.14	1018.91
350.52	1023.98
350.89	1035.69
351.26	1042.66
351.63	1049.19
352.01	1050.48
352.38	1054.55
352.75	1056.14
353.12	1060.73
353.50	1066.51
353.87	1069.48
354.24	1069.20
354.61	1070.47
354.98	1070.58
355.36	1069.60
355.73	1072.64
356.10	1075.27
356.47	1077.44
356.84	1078.26
357.22	1078.31
357.59	1076.48
357.96	1080.58
358.33	1079.38
358.70	1078.47
359.08	1080.34
359.45	1083.11
359.82	1079.22
360.19	1077.86
360.56	1079.60
360.94	1076.13
361.31	1071.75
361.68	1070.77
362.05	1068.24
362.42	1064.99
362.79	1066.18
363.16	1065.69
363.54	1066.21
363.91	1068.01
364.28	1067.66
364.65	1070.02
365.02	1069.79
365.39	1069.30
365.76	1069.46
366.14	1069.11
366.51	1065.60
366.88	1067.19
367.25	1067.10
367.62	1067.24
367.99	1065.22
368.36	1063.40
368.73	1061.20
369.10	1061.43
369.48	1061.08
369.85	1065.65
370.22	1070.33
370.59	1071.24
370.96	1070.47
371.33	1065.72
371.70	1063.68
372.07	1057.85
372.44	1060.82
372.81	1062.18
373.18	1065.90
373.55	1067.78
373.93	1069.39
374.30	1065.58
374.67	1065.25
375.04	1065.01
375.41	1062.74
375.78	1067.78
376.15	1070.21
376.52	1069.60
376.89	1071.36
377.26	1073.67
377.63	1070.84
378.00	1069.70
378.37	1069.48
378.74	1068.97
379.11	1065.46
379.48	1063.94
379.85	1065.04
380.22	1064.34
380.59	1067.17
380.96	1069.30
381.33	1071.97
381.70	1072.57
382.07	1071.99
382.44	1070.05
382.81	1070.91
383.18	1069.32
383.55	1069.13
383.92	1070.98
384.29	1070.28
384.66	1067.89
385.03	1068.69
385.40	1066.70
385.77	1067.94
386.14	1068.29
386.51	1071.15
386.88	1070.65
387.25	1074.31
387.62	1073.79
387.99	1074.28
388.36	1071.94
388.73	1069.98
389.10	1068.78
389.46	1069.23
389.83	1070.28
390.20	1071.52
390.57	1074.38
390.94	1073.53
391.31	1073.16
391.68	1071.36
392.05	1071.73
392.42	1073.39
392.79	1073.37
393.16	1071.22
393.53	1069.65
393.89	1066.82
394.26	1065.20
394.63	1066.04
395.00	1068.57
395.37	1070.26
395.74	1074.68
396.11	1073.74
396.48	1072.90
396.84	1073.77
397.21	1076.01
397.58	1075.99
397.95	1075.90
398.32	1077.44
398.69	1071.33
399.06	1068.97
399.42	1067.49
399.79	1070.49
400.16	1070.21
400.53	1076.18
400.90	1076.88
401.27	1077.37
401.64	1075.55
402.00	1076.39
402.37	1076.76
402.74	1077.14
403.11	1079.34
403.48	1078.96
403.84	1079.24
404.21	1075.57
404.58	1078.19
404.95	1078.05
405.32	1081.02
405.68	1082.40
406.05	1082.47
406.42	1080.13
406.79	1080.79
407.16	1078.73
407.52	1076.93
407.89	1078.36
408.26	1078.57
408.63	1074.33
408.99	1074.54
409.36	1071.01
409.73	1072.08
410.10	1070.26
410.47	1073.02
410.83	1072.55
411.20	1075.17
411.57	1074.61
411.94	1075.03
412.30	1073.18
412.67	1072.60
413.04	1073.98
413.40	1073.93
413.77	1076.27
414.14	1077.42
414.51	1077.42
414.87	1077.21
415.24	1077.37
415.61	1075.29
415.97	1075.31
416.34	1074.40
416.71	1073.95
417.08	1075.66
417.44	1077.04
417.81	1078.21
418.18	1080.72
418.54	1080.09
418.91	1079.17
419.28	1079.10
419.64	1077.98
420.01	1078.43
420.38	1080.37
420.74	1084.72
421.11	1086.87
421.48	1090.71
421.84	1092.54
422.21	1092.16
422.58	1090.99
422.94	1091.46
423.31	1086.62
423.68	1083.34
424.04	1083.64
424.41	1083.25
424.77	1084.74
425.14	1089.96
425.51	1091.20
425.87	1093.22
426.24	1092.40
426.61	1091.72
426.97	1092.28
427.34	1096.82
427.70	1096.99
428.07	1099.89
428.44	1099.09
428.80	1103.14
429.17	1103.16
429.53	1103.96
429.90	1106.42
430.27	1108.97
430.63	1106.96
431.00	1110.42
431.36	1115.73
431.73	1118.94
432.09	1122.87
432.46	1127.23
432.83	1129.78
433.19	1127.48
433.56	1127.44
433.92	1130.31
434.29	1134.27
434.65	1140.54
435.02	1147.92
435.38	1154.28
435.75	1161.87
436.11	1165.77
436.48	1168.49
436.84	1177.01
437.21	1181.95
437.57	1188.15
437.94	1197.82
438.30	1208.02
438.67	1216.66
439.03	1226.91
439.40	1237.07
439.76	1245.75
440.13	1257.31
440.49	1271.68
440.86	1288.75
441.22	1305.67
441.59	1325.75
441.95	1342.74
442.32	1355.66
442.68	1369.40
443.05	1383.61
443.41	1396.04
443.78	1415.60
444.14	1440.72
444.51	1467.33
444.87	1494.50
445.24	1524.27
445.60	1550.93
445.96	1577.29
446.33	1608.35
446.69	1642.38
447.06	1677.74
447.42	1713.67
447.79	1748.52
448.15	1789.95
448.51	1830.65
448.88	1879.54
449.24	1929.44
449.61	1984.73
449.97	2036.87
450.33	2091.78
450.70	2141.08
451.06	2197.69
451.43	2259.88
451.79	2330.14
452.15	2403.73
452.52	2484.22
452.88	2570.40
453.24	2659.06
453.61	2755.75
453.97	2848.08
454.34	2938.29
454.70	3041.92
455.06	3151.16
455.43	3260.37
455.79	3374.16
456.15	3498.52
456.52	3615.45
456.88	3750.45
457.24	3881.61
457.61	4029.02
457.97	4185.14
458.33	4341.86
458.70	4501.44
459.06	4654.83
459.42	4828.22
459.79	4986.65
460.15	5163.17
460.51	5328.42
460.88	5488.56
461.24	5626.51
461.60	5787.33
461.96	5926.28
462.33	6057.42
462.69	6202.98
463.05	6366.35
463.42	6518.49
463.78	6657.12
464.14	6795.46
464.50	6940.20
464.87	7029.45
465.23	7084.26
465.59	7161.78
465.95	7218.77
466.32	7269.59
466.68	7343.10
467.04	7399.70
467.40	7440.35
467.77	7472.49
468.13	7468.86
468.49	7456.88
468.85	7452.08
469.22	7432.02
469.58	7393.47
469.94	7375.94
470.30	7337.39
470.66	7287.19
471.03	7202.72
471.39	7144.49
471.75	7035.67
472.11	6918.58
472.47	6822.01
472.84	6729.25
473.20	6618.10
473.56	6534.26
473.92	6447.97
474.28	6381.19
474.65	6314.46
475.01	6240.76
475.37	6161.55
475.73	6091.57
476.09	5993.06
476.45	5903.77
476.81	5827.72
477.18	5729.73
477.54	5647.34
477.90	5570.52
478.26	5488.95
478.62	5410.29
478.98	5366.38
479.34	5311.10
479.71	5245.30
480.07	5187.59
480.43	5143.12
480.79	5077.93
481.15	5014.18
481.51	4964.60
481.87	4918.17
482.23	4837.28
482.59	4765.75
482.96	4705.88
483.32	4640.00
483.68	4583.33
484.04	4537.92
484.40	4487.11
484.76	4431.73
485.12	4367.53
485.48	4298.56
485.84	4229.51
486.20	4166.48
486.56	4099.52
486.92	4043.53
487.28	3976.13
487.64	3913.75
488.00	3846.90
488.37	3777.27
488.73	3705.47
489.09	3641.80
489.45	3576.10
489.81	3523.16
490.17	3464.62
490.53	3404.29
490.89	3346.40
491.25	3289.55
491.61	3225.61
491.97	3162.74
492.33	3098.89
492.69	3030.53
493.05	2965.93
493.41	2906.41
493.77	2851.31
494.13	2804.48
494.49	2756.92
494.85	2708.75
495.21	2662.36
495.57	2619.88
495.93	2574.12
496.29	2531.80
496.64	2485.79
497.00	2439.00
497.36	2396.99
497.72	2353.03
498.08	2311.51
498.44	2282.44
498.80	2246.56
499.16	2214.76
499.52	2185.33
499.88	2160.48
500.24	2126.89
500.60	2099.41
500.96	2067.09
501.32	2037.46
501.68	2004.46
502.03	1977.57
502.39	1954.70
502.75	1926.14
503.11	1900.80
503.47	1876.50
503.83	1854.15
504.19	1829.18
504.55	1810.83
504.91	1788.73
505.26	1766.33
505.62	1746.30
505.98	1724.20
506.34	1700.35
506.70	1680.11
507.06	1662.41
507.42	1640.74
507.78	1621.64
508.13	1603.85
508.49	1587.70
508.85	1570.12
509.21	1554.14
509.57	1540.12
509.93	1523.13
510.28	1509.48
510.64	1497.40
511.00	1480.46
511.36	1464.87
511.72	1454.60
512.07	1438.63
512.43	1425.57
512.79	1417.62
513.15	1407.27
513.51	1393.88
513.86	1384.80
514.22	1376.59
514.58	1366.26
514.94	1356.20
515.30	1349.76
515.65	1340.75
516.01	1327.83
516.37	1318.85
516.73	1312.78
517.08	1307.61
517.44	1301.01
517.80	1298.62
518.16	1290.64
518.51	1284.42
518.87	1274.02
519.23	1269.88
519.59	1262.37
519.94	1257.55
520.30	1253.78
520.66	1253.12
521.01	1245.31
521.37	1241.94
521.73	1239.78
522.09	1235.24
522.44	1227.12
522.80	1222.02
523.16	1216.10
523.51	1209.94
523.87	1203.97
524.23	1199.99
524.58	1197.18
524.94	1194.96
525.30	1190.40
525.65	1184.38
526.01	1180.36
526.37	1178.11
526.72	1173.85
527.08	1171.09
527.44	1166.97
527.79	1162.85
528.15	1158.40
528.51	1154.09
528.86	1152.01
529.22	1153.63
529.58	1151.82
529.93	1153.04
530.29	1149.74
530.65	1146.02
531.00	1140.82
531.36	1138.83
531.71	1133.08
532.07	1133.05
532.43	1134.04
532.78	1133.85
533.14	1134.53
533.49	1136.33
533.85	1138.20
534.21	1134.48
534.56	1134.67
534.92	1133.80
535.27	1130.34
535.63	1123.71
535.98	1122.22
536.34	1119.53
536.69	1115.80
537.05	1114.47
537.41	1115.94
537.76	1119.55
538.12	1115.59
538.47	1115.45
538.83	1114.35
539.18	1113.79
539.54	1108.66
539.89	1109.06
540.25	1111.24
540.60	1108.59
540.96	1108.27
541.31	1107.38
541.67	1110.35
542.02	1108.90
542.38	1111.29
542.73	1111.97
543.09	1112.99
543.44	1112.22
543.80	1114.68
544.15	1113.60
544.51	1108.88
544.86	1107.92
545.22	1105.81
545.57	1097.24
545.93	1095.65
546.28	1096.00
546.64	1095.89
546.99	1092.73
547.35	1097.83
547.70	1095.21
548.05	1094.01
548.41	1091.72
548.76	1093.17
549.12	1091.72
549.47	1095.93
549.83	1099.28
550.18	1096.87
550.53	1097.52
550.89	1093.40
551.24	1091.20
551.60	1087.09
551.95	1090.01
552.30	1086.24
552.66	1088.49
553.01	1085.89
553.37	1087.60
553.72	1087.65
554.07	1089.68
554.43	1089.03
554.78	1089.00
555.13	1088.75
555.49	1086.87
555.84	1085.99
556.19	1086.50
556.55	1087.37
556.90	1086.99
557.26	1085.33
557.61	1085.99
557.96	1086.41
558.32	1087.53
558.67	1084.04
559.02	1086.73
559.37	1089.12
559.73	1089.71
560.08	1088.75
560.43	1091.46
560.79	1088.89
561.14	1086.24
561.49	1083.20
561.85	1081.40
562.20	1083.79
562.55	1084.44
562.90	1082.71
563.26	1082.97
563.61	1085.52
563.96	1084.89
564.32	1087.69
564.67	1087.41
565.02	1084.96
565.37	1080.70
565.73	1075.62
566.08	1073.56
566.43	1071.19
566.78	1074.14
567.14	1077.72
567.49	1081.73
567.84	1079.08
568.19	1083.13
568.54	1083.13
568.90	1082.08
569.25	1080.98
569.60	1081.73
569.95	1078.45
570.31	1079.95
570.66	1081.54
571.01	1078.85
571.36	1079.62
571.71	1082.05
572.06	1077.86
572.42	1072.64
572.77	1074.61
573.12	1073.65
573.47	1072.20
573.82	1075.69
574.18	1078.24
574.53	1076.39
574.88	1077.07
575.23	1079.76
575.58	1079.41
575.93	1078.14
576.28	1080.70
576.64	1079.48
576.99	1078.96
577.34	1076.23
577.69	1076.20
578.04	1075.03
578.39	1076.51
578.74	1076.32
579.09	1077.33
579.44	1077.72
579.80	1079.53
580.15	1082.59
580.50	1082.99
580.85	1081.12
581.20	1081.68
581.55	1080.11
581.90	1078.10
582.25	1076.30
582.60	1079.92
582.95	1081.75
583.30	1081.37
583.65	1080.60
584.00	1080.06
584.35	1076.44
584.71	1075.38
585.06	1074.94
585.41	1076.23
585.76	1076.69
586.11	1079.24
586.46	1079.13
586.81	1080.58
587.16	1077.00
587.51	1077.40
587.86	1078.33
588.21	1080.41
588.56	1080.46
588.91	1081.28
589.26	1080.91
589.61	1078.75
589.96	1076.69
590.31	1075.87
590.66	1078.05
591.01	1076.39
591.36	1075.69
591.71	1077.65
592.06	1079.53
592.41	1077.14
592.76	1080.53
593.10	1084.14
593.45	1079.90
593.80	1080.67
594.15	1083.79
594.50	1082.83
594.85	1082.10
595.20	1084.32
595.55	1084.53
595.90	1084.79
596.25	1083.60
596.60	1078.07
596.95	1076.69
597.30	1073.16
597.64	1080.20
597.99	1082.73
598.34	1084.96
598.69	1083.71
599.04	1083.15
599.39	1073.30
599.74	1071.24
600.09	1072.92
600.44	1076.06
600.78	1075.45
601.13	1076.69
601.48	1076.79
601.83	1074.66
602.18	1073.77
602.53	1077.91
602.88	1077.02
603.22	1075.27
603.57	1078.92
603.92	1079.97
604.27	1075.43
604.62	1076.25
604.97	1080.02
605.31	1080.16
605.66	1079.31
606.01	1082.24
606.36	1081.87
606.71	1078.26
607.05	1076.01
607.40	1076.11
607.75	1074.28
608.10	1074.24
608.44	1077.21
608.79	1075.78
609.14	1077.33
609.49	1077.65
609.84	1078.47
610.18	1077.98
610.53	1081.94
610.88	1081.05
611.23	1079.43
611.57	1077.79
611.92	1076.27
612.27	1072.71
612.62	1073.74
612.96	1075.41
613.31	1076.15
613.66	1079.57
614.00	1080.91
614.35	1080.23
614.70	1078.94
615.05	1080.23
615.39	1076.46
615.74	1077.30
616.09	1074.66
616.43	1075.03
616.78	1073.67
617.13	1074.14
617.47	1073.77
617.82	1076.37
618.17	1075.57
618.51	1077.18
618.86	1078.43
619.21	1078.78
619.55	1078.89
619.90	1080.98
620.25	1079.03
620.59	1078.71
620.94	1078.78
621.29	1077.47
621.63	1081.30
621.98	1082.66
622.32	1080.06
622.67	1079.97
623.02	1079.64
623.36	1075.20
623.71	1072.95
624.05	1075.80
624.40	1073.86
624.75	1076.88
625.09	1077.40
625.44	1077.09
625.78	1073.60
626.13	1076.76
626.48	1073.77
626.82	1075.08
627.17	1080.27
627.51	1083.57
627.86	1079.74
628.20	1078.64
628.55	1077.51
628.89	1075.27
629.24	1075.03
629.58	1076.18
629.93	1078.17
630.28	1077.33
630.62	1073.74
630.97	1069.70
631.31	1071.33
631.66	1068.48
632.00	1066.91
632.35	1070.94
632.69	1076.04
633.04	1074.82
633.38	1078.26
633.73	1080.48
634.07	1078.17
634.42	1075.38
634.76	1074.73
635.11	1073.07
635.45	1072.01
635.79	1069.37
636.14	1069.27
636.48	1070.82
636.83	1071.94
637.17	1070.72
637.52	1073.32
637.86	1073.81
638.21	1070.28
638.55	1070.94
638.89	1074.33
639.24	1074.94
639.58	1075.03
639.93	1078.85
640.27	1079.43
640.61	1078.10
640.96	1078.61
641.30	1083.95
641.65	1083.81
641.99	1082.76
642.33	1082.29
642.68	1080.32
643.02	1074.42
643.37	1074.80
643.71	1072.55
644.05	1074.26
644.40	1075.52
644.74	1074.24
645.08	1071.19
645.43	1071.45
645.77	1071.08
646.11	1070.33
646.46	1070.16
646.80	1071.10
647.14	1073.46
647.49	1072.01
647.83	1073.46
648.17	1077.25
648.52	1081.30
648.86	1078.89
649.20	1079.53
649.55	1077.82
649.89	1078.31
650.23	1074.31
650.57	1076.20
650.92	1076.93
651.26	1076.48
651.60	1077.47
651.95	1077.35
652.29	1079.27
652.63	1082.94
652.97	1084.53
653.32	1083.04
653.66	1085.00
654.00	1083.53
654.34	1078.45
654.69	1074.96
655.03	1076.69
655.37	1074.70
655.71	1074.68
656.05	1076.72
656.40	1077.75
656.74	1074.80
657.08	1076.25
657.42	1076.41
657.76	1075.73
658.11	1078.26
658.45	1077.68
658.79	1078.03
659.13	1075.73
659.47	1073.53
659.82	1071.26
660.16	1072.01
660.50	1072.27
660.84	1070.72
661.18	1070.58
661.52	1071.97
661.87	1070.87
662.21	1063.66
662.55	1067.03
662.89	1067.59
663.23	1065.67
663.57	1066.25
663.91	1073.14
664.25	1074.12
664.60	1076.53
664.94	1079.85
665.28	1079.57
665.62	1078.33
665.96	1080.51
666.30	1076.30
666.64	1075.99
666.98	1077.44
667.32	1076.41
667.66	1071.68
668.01	1073.53
668.35	1071.90
668.69	1069.06
669.03	1072.50
669.37	1072.85
669.71	1073.16
670.05	1073.77
670.39	1075.73
670.73	1072.69
671.07	1072.27
671.41	1072.90
671.75	1073.56
672.09	1074.89
672.43	1073.79
672.77	1073.74
673.11	1071.97
673.45	1069.55
673.79	1069.77
674.13	1072.27
674.47	1072.46
674.81	1076.81
675.15	1082.10
675.49	1081.40
675.83	1078.61
676.17	1079.81
676.51	1077.37
676.85	1076.25
677.19	1075.50
677.53	1074.21
677.87	1075.99
678.21	1077.44
678.55	1075.10
678.89	1072.64
679.23	1073.46
679.57	1071.50
679.90	1070.58
680.24	1072.67
680.58	1072.97
680.92	1075.17
681.26	1076.11
681.60	1078.21
681.94	1076.60
682.28	1077.82
682.62	1079.31
682.96	1079.50
683.29	1078.54
683.63	1078.50
683.97	1081.56
684.31	1081.02
684.65	1076.65
684.99	1074.87
685.33	1077.44
685.67	1077.96
686.00	1077.25
686.34	1080.34
686.68	1077.30
687.02	1075.94
687.36	1076.86
687.70	1079.46
688.03	1080.23
688.37	1083.97
688.71	1078.45
689.05	1075.48
689.39	1073.98
689.72	1073.42
690.06	1071.43
690.40	1074.80
690.74	1074.47
691.08	1075.10
691.41	1076.01
691.75	1078.80
692.09	1079.31
692.43	1075.71
692.76	1073.42
693.10	1068.06
693.44	1067.92
693.78	1068.31
694.11	1073.67
694.45	1075.36
694.79	1077.89
695.13	1075.36
695.46	1078.21
695.80	1079.17
696.14	1081.14
696.48	1080.91
696.81	1081.33
697.15	1078.40
697.49	1074.24
697.82	1070.87
698.16	1073.88
698.50	1075.52
698.83	1073.91
699.17	1074.05
699.51	1076.51
699.84	1073.51
700.18	1069.25
700.52	1069.70
700.85	1070.47
701.19	1068.01
701.53	1066.89
701.86	1071.50
702.20	1073.46
702.54	1075.17
702.87	1074.68
703.21	1079.20
703.55	1076.39
703.88	1072.85
704.22	1071.61
704.55	1071.87
704.89	1071.97
705.23	1072.97
705.56	1075.52
705.90	1072.64
706.23	1072.48
706.57	1073.16
706.91	1073.91
707.24	1071.26
707.58	1074.38
707.91	1073.65
708.25	1072.04
708.58	1073.44
708.92	1075.27
709.26	1081.28
709.59	1082.61
709.93	1082.15
710.26	1082.40
710.60	1084.67
710.93	1078.59
711.27	1079.17
711.60	1079.53
711.94	1077.07
712.27	1075.03
712.61	1074.24
712.94	1074.98
713.28	1077.33
713.61	1077.28
713.95	1079.62
714.28	1081.00
714.62	1078.68
714.95	1077.25
715.29	1079.48
715.62	1078.80
715.96	1079.46
716.29	1081.77
716.63	1080.67
716.96	1079.76
717.29	1077.98
717.63	1076.55
717.96	1074.52
718.30	1072.36
718.63	1072.57
718.97	1075.29
719.30	1074.66
719.63	1076.27
719.97	1078.85
720.30	1077.28
720.64	1074.40
720.97	1076.72
721.30	1075.31
721.64	1072.43
721.97	1073.39
722.31	1072.60
722.64	1068.95
722.97	1067.80
723.31	1068.62
723.64	1069.48
723.97	1071.26
724.31	1074.05
724.64	1076.32
724.98	1077.25
725.31	1077.56
725.64	1078.12
725.98	1076.86
726.31	1077.04
726.64	1077.49
726.97	1077.70
727.31	1077.33
727.64	1076.46
727.97	1075.01
728.31	1074.70
728.64	1073.00
728.97	1074.87
729.31	1076.37
729.64	1077.11
729.97	1074.98
730.30	1075.03
730.64	1074.33
730.97	1075.76
731.30	1074.63
731.63	1078.78
731.97	1079.22
732.30	1079.71
732.63	1079.15
732.96	1080.77
733.30	1079.46
733.63	1080.27
733.96	1078.71
734.29	1077.25
734.63	1075.94
734.96	1077.14
735.29	1074.61
735.62	1075.66
735.95	1078.05
736.29	1081.21
736.62	1079.95
736.95	1084.02
737.28	1081.80
737.61	1082.24
737.94	1079.36
738.28	1078.33
738.61	1072.81
738.94	1071.26
739.27	1067.19
739.60	1067.24
739.93	1068.74
740.27	1069.30
740.60	1073.98
740.93	1075.29
741.26	1074.40
741.59	1074.10
741.92	1075.15
742.25	1072.41
742.58	1072.90
742.91	1076.76
743.25	1078.85
743.58	1079.71
743.91	1079.22
744.24	1077.75
744.57	1075.41
744.90	1072.11
745.23	1070.96
745.56	1073.18
745.89	1074.66
746.22	1071.45
746.55	1073.09
746.88	1073.16
747.21	1070.42
747.54	1068.52
747.87	1070.47
748.20	1068.97
748.53	1073.51
748.87	1074.70
749.20	1078.00
749.53	1075.99
749.86	1076.37
750.19	1075.97
750.52	1074.33
750.85	1069.91
751.18	1074.87
751.51	1074.82
751.84	1071.54
752.16	1070.68
752.49	1074.89
752.82	1073.30
753.15	1073.16
753.48	1077.35
753.81	1080.67
754.14	1075.69
754.47	1075.31
754.80	1075.83
755.13	1073.23
755.46	1073.09
755.79	1078.17
756.12	1078.80
756.45	1080.63
756.78	1081.30
757.11	1082.43
757.43	1081.07
757.76	1080.11
758.09	1074.38
758.42	1074.61
758.75	1071.99
759.08	1070.75
759.41	1072.92
759.74	1074.05
760.07	1071.66
760.39	1075.10
760.72	1075.31
761.05	1077.49
761.38	1082.36
761.71	1080.34
762.04	1078.89
762.36	1079.88
762.69	1076.53
763.02	1074.07
763.35	1077.75
763.68	1078.61
764.01	1078.19
764.33	1077.58
764.66	1077.14
764.99	1074.68
765.32	1072.04
765.65	1071.90
765.97	1071.80
766.30	1071.57
