SpectraSuite Data File
++++++++++++++++++++++++++++++++++++
Date: Mon Aug 26 10:22:30 PDT 2019
User: corrico
Dark Spectrum Present: No
Reference Spectrum Present: No
Number of Sampled Component Spectra: 1
Spectrometers: USB2+H06089
Integration Time (usec): 2000 (USB2+H06089)
Spectra Averaged: 20 (USB2+H06089)
Boxcar Smoothing: 2 (USB2+H06089)
Correct for Electrical Dark: No (USB2+H06089)
Strobe/Lamp Enabled: No (USB2+H06089)
Correct for Detector Non-linearity: No (USB2+H06089)
Correct for Stray Light: No (USB2+H06089)
Number of Pixels in Processed Spectrum: 2048
>>>>>Begin Processed Spectral Data<<<<<
339.70	1027.03
340.07	1027.03
340.45	990.58
340.82	969.24
341.19	944.99
341.57	920.81
341.94	909.98
342.31	903.35
342.69	897.17
343.06	893.10
343.43	891.88
343.81	892.80
344.18	897.36
344.55	901.18
344.93	910.09
345.30	917.42
345.67	927.30
346.04	931.72
346.42	939.44
346.79	948.31
347.16	954.42
347.54	962.99
347.91	974.22
348.28	984.94
348.65	992.34
349.03	1002.62
349.40	1011.88
349.77	1020.19
350.14	1026.30
350.52	1033.53
350.89	1038.24
351.26	1045.10
351.63	1049.17
352.01	1054.01
352.38	1060.43
352.75	1067.82
353.12	1070.56
353.50	1074.17
353.87	1081.42
354.24	1084.89
354.61	1084.72
354.98	1083.88
355.36	1086.83
355.73	1084.39
356.10	1082.47
356.47	1082.52
356.84	1084.09
357.22	1082.40
357.59	1083.95
357.96	1083.41
358.33	1085.14
358.70	1084.89
359.08	1084.46
359.45	1082.85
359.82	1084.00
360.19	1080.72
360.56	1082.99
360.94	1081.91
361.31	1086.66
361.68	1083.13
362.05	1086.17
362.42	1083.39
362.79	1084.14
363.16	1079.55
363.54	1080.91
363.91	1079.97
364.28	1079.13
364.65	1073.72
365.02	1070.98
365.39	1068.31
365.76	1069.46
366.14	1068.78
366.51	1073.14
366.88	1076.58
367.25	1077.47
367.62	1076.30
367.99	1074.82
368.36	1075.43
368.73	1073.93
369.10	1075.99
369.48	1074.14
369.85	1078.36
370.22	1078.43
370.59	1079.50
370.96	1075.20
371.33	1075.99
371.70	1076.15
372.07	1077.11
372.44	1077.35
372.81	1081.37
373.18	1083.57
373.55	1082.76
373.93	1082.76
374.30	1082.12
374.67	1081.94
375.04	1080.65
375.41	1082.26
375.78	1082.83
376.15	1080.27
376.52	1082.94
376.89	1079.29
377.26	1076.25
377.63	1072.85
378.00	1074.21
378.37	1070.44
378.74	1074.49
379.11	1075.94
379.48	1079.88
379.85	1084.44
380.22	1086.20
380.59	1087.30
380.96	1087.20
381.33	1085.19
381.70	1083.11
382.07	1085.40
382.44	1082.36
382.81	1081.19
383.18	1080.72
383.55	1078.64
383.92	1076.86
384.29	1077.49
384.66	1079.29
385.03	1079.06
385.40	1079.06
385.77	1078.78
386.14	1080.20
386.51	1078.94
386.88	1080.27
387.25	1080.13
387.62	1082.08
387.99	1084.30
388.36	1082.80
388.73	1083.36
389.10	1084.77
389.46	1082.15
389.83	1080.63
390.20	1082.47
390.57	1082.12
390.94	1079.74
391.31	1081.87
391.68	1080.58
392.05	1081.80
392.42	1083.25
392.79	1086.36
393.16	1087.58
393.53	1089.66
393.89	1090.95
394.26	1088.37
394.63	1089.17
395.00	1088.00
395.37	1089.82
395.74	1089.05
396.11	1092.45
396.48	1091.58
396.84	1093.59
397.21	1094.43
397.58	1094.55
397.95	1092.56
398.32	1095.60
398.69	1092.89
399.06	1089.59
399.42	1090.74
399.79	1087.30
400.16	1085.42
400.53	1084.32
400.90	1084.86
401.27	1086.90
401.64	1091.13
402.00	1091.42
402.37	1091.37
402.74	1090.95
403.11	1088.23
403.48	1086.38
403.84	1086.36
404.21	1086.92
404.58	1087.11
404.95	1091.39
405.32	1091.20
405.68	1092.56
406.05	1097.08
406.42	1099.23
406.79	1095.07
407.16	1096.38
407.52	1093.78
407.89	1088.65
408.26	1085.28
408.63	1090.17
408.99	1088.42
409.36	1089.12
409.73	1091.70
410.10	1096.56
410.47	1092.80
410.83	1095.77
411.20	1097.17
411.57	1098.93
411.94	1098.09
412.30	1097.43
412.67	1098.65
413.04	1097.95
413.40	1099.37
413.77	1100.52
414.14	1101.15
414.51	1100.47
414.87	1102.39
415.24	1097.85
415.61	1093.05
415.97	1094.34
416.34	1099.05
416.71	1099.77
417.08	1104.64
417.44	1112.39
417.81	1116.32
418.18	1112.71
418.54	1116.08
418.91	1116.18
419.28	1113.51
419.64	1112.97
420.01	1113.37
420.38	1113.88
420.74	1117.42
421.11	1122.59
421.48	1122.90
421.84	1129.12
422.21	1126.48
422.58	1127.97
422.94	1127.76
423.31	1130.50
423.68	1133.64
424.04	1139.61
424.41	1142.25
424.77	1145.53
425.14	1151.19
425.51	1151.05
425.87	1155.90
426.24	1159.43
426.61	1164.09
426.97	1168.44
427.34	1177.59
427.70	1178.58
428.07	1184.38
428.44	1186.72
428.80	1190.40
429.17	1195.76
429.53	1208.35
429.90	1215.35
430.27	1228.10
430.63	1239.20
431.00	1250.83
431.36	1261.13
431.73	1273.70
432.09	1288.30
432.46	1301.76
432.83	1315.08
433.19	1332.86
433.56	1355.12
433.92	1374.99
434.29	1401.04
434.65	1427.21
435.02	1449.19
435.38	1471.17
435.75	1495.65
436.11	1522.35
436.48	1554.35
436.84	1588.99
437.21	1625.53
437.57	1661.52
437.94	1704.94
438.30	1746.58
438.67	1792.92
439.03	1841.58
439.40	1896.23
439.76	1947.58
440.13	2004.22
440.49	2071.14
440.86	2140.42
441.22	2218.50
441.59	2288.32
441.95	2373.02
442.32	2449.96
442.68	2546.06
443.05	2631.82
443.41	2736.04
443.78	2830.32
444.14	2943.72
444.51	3046.89
444.87	3186.66
445.24	3328.22
445.60	3488.36
445.96	3641.27
446.33	3817.20
446.69	3979.82
447.06	4152.20
447.42	4330.53
447.79	4522.62
448.15	4739.66
448.51	4971.95
448.88	5236.27
449.24	5482.61
449.61	5762.75
449.97	6036.36
450.33	6320.76
450.70	6573.98
451.06	6891.82
451.43	7197.76
451.79	7559.44
452.15	7948.23
452.52	8398.68
452.88	8879.34
453.24	9404.93
453.61	9969.63
453.97	10542.05
454.34	11092.10
454.70	11727.35
455.06	12372.26
455.43	13004.74
455.79	13595.19
456.15	14314.53
456.52	14966.91
456.88	15738.18
457.24	16458.23
457.61	17308.78
457.97	18070.13
458.33	18839.00
458.70	19597.05
459.06	20360.51
459.42	21187.96
459.79	21963.66
460.15	22876.56
460.51	23735.00
460.88	24675.68
461.24	25473.22
461.60	26442.95
461.96	27302.33
462.33	28138.32
462.69	28887.34
463.05	29730.28
463.42	30423.27
463.78	31067.64
464.14	31599.17
464.50	32212.37
464.87	32682.77
465.23	33046.80
465.59	33400.08
465.95	33709.26
466.32	33957.38
466.68	34193.14
467.04	34312.21
467.40	34430.38
467.77	34580.06
468.13	34553.21
468.49	34446.58
468.85	34389.49
469.22	34230.87
469.58	33891.75
469.94	33653.11
470.30	33327.29
470.66	32895.78
471.03	32317.16
471.39	31916.97
471.75	31271.27
472.11	30680.56
472.47	30308.46
472.84	29976.36
473.20	29504.33
473.56	29239.54
473.92	28812.09
474.28	28329.19
474.65	27841.61
475.01	27354.24
475.37	26778.12
475.73	26310.10
476.09	25746.64
476.45	25208.13
476.81	24683.92
477.18	24147.82
477.54	23707.33
477.90	23371.04
478.26	22975.10
478.62	22661.14
478.98	22369.32
479.34	22054.00
479.71	21648.76
480.07	21298.90
480.43	20934.76
480.79	20557.14
481.15	20201.00
481.51	19891.74
481.87	19649.50
482.23	19357.52
482.59	19124.63
482.96	18842.53
483.32	18540.34
483.68	18151.51
484.04	17816.46
484.40	17437.72
484.76	17076.13
485.12	16711.94
485.48	16409.38
485.84	16054.55
486.20	15704.04
486.56	15340.46
486.92	15034.83
487.28	14686.98
487.64	14332.72
488.00	14008.74
488.37	13691.69
488.73	13335.53
489.09	12986.30
489.45	12692.61
489.81	12377.43
490.17	12081.19
490.53	11789.44
490.89	11479.06
491.25	11163.26
491.61	10852.67
491.97	10543.46
492.33	10227.13
492.69	9940.96
493.05	9648.46
493.41	9368.42
493.77	9087.60
494.13	8837.49
494.49	8595.03
494.85	8355.43
495.21	8137.29
495.57	7928.52
495.93	7711.06
496.29	7499.87
496.64	7318.08
497.00	7116.77
497.36	6924.76
497.72	6745.47
498.08	6572.83
498.44	6390.65
498.80	6222.69
499.16	6065.62
499.52	5914.65
499.88	5789.32
500.24	5668.01
500.60	5547.84
500.96	5428.40
501.32	5311.05
501.68	5184.10
502.03	5049.61
502.39	4926.20
502.75	4792.93
503.11	4667.82
503.47	4550.26
503.83	4439.60
504.19	4320.18
504.55	4218.07
504.91	4124.05
505.26	4024.29
505.62	3936.76
505.98	3855.49
506.34	3768.61
506.70	3673.10
507.06	3586.68
507.42	3504.51
507.78	3422.54
508.13	3341.14
508.49	3272.33
508.85	3205.83
509.21	3135.29
509.57	3067.86
509.93	3003.21
510.28	2934.45
510.64	2868.84
511.00	2809.79
511.36	2751.30
511.72	2698.15
512.07	2649.88
512.43	2602.89
512.79	2549.17
513.15	2503.51
513.51	2452.90
513.86	2411.88
514.22	2364.71
514.58	2323.50
514.94	2284.15
515.30	2254.57
515.65	2215.11
516.01	2185.85
516.37	2155.47
516.73	2126.96
517.08	2098.38
517.44	2069.64
517.80	2038.96
518.16	2014.08
518.51	1987.23
518.87	1959.08
519.23	1934.97
519.59	1912.40
519.94	1884.25
520.30	1858.64
520.66	1831.61
521.01	1807.34
521.37	1782.93
521.73	1764.86
522.09	1745.08
522.44	1727.03
522.80	1707.65
523.16	1688.51
523.51	1664.94
523.87	1642.80
524.23	1625.55
524.58	1605.61
524.94	1585.29
525.30	1572.65
525.65	1557.06
526.01	1540.87
526.37	1527.97
526.72	1516.74
527.08	1504.59
527.44	1497.57
527.79	1482.31
528.15	1471.94
528.51	1461.24
528.86	1448.23
529.22	1433.93
529.58	1425.06
529.93	1410.27
530.29	1397.88
530.65	1389.97
531.00	1380.61
531.36	1369.49
531.71	1361.70
532.07	1353.56
532.43	1343.16
532.78	1334.50
533.14	1327.55
533.49	1323.60
533.85	1318.17
534.21	1311.21
534.56	1304.43
534.92	1299.68
535.27	1288.18
535.63	1284.86
535.98	1277.07
536.34	1272.08
536.69	1266.51
537.05	1265.27
537.41	1256.82
537.76	1253.47
538.12	1247.44
538.47	1240.67
538.83	1238.31
539.18	1234.80
539.54	1231.24
539.89	1227.92
540.25	1226.96
540.60	1217.57
540.96	1214.01
541.31	1210.38
541.67	1207.74
542.02	1206.27
542.38	1208.04
542.73	1203.85
543.09	1201.65
543.44	1196.88
543.80	1193.37
544.15	1185.81
544.51	1184.15
544.86	1181.71
545.22	1182.98
545.57	1178.72
545.93	1178.86
546.28	1175.70
546.64	1172.09
546.99	1168.75
547.35	1165.56
547.70	1162.05
548.05	1161.19
548.41	1160.74
548.76	1155.50
549.12	1156.08
549.47	1156.65
549.83	1156.90
550.18	1154.82
550.53	1154.73
550.89	1151.08
551.24	1148.17
551.60	1142.30
551.95	1139.61
552.30	1140.17
552.66	1139.14
553.01	1136.52
553.37	1136.49
553.72	1136.59
554.07	1135.25
554.43	1135.79
554.78	1136.40
555.13	1136.52
555.49	1132.05
555.84	1127.55
556.19	1122.75
556.55	1119.62
556.90	1117.77
557.26	1120.72
557.61	1118.89
557.96	1119.15
558.32	1121.89
558.67	1120.81
559.02	1119.97
559.37	1122.29
559.73	1122.15
560.08	1115.94
560.43	1116.06
560.79	1113.28
561.14	1114.75
561.49	1112.60
561.85	1114.38
562.20	1111.05
562.55	1114.40
562.90	1110.82
563.26	1113.46
563.61	1113.25
563.96	1112.81
564.32	1109.39
564.67	1110.00
565.02	1105.81
565.37	1106.30
565.73	1107.40
566.08	1107.14
566.43	1106.82
566.78	1108.90
567.14	1107.00
567.49	1103.87
567.84	1101.06
568.19	1098.76
568.54	1098.86
568.90	1096.63
569.25	1098.16
569.60	1101.48
569.95	1101.25
570.31	1102.28
570.66	1106.56
571.01	1107.61
571.36	1104.66
571.71	1105.90
572.06	1103.54
572.42	1101.20
572.77	1099.40
573.12	1098.04
573.47	1095.49
573.82	1096.85
574.18	1094.27
574.53	1093.03
574.88	1093.92
575.23	1095.65
575.58	1093.73
575.93	1097.43
576.28	1096.73
576.64	1097.88
576.99	1096.35
577.34	1094.50
577.69	1091.74
578.04	1094.15
578.39	1091.51
578.74	1092.94
579.09	1093.94
579.44	1092.49
579.80	1091.42
580.15	1094.97
580.50	1092.73
580.85	1094.62
581.20	1097.78
581.55	1099.54
581.90	1095.56
582.25	1096.12
582.60	1093.76
582.95	1092.09
583.30	1092.91
583.65	1092.26
584.00	1091.44
584.35	1093.08
584.71	1092.19
585.06	1090.17
585.41	1091.18
585.76	1091.44
586.11	1090.34
586.46	1091.84
586.81	1092.63
587.16	1093.33
587.51	1095.21
587.86	1096.21
588.21	1096.07
588.56	1095.91
588.91	1096.92
589.26	1091.81
589.61	1091.53
589.96	1090.27
590.31	1087.18
590.66	1085.35
591.01	1085.21
591.36	1081.80
591.71	1081.30
592.06	1083.53
592.41	1083.29
592.76	1085.26
593.10	1086.15
593.45	1089.05
593.80	1088.54
594.15	1086.48
594.50	1086.59
594.85	1086.55
595.20	1082.01
595.55	1081.47
595.90	1080.63
596.25	1082.12
596.60	1082.24
596.95	1084.81
597.30	1082.99
597.64	1096.89
597.99	1097.76
598.34	1098.48
598.69	1096.17
599.04	1098.39
599.39	1089.29
599.74	1089.96
600.09	1089.24
600.44	1095.53
600.78	1094.18
601.13	1090.55
601.48	1087.93
601.83	1089.10
602.18	1083.55
602.53	1084.02
602.88	1087.11
603.22	1084.42
603.57	1084.11
603.92	1084.63
604.27	1085.87
604.62	1087.37
604.97	1090.64
605.31	1093.64
605.66	1094.93
606.01	1094.08
606.36	1090.64
606.71	1088.40
607.05	1084.14
607.40	1083.22
607.75	1083.22
608.10	1084.49
608.44	1086.59
608.79	1087.97
609.14	1087.25
609.49	1089.96
609.84	1089.31
610.18	1090.53
610.53	1090.20
610.88	1090.20
611.23	1087.51
611.57	1088.07
611.92	1088.26
612.27	1089.92
612.62	1090.67
612.96	1091.25
613.31	1089.78
613.66	1089.10
614.00	1087.97
614.35	1086.87
614.70	1086.48
615.05	1083.29
615.39	1082.69
615.74	1082.66
616.09	1084.23
616.43	1082.24
616.78	1086.34
617.13	1086.62
617.47	1086.22
617.82	1085.54
618.17	1085.12
618.51	1084.93
618.86	1084.39
619.21	1084.04
619.55	1079.46
619.90	1082.90
620.25	1084.79
620.59	1085.26
620.94	1083.34
621.29	1087.53
621.63	1083.18
621.98	1077.98
622.32	1074.45
622.67	1075.85
623.02	1076.44
623.36	1078.94
623.71	1081.70
624.05	1086.31
624.40	1086.52
624.75	1089.36
625.09	1087.81
625.44	1089.64
625.78	1086.71
626.13	1084.39
626.48	1080.72
626.82	1084.11
627.17	1081.68
627.51	1082.76
627.86	1083.29
628.20	1081.37
628.55	1077.89
628.89	1077.86
629.24	1077.84
629.58	1079.67
629.93	1078.71
630.28	1080.86
630.62	1083.74
630.97	1082.83
631.31	1081.21
631.66	1082.85
632.00	1080.93
632.35	1079.55
632.69	1080.98
633.04	1080.84
633.38	1083.93
633.73	1082.12
634.07	1080.56
634.42	1079.99
634.76	1082.80
635.11	1081.75
635.45	1085.35
635.79	1084.09
636.14	1084.09
636.48	1080.44
636.83	1079.83
637.17	1080.32
637.52	1081.63
637.86	1081.94
638.21	1085.40
638.55	1084.65
638.89	1079.81
639.24	1083.53
639.58	1085.96
639.93	1082.83
640.27	1082.08
640.61	1085.35
640.96	1083.76
641.30	1079.83
641.65	1082.45
641.99	1084.72
642.33	1084.23
642.68	1080.53
643.02	1080.81
643.37	1081.91
643.71	1082.87
644.05	1083.81
644.40	1090.20
644.74	1089.40
645.08	1086.20
645.43	1087.41
645.77	1088.16
646.11	1085.38
646.46	1087.34
646.80	1090.48
647.14	1086.59
647.49	1088.44
647.83	1088.79
648.17	1087.65
648.52	1083.81
648.86	1083.74
649.20	1083.57
649.55	1079.92
649.89	1081.98
650.23	1082.29
650.57	1081.61
650.92	1076.01
651.26	1077.89
651.60	1075.27
651.95	1078.14
652.29	1080.04
652.63	1083.39
652.97	1084.67
653.32	1088.14
653.66	1085.14
654.00	1085.82
654.34	1082.61
654.69	1079.48
655.03	1074.75
655.37	1075.55
655.71	1072.34
656.05	1077.47
656.40	1078.57
656.74	1082.54
657.08	1085.77
657.42	1088.93
657.76	1088.09
658.11	1090.43
658.45	1089.54
658.79	1086.66
659.13	1085.49
659.47	1083.64
659.82	1082.92
660.16	1078.85
660.50	1081.02
660.84	1082.29
661.18	1080.77
661.52	1080.18
661.87	1084.44
662.21	1081.56
662.55	1081.21
662.89	1085.45
663.23	1084.44
663.57	1084.35
663.91	1083.08
664.25	1081.82
664.60	1081.73
664.94	1084.09
665.28	1080.86
665.62	1084.53
665.96	1085.54
666.30	1083.08
666.64	1082.03
666.98	1086.15
667.32	1086.69
667.66	1085.82
668.01	1085.63
668.35	1086.64
668.69	1086.99
669.03	1087.02
669.37	1087.23
669.71	1087.18
670.05	1086.27
670.39	1085.45
670.73	1082.52
671.07	1081.30
671.41	1081.12
671.75	1081.84
672.09	1080.04
672.43	1080.86
672.77	1081.58
673.11	1084.23
673.45	1080.11
673.79	1079.64
674.13	1081.66
674.47	1081.51
674.81	1079.62
675.15	1082.26
675.49	1080.81
675.83	1079.97
676.17	1081.84
676.51	1081.19
676.85	1081.80
677.19	1080.06
677.53	1082.57
677.87	1081.16
678.21	1080.70
678.55	1082.33
678.89	1085.12
679.23	1079.38
679.57	1079.97
679.90	1081.73
680.24	1078.00
680.58	1080.79
680.92	1082.22
681.26	1084.42
681.60	1084.74
681.94	1085.89
682.28	1083.25
682.62	1085.66
682.96	1084.39
683.29	1082.38
683.63	1082.43
683.97	1084.23
684.31	1081.87
684.65	1080.13
684.99	1081.80
685.33	1085.28
685.67	1085.89
686.00	1088.33
686.34	1087.37
686.68	1084.37
687.02	1079.24
687.36	1079.41
687.70	1074.33
688.03	1074.54
688.37	1075.59
688.71	1076.34
689.05	1074.80
689.39	1076.34
689.72	1078.99
690.06	1082.31
690.40	1082.90
690.74	1081.58
691.08	1082.15
691.41	1082.90
691.75	1081.23
692.09	1081.21
692.43	1082.38
692.76	1085.82
693.10	1083.39
693.44	1083.74
693.78	1083.43
694.11	1086.08
694.45	1083.69
694.79	1084.21
695.13	1083.27
695.46	1087.25
695.80	1084.16
696.14	1085.63
696.48	1085.70
696.81	1087.20
697.15	1080.93
697.49	1082.10
697.82	1082.40
698.16	1082.97
698.50	1081.26
698.83	1081.02
699.17	1080.39
699.51	1079.29
699.84	1077.44
700.18	1076.90
700.52	1079.88
700.85	1081.47
701.19	1082.17
701.53	1082.83
701.86	1082.22
702.20	1081.19
702.54	1080.13
702.87	1078.82
703.21	1079.81
703.55	1079.92
703.88	1085.00
704.22	1086.76
704.55	1086.69
704.89	1085.12
705.23	1086.27
705.56	1084.37
705.90	1081.54
706.23	1082.76
706.57	1079.92
706.91	1079.60
707.24	1076.81
707.58	1077.98
707.91	1077.23
708.25	1080.98
708.58	1082.10
708.92	1084.67
709.26	1082.24
709.59	1080.02
709.93	1078.07
710.26	1076.34
710.60	1075.83
710.93	1078.26
711.27	1082.54
711.60	1083.93
711.94	1083.67
712.27	1083.81
712.61	1081.16
712.94	1079.88
713.28	1081.66
713.61	1082.80
713.95	1080.53
714.28	1082.38
714.62	1082.26
714.95	1075.71
715.29	1073.53
715.62	1075.50
715.96	1073.93
716.29	1073.72
716.63	1078.03
716.96	1079.27
717.29	1078.40
717.63	1080.84
717.96	1078.96
718.30	1080.20
718.63	1081.49
718.97	1082.24
719.30	1079.88
719.63	1080.93
719.97	1080.93
720.30	1082.87
720.64	1081.70
720.97	1082.31
721.30	1082.17
721.64	1081.30
721.97	1078.05
722.31	1077.56
722.64	1077.09
722.97	1078.05
723.31	1082.15
723.64	1082.33
723.97	1082.87
724.31	1082.94
724.64	1081.07
724.98	1076.62
725.31	1074.77
725.64	1074.17
725.98	1075.08
726.31	1078.71
726.64	1078.14
726.97	1082.19
727.31	1085.91
727.64	1084.25
727.97	1080.93
728.31	1084.07
728.64	1082.38
728.97	1077.54
729.31	1080.77
729.64	1079.95
729.97	1080.25
730.30	1079.88
730.64	1082.40
730.97	1081.56
731.30	1082.43
731.63	1078.26
731.97	1080.27
732.30	1080.37
732.63	1078.19
732.96	1080.37
733.30	1082.19
733.63	1082.59
733.96	1083.62
734.29	1084.21
734.63	1079.10
734.96	1079.36
735.29	1075.87
735.62	1074.45
735.95	1074.98
736.29	1078.21
736.62	1075.78
736.95	1075.52
737.28	1075.36
737.61	1075.80
737.94	1075.66
738.28	1078.82
738.61	1081.61
738.94	1082.26
739.27	1084.39
739.60	1084.89
739.93	1083.71
740.27	1084.28
740.60	1083.06
740.93	1077.02
741.26	1076.93
741.59	1077.04
741.92	1076.13
742.25	1078.03
742.58	1084.11
742.91	1085.75
743.25	1084.81
743.58	1087.86
743.91	1087.13
744.24	1083.60
744.57	1081.51
744.90	1085.17
745.23	1080.02
745.56	1079.36
745.89	1081.23
746.22	1084.28
746.55	1082.71
746.88	1087.20
747.21	1087.46
747.54	1084.51
747.87	1082.12
748.20	1078.10
748.53	1075.66
748.87	1075.15
749.20	1077.75
749.53	1076.37
749.86	1079.71
750.19	1081.28
750.52	1080.60
750.85	1078.61
751.18	1080.39
751.51	1082.47
751.84	1079.92
752.16	1080.95
752.49	1082.01
752.82	1080.86
753.15	1077.09
753.48	1076.48
753.81	1075.92
754.14	1078.31
754.47	1081.44
754.80	1084.28
755.13	1086.97
755.46	1085.63
755.79	1084.70
756.12	1079.29
756.45	1077.02
756.78	1073.58
757.11	1077.42
757.43	1075.64
757.76	1080.65
758.09	1078.24
758.42	1080.20
758.75	1075.13
759.08	1075.50
759.41	1073.86
759.74	1080.06
760.07	1082.52
760.39	1086.36
760.72	1087.09
761.05	1087.20
761.38	1080.48
761.71	1077.33
762.04	1074.40
762.36	1072.76
762.69	1071.50
763.02	1074.70
763.35	1072.48
763.68	1073.74
764.01	1074.66
