SpectraSuite Data File
++++++++++++++++++++++++++++++++++++
Date: Mon Aug 26 10:22:34 PDT 2019
User: corrico
Dark Spectrum Present: No
Reference Spectrum Present: No
Number of Sampled Component Spectra: 1
Spectrometers: USB2+H06089
Integration Time (usec): 2000 (USB2+H06089)
Spectra Averaged: 20 (USB2+H06089)
Boxcar Smoothing: 2 (USB2+H06089)
Correct for Electrical Dark: No (USB2+H06089)
Strobe/Lamp Enabled: No (USB2+H06089)
Correct for Detector Non-linearity: No (USB2+H06089)
Correct for Stray Light: No (USB2+H06089)
Number of Pixels in Processed Spectrum: 2048
>>>>>Begin Processed Spectral Data<<<<<
339.70	1030.54
340.07	1030.54
340.45	997.89
340.82	973.05
341.19	950.91
341.57	924.04
341.94	911.71
342.31	900.57
342.69	899.33
343.06	893.92
343.43	892.77
343.81	895.18
344.18	900.99
344.55	903.59
344.93	908.46
345.30	916.34
345.67	923.04
346.04	928.49
346.42	938.41
346.79	948.85
347.16	953.60
347.54	960.79
347.91	970.85
348.28	979.44
348.65	987.71
349.03	1002.22
349.40	1011.04
349.77	1020.24
350.14	1028.10
350.52	1035.31
350.89	1038.40
351.26	1044.28
351.63	1051.11
352.01	1055.77
352.38	1059.70
352.75	1065.37
353.12	1070.75
353.50	1072.81
353.87	1073.32
354.24	1073.91
354.61	1074.54
354.98	1074.77
355.36	1077.00
355.73	1080.74
356.10	1082.94
356.47	1083.83
356.84	1085.05
357.22	1084.56
357.59	1085.70
357.96	1085.80
358.33	1084.93
358.70	1083.83
359.08	1082.61
359.45	1081.16
359.82	1080.84
360.19	1083.18
360.56	1085.66
360.94	1085.91
361.31	1086.15
361.68	1086.52
362.05	1088.40
362.42	1085.77
362.79	1083.18
363.16	1081.09
363.54	1081.80
363.91	1078.61
364.28	1073.91
364.65	1074.98
365.02	1074.54
365.39	1070.47
365.76	1068.24
366.14	1074.05
366.51	1073.74
366.88	1073.53
367.25	1075.62
367.62	1078.14
367.99	1073.72
368.36	1070.89
368.73	1070.75
369.10	1073.07
369.48	1070.89
369.85	1074.70
370.22	1077.56
370.59	1078.71
370.96	1077.18
371.33	1078.78
371.70	1076.01
372.07	1076.95
372.44	1074.24
372.81	1072.25
373.18	1072.90
373.55	1073.91
373.93	1073.16
374.30	1074.94
374.67	1078.52
375.04	1080.09
375.41	1083.22
375.78	1080.91
376.15	1083.71
376.52	1081.75
376.89	1077.02
377.26	1071.94
377.63	1073.00
378.00	1073.16
378.37	1073.67
378.74	1076.69
379.11	1084.56
379.48	1088.28
379.85	1086.83
380.22	1090.48
380.59	1093.10
380.96	1091.23
381.33	1089.87
381.70	1091.72
382.07	1088.49
382.44	1085.47
382.81	1082.97
383.18	1081.40
383.55	1079.38
383.92	1078.71
384.29	1079.81
384.66	1081.16
385.03	1084.53
385.40	1084.42
385.77	1082.76
386.14	1080.65
386.51	1080.56
386.88	1076.58
387.25	1077.09
387.62	1075.57
387.99	1077.28
388.36	1075.92
388.73	1078.50
389.10	1077.79
389.46	1084.74
389.83	1083.97
390.20	1085.47
390.57	1082.66
390.94	1085.40
391.31	1084.56
391.68	1085.45
392.05	1083.43
392.42	1085.14
392.79	1085.28
393.16	1085.21
393.53	1089.29
393.89	1089.96
394.26	1093.64
394.63	1093.01
395.00	1091.74
395.37	1085.80
395.74	1086.85
396.11	1085.03
396.48	1081.61
396.84	1082.24
397.21	1085.00
397.58	1084.16
397.95	1085.35
398.32	1087.72
398.69	1087.53
399.06	1085.68
399.42	1085.33
399.79	1084.86
400.16	1087.72
400.53	1087.88
400.90	1089.80
401.27	1091.88
401.64	1092.23
402.00	1091.06
402.37	1090.24
402.74	1090.20
403.11	1090.57
403.48	1091.06
403.84	1090.55
404.21	1090.88
404.58	1090.88
404.95	1092.21
405.32	1088.77
405.68	1087.62
406.05	1087.76
406.42	1089.52
406.79	1089.07
407.16	1092.54
407.52	1094.41
407.89	1096.78
408.26	1096.99
408.63	1094.48
408.99	1092.68
409.36	1091.72
409.73	1091.13
410.10	1091.06
410.47	1094.76
410.83	1093.36
411.20	1095.91
411.57	1095.39
411.94	1097.22
412.30	1095.46
412.67	1097.90
413.04	1095.89
413.40	1096.21
413.77	1095.46
414.14	1095.98
414.51	1098.65
414.87	1098.44
415.24	1099.42
415.61	1098.79
415.97	1097.90
416.34	1096.17
416.71	1097.34
417.08	1098.11
417.44	1102.70
417.81	1105.36
418.18	1109.44
418.54	1106.91
418.91	1107.80
419.28	1104.69
419.64	1107.59
420.01	1108.03
420.38	1114.47
420.74	1115.78
421.11	1119.57
421.48	1120.77
421.84	1120.39
422.21	1121.89
422.58	1122.68
422.94	1124.25
423.31	1125.14
423.68	1127.86
424.04	1126.57
424.41	1132.70
424.77	1137.64
425.14	1140.61
425.51	1141.64
425.87	1147.80
426.24	1150.42
426.61	1152.83
426.97	1160.04
427.34	1167.93
427.70	1176.24
428.07	1184.80
428.44	1193.13
428.80	1201.26
429.17	1212.35
429.53	1219.70
429.90	1227.85
430.27	1237.82
430.63	1246.55
431.00	1255.14
431.36	1267.10
431.73	1275.36
432.09	1285.82
432.46	1301.17
432.83	1316.27
433.19	1335.06
433.56	1358.10
433.92	1378.51
434.29	1396.57
434.65	1420.00
435.02	1442.66
435.38	1466.95
435.75	1491.46
436.11	1522.10
436.48	1555.54
436.84	1589.06
437.21	1621.52
437.57	1663.98
437.94	1707.65
438.30	1746.62
438.67	1794.25
439.03	1846.19
439.40	1899.30
439.76	1951.89
440.13	2014.64
440.49	2076.43
440.86	2143.95
441.22	2212.13
441.59	2286.52
441.95	2371.74
442.32	2455.97
442.68	2549.10
443.05	2644.20
443.41	2746.43
443.78	2835.16
444.14	2944.30
444.51	3055.57
444.87	3196.75
445.24	3337.81
445.60	3494.47
445.96	3644.80
446.33	3813.81
446.69	3972.12
447.06	4145.11
447.42	4327.53
447.79	4523.39
448.15	4743.38
448.51	4973.50
448.88	5235.26
449.24	5474.35
449.61	5754.28
449.97	6029.41
450.33	6309.31
450.70	6561.50
451.06	6887.17
451.43	7188.98
451.79	7555.41
452.15	7962.67
452.52	8424.92
452.88	8898.44
453.24	9429.62
453.61	10004.78
453.97	10563.14
454.34	11101.63
454.70	11747.38
455.06	12381.81
455.43	12989.46
455.79	13581.66
456.15	14312.98
456.52	14970.93
456.88	15758.73
457.24	16496.94
457.61	17347.56
457.97	18098.85
458.33	18878.11
458.70	19639.08
459.06	20407.95
459.42	21243.15
459.79	22016.74
460.15	22927.30
460.51	23791.08
460.88	24708.92
461.24	25507.16
461.60	26480.24
461.96	27336.68
462.33	28177.66
462.69	28967.52
463.05	29798.76
463.42	30495.78
463.78	31153.68
464.14	31691.32
464.50	32283.71
464.87	32761.30
465.23	33114.25
465.59	33449.25
465.95	33734.59
466.32	33985.44
466.68	34220.20
467.04	34368.59
467.40	34508.60
467.77	34706.75
468.13	34695.89
468.49	34591.55
468.85	34497.53
469.22	34309.21
469.58	33926.95
469.94	33656.18
470.30	33338.36
470.66	32933.00
471.03	32353.18
471.39	31958.35
471.75	31316.63
472.11	30718.48
472.47	30330.28
472.84	29994.27
473.20	29503.13
473.56	29221.99
473.92	28818.69
474.28	28331.01
474.65	27851.18
475.01	27373.01
475.37	26819.24
475.73	26326.16
476.09	25788.72
476.45	25265.64
476.81	24759.52
477.18	24238.21
477.54	23810.32
477.90	23469.56
478.26	23059.92
478.62	22721.45
478.98	22433.38
479.34	22123.05
479.71	21706.15
480.07	21354.65
480.43	20982.41
480.79	20586.32
481.15	20222.95
481.51	19925.03
481.87	19696.17
482.23	19430.43
482.59	19184.76
482.96	18892.08
483.32	18589.12
483.68	18196.14
484.04	17845.70
484.40	17488.18
484.76	17135.34
485.12	16761.07
485.48	16446.66
485.84	16111.08
486.20	15744.39
486.56	15387.97
486.92	15096.83
487.28	14742.07
487.64	14373.09
488.00	14057.05
488.37	13732.72
488.73	13359.80
489.09	13019.86
489.45	12711.82
489.81	12394.92
490.17	12087.81
490.53	11789.42
490.89	11482.97
491.25	11178.23
491.61	10866.22
491.97	10548.72
492.33	10236.66
492.69	9944.96
493.05	9658.22
493.41	9372.86
493.77	9099.42
494.13	8860.40
494.49	8616.00
494.85	8365.94
495.21	8139.31
495.57	7928.31
495.93	7706.89
496.29	7491.77
496.64	7319.67
497.00	7130.00
497.36	6940.58
497.72	6761.50
498.08	6603.40
498.44	6419.41
498.80	6252.11
499.16	6089.37
499.52	5932.32
499.88	5791.19
500.24	5665.43
500.60	5543.65
500.96	5431.26
501.32	5316.13
501.68	5194.44
502.03	5064.12
502.39	4935.25
502.75	4801.00
503.11	4679.88
503.47	4561.19
503.83	4446.53
504.19	4331.40
504.55	4223.96
504.91	4122.08
505.26	4027.78
505.62	3942.96
505.98	3853.41
506.34	3768.50
506.70	3682.72
507.06	3592.56
507.42	3502.71
507.78	3426.75
508.13	3346.64
508.49	3261.37
508.85	3188.02
509.21	3118.51
509.57	3045.48
509.93	2982.12
510.28	2924.90
510.64	2865.94
511.00	2811.24
511.36	2758.20
511.72	2703.62
512.07	2656.06
512.43	2605.20
512.79	2547.30
513.15	2501.21
513.51	2456.53
513.86	2403.12
514.22	2361.98
514.58	2328.22
514.94	2295.85
515.30	2260.91
515.65	2229.52
516.01	2194.30
516.37	2161.16
516.73	2124.88
517.08	2092.09
517.44	2062.62
517.80	2032.03
518.16	2005.79
518.51	1980.16
518.87	1957.55
519.23	1929.28
519.59	1910.04
519.94	1882.89
520.30	1855.41
520.66	1826.93
521.01	1805.18
521.37	1779.67
521.73	1758.35
522.09	1739.95
522.44	1722.96
522.80	1706.44
523.16	1686.08
523.51	1663.02
523.87	1643.20
524.23	1623.77
524.58	1603.59
524.94	1590.35
525.30	1576.91
525.65	1564.06
526.01	1551.26
526.37	1541.10
526.72	1526.94
527.08	1513.27
527.44	1496.59
527.79	1482.14
528.15	1465.39
528.51	1454.41
528.86	1444.41
529.22	1435.47
529.58	1425.11
529.93	1412.96
530.29	1401.84
530.65	1389.74
531.00	1379.07
531.36	1370.20
531.71	1364.79
532.07	1354.09
532.43	1346.32
532.78	1339.58
533.14	1330.43
533.49	1323.74
533.85	1316.34
534.21	1309.06
534.56	1304.64
534.92	1301.81
535.27	1294.76
535.63	1290.55
535.98	1284.25
536.34	1275.73
536.69	1266.77
537.05	1261.38
537.41	1258.27
537.76	1254.93
538.12	1244.77
538.47	1242.52
538.83	1240.88
539.18	1232.22
539.54	1225.86
539.89	1227.14
540.25	1221.74
540.60	1215.84
540.96	1212.68
541.31	1214.55
541.67	1213.80
542.02	1209.31
542.38	1202.80
542.73	1200.86
543.09	1192.50
543.44	1188.76
543.80	1186.72
544.15	1189.27
544.51	1186.21
544.86	1188.38
545.22	1183.82
545.57	1180.82
545.93	1174.62
546.28	1170.03
546.64	1168.79
546.99	1166.03
547.35	1163.57
547.70	1163.13
548.05	1165.77
548.41	1161.00
548.76	1157.51
549.12	1154.09
549.47	1151.17
549.83	1147.19
550.18	1147.94
550.53	1146.96
550.89	1144.99
551.24	1141.36
551.60	1139.84
551.95	1135.60
552.30	1133.66
552.66	1135.42
553.01	1136.99
553.37	1133.80
553.72	1134.29
554.07	1136.89
554.43	1132.63
554.78	1128.72
555.13	1130.08
555.49	1126.50
555.84	1124.74
556.19	1123.60
556.55	1122.57
556.90	1119.90
557.26	1118.28
557.61	1113.25
557.96	1114.82
558.32	1119.08
558.67	1117.30
559.02	1113.77
559.37	1117.93
559.73	1117.98
560.08	1113.07
560.43	1116.08
560.79	1122.24
561.14	1118.89
561.49	1114.40
561.85	1113.79
562.20	1110.44
562.55	1108.78
562.90	1110.54
563.26	1113.23
563.61	1114.66
563.96	1111.89
564.32	1108.97
564.67	1104.55
565.02	1105.27
565.37	1104.45
565.73	1106.42
566.08	1105.93
566.43	1105.46
566.78	1105.62
567.14	1103.82
567.49	1103.75
567.84	1102.04
568.19	1105.32
568.54	1102.28
568.90	1101.36
569.25	1098.86
569.60	1099.42
569.95	1096.35
570.31	1096.38
570.66	1095.91
571.01	1097.95
571.36	1098.74
571.71	1098.51
572.06	1096.99
572.42	1098.30
572.77	1097.13
573.12	1093.17
573.47	1095.35
573.82	1098.67
574.18	1097.10
574.53	1097.99
574.88	1102.65
575.23	1097.85
575.58	1093.83
575.93	1094.25
576.28	1094.81
576.64	1093.26
576.99	1097.08
577.34	1100.59
577.69	1100.12
578.04	1095.82
578.39	1093.24
578.74	1089.22
579.09	1083.32
579.44	1080.48
579.80	1084.46
580.15	1085.91
580.50	1089.31
580.85	1092.98
581.20	1094.48
581.55	1091.79
581.90	1091.63
582.25	1088.56
582.60	1085.24
582.95	1085.31
583.30	1085.21
583.65	1085.59
584.00	1087.37
584.35	1089.17
584.71	1089.82
585.06	1089.59
585.41	1088.86
585.76	1088.68
586.11	1088.30
586.46	1091.42
586.81	1092.91
587.16	1091.37
587.51	1089.71
587.86	1089.00
588.21	1085.63
588.56	1084.09
588.91	1084.70
589.26	1085.75
589.61	1084.39
589.96	1084.21
590.31	1087.95
590.66	1084.93
591.01	1084.60
591.36	1083.83
591.71	1084.16
592.06	1081.35
592.41	1081.80
592.76	1079.83
593.10	1082.22
593.45	1081.02
593.80	1079.50
594.15	1083.01
594.50	1083.76
594.85	1082.59
595.20	1083.04
595.55	1085.96
595.90	1085.07
596.25	1085.03
596.60	1086.17
596.95	1086.83
597.30	1085.56
597.64	1096.82
597.99	1099.75
598.34	1099.65
598.69	1099.72
599.04	1099.35
599.39	1087.13
599.74	1084.81
600.09	1082.54
600.44	1079.97
600.78	1080.65
601.13	1081.37
601.48	1082.24
601.83	1085.80
602.18	1085.82
602.53	1087.16
602.88	1088.51
603.22	1086.41
603.57	1085.66
603.92	1085.38
604.27	1083.06
604.62	1083.11
604.97	1087.16
605.31	1085.73
605.66	1086.17
606.01	1087.18
606.36	1087.76
606.71	1086.55
607.05	1087.16
607.40	1088.96
607.75	1085.91
608.10	1083.76
608.44	1081.58
608.79	1080.67
609.14	1078.85
609.49	1079.15
609.84	1078.82
610.18	1078.68
610.53	1078.85
610.88	1081.40
611.23	1084.16
611.57	1088.33
611.92	1091.11
612.27	1092.98
612.62	1090.81
612.96	1090.06
613.31	1084.98
613.66	1081.56
614.00	1080.18
614.35	1081.30
614.70	1078.66
615.05	1080.09
615.39	1080.67
615.74	1080.98
616.09	1079.48
616.43	1081.21
616.78	1079.20
617.13	1077.58
617.47	1080.34
617.82	1083.15
618.17	1082.76
618.51	1084.60
618.86	1087.53
619.21	1082.15
619.55	1081.80
619.90	1080.84
620.25	1081.89
620.59	1080.84
620.94	1083.27
621.29	1081.80
621.63	1084.18
621.98	1082.47
622.32	1083.41
622.67	1083.46
623.02	1082.03
623.36	1081.80
623.71	1084.07
624.05	1085.47
624.40	1084.23
624.75	1084.70
625.09	1083.74
625.44	1083.39
625.78	1082.24
626.13	1085.00
626.48	1087.58
626.82	1086.97
627.17	1084.60
627.51	1086.55
627.86	1087.27
628.20	1081.30
628.55	1081.51
628.89	1080.32
629.24	1079.50
629.58	1077.49
629.93	1080.37
630.28	1078.57
630.62	1079.78
630.97	1075.10
631.31	1075.01
631.66	1076.93
632.00	1081.09
632.35	1082.40
632.69	1085.24
633.04	1084.70
633.38	1083.90
633.73	1083.20
634.07	1082.17
634.42	1081.54
634.76	1079.53
635.11	1079.38
635.45	1076.67
635.79	1077.58
636.14	1080.95
636.48	1080.27
636.83	1081.94
637.17	1082.61
637.52	1081.75
637.86	1078.73
638.21	1084.46
638.55	1084.53
638.89	1085.52
639.24	1084.49
639.58	1087.20
639.93	1081.58
640.27	1078.47
640.61	1078.07
640.96	1081.28
641.30	1078.14
641.65	1080.20
641.99	1079.60
642.33	1081.16
642.68	1077.07
643.02	1076.74
643.37	1077.51
643.71	1079.57
644.05	1076.20
644.40	1077.68
644.74	1077.04
645.08	1076.60
645.43	1076.20
645.77	1077.07
646.11	1077.04
646.46	1079.50
646.80	1083.36
647.14	1083.29
647.49	1083.06
647.83	1083.04
648.17	1082.69
648.52	1079.92
648.86	1081.02
649.20	1082.29
649.55	1085.70
649.89	1084.25
650.23	1087.13
650.57	1087.51
650.92	1087.02
651.26	1082.15
651.60	1084.60
651.95	1082.19
652.29	1081.51
652.63	1082.99
652.97	1086.06
653.32	1085.31
653.66	1085.91
654.00	1084.02
654.34	1084.07
654.69	1086.15
655.03	1083.15
655.37	1080.56
655.71	1080.74
656.05	1079.81
656.40	1076.60
656.74	1078.26
657.08	1078.50
657.42	1081.35
657.76	1083.71
658.11	1085.70
658.45	1085.56
658.79	1084.65
659.13	1083.46
659.47	1080.79
659.82	1080.86
660.16	1081.23
660.50	1084.11
660.84	1083.48
661.18	1082.15
661.52	1079.81
661.87	1082.19
662.21	1080.72
662.55	1081.14
662.89	1082.43
663.23	1079.15
663.57	1077.54
663.91	1079.67
664.25	1078.96
664.60	1079.88
664.94	1084.21
665.28	1083.57
665.62	1079.55
665.96	1081.94
666.30	1078.75
666.64	1077.58
666.98	1076.79
667.32	1079.24
667.66	1075.59
668.01	1077.54
668.35	1076.60
668.69	1077.04
669.03	1075.76
669.37	1076.04
669.71	1075.34
670.05	1075.15
670.39	1070.63
670.73	1069.39
671.07	1071.31
671.41	1073.04
671.75	1072.29
672.09	1074.42
672.43	1076.06
672.77	1073.21
673.11	1071.64
673.45	1075.36
673.79	1077.14
674.13	1075.38
674.47	1080.56
674.81	1082.47
675.15	1082.57
675.49	1083.22
675.83	1086.03
676.17	1082.92
676.51	1078.40
676.85	1077.93
677.19	1077.65
677.53	1077.16
677.87	1076.34
678.21	1078.64
678.55	1077.70
678.89	1078.31
679.23	1076.04
679.57	1076.76
679.90	1080.25
680.24	1082.10
680.58	1081.30
680.92	1084.44
681.26	1084.09
681.60	1084.11
681.94	1083.76
682.28	1087.18
682.62	1088.44
682.96	1089.05
683.29	1087.51
683.63	1084.44
683.97	1080.95
684.31	1077.86
684.65	1077.02
684.99	1079.22
685.33	1080.48
685.67	1078.26
686.00	1079.46
686.34	1081.80
686.68	1079.10
687.02	1081.84
687.36	1085.84
687.70	1084.42
688.03	1082.73
688.37	1083.01
688.71	1080.37
689.05	1081.47
689.39	1080.70
689.72	1082.31
690.06	1081.00
690.40	1080.93
690.74	1081.19
691.08	1081.89
691.41	1080.77
691.75	1082.43
692.09	1084.14
692.43	1080.32
692.76	1082.59
693.10	1082.19
693.44	1083.67
693.78	1085.10
694.11	1091.58
694.45	1094.04
694.79	1094.86
695.13	1091.60
695.46	1086.97
695.80	1079.69
696.14	1074.19
696.48	1073.70
696.81	1072.97
697.15	1074.26
697.49	1072.64
697.82	1073.39
698.16	1075.52
698.50	1075.20
698.83	1076.58
699.17	1082.90
699.51	1083.76
699.84	1082.03
700.18	1081.09
700.52	1079.03
700.85	1079.15
701.19	1081.16
701.53	1083.53
701.86	1086.38
702.20	1087.51
702.54	1085.75
702.87	1082.64
703.21	1078.52
703.55	1077.07
703.88	1078.43
704.22	1077.14
704.55	1075.66
704.89	1078.17
705.23	1079.50
705.56	1078.73
705.90	1079.55
706.23	1081.94
706.57	1078.71
706.91	1079.88
707.24	1079.67
707.58	1080.32
707.91	1082.87
708.25	1083.20
708.58	1082.08
708.92	1085.38
709.26	1084.28
709.59	1083.06
709.93	1083.83
710.26	1083.71
710.60	1080.46
710.93	1081.09
711.27	1077.54
711.60	1075.03
711.94	1075.69
712.27	1074.68
712.61	1072.34
712.94	1076.08
713.28	1079.27
713.61	1078.14
713.95	1078.36
714.28	1080.51
714.62	1078.64
714.95	1078.40
715.29	1075.10
715.62	1077.93
715.96	1075.71
716.29	1076.34
716.63	1076.60
716.96	1081.56
717.29	1078.33
717.63	1077.89
717.96	1075.87
718.30	1078.28
718.63	1076.46
718.97	1077.51
719.30	1081.09
719.63	1081.98
719.97	1080.30
720.30	1077.47
720.64	1075.31
720.97	1073.11
721.30	1075.31
721.64	1073.46
721.97	1078.21
722.31	1081.80
722.64	1084.07
722.97	1084.77
723.31	1085.94
723.64	1083.41
723.97	1081.35
724.31	1080.72
724.64	1079.64
724.98	1082.97
725.31	1080.63
725.64	1081.42
725.98	1080.91
726.31	1078.94
726.64	1071.47
726.97	1074.19
727.31	1077.77
727.64	1077.21
727.97	1078.50
728.31	1084.07
728.64	1084.44
728.97	1080.23
729.31	1080.58
729.64	1084.02
729.97	1080.95
730.30	1082.22
730.64	1082.10
730.97	1079.90
731.30	1077.07
731.63	1078.59
731.97	1076.41
732.30	1078.68
732.63	1078.82
732.96	1076.46
733.30	1072.69
733.63	1073.23
733.96	1072.18
734.29	1075.57
734.63	1078.75
734.96	1083.69
735.29	1086.31
735.62	1082.31
735.95	1082.08
736.29	1084.46
736.62	1085.59
736.95	1084.63
737.28	1085.24
737.61	1080.81
737.94	1075.15
738.28	1073.65
738.61	1070.94
738.94	1072.97
739.27	1075.17
739.60	1074.14
739.93	1073.84
740.27	1074.80
740.60	1073.53
740.93	1076.39
741.26	1079.69
741.59	1076.15
741.92	1075.85
742.25	1077.93
742.58	1075.78
742.91	1073.86
743.25	1075.64
743.58	1077.47
743.91	1078.54
744.24	1079.01
744.57	1082.33
744.90	1084.93
745.23	1083.93
745.56	1085.40
745.89	1085.40
746.22	1080.63
746.55	1079.55
746.88	1083.83
747.21	1079.41
747.54	1078.33
747.87	1080.02
748.20	1080.25
748.53	1076.20
748.87	1078.12
749.20	1077.18
749.53	1076.51
749.86	1076.23
750.19	1078.43
750.52	1076.88
750.85	1079.13
751.18	1080.72
751.51	1079.17
751.84	1077.89
752.16	1080.39
752.49	1078.99
752.82	1079.06
753.15	1083.67
753.48	1084.51
753.81	1085.05
754.14	1086.76
754.47	1086.15
754.80	1082.43
755.13	1077.84
755.46	1073.74
755.79	1073.72
756.12	1075.52
756.45	1076.39
756.78	1080.16
757.11	1083.11
757.43	1082.15
757.76	1083.76
758.09	1079.85
758.42	1078.05
758.75	1076.08
759.08	1074.84
759.41	1070.47
759.74	1074.52
760.07	1072.53
760.39	1074.03
760.72	1076.23
761.05	1076.95
761.38	1075.24
761.71	1074.75
762.04	1074.21
762.36	1073.58
762.69	1076.58
763.02	1079.38
763.35	1081.30
763.68	1080.81
764.01	1078.66
