SpectraSuite Data File
++++++++++++++++++++++++++++++++++++
Date: Mon Aug 26 10:21:53 PDT 2019
User: corrico
Dark Spectrum Present: No
Reference Spectrum Present: No
Number of Sampled Component Spectra: 1
Spectrometers: USB2+H06089
Integration Time (usec): 2000 (USB2+H06089)
Spectra Averaged: 20 (USB2+H06089)
Boxcar Smoothing: 2 (USB2+H06089)
Correct for Electrical Dark: No (USB2+H06089)
Strobe/Lamp Enabled: No (USB2+H06089)
Correct for Detector Non-linearity: No (USB2+H06089)
Correct for Stray Light: No (USB2+H06089)
Number of Pixels in Processed Spectrum: 2048
>>>>>Begin Processed Spectral Data<<<<<
339.70	1018.48
340.07	1018.48
340.45	984.66
340.82	964.63
341.19	942.72
341.57	916.98
341.94	907.66
342.31	903.12
342.69	898.02
343.06	891.60
343.43	892.82
343.81	894.65
344.18	893.78
344.55	898.58
344.93	906.07
345.30	911.26
345.67	917.65
346.04	927.23
346.42	934.18
346.79	941.43
347.16	951.69
347.54	960.30
347.91	972.47
348.28	981.76
348.65	993.84
349.03	1004.84
349.40	1012.05
349.77	1017.38
350.14	1025.37
350.52	1031.83
350.89	1034.52
351.26	1042.69
351.63	1048.19
352.01	1051.58
352.38	1054.18
352.75	1061.27
353.12	1066.00
353.50	1067.26
353.87	1070.68
354.24	1074.38
354.61	1075.48
354.98	1074.24
355.36	1075.85
355.73	1077.47
356.10	1077.18
356.47	1077.18
356.84	1075.48
357.22	1075.66
357.59	1075.45
357.96	1075.17
358.33	1074.35
358.70	1076.65
359.08	1074.40
359.45	1074.89
359.82	1075.50
360.19	1075.73
360.56	1075.71
360.94	1078.50
361.31	1075.48
361.68	1075.64
362.05	1072.43
362.42	1072.36
362.79	1070.96
363.16	1071.59
363.54	1071.78
363.91	1070.68
364.28	1068.76
364.65	1068.69
365.02	1067.26
365.39	1065.37
365.76	1067.57
366.14	1064.43
366.51	1066.98
366.88	1070.14
367.25	1070.14
367.62	1071.90
367.99	1076.25
368.36	1073.56
368.73	1070.65
369.10	1069.46
369.48	1065.83
369.85	1065.13
370.22	1065.58
370.59	1065.79
370.96	1067.57
371.33	1071.50
371.70	1068.57
372.07	1068.74
372.44	1070.35
372.81	1069.60
373.18	1068.99
373.55	1071.61
373.93	1068.74
374.30	1067.31
374.67	1069.55
375.04	1065.69
375.41	1063.28
375.78	1067.31
376.15	1068.43
376.52	1064.62
376.89	1069.11
377.26	1070.72
377.63	1069.20
378.00	1064.99
378.37	1065.53
378.74	1065.74
379.11	1067.54
379.48	1069.98
379.85	1074.28
380.22	1072.67
380.59	1072.43
380.96	1069.62
381.33	1065.95
381.70	1063.54
382.07	1066.35
382.44	1065.32
382.81	1068.74
383.18	1066.96
383.55	1067.47
383.92	1068.06
384.29	1069.25
384.66	1068.29
385.03	1073.74
385.40	1075.71
385.77	1075.87
386.14	1073.86
386.51	1073.79
386.88	1071.36
387.25	1069.04
387.62	1069.13
387.99	1072.83
388.36	1070.75
388.73	1073.04
389.10	1075.08
389.46	1072.36
389.83	1068.31
390.20	1073.74
390.57	1075.29
390.94	1075.62
391.31	1078.92
391.68	1080.27
392.05	1078.07
392.42	1073.25
392.79	1074.63
393.16	1074.66
393.53	1073.11
393.89	1072.48
394.26	1074.03
394.63	1073.25
395.00	1073.02
395.37	1075.27
395.74	1073.84
396.11	1072.90
396.48	1072.39
396.84	1072.67
397.21	1073.23
397.58	1076.53
397.95	1078.40
398.32	1076.37
398.69	1074.82
399.06	1071.43
399.42	1071.05
399.79	1069.02
400.16	1072.85
400.53	1076.13
400.90	1075.15
401.27	1075.50
401.64	1074.89
402.00	1072.92
402.37	1071.15
402.74	1074.38
403.11	1070.91
403.48	1073.88
403.84	1075.01
404.21	1078.68
404.58	1078.66
404.95	1083.06
405.32	1081.21
405.68	1081.68
406.05	1080.72
406.42	1085.07
406.79	1082.31
407.16	1084.18
407.52	1086.08
407.89	1082.24
408.26	1076.79
408.63	1078.92
408.99	1078.38
409.36	1075.45
409.73	1079.60
410.10	1082.15
410.47	1079.24
410.83	1078.26
411.20	1078.96
411.57	1077.16
411.94	1074.82
412.30	1077.70
412.67	1077.79
413.04	1080.09
413.40	1080.37
413.77	1080.95
414.14	1080.58
414.51	1083.36
414.87	1080.06
415.24	1078.21
415.61	1077.28
415.97	1079.38
416.34	1078.24
416.71	1079.88
417.08	1081.80
417.44	1087.46
417.81	1084.93
418.18	1086.06
418.54	1085.52
418.91	1085.31
419.28	1081.49
419.64	1080.72
420.01	1079.92
420.38	1081.77
420.74	1082.26
421.11	1081.91
421.48	1081.02
421.84	1082.31
422.21	1080.98
422.58	1078.54
422.94	1082.78
423.31	1090.06
423.68	1088.70
424.04	1092.40
424.41	1100.87
424.77	1104.71
425.14	1102.60
425.51	1106.82
425.87	1107.92
426.24	1104.73
426.61	1101.20
426.97	1100.96
427.34	1100.80
427.70	1103.61
428.07	1104.36
428.44	1106.86
428.80	1111.78
429.17	1115.52
429.53	1113.37
429.90	1117.47
430.27	1123.36
430.63	1126.22
431.00	1130.48
431.36	1138.60
431.73	1144.85
432.09	1147.89
432.46	1155.34
432.83	1158.59
433.19	1160.09
433.56	1165.26
433.92	1172.16
434.29	1176.28
434.65	1186.70
435.02	1198.31
435.38	1204.07
435.75	1213.08
436.11	1223.59
436.48	1232.46
436.84	1242.59
437.21	1257.71
437.57	1270.89
437.94	1280.46
438.30	1292.12
438.67	1307.47
439.03	1321.07
439.40	1334.34
439.76	1355.38
440.13	1378.81
440.49	1398.63
440.86	1422.48
441.22	1444.86
441.59	1467.66
441.95	1488.37
442.32	1514.86
442.68	1544.03
443.05	1579.77
443.41	1609.91
443.78	1642.38
444.14	1679.05
444.51	1712.87
444.87	1756.03
445.24	1801.84
445.60	1849.84
445.96	1900.61
446.33	1956.29
446.69	2008.27
447.06	2062.27
447.42	2121.88
447.79	2177.61
448.15	2246.05
448.51	2315.33
448.88	2398.70
449.24	2479.82
449.61	2570.07
449.97	2661.07
450.33	2758.04
450.70	2844.08
451.06	2947.76
451.43	3048.43
451.79	3171.94
452.15	3299.03
452.52	3442.65
452.88	3592.51
453.24	3768.43
453.61	3936.62
453.97	4103.75
454.34	4262.47
454.70	4432.46
455.06	4603.88
455.43	4783.91
455.79	4958.59
456.15	5172.23
456.52	5375.51
456.88	5620.89
457.24	5865.50
457.61	6150.69
457.97	6428.09
458.33	6698.99
458.70	6962.34
459.06	7221.79
459.42	7508.09
459.79	7768.64
460.15	8071.27
460.51	8346.30
460.88	8632.86
461.24	8884.84
461.60	9152.38
461.96	9406.19
462.33	9652.18
462.69	9910.67
463.05	10192.19
463.42	10480.61
463.78	10734.68
464.14	10963.05
464.50	11168.47
464.87	11334.44
465.23	11496.83
465.59	11707.57
465.95	11908.20
466.32	12083.30
466.68	12212.87
467.04	12254.74
467.40	12263.10
467.77	12275.74
468.13	12291.89
468.49	12302.77
468.85	12318.05
469.22	12313.00
469.58	12240.35
469.94	12133.92
470.30	11995.50
470.66	11868.46
471.03	11709.65
471.39	11620.95
471.75	11490.04
472.11	11378.23
472.47	11298.82
472.84	11208.47
473.20	11036.63
473.56	10929.44
473.92	10765.46
474.28	10570.33
474.65	10363.00
475.01	10208.13
475.37	10016.39
475.73	9868.89
476.09	9710.84
476.45	9568.16
476.81	9386.77
477.18	9206.38
477.54	9043.48
477.90	8896.87
478.26	8727.16
478.62	8602.10
478.98	8506.89
479.34	8424.52
479.71	8354.00
480.07	8298.09
480.43	8228.81
480.79	8112.13
481.15	7985.88
481.51	7844.91
481.87	7720.37
482.23	7582.49
482.59	7478.04
482.96	7379.40
483.32	7301.35
483.68	7195.79
484.04	7099.92
484.40	6988.02
484.76	6869.64
485.12	6743.55
485.48	6633.29
485.84	6512.12
486.20	6382.38
486.56	6247.83
486.92	6124.57
487.28	6006.80
487.64	5893.91
488.00	5787.51
488.37	5675.68
488.73	5551.10
489.09	5413.47
489.45	5293.26
489.81	5179.32
490.17	5080.58
490.53	4988.92
490.89	4900.85
491.25	4812.68
491.61	4721.12
491.97	4620.97
492.33	4510.54
492.69	4401.42
493.05	4284.61
493.41	4182.02
493.77	4093.88
494.13	4005.03
494.49	3927.30
494.85	3857.48
495.21	3778.05
495.57	3686.23
495.93	3600.63
496.29	3521.50
496.64	3442.32
497.00	3371.42
497.36	3311.48
497.72	3250.44
498.08	3188.77
498.44	3130.26
498.80	3071.34
499.16	3011.64
499.52	2958.41
499.88	2906.13
500.24	2855.92
500.60	2802.21
500.96	2752.91
501.32	2699.64
501.68	2646.51
502.03	2589.22
502.39	2538.22
502.75	2486.42
503.11	2445.95
503.47	2405.32
503.83	2371.24
504.19	2340.14
504.55	2308.92
504.91	2273.06
505.26	2235.75
505.62	2196.45
505.98	2160.53
506.34	2131.62
506.70	2099.32
507.06	2074.00
507.42	2048.86
507.78	2014.50
508.13	1981.90
508.49	1950.86
508.85	1913.74
509.21	1881.25
509.57	1858.03
509.93	1831.02
510.28	1807.57
510.64	1788.64
511.00	1767.67
511.36	1746.02
511.72	1722.33
512.07	1697.54
512.43	1671.12
512.79	1651.81
513.15	1632.41
513.51	1612.23
513.86	1595.40
514.22	1588.76
514.58	1575.44
514.94	1561.11
515.30	1550.35
515.65	1535.88
516.01	1517.32
516.37	1498.36
516.73	1482.38
517.08	1468.29
517.44	1458.58
517.80	1445.00
518.16	1435.66
518.51	1423.72
518.87	1412.86
519.23	1398.96
519.59	1387.49
519.94	1378.62
520.30	1371.13
520.66	1357.39
521.01	1350.07
521.37	1344.10
521.73	1337.29
522.09	1330.52
522.44	1329.73
522.80	1322.94
523.16	1312.88
523.51	1301.10
523.87	1293.22
524.23	1284.98
524.58	1277.56
524.94	1273.93
525.30	1271.50
525.65	1264.40
526.01	1257.94
526.37	1252.84
526.72	1248.11
527.08	1239.03
527.44	1236.76
527.79	1231.89
528.15	1229.04
528.51	1224.66
528.86	1222.74
529.22	1216.59
529.58	1212.49
529.93	1207.74
530.29	1201.42
530.65	1197.32
531.00	1194.05
531.36	1189.04
531.71	1187.61
532.07	1184.87
532.43	1182.98
532.78	1179.33
533.14	1175.49
533.49	1170.41
533.85	1166.50
534.21	1164.46
534.56	1160.72
534.92	1163.08
535.27	1159.24
535.63	1159.78
535.98	1156.79
536.34	1159.10
536.69	1154.02
537.05	1151.15
537.41	1148.08
537.76	1145.88
538.12	1140.96
538.47	1142.04
538.83	1143.63
539.18	1141.88
539.54	1141.62
539.89	1143.14
540.25	1138.95
540.60	1137.41
540.96	1134.55
541.31	1132.70
541.67	1129.38
542.02	1125.28
542.38	1122.66
542.73	1124.74
543.09	1120.06
543.44	1120.04
543.80	1123.43
544.15	1120.13
544.51	1116.37
544.86	1120.34
545.22	1118.10
545.57	1114.26
545.93	1113.67
546.28	1115.15
546.64	1111.19
546.99	1108.52
547.35	1109.55
547.70	1108.36
548.05	1107.47
548.41	1103.66
548.76	1103.98
549.12	1108.90
549.47	1111.89
549.83	1110.42
550.18	1112.34
550.53	1112.01
550.89	1105.65
551.24	1103.56
551.60	1101.20
551.95	1099.91
552.30	1096.94
552.66	1095.11
553.01	1092.54
553.37	1097.24
553.72	1096.66
554.07	1102.04
554.43	1101.53
554.78	1103.87
555.13	1099.35
555.49	1097.78
555.84	1094.27
556.19	1094.41
556.55	1091.67
556.90	1092.21
557.26	1093.76
557.61	1092.80
557.96	1094.90
558.32	1095.16
558.67	1093.64
559.02	1095.96
559.37	1093.29
559.73	1091.42
560.08	1090.85
560.43	1091.37
560.79	1090.62
561.14	1093.66
561.49	1097.52
561.85	1098.93
562.20	1099.40
562.55	1099.65
562.90	1100.15
563.26	1095.25
563.61	1092.59
563.96	1093.12
564.32	1091.79
564.67	1088.37
565.02	1085.66
565.37	1086.57
565.73	1083.67
566.08	1083.86
566.43	1087.44
566.78	1088.58
567.14	1087.90
567.49	1089.05
567.84	1087.30
568.19	1085.52
568.54	1085.28
568.90	1086.41
569.25	1085.31
569.60	1083.57
569.95	1082.29
570.31	1085.87
570.66	1089.54
571.01	1090.24
571.36	1089.94
571.71	1086.99
572.06	1084.72
572.42	1080.20
572.77	1080.41
573.12	1083.46
573.47	1084.46
573.82	1082.54
574.18	1083.43
574.53	1081.87
574.88	1078.59
575.23	1080.58
575.58	1080.32
575.93	1080.18
576.28	1082.36
576.64	1083.36
576.99	1083.48
577.34	1086.87
577.69	1088.51
578.04	1085.80
578.39	1086.59
578.74	1081.30
579.09	1078.21
579.44	1075.41
579.80	1076.65
580.15	1077.33
580.50	1082.24
580.85	1082.87
581.20	1082.94
581.55	1082.24
581.90	1082.69
582.25	1079.01
582.60	1078.33
582.95	1076.51
583.30	1078.87
583.65	1074.24
584.00	1077.70
584.35	1077.44
584.71	1078.40
585.06	1077.58
585.41	1079.43
585.76	1078.59
586.11	1079.50
586.46	1078.75
586.81	1074.87
587.16	1074.52
587.51	1075.99
587.86	1076.37
588.21	1075.69
588.56	1076.88
588.91	1075.01
589.26	1070.98
589.61	1067.28
589.96	1073.09
590.31	1073.56
590.66	1077.09
591.01	1080.77
591.36	1086.45
591.71	1084.04
592.06	1087.72
592.41	1087.97
592.76	1085.26
593.10	1084.09
593.45	1083.29
593.80	1078.80
594.15	1078.87
594.50	1077.82
594.85	1076.60
595.20	1077.77
595.55	1081.96
595.90	1084.65
596.25	1090.85
596.60	1090.64
596.95	1088.37
597.30	1085.21
597.64	1091.81
597.99	1087.69
598.34	1089.75
598.69	1091.25
599.04	1089.17
599.39	1080.86
599.74	1082.31
600.09	1082.22
600.44	1082.31
600.78	1082.92
601.13	1081.19
601.48	1083.48
601.83	1085.75
602.18	1083.88
602.53	1085.73
602.88	1084.63
603.22	1081.94
603.57	1077.56
603.92	1079.88
604.27	1078.80
604.62	1078.82
604.97	1076.18
605.31	1077.42
605.66	1078.45
606.01	1079.06
606.36	1078.54
606.71	1079.46
607.05	1077.37
607.40	1075.03
607.75	1076.32
608.10	1075.27
608.44	1075.17
608.79	1076.93
609.14	1077.91
609.49	1075.64
609.84	1078.24
610.18	1080.32
610.53	1083.13
610.88	1080.93
611.23	1081.63
611.57	1080.48
611.92	1076.25
612.27	1070.75
612.62	1072.06
612.96	1072.83
613.31	1075.31
613.66	1077.75
614.00	1078.52
614.35	1077.21
614.70	1078.61
615.05	1075.27
615.39	1075.87
615.74	1079.13
616.09	1080.11
616.43	1076.86
616.78	1077.44
617.13	1077.77
617.47	1074.33
617.82	1074.21
618.17	1076.51
618.51	1080.02
618.86	1079.88
619.21	1079.08
619.55	1078.31
619.90	1076.11
620.25	1073.98
620.59	1073.51
620.94	1074.07
621.29	1073.86
621.63	1077.40
621.98	1076.39
622.32	1077.33
622.67	1080.70
623.02	1082.83
623.36	1079.85
623.71	1079.22
624.05	1077.35
624.40	1075.87
624.75	1073.28
625.09	1073.63
625.44	1078.05
625.78	1079.03
626.13	1080.27
626.48	1081.54
626.82	1080.32
627.17	1077.07
627.51	1079.08
627.86	1077.84
628.20	1078.28
628.55	1080.39
628.89	1081.94
629.24	1080.93
629.58	1080.60
629.93	1081.33
630.28	1080.30
630.62	1079.48
630.97	1079.81
631.31	1080.02
631.66	1079.97
632.00	1081.42
632.35	1080.56
632.69	1081.23
633.04	1081.73
633.38	1081.98
633.73	1081.21
634.07	1082.22
634.42	1076.18
634.76	1073.74
635.11	1073.32
635.45	1070.65
635.79	1068.88
636.14	1074.12
636.48	1075.43
636.83	1074.07
637.17	1076.01
637.52	1076.39
637.86	1076.41
638.21	1075.13
638.55	1075.45
638.89	1074.82
639.24	1076.51
639.58	1073.79
639.93	1077.35
640.27	1075.78
640.61	1078.75
640.96	1078.73
641.30	1078.40
641.65	1078.73
641.99	1084.70
642.33	1083.90
642.68	1082.15
643.02	1085.26
643.37	1083.62
643.71	1078.43
644.05	1078.33
644.40	1080.63
644.74	1081.40
645.08	1082.52
645.43	1081.26
645.77	1079.64
646.11	1079.22
646.46	1075.03
646.80	1072.95
647.14	1072.95
647.49	1073.84
647.83	1074.31
648.17	1078.45
648.52	1078.85
648.86	1080.51
649.20	1079.38
649.55	1082.40
649.89	1081.37
650.23	1079.31
650.57	1078.38
650.92	1078.71
651.26	1077.47
651.60	1076.55
651.95	1079.90
652.29	1081.09
652.63	1080.06
652.97	1077.77
653.32	1077.11
653.66	1075.55
654.00	1073.93
654.34	1075.85
654.69	1077.54
655.03	1077.14
655.37	1077.44
655.71	1078.17
656.05	1077.18
656.40	1075.80
656.74	1076.97
657.08	1076.60
657.42	1077.51
657.76	1077.09
658.11	1077.42
658.45	1077.18
658.79	1077.68
659.13	1077.16
659.47	1077.35
659.82	1075.85
660.16	1076.79
660.50	1077.56
660.84	1078.99
661.18	1080.46
661.52	1081.02
661.87	1083.71
662.21	1082.83
662.55	1080.58
662.89	1081.02
663.23	1079.97
663.57	1074.66
663.91	1077.49
664.25	1080.18
664.60	1077.04
664.94	1079.34
665.28	1079.88
665.62	1076.69
665.96	1076.46
666.30	1075.80
666.64	1072.13
666.98	1072.57
667.32	1073.51
667.66	1071.68
668.01	1074.26
668.35	1077.61
668.69	1080.51
669.03	1078.05
669.37	1079.50
669.71	1080.58
670.05	1077.16
670.39	1075.34
670.73	1076.62
671.07	1074.68
671.41	1075.03
671.75	1076.39
672.09	1077.89
672.43	1077.42
672.77	1078.57
673.11	1073.70
673.45	1073.32
673.79	1072.57
674.13	1073.84
674.47	1071.73
674.81	1076.34
675.15	1076.76
675.49	1077.33
675.83	1075.52
676.17	1076.04
676.51	1075.52
676.85	1076.32
677.19	1073.67
677.53	1072.95
677.87	1072.67
678.21	1073.30
678.55	1072.67
678.89	1075.36
679.23	1080.77
679.57	1081.42
679.90	1082.43
680.24	1081.75
680.58	1077.91
680.92	1074.24
681.26	1074.56
681.60	1070.44
681.94	1070.87
682.28	1072.13
682.62	1073.46
682.96	1074.12
683.29	1074.03
683.63	1074.68
683.97	1080.39
684.31	1080.63
684.65	1082.36
684.99	1084.00
685.33	1086.73
685.67	1082.33
686.00	1083.20
686.34	1081.51
686.68	1080.77
687.02	1075.94
687.36	1074.59
687.70	1073.21
688.03	1074.17
688.37	1074.52
688.71	1075.20
689.05	1076.88
689.39	1076.67
689.72	1075.08
690.06	1075.99
690.40	1075.99
690.74	1073.93
691.08	1074.89
691.41	1072.97
691.75	1070.33
692.09	1072.50
692.43	1074.68
692.76	1073.00
693.10	1073.39
693.44	1077.47
693.78	1075.50
694.11	1074.59
694.45	1076.23
694.79	1078.71
695.13	1076.41
695.46	1079.60
695.80	1076.23
696.14	1071.87
696.48	1071.29
696.81	1071.66
697.15	1069.84
697.49	1072.43
697.82	1073.79
698.16	1072.76
698.50	1073.32
698.83	1073.81
699.17	1073.30
699.51	1071.43
699.84	1072.04
700.18	1068.55
700.52	1065.51
700.85	1064.48
701.19	1068.36
701.53	1068.59
701.86	1073.74
702.20	1075.87
702.54	1077.63
702.87	1077.33
703.21	1077.40
703.55	1074.59
703.88	1073.58
704.22	1071.92
704.55	1073.63
704.89	1075.80
705.23	1076.48
705.56	1079.62
705.90	1080.81
706.23	1076.76
706.57	1075.20
706.91	1076.23
707.24	1072.69
707.58	1072.90
707.91	1074.17
708.25	1073.09
708.58	1072.32
708.92	1075.17
709.26	1077.44
709.59	1077.49
709.93	1080.37
710.26	1081.09
710.60	1077.56
710.93	1073.79
711.27	1075.62
711.60	1072.01
711.94	1071.52
712.27	1074.84
712.61	1076.76
712.94	1077.16
713.28	1078.40
713.61	1076.79
713.95	1074.98
714.28	1074.49
714.62	1073.16
714.95	1072.60
715.29	1071.85
715.62	1073.44
715.96	1073.53
716.29	1075.64
716.63	1074.87
716.96	1077.84
717.29	1076.39
717.63	1079.76
717.96	1077.30
718.30	1077.58
718.63	1076.79
718.97	1076.06
719.30	1072.64
719.63	1074.07
719.97	1075.31
720.30	1076.48
720.64	1077.47
720.97	1077.07
721.30	1079.50
721.64	1080.02
721.97	1078.36
722.31	1078.12
722.64	1079.71
722.97	1074.28
723.31	1074.28
723.64	1074.89
723.97	1078.14
724.31	1080.23
724.64	1082.94
724.98	1082.90
725.31	1081.91
725.64	1078.24
725.98	1076.18
726.31	1077.63
726.64	1079.74
726.97	1079.57
727.31	1076.39
727.64	1077.49
727.97	1076.46
728.31	1072.67
728.64	1075.85
728.97	1077.96
729.31	1075.10
729.64	1076.53
729.97	1079.27
730.30	1076.65
730.64	1074.73
730.97	1075.31
731.30	1074.12
731.63	1071.15
731.97	1072.85
732.30	1074.49
732.63	1076.11
732.96	1073.88
733.30	1073.58
733.63	1070.37
733.96	1071.75
734.29	1073.44
734.63	1074.45
734.96	1076.18
735.29	1078.31
735.62	1076.69
735.95	1075.64
736.29	1075.03
736.62	1074.45
736.95	1071.64
737.28	1073.07
737.61	1071.47
737.94	1073.18
738.28	1074.89
738.61	1079.17
738.94	1077.72
739.27	1077.04
739.60	1076.83
739.93	1074.75
740.27	1071.43
740.60	1075.92
740.93	1080.60
741.26	1080.79
741.59	1081.63
741.92	1081.12
742.25	1080.77
742.58	1074.98
742.91	1074.82
743.25	1074.75
743.58	1076.04
743.91	1071.82
744.24	1071.05
744.57	1069.86
744.90	1070.47
745.23	1072.69
745.56	1076.39
745.89	1076.11
746.22	1077.77
746.55	1080.18
746.88	1078.40
747.21	1076.23
747.54	1080.46
747.87	1078.45
748.20	1077.89
748.53	1077.63
748.87	1075.59
749.20	1074.73
749.53	1074.77
749.86	1073.28
750.19	1071.26
750.52	1075.62
750.85	1073.16
751.18	1073.56
751.51	1071.64
751.84	1072.13
752.16	1070.35
752.49	1070.33
752.82	1071.26
753.15	1074.14
753.48	1076.55
753.81	1077.58
754.14	1078.50
754.47	1078.54
754.80	1076.15
755.13	1078.68
755.46	1079.03
755.79	1083.13
756.12	1083.76
756.45	1085.70
756.78	1082.80
757.11	1081.94
757.43	1080.02
757.76	1076.27
758.09	1077.09
758.42	1076.44
758.75	1077.86
759.08	1079.81
759.41	1082.80
759.74	1083.43
760.07	1082.15
760.39	1080.37
760.72	1078.87
761.05	1077.51
761.38	1073.84
761.71	1076.15
762.04	1076.67
762.36	1075.69
762.69	1077.23
763.02	1077.51
763.35	1075.36
763.68	1074.21
764.01	1077.40
764.33	1076.18
764.66	1077.11
764.99	1077.04
765.32	1080.53
765.65	1075.57
