SpectraSuite Data File
++++++++++++++++++++++++++++++++++++
Date: Mon Aug 26 10:22:34 PDT 2019
User: corrico
Dark Spectrum Present: No
Reference Spectrum Present: No
Number of Sampled Component Spectra: 1
Spectrometers: USB2+H06089
Integration Time (usec): 2000 (USB2+H06089)
Spectra Averaged: 20 (USB2+H06089)
Boxcar Smoothing: 2 (USB2+H06089)
Correct for Electrical Dark: No (USB2+H06089)
Strobe/Lamp Enabled: No (USB2+H06089)
Correct for Detector Non-linearity: No (USB2+H06089)
Correct for Stray Light: No (USB2+H06089)
Number of Pixels in Processed Spectrum: 2048
>>>>>Begin Processed Spectral Data<<<<<
339.70	1030.65
340.07	1030.65
340.45	992.57
340.82	972.40
341.19	949.30
341.57	922.15
341.94	912.08
342.31	902.11
342.69	894.15
343.06	889.19
343.43	889.90
343.81	891.74
344.18	899.73
344.55	907.14
344.93	916.46
345.30	924.04
345.67	932.40
346.04	936.52
346.42	942.09
346.79	949.86
347.16	956.23
347.54	965.21
347.91	976.33
348.28	987.28
348.65	993.81
349.03	1004.35
349.40	1010.34
349.77	1018.98
350.14	1024.69
350.52	1029.53
350.89	1037.28
351.26	1042.99
351.63	1047.53
352.01	1052.66
352.38	1057.73
352.75	1060.61
353.12	1066.68
353.50	1067.94
353.87	1070.89
354.24	1075.36
354.61	1076.32
354.98	1078.96
355.36	1083.57
355.73	1083.36
356.10	1081.40
356.47	1083.18
356.84	1082.85
357.22	1079.85
357.59	1082.31
357.96	1085.17
358.33	1083.27
358.70	1083.06
359.08	1081.02
359.45	1077.86
359.82	1079.48
360.19	1082.50
360.56	1081.30
360.94	1085.61
361.31	1084.16
361.68	1081.42
362.05	1076.74
362.42	1075.85
362.79	1071.80
363.16	1075.34
363.54	1077.54
363.91	1077.54
364.28	1075.31
364.65	1075.38
365.02	1071.66
365.39	1068.55
365.76	1070.16
366.14	1071.31
366.51	1075.45
366.88	1078.59
367.25	1077.93
367.62	1077.30
367.99	1077.44
368.36	1076.81
368.73	1075.27
369.10	1074.21
369.48	1073.02
369.85	1072.92
370.22	1070.82
370.59	1071.22
370.96	1073.07
371.33	1072.67
371.70	1072.71
372.07	1070.58
372.44	1069.39
372.81	1070.80
373.18	1072.29
373.55	1072.69
373.93	1070.56
374.30	1072.13
374.67	1072.01
375.04	1074.21
375.41	1076.27
375.78	1078.28
376.15	1079.53
376.52	1079.90
376.89	1079.27
377.26	1077.96
377.63	1079.38
378.00	1079.83
378.37	1079.34
378.74	1077.42
379.11	1078.38
379.48	1081.16
379.85	1080.20
380.22	1081.16
380.59	1082.97
380.96	1083.27
381.33	1083.18
381.70	1083.43
382.07	1084.49
382.44	1085.40
382.81	1083.55
383.18	1081.16
383.55	1080.56
383.92	1077.75
384.29	1076.95
384.66	1077.54
385.03	1078.64
385.40	1079.71
385.77	1081.21
386.14	1079.27
386.51	1078.19
386.88	1079.13
387.25	1076.97
387.62	1076.11
387.99	1077.86
388.36	1081.63
388.73	1081.30
389.10	1083.62
389.46	1081.51
389.83	1083.57
390.20	1081.37
390.57	1082.36
390.94	1081.26
391.31	1086.06
391.68	1084.21
392.05	1084.02
392.42	1083.29
392.79	1084.42
393.16	1083.22
393.53	1083.01
393.89	1086.01
394.26	1087.09
394.63	1089.80
395.00	1089.40
395.37	1092.56
395.74	1091.63
396.11	1091.44
396.48	1088.56
396.84	1088.56
397.21	1087.09
397.58	1086.78
397.95	1084.70
398.32	1083.62
398.69	1082.71
399.06	1079.90
399.42	1079.20
399.79	1081.87
400.16	1084.44
400.53	1085.49
400.90	1087.06
401.27	1088.91
401.64	1087.72
402.00	1086.78
402.37	1084.77
402.74	1085.96
403.11	1085.52
403.48	1087.09
403.84	1088.89
404.21	1092.21
404.58	1096.75
404.95	1096.19
405.32	1097.10
405.68	1098.25
406.05	1097.20
406.42	1093.90
406.79	1097.36
407.16	1097.17
407.52	1093.99
407.89	1094.15
408.26	1093.50
408.63	1091.13
408.99	1090.83
409.36	1089.73
409.73	1088.89
410.10	1089.38
410.47	1092.02
410.83	1094.01
411.20	1095.86
411.57	1098.58
411.94	1096.68
412.30	1096.12
412.67	1095.42
413.04	1098.72
413.40	1102.11
413.77	1106.70
414.14	1106.49
414.51	1106.25
414.87	1105.83
415.24	1102.53
415.61	1100.15
415.97	1099.28
416.34	1103.61
416.71	1103.49
417.08	1103.68
417.44	1103.14
417.81	1103.82
418.18	1103.02
418.54	1101.67
418.91	1101.76
419.28	1108.17
419.64	1110.51
420.01	1110.98
420.38	1113.95
420.74	1116.06
421.11	1112.99
421.48	1115.92
421.84	1115.64
422.21	1116.79
422.58	1118.96
422.94	1124.35
423.31	1127.11
423.68	1129.99
424.04	1133.29
424.41	1137.45
424.77	1138.11
425.14	1139.79
425.51	1143.14
425.87	1146.82
426.24	1149.34
426.61	1154.96
426.97	1157.42
427.34	1159.95
427.70	1168.51
428.07	1176.99
428.44	1181.81
428.80	1191.05
429.17	1202.33
429.53	1207.01
429.90	1215.11
430.27	1227.49
430.63	1236.18
431.00	1249.68
431.36	1263.61
431.73	1277.37
432.09	1291.04
432.46	1305.64
432.83	1323.74
433.19	1338.04
433.56	1355.12
433.92	1372.96
434.29	1395.99
434.65	1414.81
435.02	1441.40
435.38	1467.82
435.75	1494.85
436.11	1526.66
436.48	1552.10
436.84	1586.02
437.21	1619.95
437.57	1654.59
437.94	1692.63
438.30	1740.84
438.67	1785.15
439.03	1836.67
439.40	1892.37
439.76	1951.75
440.13	2014.43
440.49	2082.91
440.86	2152.64
441.22	2230.51
441.59	2301.66
441.95	2379.67
442.32	2460.14
442.68	2551.25
443.05	2642.72
443.41	2744.89
443.78	2847.82
444.14	2953.64
444.51	3068.91
444.87	3208.76
445.24	3352.40
445.60	3497.42
445.96	3661.91
446.33	3827.10
446.69	3985.11
447.06	4156.79
447.42	4344.43
447.79	4535.54
448.15	4758.22
448.51	4983.80
448.88	5242.19
449.24	5487.39
449.61	5761.84
449.97	6038.00
450.33	6321.72
450.70	6585.03
451.06	6907.27
451.43	7212.90
451.79	7578.58
452.15	7989.72
452.52	8448.42
452.88	8928.37
453.24	9459.44
453.61	10036.22
453.97	10591.04
454.34	11123.37
454.70	11768.47
455.06	12410.36
455.43	13026.27
455.79	13623.84
456.15	14355.98
456.52	15013.16
456.88	15804.21
457.24	16544.24
457.61	17408.79
457.97	18173.44
458.33	18948.67
458.70	19713.12
459.06	20474.63
459.42	21323.15
459.79	22107.60
460.15	23006.18
460.51	23866.51
460.88	24816.26
461.24	25620.28
461.60	26594.38
461.96	27470.68
462.33	28306.02
462.69	29065.78
463.05	29891.24
463.42	30582.09
463.78	31232.72
464.14	31784.55
464.50	32411.46
464.87	32884.97
465.23	33255.95
465.59	33603.31
465.95	33921.71
466.32	34156.94
466.68	34385.70
467.04	34518.43
467.40	34675.55
467.77	34836.49
468.13	34811.12
468.49	34703.05
468.85	34619.19
469.22	34428.32
469.58	34049.60
469.94	33796.82
470.30	33478.39
470.66	33056.37
471.03	32449.49
471.39	32050.85
471.75	31386.37
472.11	30786.80
472.47	30417.23
472.84	30096.32
473.20	29601.20
473.56	29348.28
473.92	28923.24
474.28	28411.32
474.65	27933.66
475.01	27467.78
475.37	26892.66
475.73	26432.33
476.09	25901.82
476.45	25374.71
476.81	24851.01
477.18	24326.33
477.54	23885.33
477.90	23530.41
478.26	23120.23
478.62	22788.16
478.98	22492.71
479.34	22177.77
479.71	21782.22
480.07	21427.67
480.43	21069.08
480.79	20676.64
481.15	20310.14
481.51	19985.79
481.87	19740.34
482.23	19445.36
482.59	19199.25
482.96	18913.96
483.32	18628.44
483.68	18261.77
484.04	17924.38
484.40	17561.62
484.76	17198.56
485.12	16838.82
485.48	16529.94
485.84	16192.06
486.20	15835.48
486.56	15478.13
486.92	15155.39
487.28	14796.52
487.64	14431.35
488.00	14102.36
488.37	13787.63
488.73	13435.03
489.09	13061.66
489.45	12755.57
489.81	12438.24
490.17	12121.47
490.53	11828.25
490.89	11529.81
491.25	11213.90
491.61	10898.59
491.97	10591.58
492.33	10262.66
492.69	9976.84
493.05	9680.92
493.41	9406.33
493.77	9132.89
494.13	8889.57
494.49	8638.68
494.85	8395.15
495.21	8167.77
495.57	7951.03
495.93	7728.19
496.29	7524.00
496.64	7343.27
497.00	7154.48
497.36	6964.10
497.72	6784.09
498.08	6609.53
498.44	6434.16
498.80	6263.91
499.16	6098.15
499.52	5946.67
499.88	5809.70
500.24	5681.44
500.60	5554.49
500.96	5436.85
501.32	5317.04
501.68	5199.17
502.03	5072.76
502.39	4949.16
502.75	4823.54
503.11	4697.88
503.47	4575.84
503.83	4455.51
504.19	4337.27
504.55	4223.80
504.91	4126.36
505.26	4028.86
505.62	3945.93
505.98	3857.58
506.34	3771.94
506.70	3675.09
507.06	3591.29
507.42	3499.78
507.78	3420.69
508.13	3342.61
508.49	3272.68
508.85	3200.17
509.21	3137.93
509.57	3068.11
509.93	3003.07
510.28	2937.23
510.64	2876.42
511.00	2813.77
511.36	2760.31
511.72	2705.05
512.07	2659.13
512.43	2607.10
512.79	2555.30
513.15	2503.76
513.51	2456.28
513.86	2406.47
514.22	2369.58
514.58	2328.65
514.94	2292.13
515.30	2252.88
515.65	2218.71
516.01	2183.32
516.37	2152.71
516.73	2120.34
517.08	2097.03
517.44	2069.01
517.80	2036.48
518.16	2012.81
518.51	1986.32
518.87	1957.23
519.23	1928.88
519.59	1903.60
519.94	1873.81
520.30	1856.14
520.66	1833.08
521.01	1812.37
521.37	1793.72
521.73	1771.83
522.09	1742.93
522.44	1721.39
522.80	1701.45
523.16	1677.27
523.51	1657.33
523.87	1642.33
524.23	1623.91
524.58	1604.60
524.94	1590.63
525.30	1576.05
525.65	1555.59
526.01	1539.82
526.37	1523.36
526.72	1511.21
527.08	1498.76
527.44	1488.44
527.79	1477.67
528.15	1468.24
528.51	1454.97
528.86	1441.47
529.22	1432.85
529.58	1422.44
529.93	1411.60
530.29	1397.96
530.65	1387.89
531.00	1377.10
531.36	1366.62
531.71	1358.89
532.07	1350.58
532.43	1343.42
532.78	1333.15
533.14	1324.95
533.49	1317.25
533.85	1310.93
534.21	1304.80
534.56	1300.54
534.92	1293.50
535.27	1289.45
535.63	1283.60
535.98	1275.78
536.34	1271.71
536.69	1267.40
537.05	1259.56
537.41	1253.90
537.76	1250.64
538.12	1239.95
538.47	1237.18
538.83	1230.91
539.18	1229.16
539.54	1226.23
539.89	1227.70
540.25	1222.32
540.60	1221.85
540.96	1217.27
541.31	1211.09
541.67	1207.08
542.02	1203.39
542.38	1200.04
542.73	1195.24
543.09	1193.65
543.44	1190.70
543.80	1189.44
544.15	1185.86
544.51	1182.49
544.86	1179.91
545.22	1176.38
545.57	1172.84
545.93	1171.30
546.28	1173.78
546.64	1172.63
546.99	1171.06
547.35	1168.89
547.70	1165.14
548.05	1160.74
548.41	1159.03
548.76	1157.14
549.12	1155.76
549.47	1155.19
549.83	1153.39
550.18	1147.00
550.53	1144.78
550.89	1142.60
551.24	1137.10
551.60	1137.59
551.95	1138.11
552.30	1135.42
552.66	1135.63
553.01	1134.81
553.37	1127.97
553.72	1127.23
554.07	1126.99
554.43	1123.93
554.78	1125.33
555.13	1125.98
555.49	1126.06
555.84	1123.41
556.19	1123.20
556.55	1120.84
556.90	1118.73
557.26	1116.41
557.61	1117.23
557.96	1117.28
558.32	1119.29
558.67	1119.95
559.02	1117.11
559.37	1117.75
559.73	1116.30
560.08	1114.02
560.43	1113.79
560.79	1116.20
561.14	1115.03
561.49	1113.42
561.85	1111.01
562.20	1107.82
562.55	1106.07
562.90	1103.54
563.26	1107.10
563.61	1108.20
563.96	1109.48
564.32	1107.38
564.67	1108.88
565.02	1104.83
565.37	1104.50
565.73	1105.83
566.08	1105.27
566.43	1101.08
566.78	1101.71
567.14	1105.18
567.49	1105.55
567.84	1106.11
568.19	1107.49
568.54	1104.64
568.90	1098.69
569.25	1097.03
569.60	1096.96
569.95	1100.05
570.31	1099.35
570.66	1100.92
571.01	1099.98
571.36	1101.81
571.71	1100.26
572.06	1099.68
572.42	1099.70
572.77	1098.90
573.12	1095.91
573.47	1094.50
573.82	1096.68
574.18	1092.28
574.53	1091.34
574.88	1090.74
575.23	1089.47
575.58	1085.24
575.93	1088.75
576.28	1088.58
576.64	1089.73
576.99	1089.24
577.34	1091.86
577.69	1091.86
578.04	1094.72
578.39	1094.97
578.74	1096.45
579.09	1094.67
579.44	1095.56
579.80	1089.99
580.15	1090.90
580.50	1088.68
580.85	1089.59
581.20	1087.30
581.55	1091.95
581.90	1087.41
582.25	1088.14
582.60	1087.74
582.95	1086.69
583.30	1083.95
583.65	1086.13
584.00	1086.36
584.35	1088.47
584.71	1085.00
585.06	1087.02
585.41	1087.88
585.76	1087.74
586.11	1085.61
586.46	1087.41
586.81	1086.10
587.16	1085.38
587.51	1086.06
587.86	1089.94
588.21	1090.48
588.56	1089.59
588.91	1089.59
589.26	1091.95
589.61	1091.04
589.96	1092.96
590.31	1093.40
590.66	1093.08
591.01	1089.57
591.36	1087.72
591.71	1087.23
592.06	1089.57
592.41	1090.83
592.76	1089.99
593.10	1088.51
593.45	1089.17
593.80	1087.58
594.15	1085.19
594.50	1086.94
594.85	1086.24
595.20	1086.80
595.55	1085.05
595.90	1086.31
596.25	1081.30
596.60	1082.73
596.95	1082.59
597.30	1082.01
597.64	1090.64
597.99	1092.52
598.34	1091.98
598.69	1090.92
599.04	1091.77
599.39	1081.47
599.74	1081.73
600.09	1080.63
600.44	1079.55
600.78	1080.65
601.13	1080.30
601.48	1081.05
601.83	1082.33
602.18	1083.88
602.53	1087.55
602.88	1087.93
603.22	1087.79
603.57	1087.13
603.92	1087.83
604.27	1085.68
604.62	1085.54
604.97	1083.74
605.31	1082.36
605.66	1082.50
606.01	1082.36
606.36	1081.75
606.71	1084.39
607.05	1087.30
607.40	1085.91
607.75	1086.34
608.10	1088.30
608.44	1087.72
608.79	1089.52
609.14	1089.71
609.49	1086.43
609.84	1087.34
610.18	1085.52
610.53	1083.13
610.88	1082.38
611.23	1078.96
611.57	1076.20
611.92	1080.77
612.27	1079.38
612.62	1078.19
612.96	1081.89
613.31	1084.79
613.66	1084.51
614.00	1084.70
614.35	1086.78
614.70	1084.37
615.05	1083.53
615.39	1080.88
615.74	1080.02
616.09	1079.15
616.43	1083.15
616.78	1078.94
617.13	1080.20
617.47	1082.50
617.82	1082.10
618.17	1080.91
618.51	1083.08
618.86	1084.00
619.21	1081.96
619.55	1082.73
619.90	1083.08
620.25	1084.86
620.59	1081.96
620.94	1079.71
621.29	1079.78
621.63	1081.00
621.98	1078.89
622.32	1078.75
622.67	1083.27
623.02	1084.21
623.36	1084.53
623.71	1084.32
624.05	1084.46
624.40	1083.04
624.75	1081.66
625.09	1078.28
625.44	1079.74
625.78	1082.26
626.13	1081.87
626.48	1079.38
626.82	1078.73
627.17	1078.28
627.51	1078.66
627.86	1076.15
628.20	1082.05
628.55	1083.25
628.89	1081.61
629.24	1077.86
629.58	1081.12
629.93	1076.67
630.28	1075.29
630.62	1076.76
630.97	1076.44
631.31	1074.52
631.66	1076.25
632.00	1078.54
632.35	1077.70
632.69	1079.36
633.04	1081.63
633.38	1082.92
633.73	1081.30
634.07	1084.02
634.42	1087.37
634.76	1088.14
635.11	1084.46
635.45	1088.19
635.79	1084.56
636.14	1080.44
636.48	1078.61
636.83	1079.27
637.17	1076.18
637.52	1077.96
637.86	1078.57
638.21	1076.81
638.55	1077.09
638.89	1078.85
639.24	1079.13
639.58	1077.77
639.93	1077.72
640.27	1079.01
640.61	1077.49
640.96	1079.03
641.30	1080.77
641.65	1080.53
641.99	1078.33
642.33	1079.74
642.68	1078.64
643.02	1080.34
643.37	1082.76
643.71	1083.06
644.05	1083.46
644.40	1083.36
644.74	1083.62
645.08	1085.49
645.43	1086.15
645.77	1081.73
646.11	1079.55
646.46	1077.37
646.80	1074.82
647.14	1076.79
647.49	1077.75
647.83	1079.50
648.17	1080.60
648.52	1081.61
648.86	1079.90
649.20	1082.54
649.55	1085.84
649.89	1085.77
650.23	1084.63
650.57	1082.71
650.92	1082.12
651.26	1079.81
651.60	1081.07
651.95	1081.94
652.29	1086.10
652.63	1085.38
652.97	1081.77
653.32	1079.29
653.66	1076.58
654.00	1078.45
654.34	1079.43
654.69	1078.92
655.03	1076.58
655.37	1078.43
655.71	1077.37
656.05	1077.09
656.40	1080.18
656.74	1081.63
657.08	1082.99
657.42	1080.46
657.76	1080.77
658.11	1083.41
658.45	1083.53
658.79	1082.03
659.13	1080.37
659.47	1079.46
659.82	1075.64
660.16	1076.23
660.50	1077.02
660.84	1079.83
661.18	1080.27
661.52	1080.91
661.87	1082.22
662.21	1080.95
662.55	1080.34
662.89	1081.05
663.23	1082.17
663.57	1082.61
663.91	1083.57
664.25	1082.76
664.60	1082.36
664.94	1081.14
665.28	1081.37
665.62	1084.91
665.96	1083.20
666.30	1084.86
666.64	1087.44
666.98	1091.25
667.32	1088.30
667.66	1089.24
668.01	1086.90
668.35	1085.38
668.69	1080.30
669.03	1079.90
669.37	1080.84
669.71	1080.27
670.05	1076.53
670.39	1077.89
670.73	1076.79
671.07	1077.86
671.41	1080.06
671.75	1083.41
672.09	1080.98
672.43	1081.35
672.77	1083.39
673.11	1082.36
673.45	1083.13
673.79	1082.83
674.13	1087.67
674.47	1084.86
674.81	1085.75
675.15	1087.09
675.49	1089.12
675.83	1083.15
676.17	1083.48
676.51	1083.93
676.85	1082.38
677.19	1078.50
677.53	1077.18
677.87	1077.58
678.21	1079.29
678.55	1078.80
678.89	1083.81
679.23	1084.30
679.57	1086.10
679.90	1082.29
680.24	1083.06
680.58	1080.58
680.92	1080.88
681.26	1079.78
681.60	1078.57
681.94	1077.89
682.28	1078.00
682.62	1080.04
682.96	1080.13
683.29	1083.76
683.63	1084.18
683.97	1082.80
684.31	1082.31
684.65	1081.68
684.99	1080.25
685.33	1080.93
685.67	1080.79
686.00	1081.26
686.34	1081.51
686.68	1081.05
687.02	1080.16
687.36	1079.97
687.70	1079.17
688.03	1076.23
688.37	1075.27
688.71	1076.62
689.05	1076.67
689.39	1077.82
689.72	1081.63
690.06	1081.82
690.40	1080.27
690.74	1081.63
691.08	1082.66
691.41	1079.08
691.75	1080.34
692.09	1081.70
692.43	1083.55
692.76	1079.22
693.10	1078.33
693.44	1078.00
693.78	1076.37
694.11	1078.12
694.45	1081.73
694.79	1082.38
695.13	1081.87
695.46	1083.13
695.80	1082.73
696.14	1081.44
696.48	1082.52
696.81	1082.85
697.15	1083.71
697.49	1081.07
697.82	1082.15
698.16	1080.48
698.50	1078.05
698.83	1075.13
699.17	1075.90
699.51	1075.22
699.84	1077.18
700.18	1080.25
700.52	1077.35
700.85	1078.43
701.19	1078.26
701.53	1075.66
701.86	1073.04
702.20	1076.39
702.54	1074.10
702.87	1074.19
703.21	1077.30
703.55	1077.82
703.88	1078.17
704.22	1079.41
704.55	1078.17
704.89	1077.30
705.23	1079.24
705.56	1079.76
705.90	1079.83
706.23	1082.03
706.57	1081.40
706.91	1080.09
707.24	1082.83
707.58	1084.23
707.91	1082.69
708.25	1080.84
708.58	1082.12
708.92	1077.00
709.26	1073.98
709.59	1077.58
709.93	1079.76
710.26	1076.88
710.60	1082.10
710.93	1083.86
711.27	1079.01
711.60	1082.19
711.94	1084.35
712.27	1083.15
712.61	1082.71
712.94	1082.12
713.28	1079.92
713.61	1077.68
713.95	1074.21
714.28	1074.73
714.62	1075.01
714.95	1074.56
715.29	1079.41
715.62	1079.95
715.96	1077.61
716.29	1078.78
716.63	1079.85
716.96	1075.50
717.29	1078.92
717.63	1081.66
717.96	1083.32
718.30	1081.33
718.63	1084.30
718.97	1080.51
719.30	1078.47
719.63	1079.29
719.97	1079.27
720.30	1075.55
720.64	1076.76
720.97	1077.30
721.30	1075.80
721.64	1076.39
721.97	1081.33
722.31	1079.81
722.64	1079.83
722.97	1081.89
723.31	1083.97
723.64	1079.99
723.97	1078.66
724.31	1079.67
724.64	1078.14
724.98	1075.59
725.31	1076.90
725.64	1081.19
725.98	1080.95
726.31	1079.43
726.64	1078.85
726.97	1079.53
727.31	1079.03
727.64	1076.15
727.97	1078.54
728.31	1079.31
728.64	1076.90
728.97	1075.31
729.31	1076.08
729.64	1075.08
729.97	1076.83
730.30	1080.95
730.64	1081.49
730.97	1082.94
731.30	1081.33
731.63	1077.84
731.97	1077.33
732.30	1073.81
732.63	1073.14
732.96	1072.74
733.30	1075.27
733.63	1071.82
733.96	1076.55
734.29	1078.45
734.63	1080.46
734.96	1078.71
735.29	1079.08
735.62	1077.35
735.95	1075.10
736.29	1077.04
736.62	1079.53
736.95	1084.72
737.28	1085.80
737.61	1087.16
737.94	1081.91
738.28	1082.83
738.61	1080.23
738.94	1080.20
739.27	1078.92
739.60	1083.83
739.93	1082.17
740.27	1083.13
740.60	1087.09
740.93	1088.93
741.26	1090.92
741.59	1090.74
741.92	1089.52
742.25	1084.51
742.58	1080.84
742.91	1077.68
743.25	1078.78
743.58	1079.64
743.91	1078.85
744.24	1080.44
744.57	1077.16
744.90	1074.96
745.23	1072.95
745.56	1074.17
745.89	1076.06
746.22	1079.53
746.55	1079.29
746.88	1077.84
747.21	1077.84
747.54	1078.89
747.87	1076.93
748.20	1078.52
748.53	1081.73
748.87	1083.25
749.20	1083.93
749.53	1087.48
749.86	1085.52
750.19	1082.61
750.52	1080.02
750.85	1075.90
751.18	1074.73
751.51	1074.45
751.84	1075.83
752.16	1078.99
752.49	1078.87
752.82	1074.56
753.15	1075.94
753.48	1074.96
753.81	1075.03
754.14	1078.40
754.47	1082.73
754.80	1084.16
755.13	1087.93
755.46	1087.58
755.79	1083.90
756.12	1084.18
756.45	1080.93
756.78	1077.14
757.11	1075.69
757.43	1075.71
757.76	1073.23
758.09	1078.45
758.42	1077.42
758.75	1074.42
759.08	1076.97
759.41	1080.30
759.74	1078.24
760.07	1081.37
760.39	1085.33
760.72	1085.07
761.05	1085.33
761.38	1082.66
761.71	1080.27
762.04	1080.48
762.36	1079.06
762.69	1075.78
763.02	1076.27
763.35	1076.88
763.68	1076.44
764.01	1077.89
