SpectraSuite Data File
++++++++++++++++++++++++++++++++++++
Date: Mon Aug 26 10:21:59 PDT 2019
User: corrico
Dark Spectrum Present: No
Reference Spectrum Present: No
Number of Sampled Component Spectra: 1
Spectrometers: USB2+H06089
Integration Time (usec): 2000 (USB2+H06089)
Spectra Averaged: 20 (USB2+H06089)
Boxcar Smoothing: 2 (USB2+H06089)
Correct for Electrical Dark: No (USB2+H06089)
Strobe/Lamp Enabled: No (USB2+H06089)
Correct for Detector Non-linearity: No (USB2+H06089)
Correct for Stray Light: No (USB2+H06089)
Number of Pixels in Processed Spectrum: 2048
>>>>>Begin Processed Spectral Data<<<<<
339.70	1016.73
340.07	1016.73
340.45	989.63
340.82	968.35
341.19	946.75
341.57	923.55
341.94	911.01
342.31	901.81
342.69	899.12
343.06	897.48
343.43	895.30
343.81	894.76
344.18	898.53
344.55	902.96
344.93	906.35
345.30	914.54
345.67	922.45
346.04	932.35
346.42	938.93
346.79	949.41
347.16	956.37
347.54	962.36
347.91	968.35
348.28	975.82
348.65	980.40
349.03	990.80
349.40	1000.30
349.77	1008.72
350.14	1017.43
350.52	1027.99
350.89	1036.34
351.26	1044.77
351.63	1052.56
352.01	1057.43
352.38	1061.29
352.75	1060.99
353.12	1063.02
353.50	1065.34
353.87	1069.09
354.24	1070.47
354.61	1073.02
354.98	1075.20
355.36	1075.92
355.73	1075.45
356.10	1076.34
356.47	1079.90
356.84	1080.72
357.22	1081.82
357.59	1085.26
357.96	1087.02
358.33	1085.47
358.70	1083.93
359.08	1083.25
359.45	1083.69
359.82	1082.73
360.19	1081.68
360.56	1081.12
360.94	1078.47
361.31	1076.44
361.68	1075.73
362.05	1075.94
362.42	1074.10
362.79	1076.53
363.16	1072.78
363.54	1073.46
363.91	1070.68
364.28	1072.88
364.65	1068.50
365.02	1071.38
365.39	1068.71
365.76	1072.04
366.14	1069.79
366.51	1071.01
366.88	1068.06
367.25	1069.20
367.62	1066.54
367.99	1070.82
368.36	1072.25
368.73	1075.24
369.10	1075.62
369.48	1077.04
369.85	1075.24
370.22	1076.13
370.59	1074.98
370.96	1074.70
371.33	1075.22
371.70	1072.01
372.07	1071.99
372.44	1069.98
372.81	1068.97
373.18	1067.66
373.55	1069.39
373.93	1068.78
374.30	1070.54
374.67	1072.22
375.04	1072.04
375.41	1070.56
375.78	1070.23
376.15	1070.91
376.52	1069.09
376.89	1071.17
377.26	1074.66
377.63	1073.93
378.00	1076.06
378.37	1080.37
378.74	1080.09
379.11	1076.13
379.48	1077.44
379.85	1075.01
380.22	1071.38
380.59	1071.82
380.96	1075.83
381.33	1075.15
381.70	1077.02
382.07	1075.87
382.44	1074.00
382.81	1073.81
383.18	1073.30
383.55	1072.01
383.92	1075.36
384.29	1076.20
384.66	1073.91
385.03	1074.75
385.40	1074.12
385.77	1073.42
386.14	1072.57
386.51	1071.97
386.88	1069.46
387.25	1068.38
387.62	1066.77
387.99	1070.23
388.36	1075.13
388.73	1078.52
389.10	1082.15
389.46	1086.36
389.83	1084.21
390.20	1079.50
390.57	1080.30
390.94	1079.74
391.31	1077.18
391.68	1077.14
392.05	1080.93
392.42	1078.80
392.79	1077.44
393.16	1077.58
393.53	1077.77
393.89	1076.37
394.26	1078.21
394.63	1078.26
395.00	1076.58
395.37	1074.52
395.74	1076.83
396.11	1074.54
396.48	1075.05
396.84	1078.00
397.21	1082.38
397.58	1084.74
397.95	1088.16
398.32	1089.05
398.69	1086.20
399.06	1084.53
399.42	1079.29
399.79	1078.61
400.16	1075.27
400.53	1076.32
400.90	1076.55
401.27	1077.84
401.64	1075.87
402.00	1076.18
402.37	1079.27
402.74	1077.65
403.11	1079.17
403.48	1084.98
403.84	1090.24
404.21	1088.21
404.58	1092.94
404.95	1092.21
405.32	1088.49
405.68	1087.93
406.05	1089.33
406.42	1085.24
406.79	1085.80
407.16	1085.87
407.52	1086.48
407.89	1085.75
408.26	1088.51
408.63	1087.69
408.99	1087.34
409.36	1086.10
409.73	1088.07
410.10	1088.09
410.47	1089.22
410.83	1090.06
411.20	1089.61
411.57	1086.52
411.94	1085.82
412.30	1085.91
412.67	1086.83
413.04	1088.35
413.40	1092.30
413.77	1093.40
414.14	1091.56
414.51	1089.96
414.87	1091.02
415.24	1089.17
415.61	1088.98
415.97	1089.59
416.34	1092.09
416.71	1091.98
417.08	1092.73
417.44	1092.70
417.81	1094.29
418.18	1092.49
418.54	1095.00
418.91	1096.47
419.28	1097.78
419.64	1100.80
420.01	1101.99
420.38	1100.05
420.74	1100.92
421.11	1100.17
421.48	1100.85
421.84	1103.14
422.21	1102.86
422.58	1104.08
422.94	1104.59
423.31	1104.29
423.68	1104.64
424.04	1108.78
424.41	1110.75
424.77	1116.39
425.14	1120.18
425.51	1126.06
425.87	1131.09
426.24	1132.61
426.61	1135.04
426.97	1141.15
427.34	1142.70
427.70	1144.29
428.07	1150.16
428.44	1155.34
428.80	1159.20
429.17	1167.48
429.53	1171.37
429.90	1174.27
430.27	1179.42
430.63	1182.77
431.00	1183.12
431.36	1193.37
431.73	1204.63
432.09	1214.41
432.46	1227.70
432.83	1241.09
433.19	1249.17
433.56	1261.78
433.92	1272.74
434.29	1286.24
434.65	1301.41
435.02	1321.49
435.38	1339.18
435.75	1359.69
436.11	1377.38
436.48	1397.98
436.84	1417.33
437.21	1441.96
437.57	1468.66
437.94	1500.35
438.30	1531.95
438.67	1561.98
439.03	1593.83
439.40	1634.37
439.76	1666.74
440.13	1710.23
440.49	1761.00
440.86	1814.08
441.22	1859.09
441.59	1913.18
441.95	1969.26
442.32	2024.70
442.68	2085.53
443.05	2153.27
443.41	2218.15
443.78	2285.46
444.14	2359.49
444.51	2425.61
444.87	2507.67
445.24	2592.49
445.60	2686.05
445.96	2776.37
446.33	2886.42
446.69	2987.95
447.06	3107.97
447.42	3222.33
447.79	3348.70
448.15	3491.03
448.51	3635.46
448.88	3798.01
449.24	3954.19
449.61	4146.54
449.97	4332.03
450.33	4540.83
450.70	4731.07
451.06	4956.81
451.43	5155.71
451.79	5386.86
452.15	5642.24
452.52	5920.08
452.88	6204.67
453.24	6525.60
453.61	6889.72
453.97	7230.87
454.34	7582.75
454.70	7979.31
455.06	8360.74
455.43	8718.64
455.79	9059.18
456.15	9454.85
456.52	9827.07
456.88	10325.98
457.24	10818.45
457.61	11431.93
457.97	12013.31
458.33	12629.83
458.70	13185.92
459.06	13717.01
459.42	14260.98
459.79	14746.50
460.15	15293.88
460.51	15794.01
460.88	16358.54
461.24	16835.08
461.60	17403.64
461.96	17863.53
462.33	18338.26
462.69	18790.10
463.05	19321.10
463.42	19835.60
463.78	20320.79
464.14	20724.11
464.50	21155.68
464.87	21473.90
465.23	21659.18
465.59	21912.59
465.95	22118.37
466.32	22253.11
466.68	22376.34
467.04	22482.16
467.40	22497.25
467.77	22550.85
468.13	22517.24
468.49	22373.13
468.85	22242.06
469.22	22138.43
469.58	21980.42
469.94	21834.27
470.30	21674.84
470.66	21438.72
471.03	21092.21
471.39	20829.60
471.75	20431.57
472.11	20084.09
472.47	19853.43
472.84	19572.19
473.20	19203.88
473.56	18944.95
473.92	18534.91
474.28	18067.16
474.65	17693.96
475.01	17312.50
475.37	16893.26
475.73	16603.32
476.09	16292.26
476.45	15999.06
476.81	15729.52
477.18	15480.91
477.54	15277.50
477.90	15115.98
478.26	14889.39
478.62	14686.14
478.98	14529.67
479.34	14363.33
479.71	14134.07
480.07	13911.07
480.43	13660.72
480.79	13349.60
481.15	13049.02
481.51	12819.54
481.87	12647.81
482.23	12458.98
482.59	12295.04
482.96	12111.52
483.32	11915.78
483.68	11677.21
484.04	11480.30
484.40	11286.93
484.76	11097.95
485.12	10899.76
485.48	10727.61
485.84	10546.06
486.20	10354.53
486.56	10152.49
486.92	9954.58
487.28	9738.90
487.64	9506.90
488.00	9311.87
488.37	9108.22
488.73	8901.08
489.09	8698.48
489.45	8508.64
489.81	8287.32
490.17	8067.22
490.53	7830.05
490.89	7581.67
491.25	7355.30
491.61	7136.15
491.97	6931.85
492.33	6765.37
492.69	6608.43
493.05	6447.52
493.41	6300.46
493.77	6153.55
494.13	5998.04
494.49	5848.11
494.85	5699.46
495.21	5562.14
495.57	5433.76
495.93	5308.24
496.29	5179.61
496.64	5051.51
497.00	4913.07
497.36	4794.35
497.72	4679.99
498.08	4582.18
498.44	4479.60
498.80	4381.93
499.16	4274.01
499.52	4163.42
499.88	4049.76
500.24	3940.27
500.60	3836.98
500.96	3736.85
501.32	3653.86
501.68	3583.38
502.03	3513.87
502.39	3448.71
502.75	3387.48
503.11	3324.85
503.47	3260.83
503.83	3200.43
504.19	3142.82
504.55	3083.00
504.91	3022.12
505.26	2958.51
505.62	2894.12
505.98	2830.04
506.34	2762.82
506.70	2705.31
507.06	2644.71
507.42	2589.83
507.78	2535.43
508.13	2490.19
508.49	2441.23
508.85	2404.64
509.21	2362.89
509.57	2328.20
509.93	2293.61
510.28	2253.54
510.64	2211.69
511.00	2178.73
511.36	2136.51
511.72	2097.99
512.07	2065.94
512.43	2035.94
512.79	2003.50
513.15	1976.18
513.51	1944.49
513.86	1916.69
514.22	1886.64
514.58	1858.06
514.94	1829.62
515.30	1810.94
515.65	1790.77
516.01	1773.42
516.37	1756.15
516.73	1740.31
517.08	1718.16
517.44	1696.79
517.80	1676.13
518.16	1654.64
518.51	1634.89
518.87	1614.20
519.23	1600.08
519.59	1583.35
519.94	1566.73
520.30	1553.37
520.66	1541.45
521.01	1523.36
521.37	1507.26
521.73	1493.50
522.09	1478.21
522.44	1466.67
522.80	1453.75
523.16	1444.51
523.51	1435.26
523.87	1425.22
524.23	1416.70
524.58	1410.57
524.94	1402.38
525.30	1391.19
525.65	1381.10
526.01	1371.13
526.37	1361.96
526.72	1353.25
527.08	1342.95
527.44	1333.96
527.79	1326.31
528.15	1319.29
528.51	1311.26
528.86	1309.90
529.22	1301.69
529.58	1290.50
529.93	1279.45
530.29	1273.51
530.65	1264.85
531.00	1259.91
531.36	1257.38
531.71	1253.75
532.07	1249.19
532.43	1243.46
532.78	1237.00
533.14	1231.68
533.49	1226.51
533.85	1218.58
534.21	1214.27
534.56	1212.65
534.92	1207.58
535.27	1207.48
535.63	1209.35
535.98	1204.93
536.34	1203.06
536.69	1200.37
537.05	1193.86
537.41	1184.64
537.76	1184.08
538.12	1180.64
538.47	1176.61
538.83	1174.18
539.18	1173.66
539.54	1167.18
539.89	1162.22
540.25	1162.12
540.60	1163.18
540.96	1159.92
541.31	1157.93
541.67	1154.61
542.02	1154.19
542.38	1150.40
542.73	1147.94
543.09	1149.04
543.44	1153.42
543.80	1150.47
544.15	1149.30
544.51	1149.18
544.86	1150.07
545.22	1145.67
545.57	1142.39
545.93	1136.68
546.28	1135.58
546.64	1130.36
546.99	1128.86
547.35	1126.76
547.70	1126.45
548.05	1126.31
548.41	1124.37
548.76	1121.47
549.12	1124.81
549.47	1124.72
549.83	1123.71
550.18	1123.32
550.53	1120.67
550.89	1120.46
551.24	1118.92
551.60	1114.84
551.95	1115.31
552.30	1117.09
552.66	1114.61
553.01	1116.34
553.37	1115.55
553.72	1116.83
554.07	1118.42
554.43	1113.39
554.78	1107.80
555.13	1110.12
555.49	1109.84
555.84	1108.29
556.19	1109.18
556.55	1112.48
556.90	1108.95
557.26	1105.95
557.61	1100.66
557.96	1102.46
558.32	1105.04
558.67	1105.18
559.02	1103.59
559.37	1105.55
559.73	1101.76
560.08	1099.35
560.43	1098.16
560.79	1099.98
561.14	1102.21
561.49	1102.81
561.85	1099.16
562.20	1100.47
562.55	1102.72
562.90	1102.56
563.26	1102.95
563.61	1103.49
563.96	1101.39
564.32	1098.34
564.67	1094.39
565.02	1093.15
565.37	1095.00
565.73	1096.21
566.08	1094.83
566.43	1098.72
566.78	1096.59
567.14	1091.88
567.49	1090.32
567.84	1089.96
568.19	1088.51
568.54	1091.20
568.90	1089.85
569.25	1092.66
569.60	1092.45
569.95	1092.23
570.31	1091.20
570.66	1093.38
571.01	1090.50
571.36	1089.92
571.71	1086.92
572.06	1086.20
572.42	1089.75
572.77	1090.34
573.12	1091.84
573.47	1094.20
573.82	1095.75
574.18	1095.07
574.53	1092.37
574.88	1089.38
575.23	1086.22
575.58	1084.79
575.93	1083.25
576.28	1086.10
576.64	1084.53
576.99	1087.93
577.34	1087.53
577.69	1085.54
578.04	1084.72
578.39	1084.77
578.74	1085.82
579.09	1085.61
579.44	1086.50
579.80	1086.01
580.15	1086.92
580.50	1086.22
580.85	1086.10
581.20	1087.79
581.55	1087.30
581.90	1090.64
582.25	1087.97
582.60	1088.19
582.95	1091.70
583.30	1094.11
583.65	1089.96
584.00	1091.11
584.35	1090.27
584.71	1083.67
585.06	1081.33
585.41	1080.27
585.76	1078.47
586.11	1075.78
586.46	1076.41
586.81	1074.96
587.16	1075.94
587.51	1078.75
587.86	1078.50
588.21	1081.21
588.56	1082.05
588.91	1082.76
589.26	1081.26
589.61	1086.57
589.96	1084.58
590.31	1087.53
590.66	1087.74
591.01	1086.99
591.36	1084.42
591.71	1084.67
592.06	1083.04
592.41	1080.23
592.76	1080.23
593.10	1079.34
593.45	1077.54
593.80	1077.61
594.15	1081.05
594.50	1078.33
594.85	1079.64
595.20	1080.23
595.55	1077.33
595.90	1078.71
596.25	1084.53
596.60	1086.15
596.95	1084.70
597.30	1088.79
597.64	1099.16
597.99	1097.83
598.34	1097.99
598.69	1098.53
599.04	1097.13
599.39	1085.56
599.74	1081.77
600.09	1078.96
600.44	1079.85
600.78	1079.06
601.13	1077.89
601.48	1078.75
601.83	1081.28
602.18	1079.03
602.53	1076.81
602.88	1076.01
603.22	1078.03
603.57	1077.42
603.92	1077.84
604.27	1081.28
604.62	1080.53
604.97	1077.25
605.31	1074.75
605.66	1076.25
606.01	1076.93
606.36	1079.01
606.71	1082.38
607.05	1083.90
607.40	1085.52
607.75	1085.96
608.10	1085.21
608.44	1086.08
608.79	1088.44
609.14	1084.00
609.49	1080.39
609.84	1081.91
610.18	1079.22
610.53	1075.41
610.88	1077.07
611.23	1078.31
611.57	1078.17
611.92	1078.19
612.27	1078.12
612.62	1079.43
612.96	1081.19
613.31	1078.33
613.66	1078.19
614.00	1079.08
614.35	1079.01
614.70	1076.30
615.05	1078.92
615.39	1078.92
615.74	1080.86
616.09	1082.99
616.43	1084.67
616.78	1082.78
617.13	1082.64
617.47	1081.30
617.82	1081.00
618.17	1080.79
618.51	1080.77
618.86	1081.66
619.21	1079.97
619.55	1081.00
619.90	1083.88
620.25	1084.74
620.59	1087.60
620.94	1088.07
621.29	1087.62
621.63	1086.80
621.98	1086.10
622.32	1084.23
622.67	1086.38
623.02	1083.95
623.36	1081.54
623.71	1083.57
624.05	1083.86
624.40	1083.36
624.75	1083.43
625.09	1083.11
625.44	1081.26
625.78	1076.97
626.13	1075.87
626.48	1075.36
626.82	1077.28
627.17	1076.95
627.51	1079.81
627.86	1077.42
628.20	1077.09
628.55	1075.76
628.89	1079.27
629.24	1078.43
629.58	1082.73
629.93	1084.53
630.28	1081.47
630.62	1079.29
630.97	1081.73
631.31	1083.79
631.66	1083.39
632.00	1086.27
632.35	1086.43
632.69	1086.20
633.04	1079.92
633.38	1078.47
633.73	1078.57
634.07	1078.28
634.42	1075.62
634.76	1076.48
635.11	1076.65
635.45	1076.18
635.79	1075.90
636.14	1077.42
636.48	1079.15
636.83	1081.54
637.17	1078.78
637.52	1080.60
637.86	1078.47
638.21	1081.09
638.55	1078.47
638.89	1081.05
639.24	1080.11
639.58	1080.32
639.93	1077.37
640.27	1080.44
640.61	1080.18
640.96	1076.95
641.30	1079.27
641.65	1079.76
641.99	1078.61
642.33	1078.89
642.68	1080.18
643.02	1077.56
643.37	1077.51
643.71	1075.34
644.05	1076.01
644.40	1074.31
644.74	1075.59
645.08	1075.45
645.43	1077.42
645.77	1075.90
646.11	1076.83
646.46	1079.48
646.80	1081.14
647.14	1079.43
647.49	1081.63
647.83	1084.60
648.17	1081.07
648.52	1079.55
648.86	1080.32
649.20	1076.39
649.55	1076.46
649.89	1076.95
650.23	1077.37
650.57	1077.11
650.92	1077.37
651.26	1074.45
651.60	1073.91
651.95	1072.62
652.29	1075.59
652.63	1078.45
652.97	1084.74
653.32	1084.44
653.66	1084.49
654.00	1082.33
654.34	1082.69
654.69	1075.73
655.03	1077.07
655.37	1079.69
655.71	1077.42
656.05	1077.16
656.40	1081.56
656.74	1080.72
657.08	1078.28
657.42	1080.93
657.76	1080.41
658.11	1076.58
658.45	1079.50
658.79	1079.74
659.13	1079.17
659.47	1079.13
659.82	1082.36
660.16	1081.14
660.50	1082.43
660.84	1081.77
661.18	1083.01
661.52	1083.50
661.87	1083.97
662.21	1082.38
662.55	1083.13
662.89	1083.39
663.23	1081.58
663.57	1081.70
663.91	1080.63
664.25	1080.79
664.60	1079.69
664.94	1081.70
665.28	1081.35
665.62	1081.80
665.96	1082.01
666.30	1081.42
666.64	1077.86
666.98	1076.41
667.32	1076.79
667.66	1078.12
668.01	1076.72
668.35	1077.77
668.69	1076.69
669.03	1075.90
669.37	1070.19
669.71	1069.81
670.05	1070.68
670.39	1071.17
670.73	1071.92
671.07	1075.34
671.41	1076.23
671.75	1075.94
672.09	1075.27
672.43	1075.41
672.77	1076.37
673.11	1076.04
673.45	1074.84
673.79	1077.65
674.13	1079.01
674.47	1079.95
674.81	1080.65
675.15	1083.76
675.49	1083.11
675.83	1081.30
676.17	1077.49
676.51	1076.58
676.85	1074.45
677.19	1074.38
677.53	1074.89
677.87	1077.63
678.21	1079.43
678.55	1082.03
678.89	1082.26
679.23	1084.91
679.57	1084.44
679.90	1084.37
680.24	1084.23
680.58	1085.00
680.92	1081.91
681.26	1082.87
681.60	1082.33
681.94	1080.48
682.28	1077.72
682.62	1077.44
682.96	1078.03
683.29	1079.97
683.63	1080.06
683.97	1083.69
684.31	1086.62
684.65	1081.94
684.99	1082.17
685.33	1081.40
685.67	1081.49
686.00	1082.61
686.34	1085.75
686.68	1087.46
687.02	1087.48
687.36	1084.42
687.70	1080.06
688.03	1079.69
688.37	1076.15
688.71	1076.60
689.05	1079.38
689.39	1080.70
689.72	1078.19
690.06	1077.28
690.40	1074.63
690.74	1071.57
691.08	1070.28
691.41	1074.77
691.75	1072.64
692.09	1073.91
692.43	1073.14
692.76	1075.69
693.10	1072.88
693.44	1077.56
693.78	1078.73
694.11	1079.83
694.45	1078.52
694.79	1083.29
695.13	1080.39
695.46	1079.71
695.80	1082.83
696.14	1083.86
696.48	1077.47
696.81	1076.25
697.15	1078.50
697.49	1075.69
697.82	1074.31
698.16	1076.44
698.50	1077.16
698.83	1076.76
699.17	1078.94
699.51	1080.41
699.84	1078.64
700.18	1077.98
700.52	1078.31
700.85	1077.96
701.19	1074.31
701.53	1076.48
701.86	1079.83
702.20	1075.73
702.54	1073.84
702.87	1076.39
703.21	1075.94
703.55	1073.02
703.88	1074.10
704.22	1074.49
704.55	1073.65
704.89	1072.92
705.23	1074.47
705.56	1076.76
705.90	1075.38
706.23	1077.96
706.57	1080.91
706.91	1079.71
707.24	1078.33
707.58	1081.09
707.91	1080.13
708.25	1077.14
708.58	1079.03
708.92	1082.78
709.26	1080.65
709.59	1080.91
709.93	1084.63
710.26	1085.63
710.60	1081.33
710.93	1083.04
711.27	1079.90
711.60	1081.49
711.94	1080.79
712.27	1081.47
712.61	1081.47
712.94	1085.03
713.28	1083.57
713.61	1085.94
713.95	1086.69
714.28	1085.75
714.62	1082.19
714.95	1079.06
715.29	1077.70
715.62	1078.40
715.96	1078.17
716.29	1079.83
716.63	1081.14
716.96	1080.88
717.29	1080.93
717.63	1080.86
717.96	1079.88
718.30	1080.30
718.63	1077.82
718.97	1076.53
719.30	1076.72
719.63	1078.96
719.97	1079.62
720.30	1080.53
720.64	1079.36
720.97	1079.08
721.30	1075.57
721.64	1074.03
721.97	1075.57
722.31	1075.76
722.64	1072.71
722.97	1073.70
723.31	1072.90
723.64	1067.10
723.97	1067.35
724.31	1068.67
724.64	1070.75
724.98	1068.27
725.31	1071.03
725.64	1071.52
725.98	1071.47
726.31	1072.11
726.64	1074.05
726.97	1075.10
727.31	1070.87
727.64	1072.46
727.97	1071.29
728.31	1072.53
728.64	1071.26
728.97	1076.81
729.31	1079.20
729.64	1079.27
729.97	1076.25
730.30	1078.21
730.64	1075.62
730.97	1071.92
731.30	1074.10
731.63	1077.82
731.97	1075.01
732.30	1078.10
732.63	1078.71
732.96	1075.55
733.30	1076.86
733.63	1078.28
733.96	1074.98
734.29	1076.18
734.63	1076.74
734.96	1074.24
735.29	1078.66
735.62	1082.03
735.95	1083.88
736.29	1083.62
736.62	1084.00
736.95	1082.85
737.28	1080.84
737.61	1080.65
737.94	1082.40
738.28	1080.27
738.61	1078.45
738.94	1077.86
739.27	1078.87
739.60	1076.90
739.93	1081.14
740.27	1081.16
740.60	1084.28
740.93	1081.14
741.26	1081.89
741.59	1081.30
741.92	1083.01
742.25	1082.31
742.58	1082.36
742.91	1082.71
743.25	1079.10
743.58	1076.34
743.91	1075.52
744.24	1076.06
744.57	1076.27
744.90	1078.64
745.23	1078.40
745.56	1076.23
745.89	1073.88
746.22	1072.36
746.55	1073.46
746.88	1078.99
747.21	1081.87
747.54	1086.85
747.87	1090.36
748.20	1087.74
748.53	1080.86
748.87	1077.79
749.20	1073.84
749.53	1072.62
749.86	1073.30
750.19	1071.17
750.52	1074.82
750.85	1074.47
751.18	1074.00
751.51	1072.01
751.84	1078.43
752.16	1075.38
752.49	1074.75
752.82	1078.50
753.15	1081.82
753.48	1079.92
753.81	1077.79
754.14	1078.80
754.47	1076.83
754.80	1077.56
755.13	1075.52
755.46	1079.71
755.79	1083.62
756.12	1079.78
756.45	1080.02
756.78	1081.37
757.11	1083.01
757.43	1081.84
757.76	1083.43
758.09	1082.47
758.42	1082.47
758.75	1081.80
759.08	1082.92
759.41	1084.25
759.74	1083.25
760.07	1083.83
760.39	1079.67
760.72	1079.99
761.05	1079.69
761.38	1077.56
761.71	1080.39
762.04	1082.45
762.36	1078.85
762.69	1075.24
763.02	1078.75
763.35	1075.52
763.68	1074.40
764.01	1074.70
764.33	1074.45
764.66	1070.72
