SpectraSuite Data File
++++++++++++++++++++++++++++++++++++
Date: Mon Aug 26 10:22:02 PDT 2019
User: corrico
Dark Spectrum Present: No
Reference Spectrum Present: No
Number of Sampled Component Spectra: 1
Spectrometers: USB2+H06089
Integration Time (usec): 2000 (USB2+H06089)
Spectra Averaged: 20 (USB2+H06089)
Boxcar Smoothing: 2 (USB2+H06089)
Correct for Electrical Dark: No (USB2+H06089)
Strobe/Lamp Enabled: No (USB2+H06089)
Correct for Detector Non-linearity: No (USB2+H06089)
Correct for Stray Light: No (USB2+H06089)
Number of Pixels in Processed Spectrum: 2048
>>>>>Begin Processed Spectral Data<<<<<
339.70	1021.29
340.07	1021.29
340.45	991.08
340.82	968.98
341.19	948.90
341.57	924.16
341.94	911.76
342.31	901.62
342.69	900.71
343.06	896.10
343.43	895.79
343.81	897.97
344.18	900.87
344.55	901.32
344.93	906.54
345.30	913.77
345.67	920.06
346.04	928.63
346.42	938.98
346.79	947.21
347.16	957.77
347.54	965.54
347.91	972.96
348.28	982.74
348.65	992.32
349.03	999.13
349.40	1007.34
349.77	1019.07
350.14	1024.50
350.52	1030.14
350.89	1034.63
351.26	1042.17
351.63	1048.44
352.01	1053.45
352.38	1058.76
352.75	1063.47
353.12	1068.29
353.50	1069.44
353.87	1070.51
354.24	1074.70
354.61	1076.48
354.98	1074.56
355.36	1074.31
355.73	1077.68
356.10	1077.37
356.47	1078.92
356.84	1081.89
357.22	1085.89
357.59	1086.59
357.96	1085.47
358.33	1086.76
358.70	1086.99
359.08	1083.93
359.45	1085.33
359.82	1087.06
360.19	1084.74
360.56	1083.90
360.94	1086.01
361.31	1084.53
361.68	1080.11
362.05	1079.29
362.42	1079.55
362.79	1078.92
363.16	1078.92
363.54	1079.64
363.91	1081.05
364.28	1080.74
364.65	1079.36
365.02	1075.20
365.39	1073.88
365.76	1072.62
366.14	1070.82
366.51	1070.14
366.88	1073.25
367.25	1074.96
367.62	1075.85
367.99	1074.91
368.36	1074.75
368.73	1073.28
369.10	1072.25
369.48	1070.42
369.85	1072.43
370.22	1071.59
370.59	1073.98
370.96	1076.86
371.33	1080.09
371.70	1083.48
372.07	1086.22
372.44	1083.27
372.81	1082.64
373.18	1082.66
373.55	1077.86
373.93	1076.55
374.30	1074.73
374.67	1077.56
375.04	1077.51
375.41	1079.38
375.78	1077.79
376.15	1080.91
376.52	1079.38
376.89	1079.10
377.26	1077.02
377.63	1079.55
378.00	1080.48
378.37	1077.91
378.74	1073.53
379.11	1076.34
379.48	1074.61
379.85	1073.81
380.22	1075.94
380.59	1078.71
380.96	1080.37
381.33	1081.12
381.70	1078.54
382.07	1076.90
382.44	1076.88
382.81	1074.94
383.18	1073.95
383.55	1076.55
383.92	1076.15
384.29	1076.55
384.66	1078.66
385.03	1079.29
385.40	1082.52
385.77	1084.93
386.14	1087.09
386.51	1084.93
386.88	1085.19
387.25	1081.54
387.62	1078.14
387.99	1079.55
388.36	1080.63
388.73	1082.76
389.10	1084.39
389.46	1086.38
389.83	1084.96
390.20	1085.49
390.57	1083.71
390.94	1084.49
391.31	1088.68
391.68	1088.42
392.05	1090.13
392.42	1091.20
392.79	1090.13
393.16	1088.65
393.53	1089.89
393.89	1083.95
394.26	1085.00
394.63	1084.98
395.00	1084.35
395.37	1084.16
395.74	1089.94
396.11	1090.01
396.48	1094.76
396.84	1091.98
397.21	1091.30
397.58	1088.89
397.95	1088.02
398.32	1082.69
398.69	1084.21
399.06	1084.16
399.42	1081.94
399.79	1080.37
400.16	1082.33
400.53	1082.71
400.90	1079.27
401.27	1082.22
401.64	1082.87
402.00	1082.97
402.37	1085.12
402.74	1087.83
403.11	1085.91
403.48	1089.12
403.84	1088.49
404.21	1085.87
404.58	1088.70
404.95	1090.08
405.32	1089.50
405.68	1090.03
406.05	1093.19
406.42	1090.71
406.79	1094.01
407.16	1097.27
407.52	1096.66
407.89	1093.80
408.26	1096.47
408.63	1090.67
408.99	1086.73
409.36	1088.14
409.73	1091.32
410.10	1091.81
410.47	1097.43
410.83	1097.29
411.20	1098.02
411.57	1096.63
411.94	1096.82
412.30	1098.65
412.67	1097.64
413.04	1100.10
413.40	1102.84
413.77	1102.63
414.14	1098.95
414.51	1100.73
414.87	1098.72
415.24	1096.28
415.61	1095.14
415.97	1094.69
416.34	1094.65
416.71	1098.04
417.08	1100.50
417.44	1103.80
417.81	1108.55
418.18	1109.58
418.54	1107.96
418.91	1108.83
419.28	1110.02
419.64	1107.59
420.01	1111.38
420.38	1112.39
420.74	1111.66
421.11	1112.97
421.48	1118.45
421.84	1120.65
422.21	1123.78
422.58	1128.54
422.94	1128.21
423.31	1131.25
423.68	1129.45
424.04	1129.80
424.41	1130.55
424.77	1134.01
425.14	1134.15
425.51	1137.78
425.87	1141.15
426.24	1146.84
426.61	1151.82
426.97	1157.75
427.34	1161.80
427.70	1168.49
428.07	1176.24
428.44	1182.77
428.80	1187.92
429.17	1200.65
429.53	1209.52
429.90	1217.55
430.27	1227.56
430.63	1237.02
431.00	1246.85
431.36	1257.90
431.73	1272.95
432.09	1290.48
432.46	1311.17
432.83	1328.21
433.19	1348.66
433.56	1366.66
433.92	1386.30
434.29	1404.81
434.65	1426.51
435.02	1446.83
435.38	1470.96
435.75	1493.68
436.11	1521.61
436.48	1553.25
436.84	1588.99
437.21	1626.13
437.57	1666.16
437.94	1709.32
438.30	1754.68
438.67	1801.02
439.03	1849.77
439.40	1909.20
439.76	1961.81
440.13	2026.44
440.49	2098.24
440.86	2171.90
441.22	2248.60
441.59	2330.12
441.95	2411.27
442.32	2496.37
442.68	2590.62
443.05	2684.20
443.41	2790.53
443.78	2894.99
444.14	3007.28
444.51	3115.63
444.87	3249.20
445.24	3385.96
445.60	3537.09
445.96	3682.65
446.33	3857.27
446.69	4022.09
447.06	4207.86
447.42	4397.80
447.79	4603.97
448.15	4833.74
448.51	5065.06
448.88	5321.21
449.24	5564.51
449.61	5859.48
449.97	6147.21
450.33	6454.89
450.70	6753.05
451.06	7121.69
451.43	7457.27
451.79	7846.34
452.15	8257.67
452.52	8696.03
452.88	9143.58
453.24	9656.51
453.61	10203.54
453.97	10770.35
454.34	11323.65
454.70	11955.62
455.06	12587.47
455.43	13199.64
455.79	13772.06
456.15	14476.14
456.52	15152.84
456.88	15992.39
457.24	16802.61
457.61	17754.91
457.97	18620.11
458.33	19504.41
458.70	20322.71
459.06	21123.33
459.42	21984.70
459.79	22792.93
460.15	23704.95
460.51	24530.97
460.88	25398.56
461.24	26185.73
461.60	27109.40
461.96	27920.23
462.33	28736.61
462.69	29600.24
463.05	30506.47
463.42	31364.00
463.78	32140.73
464.14	32777.00
464.50	33457.14
464.87	33953.43
465.23	34255.82
465.59	34622.16
465.95	34970.25
466.32	35215.93
466.68	35442.85
467.04	35657.20
467.40	35795.61
467.77	35949.93
468.13	35973.89
468.49	35899.93
468.85	35816.73
469.22	35712.99
469.58	35487.95
469.94	35287.41
470.30	35081.47
470.66	34700.62
471.03	34125.99
471.39	33688.08
471.75	33014.75
472.11	32322.21
472.47	31848.56
472.84	31405.87
473.20	30755.15
473.56	30349.47
473.92	29807.05
474.28	29246.94
474.65	28696.28
475.01	28198.49
475.37	27586.21
475.73	27108.30
476.09	26574.93
476.45	26088.99
476.81	25636.80
477.18	25168.20
477.54	24768.65
477.90	24429.32
478.26	23989.81
478.62	23607.37
478.98	23296.80
479.34	22998.53
479.71	22572.73
480.07	22211.61
480.43	21851.55
480.79	21420.84
481.15	20970.19
481.51	20622.53
481.87	20321.37
482.23	19995.90
482.59	19730.44
482.96	19433.16
483.32	19108.06
483.68	18732.85
484.04	18393.85
484.40	18020.00
484.76	17687.38
485.12	17339.91
485.48	17040.06
485.84	16704.36
486.20	16394.70
486.56	16029.70
486.92	15715.67
487.28	15363.42
487.64	14997.80
488.00	14643.80
488.37	14274.15
488.73	13868.73
489.09	13462.53
489.45	13102.86
489.81	12749.39
490.17	12437.07
490.53	12140.69
490.89	11850.06
491.25	11529.08
491.61	11191.41
491.97	10873.43
492.33	10565.83
492.69	10270.29
493.05	10003.66
493.41	9736.46
493.77	9448.11
494.13	9184.73
494.49	8923.29
494.85	8655.44
495.21	8409.45
495.57	8200.07
495.93	7965.03
496.29	7741.30
496.64	7558.17
497.00	7359.53
497.36	7150.64
497.72	6980.91
498.08	6822.33
498.44	6649.42
498.80	6480.29
499.16	6316.71
499.52	6140.61
499.88	5985.33
500.24	5835.45
500.60	5700.30
500.96	5575.86
501.32	5450.66
501.68	5309.88
502.03	5172.72
502.39	5046.29
502.75	4914.52
503.11	4799.76
503.47	4693.76
503.83	4585.16
504.19	4475.36
504.55	4375.07
504.91	4270.35
505.26	4164.66
505.62	4057.93
505.98	3960.79
506.34	3859.31
506.70	3762.25
507.06	3676.68
507.42	3595.48
507.78	3517.10
508.13	3444.59
508.49	3374.44
508.85	3302.99
509.21	3232.12
509.57	3161.81
509.93	3093.06
510.28	3018.61
510.64	2952.94
511.00	2894.70
511.36	2832.14
511.72	2776.60
512.07	2730.40
512.43	2681.55
512.79	2630.34
513.15	2584.33
513.51	2534.82
513.86	2484.90
514.22	2439.14
514.58	2392.80
514.94	2348.33
515.30	2310.48
515.65	2269.03
516.01	2237.60
516.37	2204.97
516.73	2175.36
517.08	2141.68
517.44	2114.51
517.80	2080.31
518.16	2048.83
518.51	2017.31
518.87	1989.97
519.23	1962.94
519.59	1936.54
519.94	1909.55
520.30	1889.80
520.66	1861.66
521.01	1836.81
521.37	1811.39
521.73	1788.68
522.09	1759.83
522.44	1741.78
522.80	1717.37
523.16	1697.89
523.51	1678.91
523.87	1663.72
524.23	1644.88
524.58	1631.17
524.94	1613.10
525.30	1601.39
525.65	1580.28
526.01	1561.54
526.37	1547.98
526.72	1536.26
527.08	1518.31
527.44	1509.69
527.79	1501.76
528.15	1488.39
528.51	1473.77
528.86	1466.84
529.22	1453.75
529.58	1439.55
529.93	1428.87
530.29	1420.63
530.65	1405.56
531.00	1394.02
531.36	1384.89
531.71	1374.97
532.07	1362.10
532.43	1352.74
532.78	1345.93
533.14	1336.87
533.49	1327.29
533.85	1323.18
534.21	1318.70
534.56	1311.43
534.92	1308.08
535.27	1305.20
535.63	1296.26
535.98	1287.79
536.34	1282.80
536.69	1273.84
537.05	1265.27
537.41	1260.61
537.76	1255.02
538.12	1249.99
538.47	1243.99
538.83	1242.73
539.18	1238.94
539.54	1233.67
539.89	1230.42
540.25	1228.62
540.60	1224.69
540.96	1222.37
541.31	1223.09
541.67	1217.80
542.02	1213.78
542.38	1207.74
542.73	1202.75
543.09	1194.87
543.44	1194.66
543.80	1192.83
544.15	1191.99
544.51	1189.90
544.86	1189.02
545.22	1182.93
545.57	1183.26
545.93	1180.47
546.28	1180.38
546.64	1178.93
546.99	1179.49
547.35	1176.05
547.70	1174.20
548.05	1175.11
548.41	1176.59
548.76	1172.44
549.12	1166.01
549.47	1162.26
549.83	1153.39
550.18	1147.78
550.53	1147.33
550.89	1145.86
551.24	1144.73
551.60	1145.53
551.95	1143.68
552.30	1140.15
552.66	1139.51
553.01	1139.70
553.37	1136.73
553.72	1137.36
554.07	1138.46
554.43	1135.67
554.78	1131.41
555.13	1131.27
555.49	1128.49
555.84	1124.93
556.19	1125.89
556.55	1128.51
556.90	1125.70
557.26	1124.37
557.61	1122.45
557.96	1121.26
558.32	1119.41
558.67	1119.03
559.02	1119.34
559.37	1119.08
559.73	1117.89
560.08	1116.08
560.43	1116.69
560.79	1115.55
561.14	1114.91
561.49	1117.14
561.85	1116.62
562.20	1113.84
562.55	1108.76
562.90	1109.27
563.26	1107.71
563.61	1106.04
563.96	1108.83
564.32	1112.81
564.67	1113.09
565.02	1110.84
565.37	1111.52
565.73	1108.78
566.08	1109.44
566.43	1109.39
566.78	1109.60
567.14	1109.13
567.49	1107.73
567.84	1104.69
568.19	1104.26
568.54	1103.91
568.90	1100.71
569.25	1102.60
569.60	1103.21
569.95	1098.32
570.31	1098.18
570.66	1101.57
571.01	1100.12
571.36	1097.95
571.71	1098.65
572.06	1098.79
572.42	1097.22
572.77	1097.15
573.12	1098.62
573.47	1100.73
573.82	1098.41
574.18	1095.63
574.53	1094.32
574.88	1093.40
575.23	1094.60
575.58	1097.83
575.93	1099.63
576.28	1102.30
576.64	1103.02
576.99	1100.19
577.34	1098.79
577.69	1100.78
578.04	1099.33
578.39	1098.34
578.74	1096.94
579.09	1096.56
579.44	1096.35
579.80	1094.76
580.15	1094.39
580.50	1094.13
580.85	1094.65
581.20	1089.99
581.55	1090.20
581.90	1088.35
582.25	1089.52
582.60	1086.80
582.95	1087.16
583.30	1088.40
583.65	1089.43
584.00	1090.24
584.35	1090.95
584.71	1091.86
585.06	1093.38
585.41	1095.56
585.76	1093.85
586.11	1095.98
586.46	1099.75
586.81	1098.30
587.16	1095.96
587.51	1099.12
587.86	1101.46
588.21	1098.88
588.56	1098.32
588.91	1098.81
589.26	1092.56
589.61	1089.12
589.96	1089.59
590.31	1091.09
590.66	1090.97
591.01	1096.35
591.36	1095.07
591.71	1093.08
592.06	1088.14
592.41	1087.93
592.76	1089.45
593.10	1088.54
593.45	1086.69
593.80	1090.17
594.15	1091.30
594.50	1086.99
594.85	1086.50
595.20	1086.62
595.55	1086.01
595.90	1085.59
596.25	1085.84
596.60	1086.94
596.95	1087.81
597.30	1083.97
597.64	1094.48
597.99	1097.73
598.34	1096.52
598.69	1097.24
599.04	1101.29
599.39	1091.37
599.74	1090.64
600.09	1091.37
600.44	1091.58
600.78	1086.83
601.13	1084.11
601.48	1079.57
601.83	1078.21
602.18	1076.37
602.53	1080.41
602.88	1079.27
603.22	1079.24
603.57	1079.76
603.92	1079.31
604.27	1080.37
604.62	1079.10
604.97	1078.47
605.31	1081.54
605.66	1083.36
606.01	1078.73
606.36	1081.35
606.71	1084.30
607.05	1081.61
607.40	1081.70
607.75	1084.98
608.10	1085.05
608.44	1086.03
608.79	1090.90
609.14	1091.95
609.49	1089.94
609.84	1090.10
610.18	1088.61
610.53	1084.81
610.88	1083.11
611.23	1085.24
611.57	1087.11
611.92	1087.93
612.27	1088.65
612.62	1091.93
612.96	1089.94
613.31	1086.59
613.66	1084.35
614.00	1083.22
614.35	1083.71
614.70	1086.03
615.05	1088.23
615.39	1090.01
615.74	1092.09
616.09	1087.51
616.43	1083.90
616.78	1082.05
617.13	1082.22
617.47	1080.84
617.82	1078.94
618.17	1082.71
618.51	1086.97
618.86	1084.49
619.21	1080.77
619.55	1084.30
619.90	1084.07
620.25	1082.47
620.59	1085.10
620.94	1089.40
621.29	1089.43
621.63	1088.40
621.98	1085.35
622.32	1083.43
622.67	1081.58
623.02	1079.60
623.36	1079.99
623.71	1082.10
624.05	1084.46
624.40	1083.20
624.75	1083.81
625.09	1081.21
625.44	1082.50
625.78	1080.39
626.13	1079.53
626.48	1079.48
626.82	1082.54
627.17	1082.47
627.51	1082.47
627.86	1083.29
628.20	1082.99
628.55	1078.73
628.89	1073.39
629.24	1077.07
629.58	1079.92
629.93	1084.28
630.28	1087.65
630.62	1088.21
630.97	1088.65
631.31	1089.14
631.66	1084.44
632.00	1081.47
632.35	1085.03
632.69	1079.46
633.04	1076.58
633.38	1079.71
633.73	1082.01
634.07	1079.62
634.42	1080.37
634.76	1080.44
635.11	1074.82
635.45	1074.03
635.79	1076.90
636.14	1077.30
636.48	1079.78
636.83	1084.51
637.17	1088.09
637.52	1087.88
637.86	1087.74
638.21	1086.41
638.55	1084.81
638.89	1082.76
639.24	1081.00
639.58	1083.50
639.93	1081.98
640.27	1082.54
640.61	1079.88
640.96	1082.08
641.30	1081.98
641.65	1084.28
641.99	1086.20
642.33	1087.06
642.68	1085.54
643.02	1086.17
643.37	1088.23
643.71	1090.03
644.05	1089.45
644.40	1088.00
644.74	1085.17
645.08	1077.00
645.43	1072.25
645.77	1073.56
646.11	1074.66
646.46	1074.31
646.80	1079.60
647.14	1079.67
647.49	1080.09
647.83	1080.65
648.17	1083.36
648.52	1086.24
648.86	1089.57
649.20	1091.49
649.55	1088.56
649.89	1088.12
650.23	1084.58
650.57	1082.73
650.92	1080.84
651.26	1083.60
651.60	1081.16
651.95	1078.14
652.29	1076.41
652.63	1077.28
652.97	1079.64
653.32	1083.76
653.66	1086.71
654.00	1085.99
654.34	1086.69
654.69	1084.70
655.03	1083.29
655.37	1082.90
655.71	1085.31
656.05	1084.74
656.40	1085.07
656.74	1082.31
657.08	1081.73
657.42	1079.29
657.76	1081.26
658.11	1079.34
658.45	1081.73
658.79	1083.06
659.13	1086.50
659.47	1083.83
659.82	1083.71
660.16	1083.04
660.50	1084.86
660.84	1082.87
661.18	1082.47
661.52	1082.03
661.87	1083.55
662.21	1083.25
662.55	1083.71
662.89	1084.00
663.23	1085.80
663.57	1085.42
663.91	1082.78
664.25	1084.21
664.60	1081.80
664.94	1079.62
665.28	1079.01
665.62	1081.96
665.96	1080.02
666.30	1083.60
666.64	1086.62
666.98	1088.23
667.32	1086.08
667.66	1089.07
668.01	1085.28
668.35	1083.50
668.69	1080.53
669.03	1080.48
669.37	1077.82
669.71	1078.10
670.05	1077.11
670.39	1075.55
670.73	1075.66
671.07	1077.02
671.41	1078.82
671.75	1081.56
672.09	1082.73
672.43	1080.51
672.77	1078.28
673.11	1077.49
673.45	1075.20
673.79	1077.54
674.13	1080.06
674.47	1081.37
674.81	1083.20
675.15	1085.14
675.49	1082.66
675.83	1079.41
676.17	1081.68
676.51	1081.37
676.85	1081.26
677.19	1082.50
677.53	1087.11
677.87	1086.20
678.21	1085.28
678.55	1085.84
678.89	1082.61
679.23	1077.54
679.57	1076.97
679.90	1079.64
680.24	1076.34
680.58	1078.52
680.92	1079.95
681.26	1078.92
681.60	1075.31
681.94	1077.28
682.28	1077.21
682.62	1079.62
682.96	1079.31
683.29	1079.27
683.63	1077.86
683.97	1081.40
684.31	1081.00
684.65	1083.01
684.99	1082.15
685.33	1085.61
685.67	1082.43
686.00	1080.84
686.34	1075.64
686.68	1076.23
687.02	1076.01
687.36	1077.25
687.70	1080.84
688.03	1084.70
688.37	1087.95
688.71	1086.94
689.05	1087.09
689.39	1083.88
689.72	1082.57
690.06	1079.29
690.40	1078.17
690.74	1078.24
691.08	1079.85
691.41	1081.68
691.75	1084.96
692.09	1088.19
692.43	1088.56
692.76	1089.26
693.10	1090.69
693.44	1089.75
693.78	1088.58
694.11	1085.87
694.45	1084.77
694.79	1081.87
695.13	1081.82
695.46	1078.40
695.80	1075.92
696.14	1074.17
696.48	1074.26
696.81	1072.27
697.15	1073.77
697.49	1079.01
697.82	1080.20
698.16	1081.07
698.50	1082.10
698.83	1081.16
699.17	1081.12
699.51	1081.47
699.84	1080.67
700.18	1081.02
700.52	1086.06
700.85	1086.73
701.19	1088.09
701.53	1089.92
701.86	1088.28
702.20	1084.63
702.54	1081.33
702.87	1080.65
703.21	1078.82
703.55	1080.11
703.88	1082.97
704.22	1084.56
704.55	1083.43
704.89	1084.14
705.23	1081.94
705.56	1076.93
705.90	1077.44
706.23	1076.13
706.57	1076.11
706.91	1079.31
707.24	1080.65
707.58	1079.60
707.91	1079.97
708.25	1080.06
708.58	1080.44
708.92	1083.18
709.26	1081.44
709.59	1081.44
709.93	1080.48
710.26	1077.89
710.60	1076.13
710.93	1077.40
711.27	1078.66
711.60	1078.17
711.94	1078.73
712.27	1077.00
712.61	1078.99
712.94	1081.66
713.28	1083.18
713.61	1086.38
713.95	1089.07
714.28	1090.71
714.62	1088.98
714.95	1088.40
715.29	1085.84
715.62	1085.07
715.96	1079.62
716.29	1077.77
716.63	1077.47
716.96	1078.21
717.29	1080.04
717.63	1081.75
717.96	1081.87
718.30	1083.67
718.63	1079.34
718.97	1077.04
719.30	1075.92
719.63	1077.49
719.97	1078.28
720.30	1080.39
720.64	1082.08
720.97	1083.55
721.30	1081.40
721.64	1079.43
721.97	1082.61
722.31	1079.62
722.64	1080.84
722.97	1082.38
723.31	1081.44
723.64	1078.78
723.97	1082.94
724.31	1083.04
724.64	1080.41
724.98	1083.20
725.31	1082.24
725.64	1081.21
725.98	1082.10
726.31	1085.05
726.64	1082.33
726.97	1084.98
727.31	1083.67
727.64	1081.42
727.97	1078.64
728.31	1079.67
728.64	1081.40
728.97	1080.37
729.31	1081.63
729.64	1081.19
729.97	1080.51
730.30	1076.95
730.64	1074.24
730.97	1073.53
731.30	1075.27
731.63	1075.05
731.97	1077.40
732.30	1079.90
732.63	1080.63
732.96	1076.81
733.30	1074.87
733.63	1072.55
733.96	1073.30
734.29	1071.82
734.63	1076.25
734.96	1078.40
735.29	1079.24
735.62	1078.75
735.95	1078.00
736.29	1077.47
736.62	1078.61
736.95	1080.34
737.28	1083.74
737.61	1084.25
737.94	1086.52
738.28	1085.63
738.61	1085.24
738.94	1081.44
739.27	1082.26
739.60	1080.44
739.93	1077.89
740.27	1077.21
740.60	1079.48
740.93	1079.08
741.26	1079.22
741.59	1080.13
741.92	1080.72
742.25	1081.40
742.58	1080.88
742.91	1080.98
743.25	1081.51
743.58	1079.74
743.91	1079.97
744.24	1082.31
744.57	1083.76
744.90	1086.90
745.23	1084.07
745.56	1078.50
745.89	1077.51
746.22	1076.25
746.55	1073.65
746.88	1075.38
747.21	1081.16
747.54	1084.07
747.87	1082.12
748.20	1079.55
748.53	1081.51
748.87	1077.11
749.20	1074.54
749.53	1078.19
749.86	1082.80
750.19	1082.29
750.52	1086.17
750.85	1084.14
751.18	1082.94
751.51	1083.36
751.84	1082.83
752.16	1078.03
752.49	1078.52
752.82	1081.07
753.15	1078.54
753.48	1079.92
753.81	1082.69
754.14	1084.60
754.47	1083.08
754.80	1083.11
755.13	1081.40
755.46	1080.67
755.79	1080.16
756.12	1078.28
756.45	1078.03
756.78	1075.66
757.11	1072.39
757.43	1074.26
757.76	1073.37
758.09	1074.00
758.42	1077.25
758.75	1080.77
759.08	1077.02
759.41	1081.12
759.74	1080.56
760.07	1080.39
760.39	1081.33
760.72	1082.90
761.05	1081.09
761.38	1082.17
761.71	1080.65
762.04	1080.51
762.36	1080.23
762.69	1079.53
763.02	1078.82
763.35	1077.82
763.68	1075.50
764.01	1075.52
