SpectraSuite Data File
++++++++++++++++++++++++++++++++++++
Date: Mon Aug 26 10:22:14 PDT 2019
User: corrico
Dark Spectrum Present: No
Reference Spectrum Present: No
Number of Sampled Component Spectra: 1
Spectrometers: USB2+H06089
Integration Time (usec): 2000 (USB2+H06089)
Spectra Averaged: 20 (USB2+H06089)
Boxcar Smoothing: 2 (USB2+H06089)
Correct for Electrical Dark: No (USB2+H06089)
Strobe/Lamp Enabled: No (USB2+H06089)
Correct for Detector Non-linearity: No (USB2+H06089)
Correct for Stray Light: No (USB2+H06089)
Number of Pixels in Processed Spectrum: 2048
>>>>>Begin Processed Spectral Data<<<<<
339.70	1027.61
340.07	1027.61
340.45	994.31
340.82	973.71
341.19	949.18
341.57	924.93
341.94	915.34
342.31	907.89
342.69	901.83
343.06	899.30
343.43	896.47
343.81	894.55
344.18	898.77
344.55	902.11
344.93	909.93
345.30	918.15
345.67	927.62
346.04	932.75
346.42	941.41
346.79	944.06
347.16	952.48
347.54	961.96
347.91	971.79
348.28	983.35
348.65	999.08
349.03	1009.94
349.40	1015.09
349.77	1022.21
350.14	1027.42
350.52	1032.08
350.89	1038.71
351.26	1045.92
351.63	1052.84
352.01	1056.35
352.38	1060.45
352.75	1061.76
353.12	1067.45
353.50	1070.49
353.87	1074.24
354.24	1076.95
354.61	1080.70
354.98	1081.77
355.36	1084.39
355.73	1084.21
356.10	1085.61
356.47	1084.37
356.84	1085.03
357.22	1087.62
357.59	1086.45
357.96	1085.17
358.33	1085.03
358.70	1083.71
359.08	1080.30
359.45	1085.24
359.82	1087.69
360.19	1089.36
360.56	1089.00
360.94	1089.96
361.31	1087.65
361.68	1086.78
362.05	1082.40
362.42	1080.41
362.79	1076.86
363.16	1074.66
363.54	1071.71
363.91	1073.67
364.28	1075.99
364.65	1075.03
365.02	1074.35
365.39	1074.10
365.76	1073.70
366.14	1072.67
366.51	1073.21
366.88	1076.58
367.25	1078.61
367.62	1077.84
367.99	1073.53
368.36	1072.57
368.73	1071.82
369.10	1069.46
369.48	1069.37
369.85	1074.45
370.22	1075.76
370.59	1077.16
370.96	1078.92
371.33	1082.87
371.70	1082.87
372.07	1080.51
372.44	1077.82
372.81	1077.61
373.18	1075.94
373.55	1073.02
373.93	1074.96
374.30	1075.24
374.67	1074.19
375.04	1070.63
375.41	1069.91
375.78	1070.91
376.15	1074.75
376.52	1074.54
376.89	1075.99
377.26	1081.21
377.63	1083.53
378.00	1079.48
378.37	1080.86
378.74	1081.75
379.11	1079.41
379.48	1078.43
379.85	1081.14
380.22	1081.89
380.59	1084.63
380.96	1086.48
381.33	1087.81
381.70	1088.56
382.07	1088.89
382.44	1088.33
382.81	1087.81
383.18	1087.41
383.55	1084.39
383.92	1083.29
384.29	1081.80
384.66	1083.81
385.03	1083.15
385.40	1085.26
385.77	1084.81
386.14	1084.72
386.51	1083.81
386.88	1085.84
387.25	1088.16
387.62	1088.49
387.99	1087.48
388.36	1085.87
388.73	1081.61
389.10	1081.70
389.46	1081.96
389.83	1084.79
390.20	1085.87
390.57	1087.76
390.94	1082.59
391.31	1084.98
391.68	1084.98
392.05	1084.44
392.42	1086.50
392.79	1090.32
393.16	1089.85
393.53	1091.23
393.89	1092.05
394.26	1093.43
394.63	1097.24
395.00	1097.85
395.37	1098.83
395.74	1097.55
396.11	1096.35
396.48	1090.67
396.84	1089.89
397.21	1087.55
397.58	1087.46
397.95	1087.34
398.32	1087.16
398.69	1088.58
399.06	1087.86
399.42	1090.57
399.79	1090.22
400.16	1089.54
400.53	1090.64
400.90	1088.28
401.27	1085.99
401.64	1089.03
402.00	1092.05
402.37	1091.27
402.74	1094.90
403.11	1098.16
403.48	1095.65
403.84	1097.45
404.21	1097.83
404.58	1099.58
404.95	1098.48
405.32	1098.81
405.68	1099.12
406.05	1099.65
406.42	1099.96
406.79	1100.38
407.16	1098.02
407.52	1093.12
407.89	1091.34
408.26	1091.49
408.63	1092.23
408.99	1094.50
409.36	1097.97
409.73	1098.90
410.10	1095.58
410.47	1095.30
410.83	1096.94
411.20	1101.71
411.57	1103.61
411.94	1107.35
412.30	1109.67
412.67	1109.53
413.04	1103.75
413.40	1105.25
413.77	1106.44
414.14	1104.17
414.51	1104.71
414.87	1107.26
415.24	1107.42
415.61	1110.07
415.97	1110.79
416.34	1109.74
416.71	1110.75
417.08	1106.84
417.44	1105.55
417.81	1108.31
418.18	1110.28
418.54	1112.11
418.91	1114.82
419.28	1115.83
419.64	1112.90
420.01	1114.00
420.38	1116.86
420.74	1118.82
421.11	1120.20
421.48	1126.85
421.84	1130.62
422.21	1130.64
422.58	1133.57
422.94	1134.46
423.31	1133.26
423.68	1133.54
424.04	1139.63
424.41	1144.48
424.77	1149.91
425.14	1156.41
425.51	1163.69
425.87	1165.19
426.24	1167.15
426.61	1171.27
426.97	1178.09
427.34	1182.06
427.70	1190.54
428.07	1200.72
428.44	1214.32
428.80	1224.17
429.17	1238.26
429.53	1250.08
429.90	1261.41
430.27	1268.66
430.63	1277.49
431.00	1289.35
431.36	1302.86
431.73	1319.71
432.09	1335.65
432.46	1354.44
432.83	1371.30
433.19	1389.20
433.56	1408.00
433.92	1436.53
434.29	1466.95
434.65	1499.67
435.02	1530.01
435.38	1560.58
435.75	1590.14
436.11	1626.95
436.48	1662.04
436.84	1705.06
437.21	1754.63
437.57	1804.18
437.94	1853.10
438.30	1905.80
438.67	1964.67
439.03	2025.71
439.40	2092.18
439.76	2160.31
440.13	2234.56
440.49	2314.79
440.86	2394.13
441.22	2479.12
441.59	2572.20
441.95	2674.09
442.32	2776.76
442.68	2893.98
443.05	3014.17
443.41	3140.65
443.78	3271.23
444.14	3411.28
444.51	3544.06
444.87	3708.51
445.24	3869.82
445.60	4046.34
445.96	4222.09
446.33	4437.80
446.69	4638.61
447.06	4854.55
447.42	5075.10
447.79	5311.45
448.15	5566.29
448.51	5837.51
448.88	6154.16
449.24	6460.81
449.61	6811.94
449.97	7166.63
450.33	7535.38
450.70	7883.23
451.06	8302.25
451.43	8700.08
451.79	9156.88
452.15	9645.46
452.52	10187.09
452.88	10747.48
453.24	11377.23
453.61	12075.10
453.97	12766.73
454.34	13437.65
454.70	14227.84
455.06	15023.52
455.43	15757.75
455.79	16442.50
456.15	17262.39
456.52	17997.15
456.88	18876.23
457.24	19780.29
457.61	20901.29
457.97	21953.05
458.33	23059.94
458.70	24139.33
459.06	25137.45
459.42	26145.07
459.79	27066.38
460.15	28107.10
460.51	29067.56
460.88	30141.75
461.24	31108.88
461.60	32254.97
461.96	33286.16
462.33	34304.83
462.69	35322.99
463.05	36415.15
463.42	37366.63
463.78	38263.87
464.14	38996.55
464.50	39720.74
464.87	40262.15
465.23	40671.63
465.59	41111.86
465.95	41468.35
466.32	41740.46
466.68	41983.83
467.04	42094.72
467.40	42094.16
467.77	42193.56
468.13	42094.65
468.49	41963.68
468.85	41866.40
469.22	41727.23
469.58	41457.70
469.94	41302.80
470.30	41049.56
470.66	40664.56
471.03	40149.48
471.39	39785.81
471.75	39086.24
472.11	38373.08
472.47	37893.34
472.84	37387.74
473.20	36690.99
473.56	36300.66
473.92	35725.70
474.28	35095.98
474.65	34450.44
475.01	33769.02
475.37	32949.90
475.73	32283.06
476.09	31583.59
476.45	30964.54
476.81	30427.39
477.18	29882.58
477.54	29404.50
477.90	28963.66
478.26	28394.35
478.62	27893.24
478.98	27443.37
479.34	26998.76
479.71	26449.18
480.07	26009.95
480.43	25539.83
480.79	25074.88
481.15	24642.56
481.51	24292.07
481.87	23974.90
482.23	23622.51
482.59	23298.84
482.96	22951.06
483.32	22638.53
483.68	22236.89
484.04	21896.13
484.40	21494.26
484.76	21086.35
485.12	20630.23
485.48	20209.12
485.84	19710.94
486.20	19278.83
486.56	18842.74
486.92	18460.09
487.28	18074.79
487.64	17691.92
488.00	17303.65
488.37	16922.10
488.73	16497.31
489.09	16045.78
489.45	15640.79
489.81	15205.43
490.17	14775.03
490.53	14385.61
490.89	13986.74
491.25	13582.97
491.61	13185.10
491.97	12797.56
492.33	12385.48
492.69	12025.67
493.05	11683.23
493.41	11362.53
493.77	11034.36
494.13	10732.83
494.49	10438.39
494.85	10142.69
495.21	9865.59
495.57	9615.27
495.93	9353.34
496.29	9102.74
496.64	8876.95
497.00	8638.29
497.36	8391.73
497.72	8154.43
498.08	7936.83
498.44	7714.64
498.80	7507.27
499.16	7314.03
499.52	7127.28
499.88	6947.79
500.24	6779.13
500.60	6610.98
500.96	6455.64
501.32	6295.69
501.68	6124.27
502.03	5947.42
502.39	5790.63
502.75	5615.83
503.11	5469.86
503.47	5331.04
503.83	5210.83
504.19	5074.19
504.55	4959.57
504.91	4843.95
505.26	4731.09
505.62	4608.87
505.98	4501.93
506.34	4381.65
506.70	4261.74
507.06	4149.84
507.42	4046.97
507.78	3953.05
508.13	3864.88
508.49	3788.55
508.85	3710.08
509.21	3628.63
509.57	3548.02
509.93	3461.68
510.28	3366.37
510.64	3285.25
511.00	3208.73
511.36	3133.23
511.72	3075.02
512.07	3023.95
512.43	2965.04
512.79	2903.48
513.15	2843.77
513.51	2779.22
513.86	2715.65
514.22	2663.13
514.58	2608.95
514.94	2563.61
515.30	2519.45
515.65	2479.33
516.01	2438.86
516.37	2401.93
516.73	2365.72
517.08	2333.51
517.44	2291.52
517.80	2251.24
518.16	2219.65
518.51	2179.93
518.87	2142.34
519.23	2110.60
519.59	2083.57
519.94	2049.28
520.30	2017.66
520.66	1988.87
521.01	1961.30
521.37	1927.90
521.73	1900.44
522.09	1882.05
522.44	1861.26
522.80	1840.60
523.16	1818.29
523.51	1796.41
523.87	1772.14
524.23	1744.17
524.58	1719.36
524.94	1705.74
525.30	1689.61
525.65	1669.27
526.01	1656.61
526.37	1645.26
526.72	1626.16
527.08	1610.69
527.44	1599.22
527.79	1580.77
528.15	1565.40
528.51	1549.13
528.86	1535.04
529.22	1519.15
529.58	1505.15
529.93	1489.49
530.29	1476.32
530.65	1459.11
531.00	1445.96
531.36	1435.85
531.71	1427.07
532.07	1416.61
532.43	1408.42
532.78	1398.26
533.14	1387.73
533.49	1376.47
533.85	1368.42
534.21	1360.13
534.56	1351.21
534.92	1348.83
535.27	1346.09
535.63	1340.14
535.98	1332.40
536.34	1324.72
536.69	1312.62
537.05	1298.53
537.41	1288.82
537.76	1283.32
538.12	1275.52
538.47	1270.65
538.83	1266.09
539.18	1259.49
539.54	1254.06
539.89	1253.50
540.25	1245.49
540.60	1239.36
540.96	1234.30
541.31	1229.23
541.67	1222.98
542.02	1224.47
542.38	1227.49
542.73	1228.06
543.09	1225.81
543.44	1224.90
543.80	1218.51
544.15	1214.11
544.51	1212.70
544.86	1212.49
545.22	1208.91
545.57	1207.51
545.93	1207.62
546.28	1199.43
546.64	1194.42
546.99	1190.82
547.35	1188.43
547.70	1181.01
548.05	1180.22
548.41	1174.04
548.76	1168.47
549.12	1167.23
549.47	1164.88
549.83	1166.66
550.18	1167.30
550.53	1166.92
550.89	1161.02
551.24	1155.71
551.60	1149.74
551.95	1147.80
552.30	1144.38
552.66	1144.26
553.01	1146.44
553.37	1145.76
553.72	1144.97
554.07	1146.39
554.43	1145.36
554.78	1141.64
555.13	1140.64
555.49	1140.45
555.84	1138.90
556.19	1135.93
556.55	1135.21
556.90	1134.04
557.26	1129.52
557.61	1127.95
557.96	1127.51
558.32	1129.75
558.67	1127.65
559.02	1131.63
559.37	1131.86
559.73	1129.78
560.08	1126.06
560.43	1125.45
560.79	1121.58
561.14	1119.83
561.49	1122.80
561.85	1120.98
562.20	1119.22
562.55	1119.20
562.90	1118.21
563.26	1115.41
563.61	1116.06
563.96	1113.32
564.32	1109.62
564.67	1107.42
565.02	1109.30
565.37	1108.55
565.73	1112.69
566.08	1113.23
566.43	1114.35
566.78	1110.84
567.14	1111.45
567.49	1109.16
567.84	1106.89
568.19	1105.22
568.54	1106.84
568.90	1106.16
569.25	1104.73
569.60	1105.72
569.95	1108.85
570.31	1107.42
570.66	1106.02
571.01	1107.07
571.36	1107.24
571.71	1102.63
572.06	1102.39
572.42	1103.00
572.77	1100.08
573.12	1099.21
573.47	1101.32
573.82	1100.33
574.18	1100.73
574.53	1101.29
574.88	1102.58
575.23	1100.85
575.58	1102.46
575.93	1101.53
576.28	1103.09
576.64	1100.89
576.99	1100.75
577.34	1096.45
577.69	1095.82
578.04	1091.53
578.39	1092.89
578.74	1091.30
579.09	1094.20
579.44	1094.79
579.80	1097.50
580.15	1096.28
580.50	1099.96
580.85	1097.24
581.20	1096.52
581.55	1095.82
581.90	1094.83
582.25	1094.67
582.60	1095.91
582.95	1093.17
583.30	1090.95
583.65	1088.84
584.00	1087.81
584.35	1086.22
584.71	1088.37
585.06	1091.93
585.41	1095.58
585.76	1093.64
586.11	1097.85
586.46	1095.53
586.81	1094.50
587.16	1093.05
587.51	1092.77
587.86	1088.70
588.21	1090.97
588.56	1089.61
588.91	1090.90
589.26	1090.32
589.61	1093.64
589.96	1091.56
590.31	1093.50
590.66	1090.85
591.01	1091.44
591.36	1089.80
591.71	1090.06
592.06	1090.46
592.41	1091.74
592.76	1093.62
593.10	1092.26
593.45	1090.81
593.80	1087.95
594.15	1087.11
594.50	1084.11
594.85	1086.34
595.20	1088.07
595.55	1089.45
595.90	1089.54
596.25	1091.74
596.60	1090.64
596.95	1093.92
597.30	1092.77
597.64	1105.69
597.99	1102.86
598.34	1101.57
598.69	1097.38
599.04	1097.10
599.39	1084.18
599.74	1085.42
600.09	1082.97
600.44	1084.39
600.78	1083.57
601.13	1086.69
601.48	1086.01
601.83	1089.43
602.18	1087.79
602.53	1087.48
602.88	1084.21
603.22	1082.76
603.57	1081.51
603.92	1083.62
604.27	1084.44
604.62	1084.39
604.97	1085.05
605.31	1084.07
605.66	1080.58
606.01	1078.99
606.36	1080.06
606.71	1081.98
607.05	1083.43
607.40	1084.53
607.75	1086.57
608.10	1084.42
608.44	1084.07
608.79	1085.00
609.14	1086.66
609.49	1085.61
609.84	1087.25
610.18	1085.99
610.53	1084.84
610.88	1082.78
611.23	1083.04
611.57	1084.39
611.92	1089.52
612.27	1089.85
612.62	1093.47
612.96	1096.82
613.31	1095.72
613.66	1091.70
614.00	1092.12
614.35	1091.51
614.70	1090.24
615.05	1088.56
615.39	1089.36
615.74	1089.61
616.09	1088.30
616.43	1086.94
616.78	1088.23
617.13	1086.83
617.47	1087.44
617.82	1089.75
618.17	1092.00
618.51	1092.35
618.86	1088.61
619.21	1087.65
619.55	1085.66
619.90	1084.44
620.25	1083.93
620.59	1088.96
620.94	1089.17
621.29	1087.06
621.63	1088.16
621.98	1088.63
622.32	1085.66
622.67	1087.53
623.02	1087.27
623.36	1085.82
623.71	1086.24
624.05	1087.90
624.40	1086.36
624.75	1086.17
625.09	1086.15
625.44	1084.53
625.78	1083.67
626.13	1083.55
626.48	1087.67
626.82	1087.16
627.17	1090.27
627.51	1092.94
627.86	1090.36
628.20	1085.75
628.55	1084.09
628.89	1079.97
629.24	1076.15
629.58	1077.23
629.93	1079.74
630.28	1080.77
630.62	1081.58
630.97	1086.69
631.31	1085.38
631.66	1084.70
632.00	1083.50
632.35	1083.25
632.69	1082.40
633.04	1082.94
633.38	1082.57
633.73	1083.43
634.07	1084.67
634.42	1084.74
634.76	1087.93
635.11	1088.35
635.45	1090.32
635.79	1091.98
636.14	1092.89
636.48	1089.31
636.83	1090.29
637.17	1089.82
637.52	1088.58
637.86	1083.93
638.21	1084.28
638.55	1082.61
638.89	1079.10
639.24	1077.47
639.58	1079.10
639.93	1080.79
640.27	1078.89
640.61	1079.74
640.96	1083.15
641.30	1083.71
641.65	1083.34
641.99	1084.16
642.33	1085.80
642.68	1083.06
643.02	1083.64
643.37	1083.57
643.71	1086.38
644.05	1088.63
644.40	1089.99
644.74	1089.94
645.08	1091.86
645.43	1088.84
645.77	1086.99
646.11	1088.61
646.46	1088.07
646.80	1084.63
647.14	1087.44
647.49	1091.13
647.83	1088.14
648.17	1085.99
648.52	1089.24
648.86	1088.72
649.20	1083.29
649.55	1083.81
649.89	1081.37
650.23	1080.72
650.57	1079.64
650.92	1080.77
651.26	1077.51
651.60	1081.19
651.95	1077.40
652.29	1077.49
652.63	1078.61
652.97	1083.11
653.32	1081.68
653.66	1082.99
654.00	1084.72
654.34	1082.57
654.69	1079.27
655.03	1079.62
655.37	1077.91
655.71	1077.30
656.05	1080.48
656.40	1081.49
656.74	1083.48
657.08	1086.13
657.42	1086.57
657.76	1087.37
658.11	1087.60
658.45	1086.76
658.79	1088.89
659.13	1086.38
659.47	1083.57
659.82	1084.49
660.16	1084.07
660.50	1083.11
660.84	1083.25
661.18	1084.18
661.52	1083.74
661.87	1084.63
662.21	1085.03
662.55	1083.08
662.89	1078.80
663.23	1077.70
663.57	1074.07
663.91	1072.29
664.25	1076.76
664.60	1079.57
664.94	1078.94
665.28	1080.74
665.62	1079.81
665.96	1077.86
666.30	1076.88
666.64	1079.64
666.98	1079.48
667.32	1078.78
667.66	1079.71
668.01	1080.70
668.35	1075.05
668.69	1077.21
669.03	1075.69
669.37	1075.78
669.71	1075.29
670.05	1078.52
670.39	1078.54
670.73	1082.12
671.07	1082.99
671.41	1085.63
671.75	1085.24
672.09	1083.97
672.43	1083.06
672.77	1081.21
673.11	1080.23
673.45	1082.15
673.79	1083.13
674.13	1080.60
674.47	1080.23
674.81	1080.30
675.15	1080.16
675.49	1077.84
675.83	1081.33
676.17	1082.36
676.51	1079.74
676.85	1079.99
677.19	1082.97
677.53	1082.85
677.87	1084.04
678.21	1087.55
678.55	1087.44
678.89	1087.53
679.23	1085.47
679.57	1083.57
679.90	1083.25
680.24	1083.81
680.58	1082.12
680.92	1082.45
681.26	1080.98
681.60	1076.72
681.94	1075.78
682.28	1075.78
682.62	1075.17
682.96	1075.64
683.29	1078.96
683.63	1078.87
683.97	1082.08
684.31	1085.05
684.65	1085.77
684.99	1086.22
685.33	1084.11
685.67	1082.90
686.00	1083.76
686.34	1085.80
686.68	1085.56
687.02	1090.43
687.36	1086.73
687.70	1082.90
688.03	1079.95
688.37	1077.35
688.71	1074.38
689.05	1078.10
689.39	1079.53
689.72	1082.10
690.06	1081.87
690.40	1078.94
690.74	1077.14
691.08	1076.32
691.41	1077.11
691.75	1078.03
692.09	1081.51
692.43	1082.54
692.76	1083.79
693.10	1082.01
693.44	1083.62
693.78	1083.34
694.11	1084.65
694.45	1086.34
694.79	1085.70
695.13	1084.77
695.46	1085.49
695.80	1084.74
696.14	1081.66
696.48	1079.64
696.81	1082.12
697.15	1083.15
697.49	1082.15
697.82	1083.15
698.16	1085.84
698.50	1084.02
698.83	1085.38
699.17	1082.36
699.51	1082.31
699.84	1081.42
700.18	1081.73
700.52	1080.48
700.85	1082.59
701.19	1082.47
701.53	1082.99
701.86	1081.16
702.20	1079.50
702.54	1079.74
702.87	1080.58
703.21	1081.02
703.55	1079.15
703.88	1079.88
704.22	1080.67
704.55	1081.00
704.89	1078.75
705.23	1081.35
705.56	1082.03
705.90	1084.00
706.23	1085.40
706.57	1088.86
706.91	1087.65
707.24	1085.68
707.58	1083.34
707.91	1078.40
708.25	1074.63
708.58	1078.26
708.92	1080.20
709.26	1082.19
709.59	1086.76
709.93	1090.95
710.26	1088.35
710.60	1086.10
710.93	1079.27
711.27	1076.74
711.60	1071.52
711.94	1071.19
712.27	1072.43
712.61	1077.47
712.94	1079.03
713.28	1084.70
713.61	1087.60
713.95	1086.48
714.28	1085.40
714.62	1087.04
714.95	1085.77
715.29	1086.92
715.62	1086.08
715.96	1083.22
716.29	1080.86
716.63	1081.02
716.96	1077.72
717.29	1079.78
717.63	1083.18
717.96	1084.79
718.30	1084.93
718.63	1084.02
718.97	1084.79
719.30	1084.60
719.63	1083.08
719.97	1082.40
720.30	1087.60
720.64	1086.97
720.97	1087.18
721.30	1087.53
721.64	1086.31
721.97	1082.92
722.31	1082.69
722.64	1084.79
722.97	1084.32
723.31	1085.91
723.64	1083.64
723.97	1083.27
724.31	1079.48
724.64	1079.90
724.98	1079.36
725.31	1082.73
725.64	1085.75
725.98	1088.70
726.31	1090.03
726.64	1089.03
726.97	1087.95
727.31	1081.42
727.64	1081.61
727.97	1081.26
728.31	1082.85
728.64	1083.36
728.97	1088.12
729.31	1086.71
729.64	1084.16
729.97	1082.83
730.30	1081.28
730.64	1079.83
730.97	1081.07
731.30	1081.23
731.63	1080.44
731.97	1082.43
732.30	1082.22
732.63	1082.64
732.96	1083.34
733.30	1083.62
733.63	1081.89
733.96	1081.61
734.29	1080.74
734.63	1084.39
734.96	1083.64
735.29	1084.91
735.62	1087.51
735.95	1086.92
736.29	1083.76
736.62	1085.54
736.95	1083.39
737.28	1080.23
737.61	1078.68
737.94	1078.47
738.28	1078.00
738.61	1079.24
738.94	1081.66
739.27	1084.93
739.60	1087.02
739.93	1087.72
740.27	1086.03
740.60	1086.48
740.93	1086.57
741.26	1087.11
741.59	1087.16
741.92	1088.19
742.25	1086.15
742.58	1081.89
742.91	1082.31
743.25	1082.12
743.58	1081.70
743.91	1080.48
744.24	1081.61
744.57	1078.14
744.90	1076.18
745.23	1078.00
745.56	1077.25
745.89	1076.41
746.22	1076.06
746.55	1080.39
746.88	1078.57
747.21	1079.10
747.54	1079.48
747.87	1077.65
748.20	1077.21
748.53	1078.87
748.87	1081.12
749.20	1080.44
749.53	1081.16
749.86	1078.45
750.19	1079.31
750.52	1078.36
750.85	1082.40
751.18	1084.35
751.51	1083.53
751.84	1080.93
752.16	1080.93
752.49	1077.16
752.82	1078.64
753.15	1080.65
753.48	1083.64
753.81	1083.62
754.14	1084.25
754.47	1083.95
754.80	1082.38
755.13	1081.21
755.46	1081.73
755.79	1083.55
756.12	1082.52
756.45	1081.12
756.78	1078.61
757.11	1078.45
757.43	1077.25
757.76	1075.45
758.09	1079.24
758.42	1079.71
758.75	1077.89
759.08	1079.55
759.41	1078.87
759.74	1079.74
760.07	1080.30
760.39	1079.85
760.72	1077.02
761.05	1078.96
761.38	1075.29
761.71	1075.31
762.04	1078.36
762.36	1079.06
762.69	1078.96
763.02	1078.57
763.35	1077.00
763.68	1078.50
