SpectraSuite Data File
++++++++++++++++++++++++++++++++++++
Date: Mon Aug 26 10:22:28 PDT 2019
User: corrico
Dark Spectrum Present: No
Reference Spectrum Present: No
Number of Sampled Component Spectra: 1
Spectrometers: USB2+H06089
Integration Time (usec): 2000 (USB2+H06089)
Spectra Averaged: 20 (USB2+H06089)
Boxcar Smoothing: 2 (USB2+H06089)
Correct for Electrical Dark: No (USB2+H06089)
Strobe/Lamp Enabled: No (USB2+H06089)
Correct for Detector Non-linearity: No (USB2+H06089)
Correct for Stray Light: No (USB2+H06089)
Number of Pixels in Processed Spectrum: 2048
>>>>>Begin Processed Spectral Data<<<<<
339.70	1051.13
340.07	1051.13
340.45	1008.05
340.82	980.59
341.19	952.06
341.57	925.59
341.94	917.91
342.31	908.24
342.69	902.67
343.06	901.81
343.43	896.94
343.81	900.31
344.18	903.10
344.55	908.57
344.93	913.60
345.30	920.06
345.67	926.95
346.04	934.34
346.42	942.21
346.79	949.11
347.16	960.13
347.54	966.69
347.91	976.64
348.28	987.64
348.65	998.68
349.03	1005.59
349.40	1016.31
349.77	1023.98
350.14	1029.98
350.52	1037.54
350.89	1045.31
351.26	1051.35
351.63	1053.94
352.01	1060.50
352.38	1062.51
352.75	1067.19
353.12	1065.34
353.50	1070.12
353.87	1073.88
354.24	1074.26
354.61	1073.58
354.98	1077.79
355.36	1081.96
355.73	1082.64
356.10	1086.45
356.47	1087.02
356.84	1087.72
357.22	1084.84
357.59	1083.67
357.96	1084.74
358.33	1087.62
358.70	1087.58
359.08	1086.64
359.45	1087.69
359.82	1084.86
360.19	1080.98
360.56	1077.02
360.94	1076.65
361.31	1073.46
361.68	1075.05
362.05	1077.93
362.42	1080.74
362.79	1081.66
363.16	1079.36
363.54	1076.83
363.91	1076.97
364.28	1074.03
364.65	1073.46
365.02	1074.94
365.39	1077.56
365.76	1077.91
366.14	1078.38
366.51	1079.81
366.88	1080.77
367.25	1077.40
367.62	1077.86
367.99	1080.56
368.36	1075.64
368.73	1074.54
369.10	1074.26
369.48	1068.90
369.85	1069.09
370.22	1074.73
370.59	1077.47
370.96	1078.66
371.33	1080.30
371.70	1077.07
372.07	1076.23
372.44	1073.70
372.81	1075.66
373.18	1077.02
373.55	1079.78
373.93	1080.51
374.30	1080.46
374.67	1079.92
375.04	1077.35
375.41	1077.65
375.78	1074.91
376.15	1077.25
376.52	1077.00
376.89	1078.07
377.26	1080.63
377.63	1080.70
378.00	1080.04
378.37	1078.17
378.74	1078.03
379.11	1076.60
379.48	1080.11
379.85	1079.36
380.22	1080.53
380.59	1082.78
380.96	1082.73
381.33	1082.69
381.70	1083.48
382.07	1085.84
382.44	1086.85
382.81	1085.61
383.18	1087.27
383.55	1088.37
383.92	1088.91
384.29	1087.39
384.66	1091.46
385.03	1088.33
385.40	1088.98
385.77	1087.18
386.14	1090.88
386.51	1087.46
386.88	1087.20
387.25	1085.68
387.62	1087.72
387.99	1083.74
388.36	1083.86
388.73	1084.65
389.10	1084.23
389.46	1082.97
389.83	1082.59
390.20	1082.76
390.57	1081.89
390.94	1083.01
391.31	1082.73
391.68	1082.69
392.05	1082.43
392.42	1079.76
392.79	1081.61
393.16	1079.69
393.53	1082.24
393.89	1083.36
394.26	1086.24
394.63	1079.81
395.00	1082.01
395.37	1081.28
395.74	1080.58
396.11	1080.72
396.48	1087.37
396.84	1086.55
397.21	1088.56
397.58	1089.05
397.95	1092.77
398.32	1091.53
398.69	1093.03
399.06	1090.99
399.42	1093.01
399.79	1090.24
400.16	1091.70
400.53	1090.01
400.90	1090.78
401.27	1090.78
401.64	1090.48
402.00	1090.17
402.37	1092.82
402.74	1092.94
403.11	1092.37
403.48	1092.77
403.84	1089.99
404.21	1090.43
404.58	1092.30
404.95	1089.52
405.32	1089.68
405.68	1089.68
406.05	1086.99
406.42	1084.98
406.79	1087.37
407.16	1090.62
407.52	1089.92
407.89	1095.67
408.26	1095.65
408.63	1095.37
408.99	1093.31
409.36	1096.68
409.73	1091.74
410.10	1094.13
410.47	1094.93
410.83	1095.11
411.20	1094.29
411.57	1096.21
411.94	1096.96
412.30	1099.77
412.67	1101.92
413.04	1103.35
413.40	1104.97
413.77	1104.85
414.14	1104.08
414.51	1103.52
414.87	1103.28
415.24	1102.04
415.61	1103.77
415.97	1104.36
416.34	1102.18
416.71	1103.12
417.08	1106.07
417.44	1106.35
417.81	1105.86
418.18	1107.47
418.54	1108.55
418.91	1110.70
419.28	1112.01
419.64	1114.26
420.01	1115.66
420.38	1116.79
420.74	1114.63
421.11	1110.75
421.48	1111.54
421.84	1115.92
422.21	1117.09
422.58	1120.27
422.94	1126.31
423.31	1129.12
423.68	1129.87
424.04	1134.48
424.41	1136.05
424.77	1138.83
425.14	1141.29
425.51	1143.87
425.87	1149.48
426.24	1155.94
426.61	1159.85
426.97	1169.68
427.34	1176.61
427.70	1179.58
428.07	1184.57
428.44	1192.85
428.80	1196.06
429.17	1205.35
429.53	1216.28
429.90	1227.10
430.27	1240.69
430.63	1249.21
431.00	1259.86
431.36	1274.14
431.73	1282.85
432.09	1293.61
432.46	1309.44
432.83	1327.04
433.19	1339.11
433.56	1359.73
433.92	1378.15
434.29	1396.97
434.65	1419.02
435.02	1444.41
435.38	1470.44
435.75	1496.05
436.11	1529.40
436.48	1560.22
436.84	1593.62
437.21	1627.42
437.57	1666.91
437.94	1705.76
438.30	1747.82
438.67	1793.44
439.03	1846.96
439.40	1900.44
439.76	1959.38
440.13	2020.23
440.49	2086.03
440.86	2152.54
441.22	2223.42
441.59	2301.26
441.95	2384.14
442.32	2469.73
442.68	2562.70
443.05	2657.65
443.41	2751.42
443.78	2847.75
444.14	2951.51
444.51	3066.27
444.87	3211.17
445.24	3354.22
445.60	3514.99
445.96	3671.46
446.33	3844.61
446.69	3998.78
447.06	4181.84
447.42	4361.38
447.79	4558.17
448.15	4779.58
448.51	5019.14
448.88	5277.77
449.24	5521.89
449.61	5805.30
449.97	6077.48
450.33	6360.08
450.70	6623.27
451.06	6954.39
451.43	7257.07
451.79	7625.44
452.15	8030.82
452.52	8490.18
452.88	8957.84
453.24	9496.86
453.61	10071.42
453.97	10635.77
454.34	11179.90
454.70	11834.03
455.06	12484.09
455.43	13116.34
455.79	13720.83
456.15	14439.05
456.52	15109.40
456.88	15885.66
457.24	16619.54
457.61	17468.89
457.97	18252.74
458.33	19035.79
458.70	19817.76
459.06	20594.96
459.42	21444.92
459.79	22234.48
460.15	23131.42
460.51	23991.05
460.88	24909.55
461.24	25702.41
461.60	26665.72
461.96	27546.33
462.33	28369.19
462.69	29169.56
463.05	30019.62
463.42	30711.41
463.78	31346.84
464.14	31915.97
464.50	32504.19
464.87	32972.18
465.23	33319.70
465.59	33674.95
465.95	33965.62
466.32	34225.26
466.68	34474.08
467.04	34626.47
467.40	34777.97
467.77	34946.89
468.13	34926.08
468.49	34818.04
468.85	34758.29
469.22	34571.02
469.58	34225.44
469.94	33964.43
470.30	33655.05
470.66	33219.95
471.03	32621.15
471.39	32226.86
471.75	31586.54
472.11	30987.38
472.47	30635.67
472.84	30314.27
473.20	29811.85
473.56	29545.05
473.92	29105.52
474.28	28580.89
474.65	28088.58
475.01	27613.64
475.37	27048.59
475.73	26593.19
476.09	26060.34
476.45	25545.85
476.81	25026.67
477.18	24489.38
477.54	24029.46
477.90	23676.25
478.26	23278.52
478.62	22958.76
478.98	22657.09
479.34	22344.04
479.71	21935.24
480.07	21570.68
480.43	21178.97
480.79	20789.36
481.15	20425.43
481.51	20107.92
481.87	19853.01
482.23	19587.38
482.59	19343.94
482.96	19081.59
483.32	18798.08
483.68	18424.77
484.04	18075.02
484.40	17708.00
484.76	17319.96
485.12	16946.79
485.48	16622.48
485.84	16263.59
486.20	15914.64
486.56	15535.52
486.92	15219.43
487.28	14875.39
487.64	14518.23
488.00	14170.54
488.37	13860.32
488.73	13507.89
489.09	13147.37
489.45	12837.39
489.81	12525.63
490.17	12222.49
490.53	11932.07
490.89	11627.71
491.25	11309.56
491.61	11002.98
491.97	10683.38
492.33	10343.39
492.69	10057.05
493.05	9771.67
493.41	9469.27
493.77	9193.25
494.13	8937.66
494.49	8680.20
494.85	8439.13
495.21	8220.03
495.57	8014.58
495.93	7805.17
496.29	7600.80
496.64	7407.05
497.00	7211.07
497.36	7016.13
497.72	6832.26
498.08	6648.13
498.44	6471.07
498.80	6302.64
499.16	6130.07
499.52	5971.67
499.88	5845.11
500.24	5710.79
500.60	5590.98
500.96	5480.06
501.32	5361.96
501.68	5234.02
502.03	5115.73
502.39	4990.09
502.75	4852.45
503.11	4734.27
503.47	4611.51
503.83	4482.76
504.19	4358.90
504.55	4247.42
504.91	4146.05
505.26	4053.39
505.62	3970.39
505.98	3882.34
506.34	3794.99
506.70	3699.66
507.06	3609.22
507.42	3525.46
507.78	3452.73
508.13	3383.97
508.49	3310.57
508.85	3237.36
509.21	3161.95
509.57	3087.68
509.93	3022.73
510.28	2955.56
510.64	2893.53
511.00	2835.32
511.36	2778.96
511.72	2717.85
512.07	2666.41
512.43	2616.23
512.79	2563.40
513.15	2513.22
513.51	2469.10
513.86	2423.91
514.22	2381.96
514.58	2343.56
514.94	2310.11
515.30	2269.78
515.65	2233.50
516.01	2201.88
516.37	2173.59
516.73	2138.88
517.08	2117.51
517.44	2088.97
517.80	2059.18
518.16	2031.33
518.51	2010.68
518.87	1978.78
519.23	1951.07
519.59	1926.52
519.94	1896.93
520.30	1871.28
520.66	1844.72
521.01	1827.05
521.37	1802.59
521.73	1780.59
522.09	1756.95
522.44	1739.70
522.80	1715.26
523.16	1694.92
523.51	1673.97
523.87	1656.94
524.23	1638.87
524.58	1621.20
524.94	1605.51
525.30	1589.67
525.65	1570.48
526.01	1554.89
526.37	1538.90
526.72	1526.05
527.08	1514.58
527.44	1505.50
527.79	1490.22
528.15	1480.62
528.51	1465.29
528.86	1451.76
529.22	1435.54
529.58	1423.54
529.93	1408.75
530.29	1397.67
530.65	1388.69
531.00	1379.35
531.36	1373.12
531.71	1366.99
532.07	1357.35
532.43	1350.26
532.78	1345.18
533.14	1337.15
533.49	1325.94
533.85	1321.14
534.21	1313.09
534.56	1306.74
534.92	1302.27
535.27	1296.24
535.63	1293.01
535.98	1284.95
536.34	1275.80
536.69	1268.45
537.05	1266.18
537.41	1258.88
537.76	1256.73
538.12	1252.26
538.47	1247.32
538.83	1243.11
539.18	1237.30
539.54	1235.48
539.89	1232.43
540.25	1227.89
540.60	1223.56
540.96	1220.12
541.31	1214.39
541.67	1210.13
542.02	1210.31
542.38	1208.11
542.73	1203.50
543.09	1197.89
543.44	1193.30
543.80	1188.36
544.15	1184.45
544.51	1184.33
544.86	1183.37
545.22	1181.03
545.57	1178.34
545.93	1177.52
546.28	1174.25
546.64	1171.34
546.99	1169.71
547.35	1166.83
547.70	1165.89
548.05	1162.50
548.41	1163.18
548.76	1162.59
549.12	1159.90
549.47	1151.75
549.83	1152.34
550.18	1146.53
550.53	1144.94
550.89	1144.19
551.24	1149.32
551.60	1146.70
551.95	1146.25
552.30	1145.50
552.66	1143.00
553.01	1139.61
553.37	1137.80
553.72	1139.14
554.07	1136.80
554.43	1134.79
554.78	1130.81
555.13	1132.26
555.49	1131.18
555.84	1129.85
556.19	1130.85
556.55	1131.74
556.90	1131.16
557.26	1131.25
557.61	1129.94
557.96	1127.32
558.32	1125.28
558.67	1122.08
559.02	1116.81
559.37	1115.78
559.73	1117.63
560.08	1118.57
560.43	1119.01
560.79	1120.18
561.14	1118.78
561.49	1117.75
561.85	1116.79
562.20	1115.99
562.55	1112.32
562.90	1112.11
563.26	1113.79
563.61	1115.01
563.96	1113.58
564.32	1117.32
564.67	1117.54
565.02	1117.23
565.37	1113.84
565.73	1112.46
566.08	1110.56
566.43	1110.91
566.78	1106.00
567.14	1106.84
567.49	1103.59
567.84	1103.26
568.19	1101.03
568.54	1103.07
568.90	1103.00
569.25	1104.26
569.60	1103.68
569.95	1103.33
570.31	1104.22
570.66	1102.79
571.01	1105.81
571.36	1108.41
571.71	1109.65
572.06	1105.25
572.42	1102.67
572.77	1100.80
573.12	1097.57
573.47	1096.66
573.82	1095.56
574.18	1098.20
574.53	1097.69
574.88	1097.31
575.23	1097.29
575.58	1099.09
575.93	1100.33
576.28	1102.79
576.64	1104.50
576.99	1102.77
577.34	1101.53
577.69	1098.69
578.04	1097.17
578.39	1093.52
578.74	1093.76
579.09	1095.75
579.44	1093.94
579.80	1095.18
580.15	1092.73
580.50	1089.94
580.85	1087.69
581.20	1091.84
581.55	1087.11
581.90	1091.72
582.25	1094.95
582.60	1097.55
582.95	1097.22
583.30	1100.57
583.65	1101.88
584.00	1101.43
584.35	1099.02
584.71	1097.62
585.06	1097.17
585.41	1096.28
585.76	1098.20
586.11	1099.70
586.46	1098.58
586.81	1099.07
587.16	1098.65
587.51	1099.12
587.86	1096.82
588.21	1096.68
588.56	1095.60
588.91	1094.01
589.26	1093.57
589.61	1092.12
589.96	1091.60
590.31	1092.80
590.66	1094.04
591.01	1092.09
591.36	1091.30
591.71	1088.58
592.06	1085.28
592.41	1082.29
592.76	1081.84
593.10	1086.92
593.45	1091.53
593.80	1092.00
594.15	1094.48
594.50	1093.08
594.85	1090.32
595.20	1088.14
595.55	1089.73
595.90	1089.22
596.25	1088.93
596.60	1089.50
596.95	1090.62
597.30	1089.03
597.64	1097.48
597.99	1096.38
598.34	1093.94
598.69	1092.75
599.04	1092.59
599.39	1079.78
599.74	1081.82
600.09	1085.00
600.44	1089.73
600.78	1092.00
601.13	1093.29
601.48	1094.27
601.83	1092.14
602.18	1086.85
602.53	1083.95
602.88	1084.81
603.22	1084.30
603.57	1085.38
603.92	1085.82
604.27	1086.06
604.62	1086.38
604.97	1084.39
605.31	1085.38
605.66	1085.66
606.01	1086.66
606.36	1085.89
606.71	1089.10
607.05	1086.83
607.40	1086.27
607.75	1086.17
608.10	1088.42
608.44	1088.26
608.79	1089.96
609.14	1091.88
609.49	1092.89
609.84	1091.02
610.18	1089.61
610.53	1089.92
610.88	1088.30
611.23	1085.84
611.57	1086.83
611.92	1087.06
612.27	1084.58
612.62	1087.27
612.96	1086.06
613.31	1083.88
613.66	1083.43
614.00	1083.43
614.35	1081.49
614.70	1084.23
615.05	1083.18
615.39	1084.39
615.74	1083.88
616.09	1082.69
616.43	1079.50
616.78	1082.90
617.13	1082.40
617.47	1082.66
617.82	1083.97
618.17	1086.78
618.51	1085.52
618.86	1084.65
619.21	1085.21
619.55	1083.18
619.90	1081.70
620.25	1081.73
620.59	1083.11
620.94	1082.26
621.29	1080.51
621.63	1082.66
621.98	1083.71
622.32	1083.81
622.67	1085.84
623.02	1089.38
623.36	1085.75
623.71	1084.23
624.05	1085.26
624.40	1084.81
624.75	1082.26
625.09	1083.43
625.44	1085.33
625.78	1082.50
626.13	1082.94
626.48	1083.18
626.82	1085.82
627.17	1080.13
627.51	1081.51
627.86	1077.68
628.20	1080.13
628.55	1076.86
628.89	1079.62
629.24	1080.06
629.58	1080.72
629.93	1079.22
630.28	1080.20
630.62	1081.63
630.97	1079.81
631.31	1082.38
631.66	1083.13
632.00	1081.87
632.35	1080.20
632.69	1078.17
633.04	1078.52
633.38	1078.99
633.73	1080.91
634.07	1084.67
634.42	1085.63
634.76	1085.63
635.11	1087.79
635.45	1088.79
635.79	1090.90
636.14	1091.32
636.48	1091.81
636.83	1086.87
637.17	1085.07
637.52	1080.58
637.86	1080.63
638.21	1079.03
638.55	1079.55
638.89	1078.61
639.24	1079.83
639.58	1083.32
639.93	1081.66
640.27	1082.99
640.61	1086.55
640.96	1084.37
641.30	1082.69
641.65	1085.42
641.99	1085.73
642.33	1081.61
642.68	1081.87
643.02	1079.76
643.37	1076.15
643.71	1077.51
644.05	1081.66
644.40	1081.49
644.74	1083.06
645.08	1088.56
645.43	1087.04
645.77	1084.28
646.11	1086.99
646.46	1085.66
646.80	1083.74
647.14	1082.29
647.49	1085.17
647.83	1081.61
648.17	1082.01
648.52	1085.10
648.86	1089.40
649.20	1087.13
649.55	1088.47
649.89	1088.86
650.23	1087.65
650.57	1085.89
650.92	1088.04
651.26	1091.34
651.60	1093.66
651.95	1092.98
652.29	1090.67
652.63	1088.21
652.97	1084.98
653.32	1082.33
653.66	1082.80
654.00	1084.04
654.34	1084.65
654.69	1086.43
655.03	1090.71
655.37	1091.09
655.71	1089.03
656.05	1089.36
656.40	1090.22
656.74	1085.21
657.08	1081.89
657.42	1081.77
657.76	1082.08
658.11	1081.02
658.45	1083.76
658.79	1085.63
659.13	1086.97
659.47	1087.06
659.82	1086.29
660.16	1087.06
660.50	1086.15
660.84	1088.61
661.18	1090.90
661.52	1089.92
661.87	1088.61
662.21	1086.38
662.55	1085.33
662.89	1080.39
663.23	1079.97
663.57	1076.20
663.91	1079.64
664.25	1078.87
664.60	1083.97
664.94	1087.44
665.28	1091.95
665.62	1092.28
665.96	1089.82
666.30	1086.78
666.64	1085.40
666.98	1084.58
667.32	1082.61
667.66	1084.02
668.01	1084.81
668.35	1084.91
668.69	1083.41
669.03	1082.57
669.37	1081.89
669.71	1083.53
670.05	1083.60
670.39	1081.28
670.73	1082.17
671.07	1087.20
671.41	1086.99
671.75	1086.01
672.09	1088.82
672.43	1090.64
672.77	1086.73
673.11	1085.33
673.45	1083.74
673.79	1084.42
674.13	1082.85
674.47	1080.34
674.81	1081.40
675.15	1083.04
675.49	1081.98
675.83	1083.90
676.17	1083.36
676.51	1080.06
676.85	1080.58
677.19	1080.13
677.53	1079.10
677.87	1085.54
678.21	1086.83
678.55	1084.16
678.89	1084.51
679.23	1084.23
679.57	1081.82
679.90	1081.77
680.24	1079.95
680.58	1080.60
680.92	1080.58
681.26	1082.36
681.60	1084.02
681.94	1087.81
682.28	1087.30
682.62	1086.85
682.96	1083.55
683.29	1084.53
683.63	1083.95
683.97	1082.24
684.31	1080.60
684.65	1081.30
684.99	1079.69
685.33	1080.58
685.67	1085.10
686.00	1083.48
686.34	1083.11
686.68	1080.70
687.02	1081.68
687.36	1078.43
687.70	1078.05
688.03	1078.28
688.37	1079.50
688.71	1080.23
689.05	1081.51
689.39	1084.91
689.72	1084.96
690.06	1085.28
690.40	1082.80
690.74	1082.73
691.08	1087.23
691.41	1085.68
691.75	1086.03
692.09	1085.61
692.43	1084.30
692.76	1078.54
693.10	1079.03
693.44	1079.88
693.78	1077.18
694.11	1075.69
694.45	1075.92
694.79	1078.26
695.13	1079.15
695.46	1082.80
695.80	1083.62
696.14	1081.77
696.48	1080.91
696.81	1078.52
697.15	1077.11
697.49	1078.85
697.82	1081.54
698.16	1080.86
698.50	1077.09
698.83	1077.25
699.17	1076.51
699.51	1074.56
699.84	1076.39
700.18	1083.76
700.52	1087.44
700.85	1089.66
701.19	1090.97
701.53	1089.96
701.86	1087.27
702.20	1084.79
702.54	1084.81
702.87	1087.58
703.21	1088.70
703.55	1090.90
703.88	1090.97
704.22	1087.06
704.55	1082.52
704.89	1082.54
705.23	1083.79
705.56	1084.67
705.90	1087.67
706.23	1090.06
706.57	1087.88
706.91	1084.89
707.24	1081.23
707.58	1078.75
707.91	1076.74
708.25	1077.82
708.58	1072.32
708.92	1073.32
709.26	1076.25
709.59	1077.56
709.93	1076.93
710.26	1084.21
710.60	1084.77
710.93	1083.06
711.27	1086.97
711.60	1087.06
711.94	1085.14
712.27	1086.57
712.61	1085.33
712.94	1081.35
713.28	1080.74
713.61	1081.02
713.95	1079.92
714.28	1083.64
714.62	1084.14
714.95	1087.65
715.29	1085.84
715.62	1087.16
715.96	1085.82
716.29	1086.17
716.63	1082.99
716.96	1083.88
717.29	1086.64
717.63	1087.46
717.96	1087.69
718.30	1090.32
718.63	1089.92
718.97	1084.16
719.30	1082.57
719.63	1082.01
719.97	1078.24
720.30	1077.61
720.64	1081.23
720.97	1081.61
721.30	1081.23
721.64	1084.21
721.97	1084.91
722.31	1084.74
722.64	1086.31
722.97	1086.52
723.31	1085.70
723.64	1083.32
723.97	1080.70
724.31	1077.37
724.64	1077.89
724.98	1078.59
725.31	1080.16
725.64	1083.67
725.98	1083.08
726.31	1081.16
726.64	1077.49
726.97	1079.97
727.31	1079.71
727.64	1079.97
727.97	1081.21
728.31	1085.05
728.64	1081.44
728.97	1080.27
729.31	1083.67
729.64	1085.10
729.97	1081.96
730.30	1085.05
730.64	1084.18
730.97	1082.29
731.30	1081.19
731.63	1082.33
731.97	1078.78
732.30	1081.07
732.63	1080.44
732.96	1081.49
733.30	1080.37
733.63	1082.40
733.96	1079.88
734.29	1081.16
734.63	1079.69
734.96	1082.76
735.29	1082.36
735.62	1081.96
735.95	1082.50
736.29	1083.22
736.62	1081.61
736.95	1083.22
737.28	1084.72
737.61	1083.34
737.94	1082.50
738.28	1081.61
738.61	1080.20
738.94	1079.48
739.27	1079.17
739.60	1080.98
739.93	1084.21
740.27	1083.93
740.60	1082.43
740.93	1083.93
741.26	1083.43
741.59	1083.79
741.92	1084.46
742.25	1087.55
742.58	1087.11
742.91	1088.16
743.25	1084.58
743.58	1082.71
743.91	1081.96
744.24	1082.85
744.57	1079.46
744.90	1080.23
745.23	1080.86
745.56	1082.29
745.89	1081.68
746.22	1080.91
746.55	1079.48
746.88	1079.24
747.21	1077.51
747.54	1077.96
747.87	1080.95
748.20	1081.54
748.53	1079.69
748.87	1080.51
749.20	1078.43
749.53	1077.11
749.86	1077.18
750.19	1079.60
750.52	1076.27
750.85	1078.54
751.18	1078.54
751.51	1077.84
751.84	1078.78
752.16	1082.83
752.49	1082.17
752.82	1083.08
753.15	1085.05
753.48	1084.51
753.81	1084.37
754.14	1081.70
754.47	1084.09
754.80	1085.77
755.13	1085.47
755.46	1087.23
755.79	1088.42
756.12	1083.46
756.45	1080.72
756.78	1078.75
757.11	1079.34
757.43	1081.73
757.76	1080.60
758.09	1081.42
758.42	1081.28
758.75	1077.35
759.08	1075.17
759.41	1077.65
759.74	1077.61
760.07	1081.54
760.39	1082.05
760.72	1083.53
761.05	1084.56
761.38	1083.81
761.71	1082.15
762.04	1080.56
762.36	1076.83
762.69	1077.47
763.02	1078.07
763.35	1079.92
763.68	1081.30
764.01	1086.15
