SpectraSuite Data File
++++++++++++++++++++++++++++++++++++
Date: Mon Aug 26 10:22:12 PDT 2019
User: corrico
Dark Spectrum Present: No
Reference Spectrum Present: No
Number of Sampled Component Spectra: 1
Spectrometers: USB2+H06089
Integration Time (usec): 2000 (USB2+H06089)
Spectra Averaged: 20 (USB2+H06089)
Boxcar Smoothing: 2 (USB2+H06089)
Correct for Electrical Dark: No (USB2+H06089)
Strobe/Lamp Enabled: No (USB2+H06089)
Correct for Detector Non-linearity: No (USB2+H06089)
Correct for Stray Light: No (USB2+H06089)
Number of Pixels in Processed Spectrum: 2048
>>>>>Begin Processed Spectral Data<<<<<
339.70	1029.25
340.07	1029.25
340.45	996.41
340.82	977.31
341.19	953.37
341.57	927.09
341.94	916.06
342.31	907.92
342.69	900.87
343.06	898.86
343.43	897.85
343.81	897.36
344.18	900.08
344.55	904.22
344.93	910.44
345.30	917.14
345.67	924.77
346.04	931.28
346.42	937.71
346.79	947.78
347.16	957.16
347.54	966.27
347.91	976.89
348.28	987.40
348.65	994.87
349.03	1004.72
349.40	1011.18
349.77	1016.64
350.14	1023.96
350.52	1029.04
350.89	1036.51
351.26	1043.08
351.63	1050.76
352.01	1055.49
352.38	1061.83
352.75	1064.90
353.12	1067.14
353.50	1069.25
353.87	1071.10
354.24	1074.03
354.61	1075.92
354.98	1083.06
355.36	1082.99
355.73	1083.20
356.10	1081.40
356.47	1082.64
356.84	1079.97
357.22	1084.51
357.59	1085.45
357.96	1084.63
358.33	1083.01
358.70	1083.32
359.08	1081.49
359.45	1081.87
359.82	1082.54
360.19	1083.32
360.56	1079.53
360.94	1082.40
361.31	1082.99
361.68	1083.86
362.05	1083.04
362.42	1089.07
362.79	1085.61
363.16	1083.46
363.54	1078.94
363.91	1078.80
364.28	1077.21
364.65	1076.97
365.02	1076.65
365.39	1079.85
365.76	1079.10
366.14	1075.38
366.51	1075.90
366.88	1076.76
367.25	1075.01
367.62	1075.76
367.99	1075.38
368.36	1075.87
368.73	1074.89
369.10	1076.72
369.48	1074.68
369.85	1076.72
370.22	1075.10
370.59	1077.23
370.96	1077.42
371.33	1077.54
371.70	1077.04
372.07	1073.79
372.44	1075.31
372.81	1076.69
373.18	1078.12
373.55	1079.31
373.93	1083.46
374.30	1081.49
374.67	1078.43
375.04	1078.64
375.41	1077.72
375.78	1074.10
376.15	1071.15
376.52	1071.12
376.89	1070.63
377.26	1072.39
377.63	1076.18
378.00	1078.26
378.37	1080.13
378.74	1079.97
379.11	1077.84
379.48	1077.77
379.85	1077.93
380.22	1079.60
380.59	1083.27
380.96	1084.00
381.33	1084.56
381.70	1085.38
382.07	1083.53
382.44	1081.94
382.81	1083.34
383.18	1082.54
383.55	1080.41
383.92	1078.26
384.29	1075.13
384.66	1073.37
385.03	1071.31
385.40	1071.03
385.77	1073.63
386.14	1076.95
386.51	1078.47
386.88	1084.14
387.25	1089.26
387.62	1090.46
387.99	1089.36
388.36	1088.42
388.73	1087.20
389.10	1081.96
389.46	1082.33
389.83	1083.86
390.20	1088.58
390.57	1087.41
390.94	1091.34
391.31	1091.44
391.68	1091.11
392.05	1088.75
392.42	1086.73
392.79	1088.63
393.16	1090.99
393.53	1090.48
393.89	1088.96
394.26	1089.87
394.63	1086.83
395.00	1085.89
395.37	1086.29
395.74	1086.57
396.11	1088.26
396.48	1091.34
396.84	1089.10
397.21	1088.86
397.58	1088.42
397.95	1090.46
398.32	1088.16
398.69	1090.55
399.06	1092.70
399.42	1092.45
399.79	1091.77
400.16	1092.94
400.53	1090.46
400.90	1087.58
401.27	1086.36
401.64	1083.86
402.00	1084.86
402.37	1087.65
402.74	1087.39
403.11	1088.91
403.48	1088.61
403.84	1089.19
404.21	1087.30
404.58	1091.30
404.95	1092.52
405.32	1093.71
405.68	1093.94
406.05	1094.95
406.42	1093.83
406.79	1092.12
407.16	1090.99
407.52	1087.72
407.89	1089.59
408.26	1087.72
408.63	1090.41
408.99	1092.52
409.36	1096.26
409.73	1096.99
410.10	1100.94
410.47	1101.06
410.83	1103.05
411.20	1102.72
411.57	1099.63
411.94	1097.36
412.30	1098.18
412.67	1096.75
413.04	1096.45
413.40	1098.58
413.77	1102.95
414.14	1105.20
414.51	1106.21
414.87	1107.00
415.24	1106.39
415.61	1103.42
415.97	1102.02
416.34	1101.08
416.71	1099.68
417.08	1101.71
417.44	1101.60
417.81	1103.77
418.18	1108.88
418.54	1110.54
418.91	1113.42
419.28	1118.45
419.64	1119.36
420.01	1121.09
420.38	1126.10
420.74	1122.50
421.11	1123.06
421.48	1126.24
421.84	1124.30
422.21	1125.54
422.58	1130.92
422.94	1132.33
423.31	1133.64
423.68	1137.15
424.04	1138.81
424.41	1141.25
424.77	1145.86
425.14	1148.71
425.51	1153.46
425.87	1157.70
426.24	1161.19
426.61	1164.70
426.97	1173.47
427.34	1183.42
427.70	1189.16
428.07	1199.88
428.44	1209.19
428.80	1216.66
429.17	1224.73
429.53	1238.42
429.90	1251.60
430.27	1265.67
430.63	1276.57
431.00	1289.71
431.36	1301.60
431.73	1313.53
432.09	1327.53
432.46	1344.64
432.83	1363.22
433.19	1388.83
433.56	1414.41
433.92	1438.59
434.29	1467.38
434.65	1494.22
435.02	1520.74
435.38	1552.99
435.75	1586.37
436.11	1624.57
436.48	1665.13
436.84	1710.14
437.21	1752.20
437.57	1801.58
437.94	1851.60
438.30	1907.35
438.67	1967.27
439.03	2030.46
439.40	2097.59
439.76	2164.36
440.13	2236.62
440.49	2312.38
440.86	2386.27
441.22	2470.01
441.59	2561.08
441.95	2662.92
442.32	2764.90
442.68	2889.79
443.05	3009.02
443.41	3134.33
443.78	3263.39
444.14	3403.49
444.51	3540.27
444.87	3712.14
445.24	3877.73
445.60	4056.27
445.96	4241.05
446.33	4447.09
446.69	4635.78
447.06	4853.19
447.42	5075.76
447.79	5307.54
448.15	5570.83
448.51	5846.42
448.88	6164.11
449.24	6468.68
449.61	6820.98
449.97	7164.94
450.33	7536.36
450.70	7885.64
451.06	8307.80
451.43	8698.91
451.79	9167.50
452.15	9663.53
452.52	10205.84
452.88	10752.05
453.24	11380.60
453.61	12080.11
453.97	12773.54
454.34	13458.90
454.70	14257.91
455.06	15055.54
455.43	15777.95
455.79	16450.90
456.15	17248.98
456.52	17994.48
456.88	18897.39
457.24	19815.91
457.61	20951.28
457.97	22017.68
458.33	23113.84
458.70	24182.23
459.06	25171.41
459.42	26182.00
459.79	27093.88
460.15	28142.53
460.51	29097.77
460.88	30171.57
461.24	31112.13
461.60	32258.11
461.96	33288.08
462.33	34302.91
462.69	35302.98
463.05	36408.60
463.42	37373.70
463.78	38277.21
464.14	39021.72
464.50	39798.68
464.87	40337.00
465.23	40697.09
465.59	41103.41
465.95	41448.57
466.32	41668.70
466.68	41917.54
467.04	42076.65
467.40	42097.16
467.77	42196.91
468.13	42129.69
468.49	41971.82
468.85	41854.86
469.22	41709.59
469.58	41443.70
469.94	41287.94
470.30	41040.54
470.66	40681.83
471.03	40202.45
471.39	39845.96
471.75	39117.44
472.11	38428.39
472.47	37946.75
472.84	37407.99
473.20	36693.14
473.56	36297.89
473.92	35720.11
474.28	35081.82
474.65	34436.54
475.01	33766.49
475.37	32957.43
475.73	32290.92
476.09	31592.36
476.45	30959.67
476.81	30427.69
477.18	29880.52
477.54	29404.64
477.90	28967.31
478.26	28402.92
478.62	27882.76
478.98	27454.27
479.34	27000.98
479.71	26443.21
480.07	26018.33
480.43	25574.64
480.79	25092.46
481.15	24656.16
481.51	24277.02
481.87	23963.25
482.23	23597.28
482.59	23276.30
482.96	22947.95
483.32	22653.06
483.68	22255.31
484.04	21904.61
484.40	21485.51
484.76	21064.87
485.12	20615.25
485.48	20179.75
485.84	19697.43
486.20	19284.66
486.56	18843.44
486.92	18456.18
487.28	18067.93
487.64	17669.34
488.00	17283.64
488.37	16909.11
488.73	16494.36
489.09	16045.17
489.45	15645.59
489.81	15212.57
490.17	14789.63
490.53	14389.96
490.89	14003.85
491.25	13586.69
491.61	13186.02
491.97	12785.46
492.33	12375.56
492.69	12008.89
493.05	11673.07
493.41	11354.48
493.77	11030.78
494.13	10735.10
494.49	10443.00
494.85	10158.79
495.21	9882.40
495.57	9641.06
495.93	9383.84
496.29	9133.10
496.64	8907.49
497.00	8667.94
497.36	8397.87
497.72	8159.53
498.08	7939.10
498.44	7709.56
498.80	7503.94
499.16	7322.04
499.52	7130.37
499.88	6943.92
500.24	6774.31
500.60	6600.05
500.96	6439.68
501.32	6271.65
501.68	6109.87
502.03	5937.12
502.39	5785.62
502.75	5619.02
503.11	5472.99
503.47	5334.15
503.83	5208.39
504.19	5070.02
504.55	4956.11
504.91	4838.94
505.26	4726.99
505.62	4608.96
505.98	4500.19
506.34	4383.05
506.70	4269.79
507.06	4154.33
507.42	4051.26
507.78	3957.28
508.13	3866.78
508.49	3790.08
508.85	3715.20
509.21	3636.47
509.57	3556.54
509.93	3468.84
510.28	3376.57
510.64	3294.68
511.00	3216.53
511.36	3141.02
511.72	3078.41
512.07	3024.74
512.43	2961.41
512.79	2900.91
513.15	2844.24
513.51	2786.69
513.86	2723.26
514.22	2673.73
514.58	2623.20
514.94	2575.20
515.30	2528.57
515.65	2484.22
516.01	2439.80
516.37	2398.79
516.73	2358.51
517.08	2324.55
517.44	2288.29
517.80	2248.51
518.16	2211.88
518.51	2180.21
518.87	2143.58
519.23	2115.31
519.59	2088.11
519.94	2060.40
520.30	2028.33
520.66	1996.45
521.01	1965.89
521.37	1937.94
521.73	1912.08
522.09	1886.94
522.44	1867.89
522.80	1844.48
523.16	1821.38
523.51	1796.22
523.87	1775.39
524.23	1753.58
524.58	1734.06
524.94	1714.98
525.30	1695.74
525.65	1680.20
526.01	1664.57
526.37	1644.02
526.72	1629.08
527.08	1611.86
527.44	1595.00
527.79	1573.80
528.15	1560.51
528.51	1540.73
528.86	1529.00
529.22	1512.99
529.58	1501.71
529.93	1488.96
530.29	1478.10
530.65	1464.71
531.00	1451.90
531.36	1442.12
531.71	1426.91
532.07	1418.95
532.43	1410.03
532.78	1400.27
533.14	1390.33
533.49	1379.86
533.85	1369.26
534.21	1358.35
534.56	1348.13
534.92	1341.57
535.27	1342.53
535.63	1334.46
535.98	1326.78
536.34	1321.21
536.69	1311.26
537.05	1302.72
537.41	1295.04
537.76	1288.16
538.12	1280.69
538.47	1273.37
538.83	1268.15
539.18	1263.68
539.54	1258.48
539.89	1256.47
540.25	1252.21
540.60	1246.38
540.96	1242.64
541.31	1240.67
541.67	1235.12
542.02	1232.01
542.38	1228.50
542.73	1224.92
543.09	1219.58
543.44	1216.52
543.80	1211.39
544.15	1205.19
544.51	1199.71
544.86	1199.88
545.22	1198.92
545.57	1197.46
545.93	1196.20
546.28	1194.42
546.64	1189.65
546.99	1184.78
547.35	1182.27
547.70	1181.50
548.05	1181.20
548.41	1178.69
548.76	1177.20
549.12	1172.80
549.47	1169.82
549.83	1165.03
550.18	1161.26
550.53	1159.95
550.89	1161.05
551.24	1159.85
551.60	1159.45
551.95	1159.57
552.30	1154.45
552.66	1153.21
553.01	1147.94
553.37	1144.55
553.72	1141.06
554.07	1143.09
554.43	1140.57
554.78	1142.11
555.13	1140.33
555.49	1139.05
555.84	1136.00
556.19	1132.70
556.55	1129.66
556.90	1128.07
557.26	1129.80
557.61	1128.56
557.96	1127.01
558.32	1122.73
558.67	1122.92
559.02	1121.35
559.37	1119.97
559.73	1122.36
560.08	1125.03
560.43	1125.75
560.79	1124.04
561.14	1124.07
561.49	1123.11
561.85	1122.47
562.20	1121.09
562.55	1116.34
562.90	1115.85
563.26	1114.26
563.61	1112.43
563.96	1111.92
564.32	1119.29
564.67	1117.54
565.02	1117.70
565.37	1118.85
565.73	1117.56
566.08	1111.78
566.43	1109.93
566.78	1108.29
567.14	1106.09
567.49	1105.46
567.84	1105.65
568.19	1106.30
568.54	1104.38
568.90	1101.78
569.25	1100.17
569.60	1102.23
569.95	1103.26
570.31	1104.31
570.66	1105.62
571.01	1105.95
571.36	1102.30
571.71	1099.58
572.06	1102.49
572.42	1103.63
572.77	1106.21
573.12	1108.74
573.47	1113.81
573.82	1109.95
574.18	1110.16
574.53	1108.50
574.88	1105.72
575.23	1099.96
575.58	1099.33
575.93	1097.10
576.28	1095.96
576.64	1095.16
576.99	1094.74
577.34	1094.04
577.69	1094.72
578.04	1094.29
578.39	1097.03
578.74	1101.50
579.09	1102.09
579.44	1101.88
579.80	1101.71
580.15	1097.43
580.50	1089.87
580.85	1090.41
581.20	1090.53
581.55	1090.13
581.90	1093.45
582.25	1096.96
582.60	1094.93
582.95	1093.08
583.30	1091.67
583.65	1088.79
584.00	1087.65
584.35	1086.43
584.71	1087.51
585.06	1085.66
585.41	1085.47
585.76	1087.18
586.11	1087.32
586.46	1086.48
586.81	1089.00
587.16	1089.54
587.51	1091.51
587.86	1092.91
588.21	1090.46
588.56	1091.58
588.91	1091.13
589.26	1085.91
589.61	1085.91
589.96	1087.02
590.31	1086.76
590.66	1089.00
591.01	1091.46
591.36	1088.84
591.71	1091.56
592.06	1090.41
592.41	1089.00
592.76	1091.25
593.10	1095.00
593.45	1092.66
593.80	1092.61
594.15	1092.98
594.50	1088.35
594.85	1085.77
595.20	1087.09
595.55	1088.42
595.90	1088.35
596.25	1092.16
596.60	1093.90
596.95	1092.14
597.30	1091.46
597.64	1102.39
597.99	1101.15
598.34	1101.13
598.69	1100.08
599.04	1100.85
599.39	1089.61
599.74	1090.06
600.09	1085.75
600.44	1088.04
600.78	1086.97
601.13	1083.97
601.48	1082.64
601.83	1088.23
602.18	1089.22
602.53	1089.66
602.88	1091.46
603.22	1090.50
603.57	1088.54
603.92	1086.80
604.27	1085.21
604.62	1084.79
604.97	1089.96
605.31	1090.76
605.66	1091.39
606.01	1092.73
606.36	1092.87
606.71	1086.62
607.05	1084.46
607.40	1084.02
607.75	1085.31
608.10	1087.41
608.44	1091.63
608.79	1090.81
609.14	1090.95
609.49	1087.97
609.84	1084.56
610.18	1081.80
610.53	1082.66
610.88	1084.14
611.23	1087.06
611.57	1091.18
611.92	1092.16
612.27	1092.63
612.62	1091.09
612.96	1086.94
613.31	1085.66
613.66	1082.71
614.00	1083.25
614.35	1082.43
614.70	1085.00
615.05	1084.79
615.39	1088.58
615.74	1090.22
616.09	1090.32
616.43	1093.31
616.78	1092.30
617.13	1090.90
617.47	1085.35
617.82	1085.47
618.17	1080.58
618.51	1082.69
618.86	1084.46
619.21	1087.02
619.55	1088.49
619.90	1087.06
620.25	1084.30
620.59	1081.23
620.94	1083.60
621.29	1081.54
621.63	1084.53
621.98	1084.39
622.32	1085.70
622.67	1081.68
623.02	1081.98
623.36	1082.64
623.71	1082.50
624.05	1081.02
624.40	1084.37
624.75	1084.32
625.09	1084.04
625.44	1086.45
625.78	1088.42
626.13	1087.69
626.48	1089.22
626.82	1087.88
627.17	1087.13
627.51	1085.87
627.86	1086.03
628.20	1086.17
628.55	1087.53
628.89	1086.73
629.24	1086.92
629.58	1085.28
629.93	1084.72
630.28	1082.94
630.62	1082.69
630.97	1083.83
631.31	1084.84
631.66	1085.35
632.00	1086.71
632.35	1087.65
632.69	1087.88
633.04	1089.43
633.38	1089.73
633.73	1087.27
634.07	1083.53
634.42	1084.09
634.76	1081.73
635.11	1081.05
635.45	1082.78
635.79	1086.27
636.14	1085.70
636.48	1086.48
636.83	1086.03
637.17	1087.90
637.52	1087.04
637.86	1085.45
638.21	1085.40
638.55	1087.83
638.89	1082.92
639.24	1086.15
639.58	1085.03
639.93	1085.42
640.27	1082.73
640.61	1087.04
640.96	1083.43
641.30	1084.77
641.65	1086.17
641.99	1085.52
642.33	1081.87
642.68	1083.97
643.02	1083.90
643.37	1080.30
643.71	1080.13
644.05	1081.94
644.40	1080.56
644.74	1081.75
645.08	1084.49
645.43	1084.81
645.77	1087.04
646.11	1088.86
646.46	1088.51
646.80	1087.86
647.14	1090.36
647.49	1090.22
647.83	1087.97
648.17	1086.59
648.52	1085.42
648.86	1082.47
649.20	1080.58
649.55	1081.05
649.89	1080.60
650.23	1081.16
650.57	1082.50
650.92	1082.83
651.26	1082.85
651.60	1082.97
651.95	1083.22
652.29	1081.68
652.63	1078.66
652.97	1076.74
653.32	1078.45
653.66	1076.08
654.00	1076.72
654.34	1080.02
654.69	1081.16
655.03	1079.41
655.37	1080.48
655.71	1082.71
656.05	1081.51
656.40	1081.42
656.74	1084.30
657.08	1083.83
657.42	1081.42
657.76	1081.14
658.11	1082.05
658.45	1079.36
658.79	1082.22
659.13	1082.59
659.47	1086.71
659.82	1083.71
660.16	1086.10
660.50	1083.39
660.84	1082.03
661.18	1080.37
661.52	1081.70
661.87	1077.98
662.21	1075.15
662.55	1074.80
662.89	1072.41
663.23	1073.63
663.57	1077.54
663.91	1081.82
664.25	1085.63
664.60	1089.61
664.94	1088.79
665.28	1088.96
665.62	1089.50
665.96	1088.12
666.30	1085.10
666.64	1087.44
666.98	1087.72
667.32	1086.64
667.66	1082.90
668.01	1080.13
668.35	1080.09
668.69	1076.11
669.03	1077.91
669.37	1081.56
669.71	1086.83
670.05	1084.09
670.39	1083.39
670.73	1082.08
671.07	1082.71
671.41	1079.27
671.75	1078.61
672.09	1082.05
672.43	1080.86
672.77	1078.64
673.11	1077.75
673.45	1083.08
673.79	1082.71
674.13	1083.15
674.47	1082.97
674.81	1085.47
675.15	1079.85
675.49	1077.72
675.83	1076.51
676.17	1075.41
676.51	1075.83
676.85	1078.66
677.19	1080.58
677.53	1083.50
677.87	1084.91
678.21	1083.53
678.55	1081.82
678.89	1083.60
679.23	1080.32
679.57	1079.60
679.90	1079.48
680.24	1077.14
680.58	1075.76
680.92	1078.40
681.26	1081.63
681.60	1084.89
681.94	1087.51
682.28	1087.34
682.62	1085.73
682.96	1085.54
683.29	1083.83
683.63	1085.77
683.97	1085.66
684.31	1089.33
684.65	1086.01
684.99	1084.42
685.33	1081.96
685.67	1082.26
686.00	1080.41
686.34	1083.74
686.68	1085.07
687.02	1086.92
687.36	1086.08
687.70	1084.02
688.03	1082.01
688.37	1080.48
688.71	1078.59
689.05	1079.55
689.39	1081.42
689.72	1083.88
690.06	1084.39
690.40	1083.48
690.74	1081.16
691.08	1083.67
691.41	1080.91
691.75	1081.44
692.09	1083.97
692.43	1083.53
692.76	1078.85
693.10	1081.28
693.44	1084.28
693.78	1080.09
694.11	1083.22
694.45	1083.50
694.79	1082.08
695.13	1076.41
695.46	1077.70
695.80	1077.89
696.14	1079.57
696.48	1081.14
696.81	1085.70
697.15	1088.35
697.49	1084.67
697.82	1084.25
698.16	1080.34
698.50	1077.49
698.83	1075.76
699.17	1076.13
699.51	1078.73
699.84	1082.90
700.18	1082.78
700.52	1083.97
700.85	1084.67
701.19	1082.83
701.53	1080.70
701.86	1080.88
702.20	1082.80
702.54	1080.06
702.87	1078.78
703.21	1076.79
703.55	1078.89
703.88	1077.33
704.22	1079.92
704.55	1082.12
704.89	1081.51
705.23	1079.46
705.56	1077.33
705.90	1077.00
706.23	1072.92
706.57	1076.13
706.91	1075.48
707.24	1074.94
707.58	1073.77
707.91	1075.27
708.25	1072.22
708.58	1073.23
708.92	1076.69
709.26	1076.58
709.59	1078.10
709.93	1080.11
710.26	1081.87
710.60	1080.63
710.93	1083.13
711.27	1082.26
711.60	1081.68
711.94	1081.16
712.27	1081.21
712.61	1082.36
712.94	1080.88
713.28	1081.84
713.61	1081.47
713.95	1082.01
714.28	1082.36
714.62	1085.87
714.95	1087.13
715.29	1088.77
715.62	1088.23
715.96	1083.90
716.29	1083.22
716.63	1082.87
716.96	1079.31
717.29	1080.86
717.63	1083.46
717.96	1085.10
718.30	1083.27
718.63	1085.03
718.97	1082.99
719.30	1083.74
719.63	1083.50
719.97	1085.21
720.30	1087.79
720.64	1087.81
720.97	1086.92
721.30	1083.95
721.64	1081.66
721.97	1076.65
722.31	1078.12
722.64	1076.62
722.97	1078.33
723.31	1076.11
723.64	1077.44
723.97	1074.98
724.31	1074.31
724.64	1073.67
724.98	1077.58
725.31	1076.48
725.64	1077.23
725.98	1078.59
726.31	1078.17
726.64	1078.38
726.97	1081.19
727.31	1081.44
727.64	1084.00
727.97	1084.09
728.31	1083.57
728.64	1081.89
728.97	1082.47
729.31	1080.46
729.64	1080.77
729.97	1082.43
730.30	1081.56
730.64	1080.79
730.97	1082.47
731.30	1085.21
731.63	1084.11
731.97	1086.31
732.30	1086.92
732.63	1083.39
732.96	1081.58
733.30	1081.56
733.63	1080.39
733.96	1080.18
734.29	1083.60
734.63	1081.56
734.96	1078.33
735.29	1078.96
735.62	1078.73
735.95	1076.15
736.29	1077.33
736.62	1078.78
736.95	1078.75
737.28	1077.77
737.61	1079.95
737.94	1077.42
738.28	1077.18
738.61	1078.45
738.94	1080.13
739.27	1080.95
739.60	1083.29
739.93	1082.90
740.27	1078.00
740.60	1077.49
740.93	1074.75
741.26	1077.82
741.59	1079.27
741.92	1080.79
742.25	1079.81
742.58	1079.74
742.91	1075.29
743.25	1075.94
743.58	1076.20
743.91	1076.48
744.24	1075.71
744.57	1078.07
744.90	1079.36
745.23	1082.45
745.56	1084.25
745.89	1083.08
746.22	1080.67
746.55	1078.14
746.88	1074.94
747.21	1074.52
747.54	1077.02
747.87	1079.20
748.20	1081.80
748.53	1084.30
748.87	1083.57
749.20	1081.61
749.53	1081.14
749.86	1078.52
750.19	1077.21
750.52	1076.20
750.85	1078.57
751.18	1077.21
751.51	1077.58
751.84	1078.12
752.16	1078.21
752.49	1076.01
752.82	1078.52
753.15	1080.02
753.48	1080.46
753.81	1080.20
754.14	1082.08
754.47	1078.61
754.80	1075.92
755.13	1075.43
755.46	1076.88
755.79	1078.89
756.12	1082.94
756.45	1086.24
756.78	1085.82
757.11	1086.31
757.43	1084.63
757.76	1080.86
758.09	1081.12
758.42	1078.59
758.75	1077.04
759.08	1077.96
759.41	1080.98
759.74	1076.74
760.07	1081.14
760.39	1081.63
760.72	1079.24
761.05	1079.20
761.38	1082.31
761.71	1079.99
762.04	1080.79
762.36	1084.72
762.69	1082.64
763.02	1082.50
763.35	1083.15
763.68	1081.14
