SpectraSuite Data File
++++++++++++++++++++++++++++++++++++
Date: Mon Aug 26 10:21:58 PDT 2019
User: corrico
Dark Spectrum Present: No
Reference Spectrum Present: No
Number of Sampled Component Spectra: 1
Spectrometers: USB2+H06089
Integration Time (usec): 2000 (USB2+H06089)
Spectra Averaged: 20 (USB2+H06089)
Boxcar Smoothing: 2 (USB2+H06089)
Correct for Electrical Dark: No (USB2+H06089)
Strobe/Lamp Enabled: No (USB2+H06089)
Correct for Detector Non-linearity: No (USB2+H06089)
Correct for Stray Light: No (USB2+H06089)
Number of Pixels in Processed Spectrum: 2048
>>>>>Begin Processed Spectral Data<<<<<
339.70	1017.66
340.07	1017.66
340.45	984.97
340.82	965.05
341.19	941.90
341.57	916.44
341.94	908.43
342.31	900.92
342.69	894.13
343.06	892.35
343.43	891.37
343.81	890.60
344.18	893.43
344.55	901.43
344.93	908.99
345.30	918.47
345.67	926.71
346.04	934.04
346.42	938.51
346.79	946.98
347.16	956.62
347.54	964.60
347.91	973.03
348.28	985.88
348.65	994.56
349.03	1002.26
349.40	1013.87
349.77	1022.32
350.14	1025.67
350.52	1031.61
350.89	1037.35
351.26	1038.36
351.63	1042.80
352.01	1049.57
352.38	1051.95
352.75	1057.81
353.12	1064.03
353.50	1068.57
353.87	1073.04
354.24	1080.18
354.61	1081.66
354.98	1084.30
355.36	1090.95
355.73	1086.80
356.10	1085.19
356.47	1084.11
356.84	1083.95
357.22	1077.28
357.59	1081.94
357.96	1082.08
358.33	1085.52
358.70	1083.15
359.08	1085.77
359.45	1087.18
359.82	1085.40
360.19	1082.05
360.56	1083.81
360.94	1081.14
361.31	1077.89
361.68	1075.87
362.05	1075.59
362.42	1074.68
362.79	1076.65
363.16	1070.54
363.54	1069.20
363.91	1067.40
364.28	1067.75
364.65	1063.49
365.02	1068.90
365.39	1072.34
365.76	1072.55
366.14	1068.52
366.51	1070.35
366.88	1068.10
367.25	1064.76
367.62	1066.56
367.99	1066.91
368.36	1065.62
368.73	1065.58
369.10	1068.83
369.48	1064.87
369.85	1065.93
370.22	1068.06
370.59	1070.89
370.96	1068.57
371.33	1071.59
371.70	1073.46
372.07	1074.10
372.44	1072.50
372.81	1073.53
373.18	1072.71
373.55	1074.42
373.93	1074.26
374.30	1074.87
374.67	1075.90
375.04	1073.79
375.41	1070.12
375.78	1069.16
376.15	1071.92
376.52	1069.93
376.89	1074.66
377.26	1076.08
377.63	1076.55
378.00	1073.63
378.37	1075.73
378.74	1071.24
379.11	1069.30
379.48	1072.48
379.85	1072.46
380.22	1071.12
380.59	1070.30
380.96	1070.42
381.33	1068.59
381.70	1069.32
382.07	1069.53
382.44	1073.02
382.81	1078.05
383.18	1074.84
383.55	1076.58
383.92	1074.56
384.29	1074.59
384.66	1071.82
385.03	1073.53
385.40	1075.36
385.77	1079.20
386.14	1077.14
386.51	1077.75
386.88	1079.24
387.25	1077.72
387.62	1076.18
387.99	1076.95
388.36	1075.20
388.73	1075.01
389.10	1071.22
389.46	1073.98
389.83	1075.36
390.20	1078.26
390.57	1076.81
390.94	1076.95
391.31	1072.88
391.68	1074.70
392.05	1071.38
392.42	1074.84
392.79	1075.41
393.16	1078.36
393.53	1077.47
393.89	1080.30
394.26	1079.48
394.63	1081.96
395.00	1081.07
395.37	1084.72
395.74	1085.26
396.11	1082.97
396.48	1082.85
396.84	1084.37
397.21	1084.14
397.58	1082.78
397.95	1083.86
398.32	1083.43
398.69	1081.19
399.06	1080.44
399.42	1081.84
399.79	1084.91
400.16	1084.98
400.53	1087.23
400.90	1087.44
401.27	1087.74
401.64	1083.76
402.00	1083.95
402.37	1083.01
402.74	1082.99
403.11	1085.07
403.48	1085.80
403.84	1086.92
404.21	1085.96
404.58	1083.46
404.95	1082.05
405.32	1085.03
405.68	1082.71
406.05	1084.72
406.42	1086.43
406.79	1083.32
407.16	1083.29
407.52	1087.02
407.89	1091.06
408.26	1088.72
408.63	1092.63
408.99	1092.80
409.36	1089.57
409.73	1082.29
410.10	1085.19
410.47	1083.34
410.83	1079.48
411.20	1077.93
411.57	1081.56
411.94	1078.85
412.30	1080.88
412.67	1083.13
413.04	1084.60
413.40	1086.29
413.77	1087.76
414.14	1085.70
414.51	1085.89
414.87	1088.70
415.24	1086.92
415.61	1087.76
415.97	1086.90
416.34	1087.11
416.71	1086.20
417.08	1086.92
417.44	1085.61
417.81	1088.65
418.18	1091.93
418.54	1096.00
418.91	1097.95
419.28	1099.77
419.64	1098.98
420.01	1095.82
420.38	1094.90
420.74	1092.49
421.11	1092.00
421.48	1094.36
421.84	1096.12
422.21	1094.88
422.58	1100.33
422.94	1104.43
423.31	1106.46
423.68	1107.75
424.04	1110.56
424.41	1108.41
424.77	1109.34
425.14	1109.84
425.51	1111.71
425.87	1115.92
426.24	1120.91
426.61	1124.00
426.97	1128.56
427.34	1133.87
427.70	1138.30
428.07	1142.95
428.44	1148.66
428.80	1153.93
429.17	1155.57
429.53	1159.01
429.90	1164.44
430.27	1171.27
430.63	1176.28
431.00	1186.79
431.36	1192.95
431.73	1199.38
432.09	1206.52
432.46	1214.83
432.83	1224.29
433.19	1239.55
433.56	1253.40
433.92	1266.02
434.29	1280.65
434.65	1295.28
435.02	1310.14
435.38	1327.79
435.75	1345.32
436.11	1367.06
436.48	1388.76
436.84	1407.29
437.21	1425.34
437.57	1445.70
437.94	1468.90
438.30	1495.27
438.67	1526.22
439.03	1556.78
439.40	1592.73
439.76	1628.76
440.13	1667.70
440.49	1713.65
440.86	1761.98
441.22	1813.05
441.59	1861.55
441.95	1915.14
442.32	1963.92
442.68	2024.33
443.05	2082.33
443.41	2148.68
443.78	2211.71
444.14	2284.74
444.51	2354.95
444.87	2437.86
445.24	2519.66
445.60	2611.29
445.96	2701.03
446.33	2805.27
446.69	2900.98
447.06	3006.86
447.42	3116.00
447.79	3235.58
448.15	3369.04
448.51	3506.29
448.88	3663.71
449.24	3817.09
449.61	3996.68
449.97	4174.18
450.33	4368.14
450.70	4546.30
451.06	4764.46
451.43	4961.47
451.79	5190.65
452.15	5434.75
452.52	5700.23
452.88	5961.32
453.24	6273.38
453.61	6595.82
453.97	6926.46
454.34	7265.40
454.70	7644.12
455.06	8001.19
455.43	8359.55
455.79	8699.70
456.15	9085.19
456.52	9467.79
456.88	9937.47
457.24	10417.94
457.61	10994.74
457.97	11533.01
458.33	12092.26
458.70	12633.60
459.06	13129.84
459.42	13640.10
459.79	14138.01
460.15	14699.85
460.51	15177.41
460.88	15731.56
461.24	16213.76
461.60	16751.17
461.96	17197.13
462.33	17654.17
462.69	18093.96
463.05	18632.51
463.42	19134.89
463.78	19560.98
464.14	19966.64
464.50	20377.15
464.87	20684.27
465.23	20868.22
465.59	21136.25
465.95	21344.09
466.32	21480.22
466.68	21563.31
467.04	21652.04
467.40	21676.01
467.77	21714.98
468.13	21690.19
468.49	21573.23
468.85	21455.67
469.22	21346.29
469.58	21197.72
469.94	21076.13
470.30	20927.27
470.66	20732.04
471.03	20430.02
471.39	20166.15
471.75	19747.12
472.11	19368.71
472.47	19067.46
472.84	18747.20
473.20	18388.14
473.56	18145.85
473.92	17781.54
474.28	17393.67
474.65	17071.10
475.01	16722.85
475.37	16349.37
475.73	16093.69
476.09	15813.92
476.45	15542.56
476.81	15288.64
477.18	15029.28
477.54	14807.49
477.90	14613.93
478.26	14375.66
478.62	14188.37
478.98	14043.17
479.34	13911.25
479.71	13719.94
480.07	13513.86
480.43	13281.42
480.79	12998.40
481.15	12701.39
481.51	12482.97
481.87	12312.93
482.23	12112.25
482.59	11931.98
482.96	11757.80
483.32	11570.74
483.68	11358.20
484.04	11168.54
484.40	10998.55
484.76	10815.40
485.12	10634.72
485.48	10477.41
485.84	10312.03
486.20	10127.83
486.56	9930.85
486.92	9723.76
487.28	9503.72
487.64	9290.01
488.00	9094.85
488.37	8901.74
488.73	8695.25
489.09	8494.67
489.45	8306.58
489.81	8103.05
490.17	7884.42
490.53	7680.02
490.89	7460.43
491.25	7230.94
491.61	7011.78
491.97	6814.10
492.33	6632.70
492.69	6454.64
493.05	6306.88
493.41	6166.52
493.77	6020.72
494.13	5871.05
494.49	5747.19
494.85	5614.87
495.21	5481.98
495.57	5373.12
495.93	5249.92
496.29	5117.91
496.64	4986.07
497.00	4852.21
497.36	4731.70
497.72	4623.68
498.08	4524.12
498.44	4422.40
498.80	4334.86
499.16	4221.65
499.52	4108.51
499.88	3994.08
500.24	3881.97
500.60	3771.96
500.96	3680.49
501.32	3602.34
501.68	3530.82
502.03	3465.61
502.39	3407.68
502.75	3346.22
503.11	3281.88
503.47	3219.57
503.83	3156.33
504.19	3086.91
504.55	3026.27
504.91	2966.75
505.26	2912.40
505.62	2859.78
505.98	2804.76
506.34	2748.30
506.70	2691.97
507.06	2632.00
507.42	2571.71
507.78	2522.02
508.13	2472.19
508.49	2425.08
508.85	2384.42
509.21	2347.74
509.57	2309.83
509.93	2277.65
510.28	2241.60
510.64	2203.97
511.00	2168.88
511.36	2127.99
511.72	2084.81
512.07	2051.06
512.43	2019.16
512.79	1985.01
513.15	1960.85
513.51	1934.45
513.86	1907.30
514.22	1883.48
514.58	1862.13
514.94	1832.97
515.30	1810.03
515.65	1785.52
516.01	1761.72
516.37	1733.94
516.73	1716.08
517.08	1694.55
517.44	1675.85
517.80	1658.15
518.16	1643.27
518.51	1625.27
518.87	1613.12
519.23	1599.62
519.59	1584.10
519.94	1569.66
520.30	1559.05
520.66	1541.66
521.01	1525.42
521.37	1512.99
521.73	1498.01
522.09	1484.18
522.44	1472.64
522.80	1462.69
523.16	1451.06
523.51	1440.06
523.87	1428.27
524.23	1414.71
524.58	1400.06
524.94	1389.58
525.30	1379.23
525.65	1369.99
526.01	1361.93
526.37	1354.70
526.72	1345.74
527.08	1338.22
527.44	1328.89
527.79	1321.26
528.15	1313.88
528.51	1306.37
528.86	1300.19
529.22	1293.47
529.58	1288.16
529.93	1287.46
530.29	1280.81
530.65	1274.82
531.00	1269.20
531.36	1264.17
531.71	1254.32
532.07	1249.64
532.43	1243.88
532.78	1240.93
533.14	1235.10
533.49	1231.40
533.85	1225.57
534.21	1221.29
534.56	1215.37
534.92	1209.96
535.27	1204.14
535.63	1199.45
535.98	1192.53
536.34	1188.27
536.69	1185.13
537.05	1183.82
537.41	1181.46
537.76	1181.76
538.12	1177.85
538.47	1177.92
538.83	1175.14
539.18	1173.22
539.54	1170.81
539.89	1171.20
540.25	1166.87
540.60	1163.74
540.96	1160.70
541.31	1157.32
541.67	1153.30
542.02	1151.26
542.38	1151.36
542.73	1150.37
543.09	1148.55
543.44	1148.73
543.80	1147.00
544.15	1142.79
544.51	1140.03
544.86	1136.77
545.22	1131.60
545.57	1127.55
545.93	1127.32
546.28	1126.78
546.64	1125.96
546.99	1125.84
547.35	1127.55
547.70	1124.28
548.05	1121.91
548.41	1120.51
548.76	1122.38
549.12	1119.81
549.47	1121.91
549.83	1122.22
550.18	1119.78
550.53	1117.77
550.89	1116.34
551.24	1112.04
551.60	1110.89
551.95	1113.42
552.30	1109.93
552.66	1110.65
553.01	1116.72
553.37	1116.79
553.72	1117.47
554.07	1117.72
554.43	1115.38
554.78	1111.99
555.13	1109.67
555.49	1108.85
555.84	1108.13
556.19	1107.49
556.55	1103.42
556.90	1100.80
557.26	1099.26
557.61	1098.25
557.96	1099.19
558.32	1100.61
558.67	1102.35
559.02	1100.66
559.37	1101.11
559.73	1099.98
560.08	1097.29
560.43	1097.08
560.79	1098.88
561.14	1097.17
561.49	1096.05
561.85	1095.98
562.20	1098.09
562.55	1093.19
562.90	1094.18
563.26	1092.96
563.61	1092.52
563.96	1089.71
564.32	1091.65
564.67	1091.98
565.02	1097.08
565.37	1097.71
565.73	1099.12
566.08	1097.38
566.43	1096.26
566.78	1094.41
567.14	1093.43
567.49	1091.04
567.84	1092.37
568.19	1090.83
568.54	1088.82
568.90	1093.97
569.25	1093.55
569.60	1097.97
569.95	1097.69
570.31	1099.05
570.66	1093.85
571.01	1094.76
571.36	1089.54
571.71	1087.67
572.06	1086.48
572.42	1085.89
572.77	1086.97
573.12	1085.96
573.47	1090.36
573.82	1092.80
574.18	1092.61
574.53	1089.82
574.88	1091.37
575.23	1088.19
575.58	1083.88
575.93	1084.04
576.28	1085.33
576.64	1084.35
576.99	1083.53
577.34	1084.28
577.69	1087.02
578.04	1088.21
578.39	1087.41
578.74	1091.27
579.09	1091.42
579.44	1088.12
579.80	1087.18
580.15	1086.59
580.50	1085.26
580.85	1087.27
581.20	1086.45
581.55	1086.55
581.90	1088.82
582.25	1085.73
582.60	1082.90
582.95	1083.71
583.30	1080.70
583.65	1080.27
584.00	1082.90
584.35	1084.93
584.71	1087.79
585.06	1089.24
585.41	1086.92
585.76	1083.74
586.11	1080.79
586.46	1076.65
586.81	1077.02
587.16	1079.13
587.51	1078.57
587.86	1080.37
588.21	1084.32
588.56	1082.99
588.91	1081.47
589.26	1087.48
589.61	1086.55
589.96	1085.80
590.31	1087.79
590.66	1086.59
591.01	1084.35
591.36	1085.28
591.71	1086.50
592.06	1085.56
592.41	1086.59
592.76	1084.09
593.10	1081.82
593.45	1083.04
593.80	1081.44
594.15	1082.69
594.50	1083.22
594.85	1083.41
595.20	1077.65
595.55	1076.53
595.90	1076.86
596.25	1078.68
596.60	1081.23
596.95	1085.40
597.30	1086.31
597.64	1098.62
597.99	1096.70
598.34	1096.99
598.69	1094.13
599.04	1098.98
599.39	1084.14
599.74	1083.32
600.09	1081.61
600.44	1084.35
600.78	1083.32
601.13	1085.66
601.48	1087.95
601.83	1088.54
602.18	1087.41
602.53	1086.01
602.88	1085.54
603.22	1085.61
603.57	1084.11
603.92	1082.76
604.27	1079.85
604.62	1080.02
604.97	1081.23
605.31	1081.26
605.66	1080.18
606.01	1081.21
606.36	1081.80
606.71	1079.62
607.05	1082.08
607.40	1080.77
607.75	1081.54
608.10	1077.56
608.44	1076.30
608.79	1071.36
609.14	1071.61
609.49	1067.14
609.84	1071.61
610.18	1070.87
610.53	1072.85
610.88	1073.09
611.23	1073.60
611.57	1072.92
611.92	1075.66
612.27	1076.62
612.62	1078.82
612.96	1083.11
613.31	1080.98
613.66	1078.78
614.00	1076.08
614.35	1074.35
614.70	1070.61
615.05	1070.42
615.39	1073.35
615.74	1075.38
616.09	1076.01
616.43	1077.65
616.78	1080.41
617.13	1079.10
617.47	1078.80
617.82	1077.93
618.17	1082.15
618.51	1080.65
618.86	1079.62
619.21	1076.97
619.55	1077.72
619.90	1075.43
620.25	1075.38
620.59	1077.84
620.94	1081.28
621.29	1079.97
621.63	1079.62
621.98	1080.93
622.32	1079.69
622.67	1080.56
623.02	1083.39
623.36	1086.13
623.71	1083.79
624.05	1084.93
624.40	1084.65
624.75	1083.34
625.09	1082.61
625.44	1084.81
625.78	1083.95
626.13	1083.06
626.48	1084.51
626.82	1081.96
627.17	1079.78
627.51	1076.53
627.86	1078.85
628.20	1076.65
628.55	1077.65
628.89	1076.11
629.24	1077.89
629.58	1074.87
629.93	1078.85
630.28	1077.96
630.62	1078.85
630.97	1078.61
631.31	1079.31
631.66	1078.61
632.00	1079.27
632.35	1080.70
632.69	1080.63
633.04	1077.82
633.38	1075.71
633.73	1073.49
634.07	1074.21
634.42	1073.95
634.76	1077.89
635.11	1078.33
635.45	1082.52
635.79	1085.66
636.14	1083.90
636.48	1081.87
636.83	1082.50
637.17	1079.85
637.52	1076.04
637.86	1077.70
638.21	1078.03
638.55	1078.59
638.89	1082.59
639.24	1082.97
639.58	1082.92
639.93	1085.26
640.27	1080.27
640.61	1075.34
640.96	1075.64
641.30	1077.07
641.65	1075.64
641.99	1077.93
642.33	1079.64
642.68	1076.58
643.02	1077.33
643.37	1078.10
643.71	1080.58
644.05	1079.27
644.40	1081.84
644.74	1082.64
645.08	1083.27
645.43	1082.64
645.77	1082.17
646.11	1080.32
646.46	1079.38
646.80	1077.00
647.14	1074.26
647.49	1076.32
647.83	1078.96
648.17	1079.41
648.52	1079.74
648.86	1080.27
649.20	1081.00
649.55	1079.20
649.89	1075.10
650.23	1073.91
650.57	1073.86
650.92	1072.11
651.26	1074.07
651.60	1075.97
651.95	1076.86
652.29	1078.57
652.63	1078.21
652.97	1077.14
653.32	1078.14
653.66	1077.79
654.00	1076.08
654.34	1078.17
654.69	1077.93
655.03	1078.61
655.37	1079.31
655.71	1081.37
656.05	1080.77
656.40	1080.51
656.74	1081.35
657.08	1083.93
657.42	1083.34
657.76	1081.80
658.11	1084.32
658.45	1083.90
658.79	1080.70
659.13	1082.47
659.47	1083.67
659.82	1081.80
660.16	1080.46
660.50	1080.13
660.84	1082.29
661.18	1084.21
661.52	1084.91
661.87	1084.96
662.21	1087.60
662.55	1083.13
662.89	1077.61
663.23	1078.36
663.57	1079.38
663.91	1077.56
664.25	1077.07
664.60	1079.43
664.94	1076.32
665.28	1076.20
665.62	1076.51
665.96	1076.72
666.30	1078.24
666.64	1078.47
666.98	1076.69
667.32	1076.18
667.66	1077.51
668.01	1076.11
668.35	1076.90
668.69	1075.31
669.03	1077.68
669.37	1078.85
669.71	1078.66
670.05	1079.10
670.39	1082.61
670.73	1082.83
671.07	1080.25
671.41	1080.41
671.75	1081.82
672.09	1078.96
672.43	1076.34
672.77	1077.84
673.11	1079.15
673.45	1078.61
673.79	1080.74
674.13	1081.21
674.47	1076.23
674.81	1073.42
675.15	1073.67
675.49	1072.43
675.83	1074.38
676.17	1080.41
676.51	1084.32
676.85	1083.86
677.19	1085.28
677.53	1084.84
677.87	1082.78
678.21	1081.23
678.55	1082.36
678.89	1084.53
679.23	1083.32
679.57	1082.99
679.90	1080.27
680.24	1078.50
680.58	1075.80
680.92	1076.83
681.26	1078.64
681.60	1079.41
681.94	1080.86
682.28	1079.88
682.62	1075.85
682.96	1075.03
683.29	1076.62
683.63	1074.47
683.97	1076.74
684.31	1076.74
684.65	1075.50
684.99	1078.26
685.33	1078.43
685.67	1080.95
686.00	1084.89
686.34	1085.63
686.68	1084.25
687.02	1084.25
687.36	1080.13
687.70	1076.30
688.03	1074.07
688.37	1075.13
688.71	1073.91
689.05	1074.07
689.39	1078.82
689.72	1082.38
690.06	1076.72
690.40	1079.50
690.74	1080.09
691.08	1079.10
691.41	1080.27
691.75	1082.80
692.09	1079.48
692.43	1075.10
692.76	1076.58
693.10	1070.56
693.44	1072.34
693.78	1075.78
694.11	1079.53
694.45	1074.47
694.79	1075.97
695.13	1074.17
695.46	1073.58
695.80	1072.76
696.14	1072.57
696.48	1073.98
696.81	1074.59
697.15	1076.60
697.49	1076.88
697.82	1078.28
698.16	1078.19
698.50	1077.33
698.83	1074.33
699.17	1076.55
699.51	1079.50
699.84	1081.14
700.18	1076.72
700.52	1078.28
700.85	1076.90
701.19	1073.93
701.53	1072.48
701.86	1077.02
702.20	1073.77
702.54	1074.17
702.87	1076.06
703.21	1078.24
703.55	1076.55
703.88	1076.46
704.22	1073.44
704.55	1072.60
704.89	1072.88
705.23	1073.49
705.56	1076.04
705.90	1078.71
706.23	1077.72
706.57	1075.71
706.91	1074.91
707.24	1074.66
707.58	1074.42
707.91	1075.78
708.25	1074.03
708.58	1079.36
708.92	1078.59
709.26	1074.19
709.59	1075.83
709.93	1078.19
710.26	1073.25
710.60	1075.17
710.93	1077.47
711.27	1075.36
711.60	1075.24
711.94	1077.54
712.27	1073.28
712.61	1075.66
712.94	1075.99
713.28	1075.01
713.61	1074.91
713.95	1073.93
714.28	1072.60
714.62	1075.55
714.95	1075.71
715.29	1074.70
715.62	1078.47
715.96	1076.88
716.29	1072.36
716.63	1072.50
716.96	1074.49
717.29	1075.97
717.63	1075.48
717.96	1076.86
718.30	1074.73
718.63	1072.53
718.97	1072.39
719.30	1078.10
719.63	1078.57
719.97	1082.78
720.30	1081.19
720.64	1077.14
720.97	1075.17
721.30	1075.45
721.64	1072.92
721.97	1073.18
722.31	1075.83
722.64	1076.06
722.97	1070.89
723.31	1074.19
723.64	1075.41
723.97	1075.34
724.31	1074.94
724.64	1079.38
724.98	1073.88
725.31	1076.30
725.64	1079.15
725.98	1078.40
726.31	1077.91
726.64	1079.67
726.97	1080.23
727.31	1083.08
727.64	1082.26
727.97	1084.32
728.31	1083.55
728.64	1081.89
728.97	1075.99
729.31	1075.38
729.64	1074.19
729.97	1077.23
730.30	1076.62
730.64	1076.93
730.97	1077.79
731.30	1076.51
731.63	1073.91
731.97	1074.14
732.30	1072.18
732.63	1070.28
732.96	1075.08
733.30	1076.69
733.63	1078.57
733.96	1080.41
734.29	1082.29
734.63	1078.85
734.96	1080.41
735.29	1079.15
735.62	1081.35
735.95	1078.94
736.29	1079.29
736.62	1074.17
736.95	1074.28
737.28	1073.86
737.61	1073.98
737.94	1069.72
738.28	1074.91
738.61	1076.48
738.94	1074.70
739.27	1078.61
739.60	1082.83
739.93	1081.16
740.27	1078.61
740.60	1080.46
740.93	1080.86
741.26	1081.58
741.59	1083.64
741.92	1087.20
742.25	1085.40
742.58	1081.68
742.91	1082.03
743.25	1079.64
743.58	1077.42
743.91	1078.82
744.24	1078.85
744.57	1075.36
744.90	1073.88
745.23	1073.07
745.56	1073.51
745.89	1078.78
746.22	1078.50
746.55	1077.89
746.88	1076.25
747.21	1073.53
747.54	1072.27
747.87	1073.28
748.20	1075.71
748.53	1077.65
748.87	1078.57
749.20	1077.37
749.53	1077.86
749.86	1077.14
750.19	1074.70
750.52	1072.25
750.85	1073.11
751.18	1074.63
751.51	1074.12
751.84	1079.48
752.16	1082.71
752.49	1078.45
752.82	1076.88
753.15	1079.95
753.48	1073.51
753.81	1071.78
754.14	1074.98
754.47	1077.54
754.80	1077.14
755.13	1082.31
755.46	1082.12
755.79	1079.92
756.12	1079.48
756.45	1079.64
756.78	1075.73
757.11	1077.33
757.43	1078.96
757.76	1078.38
758.09	1076.76
758.42	1081.82
758.75	1081.56
759.08	1080.88
759.41	1081.96
759.74	1080.65
760.07	1079.24
760.39	1081.66
760.72	1082.54
761.05	1079.57
761.38	1078.57
761.71	1075.69
762.04	1075.20
762.36	1076.55
762.69	1076.08
763.02	1075.83
763.35	1077.56
763.68	1075.99
764.01	1075.52
764.33	1075.71
764.66	1076.20
