SpectraSuite Data File
++++++++++++++++++++++++++++++++++++
Date: Mon Aug 26 10:22:20 PDT 2019
User: corrico
Dark Spectrum Present: No
Reference Spectrum Present: No
Number of Sampled Component Spectra: 1
Spectrometers: USB2+H06089
Integration Time (usec): 2000 (USB2+H06089)
Spectra Averaged: 20 (USB2+H06089)
Boxcar Smoothing: 2 (USB2+H06089)
Correct for Electrical Dark: No (USB2+H06089)
Strobe/Lamp Enabled: No (USB2+H06089)
Correct for Detector Non-linearity: No (USB2+H06089)
Correct for Stray Light: No (USB2+H06089)
Number of Pixels in Processed Spectrum: 2048
>>>>>Begin Processed Spectral Data<<<<<
339.70	1032.53
340.07	1032.53
340.45	995.13
340.82	972.96
341.19	948.36
341.57	924.63
341.94	915.92
342.31	910.54
342.69	903.77
343.06	904.13
343.43	901.04
343.81	899.66
344.18	901.83
344.55	905.90
344.93	907.33
345.30	911.50
345.67	919.81
346.04	925.66
346.42	932.94
346.79	940.31
347.16	950.77
347.54	959.50
347.91	970.55
348.28	983.59
348.65	997.82
349.03	1007.18
349.40	1017.59
349.77	1026.72
350.14	1035.80
350.52	1038.64
350.89	1046.03
351.26	1051.44
351.63	1056.87
352.01	1059.72
352.38	1063.73
352.75	1066.04
353.12	1070.91
353.50	1075.50
353.87	1077.00
354.24	1083.06
354.61	1084.74
354.98	1082.12
355.36	1080.81
355.73	1081.70
356.10	1080.23
356.47	1083.43
356.84	1083.71
357.22	1082.24
357.59	1080.39
357.96	1078.99
358.33	1078.66
358.70	1077.49
359.08	1079.20
359.45	1082.43
359.82	1084.39
360.19	1082.38
360.56	1084.16
360.94	1084.77
361.31	1084.07
361.68	1081.91
362.05	1080.72
362.42	1078.10
362.79	1075.17
363.16	1073.98
363.54	1077.16
363.91	1075.62
364.28	1076.32
364.65	1075.64
365.02	1073.51
365.39	1071.40
365.76	1071.64
366.14	1071.26
366.51	1074.10
366.88	1076.01
367.25	1075.10
367.62	1076.53
367.99	1080.72
368.36	1078.82
368.73	1077.77
369.10	1074.87
369.48	1076.76
369.85	1071.92
370.22	1073.32
370.59	1072.06
370.96	1074.70
371.33	1074.98
371.70	1078.03
372.07	1077.11
372.44	1079.76
372.81	1080.18
373.18	1080.20
373.55	1080.23
373.93	1080.25
374.30	1082.61
374.67	1085.24
375.04	1082.50
375.41	1080.30
375.78	1081.40
376.15	1076.95
376.52	1074.82
376.89	1076.39
377.26	1080.44
377.63	1079.76
378.00	1081.68
378.37	1081.49
378.74	1081.63
379.11	1082.38
379.48	1082.80
379.85	1084.70
380.22	1085.77
380.59	1083.29
380.96	1078.57
381.33	1079.31
381.70	1078.31
382.07	1078.45
382.44	1080.77
382.81	1082.17
383.18	1083.48
383.55	1085.10
383.92	1082.54
384.29	1083.36
384.66	1085.19
385.03	1084.09
385.40	1083.08
385.77	1085.77
386.14	1082.99
386.51	1081.26
386.88	1078.92
387.25	1078.26
387.62	1079.85
387.99	1081.28
388.36	1079.64
388.73	1081.07
389.10	1080.25
389.46	1075.76
389.83	1077.65
390.20	1081.35
390.57	1080.18
390.94	1083.81
391.31	1087.27
391.68	1084.58
392.05	1084.89
392.42	1087.51
392.79	1084.44
393.16	1084.60
393.53	1087.97
393.89	1086.03
394.26	1088.77
394.63	1092.84
395.00	1092.59
395.37	1092.56
395.74	1096.05
396.11	1093.10
396.48	1090.39
396.84	1090.57
397.21	1089.40
397.58	1085.24
397.95	1087.27
398.32	1086.57
398.69	1086.80
399.06	1087.60
399.42	1089.89
399.79	1088.33
400.16	1088.23
400.53	1090.92
400.90	1089.19
401.27	1087.93
401.64	1088.44
402.00	1091.09
402.37	1088.42
402.74	1088.98
403.11	1093.17
403.48	1093.85
403.84	1090.76
404.21	1091.98
404.58	1095.02
404.95	1092.07
405.32	1093.40
405.68	1096.10
406.05	1094.43
406.42	1092.35
406.79	1092.05
407.16	1087.88
407.52	1090.32
407.89	1089.92
408.26	1092.82
408.63	1093.45
408.99	1096.19
409.36	1096.10
409.73	1100.38
410.10	1099.30
410.47	1099.33
410.83	1096.73
411.20	1091.91
411.57	1091.20
411.94	1092.28
412.30	1094.08
412.67	1099.54
413.04	1103.38
413.40	1106.89
413.77	1107.40
414.14	1105.93
414.51	1106.04
414.87	1107.94
415.24	1103.40
415.61	1100.50
415.97	1104.15
416.34	1102.88
416.71	1101.62
417.08	1101.32
417.44	1105.13
417.81	1102.53
418.18	1104.26
418.54	1106.46
418.91	1109.09
419.28	1109.02
419.64	1109.13
420.01	1112.06
420.38	1112.92
420.74	1115.92
421.11	1118.12
421.48	1121.28
421.84	1115.48
422.21	1114.63
422.58	1115.20
422.94	1116.25
423.31	1119.95
423.68	1127.18
424.04	1131.46
424.41	1133.05
424.77	1136.28
425.14	1138.09
425.51	1143.00
425.87	1149.13
426.24	1157.39
426.61	1161.16
426.97	1169.28
427.34	1174.20
427.70	1179.00
428.07	1181.24
428.44	1191.57
428.80	1196.81
429.17	1206.27
429.53	1211.20
429.90	1219.14
430.27	1226.42
430.63	1237.75
431.00	1245.73
431.36	1260.26
431.73	1271.59
432.09	1286.55
432.46	1299.25
432.83	1316.50
433.19	1329.07
433.56	1350.14
433.92	1369.49
434.29	1389.72
434.65	1409.85
435.02	1435.33
435.38	1461.06
435.75	1485.96
436.11	1514.98
436.48	1544.99
436.84	1578.22
437.21	1615.81
437.57	1650.03
437.94	1693.71
438.30	1737.82
438.67	1784.59
439.03	1833.27
439.40	1890.64
439.76	1939.46
440.13	1999.07
440.49	2066.72
440.86	2130.17
441.22	2206.07
441.59	2286.61
441.95	2368.53
442.32	2446.33
442.68	2541.40
443.05	2630.67
443.41	2726.89
443.78	2822.69
444.14	2930.84
444.51	3040.12
444.87	3174.14
445.24	3311.48
445.60	3461.98
445.96	3615.66
446.33	3780.46
446.69	3945.75
447.06	4117.68
447.42	4301.46
447.79	4490.65
448.15	4715.01
448.51	4936.10
448.88	5197.46
449.24	5434.44
449.61	5710.20
449.97	5978.01
450.33	6256.77
450.70	6512.19
451.06	6837.95
451.43	7143.34
451.79	7502.17
452.15	7910.43
452.52	8364.68
452.88	8825.88
453.24	9345.85
453.61	9912.43
453.97	10462.55
454.34	10999.86
454.70	11641.31
455.06	12275.41
455.43	12887.34
455.79	13476.06
456.15	14182.69
456.52	14819.69
456.88	15585.65
457.24	16303.10
457.61	17147.21
457.97	17901.31
458.33	18678.74
458.70	19449.13
459.06	20205.96
459.42	21017.80
459.79	21794.88
460.15	22692.87
460.51	23534.53
460.88	24456.54
461.24	25243.22
461.60	26175.47
461.96	27028.60
462.33	27845.77
462.69	28667.77
463.05	29541.87
463.42	30292.22
463.78	30951.43
464.14	31513.84
464.50	32073.13
464.87	32532.81
465.23	32865.40
465.59	33216.04
465.95	33550.43
466.32	33816.95
466.68	34051.78
467.04	34189.47
467.40	34334.14
467.77	34471.22
468.13	34437.31
468.49	34351.93
468.85	34304.27
469.22	34172.64
469.58	33846.32
469.94	33628.33
470.30	33330.73
470.66	32927.36
471.03	32327.46
471.39	31944.99
471.75	31315.17
472.11	30751.67
472.47	30407.26
472.84	30104.25
473.20	29631.21
473.56	29373.42
473.92	28937.35
474.28	28420.59
474.65	27926.94
475.01	27451.65
475.37	26889.46
475.73	26427.25
476.09	25916.35
476.45	25409.58
476.81	24907.35
477.18	24388.73
477.54	23957.37
477.90	23589.02
478.26	23171.89
478.62	22834.03
478.98	22528.19
479.34	22198.86
479.71	21787.02
480.07	21444.25
480.43	21062.39
480.79	20684.41
481.15	20319.59
481.51	19993.75
481.87	19743.57
482.23	19455.52
482.59	19190.40
482.96	18910.22
483.32	18630.78
483.68	18250.98
484.04	17918.46
484.40	17558.98
484.76	17190.30
485.12	16822.83
485.48	16496.28
485.84	16138.49
486.20	15779.61
486.56	15422.63
486.92	15119.65
487.28	14778.26
487.64	14440.85
488.00	14128.85
488.37	13806.45
488.73	13443.80
489.09	13094.45
489.45	12784.80
489.81	12471.47
490.17	12172.82
490.53	11895.05
490.89	11600.28
491.25	11300.32
491.61	10983.22
491.97	10666.36
492.33	10344.49
492.69	10034.23
493.05	9725.84
493.41	9440.50
493.77	9177.33
494.13	8928.84
494.49	8680.44
494.85	8442.71
495.21	8215.47
495.57	7989.96
495.93	7766.58
496.29	7564.31
496.64	7380.83
497.00	7190.71
497.36	7005.55
497.72	6814.61
498.08	6635.56
498.44	6449.72
498.80	6278.88
499.16	6107.65
499.52	5951.49
499.88	5824.12
500.24	5702.55
500.60	5582.20
500.96	5465.27
501.32	5343.68
501.68	5216.40
502.03	5093.08
502.39	4970.01
502.75	4837.33
503.11	4716.06
503.47	4596.65
503.83	4467.36
504.19	4339.70
504.55	4238.59
504.91	4146.35
505.26	4053.43
505.62	3974.56
505.98	3895.63
506.34	3802.64
506.70	3708.49
507.06	3618.49
507.42	3532.34
507.78	3444.12
508.13	3369.88
508.49	3298.03
508.85	3231.23
509.21	3156.82
509.57	3091.40
509.93	3026.48
510.28	2960.47
510.64	2892.32
511.00	2828.16
511.36	2767.87
511.72	2708.91
512.07	2658.78
512.43	2607.57
512.79	2558.04
513.15	2517.83
513.51	2471.63
513.86	2423.88
514.22	2378.80
514.58	2340.51
514.94	2297.75
515.30	2260.89
515.65	2225.78
516.01	2194.44
516.37	2169.47
516.73	2137.82
517.08	2110.30
517.44	2081.93
517.80	2057.61
518.16	2024.77
518.51	1995.33
518.87	1967.27
519.23	1939.37
519.59	1908.26
519.94	1880.18
520.30	1859.20
520.66	1832.55
521.01	1809.07
521.37	1784.87
521.73	1766.78
522.09	1742.93
522.44	1728.09
522.80	1711.52
523.16	1695.81
523.51	1676.60
523.87	1658.81
524.23	1635.85
524.58	1616.84
524.94	1598.45
525.30	1579.14
525.65	1563.76
526.01	1550.53
526.37	1533.78
526.72	1519.66
527.08	1507.47
527.44	1493.73
527.79	1482.19
528.15	1473.46
528.51	1462.44
528.86	1447.15
529.22	1438.52
529.58	1427.17
529.93	1412.49
530.29	1400.86
530.65	1394.98
531.00	1383.30
531.36	1369.33
531.71	1360.76
532.07	1354.40
532.43	1346.84
532.78	1339.16
533.14	1335.18
533.49	1330.62
533.85	1324.95
534.21	1314.77
534.56	1310.84
534.92	1306.25
535.27	1302.09
535.63	1292.89
535.98	1288.89
536.34	1277.46
536.69	1267.82
537.05	1258.41
537.41	1255.18
537.76	1248.91
538.12	1244.74
538.47	1242.87
538.83	1238.42
539.18	1232.43
539.54	1227.92
539.89	1225.95
540.25	1220.96
540.60	1216.96
540.96	1216.56
541.31	1215.18
541.67	1209.35
542.02	1204.91
542.38	1201.02
542.73	1196.34
543.09	1193.65
543.44	1192.95
543.80	1190.35
544.15	1187.28
544.51	1185.72
544.86	1182.35
545.22	1183.37
545.57	1182.77
545.93	1183.73
546.28	1176.68
546.64	1176.28
546.99	1172.14
547.35	1169.24
547.70	1168.63
548.05	1168.42
548.41	1166.01
548.76	1165.00
549.12	1162.43
549.47	1158.10
549.83	1157.44
550.18	1153.74
550.53	1149.44
550.89	1147.71
551.24	1142.86
551.60	1141.55
551.95	1139.98
552.30	1138.95
552.66	1137.62
553.01	1138.09
553.37	1135.84
553.72	1132.77
554.07	1131.23
554.43	1131.60
554.78	1131.32
555.13	1130.15
555.49	1132.33
555.84	1129.75
556.19	1127.08
556.55	1125.24
556.90	1122.66
557.26	1120.88
557.61	1120.32
557.96	1117.16
558.32	1115.71
558.67	1116.69
559.02	1115.22
559.37	1116.37
559.73	1117.23
560.08	1120.81
560.43	1117.25
560.79	1117.49
561.14	1114.47
561.49	1113.74
561.85	1108.27
562.20	1108.95
562.55	1111.19
562.90	1112.97
563.26	1112.95
563.61	1114.77
563.96	1118.45
564.32	1115.69
564.67	1112.92
565.02	1112.62
565.37	1109.32
565.73	1107.24
566.08	1103.07
566.43	1105.36
566.78	1105.65
567.14	1104.10
567.49	1105.22
567.84	1105.39
568.19	1105.15
568.54	1102.49
568.90	1103.16
569.25	1101.53
569.60	1101.50
569.95	1096.66
570.31	1097.27
570.66	1096.87
571.01	1093.73
571.36	1091.86
571.71	1095.37
572.06	1093.33
572.42	1096.78
572.77	1098.04
573.12	1102.09
573.47	1100.17
573.82	1101.18
574.18	1098.06
574.53	1097.38
574.88	1095.30
575.23	1097.78
575.58	1096.40
575.93	1092.98
576.28	1090.36
576.64	1091.06
576.99	1087.32
577.34	1086.78
577.69	1091.37
578.04	1090.46
578.39	1089.22
578.74	1091.39
579.09	1095.00
579.44	1089.36
579.80	1087.79
580.15	1088.65
580.50	1087.55
580.85	1087.37
581.20	1093.71
581.55	1094.01
581.90	1094.15
582.25	1094.65
582.60	1090.67
582.95	1089.75
583.30	1094.57
583.65	1091.88
584.00	1091.34
584.35	1093.26
584.71	1090.50
585.06	1090.27
585.41	1093.76
585.76	1089.47
586.11	1088.26
586.46	1090.90
586.81	1090.81
587.16	1089.96
587.51	1094.90
587.86	1096.61
588.21	1093.73
588.56	1091.44
588.91	1092.61
589.26	1089.66
589.61	1087.09
589.96	1090.43
590.31	1086.10
590.66	1082.78
591.01	1082.24
591.36	1085.75
591.71	1082.61
592.06	1088.00
592.41	1086.55
592.76	1087.46
593.10	1084.98
593.45	1084.81
593.80	1083.50
594.15	1084.89
594.50	1083.86
594.85	1084.02
595.20	1085.42
595.55	1083.29
595.90	1083.60
596.25	1086.01
596.60	1084.02
596.95	1086.03
597.30	1091.70
597.64	1100.36
597.99	1100.73
598.34	1102.63
598.69	1100.05
599.04	1096.68
599.39	1086.85
599.74	1087.30
600.09	1088.09
600.44	1087.13
600.78	1085.68
601.13	1085.80
601.48	1081.82
601.83	1079.36
602.18	1078.75
602.53	1079.74
602.88	1080.27
603.22	1079.71
603.57	1078.64
603.92	1082.01
604.27	1079.78
604.62	1078.82
604.97	1080.06
605.31	1081.21
605.66	1079.76
606.01	1084.07
606.36	1087.88
606.71	1090.57
607.05	1094.53
607.40	1092.98
607.75	1089.45
608.10	1086.92
608.44	1084.56
608.79	1082.01
609.14	1082.92
609.49	1086.76
609.84	1087.32
610.18	1088.14
610.53	1086.10
610.88	1088.75
611.23	1087.53
611.57	1087.90
611.92	1087.39
612.27	1089.29
612.62	1085.54
612.96	1084.91
613.31	1081.84
613.66	1083.25
614.00	1082.71
614.35	1083.69
614.70	1083.64
615.05	1087.72
615.39	1087.95
615.74	1089.59
616.09	1090.60
616.43	1089.57
616.78	1088.00
617.13	1085.96
617.47	1084.28
617.82	1082.57
618.17	1085.49
618.51	1086.20
618.86	1089.22
619.21	1093.66
619.55	1092.12
619.90	1090.64
620.25	1089.14
620.59	1088.37
620.94	1084.91
621.29	1086.97
621.63	1085.63
621.98	1085.05
622.32	1082.92
622.67	1081.09
623.02	1083.06
623.36	1082.76
623.71	1082.54
624.05	1082.66
624.40	1082.40
624.75	1080.41
625.09	1081.49
625.44	1084.28
625.78	1084.60
626.13	1085.89
626.48	1086.92
626.82	1084.91
627.17	1082.43
627.51	1081.07
627.86	1080.53
628.20	1080.06
628.55	1081.58
628.89	1080.91
629.24	1082.03
629.58	1082.38
629.93	1081.49
630.28	1082.64
630.62	1081.16
630.97	1079.85
631.31	1078.66
631.66	1076.15
632.00	1077.14
632.35	1080.16
632.69	1083.55
633.04	1087.60
633.38	1090.50
633.73	1089.14
634.07	1089.38
634.42	1087.25
634.76	1085.47
635.11	1085.99
635.45	1087.37
635.79	1088.04
636.14	1086.94
636.48	1082.87
636.83	1081.80
637.17	1076.90
637.52	1076.44
637.86	1079.74
638.21	1082.83
638.55	1084.74
638.89	1089.80
639.24	1087.02
639.58	1083.46
639.93	1083.62
640.27	1080.48
640.61	1077.84
640.96	1082.92
641.30	1084.11
641.65	1084.44
641.99	1084.16
642.33	1086.03
642.68	1083.69
643.02	1084.67
643.37	1085.14
643.71	1084.11
644.05	1082.15
644.40	1078.82
644.74	1075.73
645.08	1074.73
645.43	1077.28
645.77	1079.97
646.11	1082.92
646.46	1086.59
646.80	1088.42
647.14	1088.68
647.49	1085.56
647.83	1084.53
648.17	1081.54
648.52	1080.20
648.86	1082.78
649.20	1084.63
649.55	1085.31
649.89	1086.36
650.23	1084.14
650.57	1082.01
650.92	1082.52
651.26	1080.79
651.60	1083.36
651.95	1086.94
652.29	1087.16
652.63	1084.53
652.97	1082.99
653.32	1081.16
653.66	1079.03
654.00	1077.75
654.34	1078.28
654.69	1080.11
655.03	1080.02
655.37	1083.62
655.71	1084.96
656.05	1088.79
656.40	1092.02
656.74	1088.58
657.08	1088.91
657.42	1086.99
657.76	1081.91
658.11	1080.27
658.45	1083.67
658.79	1079.95
659.13	1081.14
659.47	1083.22
659.82	1083.62
660.16	1084.25
660.50	1082.26
660.84	1082.43
661.18	1080.79
661.52	1078.78
661.87	1078.85
662.21	1080.86
662.55	1080.30
662.89	1080.53
663.23	1081.00
663.57	1080.74
663.91	1081.40
664.25	1082.52
664.60	1081.61
664.94	1081.23
665.28	1080.34
665.62	1080.32
665.96	1080.18
666.30	1081.30
666.64	1077.56
666.98	1079.88
667.32	1077.33
667.66	1077.40
668.01	1077.72
668.35	1084.77
668.69	1082.45
669.03	1081.58
669.37	1080.32
669.71	1080.93
670.05	1078.14
670.39	1080.23
670.73	1081.07
671.07	1080.04
671.41	1082.10
671.75	1085.00
672.09	1084.18
672.43	1085.35
672.77	1087.74
673.11	1086.20
673.45	1083.06
673.79	1085.80
674.13	1084.93
674.47	1084.00
674.81	1082.94
675.15	1081.56
675.49	1080.46
675.83	1082.97
676.17	1084.11
676.51	1084.51
676.85	1087.72
677.19	1087.11
677.53	1084.65
677.87	1083.50
678.21	1083.13
678.55	1079.48
678.89	1077.09
679.23	1078.64
679.57	1078.99
679.90	1077.25
680.24	1078.71
680.58	1081.51
680.92	1082.19
681.26	1080.95
681.60	1082.24
681.94	1082.05
682.28	1080.25
682.62	1078.33
682.96	1081.63
683.29	1086.29
683.63	1087.20
683.97	1085.61
684.31	1089.43
684.65	1084.84
684.99	1080.32
685.33	1077.98
685.67	1077.93
686.00	1076.20
686.34	1076.51
686.68	1077.02
687.02	1077.23
687.36	1077.96
687.70	1079.24
688.03	1079.88
688.37	1080.23
688.71	1083.76
689.05	1084.53
689.39	1083.90
689.72	1083.53
690.06	1082.54
690.40	1081.77
690.74	1081.00
691.08	1079.13
691.41	1080.44
691.75	1078.12
692.09	1074.77
692.43	1074.42
692.76	1076.69
693.10	1074.54
693.44	1079.43
693.78	1079.43
694.11	1081.02
694.45	1077.82
694.79	1080.53
695.13	1080.72
695.46	1083.64
695.80	1081.28
696.14	1081.21
696.48	1080.56
696.81	1075.97
697.15	1078.61
697.49	1078.75
697.82	1079.24
698.16	1077.75
698.50	1080.86
698.83	1076.93
699.17	1080.27
699.51	1080.65
699.84	1079.64
700.18	1078.78
700.52	1083.06
700.85	1082.10
701.19	1080.27
701.53	1083.76
701.86	1081.94
702.20	1078.05
702.54	1078.17
702.87	1080.30
703.21	1079.57
703.55	1080.41
703.88	1080.70
704.22	1080.37
704.55	1082.54
704.89	1082.22
705.23	1080.95
705.56	1080.58
705.90	1077.18
706.23	1075.64
706.57	1076.76
706.91	1081.14
707.24	1081.42
707.58	1083.46
707.91	1083.36
708.25	1081.87
708.58	1079.38
708.92	1078.57
709.26	1079.67
709.59	1080.84
709.93	1080.93
710.26	1079.15
710.60	1079.53
710.93	1080.58
711.27	1078.05
711.60	1078.71
711.94	1080.27
712.27	1080.60
712.61	1077.09
712.94	1076.39
713.28	1072.43
713.61	1071.87
713.95	1073.74
714.28	1075.99
714.62	1077.84
714.95	1081.96
715.29	1083.81
715.62	1080.72
715.96	1081.66
716.29	1079.15
716.63	1074.31
716.96	1075.20
717.29	1077.33
717.63	1075.71
717.96	1080.79
718.30	1086.66
718.63	1084.16
718.97	1082.61
719.30	1082.22
719.63	1081.19
719.97	1075.90
720.30	1076.60
720.64	1078.50
720.97	1077.58
721.30	1076.15
721.64	1077.51
721.97	1080.77
722.31	1081.61
722.64	1084.81
722.97	1085.52
723.31	1087.83
723.64	1085.35
723.97	1085.54
724.31	1086.99
724.64	1085.33
724.98	1087.37
725.31	1085.77
725.64	1086.43
725.98	1083.64
726.31	1084.39
726.64	1082.80
726.97	1081.26
727.31	1077.79
727.64	1078.92
727.97	1077.82
728.31	1074.40
728.64	1074.28
728.97	1074.52
729.31	1074.91
729.64	1076.20
729.97	1079.46
730.30	1082.19
730.64	1081.49
730.97	1075.92
731.30	1072.08
731.63	1069.88
731.97	1069.70
732.30	1071.66
732.63	1075.76
732.96	1079.15
733.30	1080.20
733.63	1081.23
733.96	1080.51
734.29	1080.20
734.63	1081.02
734.96	1082.26
735.29	1081.82
735.62	1082.17
735.95	1083.27
736.29	1084.02
736.62	1085.42
736.95	1082.94
737.28	1086.90
737.61	1084.16
737.94	1080.60
738.28	1079.08
738.61	1083.22
738.94	1077.23
739.27	1080.18
739.60	1081.21
739.93	1079.95
740.27	1077.18
740.60	1077.84
740.93	1079.15
741.26	1079.10
741.59	1078.00
741.92	1076.69
742.25	1077.70
742.58	1075.24
742.91	1074.19
743.25	1079.90
743.58	1081.40
743.91	1083.27
744.24	1085.73
744.57	1088.58
744.90	1087.37
745.23	1086.29
745.56	1085.00
745.89	1083.69
746.22	1082.29
746.55	1080.72
746.88	1081.28
747.21	1080.74
747.54	1079.41
747.87	1080.23
748.20	1082.05
748.53	1083.20
748.87	1085.47
749.20	1085.10
749.53	1080.79
749.86	1078.78
750.19	1081.87
750.52	1081.56
750.85	1081.54
751.18	1085.05
751.51	1084.37
751.84	1080.04
752.16	1077.89
752.49	1078.33
752.82	1077.63
753.15	1077.63
753.48	1078.28
753.81	1078.71
754.14	1077.58
754.47	1078.38
754.80	1078.12
755.13	1080.02
755.46	1078.57
755.79	1079.08
756.12	1077.93
756.45	1079.85
756.78	1078.73
757.11	1080.86
757.43	1081.37
757.76	1083.97
758.09	1082.99
758.42	1081.30
758.75	1083.15
759.08	1081.58
759.41	1081.07
759.74	1082.22
760.07	1085.80
760.39	1081.68
760.72	1085.96
761.05	1084.72
761.38	1081.87
761.71	1079.50
762.04	1080.95
762.36	1076.65
762.69	1077.23
763.02	1079.81
763.35	1078.26
763.68	1080.32
764.01	1079.29
