SpectraSuite Data File
++++++++++++++++++++++++++++++++++++
Date: Mon Aug 26 10:21:54 PDT 2019
User: corrico
Dark Spectrum Present: No
Reference Spectrum Present: No
Number of Sampled Component Spectra: 1
Spectrometers: USB2+H06089
Integration Time (usec): 2000 (USB2+H06089)
Spectra Averaged: 20 (USB2+H06089)
Boxcar Smoothing: 2 (USB2+H06089)
Correct for Electrical Dark: No (USB2+H06089)
Strobe/Lamp Enabled: No (USB2+H06089)
Correct for Detector Non-linearity: No (USB2+H06089)
Correct for Stray Light: No (USB2+H06089)
Number of Pixels in Processed Spectrum: 2048
>>>>>Begin Processed Spectral Data<<<<<
339.70	1020.12
340.07	1020.12
340.45	989.11
340.82	967.98
341.19	947.57
341.57	922.76
341.94	912.27
342.31	905.76
342.69	901.11
343.06	897.08
343.43	898.91
343.81	899.98
344.18	900.57
344.55	902.70
344.93	905.76
345.30	906.79
345.67	914.80
346.04	922.03
346.42	932.26
346.79	939.07
347.16	950.49
347.54	957.65
347.91	966.76
348.28	979.49
348.65	992.62
349.03	1000.04
349.40	1006.80
349.77	1015.58
350.14	1016.78
350.52	1023.33
350.89	1031.85
351.26	1041.00
351.63	1042.99
352.01	1049.82
352.38	1052.68
352.75	1058.88
353.12	1061.90
353.50	1068.34
353.87	1072.78
354.24	1076.65
354.61	1077.02
354.98	1078.54
355.36	1079.46
355.73	1079.34
356.10	1078.26
356.47	1078.07
356.84	1075.41
357.22	1072.39
357.59	1068.67
357.96	1068.01
358.33	1068.10
358.70	1069.32
359.08	1072.95
359.45	1077.96
359.82	1081.19
360.19	1079.01
360.56	1080.58
360.94	1076.11
361.31	1071.59
361.68	1065.97
362.05	1067.66
362.42	1065.90
362.79	1065.93
363.16	1066.63
363.54	1067.00
363.91	1063.49
364.28	1062.95
364.65	1061.01
365.02	1061.43
365.39	1063.49
365.76	1064.71
366.14	1065.93
366.51	1068.55
366.88	1069.25
367.25	1069.51
367.62	1070.28
367.99	1067.49
368.36	1067.82
368.73	1065.41
369.10	1063.31
369.48	1064.73
369.85	1065.55
370.22	1063.82
370.59	1064.38
370.96	1063.00
371.33	1059.51
371.70	1059.37
372.07	1059.47
372.44	1062.23
372.81	1062.74
373.18	1063.61
373.55	1067.94
373.93	1069.44
374.30	1068.95
374.67	1071.50
375.04	1073.44
375.41	1071.17
375.78	1068.90
376.15	1065.32
376.52	1066.28
376.89	1065.22
377.26	1064.69
377.63	1068.03
378.00	1069.44
378.37	1069.44
378.74	1070.44
379.11	1071.38
379.48	1071.36
379.85	1072.97
380.22	1068.78
380.59	1068.45
380.96	1069.27
381.33	1068.62
381.70	1068.81
382.07	1071.75
382.44	1070.54
382.81	1070.72
383.18	1069.95
383.55	1067.17
383.92	1071.05
384.29	1070.84
384.66	1067.00
385.03	1068.83
385.40	1072.55
385.77	1070.94
386.14	1072.04
386.51	1072.97
386.88	1075.01
387.25	1075.45
387.62	1073.35
387.99	1073.37
388.36	1075.92
388.73	1072.81
389.10	1069.51
389.46	1071.19
389.83	1072.57
390.20	1072.06
390.57	1071.05
390.94	1071.36
391.31	1070.00
391.68	1071.50
392.05	1073.60
392.42	1074.98
392.79	1076.81
393.16	1077.56
393.53	1076.39
393.89	1075.45
394.26	1078.33
394.63	1076.83
395.00	1077.21
395.37	1077.51
395.74	1077.02
396.11	1070.61
396.48	1073.67
396.84	1072.83
397.21	1067.96
397.58	1066.61
397.95	1069.37
398.32	1069.88
398.69	1070.54
399.06	1074.75
399.42	1074.21
399.79	1077.11
400.16	1073.74
400.53	1072.22
400.90	1072.83
401.27	1072.71
401.64	1074.52
402.00	1077.21
402.37	1079.36
402.74	1077.04
403.11	1080.95
403.48	1073.23
403.84	1072.55
404.21	1072.22
404.58	1071.99
404.95	1071.92
405.32	1077.42
405.68	1079.83
406.05	1076.72
406.42	1076.30
406.79	1071.82
407.16	1068.10
407.52	1067.00
407.89	1070.80
408.26	1074.49
408.63	1075.48
408.99	1075.59
409.36	1075.27
409.73	1076.53
410.10	1074.96
410.47	1076.01
410.83	1076.46
411.20	1074.47
411.57	1071.01
411.94	1071.19
412.30	1069.46
412.67	1073.00
413.04	1073.81
413.40	1077.77
413.77	1076.88
414.14	1081.51
414.51	1081.91
414.87	1080.60
415.24	1076.65
415.61	1077.72
415.97	1076.06
416.34	1074.63
416.71	1077.37
417.08	1080.60
417.44	1077.84
417.81	1076.51
418.18	1076.79
418.54	1074.66
418.91	1074.84
419.28	1079.60
419.64	1081.42
420.01	1083.01
420.38	1083.88
420.74	1079.90
421.11	1078.31
421.48	1080.16
421.84	1079.74
422.21	1083.67
422.58	1088.93
422.94	1087.46
423.31	1087.20
423.68	1088.35
424.04	1083.76
424.41	1079.76
424.77	1082.33
425.14	1082.01
425.51	1081.91
425.87	1083.86
426.24	1088.89
426.61	1094.29
426.97	1095.46
427.34	1095.04
427.70	1096.78
428.07	1096.92
428.44	1091.65
428.80	1094.93
429.17	1098.39
429.53	1102.72
429.90	1105.22
430.27	1111.61
430.63	1112.18
431.00	1116.13
431.36	1118.89
431.73	1119.88
432.09	1122.54
432.46	1124.72
432.83	1124.88
433.19	1123.39
433.56	1128.28
433.92	1133.54
434.29	1136.99
434.65	1144.12
435.02	1151.89
435.38	1157.51
435.75	1160.70
436.11	1165.00
436.48	1172.16
436.84	1179.14
437.21	1184.83
437.57	1189.18
437.94	1201.14
438.30	1209.35
438.67	1219.11
439.03	1229.06
439.40	1245.35
439.76	1261.24
440.13	1270.98
440.49	1285.59
440.86	1298.76
441.22	1309.72
441.59	1321.58
441.95	1340.07
442.32	1359.06
442.68	1377.73
443.05	1397.11
443.41	1417.31
443.78	1439.90
444.14	1460.96
444.51	1482.50
444.87	1513.09
445.24	1537.64
445.60	1567.06
445.96	1595.33
446.33	1633.30
446.69	1662.93
447.06	1699.11
447.42	1735.58
447.79	1773.38
448.15	1816.54
448.51	1863.32
448.88	1914.00
449.24	1960.83
449.61	2019.98
449.97	2076.69
450.33	2131.85
450.70	2186.39
451.06	2249.93
451.43	2305.73
451.79	2378.15
452.15	2454.85
452.52	2538.40
452.88	2621.33
453.24	2720.83
453.61	2820.42
453.97	2924.97
454.34	3022.03
454.70	3137.89
455.06	3254.49
455.43	3365.97
455.79	3473.17
456.15	3609.64
456.52	3734.54
456.88	3878.01
457.24	4015.35
457.61	4179.17
457.97	4333.03
458.33	4495.94
458.70	4660.38
459.06	4828.01
459.42	5006.83
459.79	5173.92
460.15	5355.61
460.51	5526.05
460.88	5704.31
461.24	5856.93
461.60	6028.12
461.96	6173.89
462.33	6316.45
462.69	6460.86
463.05	6629.10
463.42	6784.25
463.78	6937.28
464.14	7076.82
464.50	7216.08
464.87	7303.10
465.23	7362.04
465.59	7433.42
465.95	7490.53
466.32	7547.67
466.68	7621.51
467.04	7678.88
467.40	7732.69
467.77	7775.77
468.13	7781.72
468.49	7774.21
468.85	7766.72
469.22	7749.49
469.58	7708.67
469.94	7685.94
470.30	7643.18
470.66	7587.46
471.03	7500.20
471.39	7439.72
471.75	7315.06
472.11	7199.60
472.47	7111.69
472.84	7004.80
473.20	6875.49
473.56	6806.11
473.92	6708.82
474.28	6629.52
474.65	6561.41
475.01	6503.06
475.37	6415.64
475.73	6345.03
476.09	6247.90
476.45	6154.18
476.81	6062.50
477.18	5965.53
477.54	5879.96
477.90	5795.24
478.26	5710.49
478.62	5627.23
478.98	5565.70
479.34	5511.68
479.71	5440.06
480.07	5376.63
480.43	5334.01
480.79	5266.81
481.15	5198.61
481.51	5154.49
481.87	5106.18
482.23	5028.41
482.59	4973.38
482.96	4908.45
483.32	4838.71
483.68	4772.17
484.04	4716.72
484.40	4646.74
484.76	4585.09
485.12	4519.18
485.48	4452.52
485.84	4380.85
486.20	4316.21
486.56	4251.47
486.92	4189.30
487.28	4123.49
487.64	4058.54
488.00	3993.98
488.37	3919.62
488.73	3848.68
489.09	3772.03
489.45	3702.35
489.81	3638.29
490.17	3572.15
490.53	3504.46
490.89	3448.24
491.25	3382.66
491.61	3319.23
491.97	3260.74
492.33	3197.22
492.69	3130.63
493.05	3067.86
493.41	3004.78
493.77	2943.55
494.13	2891.50
494.49	2840.85
494.85	2789.43
495.21	2739.67
495.57	2694.38
495.93	2647.17
496.29	2602.70
496.64	2566.44
497.00	2518.72
497.36	2472.03
497.72	2429.78
498.08	2389.41
498.44	2347.14
498.80	2312.47
499.16	2280.01
499.52	2243.19
499.88	2215.79
500.24	2183.79
500.60	2154.21
500.96	2124.15
501.32	2099.84
501.68	2061.38
502.03	2032.03
502.39	2002.09
502.75	1970.08
503.11	1944.35
503.47	1920.92
503.83	1896.40
504.19	1877.30
504.55	1860.75
504.91	1834.77
505.26	1813.87
505.62	1788.75
505.98	1761.44
506.34	1734.48
506.70	1708.50
507.06	1687.64
507.42	1669.90
507.78	1650.62
508.13	1633.93
508.49	1618.53
508.85	1600.72
509.21	1584.73
509.57	1567.71
509.93	1550.23
510.28	1534.29
510.64	1517.09
511.00	1498.81
511.36	1485.33
511.72	1471.78
512.07	1459.93
512.43	1449.17
512.79	1437.84
513.15	1425.74
513.51	1414.50
513.86	1403.10
514.22	1392.55
514.58	1381.78
514.94	1373.26
515.30	1363.03
515.65	1354.94
516.01	1343.98
516.37	1338.95
516.73	1330.38
517.08	1325.09
517.44	1316.95
517.80	1309.83
518.16	1298.25
518.51	1291.39
518.87	1281.65
519.23	1274.33
519.59	1270.65
519.94	1267.24
520.30	1261.64
520.66	1253.45
521.01	1249.45
521.37	1245.21
521.73	1241.37
522.09	1237.39
522.44	1233.86
522.80	1231.61
523.16	1225.22
523.51	1217.34
523.87	1212.65
524.23	1211.86
524.58	1205.31
524.94	1202.01
525.30	1197.86
525.65	1195.26
526.01	1190.79
526.37	1183.66
526.72	1175.89
527.08	1173.99
527.44	1166.55
527.79	1162.80
528.15	1164.09
528.51	1165.26
528.86	1162.12
529.22	1161.80
529.58	1158.33
529.93	1153.74
530.29	1148.52
530.65	1150.26
531.00	1151.24
531.36	1150.75
531.71	1149.34
532.07	1151.96
532.43	1148.85
532.78	1143.77
533.14	1140.38
533.49	1139.61
533.85	1132.49
534.21	1128.93
534.56	1126.92
534.92	1126.52
535.27	1125.73
535.63	1125.80
535.98	1125.89
536.34	1125.45
536.69	1121.96
537.05	1118.45
537.41	1117.75
537.76	1118.45
538.12	1117.32
538.47	1116.95
538.83	1115.94
539.18	1114.77
539.54	1112.04
539.89	1111.17
540.25	1112.04
540.60	1112.69
540.96	1112.90
541.31	1111.64
541.67	1110.44
542.02	1107.66
542.38	1105.04
542.73	1102.37
543.09	1101.78
543.44	1099.47
543.80	1101.39
544.15	1101.69
544.51	1103.02
544.86	1104.10
545.22	1108.57
545.57	1109.88
545.93	1109.60
546.28	1108.92
546.64	1106.42
546.99	1102.81
547.35	1103.33
547.70	1100.80
548.05	1099.68
548.41	1096.24
548.76	1097.71
549.12	1092.14
549.47	1093.59
549.83	1091.20
550.18	1092.47
550.53	1089.99
550.89	1090.36
551.24	1089.12
551.60	1090.27
551.95	1090.88
552.30	1091.74
552.66	1091.95
553.01	1090.36
553.37	1089.61
553.72	1090.78
554.07	1086.87
554.43	1085.89
554.78	1086.52
555.13	1088.51
555.49	1088.35
555.84	1090.27
556.19	1090.83
556.55	1094.15
556.90	1093.10
557.26	1090.64
557.61	1090.46
557.96	1087.18
558.32	1083.81
558.67	1083.36
559.02	1081.02
559.37	1078.50
559.73	1081.14
560.08	1081.37
560.43	1079.24
560.79	1079.99
561.14	1080.95
561.49	1081.26
561.85	1085.03
562.20	1087.34
562.55	1089.99
562.90	1092.59
563.26	1090.62
563.61	1086.64
563.96	1085.99
564.32	1084.58
564.67	1082.29
565.02	1083.39
565.37	1081.42
565.73	1079.34
566.08	1076.81
566.43	1078.66
566.78	1078.78
567.14	1080.51
567.49	1081.91
567.84	1083.74
568.19	1082.83
568.54	1082.71
568.90	1084.77
569.25	1084.21
569.60	1084.30
569.95	1085.17
570.31	1086.08
570.66	1081.61
571.01	1081.16
571.36	1080.98
571.71	1080.77
572.06	1080.18
572.42	1082.40
572.77	1086.57
573.12	1087.58
573.47	1083.86
573.82	1081.91
574.18	1082.12
574.53	1077.93
574.88	1077.09
575.23	1081.33
575.58	1082.78
575.93	1079.97
576.28	1079.78
576.64	1078.61
576.99	1076.90
577.34	1074.35
577.69	1077.63
578.04	1078.40
578.39	1075.52
578.74	1073.51
579.09	1077.96
579.44	1074.12
579.80	1070.98
580.15	1073.77
580.50	1075.59
580.85	1072.20
581.20	1075.83
581.55	1077.63
581.90	1076.83
582.25	1079.64
582.60	1080.41
582.95	1078.92
583.30	1081.12
583.65	1084.09
584.00	1080.02
584.35	1077.25
584.71	1075.90
585.06	1074.24
585.41	1072.71
585.76	1075.99
586.11	1078.75
586.46	1079.29
586.81	1075.43
587.16	1073.02
587.51	1069.51
587.86	1070.42
588.21	1069.02
588.56	1071.87
588.91	1072.41
589.26	1072.60
589.61	1070.23
589.96	1072.01
590.31	1071.50
590.66	1074.94
591.01	1075.03
591.36	1075.69
591.71	1073.98
592.06	1077.72
592.41	1075.52
592.76	1078.59
593.10	1080.34
593.45	1086.22
593.80	1086.83
594.15	1086.92
594.50	1085.33
594.85	1082.50
595.20	1079.43
595.55	1078.57
595.90	1079.15
596.25	1077.98
596.60	1079.60
596.95	1082.10
597.30	1082.52
597.64	1094.86
597.99	1095.25
598.34	1093.24
598.69	1089.57
599.04	1087.67
599.39	1075.76
599.74	1077.61
600.09	1078.89
600.44	1078.66
600.78	1075.59
601.13	1075.38
601.48	1076.37
601.83	1077.21
602.18	1077.49
602.53	1081.35
602.88	1080.23
603.22	1077.70
603.57	1079.08
603.92	1080.09
604.27	1075.92
604.62	1078.66
604.97	1078.64
605.31	1078.89
605.66	1078.50
606.01	1081.42
606.36	1080.98
606.71	1079.03
607.05	1078.10
607.40	1078.64
607.75	1074.77
608.10	1075.69
608.44	1079.08
608.79	1079.06
609.14	1079.34
609.49	1083.13
609.84	1080.56
610.18	1081.98
610.53	1083.46
610.88	1082.24
611.23	1082.50
611.57	1082.59
611.92	1077.56
612.27	1076.81
612.62	1074.84
612.96	1073.93
613.31	1075.38
613.66	1077.49
614.00	1076.39
614.35	1078.05
614.70	1079.50
615.05	1079.48
615.39	1076.79
615.74	1076.55
616.09	1075.17
616.43	1075.99
616.78	1073.28
617.13	1075.13
617.47	1074.40
617.82	1076.69
618.17	1074.07
618.51	1075.38
618.86	1075.90
619.21	1075.50
619.55	1078.03
619.90	1080.67
620.25	1080.48
620.59	1081.05
620.94	1081.49
621.29	1077.16
621.63	1072.76
621.98	1071.80
622.32	1069.95
622.67	1070.14
623.02	1068.76
623.36	1070.61
623.71	1071.17
624.05	1072.20
624.40	1078.50
624.75	1079.48
625.09	1081.54
625.44	1082.69
625.78	1082.22
626.13	1076.41
626.48	1077.47
626.82	1077.21
627.17	1076.44
627.51	1075.20
627.86	1075.13
628.20	1073.93
628.55	1075.50
628.89	1074.63
629.24	1075.45
629.58	1075.62
629.93	1079.64
630.28	1076.13
630.62	1076.62
630.97	1077.93
631.31	1078.92
631.66	1079.15
632.00	1079.03
632.35	1078.07
632.69	1075.45
633.04	1074.68
633.38	1074.31
633.73	1076.18
634.07	1077.16
634.42	1079.06
634.76	1077.63
635.11	1074.47
635.45	1076.62
635.79	1076.11
636.14	1075.92
636.48	1076.79
636.83	1078.19
637.17	1075.29
637.52	1077.56
637.86	1078.19
638.21	1077.82
638.55	1079.20
638.89	1079.10
639.24	1075.15
639.58	1072.39
639.93	1073.84
640.27	1070.19
640.61	1073.25
640.96	1077.04
641.30	1080.44
641.65	1079.55
641.99	1082.47
642.33	1080.63
642.68	1080.74
643.02	1077.93
643.37	1077.86
643.71	1077.79
644.05	1075.36
644.40	1071.15
644.74	1070.63
645.08	1071.73
645.43	1069.44
645.77	1068.78
646.11	1072.48
646.46	1076.48
646.80	1078.17
647.14	1082.05
647.49	1084.63
647.83	1084.32
648.17	1084.81
648.52	1080.23
648.86	1078.03
649.20	1075.71
649.55	1075.76
649.89	1073.32
650.23	1077.07
650.57	1079.99
650.92	1082.59
651.26	1082.26
651.60	1083.55
651.95	1084.00
652.29	1080.41
652.63	1078.78
652.97	1075.29
653.32	1076.55
653.66	1074.19
654.00	1075.92
654.34	1077.51
654.69	1082.03
655.03	1079.10
655.37	1078.52
655.71	1075.69
656.05	1075.73
656.40	1071.92
656.74	1072.95
657.08	1074.66
657.42	1077.25
657.76	1074.80
658.11	1075.10
658.45	1074.42
658.79	1072.90
659.13	1073.60
659.47	1075.48
659.82	1074.63
660.16	1074.84
660.50	1074.96
660.84	1075.55
661.18	1076.15
661.52	1076.97
661.87	1076.93
662.21	1077.56
662.55	1075.92
662.89	1076.90
663.23	1079.74
663.57	1079.13
663.91	1078.87
664.25	1077.63
664.60	1074.80
664.94	1072.69
665.28	1071.61
665.62	1071.22
665.96	1070.72
666.30	1070.94
666.64	1073.53
666.98	1077.54
667.32	1078.47
667.66	1081.33
668.01	1080.48
668.35	1077.51
668.69	1073.46
669.03	1073.21
669.37	1072.34
669.71	1073.63
670.05	1076.08
670.39	1078.17
670.73	1080.23
671.07	1078.68
671.41	1078.33
671.75	1076.74
672.09	1076.44
672.43	1075.15
672.77	1075.52
673.11	1077.14
673.45	1078.12
673.79	1077.28
674.13	1076.48
674.47	1076.62
674.81	1075.69
675.15	1074.91
675.49	1076.23
675.83	1077.28
676.17	1075.71
676.51	1075.83
676.85	1073.58
677.19	1073.09
677.53	1072.97
677.87	1072.22
678.21	1070.35
678.55	1073.35
678.89	1075.34
679.23	1075.52
679.57	1077.56
679.90	1077.30
680.24	1076.39
680.58	1074.61
680.92	1074.40
681.26	1076.11
681.60	1077.75
681.94	1078.03
682.28	1077.98
682.62	1076.88
682.96	1076.51
683.29	1079.31
683.63	1081.82
683.97	1081.82
684.31	1081.02
684.65	1080.11
684.99	1079.03
685.33	1075.31
685.67	1075.29
686.00	1075.48
686.34	1075.76
686.68	1074.05
687.02	1076.39
687.36	1074.73
687.70	1076.67
688.03	1076.04
688.37	1075.78
688.71	1078.07
689.05	1078.80
689.39	1078.12
689.72	1077.54
690.06	1079.46
690.40	1076.23
690.74	1075.71
691.08	1076.79
691.41	1079.27
691.75	1079.50
692.09	1082.73
692.43	1082.80
692.76	1080.32
693.10	1078.40
693.44	1079.81
693.78	1075.10
694.11	1076.74
694.45	1075.83
694.79	1075.24
695.13	1072.22
695.46	1073.25
695.80	1075.15
696.14	1074.35
696.48	1076.13
696.81	1075.05
697.15	1076.32
697.49	1073.23
697.82	1074.87
698.16	1075.08
698.50	1076.83
698.83	1077.70
699.17	1079.92
699.51	1082.05
699.84	1081.19
700.18	1080.09
700.52	1078.68
700.85	1075.94
701.19	1075.99
701.53	1080.09
701.86	1081.58
702.20	1080.09
702.54	1080.72
702.87	1081.33
703.21	1075.99
703.55	1077.63
703.88	1080.34
704.22	1081.26
704.55	1079.71
704.89	1078.31
705.23	1075.41
705.56	1076.58
705.90	1072.83
706.23	1072.71
706.57	1073.42
706.91	1074.07
707.24	1068.99
707.58	1072.76
707.91	1072.43
708.25	1074.68
708.58	1073.93
708.92	1075.66
709.26	1073.35
709.59	1070.68
709.93	1070.26
710.26	1069.13
710.60	1070.19
710.93	1071.57
711.27	1072.41
711.60	1071.03
711.94	1072.06
712.27	1074.05
712.61	1075.64
712.94	1077.93
713.28	1079.29
713.61	1081.47
713.95	1079.74
714.28	1077.63
714.62	1078.68
714.95	1078.66
715.29	1079.17
715.62	1081.12
715.96	1081.47
716.29	1079.55
716.63	1076.74
716.96	1075.10
717.29	1071.66
717.63	1070.82
717.96	1067.75
718.30	1068.88
718.63	1065.34
718.97	1066.79
719.30	1064.87
719.63	1066.98
719.97	1069.23
720.30	1068.71
720.64	1069.60
720.97	1071.99
721.30	1072.32
721.64	1073.91
721.97	1080.25
722.31	1079.88
722.64	1081.94
722.97	1083.74
723.31	1082.26
723.64	1080.13
723.97	1078.96
724.31	1079.13
724.64	1078.03
724.98	1074.80
725.31	1074.47
725.64	1071.71
725.98	1071.10
726.31	1070.56
726.64	1076.23
726.97	1075.27
727.31	1079.43
727.64	1078.94
727.97	1079.95
728.31	1077.35
728.64	1077.75
728.97	1076.51
729.31	1079.69
729.64	1078.85
729.97	1078.40
730.30	1078.26
730.64	1078.71
730.97	1073.32
731.30	1072.71
731.63	1074.24
731.97	1075.36
732.30	1075.10
732.63	1074.96
732.96	1074.05
733.30	1069.95
733.63	1069.91
733.96	1069.48
734.29	1073.23
734.63	1078.66
734.96	1084.04
735.29	1082.69
735.62	1082.61
735.95	1081.02
736.29	1077.58
736.62	1077.42
736.95	1077.82
737.28	1080.65
737.61	1081.91
737.94	1082.47
738.28	1082.52
738.61	1082.61
738.94	1081.66
739.27	1075.66
739.60	1073.30
739.93	1069.98
740.27	1069.95
740.60	1069.23
740.93	1076.04
741.26	1080.04
741.59	1078.73
741.92	1079.31
742.25	1077.16
742.58	1073.70
742.91	1073.44
743.25	1076.15
743.58	1078.47
743.91	1079.10
744.24	1080.98
744.57	1079.83
744.90	1079.71
745.23	1074.33
745.56	1077.40
745.89	1076.93
746.22	1077.33
746.55	1079.17
746.88	1081.54
747.21	1076.53
747.54	1075.92
747.87	1074.00
748.20	1071.10
748.53	1070.87
748.87	1071.75
749.20	1072.41
749.53	1071.22
749.86	1068.67
750.19	1067.42
750.52	1068.52
750.85	1069.58
751.18	1072.46
751.51	1074.66
751.84	1076.67
752.16	1077.37
752.49	1077.77
752.82	1078.03
753.15	1077.82
753.48	1077.70
753.81	1078.71
754.14	1077.04
754.47	1076.01
754.80	1080.86
755.13	1080.18
755.46	1080.58
755.79	1081.12
756.12	1079.01
756.45	1074.98
756.78	1075.43
757.11	1073.67
757.43	1071.94
757.76	1072.95
758.09	1071.01
758.42	1072.60
758.75	1073.32
759.08	1074.96
759.41	1075.73
759.74	1078.66
760.07	1076.74
760.39	1075.50
760.72	1074.87
761.05	1074.35
761.38	1074.94
761.71	1075.50
762.04	1076.11
762.36	1074.28
762.69	1074.28
763.02	1072.60
763.35	1073.07
763.68	1073.67
764.01	1076.23
764.33	1076.18
764.66	1079.03
764.99	1076.13
765.32	1075.83
765.65	1074.80
765.97	1075.38
766.30	1072.18
