SpectraSuite Data File
++++++++++++++++++++++++++++++++++++
Date: Mon Aug 26 10:22:24 PDT 2019
User: corrico
Dark Spectrum Present: No
Reference Spectrum Present: No
Number of Sampled Component Spectra: 1
Spectrometers: USB2+H06089
Integration Time (usec): 2000 (USB2+H06089)
Spectra Averaged: 20 (USB2+H06089)
Boxcar Smoothing: 2 (USB2+H06089)
Correct for Electrical Dark: No (USB2+H06089)
Strobe/Lamp Enabled: No (USB2+H06089)
Correct for Detector Non-linearity: No (USB2+H06089)
Correct for Stray Light: No (USB2+H06089)
Number of Pixels in Processed Spectrum: 2048
>>>>>Begin Processed Spectral Data<<<<<
339.70	1018.48
340.07	1018.48
340.45	987.14
340.82	968.40
341.19	944.48
341.57	922.50
341.94	914.19
342.31	906.77
342.69	901.27
343.06	899.47
343.43	894.86
343.81	897.97
344.18	899.12
344.55	902.25
344.93	908.34
345.30	917.54
345.67	921.77
346.04	931.93
346.42	940.99
346.79	949.51
347.16	955.66
347.54	964.70
347.91	971.09
348.28	980.90
348.65	991.97
349.03	1002.12
349.40	1008.42
349.77	1016.17
350.14	1022.44
350.52	1025.22
350.89	1032.41
351.26	1039.97
351.63	1047.27
352.01	1052.12
352.38	1058.18
352.75	1062.21
353.12	1067.35
353.50	1070.28
353.87	1072.90
354.24	1075.62
354.61	1077.63
354.98	1077.91
355.36	1080.32
355.73	1078.89
356.10	1083.86
356.47	1082.64
356.84	1083.25
357.22	1082.57
357.59	1084.07
357.96	1080.27
358.33	1085.94
358.70	1087.53
359.08	1084.65
359.45	1086.73
359.82	1084.89
360.19	1081.91
360.56	1078.82
360.94	1080.74
361.31	1078.33
361.68	1077.44
362.05	1077.04
362.42	1078.52
362.79	1078.26
363.16	1076.27
363.54	1076.34
363.91	1076.15
364.28	1075.73
364.65	1076.13
365.02	1078.89
365.39	1077.70
365.76	1078.21
366.14	1074.12
366.51	1074.80
366.88	1076.13
367.25	1079.57
367.62	1076.97
367.99	1079.41
368.36	1077.47
368.73	1075.62
369.10	1075.34
369.48	1075.48
369.85	1075.69
370.22	1071.97
370.59	1070.05
370.96	1069.62
371.33	1066.89
371.70	1066.16
372.07	1072.50
372.44	1076.23
372.81	1076.72
373.18	1080.23
373.55	1081.02
373.93	1078.26
374.30	1076.30
374.67	1076.41
375.04	1076.20
375.41	1077.23
375.78	1076.62
376.15	1079.27
376.52	1078.52
376.89	1079.85
377.26	1079.69
377.63	1082.33
378.00	1081.07
378.37	1082.29
378.74	1081.14
379.11	1081.30
379.48	1080.06
379.85	1078.78
380.22	1076.08
380.59	1077.70
380.96	1076.62
381.33	1076.88
381.70	1079.03
382.07	1079.03
382.44	1078.80
382.81	1080.67
383.18	1081.54
383.55	1080.46
383.92	1082.08
384.29	1081.98
384.66	1082.15
385.03	1082.87
385.40	1084.11
385.77	1087.09
386.14	1087.02
386.51	1085.80
386.88	1084.35
387.25	1082.83
387.62	1080.27
387.99	1080.74
388.36	1082.19
388.73	1080.32
389.10	1081.80
389.46	1083.50
389.83	1081.58
390.20	1078.50
390.57	1080.95
390.94	1079.85
391.31	1075.80
391.68	1078.21
392.05	1080.48
392.42	1079.78
392.79	1078.87
393.16	1083.74
393.53	1087.11
393.89	1087.72
394.26	1088.49
394.63	1093.80
395.00	1094.39
395.37	1093.52
395.74	1096.82
396.11	1096.59
396.48	1093.43
396.84	1091.56
397.21	1089.89
397.58	1084.65
397.95	1085.87
398.32	1085.75
398.69	1083.81
399.06	1083.13
399.42	1086.29
399.79	1086.78
400.16	1085.00
400.53	1088.23
400.90	1087.41
401.27	1090.34
401.64	1089.75
402.00	1090.48
402.37	1091.16
402.74	1092.02
403.11	1087.67
403.48	1087.69
403.84	1088.79
404.21	1087.67
404.58	1087.13
404.95	1089.85
405.32	1091.09
405.68	1091.06
406.05	1090.03
406.42	1089.85
406.79	1086.94
407.16	1085.99
407.52	1087.25
407.89	1088.40
408.26	1091.06
408.63	1093.24
408.99	1094.18
409.36	1094.15
409.73	1096.19
410.10	1095.86
410.47	1095.82
410.83	1097.13
411.20	1099.79
411.57	1098.95
411.94	1098.37
412.30	1098.72
412.67	1098.81
413.04	1099.49
413.40	1097.69
413.77	1097.17
414.14	1098.39
414.51	1101.34
414.87	1103.73
415.24	1106.86
415.61	1111.15
415.97	1111.33
416.34	1109.48
416.71	1107.68
417.08	1109.37
417.44	1105.93
417.81	1106.58
418.18	1107.47
418.54	1106.75
418.91	1106.68
419.28	1110.94
419.64	1111.80
420.01	1110.28
420.38	1110.26
420.74	1111.45
421.11	1110.16
421.48	1113.63
421.84	1117.25
422.21	1118.57
422.58	1121.82
422.94	1123.53
423.31	1124.58
423.68	1128.58
424.04	1133.22
424.41	1133.45
424.77	1138.46
425.14	1141.76
425.51	1144.71
425.87	1148.50
426.24	1152.06
426.61	1154.66
426.97	1160.04
427.34	1164.79
427.70	1171.06
428.07	1180.75
428.44	1192.18
428.80	1198.47
429.17	1207.08
429.53	1216.03
429.90	1224.69
430.27	1231.82
430.63	1242.54
431.00	1253.38
431.36	1264.90
431.73	1278.52
432.09	1288.23
432.46	1302.41
432.83	1316.79
433.19	1332.12
433.56	1348.78
433.92	1373.64
434.29	1394.21
434.65	1419.30
435.02	1444.84
435.38	1472.17
435.75	1497.80
436.11	1535.74
436.48	1567.95
436.84	1603.15
437.21	1636.90
437.57	1677.49
437.94	1713.11
438.30	1752.71
438.67	1801.37
439.03	1852.81
439.40	1904.89
439.76	1959.73
440.13	2022.95
440.49	2086.70
440.86	2152.68
441.22	2225.76
441.59	2300.33
441.95	2384.51
442.32	2469.43
442.68	2569.07
443.05	2661.84
443.41	2761.69
443.78	2862.38
444.14	2965.34
444.51	3068.77
444.87	3212.99
445.24	3349.47
445.60	3500.53
445.96	3663.15
446.33	3840.82
446.69	3994.83
447.06	4181.16
447.42	4368.28
447.79	4567.02
448.15	4787.99
448.51	5021.24
448.88	5284.20
449.24	5525.96
449.61	5797.25
449.97	6070.81
450.33	6360.05
450.70	6618.24
451.06	6946.05
451.43	7244.89
451.79	7612.59
452.15	8020.83
452.52	8471.78
452.88	8934.97
453.24	9483.73
453.61	10056.14
453.97	10618.19
454.34	11167.63
454.70	11836.09
455.06	12477.51
455.43	13113.97
455.79	13718.89
456.15	14444.71
456.52	15091.94
456.88	15864.22
457.24	16590.82
457.61	17444.32
457.97	18217.70
458.33	19010.51
458.70	19786.30
459.06	20551.00
459.42	21396.01
459.79	22177.09
460.15	23083.16
460.51	23958.78
460.88	24897.57
461.24	25701.80
461.60	26675.62
461.96	27537.53
462.33	28379.46
462.69	29166.56
463.05	30018.77
463.42	30727.98
463.78	31380.80
464.14	31913.27
464.50	32507.72
464.87	32949.83
465.23	33310.93
465.59	33689.81
465.95	34019.12
466.32	34308.02
466.68	34590.64
467.04	34739.82
467.40	34872.13
467.77	35023.80
468.13	34999.69
468.49	34879.60
468.85	34802.15
469.22	34615.77
469.58	34271.36
469.94	34016.76
470.30	33719.00
470.66	33292.74
471.03	32720.41
471.39	32332.75
471.75	31706.23
472.11	31096.97
472.47	30745.60
472.84	30451.87
473.20	29956.84
473.56	29668.09
473.92	29244.71
474.28	28716.92
474.65	28177.69
475.01	27710.70
475.37	27135.00
475.73	26652.90
476.09	26134.37
476.45	25625.47
476.81	25096.00
477.18	24545.46
477.54	24098.09
477.90	23735.49
478.26	23316.98
478.62	22972.05
478.98	22684.73
479.34	22352.56
479.71	21936.76
480.07	21586.97
480.43	21205.02
480.79	20811.22
481.15	20450.20
481.51	20133.50
481.87	19862.04
482.23	19594.87
482.59	19355.43
482.96	19107.57
483.32	18820.88
483.68	18453.88
484.04	18115.63
484.40	17739.88
484.76	17346.81
485.12	16967.95
485.48	16640.48
485.84	16265.74
486.20	15913.26
486.56	15556.63
486.92	15249.29
487.28	14896.64
487.64	14557.45
488.00	14236.43
488.37	13915.09
488.73	13553.41
489.09	13204.16
489.45	12888.11
489.81	12556.32
490.17	12255.07
490.53	11961.40
490.89	11662.77
491.25	11360.73
491.61	11052.22
491.97	10724.71
492.33	10401.72
492.69	10096.98
493.05	9778.66
493.41	9486.19
493.77	9205.84
494.13	8950.14
494.49	8703.56
494.85	8469.91
495.21	8244.89
495.57	8032.06
495.93	7819.43
496.29	7611.33
496.64	7424.83
497.00	7222.12
497.36	7021.35
497.72	6825.38
498.08	6642.37
498.44	6452.74
498.80	6289.65
499.16	6128.53
499.52	5978.80
499.88	5852.18
500.24	5737.54
500.60	5615.98
500.96	5507.14
501.32	5387.59
501.68	5259.32
502.03	5126.48
502.39	5000.55
502.75	4859.94
503.11	4730.67
503.47	4612.75
503.83	4492.33
504.19	4368.73
504.55	4265.95
504.91	4171.14
505.26	4070.38
505.62	3982.23
505.98	3898.54
506.34	3804.07
506.70	3706.87
507.06	3618.28
507.42	3528.94
507.78	3448.87
508.13	3373.23
508.49	3297.93
508.85	3226.24
509.21	3157.55
509.57	3088.50
509.93	3017.91
510.28	2953.83
510.64	2891.85
511.00	2829.89
511.36	2770.19
511.72	2713.92
512.07	2664.23
512.43	2610.63
512.79	2561.65
513.15	2515.51
513.51	2470.27
513.86	2422.95
514.22	2389.85
514.58	2349.10
514.94	2308.12
515.30	2275.33
515.65	2238.91
516.01	2199.68
516.37	2166.77
516.73	2137.24
517.08	2107.82
517.44	2079.03
517.80	2047.48
518.16	2020.23
518.51	1991.75
518.87	1966.05
519.23	1939.53
519.59	1916.20
519.94	1890.38
520.30	1865.66
520.66	1841.25
521.01	1818.76
521.37	1797.02
521.73	1773.52
522.09	1754.11
522.44	1730.69
522.80	1714.89
523.16	1694.29
523.51	1675.19
523.87	1655.95
524.23	1638.89
524.58	1616.37
524.94	1598.59
525.30	1579.89
525.65	1563.59
526.01	1546.79
526.37	1532.70
526.72	1520.88
527.08	1511.94
527.44	1499.63
527.79	1487.78
528.15	1476.76
528.51	1463.89
528.86	1450.22
529.22	1437.72
529.58	1427.45
529.93	1415.02
530.29	1406.15
530.65	1396.67
531.00	1384.29
531.36	1370.06
531.71	1358.96
532.07	1349.65
532.43	1347.96
532.78	1339.96
533.14	1333.75
533.49	1326.15
533.85	1318.42
534.21	1303.96
534.56	1300.80
534.92	1297.01
535.27	1293.38
535.63	1287.44
535.98	1282.10
536.34	1279.83
536.69	1274.52
537.05	1267.26
537.41	1262.37
537.76	1256.80
538.12	1248.65
538.47	1241.58
538.83	1238.73
539.18	1232.69
539.54	1230.02
539.89	1224.33
540.25	1221.83
540.60	1219.02
540.96	1215.21
541.31	1212.42
541.67	1213.05
542.02	1206.34
542.38	1201.21
542.73	1199.88
543.09	1195.22
543.44	1186.72
543.80	1189.20
544.15	1189.62
544.51	1184.71
544.86	1182.84
545.22	1182.67
545.57	1178.11
545.93	1173.29
546.28	1171.51
546.64	1169.85
546.99	1168.18
547.35	1164.18
547.70	1165.00
548.05	1162.57
548.41	1160.32
548.76	1159.55
549.12	1160.34
549.47	1150.54
549.83	1148.99
550.18	1148.08
550.53	1143.49
550.89	1140.89
551.24	1145.60
551.60	1145.88
551.95	1143.40
552.30	1140.71
552.66	1140.03
553.01	1139.09
553.37	1139.49
553.72	1138.25
554.07	1140.33
554.43	1140.54
554.78	1137.50
555.13	1132.35
555.49	1132.14
555.84	1129.75
556.19	1128.21
556.55	1125.45
556.90	1127.65
557.26	1126.50
557.61	1123.34
557.96	1119.78
558.32	1120.34
558.67	1119.03
559.02	1118.28
559.37	1121.63
559.73	1124.18
560.08	1124.21
560.43	1123.11
560.79	1122.33
561.14	1122.24
561.49	1117.65
561.85	1116.37
562.20	1114.91
562.55	1112.69
562.90	1108.99
563.26	1110.75
563.61	1110.70
563.96	1109.51
564.32	1110.37
564.67	1109.84
565.02	1107.87
565.37	1107.33
565.73	1108.20
566.08	1106.11
566.43	1105.46
566.78	1103.77
567.14	1104.10
567.49	1103.19
567.84	1099.98
568.19	1101.62
568.54	1103.75
568.90	1103.82
569.25	1103.28
569.60	1105.79
569.95	1101.15
570.31	1099.12
570.66	1097.78
571.01	1095.82
571.36	1094.60
571.71	1099.89
572.06	1101.64
572.42	1103.21
572.77	1106.63
573.12	1108.95
573.47	1106.07
573.82	1105.41
574.18	1103.63
574.53	1102.42
574.88	1100.96
575.23	1099.42
575.58	1096.38
575.93	1095.00
576.28	1094.97
576.64	1094.43
576.99	1095.84
577.34	1100.05
577.69	1100.99
578.04	1100.75
578.39	1099.40
578.74	1096.33
579.09	1093.55
579.44	1092.05
579.80	1091.49
580.15	1094.76
580.50	1095.70
580.85	1094.90
581.20	1094.29
581.55	1091.98
581.90	1087.37
582.25	1088.63
582.60	1088.49
582.95	1089.71
583.30	1089.57
583.65	1089.85
584.00	1092.12
584.35	1092.16
584.71	1092.73
585.06	1093.94
585.41	1093.92
585.76	1089.99
586.11	1090.95
586.46	1087.30
586.81	1086.66
587.16	1091.25
587.51	1090.83
587.86	1089.78
588.21	1090.97
588.56	1091.34
588.91	1090.01
589.26	1092.26
589.61	1092.98
589.96	1090.78
590.31	1088.42
590.66	1085.96
591.01	1084.98
591.36	1083.20
591.71	1085.94
592.06	1088.47
592.41	1089.24
592.76	1088.51
593.10	1090.57
593.45	1089.92
593.80	1090.43
594.15	1092.16
594.50	1093.24
594.85	1090.15
595.20	1089.61
595.55	1088.65
595.90	1086.15
596.25	1084.28
596.60	1090.15
596.95	1090.55
597.30	1088.93
597.64	1098.74
597.99	1100.00
598.34	1096.49
598.69	1095.53
599.04	1096.47
599.39	1087.83
599.74	1087.83
600.09	1087.16
600.44	1086.34
600.78	1085.17
601.13	1084.02
601.48	1083.43
601.83	1084.11
602.18	1084.09
602.53	1083.55
602.88	1081.28
603.22	1082.26
603.57	1081.66
603.92	1085.00
604.27	1084.98
604.62	1087.76
604.97	1086.62
605.31	1083.81
605.66	1081.75
606.01	1080.77
606.36	1080.86
606.71	1078.99
607.05	1078.87
607.40	1077.07
607.75	1079.57
608.10	1079.62
608.44	1080.53
608.79	1079.29
609.14	1081.23
609.49	1083.95
609.84	1080.37
610.18	1080.53
610.53	1082.01
610.88	1082.10
611.23	1078.96
611.57	1083.62
611.92	1083.81
612.27	1085.05
612.62	1085.75
612.96	1085.07
613.31	1081.49
613.66	1081.54
614.00	1079.88
614.35	1081.61
614.70	1083.34
615.05	1084.00
615.39	1083.06
615.74	1085.17
616.09	1083.95
616.43	1082.47
616.78	1084.58
617.13	1086.99
617.47	1088.04
617.82	1088.68
618.17	1088.14
618.51	1086.85
618.86	1084.60
619.21	1084.37
619.55	1084.51
619.90	1086.76
620.25	1087.67
620.59	1089.89
620.94	1088.37
621.29	1085.17
621.63	1086.24
621.98	1088.00
622.32	1085.54
622.67	1084.42
623.02	1085.31
623.36	1080.74
623.71	1076.62
624.05	1079.13
624.40	1082.01
624.75	1081.16
625.09	1081.23
625.44	1083.32
625.78	1082.71
626.13	1082.12
626.48	1086.27
626.82	1086.15
627.17	1086.73
627.51	1086.69
627.86	1086.73
628.20	1085.38
628.55	1090.81
628.89	1089.73
629.24	1089.38
629.58	1089.38
629.93	1089.12
630.28	1085.80
630.62	1085.59
630.97	1083.69
631.31	1083.11
631.66	1081.75
632.00	1082.08
632.35	1083.93
632.69	1086.27
633.04	1088.00
633.38	1089.43
633.73	1088.35
634.07	1086.08
634.42	1083.46
634.76	1081.49
635.11	1079.29
635.45	1080.60
635.79	1083.25
636.14	1084.46
636.48	1083.62
636.83	1084.30
637.17	1085.42
637.52	1083.86
637.86	1081.91
638.21	1084.65
638.55	1083.29
638.89	1080.48
639.24	1078.66
639.58	1084.42
639.93	1082.97
640.27	1086.27
640.61	1087.65
640.96	1087.60
641.30	1086.29
641.65	1086.97
641.99	1084.11
642.33	1085.89
642.68	1087.65
643.02	1084.37
643.37	1083.08
643.71	1084.23
644.05	1080.77
644.40	1079.24
644.74	1079.62
645.08	1080.72
645.43	1080.77
645.77	1081.30
646.11	1082.52
646.46	1082.45
646.80	1080.86
647.14	1080.09
647.49	1077.91
647.83	1076.39
648.17	1077.77
648.52	1082.76
648.86	1080.72
649.20	1084.67
649.55	1087.32
649.89	1087.51
650.23	1083.11
650.57	1084.49
650.92	1082.76
651.26	1080.32
651.60	1078.99
651.95	1079.55
652.29	1079.69
652.63	1081.02
652.97	1082.59
653.32	1086.03
653.66	1086.45
654.00	1086.45
654.34	1085.24
654.69	1084.00
655.03	1084.81
655.37	1083.53
655.71	1085.75
656.05	1085.75
656.40	1085.94
656.74	1080.77
657.08	1078.05
657.42	1076.83
657.76	1077.00
658.11	1076.69
658.45	1077.63
658.79	1081.30
659.13	1081.09
659.47	1082.22
659.82	1083.71
660.16	1085.66
660.50	1083.13
660.84	1082.83
661.18	1081.00
661.52	1080.93
661.87	1080.04
662.21	1084.28
662.55	1083.60
662.89	1083.81
663.23	1084.81
663.57	1084.51
663.91	1079.36
664.25	1079.71
664.60	1080.58
664.94	1080.60
665.28	1079.76
665.62	1080.25
665.96	1081.00
666.30	1079.64
666.64	1078.94
666.98	1080.25
667.32	1081.44
667.66	1078.82
668.01	1079.27
668.35	1074.47
668.69	1071.75
669.03	1072.39
669.37	1073.67
669.71	1076.46
670.05	1078.71
670.39	1078.82
670.73	1078.45
671.07	1079.06
671.41	1078.19
671.75	1080.67
672.09	1083.86
672.43	1084.63
672.77	1084.51
673.11	1080.25
673.45	1075.87
673.79	1074.70
674.13	1073.72
674.47	1074.00
674.81	1075.62
675.15	1080.60
675.49	1081.89
675.83	1086.10
676.17	1088.42
676.51	1092.00
676.85	1088.04
677.19	1086.41
677.53	1085.66
677.87	1082.17
678.21	1079.62
678.55	1080.30
678.89	1081.56
679.23	1078.12
679.57	1078.85
679.90	1080.95
680.24	1083.18
680.58	1082.94
680.92	1082.38
681.26	1083.67
681.60	1084.42
681.94	1083.93
682.28	1084.39
682.62	1085.07
682.96	1085.68
683.29	1083.48
683.63	1080.53
683.97	1077.75
684.31	1081.70
684.65	1080.81
684.99	1082.05
685.33	1086.73
685.67	1088.68
686.00	1086.57
686.34	1089.14
686.68	1086.80
687.02	1085.33
687.36	1083.27
687.70	1082.05
688.03	1078.10
688.37	1079.48
688.71	1079.15
689.05	1079.01
689.39	1077.82
689.72	1080.74
690.06	1082.19
690.40	1080.16
690.74	1079.64
691.08	1078.80
691.41	1076.18
691.75	1073.32
692.09	1075.64
692.43	1077.98
692.76	1082.01
693.10	1084.67
693.44	1086.76
693.78	1084.63
694.11	1084.32
694.45	1084.81
694.79	1081.73
695.13	1080.93
695.46	1079.60
695.80	1079.71
696.14	1077.98
696.48	1077.21
696.81	1077.04
697.15	1081.40
697.49	1080.77
697.82	1080.37
698.16	1080.46
698.50	1079.76
698.83	1077.70
699.17	1077.79
699.51	1076.74
699.84	1079.41
700.18	1079.29
700.52	1079.38
700.85	1079.53
701.19	1081.37
701.53	1082.50
701.86	1084.74
702.20	1084.96
702.54	1086.41
702.87	1085.89
703.21	1085.14
703.55	1084.11
703.88	1083.29
704.22	1084.14
704.55	1085.49
704.89	1084.42
705.23	1084.74
705.56	1086.55
705.90	1085.10
706.23	1082.47
706.57	1082.92
706.91	1082.43
707.24	1080.88
707.58	1078.43
707.91	1080.95
708.25	1079.43
708.58	1077.42
708.92	1077.44
709.26	1078.54
709.59	1078.36
709.93	1080.18
710.26	1079.43
710.60	1081.56
710.93	1081.77
711.27	1082.26
711.60	1081.75
711.94	1083.57
712.27	1083.67
712.61	1083.88
712.94	1081.56
713.28	1080.11
713.61	1077.54
713.95	1077.04
714.28	1079.95
714.62	1082.43
714.95	1085.03
715.29	1091.74
715.62	1091.42
715.96	1091.88
716.29	1089.43
716.63	1087.51
716.96	1085.21
717.29	1083.48
717.63	1081.56
717.96	1082.33
718.30	1085.05
718.63	1084.46
718.97	1085.87
719.30	1085.49
719.63	1085.42
719.97	1083.34
720.30	1080.04
720.64	1079.78
720.97	1078.28
721.30	1077.23
721.64	1075.80
721.97	1078.03
722.31	1075.99
722.64	1078.43
722.97	1078.85
723.31	1082.99
723.64	1085.00
723.97	1084.65
724.31	1081.44
724.64	1081.44
724.98	1080.63
725.31	1079.27
725.64	1079.29
725.98	1079.85
726.31	1082.38
726.64	1080.20
726.97	1081.00
727.31	1084.56
727.64	1086.17
727.97	1084.37
728.31	1083.95
728.64	1080.81
728.97	1079.88
729.31	1079.38
729.64	1076.51
729.97	1073.81
730.30	1077.09
730.64	1074.80
730.97	1075.34
731.30	1076.01
731.63	1080.84
731.97	1080.11
732.30	1083.25
732.63	1086.31
732.96	1089.54
733.30	1091.11
733.63	1091.79
733.96	1092.84
734.29	1089.99
734.63	1088.54
734.96	1083.95
735.29	1082.83
735.62	1084.51
735.95	1085.94
736.29	1086.43
736.62	1086.66
736.95	1087.88
737.28	1080.77
737.61	1077.56
737.94	1075.78
738.28	1076.44
738.61	1076.41
738.94	1079.74
739.27	1080.98
739.60	1084.53
739.93	1086.34
740.27	1086.92
740.60	1089.24
740.93	1088.40
741.26	1085.77
741.59	1084.96
741.92	1081.91
742.25	1079.41
742.58	1082.59
742.91	1081.68
743.25	1081.05
743.58	1082.59
743.91	1085.40
744.24	1085.87
744.57	1087.06
744.90	1083.79
745.23	1078.24
745.56	1075.64
745.89	1071.54
746.22	1072.71
746.55	1076.48
746.88	1081.70
747.21	1079.85
747.54	1080.32
747.87	1080.91
748.20	1078.50
748.53	1078.28
748.87	1079.20
749.20	1080.67
749.53	1078.33
749.86	1083.95
750.19	1084.70
750.52	1085.38
750.85	1086.41
751.18	1087.32
751.51	1084.07
751.84	1082.85
752.16	1081.73
752.49	1078.14
752.82	1076.01
753.15	1073.28
753.48	1073.28
753.81	1075.13
754.14	1076.46
754.47	1077.79
754.80	1080.04
755.13	1080.70
755.46	1078.92
755.79	1077.25
756.12	1076.90
756.45	1078.07
756.78	1076.74
757.11	1074.19
757.43	1073.84
757.76	1073.91
758.09	1073.30
758.42	1075.17
758.75	1079.57
759.08	1078.99
759.41	1079.01
759.74	1078.12
760.07	1076.62
760.39	1074.61
760.72	1076.04
761.05	1077.61
761.38	1074.24
761.71	1073.86
762.04	1071.75
762.36	1071.26
762.69	1072.90
763.02	1076.08
763.35	1078.14
763.68	1080.65
764.01	1082.17
