SpectraSuite Data File
++++++++++++++++++++++++++++++++++++
Date: Mon Aug 26 10:22:15 PDT 2019
User: corrico
Dark Spectrum Present: No
Reference Spectrum Present: No
Number of Sampled Component Spectra: 1
Spectrometers: USB2+H06089
Integration Time (usec): 2000 (USB2+H06089)
Spectra Averaged: 20 (USB2+H06089)
Boxcar Smoothing: 2 (USB2+H06089)
Correct for Electrical Dark: No (USB2+H06089)
Strobe/Lamp Enabled: No (USB2+H06089)
Correct for Detector Non-linearity: No (USB2+H06089)
Correct for Stray Light: No (USB2+H06089)
Number of Pixels in Processed Spectrum: 2048
>>>>>Begin Processed Spectral Data<<<<<
339.70	1030.89
340.07	1030.89
340.45	996.76
340.82	975.07
341.19	951.69
341.57	924.11
341.94	912.39
342.31	902.81
342.69	894.30
343.06	889.75
343.43	891.39
343.81	893.97
344.18	898.88
344.55	906.40
344.93	910.59
345.30	916.32
345.67	922.69
346.04	929.66
346.42	937.57
346.79	945.06
347.16	952.60
347.54	960.32
347.91	970.81
348.28	980.87
348.65	995.41
349.03	1009.47
349.40	1020.59
349.77	1028.50
350.14	1033.39
350.52	1033.86
350.89	1036.53
351.26	1043.22
351.63	1045.80
352.01	1050.76
352.38	1060.54
352.75	1062.67
353.12	1066.91
353.50	1072.71
353.87	1079.50
354.24	1080.04
354.61	1084.44
354.98	1083.83
355.36	1082.73
355.73	1085.54
356.10	1088.23
356.47	1088.37
356.84	1089.12
357.22	1092.16
357.59	1089.82
357.96	1086.80
358.33	1088.65
358.70	1085.66
359.08	1080.13
359.45	1080.25
359.82	1082.59
360.19	1077.42
360.56	1078.96
360.94	1078.05
361.31	1075.64
361.68	1077.84
362.05	1082.47
362.42	1083.06
362.79	1087.39
363.16	1087.06
363.54	1084.04
363.91	1081.84
364.28	1080.18
364.65	1079.15
365.02	1079.36
365.39	1078.68
365.76	1078.17
366.14	1077.23
366.51	1076.86
366.88	1074.40
367.25	1073.16
367.62	1072.08
367.99	1071.71
368.36	1074.05
368.73	1074.26
369.10	1075.22
369.48	1075.76
369.85	1079.01
370.22	1074.12
370.59	1073.51
370.96	1074.91
371.33	1077.21
371.70	1076.58
372.07	1080.32
372.44	1085.68
372.81	1082.26
373.18	1078.80
373.55	1078.68
373.93	1077.84
374.30	1072.64
374.67	1070.56
375.04	1073.46
375.41	1071.54
375.78	1071.40
376.15	1072.90
376.52	1077.91
376.89	1076.27
377.26	1076.95
377.63	1076.97
378.00	1079.64
378.37	1079.20
378.74	1082.59
379.11	1085.49
379.48	1084.58
379.85	1083.97
380.22	1082.24
380.59	1079.57
380.96	1077.18
381.33	1079.88
381.70	1081.05
382.07	1084.60
382.44	1083.81
382.81	1087.62
383.18	1088.02
383.55	1087.18
383.92	1086.55
384.29	1088.47
384.66	1086.90
385.03	1082.17
385.40	1081.75
385.77	1079.60
386.14	1079.67
386.51	1079.81
386.88	1085.45
387.25	1084.56
387.62	1087.60
387.99	1087.74
388.36	1086.43
388.73	1083.60
389.10	1083.64
389.46	1082.22
389.83	1083.50
390.20	1084.07
390.57	1085.21
390.94	1086.94
391.31	1085.05
391.68	1082.92
392.05	1083.36
392.42	1083.79
392.79	1082.90
393.16	1088.40
393.53	1088.02
393.89	1087.02
394.26	1085.45
394.63	1084.93
395.00	1081.33
395.37	1084.25
395.74	1085.75
396.11	1087.93
396.48	1088.79
396.84	1087.04
397.21	1083.95
397.58	1080.65
397.95	1080.44
398.32	1079.92
398.69	1081.96
399.06	1083.69
399.42	1088.79
399.79	1090.74
400.16	1090.74
400.53	1091.56
400.90	1092.07
401.27	1091.06
401.64	1091.42
402.00	1092.14
402.37	1091.09
402.74	1090.69
403.11	1090.76
403.48	1090.74
403.84	1093.24
404.21	1094.32
404.58	1096.70
404.95	1097.29
405.32	1095.30
405.68	1093.47
406.05	1093.85
406.42	1091.74
406.79	1090.69
407.16	1091.34
407.52	1091.39
407.89	1092.07
408.26	1096.82
408.63	1098.39
408.99	1096.40
409.36	1095.56
409.73	1093.31
410.10	1088.84
410.47	1086.50
410.83	1086.48
411.20	1087.41
411.57	1093.26
411.94	1091.09
412.30	1088.77
412.67	1092.33
413.04	1092.98
413.40	1091.77
413.77	1098.93
414.14	1103.33
414.51	1106.96
414.87	1109.09
415.24	1112.29
415.61	1107.03
415.97	1107.54
416.34	1104.17
416.71	1103.05
417.08	1098.67
417.44	1100.33
417.81	1102.06
418.18	1105.44
418.54	1105.86
418.91	1109.18
419.28	1112.18
419.64	1111.29
420.01	1112.39
420.38	1114.77
420.74	1114.77
421.11	1116.39
421.48	1120.23
421.84	1120.86
422.21	1122.64
422.58	1126.34
422.94	1129.59
423.31	1128.33
423.68	1131.88
424.04	1136.21
424.41	1136.52
424.77	1139.51
425.14	1143.70
425.51	1147.85
425.87	1152.95
426.24	1159.13
426.61	1164.81
426.97	1176.17
427.34	1181.48
427.70	1189.02
428.07	1199.85
428.44	1209.64
428.80	1213.99
429.17	1224.17
429.53	1232.39
429.90	1239.55
430.27	1247.01
430.63	1256.26
431.00	1263.51
431.36	1276.50
431.73	1291.55
432.09	1305.76
432.46	1325.75
432.83	1343.47
433.19	1357.74
433.56	1372.14
433.92	1393.32
434.29	1413.40
434.65	1438.28
435.02	1467.05
435.38	1499.04
435.75	1528.51
436.11	1561.21
436.48	1597.51
436.84	1636.10
437.21	1673.30
437.57	1712.57
437.94	1756.20
438.30	1804.37
438.67	1850.90
439.03	1907.33
439.40	1969.23
439.76	2029.83
440.13	2091.27
440.49	2165.81
440.86	2239.24
441.22	2321.39
441.59	2403.94
441.95	2498.08
442.32	2588.61
442.68	2688.18
443.05	2784.89
443.41	2892.29
443.78	2997.08
444.14	3114.04
444.51	3234.83
444.87	3381.54
445.24	3528.47
445.60	3685.52
445.96	3847.93
446.33	4027.55
446.69	4199.27
447.06	4396.44
447.42	4596.81
447.79	4805.45
448.15	5047.67
448.51	5296.98
448.88	5578.22
449.24	5845.82
449.61	6147.44
449.97	6443.21
450.33	6758.06
450.70	7053.42
451.06	7420.62
451.43	7763.88
451.79	8160.61
452.15	8601.05
452.52	9086.31
452.88	9592.85
453.24	10169.14
453.61	10816.22
453.97	11436.21
454.34	12033.98
454.70	12735.63
455.06	13433.32
455.43	14110.62
455.79	14747.88
456.15	15514.92
456.52	16226.09
456.88	17087.10
457.24	17887.03
457.61	18863.45
457.97	19753.70
458.33	20638.66
458.70	21491.22
459.06	22335.12
459.42	23232.27
459.79	24048.63
460.15	25005.14
460.51	25920.73
460.88	26877.10
461.24	27690.29
461.60	28704.31
461.96	29636.66
462.33	30507.60
462.69	31380.52
463.05	32349.20
463.42	33214.85
463.78	34021.86
464.14	34752.32
464.50	35475.41
464.87	36017.31
465.23	36370.66
465.59	36696.07
465.95	36921.67
466.32	37127.31
466.68	37326.89
467.04	37438.74
467.40	37543.41
467.77	37748.70
468.13	37767.80
468.49	37656.97
468.85	37577.46
469.22	37400.96
469.58	37026.10
469.94	36763.73
470.30	36531.39
470.66	36191.35
471.03	35641.47
471.39	35233.07
471.75	34526.04
472.11	33805.74
472.47	33319.45
472.84	32868.07
473.20	32241.93
473.56	31879.13
473.92	31346.02
474.28	30767.91
474.65	30281.31
475.01	29815.10
475.37	29240.34
475.73	28768.48
476.09	28221.55
476.45	27671.50
476.81	27163.70
477.18	26611.35
477.54	26156.38
477.90	25743.95
478.26	25239.17
478.62	24791.96
478.98	24410.78
479.34	24017.36
479.71	23561.26
480.07	23160.79
480.43	22768.24
480.79	22393.45
481.15	22046.28
481.51	21745.54
481.87	21493.23
482.23	21171.57
482.59	20858.99
482.96	20516.97
483.32	20155.45
483.68	19753.93
484.04	19396.51
484.40	19005.52
484.76	18621.61
485.12	18247.00
485.48	17904.56
485.84	17547.75
486.20	17178.32
486.56	16796.99
486.92	16460.38
487.28	16077.28
487.64	15686.11
488.00	15337.34
488.37	14980.55
488.73	14574.82
489.09	14165.53
489.45	13791.02
489.81	13394.86
490.17	13019.46
490.53	12679.24
490.89	12354.10
491.25	12045.26
491.61	11738.30
491.97	11420.48
492.33	11075.77
492.69	10763.82
493.05	10427.81
493.41	10120.24
493.77	9825.12
494.13	9563.52
494.49	9283.99
494.85	9020.35
495.21	8763.08
495.57	8526.97
495.93	8285.19
496.29	8058.58
496.64	7864.50
497.00	7659.66
497.36	7454.00
497.72	7255.31
498.08	7069.00
498.44	6874.74
498.80	6690.40
499.16	6510.43
499.52	6337.12
499.88	6184.54
500.24	6034.30
500.60	5900.94
500.96	5780.23
501.32	5655.25
501.68	5527.06
502.03	5402.14
502.39	5266.46
502.75	5125.73
503.11	4988.99
503.47	4855.70
503.83	4714.26
504.19	4579.42
504.55	4455.56
504.91	4351.41
505.26	4250.25
505.62	4162.62
505.98	4075.67
506.34	3971.96
506.70	3872.16
507.06	3776.55
507.42	3684.80
507.78	3605.74
508.13	3528.26
508.49	3451.49
508.85	3379.15
509.21	3303.24
509.57	3225.09
509.93	3160.71
510.28	3093.86
510.64	3026.59
511.00	2961.11
511.36	2901.84
511.72	2847.38
512.07	2796.36
512.43	2746.74
512.79	2695.83
513.15	2638.46
513.51	2581.49
513.86	2525.23
514.22	2475.61
514.58	2432.38
514.94	2395.98
515.30	2361.44
515.65	2327.10
516.01	2297.14
516.37	2259.60
516.73	2225.80
517.08	2191.09
517.44	2155.19
517.80	2112.87
518.16	2085.21
518.51	2055.22
518.87	2020.14
519.23	1990.16
519.59	1966.14
519.94	1935.25
520.30	1909.81
520.66	1888.09
521.01	1870.93
521.37	1849.33
521.73	1829.64
522.09	1803.06
522.44	1781.36
522.80	1756.13
523.16	1737.57
523.51	1718.14
523.87	1702.22
524.23	1683.22
524.58	1663.82
524.94	1641.63
525.30	1618.95
525.65	1600.48
526.01	1584.12
526.37	1566.33
526.72	1553.93
527.08	1542.60
527.44	1527.29
527.79	1513.48
528.15	1503.96
528.51	1489.28
528.86	1474.87
529.22	1463.65
529.58	1451.25
529.93	1441.98
530.29	1426.72
530.65	1416.59
531.00	1405.66
531.36	1396.48
531.71	1381.92
532.07	1376.94
532.43	1370.08
532.78	1362.38
533.14	1354.05
533.49	1347.21
533.85	1341.81
534.21	1335.02
534.56	1331.84
534.92	1323.76
535.27	1318.17
535.63	1308.06
535.98	1303.63
536.34	1293.38
536.69	1289.31
537.05	1283.34
537.41	1280.55
537.76	1271.38
538.12	1265.83
538.47	1258.69
538.83	1251.20
539.18	1243.97
539.54	1240.53
539.89	1236.29
540.25	1230.30
540.60	1227.00
540.96	1221.67
541.31	1218.37
541.67	1217.27
542.02	1218.06
542.38	1215.16
542.73	1214.04
543.09	1213.29
543.44	1205.96
543.80	1201.51
544.15	1200.91
544.51	1198.59
544.86	1193.46
545.22	1194.31
545.57	1192.29
545.93	1187.73
546.28	1185.90
546.64	1181.95
546.99	1179.86
547.35	1178.95
547.70	1177.90
548.05	1175.44
548.41	1176.14
548.76	1172.58
549.12	1172.21
549.47	1167.13
549.83	1164.67
550.18	1160.04
550.53	1154.56
550.89	1147.61
551.24	1146.30
551.60	1144.48
551.95	1144.03
552.30	1144.80
552.66	1141.85
553.01	1140.40
553.37	1139.75
553.72	1138.53
554.07	1139.75
554.43	1141.71
554.78	1144.29
555.13	1141.90
555.49	1141.27
555.84	1138.81
556.19	1133.73
556.55	1130.20
556.90	1129.38
557.26	1127.13
557.61	1122.94
557.96	1122.22
558.32	1119.45
558.67	1115.92
559.02	1110.79
559.37	1110.70
559.73	1112.62
560.08	1108.45
560.43	1108.31
560.79	1112.36
561.14	1115.94
561.49	1116.55
561.85	1121.26
562.20	1120.98
562.55	1121.21
562.90	1115.03
563.26	1113.23
563.61	1110.75
563.96	1112.04
564.32	1107.73
564.67	1111.66
565.02	1110.79
565.37	1109.37
565.73	1107.78
566.08	1110.87
566.43	1109.18
566.78	1108.50
567.14	1106.11
567.49	1106.72
567.84	1104.71
568.19	1103.14
568.54	1102.72
568.90	1103.61
569.25	1102.93
569.60	1100.96
569.95	1100.64
570.31	1098.41
570.66	1099.58
571.01	1096.45
571.36	1099.54
571.71	1097.31
572.06	1097.73
572.42	1098.46
572.77	1099.75
573.12	1096.99
573.47	1098.25
573.82	1099.23
574.18	1102.65
574.53	1102.84
574.88	1104.38
575.23	1105.08
575.58	1104.15
575.93	1098.46
576.28	1099.61
576.64	1100.82
576.99	1099.72
577.34	1096.75
577.69	1093.57
578.04	1093.59
578.39	1088.70
578.74	1088.68
579.09	1094.27
579.44	1097.34
579.80	1097.27
580.15	1098.88
580.50	1096.96
580.85	1094.34
581.20	1095.44
581.55	1097.57
581.90	1096.19
582.25	1099.21
582.60	1099.23
582.95	1098.98
583.30	1093.78
583.65	1094.72
584.00	1094.08
584.35	1094.95
584.71	1093.73
585.06	1096.85
585.41	1096.38
585.76	1093.97
586.11	1090.01
586.46	1092.16
586.81	1091.39
587.16	1093.43
587.51	1096.47
587.86	1100.59
588.21	1098.58
588.56	1097.03
588.91	1094.15
589.26	1090.17
589.61	1087.34
589.96	1091.37
590.31	1088.89
590.66	1090.97
591.01	1090.55
591.36	1090.50
591.71	1086.97
592.06	1089.59
592.41	1086.99
592.76	1089.24
593.10	1090.17
593.45	1088.49
593.80	1089.80
594.15	1091.42
594.50	1093.08
594.85	1091.30
595.20	1092.96
595.55	1091.27
595.90	1090.03
596.25	1085.70
596.60	1089.52
596.95	1087.46
597.30	1087.09
597.64	1098.58
597.99	1104.26
598.34	1102.67
598.69	1103.21
599.04	1102.74
599.39	1091.98
599.74	1090.08
600.09	1089.92
600.44	1088.79
600.78	1087.60
601.13	1086.29
601.48	1083.18
601.83	1081.56
602.18	1083.08
602.53	1080.20
602.88	1078.64
603.22	1078.85
603.57	1079.74
603.92	1080.86
604.27	1083.86
604.62	1081.91
604.97	1079.88
605.31	1079.15
605.66	1078.03
606.01	1077.61
606.36	1081.16
606.71	1086.31
607.05	1086.57
607.40	1088.72
607.75	1090.81
608.10	1088.86
608.44	1085.52
608.79	1088.21
609.14	1086.10
609.49	1084.35
609.84	1087.37
610.18	1089.78
610.53	1087.74
610.88	1087.76
611.23	1087.13
611.57	1087.67
611.92	1086.38
612.27	1083.29
612.62	1081.40
612.96	1082.01
613.31	1081.89
613.66	1081.26
614.00	1084.04
614.35	1085.80
614.70	1083.86
615.05	1084.25
615.39	1084.51
615.74	1085.94
616.09	1086.64
616.43	1089.17
616.78	1087.46
617.13	1086.57
617.47	1085.49
617.82	1084.77
618.17	1086.03
618.51	1087.86
618.86	1086.36
619.21	1084.98
619.55	1084.53
619.90	1083.32
620.25	1084.09
620.59	1086.97
620.94	1085.28
621.29	1086.17
621.63	1084.77
621.98	1083.27
622.32	1082.26
622.67	1083.90
623.02	1083.69
623.36	1086.73
623.71	1085.10
624.05	1084.53
624.40	1084.16
624.75	1084.35
625.09	1083.32
625.44	1082.99
625.78	1081.12
626.13	1079.38
626.48	1078.12
626.82	1076.90
627.17	1077.68
627.51	1081.44
627.86	1083.88
628.20	1083.57
628.55	1082.76
628.89	1081.40
629.24	1082.52
629.58	1082.87
629.93	1082.90
630.28	1084.60
630.62	1085.99
630.97	1084.58
631.31	1084.07
631.66	1084.67
632.00	1083.20
632.35	1083.76
632.69	1084.11
633.04	1085.21
633.38	1086.83
633.73	1088.16
634.07	1085.56
634.42	1084.14
634.76	1083.18
635.11	1080.86
635.45	1080.39
635.79	1083.86
636.14	1080.74
636.48	1078.80
636.83	1079.24
637.17	1079.13
637.52	1078.57
637.86	1082.29
638.21	1084.23
638.55	1081.98
638.89	1081.84
639.24	1082.57
639.58	1083.62
639.93	1082.57
640.27	1084.09
640.61	1084.44
640.96	1081.63
641.30	1078.50
641.65	1083.50
641.99	1085.45
642.33	1085.47
642.68	1086.43
643.02	1089.31
643.37	1083.90
643.71	1081.87
644.05	1081.37
644.40	1085.35
644.74	1082.19
645.08	1083.60
645.43	1084.32
645.77	1085.45
646.11	1081.96
646.46	1084.56
646.80	1084.51
647.14	1084.72
647.49	1085.52
647.83	1086.27
648.17	1086.45
648.52	1086.83
648.86	1085.80
649.20	1085.10
649.55	1084.07
649.89	1084.07
650.23	1085.07
650.57	1086.01
650.92	1084.60
651.26	1084.04
651.60	1083.62
651.95	1081.61
652.29	1080.56
652.63	1082.19
652.97	1082.47
653.32	1079.90
653.66	1079.67
654.00	1081.21
654.34	1080.41
654.69	1081.07
655.03	1082.12
655.37	1082.10
655.71	1082.26
656.05	1082.76
656.40	1084.53
656.74	1085.73
657.08	1084.98
657.42	1082.47
657.76	1081.07
658.11	1079.95
658.45	1078.45
658.79	1078.66
659.13	1083.43
659.47	1086.87
659.82	1086.24
660.16	1087.95
660.50	1089.22
660.84	1088.44
661.18	1084.39
661.52	1083.55
661.87	1082.17
662.21	1081.63
662.55	1077.23
662.89	1079.27
663.23	1080.81
663.57	1081.66
663.91	1083.88
664.25	1084.77
664.60	1086.41
664.94	1085.19
665.28	1086.10
665.62	1085.49
665.96	1087.67
666.30	1084.91
666.64	1085.19
666.98	1083.01
667.32	1081.09
667.66	1083.32
668.01	1081.80
668.35	1080.88
668.69	1081.05
669.03	1081.35
669.37	1077.68
669.71	1078.28
670.05	1077.30
670.39	1077.79
670.73	1077.16
671.07	1080.27
671.41	1081.21
671.75	1084.32
672.09	1084.18
672.43	1085.87
672.77	1086.66
673.11	1086.29
673.45	1084.49
673.79	1086.17
674.13	1084.98
674.47	1078.50
674.81	1079.95
675.15	1079.43
675.49	1077.11
675.83	1078.10
676.17	1081.68
676.51	1080.18
676.85	1083.04
677.19	1085.24
677.53	1085.68
677.87	1085.96
678.21	1085.94
678.55	1085.91
678.89	1085.66
679.23	1086.20
679.57	1084.56
679.90	1086.45
680.24	1087.30
680.58	1089.57
680.92	1089.94
681.26	1093.38
681.60	1091.95
681.94	1092.52
682.28	1090.41
682.62	1088.91
682.96	1084.84
683.29	1084.11
683.63	1081.33
683.97	1080.44
684.31	1078.21
684.65	1079.50
684.99	1078.54
685.33	1078.03
685.67	1075.08
686.00	1077.54
686.34	1079.13
686.68	1079.76
687.02	1080.30
687.36	1081.16
687.70	1082.40
688.03	1080.51
688.37	1083.90
688.71	1082.71
689.05	1082.90
689.39	1079.85
689.72	1077.16
690.06	1075.01
690.40	1074.75
690.74	1076.76
691.08	1075.05
691.41	1077.54
691.75	1078.96
692.09	1077.93
692.43	1075.17
692.76	1077.30
693.10	1079.74
693.44	1077.30
693.78	1076.97
694.11	1082.17
694.45	1080.84
694.79	1077.28
695.13	1076.83
695.46	1077.70
695.80	1074.75
696.14	1074.61
696.48	1072.36
696.81	1071.94
697.15	1072.29
697.49	1073.11
697.82	1075.97
698.16	1078.05
698.50	1080.79
698.83	1082.83
699.17	1081.87
699.51	1079.95
699.84	1078.66
700.18	1078.89
700.52	1078.68
700.85	1081.23
701.19	1083.32
701.53	1087.16
701.86	1086.03
702.20	1083.04
702.54	1080.27
702.87	1078.73
703.21	1076.13
703.55	1078.10
703.88	1082.87
704.22	1084.02
704.55	1083.11
704.89	1084.46
705.23	1083.88
705.56	1080.34
705.90	1079.41
706.23	1079.46
706.57	1079.24
706.91	1080.25
707.24	1080.98
707.58	1083.64
707.91	1083.95
708.25	1083.08
708.58	1079.50
708.92	1079.85
709.26	1079.46
709.59	1082.15
709.93	1083.86
710.26	1083.50
710.60	1080.04
710.93	1077.35
711.27	1076.90
711.60	1077.86
711.94	1080.04
712.27	1083.34
712.61	1082.40
712.94	1081.84
713.28	1081.26
713.61	1081.68
713.95	1082.38
714.28	1085.47
714.62	1086.50
714.95	1084.56
715.29	1083.15
715.62	1082.73
715.96	1079.01
716.29	1078.07
716.63	1078.17
716.96	1079.85
717.29	1079.31
717.63	1080.27
717.96	1079.15
718.30	1081.47
718.63	1078.64
718.97	1076.83
719.30	1076.46
719.63	1077.09
719.97	1074.73
720.30	1077.82
720.64	1078.52
720.97	1081.02
721.30	1079.83
721.64	1078.47
721.97	1078.73
722.31	1082.17
722.64	1083.93
722.97	1083.50
723.31	1086.55
723.64	1085.77
723.97	1083.74
724.31	1080.86
724.64	1083.81
724.98	1085.42
725.31	1084.25
725.64	1081.70
725.98	1085.66
726.31	1084.35
726.64	1085.87
726.97	1084.58
727.31	1087.81
727.64	1085.21
727.97	1084.98
728.31	1083.04
728.64	1082.38
728.97	1080.02
729.31	1077.25
729.64	1078.92
729.97	1075.17
730.30	1076.58
730.64	1077.93
730.97	1081.44
731.30	1081.07
731.63	1084.37
731.97	1083.25
732.30	1084.25
732.63	1083.18
732.96	1080.20
733.30	1080.34
733.63	1081.09
733.96	1079.38
734.29	1078.73
734.63	1079.38
734.96	1078.17
735.29	1076.11
735.62	1076.90
735.95	1074.68
736.29	1077.25
736.62	1076.67
736.95	1077.51
737.28	1078.52
737.61	1079.38
737.94	1075.48
738.28	1078.50
738.61	1081.28
738.94	1076.90
739.27	1079.78
739.60	1083.06
739.93	1083.60
740.27	1083.79
740.60	1087.41
740.93	1088.00
741.26	1085.84
741.59	1082.52
741.92	1080.11
742.25	1080.79
742.58	1076.67
742.91	1079.13
743.25	1080.84
743.58	1081.33
743.91	1079.67
744.24	1082.17
744.57	1078.10
744.90	1075.20
745.23	1073.21
745.56	1071.64
745.89	1070.91
746.22	1073.21
746.55	1075.90
746.88	1077.75
747.21	1081.23
747.54	1083.93
747.87	1083.13
748.20	1079.31
748.53	1076.90
748.87	1073.74
749.20	1072.55
749.53	1071.90
749.86	1073.60
750.19	1078.85
750.52	1080.91
750.85	1079.43
751.18	1080.34
751.51	1081.05
751.84	1077.86
752.16	1076.18
752.49	1077.56
752.82	1079.88
753.15	1079.76
753.48	1083.25
753.81	1084.39
754.14	1082.12
754.47	1078.21
754.80	1077.21
755.13	1075.10
755.46	1073.88
755.79	1074.38
756.12	1078.03
756.45	1083.41
756.78	1084.23
757.11	1087.74
757.43	1089.26
757.76	1088.86
758.09	1087.39
758.42	1084.32
758.75	1080.93
759.08	1081.19
759.41	1080.91
759.74	1076.79
760.07	1077.28
760.39	1080.04
760.72	1080.65
761.05	1079.17
761.38	1081.37
761.71	1084.67
762.04	1083.34
762.36	1079.99
762.69	1082.61
763.02	1082.90
763.35	1083.79
763.68	1085.56
764.01	1088.63
