SpectraSuite Data File
++++++++++++++++++++++++++++++++++++
Date: Mon Aug 26 10:22:30 PDT 2019
User: corrico
Dark Spectrum Present: No
Reference Spectrum Present: No
Number of Sampled Component Spectra: 1
Spectrometers: USB2+H06089
Integration Time (usec): 2000 (USB2+H06089)
Spectra Averaged: 20 (USB2+H06089)
Boxcar Smoothing: 2 (USB2+H06089)
Correct for Electrical Dark: No (USB2+H06089)
Strobe/Lamp Enabled: No (USB2+H06089)
Correct for Detector Non-linearity: No (USB2+H06089)
Correct for Stray Light: No (USB2+H06089)
Number of Pixels in Processed Spectrum: 2048
>>>>>Begin Processed Spectral Data<<<<<
339.70	1027.38
340.07	1027.38
340.45	993.39
340.82	971.53
341.19	947.61
341.57	920.79
341.94	909.30
342.31	903.33
342.69	899.44
343.06	898.84
343.43	901.55
343.81	902.39
344.18	901.53
344.55	903.82
344.93	906.42
345.30	911.62
345.67	925.75
346.04	936.45
346.42	945.08
346.79	954.99
347.16	961.94
347.54	964.84
347.91	970.18
348.28	979.02
348.65	987.50
349.03	998.47
349.40	1007.44
349.77	1017.03
350.14	1025.72
350.52	1034.84
350.89	1041.00
351.26	1045.47
351.63	1051.91
352.01	1054.04
352.38	1059.09
352.75	1063.33
353.12	1068.62
353.50	1070.72
353.87	1074.66
354.24	1074.40
354.61	1075.83
354.98	1075.52
355.36	1077.82
355.73	1081.42
356.10	1080.32
356.47	1081.70
356.84	1084.74
357.22	1085.61
357.59	1085.14
357.96	1086.17
358.33	1083.95
358.70	1081.94
359.08	1080.02
359.45	1082.03
359.82	1083.71
360.19	1085.45
360.56	1084.23
360.94	1084.02
361.31	1079.71
361.68	1078.38
362.05	1078.75
362.42	1079.55
362.79	1078.57
363.16	1076.95
363.54	1077.37
363.91	1071.85
364.28	1072.50
364.65	1074.89
365.02	1078.92
365.39	1077.58
365.76	1080.39
366.14	1080.44
366.51	1081.42
366.88	1080.74
367.25	1082.64
367.62	1082.43
367.99	1083.55
368.36	1082.36
368.73	1077.75
369.10	1072.64
369.48	1073.32
369.85	1073.09
370.22	1068.20
370.59	1071.80
370.96	1075.08
371.33	1073.37
371.70	1072.29
372.07	1073.16
372.44	1075.38
372.81	1075.13
373.18	1078.68
373.55	1078.78
373.93	1082.08
374.30	1079.10
374.67	1082.01
375.04	1083.32
375.41	1080.27
375.78	1078.47
376.15	1079.60
376.52	1075.45
376.89	1073.46
377.26	1073.86
377.63	1075.29
378.00	1076.11
378.37	1077.58
378.74	1075.55
379.11	1075.36
379.48	1074.84
379.85	1074.70
380.22	1075.38
380.59	1078.21
380.96	1080.32
381.33	1080.13
381.70	1079.71
382.07	1080.02
382.44	1078.57
382.81	1081.28
383.18	1081.75
383.55	1083.48
383.92	1085.49
384.29	1086.83
384.66	1087.62
385.03	1089.26
385.40	1088.35
385.77	1085.35
386.14	1087.51
386.51	1088.09
386.88	1086.43
387.25	1084.53
387.62	1085.91
387.99	1082.66
388.36	1078.78
388.73	1081.63
389.10	1083.15
389.46	1081.91
389.83	1083.06
390.20	1083.83
390.57	1080.56
390.94	1080.27
391.31	1082.29
391.68	1081.73
392.05	1083.20
392.42	1085.56
392.79	1085.49
393.16	1085.61
393.53	1086.66
393.89	1087.69
394.26	1087.04
394.63	1088.47
395.00	1088.37
395.37	1089.96
395.74	1087.83
396.11	1087.16
396.48	1088.21
396.84	1086.87
397.21	1085.31
397.58	1085.38
397.95	1085.03
398.32	1082.97
398.69	1083.48
399.06	1083.39
399.42	1083.62
399.79	1084.67
400.16	1086.22
400.53	1086.29
400.90	1087.23
401.27	1089.26
401.64	1091.60
402.00	1093.47
402.37	1093.66
402.74	1094.46
403.11	1095.82
403.48	1094.06
403.84	1090.41
404.21	1093.55
404.58	1092.61
404.95	1089.80
405.32	1089.73
405.68	1093.17
406.05	1092.70
406.42	1094.43
406.79	1096.24
407.16	1099.61
407.52	1098.93
407.89	1097.59
408.26	1094.34
408.63	1093.47
408.99	1090.46
409.36	1088.35
409.73	1087.90
410.10	1091.42
410.47	1091.63
410.83	1094.62
411.20	1095.79
411.57	1097.76
411.94	1095.51
412.30	1097.08
412.67	1094.97
413.04	1094.86
413.40	1094.74
413.77	1095.32
414.14	1093.24
414.51	1099.96
414.87	1102.74
415.24	1103.26
415.61	1103.12
415.97	1105.90
416.34	1099.84
416.71	1099.86
417.08	1102.09
417.44	1103.31
417.81	1104.59
418.18	1107.52
418.54	1109.04
418.91	1109.23
419.28	1111.85
419.64	1111.38
420.01	1112.57
420.38	1114.75
420.74	1117.09
421.11	1118.82
421.48	1121.98
421.84	1124.65
422.21	1124.65
422.58	1126.71
422.94	1129.29
423.31	1132.47
423.68	1133.17
424.04	1134.46
424.41	1135.77
424.77	1136.73
425.14	1138.13
425.51	1144.80
425.87	1150.77
426.24	1154.84
426.61	1161.44
426.97	1168.35
427.34	1171.56
427.70	1179.51
428.07	1186.65
428.44	1193.23
428.80	1198.78
429.17	1206.38
429.53	1212.16
429.90	1223.19
430.27	1235.22
430.63	1247.65
431.00	1261.13
431.36	1272.43
431.73	1282.89
432.09	1291.44
432.46	1302.95
432.83	1316.25
433.19	1334.06
433.56	1349.44
433.92	1370.22
434.29	1395.17
434.65	1421.34
435.02	1446.52
435.38	1477.95
435.75	1507.23
436.11	1535.02
436.48	1563.27
436.84	1596.95
437.21	1631.87
437.57	1670.11
437.94	1712.57
438.30	1759.71
438.67	1803.59
439.03	1850.08
439.40	1907.23
439.76	1963.03
440.13	2024.45
440.49	2094.17
440.86	2165.16
441.22	2236.34
441.59	2311.00
441.95	2388.10
442.32	2468.35
442.68	2562.40
443.05	2658.87
443.41	2753.31
443.78	2854.54
444.14	2965.53
444.51	3073.99
444.87	3210.37
445.24	3356.73
445.60	3512.21
445.96	3666.57
446.33	3841.73
446.69	4002.92
447.06	4184.13
447.42	4370.25
447.79	4560.96
448.15	4785.41
448.51	5014.71
448.88	5280.34
449.24	5524.83
449.61	5811.11
449.97	6084.13
450.33	6376.27
450.70	6629.99
451.06	6963.16
451.43	7266.57
451.79	7628.16
452.15	8032.46
452.52	8491.00
452.88	8961.35
453.24	9506.20
453.61	10094.61
453.97	10666.94
454.34	11216.39
454.70	11854.79
455.06	12504.85
455.43	13136.44
455.79	13726.63
456.15	14457.98
456.52	15127.47
456.88	15910.70
457.24	16648.75
457.61	17516.36
457.97	18283.49
458.33	19080.12
458.70	19841.94
459.06	20596.20
459.42	21434.13
459.79	22230.97
460.15	23131.33
460.51	24003.01
460.88	24943.70
461.24	25740.09
461.60	26718.50
461.96	27584.97
462.33	28434.96
462.69	29222.59
463.05	30066.29
463.42	30741.35
463.78	31421.06
464.14	31963.32
464.50	32572.35
464.87	33065.26
465.23	33434.65
465.59	33772.76
465.95	34080.66
466.32	34328.78
466.68	34557.82
467.04	34708.60
467.40	34833.40
467.77	34993.96
468.13	34982.19
468.49	34875.81
468.85	34777.48
469.22	34599.53
469.58	34240.68
469.94	33972.81
470.30	33660.18
470.66	33239.54
471.03	32649.54
471.39	32235.73
471.75	31570.29
472.11	30934.37
472.47	30565.10
472.84	30222.87
473.20	29728.45
473.56	29488.20
473.92	29082.58
474.28	28576.72
474.65	28103.00
475.01	27643.53
475.37	27056.48
475.73	26607.09
476.09	26070.97
476.45	25543.13
476.81	25014.83
477.18	24482.42
477.54	24032.15
477.90	23689.01
478.26	23287.68
478.62	22956.75
478.98	22682.53
479.34	22345.56
479.71	21917.90
480.07	21549.13
480.43	21180.42
480.79	20767.04
481.15	20408.51
481.51	20106.33
481.87	19879.18
482.23	19602.43
482.59	19353.14
482.96	19079.88
483.32	18775.78
483.68	18383.74
484.04	18028.87
484.40	17654.40
484.76	17282.26
485.12	16924.23
485.48	16601.21
485.84	16248.65
486.20	15906.00
486.56	15540.85
486.92	15220.04
487.28	14859.69
487.64	14508.72
488.00	14173.39
488.37	13845.20
488.73	13473.43
489.09	13121.02
489.45	12800.93
489.81	12478.03
490.17	12165.52
490.53	11879.62
490.89	11583.26
491.25	11267.99
491.61	10957.57
491.97	10657.79
492.33	10339.62
492.69	10029.31
493.05	9735.41
493.41	9451.25
493.77	9166.57
494.13	8913.39
494.49	8674.24
494.85	8443.39
495.21	8213.92
495.57	7998.52
495.93	7774.72
496.29	7569.04
496.64	7376.43
497.00	7184.23
497.36	6998.13
497.72	6826.43
498.08	6649.13
498.44	6466.43
498.80	6299.08
499.16	6133.61
499.52	5969.16
499.88	5835.73
500.24	5714.49
500.60	5592.24
500.96	5472.80
501.32	5357.28
501.68	5236.48
502.03	5098.51
502.39	4972.59
502.75	4834.82
503.11	4707.50
503.47	4581.27
503.83	4468.41
504.19	4343.10
504.55	4239.39
504.91	4140.83
505.26	4042.18
505.62	3957.49
505.98	3875.83
506.34	3786.85
506.70	3702.21
507.06	3616.24
507.42	3524.87
507.78	3443.49
508.13	3369.93
508.49	3291.50
508.85	3221.35
509.21	3155.63
509.57	3090.47
509.93	3017.89
510.28	2952.75
510.64	2889.72
511.00	2825.71
511.36	2764.15
511.72	2714.16
512.07	2666.67
512.43	2618.97
512.79	2569.72
513.15	2521.88
513.51	2470.67
513.86	2420.49
514.22	2377.40
514.58	2340.82
514.94	2303.77
515.30	2267.18
515.65	2231.51
516.01	2199.47
516.37	2164.86
516.73	2134.59
517.08	2107.02
517.44	2078.72
517.80	2044.67
518.16	2015.81
518.51	1989.13
518.87	1962.73
519.23	1934.85
519.59	1909.85
519.94	1883.50
520.30	1858.71
520.66	1833.32
521.01	1813.87
521.37	1794.63
521.73	1775.90
522.09	1754.11
522.44	1735.72
522.80	1713.48
523.16	1694.43
523.51	1674.54
523.87	1657.36
524.23	1642.05
524.58	1623.47
524.94	1611.01
525.30	1589.97
525.65	1573.82
526.01	1556.46
526.37	1542.30
526.72	1520.90
527.08	1508.80
527.44	1493.38
527.79	1479.92
528.15	1469.81
528.51	1454.34
528.86	1442.85
529.22	1429.65
529.58	1422.20
529.93	1410.31
530.29	1401.68
530.65	1390.72
531.00	1383.09
531.36	1371.67
531.71	1362.52
532.07	1356.64
532.43	1347.52
532.78	1338.60
533.14	1329.49
533.49	1322.08
533.85	1315.64
534.21	1312.29
534.56	1309.06
534.92	1303.33
535.27	1296.61
535.63	1291.46
535.98	1284.49
536.34	1275.64
536.69	1270.04
537.05	1265.29
537.41	1260.24
537.76	1253.99
538.12	1250.50
538.47	1244.04
538.83	1238.73
539.18	1233.23
539.54	1230.26
539.89	1223.30
540.25	1221.60
540.60	1216.05
540.96	1212.49
541.31	1213.36
541.67	1210.03
542.02	1205.59
542.38	1203.39
542.73	1200.32
543.09	1191.66
543.44	1189.86
543.80	1186.79
544.15	1188.38
544.51	1185.69
544.86	1185.67
545.22	1182.67
545.57	1183.42
545.93	1178.32
546.28	1175.30
546.64	1173.94
546.99	1174.20
547.35	1168.00
547.70	1161.82
548.05	1159.20
548.41	1153.06
548.76	1151.01
549.12	1149.25
549.47	1150.00
549.83	1147.45
550.18	1147.80
550.53	1144.22
550.89	1141.62
551.24	1138.37
551.60	1137.15
551.95	1136.28
552.30	1136.61
552.66	1134.86
553.01	1135.25
553.37	1133.69
553.72	1131.39
554.07	1129.61
554.43	1129.10
554.78	1127.08
555.13	1126.43
555.49	1125.70
555.84	1127.69
556.19	1128.26
556.55	1127.62
556.90	1127.23
557.26	1126.66
557.61	1122.40
557.96	1118.85
558.32	1119.60
558.67	1119.83
559.02	1115.38
559.37	1113.18
559.73	1115.15
560.08	1112.39
560.43	1110.28
560.79	1107.61
561.14	1107.73
561.49	1108.24
561.85	1109.30
562.20	1108.95
562.55	1113.14
562.90	1111.75
563.26	1107.80
563.61	1105.58
563.96	1106.18
564.32	1105.36
564.67	1108.88
565.02	1109.72
565.37	1107.24
565.73	1103.23
566.08	1099.09
566.43	1094.06
566.78	1097.50
567.14	1101.64
567.49	1105.29
567.84	1109.27
568.19	1110.40
568.54	1105.34
568.90	1103.28
569.25	1100.26
569.60	1101.11
569.95	1099.26
570.31	1097.20
570.66	1096.49
571.01	1099.09
571.36	1096.49
571.71	1098.16
572.06	1100.22
572.42	1101.69
572.77	1100.29
573.12	1100.26
573.47	1098.86
573.82	1099.89
574.18	1102.53
574.53	1105.25
574.88	1103.45
575.23	1104.17
575.58	1102.30
575.93	1097.71
576.28	1092.82
576.64	1094.08
576.99	1091.09
577.34	1092.77
577.69	1094.88
578.04	1094.93
578.39	1091.34
578.74	1092.98
579.09	1087.41
579.44	1085.26
579.80	1084.14
580.15	1085.42
580.50	1086.08
580.85	1090.69
581.20	1088.47
581.55	1090.81
581.90	1093.66
582.25	1090.69
582.60	1088.49
582.95	1090.32
583.30	1089.66
583.65	1086.94
584.00	1089.29
584.35	1089.89
584.71	1087.65
585.06	1087.34
585.41	1089.80
585.76	1089.29
586.11	1087.93
586.46	1091.86
586.81	1088.86
587.16	1085.82
587.51	1086.73
587.86	1090.01
588.21	1087.55
588.56	1092.87
588.91	1092.23
589.26	1091.51
589.61	1091.86
589.96	1094.93
590.31	1091.09
590.66	1092.70
591.01	1091.32
591.36	1089.57
591.71	1084.58
592.06	1084.65
592.41	1084.53
592.76	1086.29
593.10	1082.64
593.45	1083.50
593.80	1083.32
594.15	1084.46
594.50	1082.94
594.85	1086.31
595.20	1087.37
595.55	1088.65
595.90	1088.86
596.25	1088.35
596.60	1089.22
596.95	1089.73
597.30	1089.66
597.64	1097.27
597.99	1099.56
598.34	1095.14
598.69	1091.84
599.04	1092.35
599.39	1083.06
599.74	1081.94
600.09	1086.59
600.44	1088.89
600.78	1086.66
601.13	1087.65
601.48	1092.89
601.83	1090.81
602.18	1091.98
602.53	1091.42
602.88	1093.62
603.22	1086.66
603.57	1085.21
603.92	1083.11
604.27	1083.34
604.62	1078.85
604.97	1081.89
605.31	1078.64
605.66	1081.47
606.01	1084.77
606.36	1084.91
606.71	1083.83
607.05	1089.82
607.40	1090.24
607.75	1087.46
608.10	1088.00
608.44	1087.90
608.79	1083.22
609.14	1080.86
609.49	1080.98
609.84	1081.61
610.18	1081.02
610.53	1086.92
610.88	1084.98
611.23	1086.34
611.57	1087.18
611.92	1088.28
612.27	1087.83
612.62	1089.43
612.96	1090.71
613.31	1090.64
613.66	1090.48
614.00	1087.23
614.35	1088.26
614.70	1085.84
615.05	1086.41
615.39	1086.48
615.74	1087.04
616.09	1086.66
616.43	1085.96
616.78	1084.02
617.13	1085.12
617.47	1084.63
617.82	1082.83
618.17	1083.36
618.51	1083.53
618.86	1081.33
619.21	1084.11
619.55	1085.45
619.90	1080.60
620.25	1079.88
620.59	1081.12
620.94	1080.37
621.29	1080.65
621.63	1084.67
621.98	1082.87
622.32	1081.05
622.67	1077.49
623.02	1078.10
623.36	1079.17
623.71	1081.73
624.05	1082.92
624.40	1085.12
624.75	1084.00
625.09	1085.52
625.44	1085.61
625.78	1085.47
626.13	1083.60
626.48	1082.19
626.82	1077.47
627.17	1075.01
627.51	1075.17
627.86	1077.84
628.20	1077.91
628.55	1078.00
628.89	1079.01
629.24	1079.13
629.58	1079.64
629.93	1078.57
630.28	1083.01
630.62	1083.71
630.97	1078.92
631.31	1077.02
631.66	1078.80
632.00	1080.84
632.35	1080.93
632.69	1085.42
633.04	1085.84
633.38	1086.64
633.73	1084.00
634.07	1084.51
634.42	1084.02
634.76	1084.37
635.11	1083.01
635.45	1081.94
635.79	1084.46
636.14	1084.65
636.48	1083.90
636.83	1085.24
637.17	1085.24
637.52	1083.48
637.86	1081.91
638.21	1081.00
638.55	1082.47
638.89	1080.20
639.24	1080.86
639.58	1081.26
639.93	1085.33
640.27	1083.60
640.61	1086.50
640.96	1087.74
641.30	1087.81
641.65	1087.97
641.99	1087.32
642.33	1086.73
642.68	1084.72
643.02	1085.35
643.37	1082.54
643.71	1083.22
644.05	1084.25
644.40	1082.40
644.74	1080.86
645.08	1080.44
645.43	1082.66
645.77	1081.05
646.11	1080.46
646.46	1082.29
646.80	1081.75
647.14	1079.43
647.49	1079.67
647.83	1081.42
648.17	1082.54
648.52	1082.80
648.86	1083.69
649.20	1086.64
649.55	1087.04
649.89	1084.60
650.23	1087.13
650.57	1085.38
650.92	1081.33
651.26	1079.31
651.60	1080.70
651.95	1081.35
652.29	1081.82
652.63	1081.05
652.97	1082.45
653.32	1082.22
653.66	1075.92
654.00	1074.89
654.34	1078.07
654.69	1073.63
655.03	1071.66
655.37	1074.21
655.71	1075.87
656.05	1077.23
656.40	1082.64
656.74	1084.00
657.08	1083.29
657.42	1081.07
657.76	1077.49
658.11	1079.24
658.45	1077.98
658.79	1079.38
659.13	1082.57
659.47	1086.90
659.82	1086.90
660.16	1088.82
660.50	1090.17
660.84	1087.83
661.18	1083.83
661.52	1081.51
661.87	1082.38
662.21	1081.37
662.55	1084.25
662.89	1089.73
663.23	1089.96
663.57	1090.10
663.91	1088.12
664.25	1086.99
664.60	1083.08
664.94	1081.94
665.28	1078.92
665.62	1079.92
665.96	1078.78
666.30	1076.37
666.64	1076.48
666.98	1076.65
667.32	1077.58
667.66	1075.10
668.01	1077.42
668.35	1079.31
668.69	1081.02
669.03	1081.28
669.37	1084.46
669.71	1082.83
670.05	1081.94
670.39	1081.68
670.73	1080.84
671.07	1079.92
671.41	1078.33
671.75	1079.53
672.09	1077.51
672.43	1078.31
672.77	1079.08
673.11	1080.06
673.45	1078.50
673.79	1083.08
674.13	1080.58
674.47	1079.85
674.81	1083.27
675.15	1085.24
675.49	1083.88
675.83	1087.04
676.17	1087.27
676.51	1083.08
676.85	1080.25
677.19	1079.85
677.53	1081.23
677.87	1078.82
678.21	1080.25
678.55	1082.05
678.89	1080.51
679.23	1078.40
679.57	1083.36
679.90	1085.05
680.24	1083.97
680.58	1085.07
680.92	1083.79
681.26	1079.24
681.60	1073.39
681.94	1074.19
682.28	1071.19
682.62	1071.47
682.96	1073.37
683.29	1079.95
683.63	1078.80
683.97	1085.03
684.31	1083.39
684.65	1084.14
684.99	1082.59
685.33	1085.05
685.67	1079.08
686.00	1082.24
686.34	1081.56
686.68	1078.73
687.02	1077.00
687.36	1077.65
687.70	1078.26
688.03	1079.03
688.37	1078.24
688.71	1078.38
689.05	1078.66
689.39	1076.27
689.72	1073.65
690.06	1075.62
690.40	1075.83
690.74	1076.25
691.08	1074.33
691.41	1075.66
691.75	1076.08
692.09	1073.88
692.43	1076.11
692.76	1078.64
693.10	1081.47
693.44	1082.83
693.78	1082.85
694.11	1079.08
694.45	1079.78
694.79	1078.00
695.13	1072.22
695.46	1075.05
695.80	1076.01
696.14	1075.43
696.48	1075.55
696.81	1081.26
697.15	1077.91
697.49	1076.37
697.82	1074.42
698.16	1072.64
698.50	1070.61
698.83	1072.88
699.17	1074.84
699.51	1077.51
699.84	1079.22
700.18	1079.43
700.52	1079.64
700.85	1080.39
701.19	1078.68
701.53	1077.14
701.86	1077.96
702.20	1077.98
702.54	1078.68
702.87	1082.94
703.21	1086.50
703.55	1085.38
703.88	1082.92
704.22	1083.83
704.55	1080.20
704.89	1077.89
705.23	1079.60
705.56	1083.15
705.90	1084.11
706.23	1084.79
706.57	1085.19
706.91	1086.48
707.24	1083.01
707.58	1081.61
707.91	1079.06
708.25	1079.41
708.58	1079.53
708.92	1078.82
709.26	1079.13
709.59	1080.72
709.93	1081.63
710.26	1082.15
710.60	1084.51
710.93	1084.58
711.27	1085.26
711.60	1084.18
711.94	1080.84
712.27	1082.80
712.61	1079.90
712.94	1077.93
713.28	1078.07
713.61	1080.48
713.95	1077.30
714.28	1080.86
714.62	1082.50
714.95	1081.77
715.29	1080.34
715.62	1082.05
715.96	1078.80
716.29	1081.47
716.63	1083.20
716.96	1085.82
717.29	1088.79
717.63	1091.13
717.96	1092.02
718.30	1088.93
718.63	1086.62
718.97	1083.67
719.30	1081.09
719.63	1076.39
719.97	1078.10
720.30	1078.80
720.64	1079.36
720.97	1079.76
721.30	1081.61
721.64	1080.67
721.97	1081.94
722.31	1081.16
722.64	1080.46
722.97	1080.65
723.31	1079.76
723.64	1075.15
723.97	1074.63
724.31	1073.95
724.64	1075.57
724.98	1077.58
725.31	1080.93
725.64	1084.35
725.98	1090.43
726.31	1088.37
726.64	1089.66
726.97	1090.53
727.31	1086.06
727.64	1083.74
727.97	1085.10
728.31	1086.20
728.64	1084.28
728.97	1085.42
729.31	1085.96
729.64	1084.49
729.97	1079.10
730.30	1078.24
730.64	1078.40
730.97	1075.85
731.30	1074.03
731.63	1076.76
731.97	1079.29
732.30	1082.36
732.63	1084.65
732.96	1087.86
733.30	1085.75
733.63	1086.13
733.96	1086.08
734.29	1084.02
734.63	1082.43
734.96	1081.00
735.29	1078.73
735.62	1075.50
735.95	1077.09
736.29	1075.71
736.62	1080.30
736.95	1079.90
737.28	1078.52
737.61	1077.25
737.94	1082.01
738.28	1077.70
738.61	1080.46
738.94	1083.64
739.27	1086.13
739.60	1082.38
739.93	1084.44
740.27	1080.63
740.60	1077.28
740.93	1072.74
741.26	1073.98
741.59	1073.49
741.92	1077.49
742.25	1077.79
742.58	1079.83
742.91	1080.37
743.25	1081.33
743.58	1079.99
743.91	1083.34
744.24	1083.20
744.57	1083.04
744.90	1080.46
745.23	1078.26
745.56	1073.88
745.89	1073.51
746.22	1071.22
746.55	1073.16
746.88	1073.44
747.21	1077.30
747.54	1079.57
747.87	1081.63
748.20	1083.25
748.53	1086.71
748.87	1086.10
749.20	1085.61
749.53	1083.32
749.86	1084.53
750.19	1082.92
750.52	1083.20
750.85	1082.38
751.18	1082.94
751.51	1081.33
751.84	1081.54
752.16	1081.68
752.49	1082.29
752.82	1085.82
753.15	1087.58
753.48	1087.95
753.81	1087.46
754.14	1086.66
754.47	1083.22
754.80	1079.78
755.13	1077.84
755.46	1076.04
755.79	1072.57
756.12	1072.76
756.45	1071.92
756.78	1071.52
757.11	1071.17
757.43	1073.44
757.76	1072.57
758.09	1073.00
758.42	1074.42
758.75	1077.63
759.08	1078.96
759.41	1081.14
759.74	1084.67
760.07	1084.49
760.39	1082.78
760.72	1082.19
761.05	1082.61
761.38	1081.23
761.71	1082.08
762.04	1079.81
762.36	1077.30
762.69	1077.58
763.02	1075.59
763.35	1076.06
763.68	1077.09
764.01	1082.19
