SpectraSuite Data File
++++++++++++++++++++++++++++++++++++
Date: Mon Aug 26 10:22:20 PDT 2019
User: corrico
Dark Spectrum Present: No
Reference Spectrum Present: No
Number of Sampled Component Spectra: 1
Spectrometers: USB2+H06089
Integration Time (usec): 2000 (USB2+H06089)
Spectra Averaged: 20 (USB2+H06089)
Boxcar Smoothing: 2 (USB2+H06089)
Correct for Electrical Dark: No (USB2+H06089)
Strobe/Lamp Enabled: No (USB2+H06089)
Correct for Detector Non-linearity: No (USB2+H06089)
Correct for Stray Light: No (USB2+H06089)
Number of Pixels in Processed Spectrum: 2048
>>>>>Begin Processed Spectral Data<<<<<
339.70	1023.28
340.07	1023.28
340.45	992.08
340.82	973.43
341.19	950.21
341.57	928.33
341.94	914.28
342.31	905.72
342.69	898.25
343.06	897.08
343.43	895.02
343.81	900.97
344.18	904.08
344.55	909.63
344.93	910.84
345.30	914.31
345.67	918.15
346.04	925.94
346.42	933.27
346.79	942.81
347.16	954.77
347.54	964.98
347.91	971.42
348.28	982.88
348.65	996.27
349.03	1005.75
349.40	1015.72
349.77	1027.14
350.14	1032.57
350.52	1037.07
350.89	1041.00
351.26	1044.77
351.63	1047.30
352.01	1051.49
352.38	1054.81
352.75	1061.04
353.12	1063.80
353.50	1068.50
353.87	1072.83
354.24	1075.27
354.61	1076.90
354.98	1078.00
355.36	1080.02
355.73	1077.93
356.10	1079.64
356.47	1078.43
356.84	1079.62
357.22	1080.84
357.59	1082.80
357.96	1087.20
358.33	1087.41
358.70	1086.97
359.08	1083.86
359.45	1082.17
359.82	1078.36
360.19	1078.43
360.56	1079.27
360.94	1079.55
361.31	1080.23
361.68	1078.00
362.05	1078.19
362.42	1078.07
362.79	1079.34
363.16	1080.58
363.54	1080.02
363.91	1079.74
364.28	1080.95
364.65	1079.64
365.02	1079.57
365.39	1077.89
365.76	1077.54
366.14	1075.80
366.51	1075.36
366.88	1075.78
367.25	1079.74
367.62	1079.62
367.99	1078.26
368.36	1076.37
368.73	1074.82
369.10	1075.97
369.48	1073.81
369.85	1073.98
370.22	1075.41
370.59	1074.12
370.96	1072.25
371.33	1073.25
371.70	1072.04
372.07	1072.90
372.44	1073.14
372.81	1073.11
373.18	1070.80
373.55	1072.83
373.93	1074.59
374.30	1074.31
374.67	1074.73
375.04	1077.98
375.41	1078.85
375.78	1076.55
376.15	1075.73
376.52	1074.33
376.89	1074.10
377.26	1073.02
377.63	1074.07
378.00	1078.10
378.37	1078.68
378.74	1079.13
379.11	1078.80
379.48	1082.57
379.85	1080.53
380.22	1080.30
380.59	1078.94
380.96	1079.67
381.33	1080.65
381.70	1080.67
382.07	1082.17
382.44	1085.61
382.81	1085.61
383.18	1080.44
383.55	1081.70
383.92	1079.67
384.29	1079.97
384.66	1081.66
385.03	1081.63
385.40	1082.83
385.77	1088.09
386.14	1085.70
386.51	1085.03
386.88	1087.53
387.25	1084.67
387.62	1082.94
387.99	1085.45
388.36	1083.83
388.73	1083.55
389.10	1082.73
389.46	1083.95
389.83	1080.16
390.20	1081.87
390.57	1083.06
390.94	1084.81
391.31	1082.99
391.68	1085.38
392.05	1084.65
392.42	1083.55
392.79	1084.89
393.16	1084.07
393.53	1086.78
393.89	1086.27
394.26	1087.48
394.63	1087.81
395.00	1090.22
395.37	1089.52
395.74	1089.80
396.11	1088.96
396.48	1086.87
396.84	1084.77
397.21	1083.46
397.58	1087.58
397.95	1085.82
398.32	1089.47
398.69	1090.85
399.06	1094.18
399.42	1091.79
399.79	1093.24
400.16	1091.88
400.53	1091.67
400.90	1088.51
401.27	1087.86
401.64	1091.74
402.00	1093.55
402.37	1092.21
402.74	1094.50
403.11	1095.75
403.48	1093.71
403.84	1091.81
404.21	1093.36
404.58	1092.40
404.95	1092.98
405.32	1091.81
405.68	1092.35
406.05	1093.15
406.42	1091.11
406.79	1092.75
407.16	1093.83
407.52	1091.67
407.89	1090.64
408.26	1092.16
408.63	1092.70
408.99	1093.22
409.36	1096.92
409.73	1097.03
410.10	1098.48
410.47	1099.33
410.83	1102.23
411.20	1100.19
411.57	1102.09
411.94	1103.87
412.30	1101.97
412.67	1101.74
413.04	1105.48
413.40	1105.44
413.77	1103.82
414.14	1102.91
414.51	1098.67
414.87	1097.50
415.24	1099.51
415.61	1099.89
415.97	1102.86
416.34	1105.25
416.71	1105.55
417.08	1106.79
417.44	1107.38
417.81	1111.68
418.18	1112.62
418.54	1109.60
418.91	1106.51
419.28	1105.88
419.64	1103.00
420.01	1107.47
420.38	1111.80
420.74	1113.58
421.11	1116.39
421.48	1115.50
421.84	1112.64
422.21	1113.93
422.58	1116.86
422.94	1119.22
423.31	1123.18
423.68	1126.69
424.04	1133.24
424.41	1136.42
424.77	1140.22
425.14	1143.02
425.51	1147.26
425.87	1149.32
426.24	1151.75
426.61	1155.62
426.97	1161.89
427.34	1168.04
427.70	1170.27
428.07	1179.04
428.44	1188.99
428.80	1198.64
429.17	1206.57
429.53	1216.45
429.90	1227.66
430.27	1234.23
430.63	1239.38
431.00	1248.21
431.36	1263.37
431.73	1274.02
432.09	1287.95
432.46	1304.52
432.83	1320.60
433.19	1333.29
433.56	1350.40
433.92	1369.92
434.29	1391.71
434.65	1414.57
435.02	1441.65
435.38	1467.26
435.75	1492.35
436.11	1520.11
436.48	1549.62
436.84	1581.92
437.21	1615.81
437.57	1655.48
437.94	1698.62
438.30	1742.69
438.67	1788.38
439.03	1836.76
439.40	1891.41
439.76	1941.05
440.13	2004.90
440.49	2064.77
440.86	2127.36
441.22	2195.40
441.59	2271.58
441.95	2346.69
442.32	2432.12
442.68	2530.35
443.05	2627.37
443.41	2722.93
443.78	2825.59
444.14	2932.50
444.51	3040.12
444.87	3169.41
445.24	3310.24
445.60	3457.25
445.96	3609.67
446.33	3784.11
446.69	3944.86
447.06	4117.63
447.42	4293.43
447.79	4483.58
448.15	4698.72
448.51	4923.08
448.88	5182.18
449.24	5432.80
449.61	5712.24
449.97	5979.27
450.33	6266.36
450.70	6520.31
451.06	6829.64
451.43	7125.76
451.79	7485.22
452.15	7871.57
452.52	8321.03
452.88	8791.40
453.24	9323.52
453.61	9886.19
453.97	10443.38
454.34	10984.51
454.70	11620.92
455.06	12234.82
455.43	12864.92
455.79	13462.11
456.15	14159.33
456.52	14792.68
456.88	15573.60
457.24	16277.79
457.61	17114.04
457.97	17873.92
458.33	18666.97
458.70	19420.60
459.06	20184.10
459.42	21011.76
459.79	21797.20
460.15	22671.06
460.51	23520.04
460.88	24438.24
461.24	25228.19
461.60	26170.11
461.96	27046.67
462.33	27895.25
462.69	28676.13
463.05	29541.26
463.42	30276.40
463.78	30925.19
464.14	31454.76
464.50	32033.06
464.87	32479.15
465.23	32831.07
465.59	33203.38
465.95	33536.88
466.32	33817.56
466.68	34070.62
467.04	34202.11
467.40	34322.34
467.77	34458.16
468.13	34439.20
468.49	34353.40
468.85	34292.29
469.22	34129.60
469.58	33806.51
469.94	33572.08
470.30	33281.95
470.66	32873.43
471.03	32295.25
471.39	31917.30
471.75	31300.52
472.11	30717.00
472.47	30371.28
472.84	30080.78
473.20	29601.04
473.56	29357.06
473.92	28926.17
474.28	28410.64
474.65	27923.88
475.01	27465.62
475.37	26883.00
475.73	26431.83
476.09	25928.41
476.45	25417.91
476.81	24904.00
477.18	24372.77
477.54	23920.79
477.90	23569.87
478.26	23146.59
478.62	22793.24
478.98	22508.28
479.34	22177.16
479.71	21742.85
480.07	21387.28
480.43	21023.56
480.79	20623.82
481.15	20270.51
481.51	19966.99
481.87	19721.45
482.23	19440.98
482.59	19182.82
482.96	18905.65
483.32	18615.33
483.68	18254.10
484.04	17905.24
484.40	17555.23
484.76	17193.27
485.12	16833.55
485.48	16506.77
485.84	16165.96
486.20	15804.87
486.56	15436.70
486.92	15120.70
487.28	14770.11
487.64	14431.81
488.00	14129.81
488.37	13810.68
488.73	13459.51
489.09	13114.86
489.45	12798.73
489.81	12462.88
490.17	12164.89
490.53	11865.86
490.89	11565.34
491.25	11267.43
491.61	10969.06
491.97	10653.67
492.33	10346.31
492.69	10054.40
493.05	9753.97
493.41	9463.00
493.77	9189.04
494.13	8925.21
494.49	8675.24
494.85	8425.69
495.21	8206.20
495.57	7980.17
495.93	7762.78
496.29	7561.40
496.64	7390.48
497.00	7194.08
497.36	7013.46
497.72	6829.19
498.08	6648.76
498.44	6451.80
498.80	6284.27
499.16	6125.74
499.52	5972.67
499.88	5827.96
500.24	5707.65
500.60	5577.50
500.96	5459.00
501.32	5345.67
501.68	5228.69
502.03	5096.54
502.39	4972.80
502.75	4835.10
503.11	4706.16
503.47	4586.05
503.83	4469.30
504.19	4348.11
504.55	4244.63
504.91	4152.34
505.26	4055.00
505.62	3976.24
505.98	3891.05
506.34	3800.26
506.70	3705.51
507.06	3619.45
507.42	3531.61
507.78	3456.69
508.13	3380.08
508.49	3303.01
508.85	3233.29
509.21	3160.94
509.57	3090.51
509.93	3024.72
510.28	2957.78
510.64	2890.49
511.00	2826.92
511.36	2763.87
511.72	2708.14
512.07	2661.49
512.43	2613.35
512.79	2567.45
513.15	2523.26
513.51	2472.17
513.86	2427.65
514.22	2385.17
514.58	2342.83
514.94	2303.91
515.30	2273.99
515.65	2236.94
516.01	2203.68
516.37	2165.74
516.73	2132.49
517.08	2100.05
517.44	2072.15
517.80	2041.49
518.16	2019.70
518.51	1995.66
518.87	1963.52
519.23	1930.97
519.59	1906.88
519.94	1878.68
520.30	1856.47
520.66	1834.00
521.01	1816.82
521.37	1794.51
521.73	1776.56
522.09	1754.18
522.44	1739.25
522.80	1718.82
523.16	1698.67
523.51	1678.09
523.87	1658.34
524.23	1638.14
524.58	1620.56
524.94	1603.90
525.30	1588.47
525.65	1572.37
526.01	1556.36
526.37	1539.18
526.72	1521.68
527.08	1505.53
527.44	1493.40
527.79	1480.34
528.15	1467.75
528.51	1456.70
528.86	1444.02
529.22	1432.45
529.58	1421.62
529.93	1410.17
530.29	1401.30
530.65	1391.54
531.00	1380.87
531.36	1370.66
531.71	1364.25
532.07	1356.08
532.43	1346.49
532.78	1340.94
533.14	1334.29
533.49	1325.73
533.85	1319.85
534.21	1315.50
534.56	1304.59
534.92	1298.90
535.27	1292.42
535.63	1283.71
535.98	1277.35
536.34	1276.22
536.69	1271.31
537.05	1265.79
537.41	1261.78
537.76	1257.83
538.12	1248.68
538.47	1241.91
538.83	1235.38
539.18	1229.86
539.54	1224.78
539.89	1222.49
540.25	1218.06
540.60	1217.57
540.96	1216.07
541.31	1210.83
541.67	1204.95
542.02	1202.03
542.38	1197.96
542.73	1193.30
543.09	1193.30
543.44	1190.42
543.80	1188.95
544.15	1186.91
544.51	1184.43
544.86	1184.45
545.22	1187.82
545.57	1185.36
545.93	1181.13
546.28	1178.09
546.64	1171.44
546.99	1165.05
547.35	1162.24
547.70	1159.97
548.05	1157.96
548.41	1157.42
548.76	1157.47
549.12	1156.08
549.47	1153.16
549.83	1148.48
550.18	1147.00
550.53	1143.45
550.89	1139.93
551.24	1139.19
551.60	1139.84
551.95	1135.39
552.30	1132.30
552.66	1133.52
553.01	1133.43
553.37	1133.36
553.72	1132.54
554.07	1133.29
554.43	1132.28
554.78	1128.56
555.13	1126.43
555.49	1128.79
555.84	1131.88
556.19	1131.20
556.55	1135.93
556.90	1132.40
557.26	1127.41
557.61	1121.68
557.96	1121.82
558.32	1120.44
558.67	1123.55
559.02	1125.21
559.37	1124.56
559.73	1120.02
560.08	1115.01
560.43	1112.69
560.79	1110.79
561.14	1111.92
561.49	1114.89
561.85	1116.18
562.20	1114.45
562.55	1112.97
562.90	1110.19
563.26	1108.06
563.61	1107.64
563.96	1108.69
564.32	1109.25
564.67	1111.68
565.02	1112.27
565.37	1111.73
565.73	1113.70
566.08	1113.98
566.43	1108.83
566.78	1105.58
567.14	1103.42
567.49	1100.66
567.84	1100.96
568.19	1104.73
568.54	1104.19
568.90	1104.55
569.25	1102.30
569.60	1099.61
569.95	1098.51
570.31	1097.78
570.66	1095.96
571.01	1099.16
571.36	1100.61
571.71	1099.58
572.06	1100.89
572.42	1102.88
572.77	1101.18
573.12	1097.73
573.47	1097.50
573.82	1095.14
574.18	1098.02
574.53	1096.40
574.88	1100.96
575.23	1100.33
575.58	1099.75
575.93	1095.79
576.28	1095.72
576.64	1093.69
576.99	1092.63
577.34	1095.79
577.69	1097.17
578.04	1099.63
578.39	1099.68
578.74	1100.08
579.09	1100.31
579.44	1098.93
579.80	1098.88
580.15	1097.13
580.50	1097.50
580.85	1097.57
581.20	1097.50
581.55	1095.91
581.90	1095.89
582.25	1094.62
582.60	1090.17
582.95	1089.59
583.30	1089.57
583.65	1088.75
584.00	1087.37
584.35	1090.74
584.71	1090.81
585.06	1087.93
585.41	1088.21
585.76	1089.40
586.11	1086.50
586.46	1084.46
586.81	1087.20
587.16	1088.33
587.51	1092.07
587.86	1094.55
588.21	1098.37
588.56	1099.33
588.91	1099.51
589.26	1097.73
589.61	1097.27
589.96	1094.20
590.31	1092.33
590.66	1088.56
591.01	1089.00
591.36	1085.63
591.71	1083.95
592.06	1082.31
592.41	1086.01
592.76	1082.38
593.10	1084.35
593.45	1086.80
593.80	1088.51
594.15	1087.11
594.50	1087.76
594.85	1088.07
595.20	1086.22
595.55	1088.02
595.90	1088.09
596.25	1087.93
596.60	1084.96
596.95	1083.06
597.30	1079.90
597.64	1091.23
597.99	1091.70
598.34	1095.67
598.69	1098.51
599.04	1098.32
599.39	1090.71
599.74	1089.52
600.09	1086.73
600.44	1087.30
600.78	1087.86
601.13	1083.50
601.48	1084.96
601.83	1084.14
602.18	1085.24
602.53	1084.93
602.88	1084.77
603.22	1084.23
603.57	1087.20
603.92	1085.56
604.27	1086.15
604.62	1085.05
604.97	1083.55
605.31	1081.63
605.66	1080.48
606.01	1081.30
606.36	1083.34
606.71	1080.58
607.05	1081.82
607.40	1084.37
607.75	1081.80
608.10	1081.70
608.44	1084.11
608.79	1084.32
609.14	1080.25
609.49	1081.61
609.84	1081.49
610.18	1081.87
610.53	1082.03
610.88	1086.29
611.23	1087.41
611.57	1087.02
611.92	1086.94
612.27	1085.80
612.62	1081.68
612.96	1083.67
613.31	1084.67
613.66	1092.54
614.00	1095.35
614.35	1097.78
614.70	1093.47
615.05	1090.97
615.39	1084.74
615.74	1082.24
616.09	1080.93
616.43	1080.37
616.78	1079.43
617.13	1079.88
617.47	1078.07
617.82	1076.46
618.17	1080.53
618.51	1083.81
618.86	1082.22
619.21	1083.79
619.55	1087.90
619.90	1085.26
620.25	1085.59
620.59	1088.33
620.94	1087.90
621.29	1084.84
621.63	1081.87
621.98	1080.93
622.32	1078.10
622.67	1076.97
623.02	1079.50
623.36	1079.74
623.71	1080.30
624.05	1083.90
624.40	1085.96
624.75	1087.16
625.09	1089.92
625.44	1088.93
625.78	1086.87
626.13	1084.25
626.48	1083.48
626.82	1082.43
627.17	1082.54
627.51	1082.38
627.86	1084.25
628.20	1082.80
628.55	1082.43
628.89	1081.40
629.24	1082.83
629.58	1084.02
629.93	1085.05
630.28	1086.24
630.62	1084.00
630.97	1082.15
631.31	1079.83
631.66	1082.83
632.00	1085.00
632.35	1086.76
632.69	1087.11
633.04	1088.26
633.38	1085.68
633.73	1083.69
634.07	1085.42
634.42	1084.93
634.76	1086.80
635.11	1084.56
635.45	1085.52
635.79	1083.48
636.14	1080.81
636.48	1077.54
636.83	1078.05
637.17	1077.70
637.52	1079.97
637.86	1085.17
638.21	1089.40
638.55	1087.62
638.89	1086.48
639.24	1085.63
639.58	1084.84
639.93	1085.31
640.27	1088.63
640.61	1089.68
640.96	1087.51
641.30	1083.20
641.65	1081.75
641.99	1079.55
642.33	1079.31
642.68	1082.29
643.02	1084.35
643.37	1083.22
643.71	1082.83
644.05	1081.21
644.40	1079.67
644.74	1080.20
645.08	1082.29
645.43	1085.42
645.77	1085.05
646.11	1083.46
646.46	1084.28
646.80	1082.40
647.14	1078.68
647.49	1078.17
647.83	1081.66
648.17	1078.87
648.52	1076.79
648.86	1077.37
649.20	1077.51
649.55	1074.63
649.89	1079.31
650.23	1080.56
650.57	1084.09
650.92	1085.49
651.26	1088.23
651.60	1087.18
651.95	1086.97
652.29	1084.53
652.63	1084.49
652.97	1082.36
653.32	1081.73
653.66	1081.70
654.00	1081.35
654.34	1080.95
654.69	1083.83
655.03	1085.31
655.37	1088.96
655.71	1090.34
656.05	1093.15
656.40	1089.50
656.74	1086.87
657.08	1082.94
657.42	1080.20
657.76	1077.56
658.11	1077.16
658.45	1079.46
658.79	1079.06
659.13	1079.53
659.47	1081.12
659.82	1083.71
660.16	1082.99
660.50	1082.69
660.84	1084.30
661.18	1086.29
661.52	1085.12
661.87	1082.45
662.21	1082.92
662.55	1085.80
662.89	1082.90
663.23	1083.48
663.57	1083.86
663.91	1085.47
664.25	1083.34
664.60	1081.12
664.94	1082.85
665.28	1081.82
665.62	1081.05
665.96	1079.67
666.30	1083.36
666.64	1082.87
666.98	1087.16
667.32	1088.63
667.66	1090.32
668.01	1087.51
668.35	1087.39
668.69	1082.78
669.03	1082.69
669.37	1081.47
669.71	1082.90
670.05	1078.99
670.39	1081.82
670.73	1077.96
671.07	1076.83
671.41	1075.45
671.75	1078.80
672.09	1078.73
672.43	1079.76
672.77	1079.57
673.11	1082.38
673.45	1083.41
673.79	1079.06
674.13	1082.66
674.47	1082.90
674.81	1078.99
675.15	1077.35
675.49	1083.01
675.83	1080.63
676.17	1078.89
676.51	1080.13
676.85	1080.70
677.19	1079.62
677.53	1081.37
677.87	1084.09
678.21	1086.99
678.55	1085.52
678.89	1084.67
679.23	1084.79
679.57	1081.47
679.90	1078.07
680.24	1078.85
680.58	1079.69
680.92	1073.98
681.26	1075.41
681.60	1078.31
681.94	1078.21
682.28	1076.32
682.62	1079.17
682.96	1080.77
683.29	1080.46
683.63	1080.18
683.97	1080.98
684.31	1081.12
684.65	1081.26
684.99	1080.51
685.33	1082.24
685.67	1083.62
686.00	1084.53
686.34	1084.81
686.68	1086.36
687.02	1083.15
687.36	1084.79
687.70	1084.32
688.03	1085.59
688.37	1083.08
688.71	1085.77
689.05	1084.42
689.39	1084.11
689.72	1082.99
690.06	1081.07
690.40	1080.51
690.74	1077.49
691.08	1078.57
691.41	1077.37
691.75	1080.39
692.09	1081.63
692.43	1081.87
692.76	1082.76
693.10	1083.95
693.44	1081.73
693.78	1079.36
694.11	1081.61
694.45	1082.29
694.79	1082.94
695.13	1081.58
695.46	1084.63
695.80	1085.68
696.14	1082.08
696.48	1082.10
696.81	1085.91
697.15	1081.02
697.49	1078.52
697.82	1079.60
698.16	1077.11
698.50	1074.91
698.83	1076.32
699.17	1077.86
699.51	1077.58
699.84	1078.05
700.18	1082.76
700.52	1084.77
700.85	1082.57
701.19	1087.25
701.53	1087.93
701.86	1083.97
702.20	1083.86
702.54	1083.55
702.87	1080.56
703.21	1079.60
703.55	1079.78
703.88	1080.27
704.22	1081.96
704.55	1081.05
704.89	1084.00
705.23	1084.67
705.56	1080.39
705.90	1080.81
706.23	1081.49
706.57	1079.60
706.91	1080.95
707.24	1081.87
707.58	1082.29
707.91	1083.34
708.25	1084.16
708.58	1078.75
708.92	1080.51
709.26	1081.56
709.59	1081.23
709.93	1080.18
710.26	1086.64
710.60	1088.00
710.93	1085.96
711.27	1083.48
711.60	1084.65
711.94	1083.71
712.27	1083.04
712.61	1081.73
712.94	1085.35
713.28	1081.23
713.61	1083.04
713.95	1081.00
714.28	1084.02
714.62	1081.00
714.95	1081.19
715.29	1077.33
715.62	1078.59
715.96	1075.48
716.29	1075.55
716.63	1078.19
716.96	1077.58
717.29	1077.14
717.63	1078.24
717.96	1078.07
718.30	1079.95
718.63	1078.47
718.97	1080.48
719.30	1082.71
719.63	1083.18
719.97	1082.12
720.30	1082.24
720.64	1081.33
720.97	1079.41
721.30	1078.73
721.64	1075.97
721.97	1079.17
722.31	1078.52
722.64	1081.12
722.97	1083.93
723.31	1087.25
723.64	1086.13
723.97	1089.75
724.31	1085.07
724.64	1082.57
724.98	1079.90
725.31	1078.64
725.64	1074.35
725.98	1076.62
726.31	1074.80
726.64	1077.14
726.97	1078.99
727.31	1078.31
727.64	1080.41
727.97	1084.11
728.31	1082.26
728.64	1080.79
728.97	1081.37
729.31	1078.31
729.64	1076.83
729.97	1076.90
730.30	1076.58
730.64	1077.65
730.97	1073.37
731.30	1072.74
731.63	1070.37
731.97	1068.57
732.30	1065.76
732.63	1069.62
732.96	1073.56
733.30	1075.83
733.63	1077.42
733.96	1080.84
734.29	1082.33
734.63	1076.46
734.96	1076.01
735.29	1076.20
735.62	1074.56
735.95	1072.04
736.29	1073.65
736.62	1074.66
736.95	1075.31
737.28	1077.98
737.61	1081.58
737.94	1081.68
738.28	1082.17
738.61	1082.29
738.94	1079.13
739.27	1074.38
739.60	1073.51
739.93	1073.70
740.27	1072.64
740.60	1073.04
740.93	1077.09
741.26	1079.31
741.59	1078.52
741.92	1079.10
742.25	1079.99
742.58	1081.21
742.91	1076.97
743.25	1077.00
743.58	1075.80
743.91	1076.65
744.24	1073.28
744.57	1076.86
744.90	1080.09
745.23	1085.75
745.56	1087.23
745.89	1084.79
746.22	1085.47
746.55	1081.84
746.88	1078.45
747.21	1078.54
747.54	1082.19
747.87	1080.74
748.20	1079.88
748.53	1079.03
748.87	1079.53
749.20	1081.54
749.53	1081.14
749.86	1080.93
750.19	1084.35
750.52	1081.94
750.85	1080.93
751.18	1081.49
751.51	1082.80
751.84	1077.28
752.16	1076.79
752.49	1076.95
752.82	1079.38
753.15	1081.02
753.48	1082.22
753.81	1082.05
754.14	1080.74
754.47	1078.85
754.80	1075.64
755.13	1077.56
755.46	1078.82
755.79	1081.00
756.12	1080.86
756.45	1084.49
756.78	1081.98
757.11	1081.23
757.43	1081.98
757.76	1080.88
758.09	1077.72
758.42	1081.49
758.75	1080.13
759.08	1075.59
759.41	1077.56
759.74	1080.18
760.07	1077.68
760.39	1077.30
760.72	1079.20
761.05	1078.89
761.38	1080.02
761.71	1081.75
762.04	1085.73
762.36	1084.49
762.69	1085.96
763.02	1080.98
763.35	1079.15
763.68	1078.82
764.01	1077.09
