SpectraSuite Data File
++++++++++++++++++++++++++++++++++++
Date: Mon Aug 26 10:21:49 PDT 2019
User: corrico
Dark Spectrum Present: No
Reference Spectrum Present: No
Number of Sampled Component Spectra: 1
Spectrometers: USB2+H06089
Integration Time (usec): 2000 (USB2+H06089)
Spectra Averaged: 20 (USB2+H06089)
Boxcar Smoothing: 2 (USB2+H06089)
Correct for Electrical Dark: No (USB2+H06089)
Strobe/Lamp Enabled: No (USB2+H06089)
Correct for Detector Non-linearity: No (USB2+H06089)
Correct for Stray Light: No (USB2+H06089)
Number of Pixels in Processed Spectrum: 2048
>>>>>Begin Processed Spectral Data<<<<<
339.70	1033.58
340.07	1033.58
340.45	999.90
340.82	977.43
341.19	952.90
341.57	927.48
341.94	913.04
342.31	903.89
342.69	899.23
343.06	893.20
343.43	888.70
343.81	889.80
344.18	895.77
344.55	899.51
344.93	907.80
345.30	915.50
345.67	923.58
346.04	929.26
346.42	935.54
346.79	940.29
347.16	950.26
347.54	956.76
347.91	963.55
348.28	974.93
348.65	987.35
349.03	995.76
349.40	1004.00
349.77	1012.56
350.14	1015.75
350.52	1022.32
350.89	1030.63
351.26	1039.64
351.63	1045.68
352.01	1052.89
352.38	1055.68
352.75	1058.48
353.12	1057.95
353.50	1061.90
353.87	1063.89
354.24	1066.39
354.61	1065.20
354.98	1070.44
355.36	1069.37
355.73	1072.22
356.10	1071.75
356.47	1072.83
356.84	1072.25
357.22	1073.00
357.59	1070.84
357.96	1074.45
358.33	1078.28
358.70	1078.61
359.08	1077.77
359.45	1080.04
359.82	1077.89
360.19	1076.65
360.56	1075.05
360.94	1077.68
361.31	1073.53
361.68	1075.78
362.05	1073.79
362.42	1073.14
362.79	1070.65
363.16	1072.55
363.54	1069.58
363.91	1068.83
364.28	1069.23
364.65	1068.34
365.02	1069.37
365.39	1068.59
365.76	1068.10
366.14	1069.55
366.51	1073.39
366.88	1068.81
367.25	1069.79
367.62	1069.09
367.99	1068.99
368.36	1067.19
368.73	1069.44
369.10	1069.84
369.48	1069.51
369.85	1068.67
370.22	1067.07
370.59	1068.88
370.96	1066.79
371.33	1069.53
371.70	1067.45
372.07	1070.07
372.44	1067.92
372.81	1067.64
373.18	1065.39
373.55	1067.19
373.93	1064.52
374.30	1063.80
374.67	1064.64
375.04	1063.31
375.41	1059.16
375.78	1062.72
376.15	1066.75
376.52	1066.25
376.89	1068.95
377.26	1071.75
377.63	1066.70
378.00	1066.63
378.37	1070.30
378.74	1069.72
379.11	1068.41
379.48	1070.63
379.85	1068.76
380.22	1067.87
380.59	1067.33
380.96	1067.57
381.33	1070.21
381.70	1069.32
382.07	1064.26
382.44	1064.41
382.81	1068.48
383.18	1066.89
383.55	1072.57
383.92	1076.15
384.29	1077.47
384.66	1073.98
385.03	1071.26
385.40	1065.20
385.77	1067.38
386.14	1068.08
386.51	1068.43
386.88	1069.25
387.25	1070.12
387.62	1066.89
387.99	1066.61
388.36	1068.64
388.73	1072.67
389.10	1074.73
389.46	1075.31
389.83	1074.03
390.20	1072.69
390.57	1067.96
390.94	1067.26
391.31	1067.49
391.68	1070.16
392.05	1069.23
392.42	1070.14
392.79	1071.45
393.16	1071.47
393.53	1068.45
393.89	1068.45
394.26	1068.81
394.63	1066.28
395.00	1067.87
395.37	1067.75
395.74	1070.63
396.11	1068.71
396.48	1069.67
396.84	1068.31
397.21	1071.38
397.58	1068.50
397.95	1068.45
398.32	1070.14
398.69	1071.71
399.06	1069.13
399.42	1071.64
399.79	1074.00
400.16	1072.11
400.53	1074.49
400.90	1078.00
401.27	1078.10
401.64	1079.62
402.00	1079.50
402.37	1073.49
402.74	1067.07
403.11	1067.59
403.48	1068.36
403.84	1069.37
404.21	1070.30
404.58	1073.60
404.95	1070.80
405.32	1070.42
405.68	1069.91
406.05	1072.36
406.42	1075.34
406.79	1075.85
407.16	1076.34
407.52	1077.33
407.89	1075.43
408.26	1072.81
408.63	1074.03
408.99	1071.99
409.36	1070.44
409.73	1071.64
410.10	1075.62
410.47	1077.18
410.83	1079.55
411.20	1082.61
411.57	1082.97
411.94	1080.04
412.30	1082.59
412.67	1080.44
413.04	1077.54
413.40	1080.09
413.77	1082.73
414.14	1079.55
414.51	1081.02
414.87	1081.14
415.24	1079.71
415.61	1079.36
415.97	1077.51
416.34	1075.78
416.71	1077.56
417.08	1079.31
417.44	1077.28
417.81	1081.23
418.18	1082.43
418.54	1082.19
418.91	1084.46
419.28	1082.47
419.64	1079.24
420.01	1079.90
420.38	1080.70
420.74	1077.18
421.11	1077.07
421.48	1079.69
421.84	1080.60
422.21	1083.41
422.58	1082.45
422.94	1086.87
423.31	1085.26
423.68	1084.49
424.04	1081.23
424.41	1080.91
424.77	1080.51
425.14	1082.15
425.51	1086.29
425.87	1085.05
426.24	1086.85
426.61	1087.65
426.97	1086.15
427.34	1081.89
427.70	1085.03
428.07	1084.11
428.44	1084.21
428.80	1089.24
429.17	1094.13
429.53	1095.25
429.90	1097.92
430.27	1097.69
430.63	1099.61
431.00	1101.97
431.36	1104.66
431.73	1111.26
432.09	1117.25
432.46	1117.28
432.83	1116.22
433.19	1119.24
433.56	1123.95
433.92	1127.04
434.29	1133.73
434.65	1143.05
435.02	1147.61
435.38	1148.27
435.75	1151.99
436.11	1157.47
436.48	1163.64
436.84	1171.46
437.21	1181.50
437.57	1191.01
437.94	1198.68
438.30	1203.20
438.67	1210.90
439.03	1217.99
439.40	1225.69
439.76	1233.04
440.13	1244.21
440.49	1255.60
440.86	1266.51
441.22	1277.70
441.59	1290.59
441.95	1304.78
442.32	1319.92
442.68	1333.10
443.05	1351.57
443.41	1370.88
443.78	1389.88
444.14	1406.33
444.51	1427.75
444.87	1452.42
445.24	1473.60
445.60	1498.48
445.96	1526.45
446.33	1557.14
446.69	1583.54
447.06	1615.65
447.42	1641.93
447.79	1675.71
448.15	1711.82
448.51	1748.80
448.88	1791.33
449.24	1833.29
449.61	1883.43
449.97	1930.08
450.33	1983.00
450.70	2030.91
451.06	2084.43
451.43	2129.63
451.79	2190.51
452.15	2255.36
452.52	2320.59
452.88	2398.72
453.24	2478.70
453.61	2565.44
453.97	2651.69
454.34	2742.10
454.70	2842.18
455.06	2949.45
455.43	3047.99
455.79	3142.85
456.15	3252.95
456.52	3360.73
456.88	3481.36
457.24	3598.06
457.61	3737.23
457.97	3868.34
458.33	4002.08
458.70	4137.93
459.06	4272.30
459.42	4414.34
459.79	4552.81
460.15	4706.30
460.51	4837.75
460.88	4990.30
461.24	5128.91
461.60	5279.05
461.96	5414.88
462.33	5563.90
462.69	5701.01
463.05	5840.76
463.42	5983.23
463.78	6116.08
464.14	6219.27
464.50	6340.68
464.87	6440.03
465.23	6520.99
465.59	6609.42
465.95	6705.17
466.32	6760.17
466.68	6804.19
467.04	6816.97
467.40	6814.40
467.77	6814.05
468.13	6804.62
468.49	6804.26
468.85	6801.95
469.22	6801.06
469.58	6767.33
469.94	6750.74
470.30	6713.73
470.66	6653.93
471.03	6558.67
471.39	6507.41
471.75	6407.99
472.11	6314.37
472.47	6258.52
472.84	6196.83
473.20	6105.33
473.56	6046.38
473.92	5953.50
474.28	5862.88
474.65	5779.95
475.01	5695.60
475.37	5608.91
475.73	5539.44
476.09	5457.92
476.45	5396.36
476.81	5325.58
477.18	5252.47
477.54	5182.04
477.90	5122.24
478.26	5036.29
478.62	4967.23
478.98	4903.38
479.34	4849.40
479.71	4784.45
480.07	4729.97
480.43	4670.23
480.79	4608.07
481.15	4552.04
481.51	4508.25
481.87	4462.56
482.23	4413.24
482.59	4364.35
482.96	4309.11
483.32	4253.01
483.68	4199.48
484.04	4160.68
484.40	4106.42
484.76	4051.21
485.12	3989.58
485.48	3926.90
485.84	3851.05
486.20	3784.30
486.56	3724.54
486.92	3673.45
487.28	3625.47
487.64	3581.07
488.00	3539.69
488.37	3487.16
488.73	3421.09
489.09	3359.56
489.45	3301.37
489.81	3239.72
490.17	3189.33
490.53	3147.32
490.89	3097.63
491.25	3040.43
491.61	2985.40
491.97	2923.52
492.33	2863.83
492.69	2807.68
493.05	2754.60
493.41	2702.57
493.77	2657.63
494.13	2609.72
494.49	2565.48
494.85	2519.31
495.21	2473.36
495.57	2430.41
495.93	2392.12
496.29	2354.63
496.64	2321.39
497.00	2286.75
497.36	2249.65
497.72	2208.27
498.08	2167.99
498.44	2132.02
498.80	2104.94
499.16	2075.26
499.52	2053.91
499.88	2032.52
500.24	2008.02
500.60	1982.11
500.96	1956.95
501.32	1930.82
501.68	1904.35
502.03	1876.29
502.39	1852.58
502.75	1827.61
503.11	1801.39
503.47	1778.60
503.83	1758.21
504.19	1734.73
504.55	1719.64
504.91	1701.92
505.26	1685.56
505.62	1671.66
505.98	1653.66
506.34	1633.09
506.70	1612.44
507.06	1588.85
507.42	1569.10
507.78	1553.53
508.13	1539.56
508.49	1526.01
508.85	1518.26
509.21	1505.39
509.57	1487.81
509.93	1470.32
510.28	1459.30
510.64	1444.39
511.00	1430.79
511.36	1421.50
511.72	1410.43
512.07	1393.72
512.43	1381.83
512.79	1371.76
513.15	1364.16
513.51	1355.97
513.86	1352.13
514.22	1341.62
514.58	1330.92
514.94	1321.14
515.30	1314.07
515.65	1308.13
516.01	1304.33
516.37	1298.30
516.73	1291.93
517.08	1286.48
517.44	1277.77
517.80	1268.52
518.16	1264.03
518.51	1258.83
518.87	1251.70
519.23	1244.49
519.59	1240.98
519.94	1235.08
520.30	1230.56
520.66	1225.67
521.01	1222.46
521.37	1218.69
521.73	1213.92
522.09	1210.48
522.44	1209.94
522.80	1207.83
523.16	1203.97
523.51	1200.72
523.87	1193.88
524.23	1186.91
524.58	1182.37
524.94	1179.93
525.30	1177.80
525.65	1177.83
526.01	1173.19
526.37	1170.69
526.72	1167.11
527.08	1162.05
527.44	1160.84
527.79	1159.74
528.15	1154.96
528.51	1149.88
528.86	1148.97
529.22	1146.23
529.58	1145.81
529.93	1144.03
530.29	1142.98
530.65	1140.50
531.00	1134.83
531.36	1130.90
531.71	1130.27
532.07	1129.14
532.43	1123.88
532.78	1123.69
533.14	1124.65
533.49	1125.82
533.85	1124.77
534.21	1127.93
534.56	1125.66
534.92	1122.26
535.27	1118.50
535.63	1115.66
535.98	1115.45
536.34	1115.76
536.69	1113.21
537.05	1114.00
537.41	1115.57
537.76	1113.79
538.12	1112.60
538.47	1111.01
538.83	1106.63
539.18	1103.35
539.54	1100.05
539.89	1099.37
540.25	1101.67
540.60	1103.16
540.96	1104.57
541.31	1105.29
541.67	1106.02
542.02	1106.02
542.38	1106.96
542.73	1102.63
543.09	1102.28
543.44	1100.68
543.80	1097.69
544.15	1096.10
544.51	1097.38
544.86	1098.41
545.22	1095.93
545.57	1098.37
545.93	1096.14
546.28	1095.28
546.64	1093.52
546.99	1096.70
547.35	1096.14
547.70	1097.43
548.05	1098.20
548.41	1097.90
548.76	1094.01
549.12	1090.95
549.47	1089.12
549.83	1090.10
550.18	1088.51
550.53	1087.79
550.89	1087.62
551.24	1085.26
551.60	1083.48
551.95	1085.35
552.30	1085.24
552.66	1086.36
553.01	1088.00
553.37	1086.62
553.72	1085.96
554.07	1084.96
554.43	1084.67
554.78	1081.58
555.13	1081.77
555.49	1081.82
555.84	1082.24
556.19	1081.49
556.55	1083.93
556.90	1085.07
557.26	1083.15
557.61	1087.90
557.96	1088.16
558.32	1085.26
558.67	1086.06
559.02	1086.57
559.37	1083.88
559.73	1085.17
560.08	1087.53
560.43	1084.30
560.79	1085.00
561.14	1080.30
561.49	1077.75
561.85	1078.40
562.20	1079.97
562.55	1075.92
562.90	1079.15
563.26	1079.50
563.61	1078.89
563.96	1078.50
564.32	1081.23
564.67	1083.36
565.02	1083.39
565.37	1082.64
565.73	1082.80
566.08	1083.90
566.43	1084.21
566.78	1082.83
567.14	1085.26
567.49	1084.58
567.84	1082.12
568.19	1082.66
568.54	1084.44
568.90	1084.04
569.25	1082.29
569.60	1084.67
569.95	1080.13
570.31	1081.21
570.66	1078.73
571.01	1078.87
571.36	1076.90
571.71	1078.38
572.06	1077.89
572.42	1081.68
572.77	1084.28
573.12	1085.12
573.47	1085.00
573.82	1083.22
574.18	1080.86
574.53	1080.06
574.88	1078.99
575.23	1079.62
575.58	1080.74
575.93	1080.16
576.28	1080.25
576.64	1083.48
576.99	1081.96
577.34	1083.29
577.69	1081.89
578.04	1081.96
578.39	1077.93
578.74	1078.96
579.09	1079.46
579.44	1080.23
579.80	1078.52
580.15	1078.57
580.50	1078.36
580.85	1071.52
581.20	1071.15
581.55	1076.41
581.90	1077.77
582.25	1075.71
582.60	1080.48
582.95	1078.92
583.30	1078.14
583.65	1076.60
584.00	1080.37
584.35	1079.76
584.71	1082.40
585.06	1081.12
585.41	1083.50
585.76	1082.03
586.11	1081.07
586.46	1080.46
586.81	1079.97
587.16	1079.78
587.51	1082.15
587.86	1082.85
588.21	1084.25
588.56	1083.48
588.91	1082.71
589.26	1080.16
589.61	1078.45
589.96	1078.61
590.31	1079.06
590.66	1079.27
591.01	1081.37
591.36	1081.66
591.71	1080.48
592.06	1076.93
592.41	1076.51
592.76	1073.58
593.10	1073.91
593.45	1072.62
593.80	1076.18
594.15	1077.30
594.50	1079.15
594.85	1080.77
595.20	1082.87
595.55	1082.59
595.90	1082.50
596.25	1082.15
596.60	1084.07
596.95	1082.71
597.30	1081.51
597.64	1091.27
597.99	1091.04
598.34	1089.64
598.69	1088.26
599.04	1087.65
599.39	1077.00
599.74	1076.41
600.09	1073.23
600.44	1076.20
600.78	1077.02
601.13	1074.38
601.48	1073.77
601.83	1075.76
602.18	1073.46
602.53	1071.47
602.88	1072.22
603.22	1069.11
603.57	1068.85
603.92	1069.09
604.27	1070.16
604.62	1074.89
604.97	1079.71
605.31	1079.67
605.66	1079.22
606.01	1081.58
606.36	1075.85
606.71	1074.89
607.05	1076.23
607.40	1076.93
607.75	1075.62
608.10	1081.37
608.44	1081.33
608.79	1080.18
609.14	1082.15
609.49	1079.85
609.84	1077.11
610.18	1076.04
610.53	1074.17
610.88	1075.69
611.23	1076.88
611.57	1078.31
611.92	1078.19
612.27	1079.27
612.62	1073.14
612.96	1074.07
613.31	1074.98
613.66	1074.26
614.00	1073.77
614.35	1078.96
614.70	1075.05
615.05	1072.95
615.39	1073.04
615.74	1076.65
616.09	1075.10
616.43	1079.97
616.78	1079.88
617.13	1081.14
617.47	1077.98
617.82	1075.10
618.17	1074.19
618.51	1074.98
618.86	1074.10
619.21	1075.29
619.55	1079.13
619.90	1074.94
620.25	1073.02
620.59	1074.14
620.94	1074.59
621.29	1075.73
621.63	1080.30
621.98	1083.18
622.32	1080.81
622.67	1079.41
623.02	1075.66
623.36	1074.47
623.71	1072.11
624.05	1076.08
624.40	1074.26
624.75	1075.55
625.09	1076.46
625.44	1078.26
625.78	1075.87
626.13	1079.83
626.48	1079.92
626.82	1077.37
627.17	1075.34
627.51	1076.08
627.86	1074.05
628.20	1075.27
628.55	1077.16
628.89	1077.72
629.24	1075.10
629.58	1075.24
629.93	1075.05
630.28	1074.84
630.62	1074.12
630.97	1075.57
631.31	1076.74
631.66	1076.34
632.00	1077.07
632.35	1077.65
632.69	1079.31
633.04	1076.90
633.38	1074.40
633.73	1071.05
634.07	1071.05
634.42	1066.25
634.76	1068.95
635.11	1069.25
635.45	1072.62
635.79	1072.57
636.14	1075.97
636.48	1073.56
636.83	1072.20
637.17	1072.50
637.52	1073.00
637.86	1074.59
638.21	1076.27
638.55	1078.28
638.89	1077.42
639.24	1075.31
639.58	1075.64
639.93	1075.45
640.27	1075.13
640.61	1078.78
640.96	1082.71
641.30	1079.13
641.65	1076.88
641.99	1078.47
642.33	1074.98
642.68	1072.53
643.02	1075.80
643.37	1078.80
643.71	1077.21
644.05	1078.94
644.40	1078.54
644.74	1079.24
645.08	1077.51
645.43	1078.40
645.77	1077.70
646.11	1078.82
646.46	1075.41
646.80	1076.25
647.14	1075.73
647.49	1070.94
647.83	1069.74
648.17	1073.72
648.52	1075.64
648.86	1079.29
649.20	1082.64
649.55	1081.75
649.89	1080.30
650.23	1079.50
650.57	1075.90
650.92	1075.92
651.26	1079.74
651.60	1079.24
651.95	1079.38
652.29	1078.12
652.63	1077.96
652.97	1075.57
653.32	1078.54
653.66	1076.08
654.00	1075.29
654.34	1077.25
654.69	1076.72
655.03	1072.13
655.37	1073.86
655.71	1078.71
656.05	1078.07
656.40	1078.92
656.74	1080.41
657.08	1077.89
657.42	1076.81
657.76	1075.05
658.11	1077.16
658.45	1077.11
658.79	1080.79
659.13	1080.70
659.47	1080.58
659.82	1077.56
660.16	1076.41
660.50	1076.53
660.84	1075.08
661.18	1077.42
661.52	1079.17
661.87	1083.18
662.21	1080.72
662.55	1083.93
662.89	1082.43
663.23	1081.47
663.57	1078.45
663.91	1078.14
664.25	1076.13
664.60	1075.57
664.94	1073.77
665.28	1071.97
665.62	1072.55
665.96	1071.54
666.30	1070.35
666.64	1071.99
666.98	1074.52
667.32	1074.33
667.66	1074.80
668.01	1077.56
668.35	1078.00
668.69	1075.24
669.03	1077.44
669.37	1076.79
669.71	1076.90
670.05	1074.52
670.39	1075.83
670.73	1075.34
671.07	1077.04
671.41	1078.45
671.75	1081.05
672.09	1080.77
672.43	1078.00
672.77	1078.71
673.11	1077.33
673.45	1076.53
673.79	1074.98
674.13	1076.13
674.47	1073.04
674.81	1072.22
675.15	1073.11
675.49	1073.09
675.83	1074.54
676.17	1073.42
676.51	1074.68
676.85	1072.41
677.19	1074.05
677.53	1070.40
677.87	1072.85
678.21	1070.61
678.55	1072.34
678.89	1073.44
679.23	1077.02
679.57	1076.11
679.90	1075.29
680.24	1075.64
680.58	1072.43
680.92	1070.21
681.26	1067.92
681.60	1066.18
681.94	1062.16
682.28	1064.87
682.62	1067.78
682.96	1073.98
683.29	1076.20
683.63	1076.53
683.97	1073.88
684.31	1071.08
684.65	1068.13
684.99	1068.83
685.33	1072.34
685.67	1076.44
686.00	1076.32
686.34	1073.88
686.68	1072.04
687.02	1070.23
687.36	1067.52
687.70	1069.53
688.03	1073.09
688.37	1075.38
688.71	1077.25
689.05	1079.20
689.39	1078.00
689.72	1077.63
690.06	1080.27
690.40	1080.18
690.74	1078.80
691.08	1077.61
691.41	1079.85
691.75	1077.70
692.09	1076.39
692.43	1075.41
692.76	1075.87
693.10	1071.36
693.44	1070.89
693.78	1070.58
694.11	1073.00
694.45	1072.32
694.79	1073.93
695.13	1075.87
695.46	1075.45
695.80	1075.57
696.14	1079.67
696.48	1080.20
696.81	1077.89
697.15	1079.46
697.49	1078.66
697.82	1073.28
698.16	1070.49
698.50	1069.20
698.83	1070.58
699.17	1069.84
699.51	1072.46
699.84	1073.98
700.18	1075.94
700.52	1076.08
700.85	1078.24
701.19	1080.04
701.53	1078.59
701.86	1077.82
702.20	1078.26
702.54	1079.78
702.87	1081.49
703.21	1080.72
703.55	1084.37
703.88	1082.26
704.22	1081.30
704.55	1076.97
704.89	1079.01
705.23	1075.76
705.56	1075.97
705.90	1073.74
706.23	1076.46
706.57	1077.04
706.91	1077.68
707.24	1078.31
707.58	1076.86
707.91	1075.66
708.25	1076.34
708.58	1075.31
708.92	1076.20
709.26	1076.67
709.59	1078.00
709.93	1079.46
710.26	1079.50
710.60	1078.43
710.93	1080.86
711.27	1077.44
711.60	1075.01
711.94	1075.69
712.27	1077.21
712.61	1075.36
712.94	1076.20
713.28	1076.37
713.61	1076.62
713.95	1072.88
714.28	1076.08
714.62	1078.92
714.95	1077.98
715.29	1077.96
715.62	1080.60
715.96	1079.36
716.29	1073.88
716.63	1073.63
716.96	1072.15
717.29	1070.37
717.63	1070.75
717.96	1075.85
718.30	1078.50
718.63	1079.01
718.97	1080.11
719.30	1080.58
719.63	1079.43
719.97	1080.20
720.30	1079.83
720.64	1079.50
720.97	1079.57
721.30	1079.85
721.64	1078.40
721.97	1081.87
722.31	1084.53
722.64	1082.12
722.97	1079.97
723.31	1080.72
723.64	1075.48
723.97	1071.68
724.31	1069.65
724.64	1072.32
724.98	1068.36
725.31	1072.60
725.64	1072.92
725.98	1079.27
726.31	1078.64
726.64	1081.28
726.97	1081.56
727.31	1081.30
727.64	1078.94
727.97	1077.82
728.31	1077.86
728.64	1078.28
728.97	1079.76
729.31	1078.92
729.64	1080.86
729.97	1081.56
730.30	1079.22
730.64	1077.77
730.97	1076.25
731.30	1074.98
731.63	1073.67
731.97	1074.00
732.30	1073.18
732.63	1075.64
732.96	1076.53
733.30	1077.47
733.63	1077.51
733.96	1077.42
734.29	1077.18
734.63	1075.78
734.96	1075.90
735.29	1076.76
735.62	1075.87
735.95	1076.30
736.29	1073.91
736.62	1073.09
736.95	1070.28
737.28	1072.20
737.61	1071.01
737.94	1073.84
738.28	1072.29
738.61	1073.51
738.94	1073.77
739.27	1070.75
739.60	1067.92
739.93	1069.30
740.27	1067.85
740.60	1068.08
740.93	1072.25
741.26	1075.10
741.59	1074.66
741.92	1074.89
742.25	1075.13
742.58	1073.51
742.91	1071.66
743.25	1072.29
743.58	1076.15
743.91	1076.04
744.24	1075.57
744.57	1078.36
744.90	1074.66
745.23	1071.85
745.56	1070.30
745.89	1073.23
746.22	1070.98
746.55	1075.50
746.88	1076.72
747.21	1077.93
747.54	1073.30
747.87	1070.00
748.20	1072.06
748.53	1073.28
748.87	1074.98
749.20	1078.66
749.53	1084.60
749.86	1083.11
750.19	1081.33
750.52	1080.11
750.85	1079.92
751.18	1079.99
751.51	1078.33
751.84	1080.25
752.16	1078.03
752.49	1075.13
752.82	1072.13
753.15	1071.47
753.48	1072.13
753.81	1072.90
754.14	1075.69
754.47	1077.98
754.80	1078.87
755.13	1077.77
755.46	1079.34
755.79	1079.88
756.12	1077.18
756.45	1078.10
756.78	1076.04
757.11	1079.97
757.43	1078.92
757.76	1080.06
758.09	1078.52
758.42	1077.40
758.75	1073.86
759.08	1074.33
759.41	1074.94
759.74	1074.17
760.07	1077.44
760.39	1077.21
760.72	1077.82
761.05	1077.09
761.38	1079.13
761.71	1076.97
762.04	1077.33
762.36	1073.30
762.69	1074.40
763.02	1073.35
763.35	1072.08
763.68	1073.09
764.01	1075.97
764.33	1073.86
764.66	1074.70
764.99	1077.33
765.32	1075.92
765.65	1076.44
765.97	1077.70
766.30	1076.41
