SpectraSuite Data File
++++++++++++++++++++++++++++++++++++
Date: Mon Aug 26 10:22:28 PDT 2019
User: corrico
Dark Spectrum Present: No
Reference Spectrum Present: No
Number of Sampled Component Spectra: 1
Spectrometers: USB2+H06089
Integration Time (usec): 2000 (USB2+H06089)
Spectra Averaged: 20 (USB2+H06089)
Boxcar Smoothing: 2 (USB2+H06089)
Correct for Electrical Dark: No (USB2+H06089)
Strobe/Lamp Enabled: No (USB2+H06089)
Correct for Detector Non-linearity: No (USB2+H06089)
Correct for Stray Light: No (USB2+H06089)
Number of Pixels in Processed Spectrum: 2048
>>>>>Begin Processed Spectral Data<<<<<
339.70	1036.27
340.07	1036.27
340.45	1000.25
340.82	980.12
341.19	956.97
341.57	935.07
341.94	923.32
342.31	916.41
342.69	907.99
343.06	902.98
343.43	897.36
343.81	898.84
344.18	903.03
344.55	908.17
344.93	910.96
345.30	917.84
345.67	923.53
346.04	929.71
346.42	938.72
346.79	948.78
347.16	957.79
347.54	967.67
347.91	976.71
348.28	982.37
348.65	994.10
349.03	1003.34
349.40	1014.60
349.77	1025.79
350.14	1033.07
350.52	1038.82
350.89	1042.22
351.26	1044.77
351.63	1043.55
352.01	1050.60
352.38	1053.05
352.75	1057.17
353.12	1061.46
353.50	1070.05
353.87	1073.91
354.24	1077.04
354.61	1082.73
354.98	1083.62
355.36	1081.66
355.73	1081.28
356.10	1081.47
356.47	1082.59
356.84	1087.09
357.22	1091.23
357.59	1092.98
357.96	1097.13
358.33	1095.32
358.70	1091.42
359.08	1092.33
359.45	1091.91
359.82	1090.43
360.19	1092.70
360.56	1092.19
360.94	1086.29
361.31	1081.28
361.68	1078.80
362.05	1077.79
362.42	1078.17
362.79	1076.90
363.16	1080.06
363.54	1078.94
363.91	1076.53
364.28	1075.29
364.65	1079.13
365.02	1077.49
365.39	1076.27
365.76	1072.48
366.14	1069.86
366.51	1069.53
366.88	1069.84
367.25	1070.42
367.62	1071.33
367.99	1074.19
368.36	1072.18
368.73	1070.02
369.10	1069.13
369.48	1070.82
369.85	1069.91
370.22	1072.95
370.59	1078.38
370.96	1079.92
371.33	1080.09
371.70	1079.43
372.07	1075.43
372.44	1072.64
372.81	1071.59
373.18	1075.22
373.55	1076.23
373.93	1076.72
374.30	1077.09
374.67	1077.35
375.04	1074.98
375.41	1079.41
375.78	1079.15
376.15	1078.75
376.52	1081.63
376.89	1080.16
377.26	1074.75
377.63	1075.20
378.00	1077.75
378.37	1076.08
378.74	1076.53
379.11	1080.11
379.48	1079.95
379.85	1079.67
380.22	1083.43
380.59	1084.09
380.96	1082.10
381.33	1082.43
381.70	1081.70
382.07	1077.28
382.44	1077.09
382.81	1075.31
383.18	1079.41
383.55	1078.43
383.92	1079.97
384.29	1082.08
384.66	1086.80
385.03	1083.48
385.40	1085.12
385.77	1089.22
386.14	1088.93
386.51	1086.99
386.88	1087.18
387.25	1088.47
387.62	1083.32
387.99	1084.65
388.36	1084.16
388.73	1083.20
389.10	1081.42
389.46	1084.74
389.83	1084.11
390.20	1086.64
390.57	1086.71
390.94	1086.24
391.31	1086.48
391.68	1086.94
392.05	1088.65
392.42	1091.30
392.79	1090.43
393.16	1090.03
393.53	1088.33
393.89	1084.84
394.26	1081.82
394.63	1082.80
395.00	1080.77
395.37	1079.55
395.74	1079.85
396.11	1085.24
396.48	1087.30
396.84	1089.07
397.21	1091.32
397.58	1097.41
397.95	1094.34
398.32	1095.30
398.69	1095.35
399.06	1094.46
399.42	1092.56
399.79	1091.93
400.16	1091.77
400.53	1091.67
400.90	1090.03
401.27	1083.95
401.64	1090.74
402.00	1089.80
402.37	1088.42
402.74	1089.75
403.11	1092.75
403.48	1086.87
403.84	1089.10
404.21	1091.37
404.58	1089.94
404.95	1090.20
405.32	1089.78
405.68	1086.73
406.05	1086.55
406.42	1087.25
406.79	1087.86
407.16	1092.07
407.52	1094.43
407.89	1096.28
408.26	1099.68
408.63	1099.82
408.99	1096.85
409.36	1095.53
409.73	1094.97
410.10	1095.82
410.47	1095.51
410.83	1100.31
411.20	1104.36
411.57	1105.20
411.94	1105.29
412.30	1104.24
412.67	1101.64
413.04	1098.81
413.40	1098.25
413.77	1098.18
414.14	1099.33
414.51	1099.47
414.87	1098.67
415.24	1096.70
415.61	1096.31
415.97	1098.09
416.34	1099.70
416.71	1101.20
417.08	1105.11
417.44	1105.11
417.81	1105.41
418.18	1101.74
418.54	1099.54
418.91	1101.36
419.28	1099.96
419.64	1100.71
420.01	1102.74
420.38	1107.71
420.74	1108.95
421.11	1113.44
421.48	1118.96
421.84	1121.73
422.21	1123.62
422.58	1125.75
422.94	1130.92
423.31	1129.05
423.68	1132.54
424.04	1136.80
424.41	1139.98
424.77	1142.46
425.14	1148.59
425.51	1150.49
425.87	1151.33
426.24	1153.06
426.61	1158.42
426.97	1162.43
427.34	1170.53
427.70	1178.11
428.07	1185.25
428.44	1191.99
428.80	1201.21
429.17	1211.46
429.53	1219.86
429.90	1230.14
430.27	1239.57
430.63	1248.07
431.00	1258.11
431.36	1267.77
431.73	1280.32
432.09	1292.14
432.46	1302.34
432.83	1316.48
433.19	1336.70
433.56	1354.28
433.92	1375.93
434.29	1398.94
434.65	1422.76
435.02	1445.61
435.38	1471.94
435.75	1496.59
436.11	1525.49
436.48	1558.07
436.84	1593.06
437.21	1629.20
437.57	1667.82
437.94	1711.24
438.30	1755.66
438.67	1804.81
439.03	1858.74
439.40	1909.95
439.76	1962.49
440.13	2018.06
440.49	2081.02
440.86	2146.08
441.22	2223.84
441.59	2304.05
441.95	2386.50
442.32	2470.37
442.68	2565.30
443.05	2657.73
443.41	2753.24
443.78	2851.71
444.14	2959.91
444.51	3068.37
444.87	3206.32
445.24	3354.90
445.60	3513.61
445.96	3669.91
446.33	3844.10
446.69	4004.82
447.06	4184.92
447.42	4371.63
447.79	4568.47
448.15	4786.89
448.51	5019.58
448.88	5277.65
449.24	5521.82
449.61	5803.45
449.97	6080.03
450.33	6370.42
450.70	6638.11
451.06	6965.20
451.43	7263.69
451.79	7623.38
452.15	8029.70
452.52	8487.02
452.88	8962.33
453.24	9513.90
453.61	10097.40
453.97	10650.70
454.34	11193.38
454.70	11836.46
455.06	12478.66
455.43	13126.59
455.79	13736.98
456.15	14458.33
456.52	15123.42
456.88	15891.79
457.24	16606.83
457.61	17467.00
457.97	18237.34
458.33	19020.22
458.70	19796.37
459.06	20563.22
459.42	21401.13
459.79	22187.53
460.15	23088.52
460.51	23951.15
460.88	24906.69
461.24	25709.45
461.60	26693.32
461.96	27586.68
462.33	28447.50
462.69	29214.33
463.05	30060.65
463.42	30766.27
463.78	31410.69
464.14	31920.44
464.50	32536.77
464.87	33019.97
465.23	33361.53
465.59	33710.15
465.95	34050.63
466.32	34294.28
466.68	34517.75
467.04	34653.60
467.40	34802.76
467.77	34949.75
468.13	34928.59
468.49	34830.73
468.85	34757.94
469.22	34567.49
469.58	34215.52
469.94	33950.27
470.30	33650.30
470.66	33234.72
471.03	32638.79
471.39	32243.52
471.75	31608.23
472.11	30985.16
472.47	30614.14
472.84	30292.73
473.20	29819.43
473.56	29577.21
473.92	29154.30
474.28	28639.01
474.65	28161.91
475.01	27682.17
475.37	27087.42
475.73	26625.37
476.09	26105.82
476.45	25561.44
476.81	25010.71
477.18	24468.69
477.54	24014.13
477.90	23641.19
478.26	23243.88
478.62	22926.72
478.98	22630.97
479.34	22310.76
479.71	21909.61
480.07	21535.88
480.43	21163.80
480.79	20781.59
481.15	20426.65
481.51	20108.90
481.87	19871.97
482.23	19595.11
482.59	19349.82
482.96	19078.97
483.32	18785.94
483.68	18409.18
484.04	18059.11
484.40	17680.31
484.76	17290.92
485.12	16934.43
485.48	16614.29
485.84	16267.38
486.20	15903.92
486.56	15544.90
486.92	15231.88
487.28	14883.14
487.64	14521.53
488.00	14200.45
488.37	13875.70
488.73	13496.25
489.09	13132.79
489.45	12824.43
489.81	12506.21
490.17	12208.80
490.53	11924.91
490.89	11631.57
491.25	11322.83
491.61	11009.58
491.97	10684.15
492.33	10364.95
492.69	10065.73
493.05	9750.98
493.41	9466.32
493.77	9190.96
494.13	8929.75
494.49	8668.55
494.85	8442.15
495.21	8212.12
495.57	7993.30
495.93	7773.90
496.29	7578.19
496.64	7388.35
497.00	7196.61
497.36	7004.85
497.72	6822.54
498.08	6640.03
498.44	6447.24
498.80	6277.69
499.16	6113.81
499.52	5955.73
499.88	5812.04
500.24	5697.10
500.60	5571.29
500.96	5453.45
501.32	5340.73
501.68	5229.83
502.03	5102.65
502.39	4979.65
502.75	4851.02
503.11	4727.55
503.47	4608.73
503.83	4483.58
504.19	4362.83
504.55	4255.33
504.91	4156.51
505.26	4055.05
505.62	3972.80
505.98	3886.81
506.34	3794.78
506.70	3696.06
507.06	3608.68
507.42	3525.15
507.78	3444.10
508.13	3367.84
508.49	3302.00
508.85	3233.64
509.21	3157.69
509.57	3094.73
509.93	3033.24
510.28	2963.96
510.64	2898.36
511.00	2840.36
511.36	2777.89
511.72	2717.76
512.07	2666.90
512.43	2616.37
512.79	2565.09
513.15	2517.18
513.51	2470.95
513.86	2426.78
514.22	2383.77
514.58	2342.50
514.94	2303.18
515.30	2269.24
515.65	2232.05
516.01	2200.88
516.37	2168.97
516.73	2139.44
517.08	2111.28
517.44	2081.70
517.80	2049.86
518.16	2022.25
518.51	1994.79
518.87	1962.63
519.23	1936.28
519.59	1913.97
519.94	1887.38
520.30	1864.49
520.66	1844.48
521.01	1819.42
521.37	1793.72
521.73	1774.36
522.09	1753.18
522.44	1728.13
522.80	1710.72
523.16	1691.18
523.51	1669.93
523.87	1649.82
524.23	1636.99
524.58	1616.89
524.94	1596.27
525.30	1579.42
525.65	1564.67
526.01	1546.56
526.37	1533.26
526.72	1527.15
527.08	1515.54
527.44	1499.70
527.79	1486.99
528.15	1475.08
528.51	1458.69
528.86	1444.04
529.22	1433.98
529.58	1420.38
529.93	1410.62
530.29	1401.35
530.65	1392.34
531.00	1382.55
531.36	1373.22
531.71	1362.10
532.07	1350.02
532.43	1337.92
532.78	1330.88
533.14	1327.90
533.49	1320.41
533.85	1318.96
534.21	1315.97
534.56	1306.07
534.92	1295.65
535.27	1290.97
535.63	1282.71
535.98	1276.27
536.34	1274.61
536.69	1270.02
537.05	1264.57
537.41	1260.87
537.76	1256.07
538.12	1251.09
538.47	1250.13
538.83	1243.92
539.18	1236.11
539.54	1231.99
539.89	1227.73
540.25	1222.02
540.60	1217.87
540.96	1213.33
541.31	1209.31
541.67	1206.66
542.02	1204.09
542.38	1204.37
542.73	1204.46
543.09	1202.73
543.44	1197.14
543.80	1192.01
544.15	1185.95
544.51	1183.02
544.86	1180.10
545.22	1178.74
545.57	1174.64
545.93	1174.55
546.28	1170.64
546.64	1167.27
546.99	1164.51
547.35	1170.10
547.70	1171.88
548.05	1170.24
548.41	1168.28
548.76	1166.29
549.12	1160.44
549.47	1156.81
549.83	1154.09
550.18	1151.80
550.53	1146.28
550.89	1143.61
551.24	1139.40
551.60	1138.39
551.95	1134.62
552.30	1137.01
552.66	1137.78
553.01	1137.38
553.37	1136.96
553.72	1136.73
554.07	1136.96
554.43	1136.96
554.78	1134.43
555.13	1134.20
555.49	1136.59
555.84	1133.50
556.19	1130.57
556.55	1130.17
556.90	1128.86
557.26	1127.48
557.61	1125.24
557.96	1124.44
558.32	1125.59
558.67	1123.18
559.02	1122.68
559.37	1121.16
559.73	1116.13
560.08	1111.57
560.43	1109.20
560.79	1109.51
561.14	1112.64
561.49	1113.86
561.85	1113.88
562.20	1113.04
562.55	1111.15
562.90	1108.48
563.26	1109.72
563.61	1111.29
563.96	1113.39
564.32	1111.43
564.67	1112.99
565.02	1109.58
565.37	1105.65
565.73	1107.19
566.08	1105.90
566.43	1103.91
566.78	1104.94
567.14	1104.12
567.49	1102.18
567.84	1104.41
568.19	1105.39
568.54	1106.23
568.90	1108.17
569.25	1106.93
569.60	1105.55
569.95	1104.52
570.31	1101.20
570.66	1104.57
571.01	1102.91
571.36	1100.50
571.71	1099.91
572.06	1101.85
572.42	1096.33
572.77	1097.83
573.12	1100.36
573.47	1097.15
573.82	1096.31
574.18	1095.82
574.53	1093.40
574.88	1090.39
575.23	1093.83
575.58	1089.40
575.93	1093.36
576.28	1093.50
576.64	1099.23
576.99	1098.69
577.34	1105.53
577.69	1098.86
578.04	1099.14
578.39	1093.17
578.74	1089.85
579.09	1089.99
579.44	1094.50
579.80	1092.82
580.15	1094.88
580.50	1095.09
580.85	1090.08
581.20	1090.53
581.55	1091.88
581.90	1092.54
582.25	1092.73
582.60	1092.30
582.95	1091.42
583.30	1094.34
583.65	1090.29
584.00	1093.03
584.35	1095.46
584.71	1094.20
585.06	1092.19
585.41	1092.40
585.76	1090.20
586.11	1088.44
586.46	1085.26
586.81	1086.73
587.16	1087.41
587.51	1088.82
587.86	1088.44
588.21	1091.06
588.56	1089.50
588.91	1094.08
589.26	1090.55
589.61	1093.03
589.96	1090.48
590.31	1089.94
590.66	1083.93
591.01	1084.42
591.36	1082.10
591.71	1085.91
592.06	1088.14
592.41	1092.23
592.76	1095.67
593.10	1094.97
593.45	1095.04
593.80	1092.28
594.15	1090.10
594.50	1088.23
594.85	1090.39
595.20	1088.49
595.55	1090.76
595.90	1088.16
596.25	1087.83
596.60	1085.61
596.95	1084.42
597.30	1079.46
597.64	1090.17
597.99	1089.80
598.34	1087.32
598.69	1087.95
599.04	1089.40
599.39	1080.74
599.74	1082.22
600.09	1088.49
600.44	1088.68
600.78	1091.49
601.13	1092.40
601.48	1094.15
601.83	1090.36
602.18	1092.16
602.53	1094.04
602.88	1092.89
603.22	1089.94
603.57	1091.20
603.92	1091.46
604.27	1088.35
604.62	1087.86
604.97	1088.37
605.31	1086.17
605.66	1086.08
606.01	1084.60
606.36	1084.60
606.71	1084.30
607.05	1089.22
607.40	1088.09
607.75	1088.54
608.10	1088.63
608.44	1088.84
608.79	1083.34
609.14	1083.50
609.49	1083.88
609.84	1081.26
610.18	1080.88
610.53	1085.80
610.88	1083.13
611.23	1080.53
611.57	1086.34
611.92	1085.17
612.27	1085.70
612.62	1085.10
612.96	1088.56
613.31	1087.62
613.66	1089.36
614.00	1085.26
614.35	1088.35
614.70	1086.85
615.05	1085.68
615.39	1082.76
615.74	1084.81
616.09	1083.41
616.43	1083.55
616.78	1082.87
617.13	1086.45
617.47	1086.83
617.82	1087.02
618.17	1087.51
618.51	1085.99
618.86	1084.18
619.21	1082.33
619.55	1083.08
619.90	1082.64
620.25	1083.18
620.59	1082.45
620.94	1082.19
621.29	1082.76
621.63	1082.15
621.98	1083.18
622.32	1083.88
622.67	1084.32
623.02	1082.29
623.36	1081.56
623.71	1081.30
624.05	1082.03
624.40	1083.08
624.75	1085.03
625.09	1087.86
625.44	1089.66
625.78	1090.41
626.13	1089.50
626.48	1090.06
626.82	1089.94
627.17	1086.48
627.51	1085.00
627.86	1084.18
628.20	1081.16
628.55	1081.80
628.89	1080.04
629.24	1082.47
629.58	1081.73
629.93	1085.61
630.28	1086.55
630.62	1091.98
630.97	1090.24
631.31	1088.58
631.66	1084.74
632.00	1080.72
632.35	1079.85
632.69	1077.82
633.04	1080.48
633.38	1081.87
633.73	1080.95
634.07	1081.19
634.42	1081.84
634.76	1081.21
635.11	1080.23
635.45	1083.36
635.79	1084.39
636.14	1086.85
636.48	1087.90
636.83	1088.49
637.17	1088.65
637.52	1084.84
637.86	1083.13
638.21	1082.33
638.55	1080.34
638.89	1079.85
639.24	1080.95
639.58	1080.51
639.93	1083.08
640.27	1085.21
640.61	1087.44
640.96	1088.07
641.30	1090.88
641.65	1088.72
641.99	1088.47
642.33	1087.65
642.68	1085.42
643.02	1085.56
643.37	1085.03
643.71	1085.21
644.05	1082.71
644.40	1084.18
644.74	1083.53
645.08	1086.41
645.43	1088.00
645.77	1087.11
646.11	1088.23
646.46	1086.34
646.80	1084.21
647.14	1083.95
647.49	1081.19
647.83	1079.57
648.17	1080.23
648.52	1077.72
648.86	1076.65
649.20	1079.01
649.55	1078.99
649.89	1077.37
650.23	1080.39
650.57	1080.91
650.92	1082.26
651.26	1083.11
651.60	1083.86
651.95	1084.89
652.29	1084.72
652.63	1086.71
652.97	1086.92
653.32	1088.49
653.66	1088.16
654.00	1089.61
654.34	1086.06
654.69	1085.80
655.03	1085.47
655.37	1083.79
655.71	1079.06
656.05	1081.94
656.40	1082.50
656.74	1081.40
657.08	1081.02
657.42	1084.63
657.76	1082.43
658.11	1080.67
658.45	1081.56
658.79	1083.60
659.13	1085.94
659.47	1086.15
659.82	1087.62
660.16	1086.48
660.50	1083.60
660.84	1080.60
661.18	1078.64
661.52	1076.93
661.87	1078.66
662.21	1079.83
662.55	1080.16
662.89	1083.48
663.23	1084.14
663.57	1084.86
663.91	1083.34
664.25	1083.43
664.60	1083.95
664.94	1084.49
665.28	1082.66
665.62	1083.86
665.96	1083.67
666.30	1081.54
666.64	1081.42
666.98	1079.10
667.32	1079.24
667.66	1078.47
668.01	1078.43
668.35	1079.69
668.69	1081.33
669.03	1082.17
669.37	1079.50
669.71	1082.69
670.05	1082.54
670.39	1082.52
670.73	1081.84
671.07	1084.49
671.41	1082.92
671.75	1080.79
672.09	1081.14
672.43	1082.61
672.77	1081.21
673.11	1081.47
673.45	1083.41
673.79	1084.56
674.13	1083.06
674.47	1085.52
674.81	1082.47
675.15	1078.57
675.49	1077.86
675.83	1077.07
676.17	1074.40
676.51	1076.01
676.85	1077.96
677.19	1078.64
677.53	1081.09
677.87	1082.99
678.21	1083.46
678.55	1083.18
678.89	1082.01
679.23	1079.34
679.57	1080.20
679.90	1079.24
680.24	1078.54
680.58	1077.28
680.92	1080.88
681.26	1081.30
681.60	1080.27
681.94	1082.47
682.28	1085.33
682.62	1084.39
682.96	1082.64
683.29	1086.31
683.63	1087.27
683.97	1085.26
684.31	1084.84
684.65	1086.97
684.99	1086.38
685.33	1085.96
685.67	1088.19
686.00	1087.72
686.34	1086.34
686.68	1084.44
687.02	1084.21
687.36	1083.29
687.70	1085.75
688.03	1083.55
688.37	1083.01
688.71	1081.26
689.05	1079.34
689.39	1077.30
689.72	1079.38
690.06	1079.20
690.40	1080.25
690.74	1082.24
691.08	1081.16
691.41	1079.99
691.75	1079.81
692.09	1080.58
692.43	1082.12
692.76	1081.91
693.10	1080.25
693.44	1082.71
693.78	1081.28
694.11	1076.83
694.45	1080.02
694.79	1081.80
695.13	1082.05
695.46	1079.62
695.80	1081.35
696.14	1080.06
696.48	1081.12
696.81	1078.82
697.15	1081.37
697.49	1079.76
697.82	1078.05
698.16	1079.57
698.50	1079.60
698.83	1078.40
699.17	1080.63
699.51	1079.92
699.84	1077.61
700.18	1080.53
700.52	1081.77
700.85	1081.00
701.19	1080.88
701.53	1083.29
701.86	1082.59
702.20	1082.15
702.54	1078.73
702.87	1079.81
703.21	1077.63
703.55	1074.26
703.88	1072.95
704.22	1074.33
704.55	1073.56
704.89	1073.32
705.23	1074.73
705.56	1076.11
705.90	1077.65
706.23	1078.78
706.57	1079.08
706.91	1078.71
707.24	1078.17
707.58	1080.46
707.91	1078.38
708.25	1078.52
708.58	1078.89
708.92	1081.58
709.26	1080.72
709.59	1083.83
709.93	1084.67
710.26	1082.61
710.60	1080.60
710.93	1081.09
711.27	1080.48
711.60	1081.42
711.94	1083.20
712.27	1084.07
712.61	1081.63
712.94	1080.37
713.28	1079.69
713.61	1081.16
713.95	1081.09
714.28	1084.72
714.62	1085.59
714.95	1084.79
715.29	1084.96
715.62	1084.96
715.96	1081.70
716.29	1082.08
716.63	1083.64
716.96	1082.36
717.29	1081.68
717.63	1083.79
717.96	1079.83
718.30	1077.98
718.63	1078.05
718.97	1075.31
719.30	1074.61
719.63	1077.21
719.97	1078.17
720.30	1077.40
720.64	1080.58
720.97	1079.22
721.30	1080.18
721.64	1079.31
721.97	1080.48
722.31	1081.73
722.64	1081.05
722.97	1081.77
723.31	1079.50
723.64	1077.37
723.97	1077.35
724.31	1078.24
724.64	1076.83
724.98	1080.11
725.31	1083.06
725.64	1082.61
725.98	1079.90
726.31	1081.23
726.64	1080.51
726.97	1078.40
727.31	1078.75
727.64	1083.15
727.97	1083.83
728.31	1082.83
728.64	1082.92
728.97	1081.40
729.31	1077.40
729.64	1074.84
729.97	1074.84
730.30	1077.56
730.64	1079.69
730.97	1081.75
731.30	1081.82
731.63	1083.20
731.97	1078.85
732.30	1077.75
732.63	1077.86
732.96	1078.43
733.30	1076.37
733.63	1081.35
733.96	1082.97
734.29	1084.86
734.63	1083.22
734.96	1083.93
735.29	1081.30
735.62	1080.25
735.95	1076.86
736.29	1075.43
736.62	1074.52
736.95	1074.70
737.28	1071.15
737.61	1071.57
737.94	1074.52
738.28	1078.36
738.61	1079.27
738.94	1081.42
739.27	1082.36
739.60	1081.19
739.93	1076.83
740.27	1079.46
740.60	1079.03
740.93	1080.06
741.26	1081.44
741.59	1083.69
741.92	1080.18
742.25	1081.56
742.58	1077.72
742.91	1073.86
743.25	1076.58
743.58	1075.94
743.91	1073.70
744.24	1077.04
744.57	1078.99
744.90	1076.55
745.23	1077.82
745.56	1081.58
745.89	1082.90
746.22	1084.60
746.55	1082.94
746.88	1083.81
747.21	1083.53
747.54	1081.82
747.87	1081.44
748.20	1081.05
748.53	1081.66
748.87	1080.74
749.20	1080.77
749.53	1083.74
749.86	1087.39
750.19	1083.79
750.52	1082.29
750.85	1081.21
751.18	1079.76
751.51	1076.58
751.84	1077.44
752.16	1078.52
752.49	1080.86
752.82	1079.97
753.15	1080.63
753.48	1083.25
753.81	1081.94
754.14	1078.12
754.47	1079.48
754.80	1079.24
755.13	1076.48
755.46	1080.25
755.79	1081.68
756.12	1079.08
756.45	1078.21
756.78	1075.15
757.11	1070.26
757.43	1072.57
757.76	1073.88
758.09	1076.32
758.42	1080.95
758.75	1084.77
759.08	1082.76
759.41	1084.51
759.74	1080.98
760.07	1079.20
760.39	1076.65
760.72	1076.04
761.05	1073.88
761.38	1075.57
761.71	1075.94
762.04	1075.15
762.36	1077.14
762.69	1077.00
763.02	1078.19
763.35	1079.88
763.68	1081.58
764.01	1079.90
