SpectraSuite Data File
++++++++++++++++++++++++++++++++++++
Date: Mon Aug 26 10:22:19 PDT 2019
User: corrico
Dark Spectrum Present: No
Reference Spectrum Present: No
Number of Sampled Component Spectra: 1
Spectrometers: USB2+H06089
Integration Time (usec): 2000 (USB2+H06089)
Spectra Averaged: 20 (USB2+H06089)
Boxcar Smoothing: 2 (USB2+H06089)
Correct for Electrical Dark: No (USB2+H06089)
Strobe/Lamp Enabled: No (USB2+H06089)
Correct for Detector Non-linearity: No (USB2+H06089)
Correct for Stray Light: No (USB2+H06089)
Number of Pixels in Processed Spectrum: 2048
>>>>>Begin Processed Spectral Data<<<<<
339.70	1031.36
340.07	1031.36
340.45	996.27
340.82	974.65
341.19	949.44
341.57	923.46
341.94	916.06
342.31	906.26
342.69	899.30
343.06	898.86
343.43	899.47
343.81	897.85
344.18	901.25
344.55	901.83
344.93	907.59
345.30	912.83
345.67	920.60
346.04	928.56
346.42	942.58
346.79	948.88
347.16	957.35
347.54	968.77
347.91	975.96
348.28	983.56
348.65	993.39
349.03	1004.65
349.40	1009.57
349.77	1019.30
350.14	1028.95
350.52	1032.95
350.89	1036.83
351.26	1042.52
351.63	1049.54
352.01	1053.08
352.38	1061.01
352.75	1065.29
353.12	1069.70
353.50	1071.15
353.87	1075.24
354.24	1077.68
354.61	1080.88
354.98	1084.09
355.36	1087.44
355.73	1086.43
356.10	1084.58
356.47	1085.63
356.84	1083.60
357.22	1081.91
357.59	1084.58
357.96	1088.58
358.33	1085.82
358.70	1089.73
359.08	1088.58
359.45	1086.55
359.82	1083.48
360.19	1081.61
360.56	1080.67
360.94	1079.99
361.31	1078.73
361.68	1080.04
362.05	1080.67
362.42	1080.46
362.79	1080.77
363.16	1081.02
363.54	1082.54
363.91	1082.36
364.28	1079.69
364.65	1077.07
365.02	1076.41
365.39	1074.19
365.76	1075.52
366.14	1075.80
366.51	1077.72
366.88	1077.89
367.25	1077.42
367.62	1077.07
367.99	1076.11
368.36	1077.02
368.73	1075.92
369.10	1073.60
369.48	1073.74
369.85	1072.67
370.22	1072.71
370.59	1074.94
370.96	1078.05
371.33	1077.25
371.70	1080.79
372.07	1079.76
372.44	1077.49
372.81	1076.97
373.18	1079.60
373.55	1077.51
373.93	1076.13
374.30	1077.11
374.67	1077.14
375.04	1075.99
375.41	1075.15
375.78	1077.30
376.15	1076.18
376.52	1072.71
376.89	1073.39
377.26	1074.49
377.63	1074.89
378.00	1076.60
378.37	1076.95
378.74	1077.02
379.11	1077.96
379.48	1077.98
379.85	1078.45
380.22	1082.36
380.59	1081.33
380.96	1080.32
381.33	1077.09
381.70	1075.85
382.07	1075.87
382.44	1076.76
382.81	1079.74
383.18	1083.64
383.55	1087.53
383.92	1086.20
384.29	1083.90
384.66	1084.86
385.03	1083.25
385.40	1081.42
385.77	1078.52
386.14	1080.51
386.51	1078.73
386.88	1077.82
387.25	1076.72
387.62	1079.20
387.99	1080.91
388.36	1078.73
388.73	1080.04
389.10	1079.10
389.46	1080.67
389.83	1077.14
390.20	1080.23
390.57	1083.20
390.94	1087.11
391.31	1088.16
391.68	1091.91
392.05	1089.80
392.42	1089.87
392.79	1089.17
393.16	1088.98
393.53	1090.06
393.89	1089.73
394.26	1087.62
394.63	1085.19
395.00	1084.77
395.37	1081.16
395.74	1082.40
396.11	1084.25
396.48	1084.93
396.84	1086.06
397.21	1087.44
397.58	1088.47
397.95	1087.23
398.32	1087.06
398.69	1084.39
399.06	1085.38
399.42	1085.21
399.79	1086.22
400.16	1088.51
400.53	1091.13
400.90	1090.74
401.27	1093.26
401.64	1091.34
402.00	1088.61
402.37	1091.74
402.74	1091.18
403.11	1088.04
403.48	1088.21
403.84	1089.03
404.21	1086.27
404.58	1084.44
404.95	1082.71
405.32	1085.80
405.68	1085.47
406.05	1084.96
406.42	1088.98
406.79	1091.65
407.16	1091.34
407.52	1092.09
407.89	1091.46
408.26	1091.11
408.63	1094.11
408.99	1094.60
409.36	1097.71
409.73	1097.90
410.10	1098.55
410.47	1098.04
410.83	1099.79
411.20	1096.35
411.57	1096.07
411.94	1094.43
412.30	1093.85
412.67	1093.71
413.04	1095.93
413.40	1098.11
413.77	1100.33
414.14	1100.33
414.51	1097.41
414.87	1097.43
415.24	1095.23
415.61	1094.32
415.97	1093.15
416.34	1095.39
416.71	1096.92
417.08	1101.67
417.44	1106.11
417.81	1108.31
418.18	1111.17
418.54	1114.12
418.91	1112.55
419.28	1114.17
419.64	1117.18
420.01	1118.03
420.38	1117.47
420.74	1119.48
421.11	1118.89
421.48	1120.16
421.84	1121.75
422.21	1126.22
422.58	1128.44
422.94	1130.83
423.31	1134.13
423.68	1135.70
424.04	1135.93
424.41	1136.89
424.77	1141.34
425.14	1143.68
425.51	1147.63
425.87	1153.72
426.24	1160.46
426.61	1162.71
426.97	1170.06
427.34	1173.64
427.70	1178.27
428.07	1183.35
428.44	1193.37
428.80	1194.66
429.17	1203.13
429.53	1208.75
429.90	1218.79
430.27	1225.69
430.63	1236.67
431.00	1250.81
431.36	1264.57
431.73	1279.43
432.09	1292.72
432.46	1308.99
432.83	1322.15
433.19	1340.10
433.56	1353.84
433.92	1372.33
434.29	1393.84
434.65	1416.12
435.02	1441.04
435.38	1469.04
435.75	1494.81
436.11	1524.72
436.48	1557.51
436.84	1591.31
437.21	1628.52
437.57	1667.80
437.94	1709.13
438.30	1748.33
438.67	1791.70
439.03	1837.72
439.40	1891.34
439.76	1944.40
440.13	2010.38
440.49	2077.23
440.86	2142.90
441.22	2215.79
441.59	2288.04
441.95	2370.42
442.32	2454.36
442.68	2557.41
443.05	2654.42
443.41	2758.63
443.78	2855.87
444.14	2960.82
444.51	3064.81
444.87	3202.16
445.24	3341.47
445.60	3495.89
445.96	3655.54
446.33	3824.01
446.69	3983.24
447.06	4159.11
447.42	4335.07
447.79	4526.95
448.15	4749.13
448.51	4977.10
448.88	5244.06
449.24	5493.99
449.61	5766.26
449.97	6041.04
450.33	6328.69
450.70	6587.02
451.06	6904.56
451.43	7209.25
451.79	7575.26
452.15	7971.70
452.52	8424.20
452.88	8894.36
453.24	9432.43
453.61	10000.06
453.97	10571.31
454.34	11111.41
454.70	11754.80
455.06	12395.01
455.43	13021.76
455.79	13615.88
456.15	14331.83
456.52	14990.48
456.88	15756.39
457.24	16480.67
457.61	17330.99
457.97	18112.33
458.33	18907.25
458.70	19679.18
459.06	20452.49
459.42	21291.03
459.79	22069.57
460.15	22973.41
460.51	23831.33
460.88	24757.11
461.24	25532.41
461.60	26505.68
461.96	27375.23
462.33	28225.32
462.69	29028.59
463.05	29936.97
463.42	30677.61
463.78	31348.90
464.14	31898.86
464.50	32496.23
464.87	32949.62
465.23	33265.92
465.59	33618.54
465.95	33969.46
466.32	34244.03
466.68	34484.56
467.04	34650.88
467.40	34797.19
467.77	34938.21
468.13	34907.87
468.49	34822.33
468.85	34760.51
469.22	34582.05
469.58	34239.23
469.94	34011.87
470.30	33690.72
470.66	33267.63
471.03	32687.17
471.39	32298.97
471.75	31665.29
472.11	31085.92
472.47	30751.99
472.84	30458.26
473.20	29993.33
473.56	29724.85
473.92	29305.59
474.28	28767.76
474.65	28256.77
475.01	27773.57
475.37	27212.80
475.73	26770.46
476.09	26274.62
476.45	25779.03
476.81	25274.27
477.18	24743.02
477.54	24280.44
477.90	23899.28
478.26	23463.71
478.62	23094.25
478.98	22785.19
479.34	22431.98
479.71	21995.82
480.07	21634.77
480.43	21268.17
480.79	20870.84
481.15	20513.51
481.51	20213.03
481.87	19957.89
482.23	19656.59
482.59	19402.22
482.96	19144.39
483.32	18847.02
483.68	18476.26
484.04	18157.57
484.40	17785.80
484.76	17407.29
485.12	17049.75
485.48	16726.45
485.84	16362.90
486.20	16011.77
486.56	15637.61
486.92	15313.19
487.28	14965.85
487.64	14615.73
488.00	14292.32
488.37	13967.73
488.73	13608.90
489.09	13239.33
489.45	12913.25
489.81	12594.63
490.17	12292.52
490.53	12001.24
490.89	11694.23
491.25	11389.05
491.61	11067.15
491.97	10745.84
492.33	10416.11
492.69	10128.81
493.05	9826.04
493.41	9539.67
493.77	9264.14
494.13	9017.71
494.49	8766.31
494.85	8530.43
495.21	8305.67
495.57	8083.23
495.93	7858.07
496.29	7646.55
496.64	7457.95
497.00	7258.19
497.36	7064.53
497.72	6873.26
498.08	6686.61
498.44	6497.56
498.80	6320.71
499.16	6159.75
499.52	6004.08
499.88	5874.79
500.24	5748.94
500.60	5628.64
500.96	5509.27
501.32	5388.76
501.68	5263.21
502.03	5140.64
502.39	5017.99
502.75	4878.94
503.11	4748.17
503.47	4622.25
503.83	4496.52
504.19	4371.56
504.55	4263.85
504.91	4173.29
505.26	4086.62
505.62	4003.53
505.98	3914.43
506.34	3822.52
506.70	3732.34
507.06	3636.02
507.42	3545.35
507.78	3465.14
508.13	3390.29
508.49	3310.97
508.85	3244.47
509.21	3171.80
509.57	3107.48
509.93	3044.62
510.28	2973.65
510.64	2905.56
511.00	2842.98
511.36	2781.40
511.72	2718.51
512.07	2673.06
512.43	2624.35
512.79	2577.28
513.15	2529.11
513.51	2489.84
513.86	2443.64
514.22	2401.93
514.58	2360.97
514.94	2324.13
515.30	2283.87
515.65	2246.75
516.01	2215.13
516.37	2183.13
516.73	2151.40
517.08	2120.46
517.44	2090.64
517.80	2059.37
518.16	2033.90
518.51	2003.76
518.87	1978.50
519.23	1954.11
519.59	1924.32
519.94	1898.36
520.30	1873.39
520.66	1847.71
521.01	1820.28
521.37	1798.75
521.73	1772.70
522.09	1754.16
522.44	1735.27
522.80	1714.54
523.16	1695.72
523.51	1675.99
523.87	1657.40
524.23	1640.46
524.58	1625.46
524.94	1604.32
525.30	1589.55
525.65	1574.01
526.01	1556.67
526.37	1539.28
526.72	1531.06
527.08	1516.15
527.44	1499.02
527.79	1489.49
528.15	1480.81
528.51	1466.93
528.86	1453.96
529.22	1441.51
529.58	1425.39
529.93	1410.92
530.29	1399.24
530.65	1391.99
531.00	1386.07
531.36	1375.13
531.71	1364.95
532.07	1359.24
532.43	1349.58
532.78	1339.44
533.14	1331.58
533.49	1326.97
533.85	1313.63
534.21	1309.88
534.56	1306.84
534.92	1304.73
535.27	1298.83
535.63	1295.23
535.98	1288.49
536.34	1283.97
536.69	1275.83
537.05	1269.62
537.41	1266.25
537.76	1257.03
538.12	1249.42
538.47	1243.78
538.83	1239.83
539.18	1238.19
539.54	1235.71
539.89	1229.09
540.25	1226.14
540.60	1222.72
540.96	1216.38
541.31	1211.95
541.67	1211.41
542.02	1207.22
542.38	1206.36
542.73	1201.40
543.09	1198.73
543.44	1193.32
543.80	1193.86
544.15	1188.20
544.51	1187.68
544.86	1185.69
545.22	1185.36
545.57	1182.20
545.93	1178.09
546.28	1173.90
546.64	1169.80
546.99	1166.78
547.35	1162.94
547.70	1161.56
548.05	1158.80
548.41	1158.80
548.76	1159.83
549.12	1159.90
549.47	1159.06
549.83	1156.13
550.18	1153.23
550.53	1150.02
550.89	1144.22
551.24	1141.50
551.60	1141.85
551.95	1142.23
552.30	1138.88
552.66	1138.62
553.01	1136.00
553.37	1134.50
553.72	1134.32
554.07	1134.08
554.43	1133.97
554.78	1134.34
555.13	1134.50
555.49	1129.61
555.84	1126.83
556.19	1123.27
556.55	1123.95
556.90	1120.51
557.26	1124.11
557.61	1123.04
557.96	1123.83
558.32	1118.28
558.67	1121.23
559.02	1118.35
559.37	1119.78
559.73	1120.46
560.08	1124.39
560.43	1121.19
560.79	1117.91
561.14	1114.89
561.49	1111.45
561.85	1112.20
562.20	1113.81
562.55	1112.39
562.90	1115.10
563.26	1115.52
563.61	1114.26
563.96	1111.17
564.32	1113.28
564.67	1110.12
565.02	1108.38
565.37	1102.58
565.73	1100.59
566.08	1103.66
566.43	1103.49
566.78	1106.16
567.14	1110.21
567.49	1110.49
567.84	1105.79
568.19	1107.75
568.54	1106.86
568.90	1105.01
569.25	1107.07
569.60	1107.33
569.95	1105.29
570.31	1104.92
570.66	1101.76
571.01	1103.02
571.36	1099.26
571.71	1096.82
572.06	1096.75
572.42	1101.67
572.77	1100.12
573.12	1102.95
573.47	1101.32
573.82	1098.44
574.18	1095.86
574.53	1094.08
574.88	1094.15
575.23	1096.63
575.58	1097.15
575.93	1095.96
576.28	1097.31
576.64	1096.82
576.99	1095.35
577.34	1093.38
577.69	1093.17
578.04	1089.33
578.39	1090.76
578.74	1090.08
579.09	1093.83
579.44	1093.43
579.80	1094.08
580.15	1090.85
580.50	1095.53
580.85	1094.18
581.20	1092.26
581.55	1095.86
581.90	1095.63
582.25	1092.70
582.60	1092.26
582.95	1092.66
583.30	1087.39
583.65	1085.82
584.00	1083.79
584.35	1085.42
584.71	1087.13
585.06	1088.42
585.41	1091.67
585.76	1090.41
586.11	1087.72
586.46	1087.81
586.81	1088.93
587.16	1087.20
587.51	1090.53
587.86	1091.88
588.21	1091.06
588.56	1089.66
588.91	1092.96
589.26	1091.58
589.61	1088.96
589.96	1089.31
590.31	1089.43
590.66	1088.79
591.01	1087.83
591.36	1090.24
591.71	1092.12
592.06	1095.91
592.41	1092.70
592.76	1092.61
593.10	1091.95
593.45	1094.27
593.80	1091.32
594.15	1094.41
594.50	1094.97
594.85	1095.77
595.20	1094.62
595.55	1094.53
595.90	1092.16
596.25	1090.74
596.60	1089.31
596.95	1086.45
597.30	1084.49
597.64	1096.05
597.99	1099.89
598.34	1100.10
598.69	1101.20
599.04	1101.25
599.39	1087.04
599.74	1083.64
600.09	1082.99
600.44	1083.53
600.78	1086.24
601.13	1087.30
601.48	1085.54
601.83	1085.70
602.18	1084.39
602.53	1084.63
602.88	1086.10
603.22	1087.60
603.57	1088.58
603.92	1090.76
604.27	1089.59
604.62	1087.20
604.97	1087.55
605.31	1087.11
605.66	1082.40
606.01	1080.06
606.36	1084.63
606.71	1085.35
607.05	1084.18
607.40	1086.69
607.75	1086.41
608.10	1085.87
608.44	1085.10
608.79	1085.31
609.14	1085.00
609.49	1087.62
609.84	1085.07
610.18	1087.02
610.53	1085.84
610.88	1086.41
611.23	1085.38
611.57	1088.89
611.92	1087.69
612.27	1091.46
612.62	1091.25
612.96	1092.16
613.31	1088.63
613.66	1088.33
614.00	1087.48
614.35	1086.15
614.70	1082.59
615.05	1084.77
615.39	1085.40
615.74	1085.28
616.09	1085.00
616.43	1086.90
616.78	1084.23
617.13	1080.63
617.47	1078.57
617.82	1077.23
618.17	1077.77
618.51	1077.84
618.86	1080.91
619.21	1081.87
619.55	1082.01
619.90	1083.41
620.25	1085.68
620.59	1083.50
620.94	1084.02
621.29	1086.48
621.63	1086.57
621.98	1089.26
622.32	1091.27
622.67	1090.62
623.02	1090.97
623.36	1092.73
623.71	1088.79
624.05	1088.42
624.40	1087.53
624.75	1086.41
625.09	1083.57
625.44	1085.47
625.78	1085.45
626.13	1085.59
626.48	1083.62
626.82	1085.52
627.17	1082.66
627.51	1083.53
627.86	1084.93
628.20	1088.51
628.55	1088.09
628.89	1089.54
629.24	1087.69
629.58	1086.85
629.93	1085.59
630.28	1080.53
630.62	1080.39
630.97	1081.82
631.31	1083.67
631.66	1081.09
632.00	1085.14
632.35	1084.25
632.69	1083.57
633.04	1080.06
633.38	1081.00
633.73	1080.88
634.07	1081.09
634.42	1081.96
634.76	1080.93
635.11	1082.19
635.45	1080.84
635.79	1080.32
636.14	1079.50
636.48	1081.61
636.83	1079.90
637.17	1081.21
637.52	1080.63
637.86	1081.21
638.21	1081.49
638.55	1080.56
638.89	1080.09
639.24	1082.71
639.58	1081.40
639.93	1083.11
640.27	1086.73
640.61	1086.45
640.96	1085.40
641.30	1083.60
641.65	1079.48
641.99	1077.42
642.33	1077.14
642.68	1075.83
643.02	1077.82
643.37	1081.14
643.71	1081.30
644.05	1083.79
644.40	1085.84
644.74	1085.59
645.08	1086.83
645.43	1087.69
645.77	1085.26
646.11	1084.04
646.46	1088.68
646.80	1086.87
647.14	1085.33
647.49	1084.77
647.83	1087.62
648.17	1084.18
648.52	1083.88
648.86	1084.49
649.20	1083.71
649.55	1082.99
649.89	1082.10
650.23	1084.32
650.57	1087.02
650.92	1089.80
651.26	1086.43
651.60	1086.03
651.95	1081.14
652.29	1079.92
652.63	1077.96
652.97	1080.63
653.32	1080.70
653.66	1082.26
654.00	1080.44
654.34	1080.65
654.69	1078.75
655.03	1078.96
655.37	1080.09
655.71	1079.60
656.05	1081.21
656.40	1081.00
656.74	1080.41
657.08	1081.73
657.42	1082.33
657.76	1082.29
658.11	1081.42
658.45	1082.03
658.79	1079.24
659.13	1078.03
659.47	1075.71
659.82	1075.80
660.16	1075.36
660.50	1075.57
660.84	1074.12
661.18	1076.39
661.52	1079.29
661.87	1080.56
662.21	1080.79
662.55	1083.97
662.89	1083.79
663.23	1083.55
663.57	1082.31
663.91	1083.13
664.25	1083.93
664.60	1084.16
664.94	1084.70
665.28	1085.66
665.62	1087.76
665.96	1085.96
666.30	1085.87
666.64	1081.30
666.98	1080.56
667.32	1081.58
667.66	1082.99
668.01	1079.55
668.35	1084.16
668.69	1084.04
669.03	1079.36
669.37	1080.27
669.71	1085.33
670.05	1083.27
670.39	1086.45
670.73	1088.56
671.07	1088.02
671.41	1084.79
671.75	1084.91
672.09	1082.85
672.43	1080.51
672.77	1081.47
673.11	1080.25
673.45	1079.03
673.79	1079.46
674.13	1078.94
674.47	1077.33
674.81	1075.80
675.15	1076.13
675.49	1073.23
675.83	1076.01
676.17	1077.33
676.51	1081.21
676.85	1083.01
677.19	1087.04
677.53	1086.97
677.87	1087.11
678.21	1087.30
678.55	1085.21
678.89	1082.57
679.23	1082.94
679.57	1080.39
679.90	1079.67
680.24	1079.03
680.58	1081.63
680.92	1080.93
681.26	1081.49
681.60	1080.46
681.94	1082.29
682.28	1081.37
682.62	1081.70
682.96	1082.80
683.29	1081.30
683.63	1082.19
683.97	1082.29
684.31	1079.97
684.65	1079.20
684.99	1083.83
685.33	1083.41
685.67	1079.83
686.00	1081.07
686.34	1079.13
686.68	1076.44
687.02	1076.39
687.36	1080.06
687.70	1081.82
688.03	1082.33
688.37	1084.79
688.71	1086.34
689.05	1084.21
689.39	1083.18
689.72	1084.11
690.06	1083.25
690.40	1076.79
690.74	1076.18
691.08	1073.09
691.41	1073.88
691.75	1074.10
692.09	1080.70
692.43	1081.49
692.76	1084.23
693.10	1083.01
693.44	1085.47
693.78	1082.80
694.11	1079.62
694.45	1080.13
694.79	1078.89
695.13	1073.65
695.46	1072.34
695.80	1077.56
696.14	1076.65
696.48	1079.08
696.81	1081.89
697.15	1082.87
697.49	1079.60
697.82	1079.31
698.16	1080.84
698.50	1081.37
698.83	1084.89
699.17	1087.95
699.51	1086.45
699.84	1084.28
700.18	1078.96
700.52	1074.63
700.85	1071.73
701.19	1071.71
701.53	1072.55
701.86	1073.23
702.20	1074.68
702.54	1076.60
702.87	1079.74
703.21	1078.33
703.55	1082.52
703.88	1081.63
704.22	1081.49
704.55	1079.38
704.89	1080.67
705.23	1078.82
705.56	1080.18
705.90	1080.41
706.23	1083.29
706.57	1082.24
706.91	1081.56
707.24	1083.53
707.58	1081.89
707.91	1081.05
708.25	1081.96
708.58	1083.04
708.92	1080.81
709.26	1083.53
709.59	1085.63
709.93	1084.67
710.26	1086.22
710.60	1084.07
710.93	1082.92
711.27	1079.20
711.60	1078.50
711.94	1074.00
712.27	1075.15
712.61	1076.41
712.94	1077.37
713.28	1078.99
713.61	1081.80
713.95	1084.49
714.28	1082.87
714.62	1085.56
714.95	1083.86
715.29	1083.57
715.62	1083.50
715.96	1083.29
716.29	1081.63
716.63	1082.61
716.96	1078.36
717.29	1078.00
717.63	1077.09
717.96	1075.71
718.30	1075.76
718.63	1077.49
718.97	1072.46
719.30	1074.56
719.63	1072.83
719.97	1072.81
720.30	1077.61
720.64	1083.25
720.97	1081.89
721.30	1082.17
721.64	1084.49
721.97	1081.70
722.31	1078.07
722.64	1077.28
722.97	1079.92
723.31	1075.43
723.64	1076.97
723.97	1078.00
724.31	1081.12
724.64	1081.89
724.98	1085.10
725.31	1083.15
725.64	1081.05
725.98	1081.91
726.31	1080.41
726.64	1081.35
726.97	1080.27
727.31	1084.65
727.64	1084.63
727.97	1086.78
728.31	1085.26
728.64	1090.55
728.97	1089.75
729.31	1086.13
729.64	1083.67
729.97	1084.02
730.30	1081.77
730.64	1079.06
730.97	1078.19
731.30	1077.84
731.63	1078.71
731.97	1078.00
732.30	1080.72
732.63	1082.94
732.96	1082.50
733.30	1083.53
733.63	1083.81
733.96	1084.37
734.29	1083.39
734.63	1082.97
734.96	1081.49
735.29	1079.62
735.62	1079.22
735.95	1080.53
736.29	1081.61
736.62	1079.38
736.95	1079.06
737.28	1078.43
737.61	1078.12
737.94	1076.79
738.28	1075.45
738.61	1074.75
738.94	1072.60
739.27	1072.20
739.60	1073.39
739.93	1073.91
740.27	1075.50
740.60	1074.40
740.93	1071.87
741.26	1072.36
741.59	1073.02
741.92	1073.58
742.25	1077.09
742.58	1079.71
742.91	1079.27
743.25	1078.57
743.58	1078.40
743.91	1076.83
744.24	1076.53
744.57	1076.76
744.90	1076.83
745.23	1077.47
745.56	1079.03
745.89	1079.60
746.22	1080.72
746.55	1079.34
746.88	1080.46
747.21	1080.60
747.54	1079.31
747.87	1078.92
748.20	1081.89
748.53	1082.85
748.87	1081.02
749.20	1080.79
749.53	1077.65
749.86	1072.78
750.19	1071.92
750.52	1073.39
750.85	1077.44
751.18	1079.27
751.51	1082.47
751.84	1082.38
752.16	1081.30
752.49	1079.08
752.82	1079.10
753.15	1080.58
753.48	1078.38
753.81	1078.66
754.14	1079.38
754.47	1078.10
754.80	1078.87
755.13	1078.87
755.46	1080.84
755.79	1079.08
756.12	1082.57
756.45	1082.50
756.78	1082.33
757.11	1079.22
757.43	1080.48
757.76	1079.55
758.09	1083.20
758.42	1082.05
758.75	1083.86
759.08	1084.11
759.41	1084.07
759.74	1077.51
760.07	1078.14
760.39	1078.00
760.72	1075.41
761.05	1076.39
761.38	1080.23
761.71	1083.60
762.04	1085.00
762.36	1087.16
762.69	1086.94
763.02	1084.46
763.35	1080.16
763.68	1079.57
764.01	1077.35
