SpectraSuite Data File
++++++++++++++++++++++++++++++++++++
Date: Mon Aug 26 10:22:14 PDT 2019
User: corrico
Dark Spectrum Present: No
Reference Spectrum Present: No
Number of Sampled Component Spectra: 1
Spectrometers: USB2+H06089
Integration Time (usec): 2000 (USB2+H06089)
Spectra Averaged: 20 (USB2+H06089)
Boxcar Smoothing: 2 (USB2+H06089)
Correct for Electrical Dark: No (USB2+H06089)
Strobe/Lamp Enabled: No (USB2+H06089)
Correct for Detector Non-linearity: No (USB2+H06089)
Correct for Stray Light: No (USB2+H06089)
Number of Pixels in Processed Spectrum: 2048
>>>>>Begin Processed Spectral Data<<<<<
339.70	1030.65
340.07	1030.65
340.45	996.51
340.82	973.26
341.19	948.15
341.57	924.54
341.94	910.00
342.31	903.61
342.69	899.70
343.06	898.46
343.43	895.37
343.81	899.47
344.18	903.84
344.55	908.46
344.93	912.29
345.30	921.77
345.67	927.30
346.04	932.47
346.42	939.91
346.79	948.85
347.16	952.74
347.54	963.81
347.91	972.38
348.28	980.90
348.65	990.23
349.03	1001.82
349.40	1009.85
349.77	1018.02
350.14	1026.70
350.52	1034.26
350.89	1041.09
351.26	1045.94
351.63	1051.81
352.01	1058.09
352.38	1062.95
352.75	1067.17
353.12	1071.71
353.50	1072.83
353.87	1074.66
354.24	1075.62
354.61	1075.62
354.98	1078.89
355.36	1081.89
355.73	1083.81
356.10	1089.40
356.47	1090.90
356.84	1088.86
357.22	1089.03
357.59	1087.20
357.96	1081.54
358.33	1079.46
358.70	1082.64
359.08	1081.84
359.45	1080.34
359.82	1083.79
360.19	1086.38
360.56	1082.73
360.94	1083.04
361.31	1084.09
361.68	1078.71
362.05	1079.62
362.42	1081.16
362.79	1079.20
363.16	1075.45
363.54	1077.18
363.91	1077.35
364.28	1076.48
364.65	1077.61
365.02	1080.04
365.39	1081.73
365.76	1079.24
366.14	1075.73
366.51	1075.01
366.88	1071.59
367.25	1068.67
367.62	1065.37
367.99	1068.36
368.36	1067.71
368.73	1073.86
369.10	1077.18
369.48	1081.84
369.85	1081.80
370.22	1081.49
370.59	1077.56
370.96	1075.10
371.33	1069.91
371.70	1068.15
372.07	1070.00
372.44	1074.80
372.81	1075.97
373.18	1080.51
373.55	1083.29
373.93	1082.36
374.30	1079.15
374.67	1079.53
375.04	1077.65
375.41	1074.80
375.78	1076.11
376.15	1076.72
376.52	1075.97
376.89	1077.86
377.26	1078.33
377.63	1078.43
378.00	1081.70
378.37	1083.55
378.74	1086.20
379.11	1087.30
379.48	1086.83
379.85	1083.97
380.22	1085.61
380.59	1080.56
380.96	1078.50
381.33	1078.05
381.70	1076.20
382.07	1075.03
382.44	1074.63
382.81	1076.11
383.18	1078.68
383.55	1086.85
383.92	1083.04
384.29	1085.05
384.66	1087.06
385.03	1086.27
385.40	1082.38
385.77	1086.36
386.14	1088.47
386.51	1086.48
386.88	1087.67
387.25	1085.63
387.62	1081.12
387.99	1080.13
388.36	1082.54
388.73	1079.24
389.10	1082.61
389.46	1086.34
389.83	1084.58
390.20	1084.51
390.57	1085.82
390.94	1082.36
391.31	1081.68
391.68	1086.83
392.05	1086.52
392.42	1084.81
392.79	1087.81
393.16	1090.60
393.53	1088.23
393.89	1088.84
394.26	1094.39
394.63	1093.36
395.00	1093.05
395.37	1092.35
395.74	1095.02
396.11	1092.61
396.48	1095.63
396.84	1093.12
397.21	1093.26
397.58	1093.03
397.95	1091.65
398.32	1090.41
398.69	1092.61
399.06	1091.63
399.42	1091.02
399.79	1095.84
400.16	1093.62
400.53	1095.07
400.90	1099.47
401.27	1099.37
401.64	1096.70
402.00	1097.41
402.37	1096.19
402.74	1095.70
403.11	1094.36
403.48	1093.10
403.84	1092.82
404.21	1093.45
404.58	1091.06
404.95	1093.90
405.32	1095.58
405.68	1095.96
406.05	1095.28
406.42	1096.85
406.79	1093.24
407.16	1093.92
407.52	1093.10
407.89	1092.35
408.26	1091.79
408.63	1096.63
408.99	1096.85
409.36	1098.34
409.73	1100.17
410.10	1100.38
410.47	1101.15
410.83	1103.42
411.20	1103.00
411.57	1100.10
411.94	1098.83
412.30	1097.50
412.67	1096.17
413.04	1098.65
413.40	1102.09
413.77	1106.04
414.14	1107.40
414.51	1107.68
414.87	1106.51
415.24	1106.75
415.61	1106.72
415.97	1104.64
416.34	1107.19
416.71	1106.93
417.08	1110.00
417.44	1112.29
417.81	1111.59
418.18	1113.60
418.54	1114.73
418.91	1115.24
419.28	1114.70
419.64	1117.37
420.01	1116.01
420.38	1119.92
420.74	1118.24
421.11	1121.73
421.48	1127.13
421.84	1130.43
422.21	1132.52
422.58	1135.79
422.94	1135.79
423.31	1137.66
423.68	1139.65
424.04	1143.33
424.41	1147.07
424.77	1149.86
425.14	1153.16
425.51	1157.37
425.87	1160.81
426.24	1167.08
426.61	1173.40
426.97	1178.04
427.34	1184.15
427.70	1191.45
428.07	1197.82
428.44	1208.86
428.80	1220.10
429.17	1230.65
429.53	1240.86
429.90	1253.61
430.27	1262.48
430.63	1271.50
431.00	1283.99
431.36	1300.68
431.73	1314.47
432.09	1330.15
432.46	1351.61
432.83	1371.39
433.19	1388.73
433.56	1413.50
433.92	1440.86
434.29	1462.86
434.65	1490.90
435.02	1521.49
435.38	1552.81
435.75	1582.97
436.11	1624.73
436.48	1660.61
436.84	1705.57
437.21	1746.32
437.57	1792.59
437.94	1842.10
438.30	1900.98
438.67	1955.73
439.03	2021.43
439.40	2090.80
439.76	2156.50
440.13	2226.62
440.49	2305.52
440.86	2381.35
441.22	2468.17
441.59	2562.16
441.95	2665.21
442.32	2768.13
442.68	2888.64
443.05	3008.10
443.41	3134.21
443.78	3263.06
444.14	3402.86
444.51	3537.09
444.87	3703.48
445.24	3862.16
445.60	4034.24
445.96	4210.46
446.33	4421.86
446.69	4616.85
447.06	4831.61
447.42	5059.70
447.79	5297.08
448.15	5563.69
448.51	5833.39
448.88	6152.10
449.24	6451.85
449.61	6805.55
449.97	7141.86
450.33	7517.71
450.70	7872.23
451.06	8296.64
451.43	8693.45
451.79	9158.98
452.15	9638.30
452.52	10169.30
452.88	10711.65
453.24	11332.17
453.61	12027.50
453.97	12728.35
454.34	13413.52
454.70	14215.99
455.06	15006.16
455.43	15741.60
455.79	16414.36
456.15	17209.98
456.52	17945.14
456.88	18847.42
457.24	19738.02
457.61	20849.66
457.97	21910.34
458.33	23009.88
458.70	24072.29
459.06	25072.29
459.42	26093.93
459.79	26992.67
460.15	28002.80
460.51	28962.16
460.88	30042.58
461.24	30995.85
461.60	32162.10
461.96	33221.42
462.33	34248.10
462.69	35243.48
463.05	36347.79
463.42	37307.79
463.78	38194.73
464.14	38933.99
464.50	39679.43
464.87	40209.87
465.23	40575.88
465.59	41017.86
465.95	41369.18
466.32	41605.78
466.68	41842.44
467.04	41992.39
467.40	42009.60
467.77	42082.43
468.13	42025.44
468.49	41862.70
468.85	41761.62
469.22	41600.94
469.58	41330.37
469.94	41149.75
470.30	40915.40
470.66	40533.12
471.03	40043.31
471.39	39665.43
471.75	38946.42
472.11	38253.76
472.47	37757.12
472.84	37228.05
473.20	36543.56
473.56	36175.74
473.92	35610.53
474.28	34997.56
474.65	34352.18
475.01	33678.93
475.37	32881.25
475.73	32213.07
476.09	31515.76
476.45	30886.69
476.81	30369.97
477.18	29825.68
477.54	29346.15
477.90	28900.65
478.26	28357.86
478.62	27817.03
478.98	27355.27
479.34	26914.69
479.71	26359.75
480.07	25907.18
480.43	25461.07
480.79	24984.07
481.15	24529.21
481.51	24172.84
481.87	23870.26
482.23	23532.19
482.59	23230.80
482.96	22913.94
483.32	22600.14
483.68	22188.61
484.04	21831.58
484.40	21408.46
484.76	20987.84
485.12	20538.72
485.48	20120.95
485.84	19637.35
486.20	19212.57
486.56	18782.33
486.92	18411.31
487.28	18020.65
487.64	17620.98
488.00	17249.56
488.37	16875.40
488.73	16454.81
489.09	16027.73
489.45	15650.51
489.81	15211.00
490.17	14774.28
490.53	14364.94
490.89	13954.67
491.25	13541.05
491.61	13151.47
491.97	12763.62
492.33	12369.75
492.69	12002.50
493.05	11641.85
493.41	11314.31
493.77	10992.12
494.13	10684.17
494.49	10392.87
494.85	10118.32
495.21	9855.46
495.57	9603.97
495.93	9349.71
496.29	9107.84
496.64	8887.18
497.00	8626.42
497.36	8371.72
497.72	8137.50
498.08	7914.73
498.44	7684.19
498.80	7483.32
499.16	7296.27
499.52	7107.67
499.88	6933.67
500.24	6759.70
500.60	6602.67
500.96	6437.34
501.32	6281.41
501.68	6116.05
502.03	5949.31
502.39	5786.72
502.75	5623.77
503.11	5469.27
503.47	5328.14
503.83	5202.52
504.19	5068.85
504.55	4951.78
504.91	4834.73
505.26	4717.42
505.62	4597.35
505.98	4487.79
506.34	4372.99
506.70	4252.78
507.06	4144.81
507.42	4041.68
507.78	3941.86
508.13	3852.45
508.49	3783.08
508.85	3705.75
509.21	3627.53
509.57	3551.18
509.93	3465.49
510.28	3373.34
510.64	3285.60
511.00	3207.03
511.36	3134.66
511.72	3070.81
512.07	3010.68
512.43	2951.16
512.79	2893.58
513.15	2834.55
513.51	2769.42
513.86	2712.75
514.22	2661.10
514.58	2609.77
514.94	2563.80
515.30	2525.18
515.65	2483.24
516.01	2444.50
516.37	2405.65
516.73	2366.70
517.08	2331.64
517.44	2293.33
517.80	2251.15
518.16	2214.59
518.51	2174.69
518.87	2140.02
519.23	2111.49
519.59	2083.43
519.94	2051.69
520.30	2029.13
520.66	1996.73
521.01	1962.28
521.37	1934.41
521.73	1904.40
522.09	1878.49
522.44	1855.83
522.80	1835.42
523.16	1816.82
523.51	1798.35
523.87	1777.43
524.23	1761.32
524.58	1737.22
524.94	1713.88
525.30	1696.89
525.65	1673.55
526.01	1649.52
526.37	1639.03
526.72	1621.48
527.08	1601.14
527.44	1586.49
527.79	1572.54
528.15	1553.79
528.51	1538.27
528.86	1528.21
529.22	1513.74
529.58	1498.97
529.93	1487.39
530.29	1476.81
530.65	1460.59
531.00	1450.03
531.36	1438.21
531.71	1429.53
532.07	1415.13
532.43	1401.44
532.78	1388.87
533.14	1381.10
533.49	1365.77
533.85	1359.38
534.21	1355.61
534.56	1350.16
534.92	1343.14
535.27	1335.42
535.63	1330.08
535.98	1321.98
536.34	1314.21
536.69	1309.51
537.05	1303.47
537.41	1294.06
537.76	1287.44
538.12	1281.09
538.47	1269.55
538.83	1265.79
539.18	1263.37
539.54	1261.62
539.89	1258.62
540.25	1256.47
540.60	1254.69
540.96	1248.77
541.31	1243.11
541.67	1235.97
542.02	1232.92
542.38	1226.74
542.73	1223.19
543.09	1216.07
543.44	1210.60
543.80	1207.08
544.15	1204.91
544.51	1205.24
544.86	1203.71
545.22	1203.62
545.57	1201.68
545.93	1196.83
546.28	1193.51
546.64	1192.83
546.99	1189.06
547.35	1182.74
547.70	1179.58
548.05	1175.91
548.41	1173.29
548.76	1170.64
549.12	1171.04
549.47	1172.37
549.83	1168.51
550.18	1164.67
550.53	1163.60
550.89	1159.71
551.24	1156.11
551.60	1153.98
551.95	1150.79
552.30	1147.68
552.66	1148.90
553.01	1147.19
553.37	1147.87
553.72	1149.65
554.07	1150.33
554.43	1146.44
554.78	1142.46
555.13	1138.81
555.49	1136.52
555.84	1134.76
556.19	1134.57
556.55	1133.80
556.90	1133.03
557.26	1132.63
557.61	1131.72
557.96	1128.70
558.32	1126.66
558.67	1124.84
559.02	1119.45
559.37	1117.18
559.73	1117.82
560.08	1119.78
560.43	1121.80
560.79	1126.50
561.14	1128.35
561.49	1128.77
561.85	1125.42
562.20	1121.00
562.55	1117.07
562.90	1114.02
563.26	1114.24
563.61	1115.41
563.96	1116.95
564.32	1115.71
564.67	1114.96
565.02	1112.11
565.37	1108.36
565.73	1110.00
566.08	1111.38
566.43	1110.98
566.78	1110.65
567.14	1111.59
567.49	1110.54
567.84	1107.68
568.19	1105.32
568.54	1106.93
568.90	1106.11
569.25	1103.91
569.60	1103.14
569.95	1105.76
570.31	1103.66
570.66	1105.86
571.01	1103.77
571.36	1103.28
571.71	1104.10
572.06	1104.59
572.42	1102.93
572.77	1103.09
573.12	1102.37
573.47	1099.65
573.82	1097.08
574.18	1093.10
574.53	1092.52
574.88	1095.79
575.23	1096.49
575.58	1097.22
575.93	1101.41
576.28	1102.93
576.64	1102.72
576.99	1103.28
577.34	1101.88
577.69	1100.45
578.04	1099.77
578.39	1097.08
578.74	1097.90
579.09	1098.34
579.44	1095.42
579.80	1095.42
580.15	1096.24
580.50	1093.03
580.85	1091.34
581.20	1095.67
581.55	1095.18
581.90	1096.40
582.25	1097.59
582.60	1100.26
582.95	1099.26
583.30	1100.66
583.65	1100.15
584.00	1097.10
584.35	1094.41
584.71	1092.07
585.06	1089.29
585.41	1089.96
585.76	1089.54
586.11	1090.20
586.46	1090.06
586.81	1088.04
587.16	1086.62
587.51	1089.26
587.86	1089.38
588.21	1089.19
588.56	1090.36
588.91	1088.14
589.26	1088.91
589.61	1089.68
589.96	1090.32
590.31	1094.06
590.66	1094.60
591.01	1093.22
591.36	1094.06
591.71	1095.04
592.06	1091.53
592.41	1089.31
592.76	1088.84
593.10	1085.84
593.45	1084.02
593.80	1084.37
594.15	1087.67
594.50	1088.42
594.85	1090.85
595.20	1092.42
595.55	1091.39
595.90	1090.50
596.25	1089.19
596.60	1087.09
596.95	1086.38
597.30	1086.66
597.64	1100.24
597.99	1101.06
598.34	1104.29
598.69	1103.16
599.04	1103.61
599.39	1090.41
599.74	1090.90
600.09	1088.68
600.44	1089.85
600.78	1088.16
601.13	1086.94
601.48	1085.59
601.83	1084.42
602.18	1087.04
602.53	1088.44
602.88	1089.92
603.22	1088.51
603.57	1088.04
603.92	1083.67
604.27	1085.61
604.62	1084.14
604.97	1083.95
605.31	1088.77
605.66	1087.44
606.01	1083.15
606.36	1084.11
606.71	1086.29
607.05	1082.90
607.40	1085.66
607.75	1087.23
608.10	1083.62
608.44	1082.73
608.79	1086.66
609.14	1083.86
609.49	1081.82
609.84	1083.62
610.18	1083.81
610.53	1080.06
610.88	1083.64
611.23	1088.70
611.57	1089.47
611.92	1089.80
612.27	1088.35
612.62	1086.78
612.96	1082.45
613.31	1082.66
613.66	1082.57
614.00	1084.93
614.35	1087.48
614.70	1088.44
615.05	1085.21
615.39	1085.77
615.74	1085.21
616.09	1081.16
616.43	1084.91
616.78	1090.92
617.13	1090.10
617.47	1088.42
617.82	1090.97
618.17	1088.75
618.51	1086.03
618.86	1086.69
619.21	1087.88
619.55	1085.45
619.90	1084.74
620.25	1084.60
620.59	1082.54
620.94	1081.28
621.29	1082.78
621.63	1081.98
621.98	1082.36
622.32	1081.82
622.67	1079.27
623.02	1080.84
623.36	1082.12
623.71	1082.12
624.05	1084.18
624.40	1086.87
624.75	1086.01
625.09	1084.60
625.44	1084.67
625.78	1085.14
626.13	1084.70
626.48	1081.54
626.82	1082.19
627.17	1082.01
627.51	1079.83
627.86	1080.48
628.20	1081.33
628.55	1082.85
628.89	1082.52
629.24	1084.07
629.58	1085.73
629.93	1089.24
630.28	1089.57
630.62	1089.96
630.97	1093.99
631.31	1092.80
631.66	1090.69
632.00	1088.26
632.35	1086.80
632.69	1083.69
633.04	1084.56
633.38	1087.30
633.73	1086.01
634.07	1088.70
634.42	1091.06
634.76	1094.06
635.11	1088.37
635.45	1089.61
635.79	1087.76
636.14	1084.96
636.48	1080.63
636.83	1085.17
637.17	1085.49
637.52	1087.74
637.86	1086.66
638.21	1086.66
638.55	1086.29
638.89	1086.52
639.24	1083.88
639.58	1085.10
639.93	1085.45
640.27	1086.87
640.61	1088.77
640.96	1090.46
641.30	1092.40
641.65	1092.40
641.99	1089.66
642.33	1088.37
642.68	1085.33
643.02	1084.00
643.37	1086.08
643.71	1086.71
644.05	1084.25
644.40	1087.97
644.74	1084.51
645.08	1083.88
645.43	1084.89
645.77	1086.73
646.11	1086.10
646.46	1085.49
646.80	1083.04
647.14	1080.60
647.49	1079.95
647.83	1079.46
648.17	1080.34
648.52	1081.75
648.86	1083.76
649.20	1085.42
649.55	1086.38
649.89	1089.57
650.23	1090.01
650.57	1089.12
650.92	1087.23
651.26	1085.28
651.60	1082.54
651.95	1080.51
652.29	1079.57
652.63	1077.54
652.97	1080.48
653.32	1081.82
653.66	1079.62
654.00	1080.79
654.34	1081.87
654.69	1078.59
655.03	1078.57
655.37	1082.80
655.71	1082.61
656.05	1085.52
656.40	1086.48
656.74	1086.31
657.08	1086.29
657.42	1086.48
657.76	1083.95
658.11	1084.16
658.45	1086.08
658.79	1087.06
659.13	1086.22
659.47	1086.52
659.82	1088.19
660.16	1085.19
660.50	1083.48
660.84	1085.45
661.18	1088.51
661.52	1090.55
661.87	1092.14
662.21	1090.34
662.55	1091.81
662.89	1088.84
663.23	1084.63
663.57	1081.21
663.91	1084.11
664.25	1081.35
664.60	1079.55
664.94	1083.13
665.28	1085.38
665.62	1081.68
665.96	1082.50
666.30	1083.08
666.64	1079.74
666.98	1079.90
667.32	1080.70
667.66	1082.38
668.01	1079.67
668.35	1076.90
668.69	1078.33
669.03	1078.57
669.37	1077.58
669.71	1083.88
670.05	1086.59
670.39	1085.82
670.73	1084.89
671.07	1085.00
671.41	1085.17
671.75	1084.35
672.09	1082.85
672.43	1085.66
672.77	1083.88
673.11	1082.71
673.45	1083.97
673.79	1087.48
674.13	1086.57
674.47	1088.86
674.81	1091.16
675.15	1090.13
675.49	1090.36
675.83	1090.17
676.17	1085.87
676.51	1082.26
676.85	1083.06
677.19	1080.56
677.53	1080.77
677.87	1083.97
678.21	1087.67
678.55	1089.03
678.89	1090.62
679.23	1091.70
679.57	1090.48
679.90	1087.30
680.24	1083.27
680.58	1081.33
680.92	1078.24
681.26	1076.76
681.60	1081.12
681.94	1081.47
682.28	1082.36
682.62	1083.34
682.96	1084.98
683.29	1078.80
683.63	1078.28
683.97	1075.76
684.31	1077.56
684.65	1075.80
684.99	1074.84
685.33	1074.33
685.67	1077.02
686.00	1078.28
686.34	1080.23
686.68	1081.66
687.02	1082.85
687.36	1083.01
687.70	1081.07
688.03	1078.05
688.37	1077.11
688.71	1080.74
689.05	1079.67
689.39	1080.32
689.72	1083.20
690.06	1087.13
690.40	1088.30
690.74	1088.47
691.08	1088.16
691.41	1087.72
691.75	1086.85
692.09	1084.58
692.43	1081.94
692.76	1080.91
693.10	1079.97
693.44	1077.56
693.78	1075.34
694.11	1077.21
694.45	1077.56
694.79	1081.35
695.13	1081.89
695.46	1083.18
695.80	1084.89
696.14	1083.93
696.48	1081.84
696.81	1082.05
697.15	1081.33
697.49	1079.06
697.82	1077.96
698.16	1074.73
698.50	1075.08
698.83	1076.39
699.17	1076.39
699.51	1077.86
699.84	1080.04
700.18	1080.60
700.52	1082.52
700.85	1084.25
701.19	1083.74
701.53	1082.10
701.86	1080.70
702.20	1076.83
702.54	1078.40
702.87	1078.87
703.21	1080.06
703.55	1082.85
703.88	1086.27
704.22	1081.23
704.55	1080.72
704.89	1083.79
705.23	1080.77
705.56	1079.34
705.90	1083.29
706.23	1084.84
706.57	1080.70
706.91	1079.62
707.24	1077.09
707.58	1075.57
707.91	1074.05
708.25	1077.72
708.58	1080.67
708.92	1083.43
709.26	1087.27
709.59	1088.14
709.93	1083.36
710.26	1086.31
710.60	1084.96
710.93	1081.54
711.27	1084.46
711.60	1086.69
711.94	1083.27
712.27	1084.67
712.61	1087.97
712.94	1085.49
713.28	1086.80
713.61	1086.99
713.95	1085.52
714.28	1081.40
714.62	1077.37
714.95	1078.94
715.29	1077.77
715.62	1079.34
715.96	1079.24
716.29	1087.79
716.63	1085.19
716.96	1083.46
717.29	1081.16
717.63	1080.95
717.96	1077.30
718.30	1077.11
718.63	1081.73
718.97	1083.06
719.30	1082.99
719.63	1080.77
719.97	1080.72
720.30	1080.11
720.64	1081.66
720.97	1084.67
721.30	1086.92
721.64	1086.85
721.97	1084.44
722.31	1082.01
722.64	1080.72
722.97	1081.02
723.31	1081.44
723.64	1084.11
723.97	1085.07
724.31	1084.04
724.64	1081.49
724.98	1079.53
725.31	1078.87
725.64	1079.24
725.98	1080.86
726.31	1079.92
726.64	1080.88
726.97	1078.54
727.31	1076.39
727.64	1073.00
727.97	1075.57
728.31	1077.04
728.64	1074.35
728.97	1077.33
729.31	1080.16
729.64	1079.92
729.97	1079.64
730.30	1082.76
730.64	1083.88
730.97	1084.84
731.30	1086.76
731.63	1085.87
731.97	1088.33
732.30	1085.26
732.63	1082.38
732.96	1079.31
733.30	1080.79
733.63	1078.68
733.96	1079.50
734.29	1078.61
734.63	1078.40
734.96	1078.99
735.29	1079.78
735.62	1078.03
735.95	1081.51
736.29	1084.77
736.62	1084.21
736.95	1082.31
737.28	1084.32
737.61	1081.44
737.94	1079.15
738.28	1077.37
738.61	1078.71
738.94	1079.53
739.27	1081.23
739.60	1084.02
739.93	1084.16
740.27	1084.72
740.60	1084.86
740.93	1084.25
741.26	1081.89
741.59	1084.11
741.92	1082.99
742.25	1081.91
742.58	1081.82
742.91	1079.92
743.25	1076.53
743.58	1077.58
743.91	1072.78
744.24	1075.64
744.57	1078.14
744.90	1080.09
745.23	1080.84
745.56	1083.86
745.89	1083.46
746.22	1080.88
746.55	1079.43
746.88	1076.67
747.21	1077.68
747.54	1073.95
747.87	1074.98
748.20	1076.46
748.53	1077.49
748.87	1080.13
749.20	1082.83
749.53	1081.91
749.86	1084.00
750.19	1086.15
750.52	1083.57
750.85	1082.36
751.18	1083.01
751.51	1079.69
751.84	1079.08
752.16	1077.00
752.49	1078.33
752.82	1077.96
753.15	1080.60
753.48	1080.58
753.81	1082.71
754.14	1081.37
754.47	1085.07
754.80	1084.39
755.13	1082.94
755.46	1080.84
755.79	1080.41
756.12	1078.10
756.45	1073.91
756.78	1072.36
757.11	1072.83
757.43	1073.11
757.76	1073.25
758.09	1074.66
758.42	1077.23
758.75	1080.34
759.08	1080.06
759.41	1080.02
759.74	1082.69
760.07	1082.90
760.39	1080.70
760.72	1081.07
761.05	1081.30
761.38	1079.06
761.71	1080.88
762.04	1081.28
762.36	1084.96
762.69	1082.85
763.02	1088.00
763.35	1086.10
763.68	1082.85
