SpectraSuite Data File
++++++++++++++++++++++++++++++++++++
Date: Mon Aug 26 10:22:33 PDT 2019
User: corrico
Dark Spectrum Present: No
Reference Spectrum Present: No
Number of Sampled Component Spectra: 1
Spectrometers: USB2+H06089
Integration Time (usec): 2000 (USB2+H06089)
Spectra Averaged: 20 (USB2+H06089)
Boxcar Smoothing: 2 (USB2+H06089)
Correct for Electrical Dark: No (USB2+H06089)
Strobe/Lamp Enabled: No (USB2+H06089)
Correct for Detector Non-linearity: No (USB2+H06089)
Correct for Stray Light: No (USB2+H06089)
Number of Pixels in Processed Spectrum: 2048
>>>>>Begin Processed Spectral Data<<<<<
339.70	1028.43
340.07	1028.43
340.45	998.29
340.82	977.59
341.19	953.77
341.57	931.44
341.94	920.84
342.31	907.73
342.69	902.21
343.06	900.08
343.43	894.79
343.81	895.63
344.18	897.97
344.55	902.11
344.93	903.73
345.30	911.71
345.67	916.44
346.04	926.92
346.42	931.98
346.79	941.81
347.16	947.73
347.54	957.00
347.91	964.49
348.28	978.09
348.65	991.19
349.03	1002.99
349.40	1015.32
349.77	1022.53
350.14	1027.64
350.52	1033.04
350.89	1038.64
351.26	1042.50
351.63	1050.85
352.01	1056.85
352.38	1058.67
352.75	1064.90
353.12	1067.17
353.50	1072.78
353.87	1075.87
354.24	1081.98
354.61	1083.67
354.98	1088.21
355.36	1088.75
355.73	1088.09
356.10	1089.03
356.47	1088.28
356.84	1086.38
357.22	1085.66
357.59	1086.76
357.96	1087.53
358.33	1090.92
358.70	1090.48
359.08	1088.58
359.45	1087.95
359.82	1084.04
360.19	1076.30
360.56	1079.71
360.94	1081.00
361.31	1077.77
361.68	1076.04
362.05	1078.33
362.42	1073.95
362.79	1072.88
363.16	1076.08
363.54	1078.33
363.91	1077.44
364.28	1076.95
364.65	1075.38
365.02	1070.40
365.39	1070.19
365.76	1071.17
366.14	1071.71
366.51	1076.04
366.88	1078.45
367.25	1080.02
367.62	1081.21
367.99	1080.13
368.36	1071.26
368.73	1070.94
369.10	1065.79
369.48	1065.44
369.85	1068.06
370.22	1072.01
370.59	1073.09
370.96	1075.10
371.33	1074.73
371.70	1072.50
372.07	1074.49
372.44	1074.96
372.81	1075.90
373.18	1074.63
373.55	1073.39
373.93	1071.43
374.30	1072.78
374.67	1072.25
375.04	1073.11
375.41	1075.99
375.78	1075.78
376.15	1075.92
376.52	1077.11
376.89	1079.15
377.26	1079.22
377.63	1079.41
378.00	1081.19
378.37	1079.69
378.74	1079.27
379.11	1079.38
379.48	1081.09
379.85	1080.27
380.22	1083.46
380.59	1085.61
380.96	1085.54
381.33	1084.37
381.70	1081.44
382.07	1077.86
382.44	1076.62
382.81	1074.40
383.18	1074.35
383.55	1075.45
383.92	1077.42
384.29	1074.33
384.66	1079.55
385.03	1080.02
385.40	1080.51
385.77	1083.53
386.14	1088.70
386.51	1085.52
386.88	1084.46
387.25	1082.90
387.62	1081.94
387.99	1079.41
388.36	1078.73
388.73	1082.76
389.10	1086.71
389.46	1086.66
389.83	1088.37
390.20	1090.62
390.57	1090.01
390.94	1089.64
391.31	1090.24
391.68	1089.92
392.05	1089.73
392.42	1086.17
392.79	1084.35
393.16	1083.25
393.53	1082.61
393.89	1083.57
394.26	1085.19
394.63	1085.45
395.00	1082.90
395.37	1080.86
395.74	1079.13
396.11	1080.58
396.48	1080.04
396.84	1079.90
397.21	1082.19
397.58	1080.39
397.95	1079.81
398.32	1081.47
398.69	1083.74
399.06	1081.96
399.42	1084.44
399.79	1085.87
400.16	1085.99
400.53	1088.56
400.90	1091.70
401.27	1090.55
401.64	1091.84
402.00	1094.29
402.37	1092.28
402.74	1091.27
403.11	1093.19
403.48	1092.05
403.84	1088.04
404.21	1087.06
404.58	1088.21
404.95	1086.17
405.32	1087.27
405.68	1088.40
406.05	1091.67
406.42	1091.09
406.79	1094.62
407.16	1095.32
407.52	1096.52
407.89	1092.30
408.26	1092.09
408.63	1090.92
408.99	1090.17
409.36	1091.74
409.73	1096.10
410.10	1096.38
410.47	1099.86
410.83	1100.29
411.20	1098.55
411.57	1096.96
411.94	1098.62
412.30	1096.31
412.67	1097.90
413.04	1099.26
413.40	1100.54
413.77	1098.95
414.14	1101.13
414.51	1100.75
414.87	1100.92
415.24	1101.13
415.61	1102.86
415.97	1101.90
416.34	1102.79
416.71	1102.88
417.08	1105.13
417.44	1104.36
417.81	1105.83
418.18	1103.54
418.54	1105.93
418.91	1103.12
419.28	1106.02
419.64	1106.58
420.01	1110.82
420.38	1112.83
420.74	1116.18
421.11	1117.07
421.48	1118.78
421.84	1122.15
422.21	1121.49
422.58	1123.43
422.94	1126.15
423.31	1130.06
423.68	1130.43
424.04	1134.18
424.41	1139.05
424.77	1140.15
425.14	1140.99
425.51	1145.13
425.87	1147.21
426.24	1150.61
426.61	1157.98
426.97	1167.88
427.34	1172.14
427.70	1179.68
428.07	1183.52
428.44	1188.78
428.80	1193.58
429.17	1201.33
429.53	1207.93
429.90	1219.56
430.27	1231.19
430.63	1239.38
431.00	1253.05
431.36	1269.41
431.73	1281.09
432.09	1294.69
432.46	1308.66
432.83	1321.33
433.19	1337.03
433.56	1355.38
433.92	1371.06
434.29	1392.76
434.65	1415.49
435.02	1440.67
435.38	1470.09
435.75	1496.52
436.11	1529.89
436.48	1560.62
436.84	1590.16
437.21	1621.55
437.57	1662.48
437.94	1704.40
438.30	1748.24
438.67	1797.34
439.03	1850.24
439.40	1906.93
439.76	1958.96
440.13	2019.79
440.49	2081.93
440.86	2148.35
441.22	2218.48
441.59	2293.23
441.95	2379.67
442.32	2466.95
442.68	2560.97
443.05	2650.14
443.41	2750.41
443.78	2848.03
444.14	2951.88
444.51	3061.98
444.87	3205.93
445.24	3344.27
445.60	3499.26
445.96	3657.51
446.33	3826.24
446.69	3983.36
447.06	4161.26
447.42	4339.49
447.79	4535.58
448.15	4760.72
448.51	4993.28
448.88	5256.12
449.24	5505.15
449.61	5775.88
449.97	6048.06
450.33	6332.02
450.70	6589.03
451.06	6910.81
451.43	7227.90
451.79	7590.29
452.15	7995.69
452.52	8448.44
452.88	8911.92
453.24	9448.95
453.61	10033.24
453.97	10581.75
454.34	11131.17
454.70	11789.42
455.06	12424.97
455.43	13057.33
455.79	13674.58
456.15	14401.74
456.52	15069.45
456.88	15848.49
457.24	16568.96
457.61	17430.20
457.97	18193.80
458.33	18956.70
458.70	19716.88
459.06	20479.06
459.42	21310.48
459.79	22098.57
460.15	23007.28
460.51	23881.70
460.88	24816.82
461.24	25620.70
461.60	26590.10
461.96	27474.66
462.33	28305.71
462.69	29076.40
463.05	29905.91
463.42	30597.78
463.78	31252.26
464.14	31797.89
464.50	32425.10
464.87	32921.11
465.23	33291.17
465.59	33614.21
465.95	33927.00
466.32	34174.12
466.68	34398.88
467.04	34551.60
467.40	34716.96
467.77	34898.84
468.13	34871.71
468.49	34753.51
468.85	34659.10
469.22	34467.78
469.58	34078.86
469.94	33826.99
470.30	33522.63
470.66	33112.33
471.03	32498.10
471.39	32128.28
471.75	31464.83
472.11	30843.86
472.47	30455.71
472.84	30157.52
473.20	29647.03
473.56	29404.15
473.92	28991.28
474.28	28487.25
474.65	27994.96
475.01	27525.29
475.37	26947.92
475.73	26492.71
476.09	25951.95
476.45	25425.99
476.81	24903.16
477.18	24351.07
477.54	23895.40
477.90	23571.32
478.26	23158.81
478.62	22831.01
478.98	22557.36
479.34	22256.95
479.71	21826.67
480.07	21475.98
480.43	21097.85
480.79	20697.59
481.15	20326.94
481.51	20020.66
481.87	19771.89
482.23	19499.71
482.59	19262.05
482.96	18988.13
483.32	18699.55
483.68	18327.96
484.04	17982.10
484.40	17618.62
484.76	17243.24
485.12	16849.24
485.48	16521.47
485.84	16165.85
486.20	15793.93
486.56	15418.30
486.92	15117.22
487.28	14768.45
487.64	14426.66
488.00	14097.07
488.37	13773.73
488.73	13406.31
489.09	13039.73
489.45	12714.75
489.81	12396.93
490.17	12097.57
490.53	11812.68
490.89	11519.63
491.25	11207.94
491.61	10901.86
491.97	10582.85
492.33	10258.52
492.69	9961.48
493.05	9664.77
493.41	9377.45
493.77	9112.03
494.13	8868.90
494.49	8625.60
494.85	8379.84
495.21	8152.72
495.57	7935.77
495.93	7714.08
496.29	7510.01
496.64	7343.90
497.00	7155.37
497.36	6968.13
497.72	6788.65
498.08	6615.27
498.44	6420.67
498.80	6254.40
499.16	6085.46
499.52	5930.07
499.88	5793.25
500.24	5680.62
500.60	5557.20
500.96	5442.52
501.32	5328.02
501.68	5214.32
502.03	5081.61
502.39	4955.45
502.75	4827.43
503.11	4705.62
503.47	4580.57
503.83	4462.89
504.19	4347.17
504.55	4238.99
504.91	4134.51
505.26	4037.03
505.62	3948.88
505.98	3858.47
506.34	3766.88
506.70	3672.21
507.06	3586.33
507.42	3502.12
507.78	3425.40
508.13	3353.96
508.49	3283.82
508.85	3206.46
509.21	3133.44
509.57	3069.10
509.93	3007.66
510.28	2941.84
510.64	2882.84
511.00	2823.60
511.36	2762.14
511.72	2699.57
512.07	2650.12
512.43	2598.56
512.79	2544.65
513.15	2497.54
513.51	2450.94
513.86	2405.04
514.22	2364.01
514.58	2328.83
514.94	2291.60
515.30	2259.27
515.65	2225.12
516.01	2189.34
516.37	2158.96
516.73	2128.53
517.08	2099.91
517.44	2065.55
517.80	2038.37
518.16	2008.04
518.51	1981.33
518.87	1954.39
519.23	1936.11
519.59	1911.66
519.94	1881.63
520.30	1857.68
520.66	1831.75
521.01	1806.82
521.37	1783.54
521.73	1764.97
522.09	1746.72
522.44	1725.61
522.80	1703.70
523.16	1686.43
523.51	1668.24
523.87	1647.97
524.23	1627.33
524.58	1611.04
524.94	1591.54
525.30	1576.16
525.65	1557.58
526.01	1545.92
526.37	1532.37
526.72	1522.66
527.08	1508.57
527.44	1498.06
527.79	1485.05
528.15	1470.96
528.51	1455.63
528.86	1444.16
529.22	1434.23
529.58	1418.69
529.93	1405.21
530.29	1395.68
530.65	1383.61
531.00	1371.11
531.36	1364.67
531.71	1355.61
532.07	1349.48
532.43	1340.47
532.78	1333.10
533.14	1324.86
533.49	1321.68
533.85	1317.65
534.21	1313.13
534.56	1306.02
534.92	1301.62
535.27	1292.23
535.63	1282.38
535.98	1278.00
536.34	1274.75
536.69	1267.94
537.05	1263.61
537.41	1256.66
537.76	1249.85
538.12	1240.69
538.47	1235.92
538.83	1231.05
539.18	1229.32
539.54	1223.68
539.89	1222.49
540.25	1221.03
540.60	1218.11
540.96	1214.50
541.31	1214.76
541.67	1209.24
542.02	1206.05
542.38	1205.66
542.73	1203.71
543.09	1200.53
543.44	1197.93
543.80	1195.33
544.15	1188.62
544.51	1186.21
544.86	1181.85
545.22	1180.33
545.57	1179.77
545.93	1178.04
546.28	1173.69
546.64	1173.36
546.99	1170.17
547.35	1164.93
547.70	1162.97
548.05	1160.58
548.41	1156.76
548.76	1155.62
549.12	1152.60
549.47	1151.99
549.83	1148.62
550.18	1147.85
550.53	1146.65
550.89	1147.17
551.24	1144.36
551.60	1144.05
551.95	1141.57
552.30	1140.54
552.66	1136.87
553.01	1136.24
553.37	1132.84
553.72	1130.95
554.07	1129.33
554.43	1130.15
554.78	1128.54
555.13	1131.23
555.49	1133.33
555.84	1133.92
556.19	1133.19
556.55	1132.26
556.90	1129.96
557.26	1124.96
557.61	1121.09
557.96	1119.45
558.32	1117.11
558.67	1113.51
559.02	1114.96
559.37	1117.91
559.73	1117.86
560.08	1119.06
560.43	1121.77
560.79	1121.98
561.14	1117.18
561.49	1113.84
561.85	1113.72
562.20	1111.29
562.55	1110.19
562.90	1113.93
563.26	1116.37
563.61	1115.59
563.96	1115.38
564.32	1114.73
564.67	1112.11
565.02	1109.98
565.37	1109.06
565.73	1108.24
566.08	1108.88
566.43	1105.95
566.78	1109.51
567.14	1109.09
567.49	1110.07
567.84	1106.70
568.19	1110.16
568.54	1105.67
568.90	1103.21
569.25	1097.88
569.60	1098.41
569.95	1097.45
570.31	1097.27
570.66	1098.04
571.01	1100.99
571.36	1100.92
571.71	1099.07
572.06	1096.56
572.42	1094.83
572.77	1097.59
573.12	1096.28
573.47	1096.66
573.82	1096.94
574.18	1103.05
574.53	1101.01
574.88	1103.54
575.23	1102.30
575.58	1100.17
575.93	1097.43
576.28	1097.57
576.64	1095.72
576.99	1096.21
577.34	1098.60
577.69	1096.59
578.04	1096.52
578.39	1093.71
578.74	1093.19
579.09	1092.94
579.44	1091.56
579.80	1093.17
580.15	1094.27
580.50	1093.71
580.85	1095.63
581.20	1098.09
581.55	1094.15
581.90	1095.00
582.25	1096.00
582.60	1096.49
582.95	1093.97
583.30	1093.15
583.65	1091.70
584.00	1089.94
584.35	1087.83
584.71	1088.44
585.06	1090.46
585.41	1090.24
585.76	1090.24
586.11	1090.36
586.46	1090.43
586.81	1090.60
587.16	1091.27
587.51	1094.90
587.86	1096.33
588.21	1096.49
588.56	1095.02
588.91	1095.09
589.26	1091.18
589.61	1089.47
589.96	1087.55
590.31	1089.19
590.66	1088.61
591.01	1092.05
591.36	1089.75
591.71	1090.13
592.06	1087.02
592.41	1089.92
592.76	1086.83
593.10	1090.08
593.45	1092.00
593.80	1090.83
594.15	1089.14
594.50	1089.64
594.85	1088.70
595.20	1085.21
595.55	1090.03
595.90	1088.96
596.25	1087.20
596.60	1087.34
596.95	1089.96
597.30	1086.76
597.64	1096.61
597.99	1095.53
598.34	1094.04
598.69	1093.94
599.04	1096.12
599.39	1085.10
599.74	1087.62
600.09	1086.34
600.44	1084.98
600.78	1082.61
601.13	1083.57
601.48	1081.98
601.83	1081.80
602.18	1082.78
602.53	1083.57
602.88	1082.92
603.22	1084.72
603.57	1088.33
603.92	1087.69
604.27	1084.37
604.62	1083.64
604.97	1080.11
605.31	1074.45
605.66	1074.63
606.01	1077.33
606.36	1079.17
606.71	1079.15
607.05	1079.76
607.40	1081.37
607.75	1083.27
608.10	1084.02
608.44	1085.47
608.79	1087.88
609.14	1085.70
609.49	1082.97
609.84	1079.60
610.18	1079.99
610.53	1080.32
610.88	1080.39
611.23	1082.78
611.57	1085.75
611.92	1084.91
612.27	1081.19
612.62	1083.39
612.96	1079.31
613.31	1081.05
613.66	1084.11
614.00	1091.88
614.35	1090.53
614.70	1091.06
615.05	1086.08
615.39	1083.71
615.74	1080.53
616.09	1079.36
616.43	1080.81
616.78	1082.66
617.13	1083.20
617.47	1084.58
617.82	1084.25
618.17	1083.46
618.51	1085.33
618.86	1083.86
619.21	1083.57
619.55	1083.93
619.90	1085.52
620.25	1084.42
620.59	1084.70
620.94	1082.29
621.29	1081.00
621.63	1079.48
621.98	1078.89
622.32	1077.25
622.67	1080.27
623.02	1080.30
623.36	1081.44
623.71	1080.37
624.05	1083.06
624.40	1078.96
624.75	1083.11
625.09	1084.63
625.44	1086.10
625.78	1084.72
626.13	1085.59
626.48	1082.87
626.82	1082.08
627.17	1080.81
627.51	1079.22
627.86	1083.46
628.20	1085.91
628.55	1086.73
628.89	1088.37
629.24	1092.33
629.58	1088.96
629.93	1086.71
630.28	1088.61
630.62	1087.32
630.97	1084.96
631.31	1084.67
631.66	1085.61
632.00	1081.19
632.35	1083.13
632.69	1084.18
633.04	1084.65
633.38	1082.52
633.73	1083.34
634.07	1082.01
634.42	1084.21
634.76	1084.23
635.11	1082.47
635.45	1084.65
635.79	1083.88
636.14	1083.74
636.48	1080.09
636.83	1079.95
637.17	1078.33
637.52	1078.12
637.86	1077.49
638.21	1082.54
638.55	1084.39
638.89	1086.50
639.24	1085.42
639.58	1084.79
639.93	1082.12
640.27	1085.33
640.61	1082.69
640.96	1084.91
641.30	1086.43
641.65	1086.06
641.99	1085.96
642.33	1085.14
642.68	1086.48
643.02	1085.87
643.37	1086.92
643.71	1084.39
644.05	1085.87
644.40	1084.86
644.74	1080.25
645.08	1081.26
645.43	1082.08
645.77	1081.63
646.11	1079.67
646.46	1083.50
646.80	1081.19
647.14	1081.16
647.49	1079.67
647.83	1081.63
648.17	1082.50
648.52	1081.66
648.86	1079.92
649.20	1078.57
649.55	1077.44
649.89	1075.62
650.23	1076.48
650.57	1075.08
650.92	1073.23
651.26	1074.42
651.60	1073.63
651.95	1074.21
652.29	1080.25
652.63	1080.51
652.97	1080.93
653.32	1081.35
653.66	1082.36
654.00	1078.36
654.34	1080.65
654.69	1081.33
655.03	1082.36
655.37	1082.50
655.71	1084.42
656.05	1088.04
656.40	1086.59
656.74	1087.11
657.08	1089.22
657.42	1088.96
657.76	1089.17
658.11	1090.22
658.45	1085.68
658.79	1084.60
659.13	1086.48
659.47	1084.70
659.82	1082.03
660.16	1084.32
660.50	1082.24
660.84	1077.51
661.18	1078.21
661.52	1075.87
661.87	1073.21
662.21	1075.43
662.55	1078.61
662.89	1076.76
663.23	1081.42
663.57	1085.42
663.91	1084.02
664.25	1083.64
664.60	1084.39
664.94	1082.78
665.28	1079.48
665.62	1078.26
665.96	1079.46
666.30	1080.44
666.64	1080.23
666.98	1081.44
667.32	1080.84
667.66	1077.89
668.01	1077.79
668.35	1079.17
668.69	1081.26
669.03	1083.46
669.37	1082.33
669.71	1082.90
670.05	1080.06
670.39	1077.42
670.73	1076.86
671.07	1075.97
671.41	1075.62
671.75	1079.22
672.09	1081.37
672.43	1082.24
672.77	1086.64
673.11	1085.63
673.45	1083.06
673.79	1083.83
674.13	1080.32
674.47	1077.49
674.81	1076.81
675.15	1080.23
675.49	1079.24
675.83	1084.49
676.17	1084.77
676.51	1088.00
676.85	1086.50
677.19	1087.27
677.53	1082.50
677.87	1083.29
678.21	1081.37
678.55	1080.32
678.89	1080.37
679.23	1080.41
679.57	1080.09
679.90	1080.46
680.24	1076.88
680.58	1078.94
680.92	1082.47
681.26	1083.60
681.60	1082.12
681.94	1085.80
682.28	1080.81
682.62	1080.74
682.96	1081.12
683.29	1080.70
683.63	1079.22
683.97	1082.12
684.31	1075.94
684.65	1074.38
684.99	1077.68
685.33	1079.10
685.67	1077.18
686.00	1080.16
686.34	1082.47
686.68	1081.77
687.02	1081.94
687.36	1084.51
687.70	1085.75
688.03	1087.06
688.37	1086.52
688.71	1084.46
689.05	1082.08
689.39	1080.11
689.72	1078.82
690.06	1078.96
690.40	1081.21
690.74	1079.50
691.08	1081.23
691.41	1079.69
691.75	1077.47
692.09	1078.85
692.43	1080.72
692.76	1080.67
693.10	1081.66
693.44	1082.15
693.78	1081.70
694.11	1082.90
694.45	1082.05
694.79	1082.90
695.13	1083.46
695.46	1083.43
695.80	1083.48
696.14	1085.00
696.48	1081.70
696.81	1081.23
697.15	1079.83
697.49	1079.36
697.82	1078.47
698.16	1078.73
698.50	1078.89
698.83	1078.54
699.17	1078.00
699.51	1077.56
699.84	1079.20
700.18	1083.27
700.52	1082.87
700.85	1082.33
701.19	1083.83
701.53	1084.84
701.86	1080.88
702.20	1082.33
702.54	1081.63
702.87	1081.26
703.21	1079.95
703.55	1080.88
703.88	1080.06
704.22	1077.07
704.55	1076.34
704.89	1074.80
705.23	1073.32
705.56	1071.75
705.90	1075.43
706.23	1075.48
706.57	1075.69
706.91	1078.14
707.24	1082.12
707.58	1082.22
707.91	1084.11
708.25	1082.17
708.58	1079.60
708.92	1079.34
709.26	1078.73
709.59	1078.64
709.93	1081.94
710.26	1081.40
710.60	1077.98
710.93	1082.40
711.27	1083.13
711.60	1080.60
711.94	1080.67
712.27	1079.15
712.61	1078.14
712.94	1078.03
713.28	1081.91
713.61	1084.72
713.95	1085.24
714.28	1084.58
714.62	1083.25
714.95	1081.84
715.29	1079.53
715.62	1083.20
715.96	1083.86
716.29	1083.27
716.63	1081.96
716.96	1083.76
717.29	1083.01
717.63	1080.06
717.96	1080.95
718.30	1078.71
718.63	1080.91
718.97	1080.95
719.30	1083.20
719.63	1081.30
719.97	1085.19
720.30	1081.49
720.64	1082.76
720.97	1080.77
721.30	1081.44
721.64	1080.41
721.97	1081.40
722.31	1077.72
722.64	1078.71
722.97	1082.15
723.31	1082.12
723.64	1084.28
723.97	1087.58
724.31	1083.76
724.64	1084.16
724.98	1082.43
725.31	1079.29
725.64	1078.64
725.98	1082.71
726.31	1079.90
726.64	1081.26
726.97	1080.27
727.31	1074.31
727.64	1074.07
727.97	1074.40
728.31	1074.10
728.64	1073.37
728.97	1078.85
729.31	1079.46
729.64	1077.98
729.97	1080.91
730.30	1082.38
730.64	1077.37
730.97	1077.35
731.30	1077.72
731.63	1076.13
731.97	1074.33
732.30	1078.50
732.63	1077.93
732.96	1080.77
733.30	1081.28
733.63	1084.02
733.96	1082.57
734.29	1080.67
734.63	1082.10
734.96	1082.29
735.29	1080.11
735.62	1079.83
735.95	1086.29
736.29	1082.97
736.62	1081.00
736.95	1083.81
737.28	1084.93
737.61	1083.55
737.94	1081.07
738.28	1081.40
738.61	1082.57
738.94	1083.64
739.27	1082.12
739.60	1082.38
739.93	1084.49
740.27	1080.79
740.60	1082.47
740.93	1082.92
741.26	1083.95
741.59	1081.16
741.92	1083.13
742.25	1078.68
742.58	1074.24
742.91	1074.94
743.25	1077.54
743.58	1075.83
743.91	1076.20
744.24	1077.16
744.57	1076.51
744.90	1076.37
745.23	1080.06
745.56	1087.53
745.89	1087.34
746.22	1088.49
746.55	1086.76
746.88	1086.31
747.21	1081.26
747.54	1081.77
747.87	1082.94
748.20	1087.23
748.53	1085.40
748.87	1086.87
749.20	1086.71
749.53	1084.04
749.86	1083.34
750.19	1084.02
750.52	1084.98
750.85	1086.90
751.18	1087.72
751.51	1085.26
751.84	1085.63
752.16	1082.47
752.49	1080.30
752.82	1079.29
753.15	1077.63
753.48	1074.00
753.81	1070.09
754.14	1072.36
754.47	1070.87
754.80	1070.44
755.13	1072.34
755.46	1074.26
755.79	1075.69
756.12	1079.90
756.45	1077.68
756.78	1077.98
757.11	1079.67
757.43	1077.54
757.76	1076.60
758.09	1080.13
758.42	1078.21
758.75	1080.23
759.08	1080.09
759.41	1080.34
759.74	1081.28
760.07	1085.45
760.39	1081.82
760.72	1080.98
761.05	1078.17
761.38	1076.48
761.71	1075.43
762.04	1079.74
762.36	1079.90
762.69	1083.11
763.02	1080.84
763.35	1080.63
763.68	1078.47
764.01	1075.99
