SpectraSuite Data File
++++++++++++++++++++++++++++++++++++
Date: Mon Aug 26 10:21:52 PDT 2019
User: corrico
Dark Spectrum Present: No
Reference Spectrum Present: No
Number of Sampled Component Spectra: 1
Spectrometers: USB2+H06089
Integration Time (usec): 2000 (USB2+H06089)
Spectra Averaged: 20 (USB2+H06089)
Boxcar Smoothing: 2 (USB2+H06089)
Correct for Electrical Dark: No (USB2+H06089)
Strobe/Lamp Enabled: No (USB2+H06089)
Correct for Detector Non-linearity: No (USB2+H06089)
Correct for Stray Light: No (USB2+H06089)
Number of Pixels in Processed Spectrum: 2048
>>>>>Begin Processed Spectral Data<<<<<
339.70	1021.41
340.07	1021.41
340.45	989.84
340.82	969.71
341.19	944.97
341.57	918.75
341.94	910.63
342.31	899.51
342.69	895.25
343.06	897.38
343.43	896.40
343.81	896.43
344.18	899.66
344.55	901.50
344.93	901.27
345.30	905.81
345.67	913.46
346.04	921.33
346.42	927.98
346.79	937.10
347.16	949.98
347.54	957.19
347.91	966.22
348.28	979.07
348.65	989.13
349.03	994.70
349.40	1005.87
349.77	1012.23
350.14	1017.13
350.52	1023.59
350.89	1031.57
351.26	1034.52
351.63	1039.36
352.01	1045.89
352.38	1048.89
352.75	1051.58
353.12	1051.58
353.50	1057.71
353.87	1059.30
354.24	1063.42
354.61	1066.86
354.98	1074.07
355.36	1072.74
355.73	1076.83
356.10	1078.50
356.47	1078.94
356.84	1076.93
357.22	1078.47
357.59	1077.65
357.96	1077.07
358.33	1075.87
358.70	1077.56
359.08	1074.35
359.45	1073.60
359.82	1071.36
360.19	1072.90
360.56	1070.23
360.94	1072.69
361.31	1070.02
361.68	1068.85
362.05	1067.59
362.42	1067.45
362.79	1067.28
363.16	1066.28
363.54	1070.30
363.91	1068.45
364.28	1069.39
364.65	1064.66
365.02	1063.42
365.39	1059.79
365.76	1059.58
366.14	1058.81
366.51	1063.75
366.88	1065.11
367.25	1063.31
367.62	1063.16
367.99	1061.43
368.36	1058.79
368.73	1057.34
369.10	1059.12
369.48	1057.03
369.85	1061.11
370.22	1063.75
370.59	1063.68
370.96	1064.22
371.33	1069.79
371.70	1067.07
372.07	1065.79
372.44	1069.18
372.81	1069.02
373.18	1065.15
373.55	1065.08
373.93	1065.60
374.30	1063.91
374.67	1063.00
375.04	1065.01
375.41	1064.17
375.78	1064.85
376.15	1067.31
376.52	1070.28
376.89	1068.78
377.26	1069.93
377.63	1068.17
378.00	1066.09
378.37	1065.46
378.74	1065.88
379.11	1064.29
379.48	1065.81
379.85	1067.17
380.22	1062.81
380.59	1064.62
380.96	1062.91
381.33	1063.66
381.70	1062.02
382.07	1067.10
382.44	1066.23
382.81	1070.70
383.18	1070.23
383.55	1071.26
383.92	1070.82
384.29	1072.22
384.66	1070.35
385.03	1068.34
385.40	1065.51
385.77	1066.58
386.14	1063.38
386.51	1062.84
386.88	1066.21
387.25	1064.43
387.62	1060.01
387.99	1061.41
388.36	1061.18
388.73	1060.61
389.10	1062.37
389.46	1063.16
389.83	1064.08
390.20	1064.19
390.57	1063.61
390.94	1068.24
391.31	1071.12
391.68	1071.10
392.05	1073.09
392.42	1072.22
392.79	1070.05
393.16	1068.52
393.53	1071.03
393.89	1073.86
394.26	1076.53
394.63	1077.14
395.00	1079.17
395.37	1076.51
395.74	1076.15
396.11	1072.95
396.48	1071.52
396.84	1068.52
397.21	1067.73
397.58	1068.83
397.95	1071.50
398.32	1071.52
398.69	1075.38
399.06	1078.54
399.42	1075.62
399.79	1074.54
400.16	1073.42
400.53	1070.07
400.90	1067.26
401.27	1069.13
401.64	1068.69
402.00	1071.54
402.37	1075.50
402.74	1078.26
403.11	1078.68
403.48	1078.03
403.84	1079.03
404.21	1075.94
404.58	1075.38
404.95	1073.00
405.32	1069.93
405.68	1069.20
406.05	1069.51
406.42	1070.98
406.79	1072.74
407.16	1077.61
407.52	1076.15
407.89	1075.73
408.26	1075.15
408.63	1072.25
408.99	1072.11
409.36	1069.84
409.73	1072.76
410.10	1070.63
410.47	1071.80
410.83	1071.82
411.20	1078.21
411.57	1076.79
411.94	1077.91
412.30	1078.75
412.67	1079.22
413.04	1078.24
413.40	1079.41
413.77	1080.48
414.14	1080.34
414.51	1078.71
414.87	1076.93
415.24	1075.76
415.61	1074.96
415.97	1074.47
416.34	1079.43
416.71	1079.97
417.08	1079.69
417.44	1080.13
417.81	1083.81
418.18	1080.30
418.54	1079.99
418.91	1079.50
419.28	1078.57
419.64	1072.25
420.01	1074.17
420.38	1073.35
420.74	1074.07
421.11	1075.48
421.48	1079.10
421.84	1075.15
422.21	1076.32
422.58	1076.86
422.94	1078.05
423.31	1077.70
423.68	1079.67
424.04	1083.41
424.41	1085.03
424.77	1085.03
425.14	1086.69
425.51	1088.40
425.87	1086.73
426.24	1086.20
426.61	1087.65
426.97	1087.41
427.34	1084.72
427.70	1083.79
428.07	1083.27
428.44	1081.84
428.80	1083.46
429.17	1088.79
429.53	1090.57
429.90	1094.13
430.27	1097.08
430.63	1099.68
431.00	1099.09
431.36	1101.39
431.73	1101.74
432.09	1101.90
432.46	1099.96
432.83	1100.59
433.19	1101.25
433.56	1102.88
433.92	1106.25
434.29	1110.30
434.65	1114.61
435.02	1119.85
435.38	1123.50
435.75	1124.53
436.11	1129.33
436.48	1133.40
436.84	1134.13
437.21	1138.02
437.57	1141.55
437.94	1147.63
438.30	1154.47
438.67	1161.09
439.03	1166.57
439.40	1176.61
439.76	1178.53
440.13	1179.37
440.49	1188.17
440.86	1195.36
441.22	1202.38
441.59	1212.96
441.95	1227.17
442.32	1232.97
442.68	1239.17
443.05	1245.54
443.41	1252.89
443.78	1261.90
444.14	1274.28
444.51	1290.97
444.87	1309.41
445.24	1325.23
445.60	1341.62
445.96	1358.12
446.33	1374.64
446.69	1389.04
447.06	1408.96
447.42	1426.58
447.79	1445.02
448.15	1469.95
448.51	1492.75
448.88	1516.39
449.24	1537.80
449.61	1569.66
449.97	1596.01
450.33	1629.13
450.70	1662.39
451.06	1698.01
451.43	1731.43
451.79	1769.73
452.15	1805.00
452.52	1850.54
452.88	1898.36
453.24	1945.36
453.61	1997.25
453.97	2052.04
454.34	2103.16
454.70	2163.90
455.06	2218.66
455.43	2273.25
455.79	2329.02
456.15	2388.45
456.52	2441.11
456.88	2519.45
457.24	2604.67
457.61	2690.35
457.97	2771.62
458.33	2858.73
458.70	2937.82
459.06	3011.05
459.42	3098.59
459.79	3176.81
460.15	3272.12
460.51	3353.64
460.88	3436.49
461.24	3516.19
461.60	3613.53
461.96	3698.37
462.33	3790.01
462.69	3870.47
463.05	3949.54
463.42	4017.27
463.78	4083.86
464.14	4136.05
464.50	4210.48
464.87	4259.42
465.23	4292.00
465.59	4320.39
465.95	4361.35
466.32	4378.58
466.68	4412.42
467.04	4450.90
467.40	4472.86
467.77	4485.36
468.13	4481.45
468.49	4476.34
468.85	4468.88
469.22	4466.96
469.58	4447.06
469.94	4446.34
470.30	4415.26
470.66	4377.50
471.03	4332.28
471.39	4300.97
471.75	4241.50
472.11	4194.54
472.47	4156.56
472.84	4109.04
473.20	4045.03
473.56	4001.57
473.92	3947.71
474.28	3901.84
474.65	3855.73
475.01	3819.99
475.37	3764.00
475.73	3716.21
476.09	3658.23
476.45	3608.66
476.81	3557.92
477.18	3523.77
477.54	3493.58
477.90	3463.24
478.26	3419.24
478.62	3376.06
478.98	3334.44
479.34	3300.65
479.71	3264.51
480.07	3237.10
480.43	3211.78
480.79	3182.10
481.15	3139.57
481.51	3102.54
481.87	3070.43
482.23	3038.34
482.59	3007.61
482.96	2981.73
483.32	2957.13
483.68	2925.46
484.04	2897.04
484.40	2867.30
484.76	2839.96
485.12	2808.50
485.48	2783.11
485.84	2751.93
486.20	2722.35
486.56	2685.67
486.92	2652.79
487.28	2614.99
487.64	2576.98
488.00	2542.78
488.37	2510.79
488.73	2469.66
489.09	2430.65
489.45	2399.35
489.81	2363.12
490.17	2328.06
490.53	2300.42
490.89	2271.40
491.25	2237.95
491.61	2208.08
491.97	2173.52
492.33	2140.09
492.69	2116.99
493.05	2092.46
493.41	2062.55
493.77	2036.52
494.13	2010.40
494.49	1976.96
494.85	1942.50
495.21	1915.61
495.57	1889.82
495.93	1865.36
496.29	1841.60
496.64	1822.90
497.00	1803.10
497.36	1786.84
497.72	1764.01
498.08	1745.88
498.44	1728.32
498.80	1707.42
499.16	1686.85
499.52	1671.63
499.88	1659.25
500.24	1643.06
500.60	1630.91
500.96	1617.38
501.32	1603.66
501.68	1587.30
502.03	1573.19
502.39	1557.32
502.75	1544.80
503.11	1529.14
503.47	1514.94
503.83	1498.46
504.19	1485.12
504.55	1469.32
504.91	1457.94
505.26	1447.81
505.62	1437.23
505.98	1426.44
506.34	1417.55
506.70	1406.43
507.06	1393.23
507.42	1384.73
507.78	1373.94
508.13	1366.92
508.49	1357.84
508.85	1352.15
509.21	1343.77
509.57	1332.37
509.93	1322.92
510.28	1314.75
510.64	1303.68
511.00	1294.01
511.36	1287.55
511.72	1280.16
512.07	1274.40
512.43	1265.97
512.79	1258.15
513.15	1255.81
513.51	1248.65
513.86	1244.42
514.22	1242.38
514.58	1239.76
514.94	1231.66
515.30	1226.39
515.65	1219.86
516.01	1211.72
516.37	1206.57
516.73	1200.84
517.08	1195.50
517.44	1191.01
517.80	1188.50
518.16	1182.11
518.51	1180.24
518.87	1177.06
519.23	1172.87
519.59	1166.57
519.94	1167.46
520.30	1167.46
520.66	1164.60
521.01	1160.65
521.37	1162.64
521.73	1161.33
522.09	1156.46
522.44	1156.48
522.80	1158.17
523.16	1156.18
523.51	1152.64
523.87	1151.19
524.23	1147.03
524.58	1144.50
524.94	1142.98
525.30	1140.19
525.65	1139.82
526.01	1137.66
526.37	1135.49
526.72	1130.29
527.08	1129.52
527.44	1125.61
527.79	1123.55
528.15	1122.24
528.51	1121.40
528.86	1117.32
529.22	1115.48
529.58	1113.44
529.93	1112.27
530.29	1111.54
530.65	1109.62
531.00	1111.85
531.36	1112.67
531.71	1107.19
532.07	1104.59
532.43	1106.82
532.78	1102.28
533.14	1103.14
533.49	1102.53
533.85	1107.38
534.21	1103.16
534.56	1100.80
534.92	1097.83
535.27	1097.99
535.63	1092.16
535.98	1095.46
536.34	1097.80
536.69	1098.55
537.05	1099.93
537.41	1104.22
537.76	1100.38
538.12	1098.25
538.47	1095.42
538.83	1096.07
539.18	1090.76
539.54	1092.21
539.89	1092.30
540.25	1092.84
540.60	1089.82
540.96	1091.34
541.31	1089.31
541.67	1088.21
542.02	1086.31
542.38	1086.59
542.73	1087.04
543.09	1087.72
543.44	1085.33
543.80	1085.61
544.15	1086.48
544.51	1083.27
544.86	1082.40
545.22	1088.44
545.57	1091.88
545.93	1091.23
546.28	1092.73
546.64	1093.55
546.99	1093.38
547.35	1088.79
547.70	1086.31
548.05	1085.70
548.41	1083.08
548.76	1078.43
549.12	1077.28
549.47	1076.88
549.83	1076.32
550.18	1078.07
550.53	1080.06
550.89	1083.83
551.24	1085.75
551.60	1086.45
551.95	1088.42
552.30	1086.13
552.66	1083.36
553.01	1084.32
553.37	1082.54
553.72	1079.88
554.07	1080.16
554.43	1082.45
554.78	1079.34
555.13	1080.60
555.49	1081.00
555.84	1079.48
556.19	1080.44
556.55	1079.62
556.90	1077.54
557.26	1076.88
557.61	1082.87
557.96	1081.89
558.32	1082.64
558.67	1082.22
559.02	1082.59
559.37	1076.53
559.73	1074.68
560.08	1076.90
560.43	1079.24
560.79	1079.78
561.14	1083.27
561.49	1081.94
561.85	1079.22
562.20	1073.67
562.55	1074.66
562.90	1072.18
563.26	1072.64
563.61	1072.60
563.96	1076.69
564.32	1075.66
564.67	1075.24
565.02	1076.67
565.37	1079.76
565.73	1079.69
566.08	1080.27
566.43	1082.69
566.78	1079.48
567.14	1077.65
567.49	1076.41
567.84	1074.75
568.19	1074.05
568.54	1077.21
568.90	1078.50
569.25	1082.01
569.60	1081.77
569.95	1079.20
570.31	1077.42
570.66	1077.42
571.01	1077.82
571.36	1079.48
571.71	1080.18
572.06	1080.44
572.42	1077.04
572.77	1077.44
573.12	1074.38
573.47	1076.37
573.82	1076.67
574.18	1081.51
574.53	1079.53
574.88	1081.56
575.23	1082.22
575.58	1083.93
575.93	1078.82
576.28	1075.15
576.64	1072.34
576.99	1070.16
577.34	1071.26
577.69	1074.35
578.04	1075.64
578.39	1076.41
578.74	1074.38
579.09	1074.54
579.44	1071.97
579.80	1073.93
580.15	1074.54
580.50	1074.35
580.85	1072.39
581.20	1071.47
581.55	1071.80
581.90	1075.48
582.25	1077.91
582.60	1077.04
582.95	1080.81
583.30	1079.57
583.65	1075.05
584.00	1074.87
584.35	1075.05
584.71	1074.91
585.06	1077.21
585.41	1076.46
585.76	1077.25
586.11	1074.40
586.46	1072.18
586.81	1069.53
587.16	1071.26
587.51	1066.68
587.86	1068.22
588.21	1069.32
588.56	1071.97
588.91	1070.89
589.26	1076.86
589.61	1076.32
589.96	1076.46
590.31	1073.86
590.66	1073.51
591.01	1071.85
591.36	1075.13
591.71	1073.93
592.06	1075.69
592.41	1078.61
592.76	1079.48
593.10	1077.23
593.45	1076.46
593.80	1074.66
594.15	1074.26
594.50	1072.85
594.85	1073.67
595.20	1075.99
595.55	1077.98
595.90	1077.63
596.25	1078.68
596.60	1079.48
596.95	1077.56
597.30	1078.17
597.64	1088.07
597.99	1086.78
598.34	1091.67
598.69	1093.01
599.04	1089.75
599.39	1079.34
599.74	1079.83
600.09	1074.38
600.44	1076.44
600.78	1074.70
601.13	1073.95
601.48	1075.29
601.83	1075.62
602.18	1076.20
602.53	1078.47
602.88	1078.78
603.22	1078.38
603.57	1076.69
603.92	1074.38
604.27	1076.62
604.62	1075.92
604.97	1075.15
605.31	1073.30
605.66	1074.70
606.01	1072.29
606.36	1073.18
606.71	1070.02
607.05	1070.40
607.40	1066.51
607.75	1069.84
608.10	1069.88
608.44	1072.64
608.79	1076.32
609.14	1075.59
609.49	1074.75
609.84	1075.87
610.18	1077.16
610.53	1076.83
610.88	1081.54
611.23	1081.40
611.57	1080.67
611.92	1078.66
612.27	1078.17
612.62	1074.75
612.96	1075.36
613.31	1075.08
613.66	1077.35
614.00	1076.55
614.35	1075.20
614.70	1073.35
615.05	1072.50
615.39	1071.01
615.74	1072.62
616.09	1075.76
616.43	1076.74
616.78	1077.30
617.13	1077.09
617.47	1075.08
617.82	1075.05
618.17	1073.23
618.51	1074.28
618.86	1075.55
619.21	1075.38
619.55	1077.82
619.90	1081.40
620.25	1081.44
620.59	1080.67
620.94	1082.15
621.29	1080.20
621.63	1078.40
621.98	1075.36
622.32	1074.10
622.67	1074.68
623.02	1074.12
623.36	1075.66
623.71	1078.64
624.05	1081.12
624.40	1082.38
624.75	1082.85
625.09	1078.00
625.44	1076.72
625.78	1073.84
626.13	1072.69
626.48	1073.09
626.82	1075.22
627.17	1074.05
627.51	1075.87
627.86	1072.88
628.20	1072.57
628.55	1072.22
628.89	1074.03
629.24	1075.92
629.58	1077.00
629.93	1076.65
630.28	1077.07
630.62	1075.24
630.97	1074.21
631.31	1077.37
631.66	1074.61
632.00	1076.32
632.35	1078.71
632.69	1075.24
633.04	1070.14
633.38	1072.13
633.73	1070.16
634.07	1069.41
634.42	1072.76
634.76	1074.77
635.11	1071.43
635.45	1072.88
635.79	1073.07
636.14	1073.53
636.48	1073.21
636.83	1078.21
637.17	1075.99
637.52	1074.24
637.86	1075.50
638.21	1075.90
638.55	1072.69
638.89	1074.56
639.24	1080.16
639.58	1078.71
639.93	1080.06
640.27	1080.60
640.61	1079.95
640.96	1077.23
641.30	1074.75
641.65	1075.20
641.99	1078.12
642.33	1078.07
642.68	1076.97
643.02	1079.62
643.37	1078.05
643.71	1076.18
644.05	1076.41
644.40	1075.97
644.74	1078.05
645.08	1080.56
645.43	1079.50
645.77	1081.94
646.11	1082.22
646.46	1076.11
646.80	1073.84
647.14	1075.27
647.49	1072.85
647.83	1074.56
648.17	1080.67
648.52	1079.81
648.86	1079.90
649.20	1077.33
649.55	1077.25
649.89	1072.62
650.23	1073.84
650.57	1073.35
650.92	1075.94
651.26	1072.27
651.60	1071.61
651.95	1069.55
652.29	1070.19
652.63	1070.02
652.97	1071.01
653.32	1071.80
653.66	1072.08
654.00	1076.01
654.34	1075.03
654.69	1074.87
655.03	1075.43
655.37	1075.29
655.71	1072.04
656.05	1074.63
656.40	1075.66
656.74	1076.23
657.08	1082.12
657.42	1080.30
657.76	1078.14
658.11	1077.68
658.45	1075.94
658.79	1072.88
659.13	1074.42
659.47	1074.49
659.82	1077.11
660.16	1080.70
660.50	1080.46
660.84	1076.58
661.18	1077.82
661.52	1073.88
661.87	1072.57
662.21	1071.52
662.55	1074.73
662.89	1072.64
663.23	1072.55
663.57	1072.08
663.91	1071.97
664.25	1070.26
664.60	1070.65
664.94	1073.04
665.28	1073.98
665.62	1076.90
665.96	1080.39
666.30	1081.56
666.64	1079.50
666.98	1076.46
667.32	1076.13
667.66	1073.16
668.01	1072.50
668.35	1072.27
668.69	1072.74
669.03	1069.95
669.37	1069.30
669.71	1068.55
670.05	1069.62
670.39	1069.65
670.73	1073.32
671.07	1072.50
671.41	1072.78
671.75	1076.20
672.09	1078.50
672.43	1076.20
672.77	1080.23
673.11	1077.35
673.45	1073.79
673.79	1071.99
674.13	1069.41
674.47	1070.65
674.81	1074.47
675.15	1074.68
675.49	1072.85
675.83	1075.71
676.17	1074.49
676.51	1072.78
676.85	1071.97
677.19	1073.02
677.53	1071.36
677.87	1071.19
678.21	1072.11
678.55	1074.49
678.89	1076.72
679.23	1078.82
679.57	1076.30
679.90	1075.36
680.24	1074.98
680.58	1074.96
680.92	1075.22
681.26	1076.23
681.60	1077.89
681.94	1076.65
682.28	1075.01
682.62	1074.31
682.96	1073.35
683.29	1072.74
683.63	1070.98
683.97	1071.73
684.31	1066.91
684.65	1068.29
684.99	1069.25
685.33	1071.50
685.67	1071.22
686.00	1074.80
686.34	1073.04
686.68	1074.96
687.02	1076.69
687.36	1077.04
687.70	1080.23
688.03	1083.76
688.37	1079.24
688.71	1077.93
689.05	1080.04
689.39	1076.15
689.72	1074.66
690.06	1075.24
690.40	1071.87
690.74	1069.44
691.08	1072.15
691.41	1070.84
691.75	1071.90
692.09	1075.92
692.43	1072.60
692.76	1069.34
693.10	1073.16
693.44	1072.08
693.78	1074.82
694.11	1077.77
694.45	1076.76
694.79	1073.60
695.13	1074.26
695.46	1068.10
695.80	1068.97
696.14	1069.79
696.48	1069.62
696.81	1070.54
697.15	1073.63
697.49	1074.45
697.82	1074.61
698.16	1072.88
698.50	1073.00
698.83	1071.03
699.17	1068.24
699.51	1068.50
699.84	1070.87
700.18	1069.81
700.52	1070.33
700.85	1069.81
701.19	1071.19
701.53	1070.12
701.86	1072.50
702.20	1074.59
702.54	1076.27
702.87	1077.58
703.21	1078.89
703.55	1079.83
703.88	1079.57
704.22	1080.51
704.55	1077.37
704.89	1077.49
705.23	1073.58
705.56	1074.35
705.90	1072.81
706.23	1074.00
706.57	1075.27
706.91	1078.05
707.24	1076.20
707.58	1078.38
707.91	1077.84
708.25	1076.79
708.58	1074.33
708.92	1074.94
709.26	1073.60
709.59	1073.07
709.93	1070.80
710.26	1075.48
710.60	1072.62
710.93	1071.99
711.27	1072.15
711.60	1075.03
711.94	1073.49
712.27	1074.75
712.61	1078.43
712.94	1079.53
713.28	1080.67
713.61	1079.92
713.95	1083.11
714.28	1079.50
714.62	1078.73
714.95	1074.96
715.29	1075.24
715.62	1073.86
715.96	1075.38
716.29	1076.30
716.63	1079.06
716.96	1076.18
717.29	1075.76
717.63	1076.67
717.96	1078.64
718.30	1077.65
718.63	1077.98
718.97	1077.77
719.30	1075.13
719.63	1072.85
719.97	1071.85
720.30	1073.14
720.64	1074.59
720.97	1077.21
721.30	1077.77
721.64	1078.54
721.97	1078.52
722.31	1076.83
722.64	1075.76
722.97	1076.55
723.31	1078.59
723.64	1077.44
723.97	1075.76
724.31	1074.80
724.64	1073.16
724.98	1069.62
725.31	1072.06
725.64	1074.19
725.98	1076.76
726.31	1077.77
726.64	1078.61
726.97	1078.36
727.31	1080.60
727.64	1078.66
727.97	1074.84
728.31	1077.18
728.64	1076.86
728.97	1074.82
729.31	1074.17
729.64	1076.60
729.97	1071.68
730.30	1068.52
730.64	1070.80
730.97	1071.50
731.30	1071.94
731.63	1075.24
731.97	1074.47
732.30	1071.94
732.63	1069.88
732.96	1067.49
733.30	1067.94
733.63	1072.69
733.96	1074.77
734.29	1076.04
734.63	1080.44
734.96	1079.10
735.29	1077.72
735.62	1076.01
735.95	1078.10
736.29	1076.60
736.62	1077.63
736.95	1075.34
737.28	1073.11
737.61	1074.00
737.94	1075.22
738.28	1072.64
738.61	1075.85
738.94	1077.98
739.27	1076.37
739.60	1074.91
739.93	1078.12
740.27	1078.45
740.60	1076.48
740.93	1076.62
741.26	1074.56
741.59	1071.24
741.92	1067.00
742.25	1070.68
742.58	1070.68
742.91	1071.59
743.25	1073.77
743.58	1077.07
743.91	1074.59
744.24	1073.98
744.57	1074.47
744.90	1075.01
745.23	1072.95
745.56	1073.77
745.89	1076.11
746.22	1077.00
746.55	1076.34
746.88	1077.16
747.21	1075.38
747.54	1072.25
747.87	1068.90
748.20	1068.97
748.53	1071.52
748.87	1071.47
749.20	1071.22
749.53	1076.32
749.86	1075.66
750.19	1074.05
750.52	1073.77
750.85	1074.77
751.18	1075.27
751.51	1077.82
751.84	1076.76
752.16	1077.96
752.49	1079.50
752.82	1076.51
753.15	1076.18
753.48	1073.67
753.81	1074.10
754.14	1074.17
754.47	1075.31
754.80	1070.82
755.13	1075.38
755.46	1074.28
755.79	1071.33
756.12	1073.04
756.45	1077.98
756.78	1075.76
757.11	1075.43
757.43	1077.82
757.76	1077.54
758.09	1074.94
758.42	1077.44
758.75	1078.92
759.08	1075.27
759.41	1073.42
759.74	1073.07
760.07	1070.80
760.39	1070.16
760.72	1073.21
761.05	1074.56
761.38	1078.17
761.71	1080.20
762.04	1084.00
762.36	1084.02
762.69	1084.07
763.02	1084.11
763.35	1080.84
763.68	1077.02
764.01	1076.37
764.33	1074.12
764.66	1070.00
764.99	1073.72
765.32	1074.26
765.65	1074.59
765.97	1073.79
766.30	1073.67
