SpectraSuite Data File
++++++++++++++++++++++++++++++++++++
Date: Mon Aug 26 10:21:53 PDT 2019
User: corrico
Dark Spectrum Present: No
Reference Spectrum Present: No
Number of Sampled Component Spectra: 1
Spectrometers: USB2+H06089
Integration Time (usec): 2000 (USB2+H06089)
Spectra Averaged: 20 (USB2+H06089)
Boxcar Smoothing: 2 (USB2+H06089)
Correct for Electrical Dark: No (USB2+H06089)
Strobe/Lamp Enabled: No (USB2+H06089)
Correct for Detector Non-linearity: No (USB2+H06089)
Correct for Stray Light: No (USB2+H06089)
Number of Pixels in Processed Spectrum: 2048
>>>>>Begin Processed Spectral Data<<<<<
339.70	1017.66
340.07	1017.66
340.45	982.84
340.82	961.19
341.19	940.19
341.57	914.40
341.94	906.09
342.31	897.06
342.69	894.69
343.06	890.67
343.43	892.94
343.81	892.05
344.18	899.21
344.55	902.28
344.93	910.12
345.30	911.76
345.67	921.80
346.04	927.51
346.42	936.57
346.79	942.58
347.16	955.41
347.54	963.39
347.91	967.74
348.28	976.35
348.65	983.54
349.03	993.11
349.40	1000.23
349.77	1012.77
350.14	1020.26
350.52	1025.90
350.89	1030.91
351.26	1037.72
351.63	1041.21
352.01	1044.14
352.38	1051.53
352.75	1053.50
353.12	1054.76
353.50	1059.51
353.87	1065.20
354.24	1067.05
354.61	1069.20
354.98	1073.91
355.36	1073.49
355.73	1073.65
356.10	1072.67
356.47	1076.37
356.84	1075.62
357.22	1076.48
357.59	1076.13
357.96	1078.71
358.33	1075.99
358.70	1074.84
359.08	1073.37
359.45	1073.32
359.82	1071.15
360.19	1070.19
360.56	1072.48
360.94	1074.26
361.31	1071.17
361.68	1070.02
362.05	1069.67
362.42	1068.55
362.79	1069.30
363.16	1067.71
363.54	1065.44
363.91	1061.92
364.28	1056.71
364.65	1053.85
365.02	1055.37
365.39	1058.79
365.76	1059.12
366.14	1061.04
366.51	1063.40
366.88	1063.45
367.25	1062.46
367.62	1063.59
367.99	1064.69
368.36	1063.12
368.73	1063.21
369.10	1064.73
369.48	1066.63
369.85	1067.10
370.22	1065.69
370.59	1065.29
370.96	1061.74
371.33	1060.87
371.70	1060.94
372.07	1062.88
372.44	1062.09
372.81	1064.22
373.18	1070.80
373.55	1069.91
373.93	1066.47
374.30	1069.09
374.67	1067.40
375.04	1061.67
375.41	1061.46
375.78	1063.47
376.15	1059.49
376.52	1062.81
376.89	1064.36
377.26	1064.59
377.63	1064.29
378.00	1065.95
378.37	1062.88
378.74	1062.53
379.11	1062.56
379.48	1064.19
379.85	1063.14
380.22	1064.26
380.59	1064.15
380.96	1065.90
381.33	1064.99
381.70	1069.30
382.07	1071.24
382.44	1071.47
382.81	1070.68
383.18	1071.52
383.55	1068.95
383.92	1067.68
384.29	1067.59
384.66	1067.05
385.03	1065.15
385.40	1066.37
385.77	1067.35
386.14	1068.71
386.51	1070.00
386.88	1073.32
387.25	1074.00
387.62	1072.20
387.99	1070.70
388.36	1070.70
388.73	1072.50
389.10	1071.12
389.46	1073.53
389.83	1073.32
390.20	1071.73
390.57	1071.61
390.94	1071.03
391.31	1072.57
391.68	1074.24
392.05	1077.16
392.42	1074.35
392.79	1079.29
393.16	1076.58
393.53	1075.52
393.89	1073.79
394.26	1075.97
394.63	1069.81
395.00	1070.65
395.37	1070.65
395.74	1069.67
396.11	1068.48
396.48	1069.74
396.84	1071.26
397.21	1069.70
397.58	1069.93
397.95	1069.32
398.32	1069.60
398.69	1068.17
399.06	1069.70
399.42	1069.39
399.79	1069.30
400.16	1070.91
400.53	1072.20
400.90	1070.72
401.27	1073.35
401.64	1074.28
402.00	1073.35
402.37	1069.70
402.74	1075.20
403.11	1076.20
403.48	1074.12
403.84	1073.37
404.21	1074.35
404.58	1073.42
404.95	1070.54
405.32	1074.98
405.68	1075.43
406.05	1076.15
406.42	1074.80
406.79	1073.18
407.16	1068.29
407.52	1068.74
407.89	1067.12
408.26	1067.03
408.63	1067.64
408.99	1070.96
409.36	1070.94
409.73	1070.80
410.10	1071.45
410.47	1070.44
410.83	1071.40
411.20	1072.78
411.57	1074.38
411.94	1073.70
412.30	1077.25
412.67	1076.18
413.04	1075.22
413.40	1074.94
413.77	1073.63
414.14	1070.68
414.51	1070.54
414.87	1074.38
415.24	1075.52
415.61	1078.28
415.97	1081.58
416.34	1079.34
416.71	1077.02
417.08	1076.01
417.44	1074.63
417.81	1073.32
418.18	1076.88
418.54	1075.03
418.91	1076.01
419.28	1073.42
419.64	1075.64
420.01	1075.38
420.38	1078.19
420.74	1075.17
421.11	1077.86
421.48	1077.89
421.84	1076.93
422.21	1074.75
422.58	1077.98
422.94	1082.24
423.31	1080.98
423.68	1081.12
424.04	1079.85
424.41	1082.54
424.77	1079.41
425.14	1082.69
425.51	1082.71
425.87	1085.68
426.24	1083.55
426.61	1083.88
426.97	1084.28
427.34	1088.21
427.70	1090.43
428.07	1090.71
428.44	1090.27
428.80	1089.96
429.17	1088.30
429.53	1089.71
429.90	1092.30
430.27	1092.26
430.63	1092.07
431.00	1090.10
431.36	1090.08
431.73	1092.09
432.09	1093.62
432.46	1097.88
432.83	1102.77
433.19	1106.49
433.56	1106.35
433.92	1112.97
434.29	1115.36
434.65	1115.55
435.02	1114.00
435.38	1119.45
435.75	1121.02
436.11	1123.48
436.48	1130.50
436.84	1138.13
437.21	1139.14
437.57	1141.90
437.94	1144.19
438.30	1149.60
438.67	1152.36
439.03	1163.90
439.40	1168.98
439.76	1174.57
440.13	1181.24
440.49	1189.51
440.86	1190.35
441.22	1199.92
441.59	1210.45
441.95	1217.71
442.32	1225.50
442.68	1237.68
443.05	1246.62
443.41	1255.21
443.78	1266.37
444.14	1276.57
444.51	1288.96
444.87	1304.15
445.24	1316.36
445.60	1328.82
445.96	1346.18
446.33	1363.10
446.69	1380.68
447.06	1399.24
447.42	1418.83
447.79	1436.46
448.15	1457.85
448.51	1479.45
448.88	1507.63
449.24	1534.41
449.61	1569.17
449.97	1599.55
450.33	1626.77
450.70	1656.02
451.06	1687.43
451.43	1711.00
451.79	1746.27
452.15	1788.50
452.52	1827.93
452.88	1867.63
453.24	1918.19
453.61	1967.48
453.97	2012.30
454.34	2063.53
454.70	2126.14
455.06	2184.40
455.43	2237.22
455.79	2292.88
456.15	2350.76
456.52	2399.63
456.88	2469.80
457.24	2545.64
457.61	2631.28
457.97	2717.76
458.33	2804.85
458.70	2884.59
459.06	2964.31
459.42	3045.62
459.79	3116.47
460.15	3206.14
460.51	3282.11
460.88	3359.30
461.24	3435.74
461.60	3527.21
461.96	3610.86
462.33	3696.43
462.69	3779.59
463.05	3853.27
463.42	3919.27
463.78	3978.21
464.14	4035.22
464.50	4108.53
464.87	4161.99
465.23	4199.83
465.59	4235.06
465.95	4266.40
466.32	4288.73
466.68	4321.89
467.04	4349.60
467.40	4370.51
467.77	4387.40
468.13	4376.05
468.49	4368.33
468.85	4367.51
469.22	4363.93
469.58	4344.67
469.94	4342.40
470.30	4324.94
470.66	4288.28
471.03	4252.59
471.39	4227.41
471.75	4171.33
472.11	4119.23
472.47	4086.13
472.84	4035.15
473.20	3971.94
473.56	3934.14
473.92	3889.01
474.28	3842.06
474.65	3809.27
475.01	3770.81
475.37	3718.64
475.73	3669.19
476.09	3619.57
476.45	3561.17
476.81	3508.04
477.18	3465.51
477.54	3432.44
477.90	3392.75
478.26	3346.80
478.62	3312.84
478.98	3276.38
479.34	3241.64
479.71	3203.56
480.07	3172.71
480.43	3149.21
480.79	3116.28
481.15	3084.43
481.51	3056.86
481.87	3033.59
482.23	3001.22
482.59	2979.97
482.96	2945.35
483.32	2920.08
483.68	2892.13
484.04	2872.14
484.40	2841.27
484.76	2818.10
485.12	2786.60
485.48	2757.48
485.84	2721.08
486.20	2687.57
486.56	2651.15
486.92	2615.43
487.28	2579.15
487.64	2545.03
488.00	2513.71
488.37	2483.00
488.73	2453.05
489.09	2419.44
489.45	2388.94
489.81	2349.92
490.17	2315.02
490.53	2277.04
490.89	2242.49
491.25	2202.23
491.61	2169.40
491.97	2136.86
492.33	2116.97
492.69	2092.39
493.05	2069.88
493.41	2045.46
493.77	2018.52
494.13	1985.99
494.49	1958.05
494.85	1930.24
495.21	1906.95
495.57	1882.09
495.93	1858.22
496.29	1832.34
496.64	1804.41
497.00	1777.75
497.36	1755.75
497.72	1736.49
498.08	1721.93
498.44	1708.73
498.80	1693.45
499.16	1680.48
499.52	1663.35
499.88	1646.33
500.24	1633.90
500.60	1620.98
500.96	1602.66
501.32	1586.09
501.68	1569.54
502.03	1552.52
502.39	1537.87
502.75	1526.90
503.11	1515.03
503.47	1504.47
503.83	1491.69
504.19	1481.07
504.55	1468.41
504.91	1457.59
505.26	1444.67
505.62	1432.52
505.98	1413.38
506.34	1402.87
506.70	1394.66
507.06	1385.55
507.42	1376.21
507.78	1374.32
508.13	1362.00
508.49	1349.53
508.85	1339.61
509.21	1329.35
509.57	1319.10
509.93	1310.96
510.28	1301.34
510.64	1293.89
511.00	1291.27
511.36	1284.37
511.72	1281.86
512.07	1280.58
512.43	1273.37
512.79	1264.99
513.15	1257.76
513.51	1250.71
513.86	1240.98
514.22	1236.86
514.58	1226.86
514.94	1221.83
515.30	1215.65
515.65	1208.42
516.01	1205.49
516.37	1204.23
516.73	1199.57
517.08	1198.17
517.44	1197.32
517.80	1194.28
518.16	1191.54
518.51	1187.05
518.87	1180.05
519.23	1177.24
519.59	1171.77
519.94	1165.28
520.30	1163.53
520.66	1161.82
521.01	1160.04
521.37	1156.29
521.73	1156.29
522.09	1152.85
522.44	1152.43
522.80	1149.98
523.16	1147.99
523.51	1144.12
523.87	1140.17
524.23	1137.57
524.58	1134.50
524.94	1131.67
525.30	1130.69
525.65	1133.43
526.01	1131.13
526.37	1130.71
526.72	1130.46
527.08	1129.24
527.44	1126.62
527.79	1123.86
528.15	1120.41
528.51	1120.93
528.86	1119.43
529.22	1119.85
529.58	1120.16
529.93	1116.83
530.29	1113.44
530.65	1115.71
531.00	1113.21
531.36	1109.77
531.71	1109.11
532.07	1107.75
532.43	1106.25
532.78	1102.37
533.14	1101.29
533.49	1101.03
533.85	1101.48
534.21	1098.48
534.56	1099.33
534.92	1100.38
535.27	1102.44
535.63	1101.15
535.98	1098.34
536.34	1100.68
536.69	1100.38
537.05	1097.97
537.41	1096.40
537.76	1098.39
538.12	1095.72
538.47	1095.65
538.83	1097.64
539.18	1098.02
539.54	1097.27
539.89	1097.03
540.25	1096.40
540.60	1093.52
540.96	1094.43
541.31	1092.89
541.67	1094.43
542.02	1092.73
542.38	1092.63
542.73	1092.42
543.09	1091.63
543.44	1088.44
543.80	1088.93
544.15	1089.61
544.51	1088.28
544.86	1089.73
545.22	1089.40
545.57	1091.58
545.93	1088.70
546.28	1086.15
546.64	1082.94
546.99	1081.84
547.35	1077.47
547.70	1080.60
548.05	1080.32
548.41	1081.51
548.76	1083.06
549.12	1085.14
549.47	1085.00
549.83	1085.24
550.18	1085.42
550.53	1083.88
550.89	1080.51
551.24	1078.38
551.60	1079.24
551.95	1078.99
552.30	1076.06
552.66	1079.15
553.01	1076.90
553.37	1079.97
553.72	1080.98
554.07	1083.18
554.43	1083.74
554.78	1084.23
555.13	1082.40
555.49	1079.38
555.84	1077.16
556.19	1074.73
556.55	1075.55
556.90	1074.82
557.26	1077.58
557.61	1079.46
557.96	1075.87
558.32	1076.06
558.67	1075.69
559.02	1076.06
559.37	1078.26
559.73	1080.09
560.08	1079.60
560.43	1077.42
560.79	1077.68
561.14	1074.80
561.49	1075.50
561.85	1075.71
562.20	1077.96
562.55	1074.73
562.90	1076.69
563.26	1078.64
563.61	1078.12
563.96	1077.77
564.32	1079.64
564.67	1078.75
565.02	1077.51
565.37	1079.34
565.73	1079.27
566.08	1080.30
566.43	1078.40
566.78	1079.92
567.14	1074.42
567.49	1073.42
567.84	1072.48
568.19	1071.54
568.54	1071.45
568.90	1076.20
569.25	1076.60
569.60	1073.60
569.95	1076.25
570.31	1074.24
570.66	1074.63
571.01	1071.90
571.36	1072.76
571.71	1074.05
572.06	1073.42
572.42	1070.87
572.77	1071.87
573.12	1074.77
573.47	1076.48
573.82	1077.02
574.18	1075.05
574.53	1075.99
574.88	1074.73
575.23	1072.04
575.58	1071.22
575.93	1072.92
576.28	1072.57
576.64	1071.33
576.99	1073.30
577.34	1074.84
577.69	1075.97
578.04	1077.07
578.39	1077.33
578.74	1075.62
579.09	1075.55
579.44	1075.99
579.80	1075.22
580.15	1074.70
580.50	1072.67
580.85	1069.25
581.20	1065.04
581.55	1065.83
581.90	1065.39
582.25	1066.91
582.60	1070.12
582.95	1072.36
583.30	1070.96
583.65	1070.61
584.00	1073.07
584.35	1073.39
584.71	1073.60
585.06	1075.41
585.41	1075.24
585.76	1071.33
586.11	1070.21
586.46	1069.37
586.81	1069.84
587.16	1072.50
587.51	1075.90
587.86	1077.98
588.21	1083.74
588.56	1085.10
588.91	1082.52
589.26	1080.11
589.61	1078.64
589.96	1072.92
590.31	1067.68
590.66	1069.23
591.01	1067.96
591.36	1065.22
591.71	1068.78
592.06	1071.31
592.41	1070.68
592.76	1074.07
593.10	1073.84
593.45	1073.67
593.80	1073.35
594.15	1075.08
594.50	1072.97
594.85	1077.21
595.20	1077.07
595.55	1078.38
595.90	1076.37
596.25	1079.71
596.60	1078.82
596.95	1076.06
597.30	1073.46
597.64	1084.67
597.99	1082.69
598.34	1079.81
598.69	1081.51
599.04	1085.47
599.39	1077.51
599.74	1078.36
600.09	1082.69
600.44	1085.54
600.78	1084.32
601.13	1079.41
601.48	1079.03
601.83	1077.42
602.18	1076.30
602.53	1074.91
602.88	1080.86
603.22	1078.73
603.57	1079.01
603.92	1079.50
604.27	1079.46
604.62	1075.27
604.97	1073.16
605.31	1071.22
605.66	1068.52
606.01	1068.90
606.36	1067.78
606.71	1072.25
607.05	1074.77
607.40	1073.91
607.75	1074.49
608.10	1073.35
608.44	1071.92
608.79	1071.87
609.14	1071.99
609.49	1073.65
609.84	1077.16
610.18	1078.80
610.53	1077.72
610.88	1076.88
611.23	1075.55
611.57	1076.55
611.92	1074.35
612.27	1076.55
612.62	1075.76
612.96	1076.15
613.31	1074.70
613.66	1072.69
614.00	1071.40
614.35	1074.42
614.70	1075.13
615.05	1077.33
615.39	1083.13
615.74	1080.93
616.09	1081.98
616.43	1079.97
616.78	1075.50
617.13	1071.33
617.47	1071.59
617.82	1070.49
618.17	1068.01
618.51	1071.90
618.86	1072.60
619.21	1072.62
619.55	1070.72
619.90	1074.54
620.25	1073.30
620.59	1073.70
620.94	1075.55
621.29	1077.28
621.63	1075.87
621.98	1074.26
622.32	1076.25
622.67	1075.59
623.02	1075.92
623.36	1077.79
623.71	1078.54
624.05	1078.00
624.40	1079.55
624.75	1079.13
625.09	1075.94
625.44	1076.93
625.78	1073.02
626.13	1073.39
626.48	1076.44
626.82	1075.71
627.17	1073.60
627.51	1073.30
627.86	1071.59
628.20	1069.48
628.55	1071.94
628.89	1071.24
629.24	1072.92
629.58	1073.86
629.93	1076.86
630.28	1076.06
630.62	1078.43
630.97	1080.06
631.31	1079.83
631.66	1078.19
632.00	1080.67
632.35	1081.33
632.69	1079.57
633.04	1077.18
633.38	1072.67
633.73	1067.21
634.07	1067.54
634.42	1068.81
634.76	1068.41
635.11	1073.53
635.45	1078.82
635.79	1081.47
636.14	1080.60
636.48	1082.36
636.83	1078.71
637.17	1077.84
637.52	1070.89
637.86	1070.89
638.21	1070.68
638.55	1070.98
638.89	1067.17
639.24	1071.78
639.58	1071.64
639.93	1072.85
640.27	1075.92
640.61	1077.00
640.96	1078.52
641.30	1079.08
641.65	1074.87
641.99	1071.12
642.33	1070.72
642.68	1068.48
643.02	1069.16
643.37	1070.37
643.71	1072.76
644.05	1075.59
644.40	1075.10
644.74	1076.62
645.08	1078.64
645.43	1079.64
645.77	1079.38
646.11	1079.50
646.46	1075.97
646.80	1075.55
647.14	1076.55
647.49	1076.15
647.83	1076.20
648.17	1076.97
648.52	1078.61
648.86	1079.38
649.20	1082.59
649.55	1087.16
649.89	1088.65
650.23	1087.76
650.57	1084.56
650.92	1080.95
651.26	1077.49
651.60	1074.70
651.95	1075.55
652.29	1072.06
652.63	1073.74
652.97	1072.25
653.32	1073.63
653.66	1073.84
654.00	1077.51
654.34	1075.85
654.69	1076.32
655.03	1080.34
655.37	1079.22
655.71	1079.24
656.05	1079.34
656.40	1080.60
656.74	1075.69
657.08	1074.54
657.42	1072.06
657.76	1073.16
658.11	1071.12
658.45	1070.63
658.79	1072.13
659.13	1073.23
659.47	1072.11
659.82	1071.85
660.16	1074.07
660.50	1075.50
660.84	1075.45
661.18	1077.77
661.52	1078.80
661.87	1078.87
662.21	1078.36
662.55	1076.79
662.89	1075.48
663.23	1076.60
663.57	1076.72
663.91	1072.50
664.25	1077.21
664.60	1077.79
664.94	1076.34
665.28	1075.62
665.62	1078.78
665.96	1075.73
666.30	1073.23
666.64	1071.03
666.98	1071.71
667.32	1073.42
667.66	1073.07
668.01	1074.70
668.35	1076.83
668.69	1077.18
669.03	1073.25
669.37	1074.03
669.71	1070.42
670.05	1070.70
670.39	1069.70
670.73	1071.01
671.07	1070.44
671.41	1071.26
671.75	1070.26
672.09	1069.18
672.43	1072.18
672.77	1070.51
673.11	1070.28
673.45	1072.06
673.79	1071.82
674.13	1070.68
674.47	1073.49
674.81	1075.50
675.15	1073.37
675.49	1074.38
675.83	1072.62
676.17	1073.86
676.51	1074.63
676.85	1074.54
677.19	1075.97
677.53	1073.60
677.87	1069.09
678.21	1069.25
678.55	1071.05
678.89	1071.45
679.23	1072.41
679.57	1073.51
679.90	1074.59
680.24	1075.41
680.58	1072.41
680.92	1073.95
681.26	1074.84
681.60	1072.18
681.94	1070.37
682.28	1071.47
682.62	1075.69
682.96	1075.59
683.29	1076.06
683.63	1077.65
683.97	1078.92
684.31	1071.75
684.65	1073.07
684.99	1072.50
685.33	1072.20
685.67	1072.60
686.00	1075.85
686.34	1074.49
686.68	1077.11
687.02	1077.35
687.36	1074.33
687.70	1072.39
688.03	1070.54
688.37	1066.93
688.71	1063.14
689.05	1064.76
689.39	1065.34
689.72	1068.01
690.06	1072.22
690.40	1073.07
690.74	1071.52
691.08	1072.25
691.41	1073.51
691.75	1072.69
692.09	1076.30
692.43	1075.69
692.76	1074.82
693.10	1074.54
693.44	1074.70
693.78	1072.11
694.11	1072.95
694.45	1075.17
694.79	1072.60
695.13	1072.15
695.46	1073.37
695.80	1074.70
696.14	1072.39
696.48	1071.38
696.81	1068.01
697.15	1066.49
697.49	1062.67
697.82	1063.21
698.16	1067.38
698.50	1069.81
698.83	1071.59
699.17	1073.81
699.51	1076.32
699.84	1073.53
700.18	1072.95
700.52	1072.20
700.85	1075.22
701.19	1074.19
701.53	1072.71
701.86	1074.84
702.20	1073.00
702.54	1068.03
702.87	1067.59
703.21	1070.72
703.55	1068.92
703.88	1069.84
704.22	1075.22
704.55	1072.85
704.89	1072.50
705.23	1073.04
705.56	1073.02
705.90	1071.99
706.23	1074.68
706.57	1074.80
706.91	1073.18
707.24	1072.25
707.58	1072.71
707.91	1072.97
708.25	1073.93
708.58	1074.12
708.92	1075.97
709.26	1072.43
709.59	1071.33
709.93	1072.13
710.26	1070.49
710.60	1067.03
710.93	1067.35
711.27	1069.37
711.60	1066.51
711.94	1072.11
712.27	1076.46
712.61	1079.85
712.94	1077.75
713.28	1079.29
713.61	1074.12
713.95	1072.50
714.28	1070.19
714.62	1067.03
714.95	1064.69
715.29	1070.54
715.62	1071.66
715.96	1073.49
716.29	1075.13
716.63	1078.17
716.96	1076.62
717.29	1074.80
717.63	1076.44
717.96	1077.89
718.30	1076.69
718.63	1074.47
718.97	1073.14
719.30	1069.04
719.63	1071.68
719.97	1071.80
720.30	1073.60
720.64	1075.78
720.97	1079.69
721.30	1076.20
721.64	1075.24
721.97	1074.21
722.31	1073.72
722.64	1074.42
722.97	1075.17
723.31	1073.07
723.64	1071.75
723.97	1070.40
724.31	1070.84
724.64	1074.47
724.98	1078.66
725.31	1077.58
725.64	1079.08
725.98	1073.39
726.31	1070.23
726.64	1069.41
726.97	1073.98
727.31	1073.60
727.64	1074.84
727.97	1072.71
728.31	1070.72
728.64	1070.28
728.97	1073.86
729.31	1075.85
729.64	1079.43
729.97	1081.12
730.30	1079.99
730.64	1077.35
730.97	1076.27
731.30	1077.65
731.63	1074.17
731.97	1074.80
732.30	1076.86
732.63	1076.23
732.96	1075.55
733.30	1078.05
733.63	1076.60
733.96	1074.17
734.29	1075.73
734.63	1074.59
734.96	1072.95
735.29	1072.92
735.62	1072.15
735.95	1072.67
736.29	1071.17
736.62	1074.75
736.95	1074.77
737.28	1078.94
737.61	1082.97
737.94	1083.01
738.28	1082.90
738.61	1083.43
738.94	1080.74
739.27	1075.69
739.60	1072.83
739.93	1069.06
740.27	1064.62
740.60	1065.18
740.93	1064.97
741.26	1070.58
741.59	1073.49
741.92	1076.90
742.25	1077.14
742.58	1077.21
742.91	1075.57
743.25	1076.01
743.58	1076.55
743.91	1078.36
744.24	1080.23
744.57	1080.88
744.90	1080.81
745.23	1082.19
745.56	1077.79
745.89	1073.56
746.22	1070.96
746.55	1073.21
746.88	1074.80
747.21	1075.71
747.54	1076.11
747.87	1075.10
748.20	1072.74
748.53	1068.27
748.87	1069.39
749.20	1070.87
749.53	1071.75
749.86	1069.70
750.19	1069.67
750.52	1070.58
750.85	1070.40
751.18	1072.74
751.51	1074.24
751.84	1073.21
752.16	1072.11
752.49	1074.42
752.82	1074.61
753.15	1074.66
753.48	1076.79
753.81	1074.84
754.14	1073.88
754.47	1073.72
754.80	1071.92
755.13	1073.81
755.46	1075.41
755.79	1075.43
756.12	1075.57
756.45	1079.10
756.78	1077.04
757.11	1076.53
757.43	1076.67
757.76	1075.01
758.09	1072.78
758.42	1071.40
758.75	1072.64
759.08	1069.86
759.41	1070.07
759.74	1071.66
760.07	1074.89
760.39	1076.13
760.72	1078.92
761.05	1080.56
761.38	1078.19
761.71	1076.53
762.04	1072.15
762.36	1071.61
762.69	1072.01
763.02	1070.84
763.35	1072.01
763.68	1075.03
764.01	1073.70
764.33	1071.75
764.66	1073.95
764.99	1072.46
765.32	1073.93
765.65	1073.72
765.97	1070.89
766.30	1069.60
