SpectraSuite Data File
++++++++++++++++++++++++++++++++++++
Date: Mon Aug 26 10:22:30 PDT 2019
User: corrico
Dark Spectrum Present: No
Reference Spectrum Present: No
Number of Sampled Component Spectra: 1
Spectrometers: USB2+H06089
Integration Time (usec): 2000 (USB2+H06089)
Spectra Averaged: 20 (USB2+H06089)
Boxcar Smoothing: 2 (USB2+H06089)
Correct for Electrical Dark: No (USB2+H06089)
Strobe/Lamp Enabled: No (USB2+H06089)
Correct for Detector Non-linearity: No (USB2+H06089)
Correct for Stray Light: No (USB2+H06089)
Number of Pixels in Processed Spectrum: 2048
>>>>>Begin Processed Spectral Data<<<<<
339.70	1022.11
340.07	1022.11
340.45	994.05
340.82	969.96
341.19	944.99
341.57	919.99
341.94	906.68
342.31	892.47
342.69	892.21
343.06	892.42
343.43	891.79
343.81	894.48
344.18	900.47
344.55	902.42
344.93	910.07
345.30	918.94
345.67	926.69
346.04	934.74
346.42	946.75
346.79	954.49
347.16	961.00
347.54	970.95
347.91	979.87
348.28	987.96
348.65	995.87
349.03	1006.95
349.40	1012.09
349.77	1022.93
350.14	1029.37
350.52	1035.87
350.89	1041.59
351.26	1051.67
351.63	1054.79
352.01	1060.40
352.38	1065.08
352.75	1069.13
353.12	1069.60
353.50	1072.55
353.87	1074.61
354.24	1076.20
354.61	1076.41
354.98	1079.69
355.36	1080.02
355.73	1080.25
356.10	1081.14
356.47	1084.39
356.84	1082.94
357.22	1083.71
357.59	1084.86
357.96	1085.12
358.33	1081.49
358.70	1081.82
359.08	1079.17
359.45	1078.68
359.82	1077.16
360.19	1076.58
360.56	1075.31
360.94	1076.83
361.31	1074.59
361.68	1077.33
362.05	1077.77
362.42	1079.43
362.79	1076.86
363.16	1081.84
363.54	1077.72
363.91	1080.11
364.28	1078.75
364.65	1079.74
365.02	1074.59
365.39	1076.67
365.76	1075.83
366.14	1077.18
366.51	1078.40
366.88	1076.97
367.25	1076.81
367.62	1075.10
367.99	1075.64
368.36	1077.54
368.73	1079.20
369.10	1078.66
369.48	1078.45
369.85	1077.58
370.22	1074.17
370.59	1076.08
370.96	1073.51
371.33	1072.57
371.70	1072.29
372.07	1072.85
372.44	1070.82
372.81	1071.90
373.18	1074.38
373.55	1073.49
373.93	1074.47
374.30	1075.22
374.67	1078.36
375.04	1077.02
375.41	1076.32
375.78	1077.65
376.15	1078.68
376.52	1074.33
376.89	1072.85
377.26	1074.75
377.63	1074.52
378.00	1073.28
378.37	1074.94
378.74	1074.70
379.11	1075.10
379.48	1072.50
379.85	1071.92
380.22	1074.35
380.59	1075.83
380.96	1076.01
381.33	1077.89
381.70	1079.64
382.07	1079.06
382.44	1079.31
382.81	1077.37
383.18	1076.79
383.55	1073.88
383.92	1073.81
384.29	1079.41
384.66	1083.08
385.03	1081.80
385.40	1084.42
385.77	1082.80
386.14	1081.07
386.51	1079.71
386.88	1082.71
387.25	1082.76
387.62	1086.57
387.99	1084.42
388.36	1081.75
388.73	1080.93
389.10	1081.77
389.46	1079.81
389.83	1079.13
390.20	1082.17
390.57	1081.02
390.94	1078.47
391.31	1077.70
391.68	1076.41
392.05	1078.68
392.42	1080.72
392.79	1082.57
393.16	1081.91
393.53	1087.04
393.89	1089.85
394.26	1089.43
394.63	1090.60
395.00	1092.42
395.37	1089.82
395.74	1085.26
396.11	1085.77
396.48	1085.54
396.84	1085.59
397.21	1086.80
397.58	1086.64
397.95	1087.09
398.32	1087.86
398.69	1088.16
399.06	1087.48
399.42	1085.66
399.79	1087.06
400.16	1086.69
400.53	1089.33
400.90	1091.11
401.27	1094.32
401.64	1094.04
402.00	1093.50
402.37	1092.49
402.74	1090.17
403.11	1089.94
403.48	1090.01
403.84	1091.13
404.21	1089.07
404.58	1090.03
404.95	1090.60
405.32	1090.76
405.68	1093.40
406.05	1093.38
406.42	1096.66
406.79	1095.79
407.16	1095.70
407.52	1093.36
407.89	1095.42
408.26	1096.73
408.63	1098.93
408.99	1100.43
409.36	1101.67
409.73	1100.99
410.10	1098.67
410.47	1096.12
410.83	1094.60
411.20	1093.36
411.57	1096.07
411.94	1096.80
412.30	1098.55
412.67	1100.17
413.04	1099.65
413.40	1097.29
413.77	1098.41
414.14	1100.22
414.51	1103.00
414.87	1105.62
415.24	1106.37
415.61	1104.73
415.97	1103.56
416.34	1102.37
416.71	1101.88
417.08	1103.09
417.44	1103.07
417.81	1101.71
418.18	1098.18
418.54	1099.16
418.91	1098.79
419.28	1104.26
419.64	1111.57
420.01	1115.50
420.38	1117.28
420.74	1118.33
421.11	1117.18
421.48	1114.12
421.84	1116.11
422.21	1118.00
422.58	1122.57
422.94	1122.94
423.31	1125.31
423.68	1127.27
424.04	1130.50
424.41	1132.75
424.77	1136.45
425.14	1139.58
425.51	1141.83
425.87	1145.25
426.24	1149.83
426.61	1152.41
426.97	1161.16
427.34	1167.62
427.70	1172.51
428.07	1180.43
428.44	1187.61
428.80	1194.70
429.17	1203.67
429.53	1212.37
429.90	1218.74
430.27	1231.29
430.63	1238.78
431.00	1249.73
431.36	1261.03
431.73	1275.73
432.09	1288.46
432.46	1302.95
432.83	1317.93
433.19	1331.86
433.56	1348.10
433.92	1365.68
434.29	1385.08
434.65	1405.56
435.02	1428.22
435.38	1456.52
435.75	1481.21
436.11	1511.73
436.48	1541.15
436.84	1579.18
437.21	1612.65
437.57	1652.89
437.94	1692.65
438.30	1742.01
438.67	1788.66
439.03	1836.59
439.40	1890.15
439.76	1943.91
440.13	1998.00
440.49	2058.50
440.86	2122.28
441.22	2190.60
441.59	2263.93
441.95	2346.62
442.32	2435.89
442.68	2530.80
443.05	2625.05
443.41	2725.41
443.78	2822.94
444.14	2922.46
444.51	3027.93
444.87	3165.67
445.24	3302.45
445.60	3454.54
445.96	3610.30
446.33	3781.53
446.69	3940.99
447.06	4123.11
447.42	4300.43
447.79	4489.59
448.15	4713.49
448.51	4938.83
448.88	5191.00
449.24	5433.83
449.61	5712.92
449.97	5975.18
450.33	6249.79
450.70	6500.79
451.06	6827.97
451.43	7118.69
451.79	7473.61
452.15	7878.31
452.52	8323.02
452.88	8768.26
453.24	9291.93
453.61	9857.03
453.97	10403.21
454.34	10937.74
454.70	11578.68
455.06	12217.67
455.43	12837.23
455.79	13429.53
456.15	14143.32
456.52	14782.05
456.88	15536.10
457.24	16243.83
457.61	17077.13
457.97	17824.02
458.33	18583.55
458.70	19327.23
459.06	20085.40
459.42	20897.78
459.79	21655.36
460.15	22533.44
460.51	23383.94
460.88	24286.66
461.24	25071.49
461.60	26041.74
461.96	26898.86
462.33	27703.68
462.69	28469.55
463.05	29311.09
463.42	29981.16
463.78	30624.69
464.14	31172.33
464.50	31753.56
464.87	32190.51
465.23	32528.25
465.59	32879.10
465.95	33202.37
466.32	33448.27
466.68	33674.34
467.04	33810.61
467.40	33950.57
467.77	34085.76
468.13	34107.53
468.49	34039.35
468.85	33993.07
469.22	33823.22
469.58	33481.32
469.94	33208.39
470.30	32893.00
470.66	32479.36
471.03	31904.76
471.39	31530.15
471.75	30911.34
472.11	30328.87
472.47	29972.13
472.84	29669.54
473.20	29197.62
473.56	28924.57
473.92	28512.92
474.28	28008.77
474.65	27502.18
475.01	27030.14
475.37	26466.52
475.73	25990.15
476.09	25466.60
476.45	24960.83
476.81	24436.48
477.18	23916.30
477.54	23483.98
477.90	23128.89
478.26	22733.16
478.62	22398.51
478.98	22123.52
479.34	21791.98
479.71	21391.75
480.07	21043.69
480.43	20700.40
480.79	20310.89
481.15	19964.07
481.51	19653.97
481.87	19397.19
482.23	19120.56
482.59	18866.87
482.96	18595.16
483.32	18315.89
483.68	17948.63
484.04	17601.27
484.40	17249.05
484.76	16897.05
485.12	16538.25
485.48	16235.29
485.84	15899.19
486.20	15546.73
486.56	15191.93
486.92	14882.02
487.28	14528.43
487.64	14179.78
488.00	13852.25
488.37	13534.57
488.73	13190.63
489.09	12845.19
489.45	12534.74
489.81	12224.88
490.17	11939.45
490.53	11659.19
490.89	11375.61
491.25	11070.45
491.61	10775.90
491.97	10449.27
492.33	10116.38
492.69	9820.96
493.05	9541.99
493.41	9253.40
493.77	8994.28
494.13	8749.18
494.49	8511.15
494.85	8273.82
495.21	8065.06
495.57	7853.13
495.93	7653.04
496.29	7447.35
496.64	7266.36
497.00	7074.85
497.36	6879.89
497.72	6690.21
498.08	6515.77
498.44	6342.20
498.80	6178.99
499.16	6025.12
499.52	5884.06
499.88	5756.90
500.24	5638.33
500.60	5521.67
500.96	5413.45
501.32	5292.16
501.68	5165.61
502.03	5034.14
502.39	4902.98
502.75	4767.44
503.11	4643.88
503.47	4528.02
503.83	4406.46
504.19	4297.04
504.55	4196.51
504.91	4098.04
505.26	3999.53
505.62	3921.03
505.98	3828.32
506.34	3738.77
506.70	3657.88
507.06	3577.46
507.42	3494.35
507.78	3419.24
508.13	3346.01
508.49	3270.88
508.85	3202.46
509.21	3131.54
509.57	3060.58
509.93	2991.39
510.28	2923.31
510.64	2851.78
511.00	2785.57
511.36	2727.78
511.72	2677.60
512.07	2625.59
512.43	2579.53
512.79	2529.91
513.15	2485.30
513.51	2434.46
513.86	2390.67
514.22	2350.13
514.58	2311.30
514.94	2274.86
515.30	2241.44
515.65	2206.98
516.01	2173.77
516.37	2143.39
516.73	2115.59
517.08	2092.95
517.44	2065.80
517.80	2036.71
518.16	2012.28
518.51	1985.15
518.87	1952.64
519.23	1924.34
519.59	1897.71
519.94	1870.79
520.30	1845.54
520.66	1822.13
521.01	1802.31
521.37	1784.68
521.73	1768.53
522.09	1748.59
522.44	1730.94
522.80	1708.01
523.16	1687.22
523.51	1662.20
523.87	1642.12
524.23	1622.67
524.58	1605.14
524.94	1592.10
525.30	1573.85
525.65	1556.99
526.01	1537.59
526.37	1525.75
526.72	1509.11
527.08	1498.11
527.44	1485.40
527.79	1477.67
528.15	1466.28
528.51	1449.19
528.86	1437.67
529.22	1428.08
529.58	1413.31
529.93	1400.34
530.29	1392.81
530.65	1381.36
531.00	1370.55
531.36	1364.46
531.71	1356.83
532.07	1347.96
532.43	1338.22
532.78	1331.60
533.14	1320.65
533.49	1314.33
533.85	1311.38
534.21	1306.86
534.56	1300.50
534.92	1298.30
535.27	1292.00
535.63	1284.32
535.98	1282.71
536.34	1273.23
536.69	1265.97
537.05	1260.61
537.41	1252.91
537.76	1245.12
538.12	1244.14
538.47	1243.36
538.83	1237.98
539.18	1236.18
539.54	1235.97
539.89	1230.75
540.25	1224.69
540.60	1221.17
540.96	1218.30
541.31	1210.95
541.67	1209.78
542.02	1205.45
542.38	1201.75
542.73	1196.04
543.09	1193.67
543.44	1189.09
543.80	1185.83
544.15	1186.00
544.51	1186.02
544.86	1184.31
545.22	1181.99
545.57	1182.04
545.93	1180.05
546.28	1176.66
546.64	1173.85
546.99	1171.25
547.35	1167.01
547.70	1157.98
548.05	1159.57
548.41	1157.32
548.76	1155.83
549.12	1154.28
549.47	1156.01
549.83	1150.68
550.18	1144.71
550.53	1143.98
550.89	1141.74
551.24	1140.52
551.60	1139.49
551.95	1141.03
552.30	1141.17
552.66	1139.23
553.01	1139.37
553.37	1137.01
553.72	1136.77
554.07	1133.52
554.43	1134.27
554.78	1131.39
555.13	1129.64
555.49	1129.00
555.84	1126.62
556.19	1126.90
556.55	1123.83
556.90	1123.67
557.26	1121.14
557.61	1120.30
557.96	1117.68
558.32	1119.36
558.67	1118.10
559.02	1120.67
559.37	1118.87
559.73	1117.68
560.08	1115.05
560.43	1113.95
560.79	1114.63
561.14	1115.90
561.49	1117.72
561.85	1118.50
562.20	1118.82
562.55	1115.48
562.90	1112.85
563.26	1110.61
563.61	1111.03
563.96	1111.43
564.32	1109.88
564.67	1111.85
565.02	1110.19
565.37	1108.59
565.73	1107.21
566.08	1102.98
566.43	1099.79
566.78	1098.39
567.14	1097.62
567.49	1095.51
567.84	1101.22
568.19	1104.69
568.54	1103.84
568.90	1106.56
569.25	1105.83
569.60	1103.31
569.95	1101.76
570.31	1102.67
570.66	1098.39
571.01	1099.56
571.36	1100.19
571.71	1097.41
572.06	1093.71
572.42	1093.99
572.77	1094.41
573.12	1092.33
573.47	1095.82
573.82	1101.08
574.18	1099.42
574.53	1097.92
574.88	1093.78
575.23	1089.78
575.58	1086.76
575.93	1090.57
576.28	1088.63
576.64	1091.51
576.99	1092.35
577.34	1093.62
577.69	1091.51
578.04	1094.04
578.39	1094.93
578.74	1094.90
579.09	1094.39
579.44	1092.89
579.80	1092.26
580.15	1091.51
580.50	1093.15
580.85	1091.74
581.20	1092.87
581.55	1091.65
581.90	1094.34
582.25	1092.02
582.60	1092.52
582.95	1088.23
583.30	1090.01
583.65	1084.72
584.00	1084.44
584.35	1085.63
584.71	1090.50
585.06	1091.53
585.41	1094.76
585.76	1094.62
586.11	1095.51
586.46	1096.00
586.81	1094.95
587.16	1092.37
587.51	1094.41
587.86	1090.20
588.21	1088.75
588.56	1087.90
588.91	1090.97
589.26	1088.56
589.61	1089.50
589.96	1090.13
590.31	1087.09
590.66	1086.34
591.01	1087.25
591.36	1083.67
591.71	1082.03
592.06	1086.06
592.41	1078.36
592.76	1076.20
593.10	1081.63
593.45	1082.40
593.80	1081.26
594.15	1089.14
594.50	1090.27
594.85	1089.22
595.20	1092.30
595.55	1088.82
595.90	1089.26
596.25	1090.95
596.60	1089.45
596.95	1085.14
597.30	1087.86
597.64	1097.59
597.99	1097.78
598.34	1097.71
598.69	1097.71
599.04	1096.14
599.39	1082.54
599.74	1079.95
600.09	1082.19
600.44	1083.36
600.78	1084.16
601.13	1084.79
601.48	1085.87
601.83	1084.23
602.18	1086.06
602.53	1086.06
602.88	1087.02
603.22	1088.72
603.57	1092.37
603.92	1087.58
604.27	1086.73
604.62	1084.23
604.97	1080.88
605.31	1079.50
605.66	1083.36
606.01	1087.16
606.36	1090.20
606.71	1091.67
607.05	1088.16
607.40	1088.89
607.75	1087.86
608.10	1086.92
608.44	1084.89
608.79	1086.29
609.14	1081.16
609.49	1081.94
609.84	1078.73
610.18	1081.42
610.53	1083.71
610.88	1086.01
611.23	1083.93
611.57	1087.04
611.92	1086.31
612.27	1084.46
612.62	1088.89
612.96	1086.76
613.31	1085.80
613.66	1085.24
614.00	1084.77
614.35	1077.54
614.70	1075.92
615.05	1078.26
615.39	1078.68
615.74	1076.41
616.09	1080.63
616.43	1083.15
616.78	1082.92
617.13	1082.01
617.47	1084.65
617.82	1081.96
618.17	1082.08
618.51	1080.11
618.86	1080.09
619.21	1079.36
619.55	1082.47
619.90	1082.94
620.25	1082.47
620.59	1082.43
620.94	1083.86
621.29	1083.93
621.63	1083.15
621.98	1082.19
622.32	1085.63
622.67	1083.57
623.02	1081.19
623.36	1080.91
623.71	1085.17
624.05	1083.36
624.40	1082.12
624.75	1081.75
625.09	1084.02
625.44	1081.77
625.78	1080.72
626.13	1082.69
626.48	1080.95
626.82	1082.26
627.17	1083.20
627.51	1085.03
627.86	1085.17
628.20	1087.13
628.55	1085.28
628.89	1084.23
629.24	1080.98
629.58	1082.03
629.93	1080.86
630.28	1078.82
630.62	1081.49
630.97	1080.30
631.31	1079.46
631.66	1081.89
632.00	1083.62
632.35	1080.65
632.69	1082.66
633.04	1082.10
633.38	1081.61
633.73	1079.88
634.07	1078.78
634.42	1080.37
634.76	1080.56
635.11	1079.01
635.45	1080.56
635.79	1078.73
636.14	1079.43
636.48	1079.15
636.83	1082.57
637.17	1082.50
637.52	1085.91
637.86	1084.72
638.21	1085.03
638.55	1082.22
638.89	1082.33
639.24	1082.87
639.58	1081.73
639.93	1081.94
640.27	1080.23
640.61	1080.37
640.96	1079.29
641.30	1081.33
641.65	1083.43
641.99	1085.56
642.33	1086.57
642.68	1086.27
643.02	1087.65
643.37	1085.68
643.71	1087.27
644.05	1087.09
644.40	1089.07
644.74	1087.32
645.08	1083.86
645.43	1082.40
645.77	1082.64
646.11	1081.56
646.46	1080.93
646.80	1083.79
647.14	1085.49
647.49	1083.83
647.83	1085.45
648.17	1079.81
648.52	1079.20
648.86	1078.96
649.20	1077.49
649.55	1074.66
649.89	1080.13
650.23	1082.45
650.57	1081.44
650.92	1082.83
651.26	1086.83
651.60	1086.38
651.95	1084.58
652.29	1084.25
652.63	1083.11
652.97	1079.69
653.32	1076.81
653.66	1077.84
654.00	1078.00
654.34	1082.15
654.69	1082.38
655.03	1087.81
655.37	1083.57
655.71	1085.45
656.05	1084.63
656.40	1085.47
656.74	1083.13
657.08	1086.29
657.42	1082.59
657.76	1084.07
658.11	1085.19
658.45	1087.25
658.79	1087.23
659.13	1084.25
659.47	1077.14
659.82	1074.82
660.16	1071.52
660.50	1071.36
660.84	1074.40
661.18	1079.60
661.52	1080.93
661.87	1081.44
662.21	1082.31
662.55	1082.66
662.89	1080.98
663.23	1080.88
663.57	1082.92
663.91	1081.77
664.25	1082.69
664.60	1082.08
664.94	1082.40
665.28	1083.76
665.62	1086.80
665.96	1089.07
666.30	1089.59
666.64	1086.08
666.98	1081.40
667.32	1081.07
667.66	1075.83
668.01	1076.72
668.35	1077.86
668.69	1080.56
669.03	1077.02
669.37	1080.56
669.71	1079.99
670.05	1080.88
670.39	1081.37
670.73	1083.62
671.07	1080.11
671.41	1082.50
671.75	1085.19
672.09	1084.07
672.43	1082.03
672.77	1085.59
673.11	1083.36
673.45	1081.70
673.79	1081.19
674.13	1085.12
674.47	1085.12
674.81	1084.07
675.15	1083.22
675.49	1081.23
675.83	1078.78
676.17	1079.71
676.51	1080.20
676.85	1079.41
677.19	1082.43
677.53	1083.18
677.87	1082.33
678.21	1080.67
678.55	1080.25
678.89	1079.92
679.23	1078.87
679.57	1076.08
679.90	1078.05
680.24	1081.02
680.58	1077.86
680.92	1076.04
681.26	1080.02
681.60	1078.78
681.94	1073.37
682.28	1076.23
682.62	1081.05
682.96	1075.10
683.29	1079.83
683.63	1084.28
683.97	1084.56
684.31	1081.00
684.65	1083.39
684.99	1077.89
685.33	1075.29
685.67	1075.22
686.00	1074.00
686.34	1076.51
686.68	1078.45
687.02	1077.75
687.36	1075.52
687.70	1075.99
688.03	1072.60
688.37	1071.73
688.71	1072.85
689.05	1072.85
689.39	1074.31
689.72	1075.69
690.06	1077.47
690.40	1079.81
690.74	1080.77
691.08	1081.12
691.41	1081.49
691.75	1078.38
692.09	1074.52
692.43	1075.43
692.76	1074.61
693.10	1072.27
693.44	1073.44
693.78	1074.40
694.11	1074.70
694.45	1076.46
694.79	1077.11
695.13	1081.07
695.46	1083.13
695.80	1084.44
696.14	1081.96
696.48	1082.97
696.81	1079.27
697.15	1078.61
697.49	1074.63
697.82	1075.50
698.16	1079.38
698.50	1079.57
698.83	1079.38
699.17	1084.21
699.51	1083.04
699.84	1081.26
700.18	1080.11
700.52	1081.07
700.85	1080.37
701.19	1079.83
701.53	1080.04
701.86	1082.50
702.20	1084.37
702.54	1079.24
702.87	1082.08
703.21	1081.54
703.55	1079.90
703.88	1076.83
704.22	1080.30
704.55	1080.30
704.89	1078.45
705.23	1077.33
705.56	1077.49
705.90	1078.54
706.23	1078.45
706.57	1078.26
706.91	1078.61
707.24	1079.01
707.58	1076.08
707.91	1073.70
708.25	1074.24
708.58	1074.24
708.92	1075.62
709.26	1075.64
709.59	1075.66
709.93	1075.78
710.26	1078.28
710.60	1077.04
710.93	1078.85
711.27	1079.95
711.60	1080.56
711.94	1079.55
712.27	1081.07
712.61	1081.47
712.94	1079.03
713.28	1078.03
713.61	1079.36
713.95	1077.42
714.28	1081.07
714.62	1084.77
714.95	1087.74
715.29	1088.47
715.62	1089.61
715.96	1082.76
716.29	1085.03
716.63	1082.99
716.96	1082.64
717.29	1083.34
717.63	1086.43
717.96	1084.81
718.30	1085.99
718.63	1084.09
718.97	1081.40
719.30	1081.19
719.63	1080.72
719.97	1078.47
720.30	1077.42
720.64	1076.83
720.97	1077.70
721.30	1080.93
721.64	1084.02
721.97	1082.73
722.31	1084.98
722.64	1081.26
722.97	1077.25
723.31	1074.49
723.64	1077.02
723.97	1078.24
724.31	1082.15
724.64	1081.56
724.98	1082.15
725.31	1081.21
725.64	1080.04
725.98	1077.58
726.31	1074.56
726.64	1075.20
726.97	1077.75
727.31	1077.70
727.64	1080.98
727.97	1081.77
728.31	1082.45
728.64	1078.80
728.97	1079.99
729.31	1079.01
729.64	1083.34
729.97	1080.16
730.30	1082.24
730.64	1078.38
730.97	1076.20
731.30	1074.45
731.63	1080.67
731.97	1082.43
732.30	1085.80
732.63	1088.72
732.96	1086.78
733.30	1083.76
733.63	1079.27
733.96	1078.52
734.29	1074.98
734.63	1074.19
734.96	1071.22
735.29	1072.57
735.62	1073.44
735.95	1073.91
736.29	1076.20
736.62	1076.67
736.95	1078.59
737.28	1076.15
737.61	1078.14
737.94	1078.73
738.28	1080.93
738.61	1079.13
738.94	1080.74
739.27	1080.95
739.60	1079.24
739.93	1076.30
740.27	1079.62
740.60	1081.28
740.93	1081.40
741.26	1080.51
741.59	1085.66
741.92	1083.29
742.25	1079.85
742.58	1077.44
742.91	1076.60
743.25	1070.61
743.58	1069.70
743.91	1070.28
744.24	1070.05
744.57	1072.50
744.90	1074.42
745.23	1073.39
745.56	1072.04
745.89	1072.90
746.22	1075.22
746.55	1076.11
746.88	1077.63
747.21	1078.87
747.54	1080.72
747.87	1077.51
748.20	1080.13
748.53	1084.09
748.87	1086.48
749.20	1085.45
749.53	1089.26
749.86	1089.50
750.19	1086.43
750.52	1083.34
750.85	1081.19
751.18	1078.26
751.51	1075.64
751.84	1075.45
752.16	1076.86
752.49	1076.15
752.82	1077.04
753.15	1077.37
753.48	1077.18
753.81	1074.61
754.14	1079.24
754.47	1079.01
754.80	1077.91
755.13	1082.05
755.46	1085.49
755.79	1082.64
756.12	1079.34
756.45	1081.80
756.78	1074.82
757.11	1074.63
757.43	1075.94
757.76	1080.74
758.09	1077.11
758.42	1078.94
758.75	1078.66
759.08	1079.34
759.41	1077.23
759.74	1078.31
760.07	1079.62
760.39	1079.81
760.72	1079.76
761.05	1081.07
761.38	1082.94
761.71	1083.74
762.04	1083.79
762.36	1084.07
762.69	1083.74
763.02	1082.40
763.35	1080.04
763.68	1079.38
764.01	1077.61
