SpectraSuite Data File
++++++++++++++++++++++++++++++++++++
Date: Mon Aug 26 10:22:15 PDT 2019
User: corrico
Dark Spectrum Present: No
Reference Spectrum Present: No
Number of Sampled Component Spectra: 1
Spectrometers: USB2+H06089
Integration Time (usec): 2000 (USB2+H06089)
Spectra Averaged: 20 (USB2+H06089)
Boxcar Smoothing: 2 (USB2+H06089)
Correct for Electrical Dark: No (USB2+H06089)
Strobe/Lamp Enabled: No (USB2+H06089)
Correct for Detector Non-linearity: No (USB2+H06089)
Correct for Stray Light: No (USB2+H06089)
Number of Pixels in Processed Spectrum: 2048
>>>>>Begin Processed Spectral Data<<<<<
339.70	1030.65
340.07	1030.65
340.45	994.07
340.82	973.69
341.19	950.16
341.57	923.46
341.94	915.36
342.31	910.23
342.69	899.35
343.06	893.76
343.43	894.13
343.81	892.84
344.18	892.49
344.55	902.60
344.93	910.07
345.30	916.81
345.67	922.22
346.04	929.22
346.42	935.96
346.79	944.03
347.16	953.00
347.54	963.62
347.91	974.53
348.28	981.88
348.65	992.22
349.03	998.71
349.40	1007.83
349.77	1018.41
350.14	1030.30
350.52	1037.21
350.89	1047.37
351.26	1053.03
351.63	1053.78
352.01	1054.34
352.38	1058.88
352.75	1060.47
353.12	1064.64
353.50	1068.81
353.87	1075.50
354.24	1077.98
354.61	1079.22
354.98	1081.96
355.36	1084.77
355.73	1082.22
356.10	1083.18
356.47	1085.05
356.84	1086.80
357.22	1087.32
357.59	1090.90
357.96	1090.06
358.33	1088.77
358.70	1086.85
359.08	1085.94
359.45	1085.26
359.82	1086.69
360.19	1087.79
360.56	1085.80
360.94	1085.26
361.31	1081.70
361.68	1077.56
362.05	1078.50
362.42	1079.22
362.79	1077.35
363.16	1078.12
363.54	1079.97
363.91	1078.73
364.28	1077.58
364.65	1080.27
365.02	1078.36
365.39	1077.56
365.76	1076.18
366.14	1077.91
366.51	1075.71
366.88	1074.61
367.25	1073.51
367.62	1074.59
367.99	1073.70
368.36	1076.67
368.73	1080.48
369.10	1082.94
369.48	1080.95
369.85	1078.57
370.22	1077.02
370.59	1074.42
370.96	1072.18
371.33	1072.27
371.70	1071.99
372.07	1070.26
372.44	1069.16
372.81	1071.24
373.18	1071.29
373.55	1073.63
373.93	1074.26
374.30	1075.80
374.67	1075.15
375.04	1073.63
375.41	1074.26
375.78	1074.38
376.15	1075.13
376.52	1072.20
376.89	1072.81
377.26	1070.35
377.63	1070.68
378.00	1069.04
378.37	1069.70
378.74	1074.10
379.11	1076.86
379.48	1077.14
379.85	1080.37
380.22	1082.76
380.59	1081.96
380.96	1080.88
381.33	1081.73
381.70	1079.97
382.07	1077.49
382.44	1078.07
382.81	1079.78
383.18	1080.84
383.55	1080.77
383.92	1083.22
384.29	1080.72
384.66	1077.65
385.03	1074.47
385.40	1076.39
385.77	1075.83
386.14	1077.84
386.51	1083.18
386.88	1085.19
387.25	1085.80
387.62	1087.76
387.99	1084.89
388.36	1083.83
388.73	1084.98
389.10	1086.76
389.46	1085.87
389.83	1087.58
390.20	1086.15
390.57	1087.32
390.94	1083.60
391.31	1080.79
391.68	1082.50
392.05	1081.66
392.42	1081.00
392.79	1081.51
393.16	1085.89
393.53	1083.08
393.89	1080.13
394.26	1078.38
394.63	1082.10
395.00	1083.22
395.37	1083.69
395.74	1086.76
396.11	1087.83
396.48	1086.27
396.84	1085.17
397.21	1086.27
397.58	1088.61
397.95	1089.19
398.32	1088.54
398.69	1087.58
399.06	1089.80
399.42	1087.04
399.79	1087.93
400.16	1088.82
400.53	1091.56
400.90	1091.02
401.27	1092.70
401.64	1091.86
402.00	1088.72
402.37	1089.80
402.74	1089.31
403.11	1090.53
403.48	1091.58
403.84	1097.15
404.21	1095.93
404.58	1093.55
404.95	1095.02
405.32	1095.65
405.68	1092.54
406.05	1091.88
406.42	1096.54
406.79	1093.94
407.16	1092.84
407.52	1096.42
407.89	1096.07
408.26	1093.55
408.63	1094.74
408.99	1094.60
409.36	1091.70
409.73	1092.28
410.10	1094.48
410.47	1092.84
410.83	1092.26
411.20	1093.85
411.57	1091.16
411.94	1091.23
412.30	1093.45
412.67	1097.29
413.04	1096.70
413.40	1098.25
413.77	1098.09
414.14	1099.21
414.51	1098.60
414.87	1099.96
415.24	1102.58
415.61	1104.99
415.97	1103.77
416.34	1102.53
416.71	1101.50
417.08	1100.40
417.44	1100.54
417.81	1100.00
418.18	1101.01
418.54	1105.25
418.91	1109.20
419.28	1109.25
419.64	1114.12
420.01	1116.06
420.38	1113.86
420.74	1111.68
421.11	1117.79
421.48	1118.61
421.84	1119.64
422.21	1121.09
422.58	1126.76
422.94	1125.73
423.31	1129.57
423.68	1132.02
424.04	1134.43
424.41	1136.52
424.77	1136.38
425.14	1135.32
425.51	1139.77
425.87	1146.93
426.24	1152.20
426.61	1157.98
426.97	1166.55
427.34	1171.27
427.70	1175.04
428.07	1180.47
428.44	1185.90
428.80	1191.61
429.17	1199.97
429.53	1207.44
429.90	1217.15
430.27	1228.52
430.63	1238.21
431.00	1249.40
431.36	1264.78
431.73	1276.53
432.09	1290.48
432.46	1305.08
432.83	1320.55
433.19	1337.62
433.56	1356.15
433.92	1375.28
434.29	1395.61
434.65	1417.50
435.02	1437.74
435.38	1461.88
435.75	1487.32
436.11	1514.89
436.48	1545.62
436.84	1580.42
437.21	1618.46
437.57	1655.06
437.94	1698.64
438.30	1743.42
438.67	1789.95
439.03	1837.74
439.40	1893.00
439.76	1949.81
440.13	2009.68
440.49	2077.69
440.86	2144.16
441.22	2218.41
441.59	2294.57
441.95	2375.34
442.32	2457.73
442.68	2548.68
443.05	2639.05
443.41	2737.63
443.78	2834.37
444.14	2938.59
444.51	3047.56
444.87	3185.89
445.24	3322.51
445.60	3479.44
445.96	3640.89
446.33	3820.25
446.69	3982.94
447.06	4161.68
447.42	4342.19
447.79	4529.76
448.15	4743.59
448.51	4966.99
448.88	5224.17
449.24	5471.82
449.61	5742.27
449.97	6014.80
450.33	6298.69
450.70	6566.00
451.06	6889.51
451.43	7197.78
451.79	7563.91
452.15	7975.21
452.52	8423.71
452.88	8891.81
453.24	9444.04
453.61	10035.75
453.97	10588.93
454.34	11128.08
454.70	11759.39
455.06	12371.25
455.43	12969.63
455.79	13561.70
456.15	14262.66
456.52	14911.60
456.88	15675.74
457.24	16385.86
457.61	17234.37
457.97	18016.84
458.33	18803.98
458.70	19573.60
459.06	20352.83
459.42	21184.56
459.79	21937.91
460.15	22832.04
460.51	23678.92
460.88	24577.12
461.24	25366.26
461.60	26322.41
461.96	27185.72
462.33	28043.99
462.69	28871.30
463.05	29754.53
463.42	30530.70
463.78	31227.15
464.14	31788.59
464.50	32381.76
464.87	32833.18
465.23	33141.82
465.59	33465.45
465.95	33749.80
466.32	33986.24
466.68	34194.99
467.04	34336.38
467.40	34490.74
467.77	34663.69
468.13	34650.79
468.49	34573.90
468.85	34506.87
469.22	34341.70
469.58	33987.67
469.94	33741.56
470.30	33449.04
470.66	33066.83
471.03	32464.24
471.39	32099.28
471.75	31481.84
472.11	30899.28
472.47	30543.08
472.84	30243.91
473.20	29762.51
473.56	29500.74
473.92	29061.19
474.28	28542.27
474.65	28059.21
475.01	27594.28
475.37	27042.13
475.73	26607.80
476.09	26107.65
476.45	25596.10
476.81	25077.81
477.18	24536.82
477.54	24072.39
477.90	23677.56
478.26	23248.14
478.62	22897.25
478.98	22582.42
479.34	22249.76
479.71	21837.99
480.07	21462.34
480.43	21073.36
480.79	20688.30
481.15	20332.40
481.51	20010.67
481.87	19751.69
482.23	19471.34
482.59	19218.93
482.96	18945.91
483.32	18654.14
483.68	18298.80
484.04	17948.16
484.40	17580.47
484.76	17195.07
485.12	16827.07
485.48	16513.35
485.84	16168.19
486.20	15818.79
486.56	15449.15
486.92	15137.48
487.28	14788.96
487.64	14450.21
488.00	14123.85
488.37	13824.91
488.73	13476.13
489.09	13126.82
489.45	12827.42
489.81	12509.48
490.17	12206.48
490.53	11917.05
490.89	11623.64
491.25	11316.05
491.61	11014.96
491.97	10707.32
492.33	10383.08
492.69	10080.80
493.05	9778.41
493.41	9491.11
493.77	9203.31
494.13	8959.24
494.49	8703.73
494.85	8466.58
495.21	8232.06
495.57	8013.74
495.93	7783.31
496.29	7572.43
496.64	7385.02
497.00	7191.51
497.36	7005.25
497.72	6824.84
498.08	6646.14
498.44	6455.03
498.80	6288.86
499.16	6121.39
499.52	5961.98
499.88	5829.53
500.24	5709.08
500.60	5583.16
500.96	5467.49
501.32	5349.79
501.68	5222.62
502.03	5093.92
502.39	4971.70
502.75	4836.27
503.11	4712.39
503.47	4589.58
503.83	4460.71
504.19	4335.02
504.55	4228.74
504.91	4136.59
505.26	4045.55
505.62	3962.06
505.98	3876.51
506.34	3791.50
506.70	3698.16
507.06	3613.97
507.42	3529.11
507.78	3452.01
508.13	3374.23
508.49	3297.51
508.85	3231.23
509.21	3165.55
509.57	3096.25
509.93	3027.88
510.28	2961.85
510.64	2892.60
511.00	2829.38
511.36	2776.41
511.72	2719.84
512.07	2670.62
512.43	2618.36
512.79	2568.53
513.15	2518.09
513.51	2472.14
513.86	2426.67
514.22	2388.73
514.58	2349.36
514.94	2303.70
515.30	2268.35
515.65	2229.64
516.01	2194.53
516.37	2161.39
516.73	2135.81
517.08	2103.86
517.44	2072.78
517.80	2040.29
518.16	2013.40
518.51	1987.09
518.87	1959.96
519.23	1937.40
519.59	1909.60
519.94	1884.13
520.30	1862.41
520.66	1839.85
521.01	1817.66
521.37	1798.12
521.73	1776.40
522.09	1750.98
522.44	1730.64
522.80	1709.29
523.16	1691.72
523.51	1671.87
523.87	1653.10
524.23	1634.63
524.58	1613.89
524.94	1597.86
525.30	1579.65
525.65	1566.31
526.01	1552.73
526.37	1542.69
526.72	1528.65
527.08	1517.51
527.44	1502.20
527.79	1488.21
528.15	1474.14
528.51	1458.29
528.86	1441.33
529.22	1427.49
529.58	1415.98
529.93	1405.02
530.29	1395.80
530.65	1391.19
531.00	1386.91
531.36	1380.45
531.71	1370.31
532.07	1363.27
532.43	1352.53
532.78	1341.78
533.14	1333.15
533.49	1329.07
533.85	1323.41
534.21	1317.77
534.56	1316.22
534.92	1310.89
535.27	1304.87
535.63	1293.01
535.98	1284.32
536.34	1274.28
536.69	1265.11
537.05	1256.56
537.41	1254.78
537.76	1252.72
538.12	1246.90
538.47	1241.96
538.83	1239.06
539.18	1230.79
539.54	1228.03
539.89	1224.45
540.25	1221.34
540.60	1218.01
540.96	1216.80
541.31	1212.61
541.67	1209.14
542.02	1208.30
542.38	1205.14
542.73	1202.52
543.09	1198.66
543.44	1196.27
543.80	1192.06
544.15	1187.96
544.51	1187.52
544.86	1185.29
545.22	1182.09
545.57	1181.76
545.93	1182.65
546.28	1178.58
546.64	1177.66
546.99	1174.93
547.35	1171.34
547.70	1165.24
548.05	1165.82
548.41	1160.39
548.76	1157.09
549.12	1157.61
549.47	1157.72
549.83	1152.92
550.18	1152.18
550.53	1152.01
550.89	1147.31
551.24	1143.73
551.60	1140.78
551.95	1141.57
552.30	1141.39
552.66	1134.04
553.01	1131.51
553.37	1131.84
553.72	1129.50
554.07	1125.61
554.43	1130.41
554.78	1132.75
555.13	1132.98
555.49	1130.57
555.84	1132.63
556.19	1129.80
556.55	1131.04
556.90	1125.82
557.26	1126.31
557.61	1124.04
557.96	1123.15
558.32	1117.68
558.67	1118.68
559.02	1116.13
559.37	1114.26
559.73	1115.45
560.08	1117.04
560.43	1116.79
560.79	1116.74
561.14	1115.76
561.49	1114.59
561.85	1112.11
562.20	1112.74
562.55	1109.25
562.90	1108.34
563.26	1107.05
563.61	1107.75
563.96	1105.90
564.32	1107.68
564.67	1109.67
565.02	1109.79
565.37	1107.28
565.73	1104.10
566.08	1105.04
566.43	1100.82
566.78	1100.71
567.14	1098.88
567.49	1098.76
567.84	1095.98
568.19	1097.95
568.54	1098.81
568.90	1097.95
569.25	1102.88
569.60	1105.69
569.95	1106.56
570.31	1104.33
570.66	1111.75
571.01	1106.04
571.36	1103.23
571.71	1102.16
572.06	1104.45
572.42	1101.48
572.77	1100.43
573.12	1099.12
573.47	1097.95
573.82	1097.17
574.18	1094.74
574.53	1093.92
574.88	1095.72
575.23	1095.58
575.58	1093.15
575.93	1094.13
576.28	1097.90
576.64	1097.85
576.99	1095.49
577.34	1096.56
577.69	1096.12
578.04	1093.66
578.39	1092.14
578.74	1093.31
579.09	1091.91
579.44	1089.38
579.80	1091.20
580.15	1091.84
580.50	1094.60
580.85	1092.98
581.20	1095.09
581.55	1096.78
581.90	1095.51
582.25	1092.37
582.60	1091.93
582.95	1090.10
583.30	1086.76
583.65	1087.93
584.00	1087.20
584.35	1086.78
584.71	1086.45
585.06	1087.90
585.41	1084.04
585.76	1084.25
586.11	1085.56
586.46	1087.25
586.81	1087.13
587.16	1088.16
587.51	1088.44
587.86	1086.76
588.21	1085.21
588.56	1087.37
588.91	1088.72
589.26	1088.65
589.61	1089.75
589.96	1088.19
590.31	1083.74
590.66	1083.50
591.01	1080.16
591.36	1077.72
591.71	1080.34
592.06	1083.62
592.41	1083.62
592.76	1085.31
593.10	1088.58
593.45	1085.96
593.80	1085.35
594.15	1087.39
594.50	1090.06
594.85	1090.53
595.20	1089.59
595.55	1087.58
595.90	1084.25
596.25	1081.21
596.60	1082.45
596.95	1085.26
597.30	1084.14
597.64	1095.84
597.99	1099.09
598.34	1095.00
598.69	1093.92
599.04	1095.86
599.39	1085.45
599.74	1083.06
600.09	1083.76
600.44	1085.07
600.78	1085.47
601.13	1085.59
601.48	1085.45
601.83	1085.28
602.18	1082.85
602.53	1083.97
602.88	1083.86
603.22	1087.62
603.57	1087.88
603.92	1090.55
604.27	1086.78
604.62	1088.30
604.97	1085.66
605.31	1088.86
605.66	1088.00
606.01	1091.91
606.36	1090.85
606.71	1087.27
607.05	1083.88
607.40	1084.74
607.75	1083.64
608.10	1083.25
608.44	1089.33
608.79	1091.30
609.14	1090.08
609.49	1088.28
609.84	1087.88
610.18	1084.86
610.53	1085.31
610.88	1085.80
611.23	1090.34
611.57	1091.25
611.92	1092.23
612.27	1087.60
612.62	1086.78
612.96	1083.25
613.31	1081.44
613.66	1081.77
614.00	1083.29
614.35	1083.15
614.70	1082.78
615.05	1082.99
615.39	1082.31
615.74	1082.40
616.09	1082.71
616.43	1082.33
616.78	1082.05
617.13	1081.40
617.47	1081.54
617.82	1079.76
618.17	1080.58
618.51	1082.08
618.86	1084.18
619.21	1085.82
619.55	1085.70
619.90	1084.51
620.25	1083.18
620.59	1081.82
620.94	1079.48
621.29	1078.00
621.63	1080.18
621.98	1082.73
622.32	1082.54
622.67	1085.94
623.02	1088.44
623.36	1085.40
623.71	1082.69
624.05	1081.49
624.40	1081.12
624.75	1080.37
625.09	1079.85
625.44	1079.27
625.78	1081.66
626.13	1080.48
626.48	1082.19
626.82	1084.46
627.17	1083.13
627.51	1081.12
627.86	1082.64
628.20	1082.59
628.55	1080.32
628.89	1085.38
629.24	1086.10
629.58	1082.47
629.93	1084.18
630.28	1084.58
630.62	1081.54
630.97	1080.16
631.31	1080.51
631.66	1077.58
632.00	1075.73
632.35	1076.79
632.69	1078.31
633.04	1080.48
633.38	1081.09
633.73	1083.39
634.07	1081.09
634.42	1080.06
634.76	1079.08
635.11	1079.99
635.45	1078.45
635.79	1080.09
636.14	1081.26
636.48	1081.47
636.83	1082.43
637.17	1087.04
637.52	1085.99
637.86	1086.38
638.21	1087.34
638.55	1086.24
638.89	1085.28
639.24	1088.28
639.58	1085.45
639.93	1082.50
640.27	1078.80
640.61	1071.43
640.96	1065.48
641.30	1064.45
641.65	1066.86
641.99	1069.51
642.33	1073.18
642.68	1079.53
643.02	1081.96
643.37	1080.72
643.71	1080.84
644.05	1083.08
644.40	1080.98
644.74	1082.87
645.08	1083.22
645.43	1084.46
645.77	1086.06
646.11	1085.26
646.46	1085.00
646.80	1085.26
647.14	1085.56
647.49	1084.42
647.83	1084.09
648.17	1078.64
648.52	1081.82
648.86	1079.92
649.20	1081.26
649.55	1080.11
649.89	1083.86
650.23	1081.80
650.57	1082.94
650.92	1082.31
651.26	1084.79
651.60	1084.89
651.95	1083.13
652.29	1081.23
652.63	1080.98
652.97	1082.61
653.32	1084.51
653.66	1086.31
654.00	1088.54
654.34	1085.75
654.69	1082.69
655.03	1081.44
655.37	1079.06
655.71	1077.40
656.05	1077.30
656.40	1079.48
656.74	1081.87
657.08	1085.80
657.42	1086.94
657.76	1089.29
658.11	1090.08
658.45	1086.57
658.79	1083.90
659.13	1083.43
659.47	1081.51
659.82	1080.53
660.16	1079.36
660.50	1082.05
660.84	1079.29
661.18	1079.57
661.52	1081.05
661.87	1080.77
662.21	1076.62
662.55	1078.28
662.89	1077.75
663.23	1073.04
663.57	1077.04
663.91	1079.31
664.25	1080.53
664.60	1081.61
664.94	1080.53
665.28	1077.37
665.62	1072.67
665.96	1073.14
666.30	1072.48
666.64	1079.08
666.98	1079.29
667.32	1082.87
667.66	1082.05
668.01	1084.72
668.35	1081.58
668.69	1081.80
669.03	1081.51
669.37	1083.27
669.71	1079.81
670.05	1077.84
670.39	1076.04
670.73	1075.10
671.07	1073.70
671.41	1076.18
671.75	1076.41
672.09	1081.33
672.43	1082.40
672.77	1081.91
673.11	1081.56
673.45	1083.01
673.79	1080.30
674.13	1080.04
674.47	1080.16
674.81	1078.66
675.15	1080.16
675.49	1082.59
675.83	1086.27
676.17	1081.70
676.51	1081.00
676.85	1080.53
677.19	1079.06
677.53	1074.03
677.87	1077.61
678.21	1078.99
678.55	1078.45
678.89	1076.65
679.23	1077.07
679.57	1075.15
679.90	1074.77
680.24	1069.44
680.58	1068.57
680.92	1068.57
681.26	1070.87
681.60	1071.94
681.94	1076.60
682.28	1078.80
682.62	1078.17
682.96	1076.39
683.29	1080.30
683.63	1079.38
683.97	1078.24
684.31	1079.50
684.65	1081.51
684.99	1077.47
685.33	1079.76
685.67	1079.83
686.00	1079.06
686.34	1079.55
686.68	1078.21
687.02	1076.06
687.36	1075.55
687.70	1077.51
688.03	1078.68
688.37	1081.54
688.71	1081.21
689.05	1084.21
689.39	1085.42
689.72	1079.15
690.06	1076.48
690.40	1080.09
690.74	1078.12
691.08	1077.51
691.41	1080.81
691.75	1081.58
692.09	1079.15
692.43	1079.01
692.76	1079.78
693.10	1085.28
693.44	1086.59
693.78	1088.09
694.11	1086.34
694.45	1085.52
694.79	1083.32
695.13	1082.17
695.46	1078.52
695.80	1076.23
696.14	1076.76
696.48	1075.01
696.81	1075.27
697.15	1077.65
697.49	1083.08
697.82	1079.60
698.16	1079.27
698.50	1077.47
698.83	1077.77
699.17	1076.13
699.51	1076.34
699.84	1073.93
700.18	1077.72
700.52	1078.78
700.85	1078.17
701.19	1077.07
701.53	1074.70
701.86	1073.42
702.20	1071.99
702.54	1073.44
702.87	1078.96
703.21	1084.51
703.55	1085.05
703.88	1087.23
704.22	1086.62
704.55	1082.45
704.89	1082.01
705.23	1082.03
705.56	1080.02
705.90	1080.37
706.23	1080.46
706.57	1080.95
706.91	1076.53
707.24	1076.23
707.58	1073.88
707.91	1079.10
708.25	1077.75
708.58	1078.71
708.92	1079.36
709.26	1081.09
709.59	1077.00
709.93	1077.84
710.26	1078.47
710.60	1076.95
710.93	1077.72
711.27	1077.65
711.60	1075.45
711.94	1076.48
712.27	1078.10
712.61	1077.07
712.94	1078.03
713.28	1081.96
713.61	1084.42
713.95	1080.79
714.28	1083.27
714.62	1080.72
714.95	1077.35
715.29	1073.51
715.62	1076.69
715.96	1071.31
716.29	1069.74
716.63	1073.51
716.96	1076.41
717.29	1075.80
717.63	1081.68
717.96	1086.41
718.30	1084.77
718.63	1085.05
718.97	1084.79
719.30	1080.98
719.63	1081.09
719.97	1081.02
720.30	1077.02
720.64	1074.21
720.97	1075.45
721.30	1072.95
721.64	1070.14
721.97	1071.94
722.31	1071.54
722.64	1073.74
722.97	1072.57
723.31	1077.16
723.64	1077.63
723.97	1080.88
724.31	1079.92
724.64	1082.78
724.98	1082.66
725.31	1084.16
725.64	1083.81
725.98	1080.93
726.31	1078.43
726.64	1074.63
726.97	1073.42
727.31	1073.74
727.64	1076.39
727.97	1077.35
728.31	1076.81
728.64	1076.81
728.97	1075.99
729.31	1074.96
729.64	1076.32
729.97	1079.06
730.30	1081.42
730.64	1082.05
730.97	1084.07
731.30	1083.13
731.63	1081.77
731.97	1078.31
732.30	1080.44
732.63	1077.28
732.96	1074.24
733.30	1075.83
733.63	1076.39
733.96	1073.32
734.29	1076.11
734.63	1080.79
734.96	1080.11
735.29	1080.34
735.62	1079.74
735.95	1082.57
736.29	1081.19
736.62	1080.06
736.95	1078.24
737.28	1081.33
737.61	1077.37
737.94	1076.20
738.28	1076.01
738.61	1075.87
738.94	1076.34
739.27	1078.00
739.60	1078.64
739.93	1076.25
740.27	1079.62
740.60	1078.52
740.93	1078.71
741.26	1079.57
741.59	1082.05
741.92	1082.05
742.25	1082.57
742.58	1082.38
742.91	1083.60
743.25	1087.95
743.58	1086.59
743.91	1085.47
744.24	1084.89
744.57	1081.14
744.90	1075.80
745.23	1075.87
745.56	1074.07
745.89	1070.58
746.22	1070.21
746.55	1072.29
746.88	1070.16
747.21	1072.83
747.54	1072.92
747.87	1074.33
748.20	1074.94
748.53	1079.92
748.87	1079.29
749.20	1081.00
749.53	1079.71
749.86	1079.95
750.19	1074.47
750.52	1073.14
750.85	1073.14
751.18	1076.76
751.51	1074.26
751.84	1078.00
752.16	1079.24
752.49	1081.28
752.82	1079.85
753.15	1080.16
753.48	1076.69
753.81	1075.57
754.14	1076.01
754.47	1075.10
754.80	1078.45
755.13	1081.02
755.46	1078.89
755.79	1075.87
756.12	1077.00
756.45	1072.76
756.78	1072.53
757.11	1075.34
757.43	1076.15
757.76	1076.01
758.09	1074.94
758.42	1070.70
758.75	1070.54
759.08	1072.29
759.41	1072.90
759.74	1075.17
760.07	1078.80
760.39	1078.82
760.72	1076.76
761.05	1076.58
761.38	1077.49
761.71	1077.28
762.04	1077.84
762.36	1080.02
762.69	1079.24
763.02	1078.73
763.35	1082.38
763.68	1083.81
764.01	1079.10
