SpectraSuite Data File
++++++++++++++++++++++++++++++++++++
Date: Mon Aug 26 10:22:20 PDT 2019
User: corrico
Dark Spectrum Present: No
Reference Spectrum Present: No
Number of Sampled Component Spectra: 1
Spectrometers: USB2+H06089
Integration Time (usec): 2000 (USB2+H06089)
Spectra Averaged: 20 (USB2+H06089)
Boxcar Smoothing: 2 (USB2+H06089)
Correct for Electrical Dark: No (USB2+H06089)
Strobe/Lamp Enabled: No (USB2+H06089)
Correct for Detector Non-linearity: No (USB2+H06089)
Correct for Stray Light: No (USB2+H06089)
Number of Pixels in Processed Spectrum: 2048
>>>>>Begin Processed Spectral Data<<<<<
339.70	1046.22
340.07	1046.22
340.45	1004.96
340.82	979.96
341.19	953.30
341.57	924.18
341.94	917.12
342.31	909.16
342.69	903.89
343.06	900.17
343.43	900.36
343.81	897.13
344.18	897.71
344.55	903.26
344.93	908.83
345.30	913.72
345.67	923.06
346.04	929.68
346.42	934.39
346.79	942.04
347.16	950.05
347.54	959.13
347.91	970.67
348.28	979.87
348.65	989.72
349.03	1001.07
349.40	1010.64
349.77	1015.18
350.14	1021.48
350.52	1028.36
350.89	1034.82
351.26	1037.26
351.63	1044.39
352.01	1050.60
352.38	1056.71
352.75	1058.79
353.12	1064.10
353.50	1072.22
353.87	1077.79
354.24	1081.98
354.61	1086.59
354.98	1087.02
355.36	1085.10
355.73	1087.83
356.10	1082.78
356.47	1081.82
356.84	1083.97
357.22	1085.21
357.59	1081.61
357.96	1082.80
358.33	1084.21
358.70	1082.90
359.08	1080.11
359.45	1080.95
359.82	1083.32
360.19	1082.59
360.56	1082.22
360.94	1083.79
361.31	1083.79
361.68	1082.87
362.05	1082.05
362.42	1082.26
362.79	1080.98
363.16	1080.02
363.54	1076.30
363.91	1072.55
364.28	1073.00
364.65	1072.71
365.02	1070.87
365.39	1073.23
365.76	1077.82
366.14	1076.65
366.51	1077.42
366.88	1079.38
367.25	1079.76
367.62	1078.75
367.99	1078.92
368.36	1078.47
368.73	1079.46
369.10	1078.89
369.48	1074.84
369.85	1072.92
370.22	1073.11
370.59	1070.80
370.96	1070.00
371.33	1071.57
371.70	1075.31
372.07	1071.94
372.44	1073.60
372.81	1073.16
373.18	1077.00
373.55	1076.41
373.93	1077.25
374.30	1071.64
374.67	1070.75
375.04	1069.72
375.41	1069.84
375.78	1072.32
376.15	1076.32
376.52	1080.37
376.89	1078.99
377.26	1080.09
377.63	1080.02
378.00	1080.02
378.37	1078.47
378.74	1081.98
379.11	1081.61
379.48	1080.74
379.85	1081.89
380.22	1081.87
380.59	1078.52
380.96	1076.81
381.33	1075.57
381.70	1077.21
382.07	1075.50
382.44	1077.04
382.81	1078.61
383.18	1082.59
383.55	1083.39
383.92	1085.68
384.29	1087.41
384.66	1087.67
385.03	1086.43
385.40	1083.13
385.77	1082.03
386.14	1079.97
386.51	1082.22
386.88	1083.62
387.25	1084.51
387.62	1084.04
387.99	1083.55
388.36	1082.12
388.73	1081.94
389.10	1083.43
389.46	1086.78
389.83	1087.30
390.20	1085.42
390.57	1081.94
390.94	1083.36
391.31	1082.33
391.68	1081.91
392.05	1080.16
392.42	1082.43
392.79	1080.30
393.16	1082.43
393.53	1083.43
393.89	1086.15
394.26	1087.76
394.63	1089.17
395.00	1086.62
395.37	1085.42
395.74	1086.27
396.11	1084.18
396.48	1083.90
396.84	1084.39
397.21	1086.01
397.58	1088.35
397.95	1090.32
398.32	1091.86
398.69	1090.88
399.06	1089.03
399.42	1086.17
399.79	1088.12
400.16	1086.45
400.53	1087.18
400.90	1089.89
401.27	1087.88
401.64	1084.16
402.00	1088.21
402.37	1090.53
402.74	1089.89
403.11	1090.46
403.48	1091.23
403.84	1092.23
404.21	1089.14
404.58	1088.63
404.95	1087.95
405.32	1088.30
405.68	1083.57
406.05	1084.02
406.42	1084.91
406.79	1088.63
407.16	1088.37
407.52	1089.31
407.89	1095.39
408.26	1098.30
408.63	1094.95
408.99	1096.14
409.36	1094.97
409.73	1091.42
410.10	1091.46
410.47	1095.14
410.83	1098.09
411.20	1100.85
411.57	1101.64
411.94	1097.85
412.30	1097.62
412.67	1096.68
413.04	1098.30
413.40	1097.73
413.77	1100.68
414.14	1102.44
414.51	1099.61
414.87	1096.70
415.24	1098.79
415.61	1099.89
415.97	1096.82
416.34	1100.71
416.71	1100.64
417.08	1100.78
417.44	1099.68
417.81	1104.80
418.18	1101.60
418.54	1104.03
418.91	1103.66
419.28	1106.09
419.64	1105.27
420.01	1107.87
420.38	1104.73
420.74	1104.83
421.11	1107.64
421.48	1109.13
421.84	1113.07
422.21	1121.68
422.58	1124.67
422.94	1122.73
423.31	1124.96
423.68	1128.63
424.04	1128.86
424.41	1133.66
424.77	1139.77
425.14	1142.16
425.51	1146.07
425.87	1151.73
426.24	1155.59
426.61	1157.51
426.97	1165.05
427.34	1170.13
427.70	1173.10
428.07	1179.40
428.44	1189.30
428.80	1193.74
429.17	1199.41
429.53	1208.02
429.90	1218.01
430.27	1224.76
430.63	1236.15
431.00	1247.67
431.36	1262.09
431.73	1270.51
432.09	1283.29
432.46	1298.37
432.83	1317.30
433.19	1331.72
433.56	1355.69
433.92	1377.78
434.29	1399.62
434.65	1417.76
435.02	1442.73
435.38	1464.38
435.75	1488.79
436.11	1522.03
436.48	1552.92
436.84	1588.66
437.21	1625.71
437.57	1663.00
437.94	1701.17
438.30	1745.45
438.67	1791.21
439.03	1841.02
439.40	1896.40
439.76	1950.77
440.13	2010.68
440.49	2070.65
440.86	2134.22
441.22	2205.51
441.59	2279.42
441.95	2362.21
442.32	2450.03
442.68	2544.79
443.05	2633.45
443.41	2732.62
443.78	2829.64
444.14	2933.44
444.51	3045.13
444.87	3190.24
445.24	3328.45
445.60	3483.37
445.96	3639.16
446.33	3814.44
446.69	3971.91
447.06	4148.32
447.42	4323.79
447.79	4515.48
448.15	4721.94
448.51	4944.19
448.88	5203.57
449.24	5445.37
449.61	5721.67
449.97	6001.67
450.33	6287.08
450.70	6545.80
451.06	6870.83
451.43	7174.87
451.79	7527.56
452.15	7932.08
452.52	8386.14
452.88	8848.44
453.24	9378.92
453.61	9964.55
453.97	10529.09
454.34	11069.59
454.70	11712.27
455.06	12349.27
455.43	12961.23
455.79	13546.51
456.15	14258.05
456.52	14905.19
456.88	15666.73
457.24	16392.83
457.61	17250.78
457.97	18024.11
458.33	18819.45
458.70	19584.03
459.06	20335.79
459.42	21149.97
459.79	21915.89
460.15	22801.85
460.51	23656.26
460.88	24586.11
461.24	25396.31
461.60	26355.79
461.96	27216.12
462.33	28055.35
462.69	28870.84
463.05	29731.71
463.42	30471.43
463.78	31145.91
464.14	31685.03
464.50	32255.74
464.87	32703.39
465.23	33025.78
465.59	33387.11
465.95	33745.05
466.32	34023.97
466.68	34262.07
467.04	34423.83
467.40	34577.39
467.77	34716.25
468.13	34687.28
468.49	34627.31
468.85	34560.65
469.22	34391.20
469.58	34068.65
469.94	33819.92
470.30	33513.85
470.66	33111.39
471.03	32521.49
471.39	32127.50
471.75	31509.51
472.11	30910.28
472.47	30571.33
472.84	30271.65
473.20	29784.04
473.56	29527.78
473.92	29098.38
474.28	28554.51
474.65	28060.12
475.01	27590.59
475.37	27025.72
475.73	26577.30
476.09	26066.41
476.45	25555.86
476.81	25050.03
477.18	24507.66
477.54	24053.94
477.90	23709.67
478.26	23277.70
478.62	22940.46
478.98	22663.88
479.34	22337.16
479.71	21900.42
480.07	21546.43
480.43	21154.14
480.79	20748.76
481.15	20378.86
481.51	20054.08
481.87	19791.29
482.23	19511.13
482.59	19268.32
482.96	19006.34
483.32	18732.74
483.68	18379.64
484.04	18051.31
484.40	17680.55
484.76	17317.13
485.12	16944.00
485.48	16613.36
485.84	16255.28
486.20	15886.18
486.56	15513.33
486.92	15209.08
487.28	14863.43
487.64	14506.08
488.00	14181.03
488.37	13863.95
488.73	13503.77
489.09	13146.84
489.45	12831.78
489.81	12520.13
490.17	12219.45
490.53	11937.34
490.89	11638.50
491.25	11341.58
491.61	11032.89
491.97	10711.70
492.33	10377.68
492.69	10068.63
493.05	9767.50
493.41	9477.23
493.77	9200.25
494.13	8961.35
494.49	8716.53
494.85	8484.21
495.21	8257.25
495.57	8036.30
495.93	7808.66
496.29	7607.96
496.64	7412.90
497.00	7222.71
497.36	7029.54
497.72	6832.75
498.08	6649.51
498.44	6461.07
498.80	6289.35
499.16	6121.27
499.52	5968.09
499.88	5833.55
500.24	5715.75
500.60	5592.66
500.96	5478.80
501.32	5362.85
501.68	5238.17
502.03	5107.89
502.39	4974.08
502.75	4841.94
503.11	4718.08
503.47	4600.60
503.83	4474.33
504.19	4363.51
504.55	4253.57
504.91	4159.93
505.26	4063.12
505.62	3977.81
505.98	3889.62
506.34	3799.74
506.70	3707.57
507.06	3619.01
507.42	3528.69
507.78	3449.08
508.13	3378.42
508.49	3301.14
508.85	3233.43
509.21	3173.88
509.57	3103.92
509.93	3035.11
510.28	2971.80
510.64	2901.66
511.00	2836.94
511.36	2779.62
511.72	2723.33
512.07	2668.66
512.43	2619.88
512.79	2568.78
513.15	2522.82
513.51	2474.91
513.86	2432.17
514.22	2392.14
514.58	2349.45
514.94	2308.05
515.30	2275.91
515.65	2237.79
516.01	2204.48
516.37	2177.75
516.73	2146.44
517.08	2114.49
517.44	2080.50
517.80	2050.64
518.16	2020.72
518.51	1996.57
518.87	1967.22
519.23	1946.02
519.59	1919.40
519.94	1893.91
520.30	1867.79
520.66	1844.46
521.01	1820.75
521.37	1799.36
521.73	1777.59
522.09	1754.75
522.44	1736.19
522.80	1716.24
523.16	1693.87
523.51	1673.86
523.87	1653.42
524.23	1633.16
524.58	1612.18
524.94	1597.93
525.30	1578.29
525.65	1564.86
526.01	1549.62
526.37	1538.83
526.72	1524.93
527.08	1511.00
527.44	1494.55
527.79	1478.66
528.15	1467.84
528.51	1456.16
528.86	1446.45
529.22	1437.37
529.58	1431.85
529.93	1419.98
530.29	1408.23
530.65	1395.90
531.00	1387.98
531.36	1376.00
531.71	1365.52
532.07	1354.89
532.43	1348.99
532.78	1341.31
533.14	1335.18
533.49	1324.70
533.85	1320.81
534.21	1316.13
534.56	1311.03
534.92	1303.16
535.27	1298.58
535.63	1291.37
535.98	1284.06
536.34	1276.48
536.69	1268.78
537.05	1263.91
537.41	1257.50
537.76	1252.82
538.12	1246.03
538.47	1243.41
538.83	1241.28
539.18	1235.85
539.54	1229.48
539.89	1224.54
540.25	1222.37
540.60	1216.33
540.96	1213.64
541.31	1213.24
541.67	1213.12
542.02	1210.83
542.38	1205.75
542.73	1202.66
543.09	1194.52
543.44	1188.85
543.80	1186.42
544.15	1184.64
544.51	1182.77
544.86	1182.67
545.22	1180.66
545.57	1175.70
545.93	1171.65
546.28	1166.83
546.64	1166.05
546.99	1164.28
547.35	1162.68
547.70	1164.65
548.05	1168.02
548.41	1164.72
548.76	1163.01
549.12	1162.47
549.47	1157.04
549.83	1150.07
550.18	1151.12
550.53	1151.17
550.89	1145.48
551.24	1144.92
551.60	1144.33
551.95	1142.93
552.30	1137.29
552.66	1135.82
553.01	1137.08
553.37	1135.09
553.72	1128.47
554.07	1128.82
554.43	1129.64
554.78	1123.01
555.13	1124.09
555.49	1126.22
555.84	1126.29
556.19	1124.53
556.55	1125.96
556.90	1124.96
557.26	1120.13
557.61	1119.34
557.96	1119.90
558.32	1119.22
558.67	1115.52
559.02	1117.11
559.37	1115.20
559.73	1112.46
560.08	1111.64
560.43	1111.24
560.79	1111.10
561.14	1107.68
561.49	1109.62
561.85	1111.33
562.20	1112.01
562.55	1110.54
562.90	1113.58
563.26	1110.87
563.61	1110.12
563.96	1108.81
564.32	1110.30
564.67	1107.68
565.02	1108.99
565.37	1109.02
565.73	1107.45
566.08	1103.07
566.43	1106.11
566.78	1105.95
567.14	1104.26
567.49	1104.76
567.84	1107.52
568.19	1105.48
568.54	1105.08
568.90	1104.94
569.25	1107.10
569.60	1104.71
569.95	1104.94
570.31	1100.94
570.66	1100.08
571.01	1095.42
571.36	1093.73
571.71	1089.96
572.06	1089.24
572.42	1087.72
572.77	1091.93
573.12	1095.25
573.47	1097.01
573.82	1101.41
574.18	1099.51
574.53	1099.02
574.88	1097.34
575.23	1096.10
575.58	1095.65
575.93	1097.24
576.28	1097.59
576.64	1098.48
576.99	1097.57
577.34	1096.21
577.69	1095.14
578.04	1092.33
578.39	1089.78
578.74	1088.02
579.09	1086.22
579.44	1087.53
579.80	1086.99
580.15	1088.19
580.50	1089.92
580.85	1087.93
581.20	1089.38
581.55	1088.47
581.90	1087.67
582.25	1088.65
582.60	1092.37
582.95	1090.57
583.30	1089.80
583.65	1089.57
584.00	1088.91
584.35	1085.47
584.71	1085.05
585.06	1089.61
585.41	1090.08
585.76	1094.22
586.11	1096.68
586.46	1096.28
586.81	1093.78
587.16	1092.40
587.51	1086.52
587.86	1083.36
588.21	1084.93
588.56	1084.00
588.91	1085.26
589.26	1086.78
589.61	1089.47
589.96	1087.69
590.31	1087.27
590.66	1089.80
591.01	1089.96
591.36	1089.45
591.71	1091.44
592.06	1093.12
592.41	1088.21
592.76	1086.36
593.10	1085.31
593.45	1082.57
593.80	1081.37
594.15	1085.91
594.50	1089.10
594.85	1086.92
595.20	1086.94
595.55	1085.10
595.90	1082.85
596.25	1082.38
596.60	1084.63
596.95	1083.69
597.30	1084.86
597.64	1093.83
597.99	1092.82
598.34	1093.59
598.69	1093.31
599.04	1094.79
599.39	1084.37
599.74	1084.07
600.09	1083.11
600.44	1086.20
600.78	1086.97
601.13	1088.54
601.48	1088.12
601.83	1088.26
602.18	1088.79
602.53	1087.34
602.88	1087.30
603.22	1084.53
603.57	1085.05
603.92	1083.18
604.27	1085.91
604.62	1082.45
604.97	1083.20
605.31	1079.99
605.66	1078.73
606.01	1076.48
606.36	1078.99
606.71	1077.16
607.05	1079.06
607.40	1078.31
607.75	1076.69
608.10	1076.79
608.44	1080.70
608.79	1082.78
609.14	1083.22
609.49	1085.10
609.84	1084.44
610.18	1082.76
610.53	1079.15
610.88	1079.38
611.23	1080.25
611.57	1080.16
611.92	1083.13
612.27	1084.74
612.62	1087.93
612.96	1084.28
613.31	1084.96
613.66	1084.53
614.00	1085.61
614.35	1084.11
614.70	1087.18
615.05	1088.70
615.39	1086.80
615.74	1088.02
616.09	1088.33
616.43	1088.30
616.78	1087.27
617.13	1089.47
617.47	1091.30
617.82	1087.46
618.17	1086.62
618.51	1090.32
618.86	1089.03
619.21	1087.51
619.55	1090.39
619.90	1090.71
620.25	1088.04
620.59	1090.13
620.94	1087.16
621.29	1086.06
621.63	1088.51
621.98	1089.05
622.32	1087.16
622.67	1093.43
623.02	1091.13
623.36	1086.97
623.71	1085.05
624.05	1086.45
624.40	1079.67
624.75	1080.60
625.09	1079.64
625.44	1079.10
625.78	1076.74
626.13	1079.13
626.48	1083.25
626.82	1082.36
627.17	1083.13
627.51	1084.98
627.86	1083.22
628.20	1080.13
628.55	1083.08
628.89	1084.70
629.24	1084.56
629.58	1088.21
629.93	1090.62
630.28	1087.95
630.62	1086.90
630.97	1085.40
631.31	1083.81
631.66	1082.38
632.00	1084.07
632.35	1083.11
632.69	1082.90
633.04	1079.64
633.38	1078.94
633.73	1081.26
634.07	1080.25
634.42	1080.51
634.76	1082.78
635.11	1085.12
635.45	1084.09
635.79	1087.41
636.14	1087.09
636.48	1089.24
636.83	1086.99
637.17	1083.39
637.52	1079.50
637.86	1078.80
638.21	1076.18
638.55	1076.97
638.89	1077.21
639.24	1079.48
639.58	1081.40
639.93	1080.37
640.27	1078.92
640.61	1084.93
640.96	1083.97
641.30	1085.35
641.65	1087.11
641.99	1087.39
642.33	1082.26
642.68	1083.22
643.02	1082.69
643.37	1084.16
643.71	1085.00
644.05	1083.88
644.40	1082.57
644.74	1081.44
645.08	1079.74
645.43	1078.52
645.77	1080.53
646.11	1079.10
646.46	1078.14
646.80	1074.96
647.14	1076.46
647.49	1076.93
647.83	1080.23
648.17	1081.54
648.52	1085.07
648.86	1082.52
649.20	1083.08
649.55	1079.41
649.89	1076.15
650.23	1073.42
650.57	1074.24
650.92	1070.77
651.26	1073.70
651.60	1077.56
651.95	1077.47
652.29	1075.73
652.63	1078.26
652.97	1080.11
653.32	1082.08
653.66	1082.50
654.00	1084.32
654.34	1086.90
654.69	1083.97
655.03	1078.64
655.37	1080.30
655.71	1080.02
656.05	1078.31
656.40	1079.34
656.74	1080.84
657.08	1079.90
657.42	1079.90
657.76	1079.97
658.11	1077.58
658.45	1076.76
658.79	1078.80
659.13	1080.04
659.47	1081.12
659.82	1080.48
660.16	1080.84
660.50	1081.21
660.84	1082.97
661.18	1079.24
661.52	1083.41
661.87	1084.89
662.21	1084.04
662.55	1084.32
662.89	1087.69
663.23	1085.63
663.57	1085.33
663.91	1084.84
664.25	1084.60
664.60	1084.96
664.94	1088.07
665.28	1088.75
665.62	1088.35
665.96	1088.16
666.30	1089.89
666.64	1086.97
666.98	1086.55
667.32	1085.84
667.66	1084.18
668.01	1080.53
668.35	1082.26
668.69	1083.25
669.03	1082.69
669.37	1083.43
669.71	1083.67
670.05	1081.98
670.39	1078.12
670.73	1079.71
671.07	1079.20
671.41	1081.51
671.75	1080.60
672.09	1081.91
672.43	1081.51
672.77	1082.54
673.11	1080.93
673.45	1079.60
673.79	1079.95
674.13	1078.43
674.47	1077.21
674.81	1078.59
675.15	1079.67
675.49	1080.30
675.83	1080.11
676.17	1079.17
676.51	1076.90
676.85	1077.51
677.19	1079.06
677.53	1081.58
677.87	1082.10
678.21	1083.36
678.55	1081.82
678.89	1080.91
679.23	1080.86
679.57	1079.53
679.90	1077.75
680.24	1079.92
680.58	1079.20
680.92	1075.52
681.26	1077.65
681.60	1079.13
681.94	1079.15
682.28	1077.16
682.62	1077.86
682.96	1078.59
683.29	1076.30
683.63	1074.80
683.97	1077.93
684.31	1078.59
684.65	1080.04
684.99	1082.66
685.33	1084.32
685.67	1080.46
686.00	1081.33
686.34	1077.00
686.68	1072.32
687.02	1069.95
687.36	1071.61
687.70	1071.85
688.03	1076.55
688.37	1079.36
688.71	1082.94
689.05	1083.43
689.39	1084.58
689.72	1085.70
690.06	1086.24
690.40	1085.07
690.74	1085.17
691.08	1083.18
691.41	1081.19
691.75	1082.57
692.09	1080.04
692.43	1080.02
692.76	1082.43
693.10	1078.92
693.44	1076.88
693.78	1078.82
694.11	1078.45
694.45	1078.45
694.79	1078.54
695.13	1077.49
695.46	1078.66
695.80	1079.36
696.14	1078.47
696.48	1078.36
696.81	1078.87
697.15	1076.60
697.49	1076.23
697.82	1075.17
698.16	1077.49
698.50	1077.23
698.83	1080.79
699.17	1081.73
699.51	1082.43
699.84	1078.82
700.18	1079.29
700.52	1076.25
700.85	1073.02
701.19	1074.24
701.53	1076.90
701.86	1079.69
702.20	1083.90
702.54	1085.47
702.87	1083.20
703.21	1081.96
703.55	1077.63
703.88	1073.21
704.22	1074.63
704.55	1075.71
704.89	1077.42
705.23	1079.31
705.56	1081.35
705.90	1082.59
706.23	1081.19
706.57	1078.43
706.91	1077.09
707.24	1073.53
707.58	1071.92
707.91	1073.74
708.25	1074.24
708.58	1076.08
708.92	1081.68
709.26	1081.42
709.59	1078.80
709.93	1080.91
710.26	1077.56
710.60	1073.56
710.93	1073.16
711.27	1075.17
711.60	1073.72
711.94	1076.44
712.27	1076.83
712.61	1078.59
712.94	1080.79
713.28	1083.95
713.61	1086.55
713.95	1085.24
714.28	1086.71
714.62	1082.61
714.95	1078.28
715.29	1076.18
715.62	1074.47
715.96	1070.49
716.29	1071.50
716.63	1071.94
716.96	1072.76
717.29	1074.80
717.63	1075.50
717.96	1078.52
718.30	1079.69
718.63	1078.68
718.97	1079.03
719.30	1080.23
719.63	1079.03
719.97	1080.13
720.30	1078.47
720.64	1081.91
720.97	1083.53
721.30	1081.66
721.64	1081.28
721.97	1085.17
722.31	1081.40
722.64	1081.37
722.97	1083.11
723.31	1084.04
723.64	1082.78
723.97	1085.00
724.31	1081.63
724.64	1080.41
724.98	1079.20
725.31	1076.48
725.64	1075.31
725.98	1078.66
726.31	1079.46
726.64	1078.43
726.97	1079.81
727.31	1083.74
727.64	1079.97
727.97	1079.38
728.31	1079.88
728.64	1076.65
728.97	1072.64
729.31	1075.08
729.64	1076.25
729.97	1078.40
730.30	1083.71
730.64	1084.74
730.97	1084.18
731.30	1082.15
731.63	1082.57
731.97	1080.02
732.30	1077.82
732.63	1077.09
732.96	1079.31
733.30	1078.71
733.63	1078.61
733.96	1081.73
734.29	1083.04
734.63	1081.56
734.96	1078.82
735.29	1079.15
735.62	1075.36
735.95	1074.54
736.29	1075.34
736.62	1079.71
736.95	1084.46
737.28	1088.33
737.61	1085.61
737.94	1083.34
738.28	1079.55
738.61	1074.84
738.94	1074.03
739.27	1076.32
739.60	1075.83
739.93	1075.29
740.27	1074.47
740.60	1072.01
740.93	1072.25
741.26	1076.04
741.59	1076.76
741.92	1077.44
742.25	1079.95
742.58	1081.37
742.91	1079.76
743.25	1081.63
743.58	1081.51
743.91	1079.83
744.24	1081.23
744.57	1081.51
744.90	1080.32
745.23	1082.29
745.56	1082.59
745.89	1081.89
746.22	1081.94
746.55	1082.38
746.88	1078.99
747.21	1079.74
747.54	1077.14
747.87	1077.25
748.20	1077.72
748.53	1079.34
748.87	1079.24
749.20	1079.03
749.53	1078.05
749.86	1077.21
750.19	1078.14
750.52	1079.48
750.85	1077.04
751.18	1076.58
751.51	1076.72
751.84	1076.65
752.16	1074.54
752.49	1076.55
752.82	1077.98
753.15	1078.45
753.48	1076.90
753.81	1079.24
754.14	1080.41
754.47	1081.82
754.80	1081.51
755.13	1085.75
755.46	1083.15
755.79	1084.46
756.12	1085.38
756.45	1083.25
756.78	1081.70
757.11	1080.95
757.43	1077.82
757.76	1073.32
758.09	1072.74
758.42	1074.94
758.75	1077.51
759.08	1079.81
759.41	1079.95
759.74	1082.19
760.07	1078.61
760.39	1077.61
760.72	1077.28
761.05	1078.99
761.38	1080.46
761.71	1081.51
762.04	1080.51
762.36	1080.67
762.69	1082.76
763.02	1082.50
763.35	1083.39
763.68	1085.12
764.01	1085.49
