SpectraSuite Data File
++++++++++++++++++++++++++++++++++++
Date: Mon Aug 26 10:22:33 PDT 2019
User: corrico
Dark Spectrum Present: No
Reference Spectrum Present: No
Number of Sampled Component Spectra: 1
Spectrometers: USB2+H06089
Integration Time (usec): 2000 (USB2+H06089)
Spectra Averaged: 20 (USB2+H06089)
Boxcar Smoothing: 2 (USB2+H06089)
Correct for Electrical Dark: No (USB2+H06089)
Strobe/Lamp Enabled: No (USB2+H06089)
Correct for Detector Non-linearity: No (USB2+H06089)
Correct for Stray Light: No (USB2+H06089)
Number of Pixels in Processed Spectrum: 2048
>>>>>Begin Processed Spectral Data<<<<<
339.70	1034.98
340.07	1034.98
340.45	999.90
340.82	976.45
341.19	952.83
341.57	926.52
341.94	913.89
342.31	904.38
342.69	900.90
343.06	897.34
343.43	899.00
343.81	900.59
344.18	903.68
344.55	905.88
344.93	910.73
345.30	914.12
345.67	921.31
346.04	930.67
346.42	938.86
346.79	945.27
347.16	954.03
347.54	965.56
347.91	974.74
348.28	986.18
348.65	997.47
349.03	1005.61
349.40	1012.59
349.77	1018.41
350.14	1025.95
350.52	1031.64
350.89	1040.23
351.26	1044.74
351.63	1050.46
352.01	1054.46
352.38	1057.62
352.75	1061.48
353.12	1066.37
353.50	1071.26
353.87	1072.11
354.24	1076.86
354.61	1080.20
354.98	1083.55
355.36	1087.16
355.73	1092.47
356.10	1092.14
356.47	1090.03
356.84	1089.19
357.22	1088.02
357.59	1088.58
357.96	1090.69
358.33	1088.68
358.70	1086.13
359.08	1085.91
359.45	1083.62
359.82	1081.96
360.19	1084.60
360.56	1085.03
360.94	1080.32
361.31	1078.66
361.68	1079.10
362.05	1078.85
362.42	1078.94
362.79	1077.58
363.16	1075.69
363.54	1075.69
363.91	1073.51
364.28	1074.07
364.65	1075.36
365.02	1079.78
365.39	1078.17
365.76	1080.25
366.14	1076.90
366.51	1077.14
366.88	1074.68
367.25	1074.98
367.62	1074.63
367.99	1076.48
368.36	1077.42
368.73	1077.07
369.10	1078.28
369.48	1077.28
369.85	1077.84
370.22	1077.37
370.59	1077.42
370.96	1077.00
371.33	1077.18
371.70	1074.66
372.07	1075.92
372.44	1075.52
372.81	1076.04
373.18	1077.18
373.55	1079.62
373.93	1080.95
374.30	1083.04
374.67	1080.74
375.04	1079.64
375.41	1078.92
375.78	1077.16
376.15	1071.52
376.52	1071.22
376.89	1068.81
377.26	1068.29
377.63	1069.81
378.00	1072.85
378.37	1075.41
378.74	1080.41
379.11	1080.32
379.48	1080.74
379.85	1081.56
380.22	1081.30
380.59	1080.46
380.96	1082.78
381.33	1081.96
381.70	1083.34
382.07	1080.81
382.44	1080.06
382.81	1078.71
383.18	1080.23
383.55	1080.39
383.92	1084.09
384.29	1083.90
384.66	1084.63
385.03	1082.59
385.40	1082.69
385.77	1081.56
386.14	1081.66
386.51	1083.88
386.88	1086.64
387.25	1085.96
387.62	1088.44
387.99	1087.88
388.36	1088.75
388.73	1086.38
389.10	1087.55
389.46	1085.70
389.83	1087.04
390.20	1084.00
390.57	1083.67
390.94	1082.57
391.31	1083.50
391.68	1081.44
392.05	1084.09
392.42	1083.04
392.79	1082.78
393.16	1082.64
393.53	1084.44
393.89	1083.39
394.26	1085.19
394.63	1086.90
395.00	1087.39
395.37	1087.97
395.74	1086.83
396.11	1086.01
396.48	1082.17
396.84	1080.84
397.21	1081.09
397.58	1082.36
397.95	1083.04
398.32	1088.84
398.69	1088.51
399.06	1087.90
399.42	1089.29
399.79	1091.70
400.16	1088.61
400.53	1089.33
400.90	1087.62
401.27	1084.56
401.64	1085.10
402.00	1086.38
402.37	1086.73
402.74	1090.24
403.11	1093.71
403.48	1093.12
403.84	1090.64
404.21	1091.53
404.58	1088.84
404.95	1085.75
405.32	1086.85
405.68	1090.17
406.05	1090.62
406.42	1091.02
406.79	1094.32
407.16	1093.71
407.52	1090.83
407.89	1090.10
408.26	1093.36
408.63	1091.95
408.99	1091.67
409.36	1092.77
409.73	1093.80
410.10	1094.32
410.47	1095.72
410.83	1094.95
411.20	1094.62
411.57	1094.32
411.94	1092.61
412.30	1091.70
412.67	1093.76
413.04	1097.78
413.40	1100.12
413.77	1102.30
414.14	1104.80
414.51	1106.18
414.87	1103.94
415.24	1103.61
415.61	1101.41
415.97	1100.61
416.34	1100.50
416.71	1103.80
417.08	1103.28
417.44	1101.71
417.81	1103.21
418.18	1101.64
418.54	1101.62
418.91	1102.95
419.28	1106.86
419.64	1107.12
420.01	1109.86
420.38	1110.09
420.74	1111.99
421.11	1115.99
421.48	1118.96
421.84	1119.83
422.21	1122.03
422.58	1123.60
422.94	1124.77
423.31	1124.23
423.68	1129.43
424.04	1129.43
424.41	1132.89
424.77	1137.29
425.14	1142.44
425.51	1145.60
425.87	1150.79
426.24	1154.12
426.61	1157.77
426.97	1158.28
427.34	1159.52
427.70	1167.53
428.07	1175.02
428.44	1179.49
428.80	1192.71
429.17	1206.01
429.53	1218.11
429.90	1229.55
430.27	1239.08
430.63	1244.60
431.00	1253.19
431.36	1260.47
431.73	1266.70
432.09	1282.03
432.46	1302.91
432.83	1318.63
433.19	1336.68
433.56	1360.74
433.92	1378.15
434.29	1393.39
434.65	1415.02
435.02	1441.65
435.38	1466.70
435.75	1494.57
436.11	1526.31
436.48	1557.46
436.84	1587.42
437.21	1619.35
437.57	1659.28
437.94	1701.01
438.30	1746.30
438.67	1792.01
439.03	1843.80
439.40	1896.68
439.76	1949.39
440.13	2006.78
440.49	2069.78
440.86	2134.17
441.22	2207.29
441.59	2285.86
441.95	2367.52
442.32	2450.92
442.68	2544.63
443.05	2637.50
443.41	2730.05
443.78	2826.57
444.14	2933.74
444.51	3043.26
444.87	3180.95
445.24	3322.16
445.60	3473.26
445.96	3628.35
446.33	3800.49
446.69	3958.88
447.06	4141.04
447.42	4324.14
447.79	4514.40
448.15	4732.19
448.51	4956.90
448.88	5207.62
449.24	5446.73
449.61	5721.42
449.97	5986.15
450.33	6267.42
450.70	6530.09
451.06	6862.17
451.43	7173.18
451.79	7537.06
452.15	7935.49
452.52	8381.32
452.88	8841.82
453.24	9362.99
453.61	9932.95
453.97	10501.26
454.34	11042.30
454.70	11676.28
455.06	12309.53
455.43	12942.09
455.79	13529.77
456.15	14242.79
456.52	14902.57
456.88	15674.71
457.24	16375.86
457.61	17227.05
457.97	17982.50
458.33	18753.54
458.70	19496.31
459.06	20266.91
459.42	21080.81
459.79	21859.39
460.15	22749.19
460.51	23627.26
460.88	24542.79
461.24	25334.24
461.60	26302.78
461.96	27180.15
462.33	27999.95
462.69	28775.13
463.05	29613.04
463.42	30302.71
463.78	30920.42
464.14	31448.91
464.50	32051.37
464.87	32528.65
465.23	32881.88
465.59	33247.12
465.95	33554.69
466.32	33791.93
466.68	34012.36
467.04	34149.24
467.40	34257.02
467.77	34431.15
468.13	34426.12
468.49	34334.30
468.85	34261.09
469.22	34109.40
469.58	33763.54
469.94	33494.82
470.30	33179.93
470.66	32758.70
471.03	32170.27
471.39	31768.47
471.75	31136.01
472.11	30518.53
472.47	30155.42
472.84	29852.34
473.20	29369.95
473.56	29111.21
473.92	28698.27
474.28	28183.98
474.65	27694.39
475.01	27209.57
475.37	26629.23
475.73	26179.48
476.09	25657.21
476.45	25125.46
476.81	24616.54
477.18	24091.04
477.54	23645.38
477.90	23303.85
478.26	22915.48
478.62	22588.70
478.98	22316.94
479.34	22008.97
479.71	21593.81
480.07	21223.79
480.43	20862.58
480.79	20477.18
481.15	20128.82
481.51	19830.31
481.87	19591.83
482.23	19312.16
482.59	19061.93
482.96	18780.20
483.32	18483.07
483.68	18113.41
484.04	17772.79
484.40	17403.31
484.76	17033.60
485.12	16672.31
485.48	16350.12
485.84	16007.49
486.20	15663.52
486.56	15309.58
486.92	14996.40
487.28	14660.83
487.64	14303.55
488.00	13973.40
488.37	13655.22
488.73	13291.43
489.09	12928.79
489.45	12626.23
489.81	12305.41
490.17	12007.32
490.53	11738.42
490.89	11445.71
491.25	11138.68
491.61	10831.46
491.97	10509.82
492.33	10189.64
492.69	9903.32
493.05	9598.98
493.41	9328.25
493.77	9062.16
494.13	8799.31
494.49	8553.18
494.85	8331.44
495.21	8106.35
495.57	7889.74
495.93	7682.34
496.29	7471.93
496.64	7289.65
497.00	7095.99
497.36	6907.76
497.72	6727.80
498.08	6549.73
498.44	6367.24
498.80	6204.06
499.16	6041.18
499.52	5895.36
499.88	5774.78
500.24	5660.33
500.60	5544.17
500.96	5433.67
501.32	5306.35
501.68	5178.74
502.03	5044.88
502.39	4913.21
502.75	4777.78
503.11	4654.90
503.47	4531.82
503.83	4412.33
504.19	4298.51
504.55	4197.73
504.91	4107.66
505.26	4020.50
505.62	3935.28
505.98	3844.28
506.34	3746.75
506.70	3654.14
507.06	3561.48
507.42	3475.95
507.78	3410.39
508.13	3340.62
508.49	3270.50
508.85	3202.13
509.21	3132.97
509.57	3058.05
509.93	2995.07
510.28	2927.54
510.64	2869.26
511.00	2808.36
511.36	2747.72
511.72	2691.78
512.07	2644.97
512.43	2593.20
512.79	2542.55
513.15	2499.58
513.51	2453.30
513.86	2405.04
514.22	2363.24
514.58	2327.90
514.94	2289.18
515.30	2256.49
515.65	2224.75
516.01	2191.40
516.37	2160.69
516.73	2128.69
517.08	2099.53
517.44	2070.32
517.80	2045.39
518.16	2015.20
518.51	1987.37
518.87	1952.76
519.23	1925.28
519.59	1898.50
519.94	1868.82
520.30	1845.51
520.66	1824.73
521.01	1801.51
521.37	1779.98
521.73	1763.45
522.09	1747.61
522.44	1731.36
522.80	1713.25
523.16	1691.15
523.51	1674.14
523.87	1654.01
524.23	1635.85
524.58	1612.49
524.94	1593.79
525.30	1574.34
525.65	1558.38
526.01	1540.63
526.37	1530.03
526.72	1518.98
527.08	1507.61
527.44	1489.82
527.79	1475.52
528.15	1459.65
528.51	1447.95
528.86	1434.91
529.22	1423.61
529.58	1413.89
529.93	1404.42
530.29	1394.26
530.65	1382.27
531.00	1374.41
531.36	1367.04
531.71	1358.21
532.07	1350.49
532.43	1343.77
532.78	1337.71
533.14	1331.84
533.49	1324.49
533.85	1319.80
534.21	1312.99
534.56	1306.46
534.92	1297.71
535.27	1291.09
535.63	1281.75
535.98	1274.68
536.34	1268.66
536.69	1260.87
537.05	1261.36
537.41	1260.45
537.76	1254.29
538.12	1250.08
538.47	1247.29
538.83	1236.67
539.18	1230.07
539.54	1225.36
539.89	1217.48
540.25	1216.10
540.60	1212.12
540.96	1206.50
541.31	1206.94
541.67	1207.27
542.02	1202.33
542.38	1200.39
542.73	1196.62
543.09	1194.47
543.44	1191.15
543.80	1188.69
544.15	1187.19
544.51	1183.63
544.86	1178.32
545.22	1176.14
545.57	1174.50
545.93	1171.74
546.28	1170.81
546.64	1168.98
546.99	1165.28
547.35	1158.73
547.70	1155.10
548.05	1156.58
548.41	1157.54
548.76	1155.94
549.12	1157.04
549.47	1155.45
549.83	1148.71
550.18	1143.38
550.53	1143.42
550.89	1142.67
551.24	1142.49
551.60	1144.99
551.95	1145.86
552.30	1142.44
552.66	1142.11
553.01	1141.20
553.37	1138.67
553.72	1134.50
554.07	1134.74
554.43	1132.09
554.78	1128.79
555.13	1127.81
555.49	1128.40
555.84	1125.54
556.19	1125.96
556.55	1123.36
556.90	1120.95
557.26	1120.23
557.61	1121.00
557.96	1119.41
558.32	1123.43
558.67	1123.18
559.02	1122.47
559.37	1120.88
559.73	1119.83
560.08	1118.31
560.43	1116.86
560.79	1115.87
561.14	1119.17
561.49	1120.60
561.85	1120.63
562.20	1119.08
562.55	1119.69
562.90	1115.10
563.26	1110.40
563.61	1107.66
563.96	1109.44
564.32	1108.38
564.67	1108.34
565.02	1108.92
565.37	1111.12
565.73	1106.35
566.08	1105.32
566.43	1105.41
566.78	1106.63
567.14	1101.62
567.49	1104.31
567.84	1102.30
568.19	1102.72
568.54	1098.98
568.90	1099.05
569.25	1099.14
569.60	1099.84
569.95	1097.88
570.31	1097.78
570.66	1100.61
571.01	1099.16
571.36	1100.19
571.71	1097.36
572.06	1099.40
572.42	1097.66
572.77	1096.96
573.12	1094.67
573.47	1095.46
573.82	1092.91
574.18	1090.20
574.53	1090.17
574.88	1090.55
575.23	1090.46
575.58	1089.54
575.93	1089.29
576.28	1089.31
576.64	1088.68
576.99	1088.84
577.34	1089.22
577.69	1089.52
578.04	1090.17
578.39	1090.41
578.74	1089.94
579.09	1093.10
579.44	1096.40
579.80	1098.58
580.15	1098.67
580.50	1103.68
580.85	1099.86
581.20	1096.66
581.55	1092.30
581.90	1093.76
582.25	1089.73
582.60	1096.40
582.95	1095.56
583.30	1095.75
583.65	1091.18
584.00	1089.73
584.35	1084.56
584.71	1088.37
585.06	1087.60
585.41	1087.11
585.76	1089.33
586.11	1087.60
586.46	1084.84
586.81	1089.12
587.16	1092.49
587.51	1091.13
587.86	1091.42
588.21	1090.13
588.56	1086.20
588.91	1084.91
589.26	1082.38
589.61	1083.74
589.96	1085.17
590.31	1088.23
590.66	1085.89
591.01	1088.98
591.36	1090.62
591.71	1092.21
592.06	1090.15
592.41	1093.17
592.76	1091.65
593.10	1087.58
593.45	1085.56
593.80	1086.80
594.15	1085.80
594.50	1087.06
594.85	1090.01
595.20	1088.68
595.55	1082.85
595.90	1080.65
596.25	1077.42
596.60	1076.32
596.95	1077.77
597.30	1079.55
597.64	1091.63
597.99	1097.64
598.34	1100.26
598.69	1096.66
599.04	1099.30
599.39	1088.47
599.74	1084.44
600.09	1083.41
600.44	1087.76
600.78	1087.67
601.13	1087.16
601.48	1088.44
601.83	1088.96
602.18	1088.56
602.53	1088.07
602.88	1088.23
603.22	1086.20
603.57	1082.83
603.92	1081.89
604.27	1080.30
604.62	1081.68
604.97	1080.60
605.31	1080.23
605.66	1081.35
606.01	1081.82
606.36	1081.42
606.71	1082.85
607.05	1084.93
607.40	1084.09
607.75	1085.21
608.10	1083.90
608.44	1082.92
608.79	1082.85
609.14	1081.98
609.49	1083.29
609.84	1084.21
610.18	1087.09
610.53	1087.88
610.88	1086.85
611.23	1084.70
611.57	1088.86
611.92	1089.80
612.27	1089.59
612.62	1091.72
612.96	1091.74
613.31	1085.07
613.66	1082.57
614.00	1081.47
614.35	1083.53
614.70	1080.70
615.05	1082.31
615.39	1083.83
615.74	1084.35
616.09	1084.74
616.43	1086.66
616.78	1089.85
617.13	1089.03
617.47	1090.10
617.82	1085.61
618.17	1083.41
618.51	1085.07
618.86	1085.61
619.21	1082.80
619.55	1085.99
619.90	1090.74
620.25	1088.70
620.59	1088.23
620.94	1086.80
621.29	1082.94
621.63	1081.68
621.98	1080.13
622.32	1081.82
622.67	1084.07
623.02	1084.23
623.36	1080.63
623.71	1079.74
624.05	1076.81
624.40	1076.20
624.75	1078.33
625.09	1082.66
625.44	1081.75
625.78	1081.58
626.13	1081.16
626.48	1081.44
626.82	1080.77
627.17	1081.63
627.51	1084.65
627.86	1085.40
628.20	1084.00
628.55	1083.90
628.89	1085.73
629.24	1083.76
629.58	1084.60
629.93	1086.13
630.28	1083.90
630.62	1082.45
630.97	1080.77
631.31	1079.83
631.66	1077.30
632.00	1080.72
632.35	1080.88
632.69	1083.76
633.04	1085.63
633.38	1084.42
633.73	1082.64
634.07	1083.39
634.42	1081.12
634.76	1080.13
635.11	1083.39
635.45	1083.69
635.79	1083.67
636.14	1084.07
636.48	1082.59
636.83	1082.26
637.17	1083.34
637.52	1082.83
637.86	1082.31
638.21	1082.66
638.55	1080.04
638.89	1078.54
639.24	1076.93
639.58	1076.13
639.93	1076.01
640.27	1079.74
640.61	1082.45
640.96	1085.07
641.30	1086.78
641.65	1088.42
641.99	1088.28
642.33	1086.52
642.68	1082.05
643.02	1081.14
643.37	1079.22
643.71	1077.00
644.05	1071.97
644.40	1075.34
644.74	1075.36
645.08	1075.94
645.43	1077.23
645.77	1079.34
646.11	1078.12
646.46	1079.74
646.80	1079.46
647.14	1075.43
647.49	1079.01
647.83	1081.00
648.17	1080.09
648.52	1082.45
648.86	1089.33
649.20	1088.02
649.55	1087.25
649.89	1087.30
650.23	1084.04
650.57	1081.05
650.92	1078.99
651.26	1077.37
651.60	1075.10
651.95	1075.05
652.29	1073.70
652.63	1074.33
652.97	1073.77
653.32	1073.60
653.66	1074.10
654.00	1073.74
654.34	1075.66
654.69	1078.66
655.03	1079.76
655.37	1080.93
655.71	1080.32
656.05	1077.47
656.40	1075.03
656.74	1075.29
657.08	1078.03
657.42	1082.40
657.76	1085.28
658.11	1087.60
658.45	1087.90
658.79	1084.60
659.13	1081.91
659.47	1081.26
659.82	1084.00
660.16	1084.04
660.50	1086.08
660.84	1088.42
661.18	1088.86
661.52	1085.61
661.87	1082.78
662.21	1080.30
662.55	1079.69
662.89	1078.82
663.23	1076.20
663.57	1079.81
663.91	1080.72
664.25	1078.96
664.60	1078.96
664.94	1078.82
665.28	1077.89
665.62	1078.17
665.96	1080.86
666.30	1080.20
666.64	1082.76
666.98	1084.86
667.32	1083.48
667.66	1083.48
668.01	1084.00
668.35	1082.80
668.69	1081.05
669.03	1083.53
669.37	1078.45
669.71	1081.19
670.05	1083.55
670.39	1082.94
670.73	1080.18
671.07	1082.57
671.41	1078.10
671.75	1078.68
672.09	1077.49
672.43	1075.94
672.77	1077.98
673.11	1080.93
673.45	1076.67
673.79	1078.19
674.13	1081.02
674.47	1078.57
674.81	1076.55
675.15	1077.72
675.49	1076.93
675.83	1076.55
676.17	1076.04
676.51	1075.17
676.85	1076.13
677.19	1078.57
677.53	1078.45
677.87	1079.36
678.21	1082.22
678.55	1081.80
678.89	1076.93
679.23	1074.05
679.57	1074.77
679.90	1075.27
680.24	1073.86
680.58	1078.19
680.92	1081.89
681.26	1084.16
681.60	1079.62
681.94	1082.71
682.28	1080.74
682.62	1078.24
682.96	1075.57
683.29	1078.54
683.63	1079.27
683.97	1082.03
684.31	1083.04
684.65	1083.48
684.99	1086.48
685.33	1087.41
685.67	1083.90
686.00	1085.49
686.34	1085.12
686.68	1080.74
687.02	1078.89
687.36	1079.64
687.70	1079.55
688.03	1079.69
688.37	1079.57
688.71	1078.28
689.05	1077.33
689.39	1075.73
689.72	1073.63
690.06	1073.00
690.40	1071.59
690.74	1074.12
691.08	1074.05
691.41	1076.81
691.75	1081.98
692.09	1084.77
692.43	1082.92
692.76	1085.45
693.10	1085.56
693.44	1082.61
693.78	1079.92
694.11	1077.14
694.45	1071.61
694.79	1071.38
695.13	1071.29
695.46	1074.61
695.80	1081.05
696.14	1084.49
696.48	1086.31
696.81	1087.81
697.15	1085.12
697.49	1079.97
697.82	1079.29
698.16	1079.81
698.50	1079.34
698.83	1078.03
699.17	1080.79
699.51	1079.46
699.84	1078.26
700.18	1079.48
700.52	1084.60
700.85	1083.60
701.19	1087.04
701.53	1086.01
701.86	1085.42
702.20	1080.70
702.54	1079.99
702.87	1080.84
703.21	1081.21
703.55	1080.44
703.88	1082.69
704.22	1083.34
704.55	1080.34
704.89	1079.62
705.23	1081.02
705.56	1082.47
705.90	1084.00
706.23	1087.13
706.57	1087.81
706.91	1085.70
707.24	1085.87
707.58	1084.18
707.91	1081.96
708.25	1080.63
708.58	1081.63
708.92	1077.37
709.26	1076.34
709.59	1074.63
709.93	1074.45
710.26	1073.51
710.60	1079.99
710.93	1082.94
711.27	1083.39
711.60	1084.07
711.94	1082.59
712.27	1075.90
712.61	1077.16
712.94	1078.85
713.28	1079.48
713.61	1079.24
713.95	1081.56
714.28	1077.35
714.62	1078.57
714.95	1075.92
715.29	1079.24
715.62	1080.93
715.96	1081.35
716.29	1079.62
716.63	1081.68
716.96	1082.29
717.29	1079.85
717.63	1083.27
717.96	1084.84
718.30	1084.51
718.63	1082.17
718.97	1081.09
719.30	1078.71
719.63	1079.20
719.97	1079.85
720.30	1080.58
720.64	1082.80
720.97	1082.12
721.30	1080.48
721.64	1078.85
721.97	1077.37
722.31	1076.53
722.64	1079.62
722.97	1079.76
723.31	1081.42
723.64	1082.78
723.97	1084.89
724.31	1085.96
724.64	1085.19
724.98	1083.48
725.31	1079.22
725.64	1075.45
725.98	1071.87
726.31	1073.56
726.64	1072.27
726.97	1074.98
727.31	1077.68
727.64	1077.63
727.97	1073.46
728.31	1076.62
728.64	1080.27
728.97	1082.76
729.31	1081.80
729.64	1083.69
729.97	1081.66
730.30	1077.18
730.64	1074.00
730.97	1077.07
731.30	1078.59
731.63	1080.56
731.97	1085.82
732.30	1086.64
732.63	1083.93
732.96	1084.72
733.30	1082.12
733.63	1079.95
733.96	1080.44
734.29	1080.84
734.63	1079.83
734.96	1079.92
735.29	1076.11
735.62	1074.10
735.95	1075.50
736.29	1075.10
736.62	1076.30
736.95	1073.86
737.28	1074.38
737.61	1071.85
737.94	1070.75
738.28	1070.94
738.61	1074.98
738.94	1076.34
739.27	1078.03
739.60	1080.13
739.93	1080.81
740.27	1079.46
740.60	1079.24
740.93	1079.29
741.26	1077.28
741.59	1077.23
741.92	1079.88
742.25	1079.83
742.58	1078.94
742.91	1079.27
743.25	1076.81
743.58	1074.54
743.91	1074.00
744.24	1076.67
744.57	1077.11
744.90	1077.84
745.23	1077.82
745.56	1077.61
745.89	1073.79
746.22	1070.75
746.55	1072.88
746.88	1076.95
747.21	1077.11
747.54	1079.29
747.87	1080.79
748.20	1080.18
748.53	1078.87
748.87	1077.07
749.20	1076.01
749.53	1077.07
749.86	1076.23
750.19	1076.97
750.52	1079.27
750.85	1081.96
751.18	1081.58
751.51	1082.59
751.84	1081.96
752.16	1081.70
752.49	1082.57
752.82	1082.97
753.15	1082.47
753.48	1080.32
753.81	1080.41
754.14	1076.01
754.47	1074.38
754.80	1075.73
755.13	1075.45
755.46	1074.00
755.79	1078.12
756.12	1082.08
756.45	1082.01
756.78	1083.81
757.11	1081.51
757.43	1079.46
757.76	1076.46
758.09	1076.34
758.42	1076.55
758.75	1081.19
759.08	1078.57
759.41	1078.73
759.74	1075.69
760.07	1073.91
760.39	1072.64
760.72	1076.23
761.05	1079.57
761.38	1081.98
761.71	1082.22
762.04	1081.73
762.36	1078.80
762.69	1075.20
763.02	1074.84
763.35	1077.11
763.68	1078.45
764.01	1080.18
