SpectraSuite Data File
++++++++++++++++++++++++++++++++++++
Date: Mon Aug 26 10:22:26 PDT 2019
User: corrico
Dark Spectrum Present: No
Reference Spectrum Present: No
Number of Sampled Component Spectra: 1
Spectrometers: USB2+H06089
Integration Time (usec): 2000 (USB2+H06089)
Spectra Averaged: 20 (USB2+H06089)
Boxcar Smoothing: 2 (USB2+H06089)
Correct for Electrical Dark: No (USB2+H06089)
Strobe/Lamp Enabled: No (USB2+H06089)
Correct for Detector Non-linearity: No (USB2+H06089)
Correct for Stray Light: No (USB2+H06089)
Number of Pixels in Processed Spectrum: 2048
>>>>>Begin Processed Spectral Data<<<<<
339.70	1024.69
340.07	1024.69
340.45	991.71
340.82	972.12
341.19	948.17
341.57	924.51
341.94	914.82
342.31	907.94
342.69	903.56
343.06	900.52
343.43	898.95
343.81	897.88
344.18	900.22
344.55	901.88
344.93	907.45
345.30	914.45
345.67	922.01
346.04	929.10
346.42	936.24
346.79	945.46
347.16	951.40
347.54	958.75
347.91	968.89
348.28	981.62
348.65	992.50
349.03	1006.13
349.40	1013.52
349.77	1023.68
350.14	1027.71
350.52	1032.86
350.89	1039.03
351.26	1045.63
351.63	1048.89
352.01	1055.63
352.38	1061.71
352.75	1064.24
353.12	1065.32
353.50	1068.74
353.87	1076.04
354.24	1078.89
354.61	1079.24
354.98	1082.40
355.36	1083.08
355.73	1074.96
356.10	1076.44
356.47	1078.96
356.84	1082.29
357.22	1085.73
357.59	1090.39
357.96	1086.38
358.33	1085.84
358.70	1084.07
359.08	1078.66
359.45	1079.99
359.82	1081.14
360.19	1082.01
360.56	1084.16
360.94	1087.51
361.31	1084.77
361.68	1085.96
362.05	1082.80
362.42	1079.78
362.79	1077.77
363.16	1076.93
363.54	1074.94
363.91	1078.75
364.28	1081.05
364.65	1080.16
365.02	1079.41
365.39	1078.59
365.76	1075.48
366.14	1070.54
366.51	1072.67
366.88	1073.02
367.25	1071.59
367.62	1070.00
367.99	1074.05
368.36	1071.50
368.73	1070.14
369.10	1069.34
369.48	1073.18
369.85	1070.33
370.22	1072.18
370.59	1070.30
370.96	1074.47
371.33	1071.59
371.70	1074.54
372.07	1076.55
372.44	1083.11
372.81	1081.63
373.18	1081.61
373.55	1076.60
373.93	1076.39
374.30	1073.84
374.67	1074.19
375.04	1075.24
375.41	1080.30
375.78	1080.56
376.15	1081.82
376.52	1080.95
376.89	1079.13
377.26	1080.23
377.63	1078.64
378.00	1079.62
378.37	1077.96
378.74	1076.55
379.11	1074.00
379.48	1073.30
379.85	1072.74
380.22	1075.45
380.59	1078.64
380.96	1077.33
381.33	1078.75
381.70	1075.94
382.07	1076.95
382.44	1076.13
382.81	1077.72
383.18	1078.28
383.55	1080.44
383.92	1081.37
384.29	1081.94
384.66	1084.09
385.03	1084.93
385.40	1082.73
385.77	1081.84
386.14	1080.74
386.51	1080.25
386.88	1076.39
387.25	1082.12
387.62	1082.73
387.99	1085.66
388.36	1084.81
388.73	1086.71
389.10	1085.84
389.46	1083.11
389.83	1079.88
390.20	1081.63
390.57	1081.84
390.94	1077.47
391.31	1080.02
391.68	1083.06
392.05	1081.09
392.42	1084.37
392.79	1088.16
393.16	1088.70
393.53	1088.84
393.89	1090.32
394.26	1087.32
394.63	1086.15
395.00	1085.21
395.37	1083.13
395.74	1083.22
396.11	1085.26
396.48	1088.26
396.84	1088.21
397.21	1090.03
397.58	1091.06
397.95	1089.92
398.32	1089.80
398.69	1087.11
399.06	1084.67
399.42	1082.38
399.79	1083.50
400.16	1081.70
400.53	1086.97
400.90	1088.70
401.27	1090.34
401.64	1088.19
402.00	1087.27
402.37	1085.75
402.74	1089.57
403.11	1092.98
403.48	1093.43
403.84	1094.27
404.21	1091.84
404.58	1090.97
404.95	1089.36
405.32	1093.03
405.68	1096.21
406.05	1097.66
406.42	1096.28
406.79	1097.88
407.16	1094.41
407.52	1093.29
407.89	1095.02
408.26	1093.52
408.63	1092.07
408.99	1092.96
409.36	1089.94
409.73	1092.12
410.10	1092.84
410.47	1092.40
410.83	1090.71
411.20	1091.44
411.57	1091.70
411.94	1093.76
412.30	1094.60
412.67	1097.48
413.04	1100.82
413.40	1099.89
413.77	1102.18
414.14	1105.72
414.51	1105.86
414.87	1104.90
415.24	1103.73
415.61	1105.06
415.97	1101.97
416.34	1103.45
416.71	1103.42
417.08	1106.23
417.44	1105.08
417.81	1104.62
418.18	1106.63
418.54	1108.59
418.91	1111.80
419.28	1111.99
419.64	1112.88
420.01	1109.86
420.38	1109.98
420.74	1109.02
421.11	1108.62
421.48	1110.58
421.84	1117.61
422.21	1121.23
422.58	1121.28
422.94	1128.33
423.31	1131.39
423.68	1133.43
424.04	1136.07
424.41	1140.45
424.77	1142.81
425.14	1148.55
425.51	1150.09
425.87	1153.79
426.24	1155.03
426.61	1158.85
426.97	1164.21
427.34	1169.40
427.70	1175.72
428.07	1187.03
428.44	1192.71
428.80	1198.49
429.17	1206.99
429.53	1213.68
429.90	1221.53
430.27	1230.37
430.63	1238.28
431.00	1247.39
431.36	1257.41
431.73	1266.46
432.09	1281.44
432.46	1298.20
432.83	1316.74
433.19	1334.92
433.56	1351.94
433.92	1369.63
434.29	1387.52
434.65	1406.90
435.02	1430.70
435.38	1461.36
435.75	1487.11
436.11	1520.55
436.48	1554.77
436.84	1586.79
437.21	1620.19
437.57	1656.02
437.94	1697.33
438.30	1739.42
438.67	1786.86
439.03	1840.18
439.40	1899.93
439.76	1957.25
440.13	2018.01
440.49	2087.69
440.86	2148.78
441.22	2218.31
441.59	2287.52
441.95	2368.22
442.32	2451.99
442.68	2550.72
443.05	2643.75
443.41	2745.85
443.78	2844.78
444.14	2946.15
444.51	3054.61
444.87	3197.78
445.24	3336.20
445.60	3491.17
445.96	3653.23
446.33	3829.28
446.69	3989.72
447.06	4170.51
447.42	4349.07
447.79	4537.76
448.15	4759.46
448.51	4990.21
448.88	5241.14
449.24	5485.70
449.61	5762.40
449.97	6035.82
450.33	6319.24
450.70	6594.34
451.06	6921.81
451.43	7237.97
451.79	7588.41
452.15	7986.33
452.52	8426.91
452.88	8904.43
453.24	9426.09
453.61	10015.25
453.97	10582.94
454.34	11138.16
454.70	11768.38
455.06	12417.76
455.43	13040.58
455.79	13638.02
456.15	14367.21
456.52	15023.64
456.88	15790.40
457.24	16515.76
457.61	17369.44
457.97	18119.09
458.33	18912.91
458.70	19678.26
459.06	20435.83
459.42	21263.18
459.79	22046.65
460.15	22946.35
460.51	23818.34
460.88	24765.75
461.24	25552.78
461.60	26526.11
461.96	27405.71
462.33	28236.88
462.69	29019.62
463.05	29875.93
463.42	30584.65
463.78	31211.30
464.14	31739.07
464.50	32334.29
464.87	32801.46
465.23	33153.27
465.59	33524.10
465.95	33872.16
466.32	34128.99
466.68	34369.67
467.04	34510.10
467.40	34642.13
467.77	34801.94
468.13	34781.84
468.49	34687.14
468.85	34614.04
469.22	34446.48
469.58	34075.04
469.94	33832.35
470.30	33516.26
470.66	33096.28
471.03	32500.19
471.39	32114.49
471.75	31461.79
472.11	30845.64
472.47	30473.52
472.84	30154.60
473.20	29663.60
473.56	29386.92
473.92	28989.38
474.28	28469.41
474.65	27973.38
475.01	27487.70
475.37	26919.65
475.73	26438.13
476.09	25926.98
476.45	25400.71
476.81	24884.86
477.18	24345.39
477.54	23888.26
477.90	23510.77
478.26	23096.36
478.62	22770.88
478.98	22476.35
479.34	22173.30
479.71	21770.17
480.07	21434.27
480.43	21055.97
480.79	20682.17
481.15	20315.17
481.51	20012.24
481.87	19753.56
482.23	19489.06
482.59	19231.69
482.96	18967.68
483.32	18676.91
483.68	18292.32
484.04	17941.59
484.40	17579.53
484.76	17212.39
485.12	16832.36
485.48	16529.94
485.84	16175.35
486.20	15815.66
486.56	15441.36
486.92	15138.12
487.28	14787.79
487.64	14434.72
488.00	14107.77
488.37	13797.34
488.73	13432.26
489.09	13076.57
489.45	12765.56
489.81	12452.35
490.17	12157.96
490.53	11877.75
490.89	11577.37
491.25	11276.96
491.61	10971.66
491.97	10646.11
492.33	10320.90
492.69	10029.92
493.05	9721.16
493.41	9435.78
493.77	9161.42
494.13	8908.31
494.49	8658.06
494.85	8416.80
495.21	8196.39
495.57	7979.42
495.93	7769.22
496.29	7567.75
496.64	7391.69
497.00	7194.81
497.36	7001.22
497.72	6802.93
498.08	6616.83
498.44	6427.49
498.80	6251.76
499.16	6089.98
499.52	5943.35
499.88	5814.38
500.24	5698.10
500.60	5577.75
500.96	5467.87
501.32	5357.30
501.68	5237.02
502.03	5108.31
502.39	4981.17
502.75	4843.34
503.11	4719.46
503.47	4597.63
503.83	4479.32
504.19	4360.79
504.55	4255.09
504.91	4148.88
505.26	4049.29
505.62	3958.13
505.98	3875.20
506.34	3786.92
506.70	3700.06
507.06	3611.89
507.42	3523.98
507.78	3442.23
508.13	3365.04
508.49	3285.92
508.85	3214.80
509.21	3145.63
509.57	3077.85
509.93	3011.45
510.28	2945.24
510.64	2885.76
511.00	2829.59
511.36	2772.15
511.72	2714.60
512.07	2671.51
512.43	2615.50
512.79	2555.98
513.15	2502.38
513.51	2453.40
513.86	2408.43
514.22	2370.71
514.58	2336.91
514.94	2300.61
515.30	2269.08
515.65	2228.33
516.01	2194.11
516.37	2161.27
516.73	2132.39
517.08	2099.95
517.44	2068.24
517.80	2039.80
518.16	2014.43
518.51	1990.77
518.87	1965.77
519.23	1943.23
519.59	1914.91
519.94	1886.33
520.30	1859.18
520.66	1832.76
521.01	1808.30
521.37	1789.88
521.73	1767.62
522.09	1749.08
522.44	1733.21
522.80	1712.80
523.16	1686.78
523.51	1667.56
523.87	1646.36
524.23	1626.91
524.58	1609.80
524.94	1599.55
525.30	1582.11
525.65	1562.24
526.01	1544.59
526.37	1532.30
526.72	1515.87
527.08	1504.19
527.44	1496.26
527.79	1483.95
528.15	1467.40
528.51	1454.78
528.86	1442.26
529.22	1428.97
529.58	1417.92
529.93	1408.21
530.29	1399.24
530.65	1393.02
531.00	1385.48
531.36	1379.02
531.71	1370.85
532.07	1362.57
532.43	1351.52
532.78	1339.30
533.14	1330.55
533.49	1323.69
533.85	1314.63
534.21	1306.91
534.56	1302.51
534.92	1293.64
535.27	1285.56
535.63	1279.13
535.98	1274.30
536.34	1267.21
536.69	1263.40
537.05	1259.47
537.41	1256.40
537.76	1250.88
538.12	1251.04
538.47	1245.33
538.83	1245.07
539.18	1241.35
539.54	1238.66
539.89	1233.06
540.25	1229.25
540.60	1223.12
540.96	1218.32
541.31	1214.74
541.67	1207.88
542.02	1204.30
542.38	1200.55
542.73	1197.51
543.09	1193.11
543.44	1191.05
543.80	1188.41
544.15	1187.42
544.51	1183.87
544.86	1182.30
545.22	1180.45
545.57	1180.17
545.93	1176.87
546.28	1175.93
546.64	1175.67
546.99	1176.10
547.35	1175.81
547.70	1174.36
548.05	1170.01
548.41	1165.52
548.76	1162.54
549.12	1157.04
549.47	1151.78
549.83	1150.61
550.18	1149.88
550.53	1147.38
550.89	1142.42
551.24	1137.87
551.60	1140.75
551.95	1137.57
552.30	1135.84
552.66	1136.21
553.01	1133.92
553.37	1128.11
553.72	1127.83
554.07	1126.17
554.43	1126.08
554.78	1129.43
555.13	1126.97
555.49	1125.31
555.84	1122.87
556.19	1123.15
556.55	1118.21
556.90	1119.74
557.26	1117.58
557.61	1117.02
557.96	1113.56
558.32	1117.58
558.67	1119.13
559.02	1119.81
559.37	1123.90
559.73	1121.49
560.08	1118.33
560.43	1117.14
560.79	1112.25
561.14	1106.86
561.49	1112.13
561.85	1114.61
562.20	1110.12
562.55	1115.48
562.90	1115.62
563.26	1110.40
563.61	1111.24
563.96	1111.75
564.32	1108.83
564.67	1109.34
565.02	1111.97
565.37	1110.84
565.73	1110.77
566.08	1110.89
566.43	1106.30
566.78	1104.50
567.14	1099.23
567.49	1099.96
567.84	1100.31
568.19	1100.85
568.54	1100.59
568.90	1104.03
569.25	1102.02
569.60	1100.89
569.95	1102.81
570.31	1103.38
570.66	1099.12
571.01	1100.92
571.36	1102.30
571.71	1103.38
572.06	1102.74
572.42	1106.75
572.77	1104.38
573.12	1103.09
573.47	1101.32
573.82	1099.77
574.18	1096.82
574.53	1098.04
574.88	1097.17
575.23	1095.07
575.58	1093.97
575.93	1092.56
576.28	1094.01
576.64	1094.29
576.99	1096.52
577.34	1098.48
577.69	1102.37
578.04	1100.82
578.39	1101.67
578.74	1098.60
579.09	1094.29
579.44	1089.26
579.80	1087.93
580.15	1084.60
580.50	1085.89
580.85	1091.88
581.20	1097.20
581.55	1096.26
581.90	1100.73
582.25	1099.61
582.60	1098.20
582.95	1096.66
583.30	1097.27
583.65	1093.71
584.00	1094.18
584.35	1092.07
584.71	1092.84
585.06	1092.26
585.41	1089.22
585.76	1088.07
586.11	1087.53
586.46	1083.32
586.81	1081.19
587.16	1081.58
587.51	1082.76
587.86	1080.95
588.21	1080.27
588.56	1080.88
588.91	1082.66
589.26	1083.93
589.61	1088.89
589.96	1089.71
590.31	1089.78
590.66	1090.85
591.01	1089.96
591.36	1085.73
591.71	1086.73
592.06	1087.67
592.41	1087.46
592.76	1087.48
593.10	1090.46
593.45	1091.11
593.80	1091.39
594.15	1091.18
594.50	1092.09
594.85	1088.30
595.20	1088.44
595.55	1088.02
595.90	1086.73
596.25	1087.44
596.60	1090.85
596.95	1090.46
597.30	1092.56
597.64	1106.04
597.99	1105.88
598.34	1103.07
598.69	1102.49
599.04	1101.06
599.39	1085.75
599.74	1083.48
600.09	1082.31
600.44	1082.54
600.78	1079.27
601.13	1081.80
601.48	1080.39
601.83	1080.09
602.18	1081.96
602.53	1086.90
602.88	1085.12
603.22	1086.10
603.57	1088.23
603.92	1082.12
604.27	1078.17
604.62	1079.92
604.97	1081.30
605.31	1083.15
605.66	1087.23
606.01	1086.87
606.36	1085.56
606.71	1083.20
607.05	1079.64
607.40	1078.75
607.75	1078.26
608.10	1080.27
608.44	1080.41
608.79	1082.97
609.14	1080.04
609.49	1081.56
609.84	1078.31
610.18	1079.57
610.53	1077.14
610.88	1079.57
611.23	1079.48
611.57	1080.86
611.92	1080.86
612.27	1081.63
612.62	1083.22
612.96	1082.03
613.31	1083.90
613.66	1083.71
614.00	1087.83
614.35	1088.09
614.70	1090.76
615.05	1090.46
615.39	1091.20
615.74	1088.63
616.09	1086.03
616.43	1083.62
616.78	1081.89
617.13	1083.46
617.47	1082.85
617.82	1082.92
618.17	1085.17
618.51	1088.04
618.86	1085.75
619.21	1084.21
619.55	1084.23
619.90	1083.67
620.25	1083.18
620.59	1084.84
620.94	1084.63
621.29	1085.14
621.63	1083.32
621.98	1085.28
622.32	1084.35
622.67	1084.07
623.02	1084.84
623.36	1086.71
623.71	1081.51
624.05	1081.26
624.40	1083.60
624.75	1085.24
625.09	1085.56
625.44	1086.06
625.78	1086.10
626.13	1084.04
626.48	1081.28
626.82	1080.34
627.17	1081.56
627.51	1082.10
627.86	1084.11
628.20	1084.96
628.55	1082.36
628.89	1079.48
629.24	1077.63
629.58	1075.94
629.93	1074.98
630.28	1078.03
630.62	1081.70
630.97	1083.86
631.31	1084.39
631.66	1085.21
632.00	1086.08
632.35	1082.64
632.69	1079.60
633.04	1080.93
633.38	1081.19
633.73	1079.99
634.07	1081.00
634.42	1085.21
634.76	1082.87
635.11	1082.59
635.45	1084.37
635.79	1085.84
636.14	1082.36
636.48	1082.52
636.83	1082.52
637.17	1080.72
637.52	1078.99
637.86	1077.35
638.21	1078.40
638.55	1074.68
638.89	1075.08
639.24	1079.71
639.58	1080.74
639.93	1079.29
640.27	1083.08
640.61	1082.36
640.96	1078.85
641.30	1080.65
641.65	1083.95
641.99	1082.87
642.33	1081.66
642.68	1083.25
643.02	1080.77
643.37	1078.12
643.71	1078.87
644.05	1083.57
644.40	1082.29
644.74	1084.30
645.08	1083.79
645.43	1084.11
645.77	1080.67
646.11	1080.91
646.46	1083.55
646.80	1083.27
647.14	1079.34
647.49	1077.63
647.83	1078.17
648.17	1078.12
648.52	1081.02
648.86	1082.92
649.20	1086.73
649.55	1086.08
649.89	1082.03
650.23	1080.91
650.57	1084.67
650.92	1085.12
651.26	1085.38
651.60	1085.31
651.95	1087.02
652.29	1084.70
652.63	1086.22
652.97	1086.43
653.32	1086.94
653.66	1084.67
654.00	1085.63
654.34	1079.13
654.69	1079.03
655.03	1079.97
655.37	1079.83
655.71	1077.56
656.05	1079.99
656.40	1078.80
656.74	1081.54
657.08	1085.00
657.42	1088.19
657.76	1088.86
658.11	1091.77
658.45	1089.59
658.79	1089.71
659.13	1090.01
659.47	1090.53
659.82	1086.48
660.16	1085.59
660.50	1082.47
660.84	1079.78
661.18	1078.19
661.52	1079.71
661.87	1080.20
662.21	1080.53
662.55	1081.96
662.89	1080.16
663.23	1079.50
663.57	1075.13
663.91	1071.80
664.25	1068.43
664.60	1071.36
664.94	1073.77
665.28	1077.72
665.62	1081.19
665.96	1084.00
666.30	1081.49
666.64	1079.41
666.98	1077.42
667.32	1076.41
667.66	1077.75
668.01	1079.99
668.35	1082.85
668.69	1085.54
669.03	1086.62
669.37	1086.10
669.71	1086.24
670.05	1082.66
670.39	1081.49
670.73	1078.31
671.07	1078.36
671.41	1077.58
671.75	1080.30
672.09	1081.00
672.43	1083.06
672.77	1083.67
673.11	1083.74
673.45	1082.47
673.79	1084.28
674.13	1083.60
674.47	1081.14
674.81	1080.02
675.15	1080.67
675.49	1077.54
675.83	1077.58
676.17	1078.50
676.51	1080.16
676.85	1078.36
677.19	1081.42
677.53	1081.58
677.87	1083.48
678.21	1082.29
678.55	1084.67
678.89	1081.91
679.23	1081.16
679.57	1078.57
679.90	1082.50
680.24	1077.35
680.58	1075.90
680.92	1080.51
681.26	1080.81
681.60	1077.84
681.94	1081.61
682.28	1082.50
682.62	1078.71
682.96	1078.26
683.29	1078.38
683.63	1079.22
683.97	1084.14
684.31	1086.13
684.65	1085.61
684.99	1086.94
685.33	1085.89
685.67	1084.09
686.00	1081.21
686.34	1082.10
686.68	1080.93
687.02	1081.23
687.36	1076.86
687.70	1079.08
688.03	1078.33
688.37	1076.95
688.71	1077.82
689.05	1082.29
689.39	1080.53
689.72	1082.69
690.06	1082.57
690.40	1080.06
690.74	1081.56
691.08	1083.22
691.41	1085.05
691.75	1083.83
692.09	1086.92
692.43	1083.48
692.76	1085.91
693.10	1084.77
693.44	1088.98
693.78	1086.31
694.11	1084.91
694.45	1079.97
694.79	1077.40
695.13	1075.45
695.46	1076.27
695.80	1078.14
696.14	1080.98
696.48	1081.37
696.81	1081.49
697.15	1083.04
697.49	1081.47
697.82	1081.47
698.16	1080.98
698.50	1079.48
698.83	1080.39
699.17	1083.08
699.51	1082.59
699.84	1084.46
700.18	1086.06
700.52	1083.83
700.85	1081.87
701.19	1080.79
701.53	1077.37
701.86	1077.40
702.20	1077.28
702.54	1079.20
702.87	1078.61
703.21	1082.64
703.55	1082.10
703.88	1083.25
704.22	1083.93
704.55	1085.89
704.89	1084.86
705.23	1085.63
705.56	1086.20
705.90	1084.89
706.23	1084.65
706.57	1085.61
706.91	1085.80
707.24	1083.39
707.58	1083.20
707.91	1078.94
708.25	1076.69
708.58	1074.87
708.92	1073.00
709.26	1073.11
709.59	1077.11
709.93	1074.77
710.26	1074.63
710.60	1075.69
710.93	1074.80
711.27	1073.25
711.60	1075.87
711.94	1074.21
712.27	1072.60
712.61	1073.04
712.94	1073.46
713.28	1075.48
713.61	1077.40
713.95	1077.35
714.28	1076.65
714.62	1078.33
714.95	1077.30
715.29	1078.28
715.62	1079.69
715.96	1078.68
716.29	1079.29
716.63	1077.86
716.96	1075.29
717.29	1076.34
717.63	1078.31
717.96	1076.67
718.30	1080.09
718.63	1083.43
718.97	1082.05
719.30	1081.68
719.63	1080.65
719.97	1077.65
720.30	1076.88
720.64	1077.51
720.97	1074.24
721.30	1075.59
721.64	1073.95
721.97	1072.95
722.31	1075.45
722.64	1079.20
722.97	1078.21
723.31	1080.20
723.64	1078.87
723.97	1075.27
724.31	1073.49
724.64	1074.84
724.98	1076.79
725.31	1075.87
725.64	1077.04
725.98	1075.94
726.31	1075.48
726.64	1073.02
726.97	1074.59
727.31	1075.69
727.64	1079.85
727.97	1078.68
728.31	1079.31
728.64	1077.63
728.97	1078.40
729.31	1078.61
729.64	1080.44
729.97	1081.35
730.30	1085.82
730.64	1085.33
730.97	1079.74
731.30	1079.06
731.63	1075.05
731.97	1072.71
732.30	1070.80
732.63	1070.80
732.96	1071.15
733.30	1074.05
733.63	1075.15
733.96	1077.61
734.29	1079.57
734.63	1080.04
734.96	1079.22
735.29	1076.76
735.62	1074.12
735.95	1076.88
736.29	1078.73
736.62	1078.59
736.95	1083.01
737.28	1083.22
737.61	1081.12
737.94	1077.09
738.28	1080.44
738.61	1080.48
738.94	1082.64
739.27	1084.35
739.60	1083.76
739.93	1081.70
740.27	1078.75
740.60	1079.62
740.93	1080.09
741.26	1079.57
741.59	1079.22
741.92	1080.09
742.25	1079.55
742.58	1077.63
742.91	1080.23
743.25	1081.40
743.58	1082.47
743.91	1082.10
744.24	1083.88
744.57	1083.22
744.90	1082.03
745.23	1078.26
745.56	1077.11
745.89	1073.53
746.22	1075.01
746.55	1077.04
746.88	1077.72
747.21	1078.28
747.54	1081.05
747.87	1083.20
748.20	1082.57
748.53	1085.94
748.87	1085.35
749.20	1081.63
749.53	1077.70
749.86	1077.93
750.19	1075.57
750.52	1076.95
750.85	1078.78
751.18	1079.17
751.51	1078.00
751.84	1077.86
752.16	1077.07
752.49	1075.31
752.82	1075.99
753.15	1075.78
753.48	1077.02
753.81	1078.03
754.14	1082.71
754.47	1082.10
754.80	1082.19
755.13	1080.72
755.46	1079.41
755.79	1073.65
756.12	1073.95
756.45	1072.06
756.78	1072.08
757.11	1074.45
757.43	1078.75
757.76	1080.11
758.09	1081.09
758.42	1080.60
758.75	1079.90
759.08	1080.13
759.41	1081.37
759.74	1078.52
760.07	1078.96
760.39	1076.32
760.72	1073.14
761.05	1073.93
761.38	1078.12
761.71	1079.08
762.04	1081.21
762.36	1084.35
762.69	1082.83
763.02	1084.21
763.35	1086.03
763.68	1081.94
764.01	1081.05
