SpectraSuite Data File
++++++++++++++++++++++++++++++++++++
Date: Mon Aug 26 10:22:19 PDT 2019
User: corrico
Dark Spectrum Present: No
Reference Spectrum Present: No
Number of Sampled Component Spectra: 1
Spectrometers: USB2+H06089
Integration Time (usec): 2000 (USB2+H06089)
Spectra Averaged: 20 (USB2+H06089)
Boxcar Smoothing: 2 (USB2+H06089)
Correct for Electrical Dark: No (USB2+H06089)
Strobe/Lamp Enabled: No (USB2+H06089)
Correct for Detector Non-linearity: No (USB2+H06089)
Correct for Stray Light: No (USB2+H06089)
Number of Pixels in Processed Spectrum: 2048
>>>>>Begin Processed Spectral Data<<<<<
339.70	1018.84
340.07	1018.84
340.45	990.09
340.82	969.75
341.19	947.99
341.57	924.77
341.94	914.66
342.31	903.56
342.69	897.38
343.06	891.60
343.43	890.36
343.81	890.22
344.18	894.55
344.55	900.66
344.93	909.95
345.30	917.23
345.67	925.40
346.04	935.16
346.42	944.15
346.79	950.63
347.16	955.78
347.54	963.90
347.91	970.34
348.28	976.92
348.65	988.15
349.03	998.50
349.40	1005.59
349.77	1014.58
350.14	1022.21
350.52	1028.27
350.89	1036.90
351.26	1044.14
351.63	1051.58
352.01	1057.57
352.38	1061.76
352.75	1064.78
353.12	1067.57
353.50	1069.09
353.87	1073.44
354.24	1074.35
354.61	1076.08
354.98	1079.43
355.36	1085.12
355.73	1085.94
356.10	1085.70
356.47	1087.48
356.84	1089.05
357.22	1083.57
357.59	1082.85
357.96	1083.88
358.33	1080.65
358.70	1074.07
359.08	1077.35
359.45	1077.98
359.82	1079.03
360.19	1078.43
360.56	1082.97
360.94	1080.60
361.31	1081.23
361.68	1079.03
362.05	1079.53
362.42	1075.15
362.79	1076.08
363.16	1075.08
363.54	1077.89
363.91	1081.58
364.28	1084.49
364.65	1081.33
365.02	1080.46
365.39	1081.70
365.76	1078.26
366.14	1075.17
366.51	1076.53
366.88	1075.62
367.25	1072.78
367.62	1073.04
367.99	1074.47
368.36	1073.67
368.73	1073.72
369.10	1074.56
369.48	1074.54
369.85	1075.71
370.22	1075.90
370.59	1075.57
370.96	1073.84
371.33	1075.48
371.70	1073.32
372.07	1072.06
372.44	1071.22
372.81	1072.50
373.18	1070.77
373.55	1072.81
373.93	1078.05
374.30	1080.48
374.67	1080.72
375.04	1082.33
375.41	1083.39
375.78	1079.34
376.15	1079.69
376.52	1079.57
376.89	1081.75
377.26	1081.56
377.63	1081.19
378.00	1079.95
378.37	1078.36
378.74	1074.12
379.11	1072.69
379.48	1074.49
379.85	1075.13
380.22	1076.23
380.59	1077.96
380.96	1079.74
381.33	1080.13
381.70	1082.19
382.07	1085.17
382.44	1086.73
382.81	1085.49
383.18	1087.37
383.55	1083.67
383.92	1081.73
384.29	1080.16
384.66	1079.67
385.03	1078.12
385.40	1079.83
385.77	1080.56
386.14	1080.39
386.51	1083.01
386.88	1084.16
387.25	1083.32
387.62	1082.45
387.99	1083.67
388.36	1085.63
388.73	1085.03
389.10	1086.57
389.46	1089.80
389.83	1088.28
390.20	1086.10
390.57	1084.23
390.94	1082.94
391.31	1077.51
391.68	1078.10
392.05	1076.62
392.42	1079.62
392.79	1082.12
393.16	1083.69
393.53	1086.34
393.89	1090.13
394.26	1089.19
394.63	1089.00
395.00	1091.51
395.37	1092.00
395.74	1090.57
396.11	1092.26
396.48	1090.88
396.84	1089.50
397.21	1086.57
397.58	1083.83
397.95	1081.61
398.32	1081.96
398.69	1082.57
399.06	1087.88
399.42	1089.07
399.79	1086.69
400.16	1085.24
400.53	1087.34
400.90	1084.25
401.27	1088.42
401.64	1091.56
402.00	1095.14
402.37	1091.42
402.74	1091.39
403.11	1090.01
403.48	1088.42
403.84	1087.13
404.21	1089.57
404.58	1089.57
404.95	1087.90
405.32	1092.49
405.68	1095.02
406.05	1096.40
406.42	1095.07
406.79	1096.40
407.16	1094.62
407.52	1093.15
407.89	1092.66
408.26	1095.91
408.63	1096.63
408.99	1096.59
409.36	1096.99
409.73	1097.17
410.10	1092.40
410.47	1092.98
410.83	1092.33
411.20	1093.01
411.57	1092.89
411.94	1099.14
412.30	1097.38
412.67	1096.82
413.04	1095.21
413.40	1095.82
413.77	1091.91
414.14	1092.33
414.51	1096.49
414.87	1099.44
415.24	1100.99
415.61	1103.45
415.97	1105.08
416.34	1104.12
416.71	1102.18
417.08	1103.84
417.44	1105.97
417.81	1108.45
418.18	1110.84
418.54	1112.13
418.91	1115.31
419.28	1116.01
419.64	1117.00
420.01	1118.21
420.38	1120.41
420.74	1119.17
421.11	1119.20
421.48	1119.69
421.84	1118.80
422.21	1123.13
422.58	1121.77
422.94	1126.29
423.31	1131.06
423.68	1135.96
424.04	1139.33
424.41	1145.01
424.77	1145.18
425.14	1145.69
425.51	1148.90
425.87	1150.75
426.24	1153.81
426.61	1163.93
426.97	1170.83
427.34	1177.55
427.70	1183.63
428.07	1191.43
428.44	1193.25
428.80	1202.47
429.17	1206.66
429.53	1218.39
429.90	1226.39
430.27	1238.71
430.63	1242.99
431.00	1253.99
431.36	1261.38
431.73	1271.52
432.09	1283.62
432.46	1301.03
432.83	1319.13
433.19	1333.87
433.56	1358.70
433.92	1380.96
434.29	1401.77
434.65	1423.14
435.02	1449.82
435.38	1474.35
435.75	1499.96
436.11	1529.70
436.48	1562.75
436.84	1598.21
437.21	1630.35
437.57	1667.40
437.94	1709.11
438.30	1753.46
438.67	1796.20
439.03	1849.37
439.40	1906.76
439.76	1962.75
440.13	2025.55
440.49	2092.86
440.86	2159.38
441.22	2231.16
441.59	2307.04
441.95	2386.27
442.32	2476.87
442.68	2575.17
443.05	2664.65
443.41	2762.56
443.78	2861.77
444.14	2963.26
444.51	3071.04
444.87	3215.24
445.24	3358.90
445.60	3517.50
445.96	3673.28
446.33	3845.08
446.69	4009.95
447.06	4190.42
447.42	4366.36
447.79	4557.77
448.15	4779.02
448.51	5008.47
448.88	5270.23
449.24	5525.79
449.61	5810.22
449.97	6084.95
450.33	6369.70
450.70	6631.56
451.06	6959.02
451.43	7267.93
451.79	7628.32
452.15	8036.84
452.52	8491.60
452.88	8971.20
453.24	9519.19
453.61	10114.63
453.97	10679.70
454.34	11235.30
454.70	11877.68
455.06	12516.58
455.43	13139.35
455.79	13734.87
456.15	14455.62
456.52	15118.55
456.88	15895.40
457.24	16628.34
457.61	17504.38
457.97	18289.91
458.33	19090.86
458.70	19872.51
459.06	20650.85
459.42	21478.67
459.79	22255.71
460.15	23155.06
460.51	24026.23
460.88	24948.24
461.24	25745.78
461.60	26708.53
461.96	27590.21
462.33	28453.64
462.69	29272.99
463.05	30165.15
463.42	30926.11
463.78	31580.59
464.14	32113.84
464.50	32717.06
464.87	33171.34
465.23	33493.86
465.59	33876.26
465.95	34219.94
466.32	34494.60
466.68	34754.66
467.04	34932.50
467.40	35064.97
467.77	35216.54
468.13	35189.53
468.49	35106.49
468.85	35029.21
469.22	34883.79
469.58	34522.20
469.94	34270.15
470.30	33956.73
470.66	33533.98
471.03	32913.69
471.39	32543.82
471.75	31917.46
472.11	31319.64
472.47	30972.40
472.84	30680.82
473.20	30193.73
473.56	29924.45
473.92	29484.03
474.28	28949.90
474.65	28444.02
475.01	27976.77
475.37	27416.54
475.73	26970.58
476.09	26468.02
476.45	25972.83
476.81	25445.56
477.18	24895.60
477.54	24433.51
477.90	24063.84
478.26	23616.85
478.62	23263.29
478.98	22961.29
479.34	22626.50
479.71	22191.72
480.07	21825.80
480.43	21453.02
480.79	21052.67
481.15	20692.16
481.51	20372.61
481.87	20111.43
482.23	19813.81
482.59	19571.44
482.96	19303.43
483.32	19017.84
483.68	18637.71
484.04	18300.34
484.40	17917.76
484.76	17534.03
485.12	17161.23
485.48	16833.55
485.84	16468.69
486.20	16102.89
486.56	15728.07
486.92	15413.81
487.28	15065.02
487.64	14716.56
488.00	14386.57
488.37	14052.37
488.73	13672.10
489.09	13314.07
489.45	12983.26
489.81	12664.22
490.17	12373.87
490.53	12093.45
490.89	11788.76
491.25	11493.25
491.61	11183.45
491.97	10851.94
492.33	10517.78
492.69	10219.64
493.05	9906.90
493.41	9612.63
493.77	9338.53
494.13	9076.69
494.49	8822.88
494.85	8577.74
495.21	8347.50
495.57	8117.45
495.93	7900.99
496.29	7693.39
496.64	7510.73
497.00	7310.55
497.36	7120.03
497.72	6931.45
498.08	6742.17
498.44	6548.14
498.80	6373.75
499.16	6207.43
499.52	6046.66
499.88	5911.44
500.24	5784.24
500.60	5661.17
500.96	5543.77
501.32	5416.77
501.68	5292.56
502.03	5166.43
502.39	5041.16
502.75	4893.43
503.11	4778.79
503.47	4654.95
503.83	4528.63
504.19	4403.86
504.55	4304.32
504.91	4200.86
505.26	4099.31
505.62	4011.42
505.98	3923.56
506.34	3828.55
506.70	3732.71
507.06	3648.99
507.42	3562.04
507.78	3482.74
508.13	3409.58
508.49	3338.73
508.85	3262.47
509.21	3195.84
509.57	3128.41
509.93	3055.99
510.28	2992.35
510.64	2931.92
511.00	2861.16
511.36	2795.47
511.72	2741.09
512.07	2685.27
512.43	2632.94
512.79	2586.74
513.15	2542.36
513.51	2496.91
513.86	2454.52
514.22	2411.38
514.58	2371.10
514.94	2336.30
515.30	2299.04
515.65	2256.98
516.01	2225.76
516.37	2192.75
516.73	2156.87
517.08	2130.33
517.44	2102.18
517.80	2067.16
518.16	2042.21
518.51	2015.01
518.87	1983.00
519.23	1952.85
519.59	1932.93
519.94	1903.07
520.30	1878.49
520.66	1852.25
521.01	1829.57
521.37	1808.74
521.73	1787.87
522.09	1766.45
522.44	1751.45
522.80	1730.12
523.16	1705.20
523.51	1684.72
523.87	1664.82
524.23	1643.01
524.58	1626.74
524.94	1609.24
525.30	1595.08
525.65	1579.09
526.01	1564.41
526.37	1550.72
526.72	1538.15
527.08	1521.84
527.44	1507.49
527.79	1494.36
528.15	1482.92
528.51	1466.79
528.86	1456.02
529.22	1442.89
529.58	1428.90
529.93	1416.80
530.29	1407.62
530.65	1392.34
531.00	1387.94
531.36	1377.97
531.71	1365.12
532.07	1359.83
532.43	1351.94
532.78	1339.47
533.14	1334.22
533.49	1330.78
533.85	1323.60
534.21	1320.90
534.56	1314.30
534.92	1307.70
535.27	1301.22
535.63	1296.02
535.98	1285.52
536.34	1283.99
536.69	1280.67
537.05	1272.46
537.41	1264.83
537.76	1263.21
538.12	1253.05
538.47	1247.27
538.83	1244.11
539.18	1240.16
539.54	1233.77
539.89	1229.81
540.25	1221.50
540.60	1215.11
540.96	1210.45
541.31	1207.27
541.67	1208.82
542.02	1209.31
542.38	1210.17
542.73	1206.27
543.09	1202.31
543.44	1193.91
543.80	1188.80
544.15	1186.09
544.51	1184.03
544.86	1185.97
545.22	1188.97
545.57	1188.71
545.93	1183.94
546.28	1183.40
546.64	1179.37
546.99	1175.79
547.35	1174.67
547.70	1171.02
548.05	1166.52
548.41	1160.72
548.76	1155.48
549.12	1149.88
549.47	1151.64
549.83	1148.85
550.18	1152.69
550.53	1152.22
550.89	1150.28
551.24	1150.26
551.60	1149.88
551.95	1146.72
552.30	1146.07
552.66	1147.45
553.01	1145.04
553.37	1142.88
553.72	1140.26
554.07	1140.05
554.43	1134.04
554.78	1128.09
555.13	1126.99
555.49	1125.68
555.84	1118.94
556.19	1121.23
556.55	1124.02
556.90	1120.55
557.26	1121.51
557.61	1125.21
557.96	1126.38
558.32	1124.86
558.67	1128.51
559.02	1126.13
559.37	1124.63
559.73	1121.26
560.08	1118.89
560.43	1112.69
560.79	1112.01
561.14	1110.75
561.49	1110.58
561.85	1110.91
562.20	1113.70
562.55	1109.46
562.90	1107.12
563.26	1107.49
563.61	1105.34
563.96	1104.19
564.32	1108.48
564.67	1109.60
565.02	1108.48
565.37	1110.70
565.73	1110.87
566.08	1106.79
566.43	1104.76
566.78	1104.03
567.14	1102.72
567.49	1105.86
567.84	1108.34
568.19	1109.25
568.54	1105.93
568.90	1105.29
569.25	1103.28
569.60	1102.53
569.95	1101.55
570.31	1105.93
570.66	1104.94
571.01	1101.11
571.36	1098.48
571.71	1099.54
572.06	1097.01
572.42	1098.06
572.77	1097.88
573.12	1099.21
573.47	1097.73
573.82	1095.65
574.18	1093.64
574.53	1096.45
574.88	1095.04
575.23	1093.78
575.58	1094.81
575.93	1094.93
576.28	1093.73
576.64	1092.63
576.99	1092.54
577.34	1091.77
577.69	1089.45
578.04	1089.36
578.39	1087.37
578.74	1089.99
579.09	1093.80
579.44	1097.31
579.80	1094.13
580.15	1100.05
580.50	1098.83
580.85	1096.24
581.20	1098.65
581.55	1100.59
581.90	1097.27
582.25	1095.11
582.60	1093.05
582.95	1091.20
583.30	1093.52
583.65	1093.83
584.00	1096.52
584.35	1098.55
584.71	1098.60
585.06	1097.31
585.41	1095.23
585.76	1095.14
586.11	1094.97
586.46	1093.78
586.81	1090.85
587.16	1092.96
587.51	1090.20
587.86	1089.17
588.21	1090.55
588.56	1093.94
588.91	1093.94
589.26	1093.94
589.61	1093.17
589.96	1092.05
590.31	1090.74
590.66	1089.71
591.01	1090.88
591.36	1091.09
591.71	1088.33
592.06	1090.01
592.41	1089.64
592.76	1090.97
593.10	1091.72
593.45	1089.78
593.80	1084.89
594.15	1085.33
594.50	1083.86
594.85	1082.10
595.20	1086.97
595.55	1092.26
595.90	1090.10
596.25	1089.22
596.60	1091.09
596.95	1090.88
597.30	1088.35
597.64	1099.79
597.99	1100.71
598.34	1100.73
598.69	1099.91
599.04	1097.88
599.39	1088.84
599.74	1087.69
600.09	1087.39
600.44	1087.72
600.78	1086.97
601.13	1089.05
601.48	1090.64
601.83	1091.49
602.18	1089.54
602.53	1090.50
602.88	1089.00
603.22	1085.07
603.57	1083.95
603.92	1084.21
604.27	1084.37
604.62	1083.48
604.97	1086.62
605.31	1084.09
605.66	1082.24
606.01	1079.83
606.36	1080.46
606.71	1080.86
607.05	1081.73
607.40	1082.61
607.75	1083.71
608.10	1081.09
608.44	1080.48
608.79	1079.41
609.14	1079.99
609.49	1079.83
609.84	1077.51
610.18	1074.45
610.53	1077.30
610.88	1077.93
611.23	1078.17
611.57	1083.29
611.92	1086.64
612.27	1084.84
612.62	1085.96
612.96	1085.96
613.31	1084.93
613.66	1085.54
614.00	1086.27
614.35	1085.66
614.70	1086.71
615.05	1086.45
615.39	1085.38
615.74	1084.84
616.09	1086.29
616.43	1085.14
616.78	1086.13
617.13	1089.61
617.47	1088.61
617.82	1086.85
618.17	1084.51
618.51	1084.49
618.86	1082.73
619.21	1082.50
619.55	1083.95
619.90	1086.29
620.25	1082.78
620.59	1083.01
620.94	1085.59
621.29	1084.79
621.63	1085.70
621.98	1085.31
622.32	1082.40
622.67	1083.08
623.02	1080.18
623.36	1082.66
623.71	1086.01
624.05	1087.02
624.40	1083.90
624.75	1085.17
625.09	1083.62
625.44	1084.11
625.78	1083.86
626.13	1082.66
626.48	1082.78
626.82	1081.12
627.17	1080.13
627.51	1079.60
627.86	1082.52
628.20	1085.63
628.55	1087.04
628.89	1087.46
629.24	1087.60
629.58	1083.90
629.93	1079.55
630.28	1079.85
630.62	1079.17
630.97	1082.66
631.31	1086.08
631.66	1088.98
632.00	1086.92
632.35	1086.92
632.69	1083.90
633.04	1082.33
633.38	1081.02
633.73	1081.44
634.07	1078.28
634.42	1078.87
634.76	1081.66
635.11	1082.66
635.45	1081.84
635.79	1084.02
636.14	1084.56
636.48	1084.16
636.83	1078.75
637.17	1080.37
637.52	1078.92
637.86	1077.72
638.21	1075.41
638.55	1080.16
638.89	1081.44
639.24	1083.20
639.58	1084.72
639.93	1086.52
640.27	1084.60
640.61	1082.83
640.96	1082.80
641.30	1082.26
641.65	1082.24
641.99	1081.87
642.33	1083.60
642.68	1085.77
643.02	1087.69
643.37	1086.73
643.71	1087.83
644.05	1085.54
644.40	1085.91
644.74	1081.70
645.08	1084.02
645.43	1085.73
645.77	1085.89
646.11	1083.06
646.46	1088.82
646.80	1090.92
647.14	1090.22
647.49	1091.39
647.83	1093.40
648.17	1088.54
648.52	1086.87
648.86	1086.50
649.20	1086.55
649.55	1087.51
649.89	1087.25
650.23	1086.66
650.57	1086.62
650.92	1083.97
651.26	1084.00
651.60	1086.13
651.95	1082.69
652.29	1077.70
652.63	1077.28
652.97	1076.01
653.32	1074.70
653.66	1075.99
654.00	1078.21
654.34	1074.98
654.69	1075.15
655.03	1074.31
655.37	1073.72
655.71	1075.73
656.05	1078.92
656.40	1077.54
656.74	1080.65
657.08	1081.58
657.42	1082.10
657.76	1084.74
658.11	1081.73
658.45	1081.28
658.79	1081.94
659.13	1081.70
659.47	1082.69
659.82	1086.17
660.16	1084.35
660.50	1084.46
660.84	1083.95
661.18	1087.06
661.52	1087.13
661.87	1086.87
662.21	1084.86
662.55	1083.32
662.89	1076.53
663.23	1076.90
663.57	1079.38
663.91	1080.60
664.25	1082.38
664.60	1083.97
664.94	1083.15
665.28	1080.27
665.62	1082.31
665.96	1083.67
666.30	1088.75
666.64	1089.29
666.98	1089.43
667.32	1089.59
667.66	1087.39
668.01	1086.31
668.35	1086.69
668.69	1085.59
669.03	1082.08
669.37	1083.48
669.71	1082.94
670.05	1080.81
670.39	1081.07
670.73	1081.94
671.07	1082.33
671.41	1080.51
671.75	1082.03
672.09	1083.62
672.43	1084.16
672.77	1083.64
673.11	1085.24
673.45	1088.02
673.79	1086.10
674.13	1084.67
674.47	1083.15
674.81	1080.13
675.15	1075.69
675.49	1072.50
675.83	1072.13
676.17	1072.85
676.51	1070.89
676.85	1072.60
677.19	1077.51
677.53	1078.31
677.87	1079.31
678.21	1083.08
678.55	1083.69
678.89	1083.25
679.23	1083.22
679.57	1081.05
679.90	1081.02
680.24	1081.09
680.58	1081.91
680.92	1080.39
681.26	1081.42
681.60	1079.76
681.94	1077.86
682.28	1077.42
682.62	1078.19
682.96	1079.60
683.29	1079.15
683.63	1080.25
683.97	1081.87
684.31	1080.93
684.65	1082.05
684.99	1084.58
685.33	1083.32
685.67	1083.83
686.00	1086.48
686.34	1085.56
686.68	1085.33
687.02	1085.12
687.36	1084.74
687.70	1086.17
688.03	1084.84
688.37	1083.39
688.71	1087.30
689.05	1085.91
689.39	1082.99
689.72	1085.70
690.06	1086.64
690.40	1083.04
690.74	1081.26
691.08	1085.03
691.41	1080.65
691.75	1077.00
692.09	1077.72
692.43	1079.50
692.76	1078.92
693.10	1077.49
693.44	1080.13
693.78	1080.02
694.11	1078.38
694.45	1075.01
694.79	1077.11
695.13	1076.15
695.46	1077.04
695.80	1080.02
696.14	1078.45
696.48	1079.15
696.81	1081.87
697.15	1082.50
697.49	1081.09
697.82	1082.24
698.16	1082.38
698.50	1080.02
698.83	1078.96
699.17	1075.52
699.51	1076.18
699.84	1076.34
700.18	1077.28
700.52	1079.29
700.85	1079.95
701.19	1079.48
701.53	1079.24
701.86	1080.56
702.20	1079.06
702.54	1081.12
702.87	1083.64
703.21	1084.53
703.55	1082.78
703.88	1085.07
704.22	1085.70
704.55	1084.51
704.89	1085.91
705.23	1084.25
705.56	1082.57
705.90	1082.17
706.23	1083.69
706.57	1081.63
706.91	1081.73
707.24	1080.34
707.58	1079.62
707.91	1077.37
708.25	1080.86
708.58	1082.01
708.92	1080.53
709.26	1082.45
709.59	1082.19
709.93	1079.92
710.26	1082.10
710.60	1084.18
710.93	1081.82
711.27	1081.77
711.60	1081.16
711.94	1079.97
712.27	1079.13
712.61	1080.70
712.94	1081.40
713.28	1080.32
713.61	1080.74
713.95	1079.41
714.28	1078.03
714.62	1074.66
714.95	1077.07
715.29	1078.21
715.62	1076.83
715.96	1077.18
716.29	1083.71
716.63	1084.00
716.96	1084.79
717.29	1088.96
717.63	1089.29
717.96	1087.72
718.30	1088.89
718.63	1083.36
718.97	1079.55
719.30	1078.12
719.63	1079.76
719.97	1076.72
720.30	1078.94
720.64	1082.64
720.97	1087.27
721.30	1085.42
721.64	1088.35
721.97	1088.09
722.31	1087.95
722.64	1083.62
722.97	1082.33
723.31	1078.26
723.64	1078.54
723.97	1078.99
724.31	1080.93
724.64	1083.32
724.98	1086.03
725.31	1086.13
725.64	1081.77
725.98	1080.46
726.31	1077.98
726.64	1076.06
726.97	1075.31
727.31	1078.36
727.64	1081.16
727.97	1082.43
728.31	1082.12
728.64	1082.57
728.97	1082.33
729.31	1080.27
729.64	1079.01
729.97	1081.30
730.30	1082.90
730.64	1086.06
730.97	1082.01
731.30	1083.15
731.63	1076.69
731.97	1075.55
732.30	1072.41
732.63	1075.78
732.96	1078.68
733.30	1081.44
733.63	1081.28
733.96	1081.96
734.29	1083.53
734.63	1079.64
734.96	1082.38
735.29	1084.86
735.62	1083.04
735.95	1080.32
736.29	1079.01
736.62	1076.30
736.95	1071.64
737.28	1071.17
737.61	1070.68
737.94	1070.58
738.28	1071.68
738.61	1076.27
738.94	1079.17
739.27	1081.66
739.60	1084.51
739.93	1086.20
740.27	1081.47
740.60	1081.68
740.93	1077.91
741.26	1076.01
741.59	1073.39
741.92	1076.79
742.25	1074.82
742.58	1077.68
742.91	1076.81
743.25	1076.51
743.58	1077.68
743.91	1077.65
744.24	1076.41
744.57	1079.41
744.90	1079.71
745.23	1076.20
745.56	1078.96
745.89	1081.42
746.22	1080.98
746.55	1083.13
746.88	1086.45
747.21	1085.07
747.54	1083.41
747.87	1084.37
748.20	1081.19
748.53	1077.89
748.87	1078.26
749.20	1077.82
749.53	1076.18
749.86	1078.87
750.19	1081.47
750.52	1079.29
750.85	1080.51
751.18	1079.17
751.51	1077.58
751.84	1074.42
752.16	1075.92
752.49	1072.57
752.82	1074.63
753.15	1078.82
753.48	1078.40
753.81	1076.48
754.14	1076.79
754.47	1076.88
754.80	1074.07
755.13	1077.37
755.46	1077.68
755.79	1078.43
756.12	1078.26
756.45	1080.72
756.78	1078.12
757.11	1077.72
757.43	1080.27
757.76	1080.02
758.09	1079.62
758.42	1081.56
758.75	1082.05
759.08	1082.01
759.41	1079.78
759.74	1077.65
760.07	1077.23
760.39	1078.40
760.72	1079.95
761.05	1080.95
761.38	1080.20
761.71	1079.31
762.04	1077.47
762.36	1075.62
762.69	1075.71
763.02	1078.00
763.35	1079.01
763.68	1080.16
764.01	1080.70
