SpectraSuite Data File
++++++++++++++++++++++++++++++++++++
Date: Mon Aug 26 10:22:34 PDT 2019
User: corrico
Dark Spectrum Present: No
Reference Spectrum Present: No
Number of Sampled Component Spectra: 1
Spectrometers: USB2+H06089
Integration Time (usec): 2000 (USB2+H06089)
Spectra Averaged: 20 (USB2+H06089)
Boxcar Smoothing: 2 (USB2+H06089)
Correct for Electrical Dark: No (USB2+H06089)
Strobe/Lamp Enabled: No (USB2+H06089)
Correct for Detector Non-linearity: No (USB2+H06089)
Correct for Stray Light: No (USB2+H06089)
Number of Pixels in Processed Spectrum: 2048
>>>>>Begin Processed Spectral Data<<<<<
339.70	1035.22
340.07	1035.22
340.45	994.10
340.82	971.35
341.19	946.70
341.57	919.67
341.94	912.32
342.31	908.53
342.69	899.63
343.06	895.86
343.43	896.73
343.81	895.65
344.18	900.52
344.55	908.74
344.93	912.39
345.30	916.06
345.67	924.79
346.04	930.11
346.42	937.60
346.79	947.82
347.16	958.78
347.54	961.98
347.91	970.25
348.28	979.51
348.65	992.11
349.03	1000.88
349.40	1013.69
349.77	1022.04
350.14	1028.71
350.52	1033.39
350.89	1042.57
351.26	1048.12
351.63	1053.26
352.01	1057.48
352.38	1059.14
352.75	1058.76
353.12	1063.28
353.50	1065.62
353.87	1069.93
354.24	1075.73
354.61	1079.76
354.98	1080.91
355.36	1081.16
355.73	1083.36
356.10	1084.14
356.47	1080.58
356.84	1079.17
357.22	1079.48
357.59	1081.63
357.96	1081.91
358.33	1084.32
358.70	1085.52
359.08	1086.06
359.45	1082.57
359.82	1081.33
360.19	1080.18
360.56	1079.06
360.94	1075.97
361.31	1075.05
361.68	1074.10
362.05	1076.55
362.42	1077.86
362.79	1081.47
363.16	1079.46
363.54	1077.44
363.91	1076.69
364.28	1076.90
364.65	1075.15
365.02	1076.32
365.39	1076.51
365.76	1072.97
366.14	1072.78
366.51	1072.46
366.88	1075.62
367.25	1076.41
367.62	1080.13
367.99	1079.38
368.36	1079.97
368.73	1072.85
369.10	1071.78
369.48	1067.24
369.85	1063.09
370.22	1064.08
370.59	1070.21
370.96	1070.75
371.33	1074.73
371.70	1073.60
372.07	1074.96
372.44	1070.42
372.81	1069.20
373.18	1066.32
373.55	1072.25
373.93	1069.51
374.30	1069.65
374.67	1069.09
375.04	1071.45
375.41	1070.28
375.78	1074.59
376.15	1076.95
376.52	1077.14
376.89	1078.05
377.26	1078.40
377.63	1076.60
378.00	1077.00
378.37	1082.29
378.74	1080.56
379.11	1078.52
379.48	1074.77
379.85	1075.97
380.22	1071.01
380.59	1072.27
380.96	1074.61
381.33	1075.48
381.70	1074.31
382.07	1078.33
382.44	1081.44
382.81	1081.05
383.18	1084.67
383.55	1084.28
383.92	1080.39
384.29	1080.51
384.66	1079.97
385.03	1079.36
385.40	1075.48
385.77	1080.25
386.14	1075.29
386.51	1078.21
386.88	1077.35
387.25	1082.50
387.62	1081.98
387.99	1082.87
388.36	1081.56
388.73	1080.77
389.10	1080.27
389.46	1079.43
389.83	1079.67
390.20	1078.71
390.57	1077.79
390.94	1079.01
391.31	1079.38
391.68	1079.27
392.05	1081.61
392.42	1082.43
392.79	1084.56
393.16	1085.19
393.53	1088.70
393.89	1088.23
394.26	1091.51
394.63	1090.20
395.00	1089.14
395.37	1085.96
395.74	1085.33
396.11	1082.90
396.48	1082.15
396.84	1080.74
397.21	1080.91
397.58	1081.51
397.95	1082.78
398.32	1084.56
398.69	1088.65
399.06	1092.33
399.42	1090.85
399.79	1090.03
400.16	1088.33
400.53	1083.74
400.90	1083.57
401.27	1083.79
401.64	1085.49
402.00	1084.44
402.37	1088.47
402.74	1087.39
403.11	1090.69
403.48	1091.60
403.84	1093.73
404.21	1091.39
404.58	1090.64
404.95	1092.49
405.32	1094.15
405.68	1093.47
406.05	1096.26
406.42	1098.53
406.79	1096.96
407.16	1097.62
407.52	1098.44
407.89	1096.68
408.26	1097.48
408.63	1096.17
408.99	1096.59
409.36	1096.87
409.73	1097.83
410.10	1096.19
410.47	1097.66
410.83	1097.17
411.20	1100.00
411.57	1101.39
411.94	1102.28
412.30	1101.08
412.67	1097.73
413.04	1096.33
413.40	1094.79
413.77	1095.79
414.14	1096.59
414.51	1099.14
414.87	1096.10
415.24	1097.92
415.61	1097.99
415.97	1099.89
416.34	1100.57
416.71	1106.63
417.08	1106.32
417.44	1106.49
417.81	1104.38
418.18	1106.09
418.54	1104.69
418.91	1107.12
419.28	1109.69
419.64	1115.45
420.01	1116.90
420.38	1118.68
420.74	1119.38
421.11	1120.77
421.48	1120.46
421.84	1123.39
422.21	1124.88
422.58	1124.23
422.94	1125.63
423.31	1126.62
423.68	1126.34
424.04	1129.71
424.41	1140.07
424.77	1142.77
425.14	1146.70
425.51	1149.20
425.87	1151.31
426.24	1151.82
426.61	1155.76
426.97	1161.26
427.34	1169.40
427.70	1175.84
428.07	1184.08
428.44	1192.08
428.80	1198.68
429.17	1206.55
429.53	1216.87
429.90	1223.56
430.27	1234.80
430.63	1243.32
431.00	1253.66
431.36	1263.91
431.73	1275.90
432.09	1283.03
432.46	1295.39
432.83	1308.41
433.19	1322.73
433.56	1341.31
433.92	1366.17
434.29	1391.59
434.65	1416.38
435.02	1445.44
435.38	1475.66
435.75	1503.84
436.11	1532.72
436.48	1565.87
436.84	1596.69
437.21	1626.30
437.57	1659.16
437.94	1702.11
438.30	1748.99
438.67	1794.49
439.03	1847.76
439.40	1902.32
439.76	1956.76
440.13	2011.55
440.49	2076.94
440.86	2141.89
441.22	2220.68
441.59	2296.95
441.95	2384.51
442.32	2474.11
442.68	2569.67
443.05	2657.35
443.41	2757.36
443.78	2850.37
444.14	2956.45
444.51	3065.26
444.87	3203.96
445.24	3345.35
445.60	3503.15
445.96	3653.25
446.33	3829.02
446.69	3987.52
447.06	4164.28
447.42	4337.08
447.79	4535.33
448.15	4753.25
448.51	4991.47
448.88	5249.33
449.24	5495.34
449.61	5771.41
449.97	6041.62
450.33	6328.25
450.70	6589.36
451.06	6921.81
451.43	7229.00
451.79	7597.36
452.15	7994.68
452.52	8454.79
452.88	8930.38
453.24	9461.15
453.61	10039.80
453.97	10602.11
454.34	11138.61
454.70	11775.09
455.06	12424.59
455.43	13043.22
455.79	13632.43
456.15	14355.35
456.52	15034.88
456.88	15810.30
457.24	16541.27
457.61	17416.11
457.97	18190.74
458.33	18947.01
458.70	19709.49
459.06	20481.42
459.42	21306.32
459.79	22075.02
460.15	22985.65
460.51	23845.33
460.88	24805.18
461.24	25599.38
461.60	26571.75
461.96	27431.66
462.33	28265.60
462.69	29004.32
463.05	29841.62
463.42	30541.00
463.78	31210.25
464.14	31783.30
464.50	32398.33
464.87	32893.28
465.23	33268.33
465.59	33606.23
465.95	33899.57
466.32	34145.98
466.68	34388.25
467.04	34525.71
467.40	34649.29
467.77	34804.75
468.13	34791.08
468.49	34649.10
468.85	34561.47
469.22	34373.20
469.58	34009.11
469.94	33745.49
470.30	33440.38
470.66	33023.30
471.03	32456.49
471.39	32054.34
471.75	31401.47
472.11	30792.84
472.47	30401.34
472.84	30052.17
473.20	29565.06
473.56	29294.50
473.92	28863.60
474.28	28369.96
474.65	27904.90
475.01	27447.28
475.37	26890.77
475.73	26465.58
476.09	25938.05
476.45	25432.12
476.81	24909.74
477.18	24365.94
477.54	23889.85
477.90	23535.98
478.26	23112.32
478.62	22773.25
478.98	22505.26
479.34	22204.66
479.71	21796.54
480.07	21435.68
480.43	21071.35
480.79	20686.97
481.15	20326.45
481.51	20024.85
481.87	19800.67
482.23	19516.63
482.59	19267.10
482.96	18989.63
483.32	18704.58
483.68	18322.72
484.04	17985.52
484.40	17609.04
484.76	17244.93
485.12	16866.88
485.48	16554.54
485.84	16212.91
486.20	15858.28
486.56	15495.52
486.92	15180.13
487.28	14813.72
487.64	14464.09
488.00	14142.66
488.37	13816.72
488.73	13447.97
489.09	13092.91
489.45	12767.04
489.81	12442.52
490.17	12122.03
490.53	11838.08
490.89	11527.21
491.25	11212.78
491.61	10891.21
491.97	10594.43
492.33	10273.36
492.69	9983.23
493.05	9681.70
493.41	9404.93
493.77	9123.53
494.13	8866.49
494.49	8618.98
494.85	8389.39
495.21	8158.83
495.57	7946.77
495.93	7736.29
496.29	7533.22
496.64	7351.20
497.00	7154.32
497.36	6964.66
497.72	6780.56
498.08	6612.39
498.44	6430.93
498.80	6266.06
499.16	6101.05
499.52	5935.90
499.88	5792.87
500.24	5663.84
500.60	5541.90
500.96	5422.93
501.32	5312.36
501.68	5195.87
502.03	5073.13
502.39	4956.95
502.75	4823.31
503.11	4700.69
503.47	4584.29
503.83	4456.38
504.19	4330.86
504.55	4227.78
504.91	4128.52
505.26	4027.10
505.62	3945.46
505.98	3857.79
506.34	3766.60
506.70	3679.32
507.06	3590.08
507.42	3503.64
507.78	3425.40
508.13	3350.36
508.49	3270.34
508.85	3198.01
509.21	3121.46
509.57	3054.98
509.93	2988.44
510.28	2927.17
510.64	2867.65
511.00	2812.08
511.36	2755.91
511.72	2702.59
512.07	2654.26
512.43	2606.02
512.79	2554.69
513.15	2505.50
513.51	2465.66
513.86	2415.41
514.22	2373.98
514.58	2337.24
514.94	2298.83
515.30	2256.58
515.65	2223.53
516.01	2189.22
516.37	2157.18
516.73	2130.94
517.08	2101.26
517.44	2067.37
517.80	2036.94
518.16	2009.94
518.51	1979.02
518.87	1948.50
519.23	1924.81
519.59	1896.51
519.94	1870.95
520.30	1846.64
520.66	1824.31
521.01	1803.97
521.37	1785.83
521.73	1765.79
522.09	1746.69
522.44	1728.44
522.80	1708.64
523.16	1690.78
523.51	1671.21
523.87	1650.31
524.23	1635.38
524.58	1614.83
524.94	1597.20
525.30	1577.90
525.65	1563.06
526.01	1544.66
526.37	1532.26
526.72	1519.57
527.08	1507.77
527.44	1495.46
527.79	1483.03
528.15	1470.16
528.51	1456.14
528.86	1442.99
529.22	1428.43
529.58	1415.79
529.93	1404.72
530.29	1391.92
530.65	1383.14
531.00	1377.36
531.36	1369.47
531.71	1361.30
532.07	1354.16
532.43	1348.22
532.78	1339.96
533.14	1334.25
533.49	1325.07
533.85	1322.17
534.21	1315.15
534.56	1309.60
534.92	1302.30
535.27	1298.55
535.63	1288.14
535.98	1279.20
536.34	1271.61
536.69	1265.48
537.05	1259.42
537.41	1256.33
537.76	1250.67
538.12	1247.20
538.47	1245.47
538.83	1238.14
539.18	1231.94
539.54	1229.37
539.89	1222.53
540.25	1217.55
540.60	1217.08
540.96	1212.94
541.31	1211.27
541.67	1211.11
542.02	1203.11
542.38	1197.84
542.73	1197.98
543.09	1194.45
543.44	1188.69
543.80	1190.30
544.15	1186.07
544.51	1184.80
544.86	1179.61
545.22	1181.06
545.57	1178.09
545.93	1178.06
546.28	1171.65
546.64	1169.73
546.99	1163.90
547.35	1160.02
547.70	1156.93
548.05	1157.35
548.41	1156.25
548.76	1155.69
549.12	1153.35
549.47	1152.99
549.83	1149.34
550.18	1147.68
550.53	1143.45
550.89	1143.30
551.24	1141.67
551.60	1141.20
551.95	1140.66
552.30	1142.72
552.66	1141.81
553.01	1144.78
553.37	1143.33
553.72	1139.26
554.07	1138.02
554.43	1135.89
554.78	1128.61
555.13	1125.98
555.49	1126.20
555.84	1121.54
556.19	1119.78
556.55	1119.99
556.90	1121.40
557.26	1120.53
557.61	1120.74
557.96	1121.68
558.32	1121.75
558.67	1119.99
559.02	1119.36
559.37	1118.28
559.73	1115.38
560.08	1112.13
560.43	1108.57
560.79	1107.87
561.14	1106.86
561.49	1109.23
561.85	1112.11
562.20	1112.48
562.55	1112.74
562.90	1112.06
563.26	1111.17
563.61	1106.18
563.96	1107.92
564.32	1108.48
564.67	1105.53
565.02	1100.47
565.37	1101.90
565.73	1097.48
566.08	1095.14
566.43	1096.52
566.78	1099.89
567.14	1098.98
567.49	1102.58
567.84	1100.36
568.19	1102.86
568.54	1103.42
568.90	1106.91
569.25	1105.72
569.60	1107.19
569.95	1105.22
570.31	1103.47
570.66	1099.82
571.01	1099.68
571.36	1102.18
571.71	1102.46
572.06	1101.11
572.42	1101.60
572.77	1101.55
573.12	1099.65
573.47	1100.31
573.82	1100.08
574.18	1098.09
574.53	1096.61
574.88	1095.75
575.23	1096.70
575.58	1096.75
575.93	1100.08
576.28	1098.20
576.64	1097.41
576.99	1094.20
577.34	1093.40
577.69	1093.36
578.04	1094.53
578.39	1094.34
578.74	1094.15
579.09	1093.92
579.44	1090.95
579.80	1090.57
580.15	1089.54
580.50	1088.98
580.85	1090.95
581.20	1091.25
581.55	1091.60
581.90	1093.24
582.25	1094.95
582.60	1092.96
582.95	1092.94
583.30	1095.93
583.65	1090.48
584.00	1089.10
584.35	1090.13
584.71	1088.82
585.06	1085.26
585.41	1089.96
585.76	1091.02
586.11	1090.01
586.46	1092.56
586.81	1090.62
587.16	1090.81
587.51	1091.32
587.86	1090.03
588.21	1085.73
588.56	1084.67
588.91	1084.25
589.26	1082.31
589.61	1081.89
589.96	1081.66
590.31	1085.05
590.66	1083.27
591.01	1084.16
591.36	1085.21
591.71	1086.57
592.06	1086.48
592.41	1088.42
592.76	1088.30
593.10	1091.02
593.45	1093.10
593.80	1092.63
594.15	1091.49
594.50	1087.20
594.85	1086.97
595.20	1084.18
595.55	1084.39
595.90	1083.79
596.25	1084.93
596.60	1083.90
596.95	1084.56
597.30	1082.99
597.64	1091.53
597.99	1095.89
598.34	1094.39
598.69	1092.68
599.04	1095.21
599.39	1087.30
599.74	1083.53
600.09	1083.81
600.44	1086.29
600.78	1083.79
601.13	1087.06
601.48	1084.58
601.83	1086.10
602.18	1087.37
602.53	1087.30
602.88	1084.56
603.22	1088.84
603.57	1088.89
603.92	1087.04
604.27	1087.79
604.62	1087.65
604.97	1087.41
605.31	1086.38
605.66	1090.34
606.01	1090.46
606.36	1091.56
606.71	1091.06
607.05	1090.10
607.40	1087.69
607.75	1085.80
608.10	1085.40
608.44	1085.38
608.79	1082.71
609.14	1081.30
609.49	1083.43
609.84	1081.89
610.18	1085.26
610.53	1091.67
610.88	1094.43
611.23	1095.86
611.57	1097.85
611.92	1093.73
612.27	1086.73
612.62	1082.12
612.96	1080.58
613.31	1078.57
613.66	1083.18
614.00	1086.34
614.35	1089.89
614.70	1088.26
615.05	1089.24
615.39	1086.48
615.74	1084.60
616.09	1080.06
616.43	1082.43
616.78	1082.17
617.13	1081.96
617.47	1082.83
617.82	1084.00
618.17	1081.05
618.51	1080.44
618.86	1079.43
619.21	1080.86
619.55	1080.93
619.90	1084.67
620.25	1081.51
620.59	1080.06
620.94	1081.23
621.29	1084.70
621.63	1082.26
621.98	1085.24
622.32	1087.39
622.67	1086.73
623.02	1086.03
623.36	1085.24
623.71	1085.49
624.05	1087.16
624.40	1084.81
624.75	1084.96
625.09	1086.27
625.44	1084.56
625.78	1082.36
626.13	1082.01
626.48	1081.30
626.82	1079.64
627.17	1081.84
627.51	1077.75
627.86	1078.12
628.20	1074.66
628.55	1075.80
628.89	1075.73
629.24	1080.34
629.58	1079.95
629.93	1083.86
630.28	1085.84
630.62	1083.55
630.97	1080.91
631.31	1079.97
631.66	1076.41
632.00	1073.56
632.35	1074.94
632.69	1074.68
633.04	1076.53
633.38	1079.27
633.73	1079.60
634.07	1076.69
634.42	1079.31
634.76	1078.87
635.11	1079.38
635.45	1080.27
635.79	1082.90
636.14	1079.64
636.48	1080.37
636.83	1079.83
637.17	1079.92
637.52	1079.64
637.86	1082.61
638.21	1082.26
638.55	1082.38
638.89	1082.05
639.24	1082.22
639.58	1082.80
639.93	1080.18
640.27	1082.76
640.61	1082.90
640.96	1082.78
641.30	1083.15
641.65	1089.24
641.99	1084.49
642.33	1084.58
642.68	1085.33
643.02	1083.34
643.37	1077.91
643.71	1079.97
644.05	1077.63
644.40	1074.89
644.74	1074.12
645.08	1077.86
645.43	1075.69
645.77	1076.60
646.11	1079.60
646.46	1081.07
646.80	1079.85
647.14	1080.53
647.49	1081.44
647.83	1081.98
648.17	1080.67
648.52	1080.67
648.86	1083.79
649.20	1085.28
649.55	1083.11
649.89	1080.72
650.23	1078.87
650.57	1076.83
650.92	1075.17
651.26	1075.03
651.60	1076.04
651.95	1077.79
652.29	1076.06
652.63	1075.03
652.97	1078.12
653.32	1079.01
653.66	1078.28
654.00	1083.90
654.34	1085.47
654.69	1079.95
655.03	1081.28
655.37	1082.31
655.71	1078.43
656.05	1077.79
656.40	1081.09
656.74	1076.60
657.08	1076.44
657.42	1076.90
657.76	1077.07
658.11	1079.74
658.45	1083.08
658.79	1078.71
659.13	1074.05
659.47	1071.90
659.82	1068.81
660.16	1068.13
660.50	1071.59
660.84	1072.81
661.18	1074.59
661.52	1076.34
661.87	1077.09
662.21	1075.97
662.55	1077.16
662.89	1077.44
663.23	1075.45
663.57	1074.84
663.91	1074.84
664.25	1075.71
664.60	1075.80
664.94	1077.61
665.28	1078.66
665.62	1080.67
665.96	1078.71
666.30	1079.99
666.64	1080.13
666.98	1079.43
667.32	1077.37
667.66	1077.42
668.01	1079.20
668.35	1077.04
668.69	1077.35
669.03	1079.08
669.37	1083.01
669.71	1079.46
670.05	1079.03
670.39	1079.78
670.73	1081.49
671.07	1079.15
671.41	1079.90
671.75	1080.88
672.09	1080.63
672.43	1078.47
672.77	1079.71
673.11	1082.12
673.45	1081.23
673.79	1082.92
674.13	1083.60
674.47	1085.03
674.81	1085.42
675.15	1088.14
675.49	1086.45
675.83	1086.66
676.17	1082.50
676.51	1082.90
676.85	1080.25
677.19	1080.37
677.53	1078.54
677.87	1080.32
678.21	1075.08
678.55	1074.03
678.89	1072.01
679.23	1073.28
679.57	1073.60
679.90	1074.40
680.24	1074.82
680.58	1075.08
680.92	1075.64
681.26	1075.20
681.60	1074.75
681.94	1075.05
682.28	1075.66
682.62	1075.08
682.96	1076.55
683.29	1077.47
683.63	1078.50
683.97	1078.05
684.31	1078.57
684.65	1080.20
684.99	1081.30
685.33	1079.55
685.67	1081.66
686.00	1082.73
686.34	1081.21
686.68	1081.77
687.02	1083.32
687.36	1082.76
687.70	1079.13
688.03	1081.40
688.37	1080.48
688.71	1081.91
689.05	1081.89
689.39	1084.86
689.72	1080.88
690.06	1080.86
690.40	1080.58
690.74	1083.97
691.08	1080.79
691.41	1083.69
691.75	1083.67
692.09	1083.29
692.43	1080.27
692.76	1083.39
693.10	1082.36
693.44	1083.60
693.78	1084.56
694.11	1083.79
694.45	1082.50
694.79	1081.00
695.13	1077.70
695.46	1078.85
695.80	1077.84
696.14	1076.11
696.48	1077.00
696.81	1079.78
697.15	1080.84
697.49	1084.58
697.82	1086.36
698.16	1086.43
698.50	1088.14
698.83	1084.46
699.17	1083.39
699.51	1085.33
699.84	1086.38
700.18	1086.08
700.52	1085.05
700.85	1084.25
701.19	1082.80
701.53	1083.11
701.86	1078.99
702.20	1081.02
702.54	1079.38
702.87	1082.15
703.21	1080.70
703.55	1083.50
703.88	1081.61
704.22	1081.16
704.55	1078.31
704.89	1080.02
705.23	1079.99
705.56	1082.71
705.90	1088.51
706.23	1086.59
706.57	1082.08
706.91	1081.75
707.24	1077.96
707.58	1074.10
707.91	1074.45
708.25	1077.00
708.58	1077.70
708.92	1080.34
709.26	1082.05
709.59	1082.08
709.93	1083.06
710.26	1083.01
710.60	1082.64
710.93	1081.28
711.27	1081.47
711.60	1079.41
711.94	1078.59
712.27	1080.37
712.61	1079.24
712.94	1079.43
713.28	1083.32
713.61	1082.50
713.95	1081.37
714.28	1080.81
714.62	1083.46
714.95	1079.53
715.29	1078.38
715.62	1076.08
715.96	1073.95
716.29	1073.04
716.63	1075.57
716.96	1074.77
717.29	1077.84
717.63	1080.23
717.96	1079.78
718.30	1079.97
718.63	1083.86
718.97	1081.30
719.30	1080.23
719.63	1077.33
719.97	1077.16
720.30	1077.11
720.64	1078.64
720.97	1079.85
721.30	1082.40
721.64	1079.43
721.97	1078.57
722.31	1076.06
722.64	1075.71
722.97	1072.88
723.31	1077.00
723.64	1077.23
723.97	1076.81
724.31	1077.25
724.64	1078.87
724.98	1076.01
725.31	1072.76
725.64	1076.25
725.98	1076.79
726.31	1078.66
726.64	1077.98
726.97	1080.86
727.31	1081.02
727.64	1081.30
727.97	1079.01
728.31	1082.85
728.64	1080.37
728.97	1078.45
729.31	1079.48
729.64	1079.31
729.97	1077.25
730.30	1077.25
730.64	1077.28
730.97	1075.87
731.30	1077.63
731.63	1078.00
731.97	1077.56
732.30	1077.54
732.63	1076.18
732.96	1076.20
733.30	1074.21
733.63	1075.03
733.96	1072.50
734.29	1073.23
734.63	1072.32
734.96	1071.73
735.29	1075.22
735.62	1076.93
735.95	1075.45
736.29	1074.26
736.62	1073.60
736.95	1070.75
737.28	1073.07
737.61	1074.94
737.94	1077.25
738.28	1080.39
738.61	1079.78
738.94	1078.19
739.27	1076.60
739.60	1074.75
739.93	1072.25
740.27	1075.29
740.60	1076.51
740.93	1077.79
741.26	1082.87
741.59	1084.07
741.92	1081.87
742.25	1081.09
742.58	1083.27
742.91	1081.68
743.25	1080.79
743.58	1080.84
743.91	1082.17
744.24	1079.76
744.57	1076.34
744.90	1076.01
745.23	1075.90
745.56	1074.70
745.89	1077.40
746.22	1079.71
746.55	1077.37
746.88	1078.12
747.21	1077.04
747.54	1075.29
747.87	1075.05
748.20	1078.07
748.53	1079.34
748.87	1080.46
749.20	1083.67
749.53	1082.50
749.86	1082.99
750.19	1082.47
750.52	1084.96
750.85	1084.04
751.18	1081.77
751.51	1083.62
751.84	1083.20
752.16	1081.73
752.49	1079.62
752.82	1080.48
753.15	1077.63
753.48	1077.09
753.81	1076.81
754.14	1075.97
754.47	1080.37
754.80	1080.11
755.13	1080.34
755.46	1082.01
755.79	1082.92
756.12	1082.19
756.45	1080.20
756.78	1082.59
757.11	1080.20
757.43	1080.06
757.76	1079.03
758.09	1084.86
758.42	1080.67
758.75	1081.09
759.08	1079.48
759.41	1078.43
759.74	1075.38
760.07	1076.74
760.39	1076.25
760.72	1081.05
761.05	1081.70
761.38	1081.75
761.71	1079.15
762.04	1081.58
762.36	1077.56
762.69	1076.55
763.02	1074.17
763.35	1077.35
763.68	1078.14
764.01	1079.85
