SpectraSuite Data File
++++++++++++++++++++++++++++++++++++
Date: Mon Aug 26 10:22:35 PDT 2019
User: corrico
Dark Spectrum Present: No
Reference Spectrum Present: No
Number of Sampled Component Spectra: 1
Spectrometers: USB2+H06089
Integration Time (usec): 2000 (USB2+H06089)
Spectra Averaged: 20 (USB2+H06089)
Boxcar Smoothing: 2 (USB2+H06089)
Correct for Electrical Dark: No (USB2+H06089)
Strobe/Lamp Enabled: No (USB2+H06089)
Correct for Detector Non-linearity: No (USB2+H06089)
Correct for Stray Light: No (USB2+H06089)
Number of Pixels in Processed Spectrum: 2048
>>>>>Begin Processed Spectral Data<<<<<
339.70	1027.73
340.07	1027.73
340.45	993.60
340.82	972.89
341.19	949.02
341.57	926.06
341.94	914.21
342.31	905.46
342.69	899.68
343.06	896.45
343.43	893.17
343.81	895.56
344.18	899.05
344.55	902.56
344.93	908.08
345.30	914.03
345.67	921.94
346.04	929.57
346.42	940.45
346.79	952.06
347.16	960.63
347.54	971.30
347.91	982.35
348.28	988.29
348.65	995.34
349.03	1008.02
349.40	1011.91
349.77	1020.03
350.14	1030.40
350.52	1036.18
350.89	1042.22
351.26	1051.20
351.63	1056.42
352.01	1060.03
352.38	1065.72
352.75	1067.31
353.12	1072.27
353.50	1073.91
353.87	1077.30
354.24	1078.54
354.61	1081.89
354.98	1081.00
355.36	1083.13
355.73	1085.80
356.10	1088.72
356.47	1091.09
356.84	1092.77
357.22	1092.75
357.59	1090.29
357.96	1089.31
358.33	1088.93
358.70	1087.51
359.08	1086.76
359.45	1086.66
359.82	1083.25
360.19	1082.38
360.56	1082.76
360.94	1083.48
361.31	1084.02
361.68	1087.65
362.05	1086.43
362.42	1084.02
362.79	1082.71
363.16	1078.54
363.54	1078.36
363.91	1074.61
364.28	1075.34
364.65	1073.86
365.02	1074.75
365.39	1074.24
365.76	1075.24
366.14	1073.49
366.51	1073.44
366.88	1071.68
367.25	1068.41
367.62	1069.16
367.99	1072.71
368.36	1072.76
368.73	1074.40
369.10	1076.37
369.48	1073.07
369.85	1069.04
370.22	1069.98
370.59	1074.31
370.96	1071.82
371.33	1073.67
371.70	1076.65
372.07	1077.79
372.44	1073.91
372.81	1077.70
373.18	1079.03
373.55	1077.65
373.93	1077.21
374.30	1078.36
374.67	1075.48
375.04	1074.49
375.41	1074.07
375.78	1074.28
376.15	1075.41
376.52	1077.77
376.89	1077.89
377.26	1077.72
377.63	1076.79
378.00	1075.38
378.37	1074.12
378.74	1073.23
379.11	1076.53
379.48	1078.64
379.85	1082.57
380.22	1087.16
380.59	1088.56
380.96	1086.17
381.33	1084.07
381.70	1081.42
382.07	1079.60
382.44	1082.85
382.81	1087.39
383.18	1087.95
383.55	1089.33
383.92	1088.12
384.29	1084.91
384.66	1081.19
385.03	1082.76
385.40	1079.67
385.77	1082.10
386.14	1083.50
386.51	1084.74
386.88	1083.43
387.25	1085.49
387.62	1083.48
387.99	1083.95
388.36	1085.31
388.73	1085.68
389.10	1085.21
389.46	1083.90
389.83	1083.64
390.20	1080.58
390.57	1080.02
390.94	1080.95
391.31	1084.56
391.68	1085.89
392.05	1086.66
392.42	1089.57
392.79	1091.44
393.16	1090.92
393.53	1090.62
393.89	1091.11
394.26	1087.58
394.63	1083.22
395.00	1081.73
395.37	1082.03
395.74	1085.94
396.11	1090.17
396.48	1094.46
396.84	1096.45
397.21	1094.97
397.58	1093.05
397.95	1088.23
398.32	1086.13
398.69	1084.11
399.06	1085.14
399.42	1086.85
399.79	1090.62
400.16	1093.45
400.53	1094.83
400.90	1096.61
401.27	1095.98
401.64	1094.55
402.00	1092.66
402.37	1092.02
402.74	1090.29
403.11	1089.05
403.48	1092.16
403.84	1090.85
404.21	1089.12
404.58	1089.99
404.95	1089.89
405.32	1087.95
405.68	1090.64
406.05	1093.62
406.42	1095.63
406.79	1095.77
407.16	1095.04
407.52	1095.07
407.89	1097.90
408.26	1096.82
408.63	1098.04
408.99	1099.33
409.36	1101.81
409.73	1101.18
410.10	1098.90
410.47	1097.76
410.83	1098.39
411.20	1095.58
411.57	1087.51
411.94	1088.49
412.30	1091.16
412.67	1090.95
413.04	1090.27
413.40	1097.69
413.77	1102.11
414.14	1103.52
414.51	1101.03
414.87	1101.53
415.24	1100.31
415.61	1098.41
415.97	1095.89
416.34	1100.61
416.71	1102.95
417.08	1103.35
417.44	1104.41
417.81	1105.65
418.18	1107.21
418.54	1107.10
418.91	1108.95
419.28	1111.01
419.64	1111.45
420.01	1113.42
420.38	1118.78
420.74	1121.56
421.11	1120.81
421.48	1122.99
421.84	1119.95
422.21	1115.41
422.58	1118.73
422.94	1121.26
423.31	1123.43
423.68	1131.20
424.04	1133.52
424.41	1135.49
424.77	1139.56
425.14	1143.02
425.51	1144.26
425.87	1148.81
426.24	1153.23
426.61	1156.44
426.97	1162.15
427.34	1166.45
427.70	1174.01
428.07	1177.64
428.44	1181.97
428.80	1186.23
429.17	1195.33
429.53	1203.97
429.90	1215.60
430.27	1226.11
430.63	1237.46
431.00	1245.17
431.36	1256.91
431.73	1265.90
432.09	1282.38
432.46	1297.78
432.83	1312.39
433.19	1328.25
433.56	1349.34
433.92	1368.93
434.29	1387.52
434.65	1411.55
435.02	1437.65
435.38	1455.86
435.75	1479.62
436.11	1509.13
436.48	1541.52
436.84	1574.81
437.21	1621.10
437.57	1658.29
437.94	1700.05
438.30	1742.32
438.67	1785.78
439.03	1827.40
439.40	1877.23
439.76	1932.14
440.13	1990.72
440.49	2053.98
440.86	2119.82
441.22	2193.32
441.59	2263.91
441.95	2345.76
442.32	2426.50
442.68	2518.60
443.05	2611.20
443.41	2708.14
443.78	2806.12
444.14	2915.54
444.51	3018.40
444.87	3152.65
445.24	3286.70
445.60	3435.02
445.96	3584.20
446.33	3757.94
446.69	3909.30
447.06	4083.18
447.42	4259.31
447.79	4441.70
448.15	4653.57
448.51	4876.30
448.88	5136.12
449.24	5374.60
449.61	5657.15
449.97	5925.86
450.33	6213.94
450.70	6465.52
451.06	6781.28
451.43	7070.55
451.79	7425.79
452.15	7810.65
452.52	8252.78
452.88	8720.72
453.24	9245.68
453.61	9799.40
453.97	10355.84
454.34	10887.75
454.70	11517.50
455.06	12138.98
455.43	12752.67
455.79	13338.46
456.15	14042.25
456.52	14665.40
456.88	15410.56
457.24	16111.92
457.61	16908.15
457.97	17638.98
458.33	18384.16
458.70	19137.72
459.06	19887.65
459.42	20736.09
459.79	21510.97
460.15	22410.37
460.51	23247.79
460.88	24171.13
461.24	24934.12
461.60	25891.80
461.96	26747.69
462.33	27553.49
462.69	28287.64
463.05	29104.33
463.42	29756.42
463.78	30365.50
464.14	30885.94
464.50	31475.66
464.87	31932.79
465.23	32287.67
465.59	32647.31
465.95	32961.51
466.32	33207.52
466.68	33433.66
467.04	33567.64
467.40	33688.50
467.77	33856.27
468.13	33843.26
468.49	33764.50
468.85	33700.98
469.22	33529.44
469.58	33184.98
469.94	32942.76
470.30	32637.02
470.66	32231.26
471.03	31672.46
471.39	31285.10
471.75	30637.24
472.11	30025.73
472.47	29644.62
472.84	29314.60
473.20	28836.45
473.56	28582.58
473.92	28166.15
474.28	27673.91
474.65	27192.44
475.01	26725.80
475.37	26174.52
475.73	25741.54
476.09	25217.14
476.45	24691.20
476.81	24168.91
477.18	23640.63
477.54	23200.00
477.90	22873.40
478.26	22500.53
478.62	22201.29
478.98	21917.76
479.34	21607.36
479.71	21206.92
480.07	20886.40
480.43	20535.51
480.79	20165.47
481.15	19829.91
481.51	19541.18
481.87	19279.79
482.23	19000.05
482.59	18764.54
482.96	18488.92
483.32	18186.43
483.68	17804.85
484.04	17467.89
484.40	17103.09
484.76	16738.36
485.12	16376.19
485.48	16080.79
485.84	15734.11
486.20	15392.44
486.56	15049.43
486.92	14737.74
487.28	14384.25
487.64	14028.05
488.00	13695.48
488.37	13373.56
488.73	13030.39
489.09	12696.33
489.45	12394.35
489.81	12085.08
490.17	11777.01
490.53	11508.67
490.89	11208.24
491.25	10911.04
491.61	10613.84
491.97	10320.87
492.33	9988.07
492.69	9703.21
493.05	9412.39
493.41	9138.06
493.77	8865.43
494.13	8629.98
494.49	8406.24
494.85	8183.52
495.21	7971.51
495.57	7775.10
495.93	7565.97
496.29	7357.38
496.64	7187.71
497.00	7007.96
497.36	6819.90
497.72	6647.82
498.08	6475.44
498.44	6291.24
498.80	6126.38
499.16	5964.79
499.52	5813.56
499.88	5681.56
500.24	5566.12
500.60	5446.15
500.96	5334.03
501.32	5220.85
501.68	5104.97
502.03	4975.82
502.39	4849.05
502.75	4718.03
503.11	4595.67
503.47	4475.46
503.83	4361.64
504.19	4247.74
504.55	4143.29
504.91	4052.68
505.26	3959.39
505.62	3875.18
505.98	3791.88
506.34	3704.65
506.70	3611.66
507.06	3529.32
507.42	3451.12
507.78	3368.83
508.13	3299.43
508.49	3224.23
508.85	3154.83
509.21	3083.02
509.57	3019.29
509.93	2951.11
510.28	2883.89
510.64	2824.39
511.00	2759.73
511.36	2702.17
511.72	2654.05
512.07	2612.51
512.43	2562.09
512.79	2516.26
513.15	2471.72
513.51	2425.38
513.86	2379.86
514.22	2336.98
514.58	2292.72
514.94	2252.37
515.30	2213.96
515.65	2181.45
516.01	2152.22
516.37	2124.79
516.73	2101.52
517.08	2078.42
517.44	2047.34
517.80	2018.17
518.16	1997.11
518.51	1968.16
518.87	1937.47
519.23	1911.33
519.59	1882.38
519.94	1850.83
520.30	1828.47
520.66	1805.54
521.01	1787.54
521.37	1770.03
521.73	1750.49
522.09	1729.61
522.44	1709.41
522.80	1685.33
523.16	1663.14
523.51	1641.32
523.87	1625.43
524.23	1609.89
524.58	1592.59
524.94	1579.63
525.30	1565.30
525.65	1549.88
526.01	1531.79
526.37	1519.55
526.72	1505.99
527.08	1496.16
527.44	1483.90
527.79	1474.19
528.15	1461.52
528.51	1450.66
528.86	1437.67
529.22	1424.96
529.58	1413.73
529.93	1402.78
530.29	1391.12
530.65	1384.40
531.00	1376.59
531.36	1367.79
531.71	1359.29
532.07	1350.68
532.43	1338.79
532.78	1327.32
533.14	1318.73
533.49	1313.25
533.85	1310.28
534.21	1307.26
534.56	1303.07
534.92	1298.51
535.27	1293.05
535.63	1284.16
535.98	1277.89
536.34	1269.25
536.69	1261.69
537.05	1253.15
537.41	1248.47
537.76	1242.05
538.12	1238.52
538.47	1235.64
538.83	1232.41
539.18	1228.06
539.54	1225.06
539.89	1222.32
540.25	1219.35
540.60	1218.55
540.96	1213.90
541.31	1207.46
541.67	1204.53
542.02	1204.30
542.38	1199.88
542.73	1198.66
543.09	1198.03
543.44	1196.18
543.80	1188.13
544.15	1184.66
544.51	1181.62
544.86	1180.33
545.22	1175.53
545.57	1175.21
545.93	1168.75
546.28	1166.03
546.64	1160.91
546.99	1157.79
547.35	1155.03
547.70	1157.93
548.05	1156.44
548.41	1153.67
548.76	1152.29
549.12	1148.88
549.47	1146.75
549.83	1143.75
550.18	1145.48
550.53	1145.34
550.89	1145.06
551.24	1141.48
551.60	1137.87
551.95	1133.08
552.30	1130.06
552.66	1129.87
553.01	1129.36
553.37	1131.74
553.72	1130.50
554.07	1130.85
554.43	1129.47
554.78	1128.68
555.13	1127.53
555.49	1129.75
555.84	1127.25
556.19	1128.00
556.55	1128.44
556.90	1126.01
557.26	1123.15
557.61	1123.41
557.96	1119.31
558.32	1119.41
558.67	1118.14
559.02	1118.78
559.37	1115.99
559.73	1115.45
560.08	1115.31
560.43	1116.08
560.79	1116.22
561.14	1116.74
561.49	1116.97
561.85	1112.36
562.20	1109.98
562.55	1110.02
562.90	1112.25
563.26	1112.36
563.61	1114.91
563.96	1116.88
564.32	1113.72
564.67	1112.57
565.02	1112.99
565.37	1113.58
565.73	1112.04
566.08	1112.50
566.43	1111.12
566.78	1110.30
567.14	1105.67
567.49	1103.45
567.84	1102.60
568.19	1104.57
568.54	1104.19
568.90	1106.14
569.25	1105.46
569.60	1105.69
569.95	1101.34
570.31	1100.82
570.66	1100.73
571.01	1103.14
571.36	1101.43
571.71	1099.12
572.06	1097.43
572.42	1095.98
572.77	1094.18
573.12	1094.29
573.47	1094.36
573.82	1093.12
574.18	1089.17
574.53	1087.02
574.88	1086.52
575.23	1090.92
575.58	1094.36
575.93	1096.38
576.28	1096.40
576.64	1093.87
576.99	1092.68
577.34	1087.86
577.69	1086.29
578.04	1089.66
578.39	1092.82
578.74	1091.04
579.09	1092.19
579.44	1094.57
579.80	1091.58
580.15	1090.43
580.50	1092.66
580.85	1094.41
581.20	1096.28
581.55	1098.13
581.90	1101.18
582.25	1096.89
582.60	1097.41
582.95	1095.51
583.30	1095.23
583.65	1092.40
584.00	1095.46
584.35	1091.18
584.71	1091.13
585.06	1090.62
585.41	1087.79
585.76	1088.02
586.11	1088.42
586.46	1087.60
586.81	1089.36
587.16	1093.38
587.51	1089.38
587.86	1090.64
588.21	1089.96
588.56	1087.97
588.91	1089.57
589.26	1091.13
589.61	1093.80
589.96	1094.06
590.31	1095.51
590.66	1091.23
591.01	1090.62
591.36	1086.24
591.71	1087.18
592.06	1087.23
592.41	1090.64
592.76	1091.04
593.10	1089.82
593.45	1088.98
593.80	1085.45
594.15	1079.43
594.50	1079.06
594.85	1081.05
595.20	1077.00
595.55	1079.31
595.90	1084.44
596.25	1085.54
596.60	1087.88
596.95	1090.69
597.30	1089.94
597.64	1101.22
597.99	1100.80
598.34	1100.71
598.69	1103.23
599.04	1102.04
599.39	1088.93
599.74	1090.13
600.09	1090.03
600.44	1088.49
600.78	1089.73
601.13	1088.54
601.48	1087.32
601.83	1086.99
602.18	1085.96
602.53	1084.35
602.88	1085.33
603.22	1084.72
603.57	1087.02
603.92	1091.37
604.27	1092.82
604.62	1090.17
604.97	1090.29
605.31	1085.63
605.66	1081.23
606.01	1080.86
606.36	1082.26
606.71	1080.41
607.05	1081.28
607.40	1082.94
607.75	1083.57
608.10	1083.60
608.44	1084.56
608.79	1081.94
609.14	1081.82
609.49	1083.97
609.84	1081.19
610.18	1084.30
610.53	1087.93
610.88	1084.67
611.23	1080.37
611.57	1081.68
611.92	1081.75
612.27	1082.36
612.62	1083.90
612.96	1081.16
613.31	1083.46
613.66	1082.73
614.00	1084.84
614.35	1084.91
614.70	1089.45
615.05	1088.54
615.39	1087.48
615.74	1086.78
616.09	1085.28
616.43	1086.15
616.78	1087.27
617.13	1086.38
617.47	1084.00
617.82	1085.99
618.17	1084.98
618.51	1083.20
618.86	1082.45
619.21	1079.76
619.55	1079.99
619.90	1080.20
620.25	1081.51
620.59	1082.64
620.94	1082.43
621.29	1081.09
621.63	1081.70
621.98	1082.71
622.32	1085.73
622.67	1087.20
623.02	1089.87
623.36	1089.17
623.71	1088.04
624.05	1082.33
624.40	1084.42
624.75	1082.66
625.09	1083.11
625.44	1085.00
625.78	1087.25
626.13	1083.60
626.48	1083.15
626.82	1082.66
627.17	1080.65
627.51	1081.82
627.86	1083.67
628.20	1085.73
628.55	1084.89
628.89	1084.00
629.24	1083.22
629.58	1082.78
629.93	1079.24
630.28	1078.71
630.62	1079.62
630.97	1080.32
631.31	1082.52
631.66	1085.91
632.00	1086.31
632.35	1086.06
632.69	1085.42
633.04	1083.29
633.38	1085.45
633.73	1084.49
634.07	1085.70
634.42	1084.91
634.76	1084.16
635.11	1080.32
635.45	1080.37
635.79	1080.11
636.14	1078.05
636.48	1078.61
636.83	1081.07
637.17	1081.94
637.52	1080.46
637.86	1082.71
638.21	1082.92
638.55	1081.00
638.89	1082.03
639.24	1083.27
639.58	1086.85
639.93	1088.35
640.27	1089.96
640.61	1089.38
640.96	1088.54
641.30	1087.32
641.65	1087.86
641.99	1088.42
642.33	1087.60
642.68	1088.44
643.02	1087.65
643.37	1083.46
643.71	1082.57
644.05	1081.26
644.40	1080.60
644.74	1078.14
645.08	1082.22
645.43	1078.07
645.77	1080.81
646.11	1080.53
646.46	1082.94
646.80	1080.56
647.14	1084.42
647.49	1081.70
647.83	1081.70
648.17	1078.71
648.52	1078.68
648.86	1078.00
649.20	1078.00
649.55	1077.56
649.89	1078.24
650.23	1080.46
650.57	1080.84
650.92	1084.98
651.26	1086.52
651.60	1085.89
651.95	1088.21
652.29	1088.98
652.63	1086.92
652.97	1087.18
653.32	1091.30
653.66	1090.55
654.00	1089.33
654.34	1089.03
654.69	1087.69
655.03	1084.23
655.37	1080.93
655.71	1081.82
656.05	1082.03
656.40	1084.46
656.74	1087.60
657.08	1086.66
657.42	1085.26
657.76	1084.37
658.11	1083.62
658.45	1080.32
658.79	1082.45
659.13	1082.40
659.47	1084.84
659.82	1083.86
660.16	1082.90
660.50	1082.83
660.84	1085.21
661.18	1084.65
661.52	1085.40
661.87	1086.41
662.21	1083.15
662.55	1081.68
662.89	1080.25
663.23	1077.93
663.57	1078.47
663.91	1080.27
664.25	1081.05
664.60	1081.91
664.94	1080.53
665.28	1080.02
665.62	1080.06
665.96	1080.30
666.30	1080.13
666.64	1083.97
666.98	1083.43
667.32	1085.56
667.66	1085.87
668.01	1084.18
668.35	1085.40
668.69	1088.16
669.03	1086.10
669.37	1086.13
669.71	1087.23
670.05	1086.03
670.39	1083.74
670.73	1085.96
671.07	1083.69
671.41	1086.69
671.75	1086.97
672.09	1086.10
672.43	1084.74
672.77	1084.53
673.11	1079.69
673.45	1079.17
673.79	1080.51
674.13	1080.93
674.47	1080.88
674.81	1082.03
675.15	1080.44
675.49	1078.57
675.83	1077.98
676.17	1077.72
676.51	1079.60
676.85	1077.42
677.19	1080.44
677.53	1079.92
677.87	1082.97
678.21	1082.76
678.55	1084.67
678.89	1084.96
679.23	1084.46
679.57	1080.46
679.90	1080.44
680.24	1080.60
680.58	1079.46
680.92	1077.86
681.26	1080.02
681.60	1078.07
681.94	1078.99
682.28	1078.50
682.62	1081.66
682.96	1079.46
683.29	1081.80
683.63	1082.33
683.97	1080.04
684.31	1078.96
684.65	1082.22
684.99	1079.92
685.33	1078.28
685.67	1082.61
686.00	1081.70
686.34	1080.63
686.68	1081.98
687.02	1083.01
687.36	1081.98
687.70	1081.07
688.03	1077.77
688.37	1078.96
688.71	1079.31
689.05	1075.31
689.39	1076.81
689.72	1079.17
690.06	1076.93
690.40	1079.34
690.74	1083.57
691.08	1085.00
691.41	1086.36
691.75	1089.31
692.09	1085.54
692.43	1086.36
692.76	1081.56
693.10	1083.46
693.44	1082.54
693.78	1084.74
694.11	1086.27
694.45	1091.06
694.79	1088.84
695.13	1085.99
695.46	1083.95
695.80	1082.43
696.14	1078.94
696.48	1079.74
696.81	1082.66
697.15	1084.09
697.49	1081.07
697.82	1083.13
698.16	1080.16
698.50	1080.04
698.83	1078.24
699.17	1079.53
699.51	1082.31
699.84	1082.17
700.18	1077.02
700.52	1074.96
700.85	1072.64
701.19	1070.58
701.53	1072.39
701.86	1078.54
702.20	1081.91
702.54	1085.24
702.87	1084.91
703.21	1082.64
703.55	1082.92
703.88	1082.99
704.22	1081.89
704.55	1081.44
704.89	1081.84
705.23	1077.86
705.56	1073.18
705.90	1075.80
706.23	1077.25
706.57	1078.61
706.91	1080.70
707.24	1085.12
707.58	1081.02
707.91	1078.61
708.25	1080.02
708.58	1078.61
708.92	1079.22
709.26	1077.98
709.59	1078.28
709.93	1075.27
710.26	1073.63
710.60	1071.71
710.93	1075.87
711.27	1074.05
711.60	1077.54
711.94	1081.07
712.27	1081.28
712.61	1081.28
712.94	1085.75
713.28	1083.64
713.61	1080.91
713.95	1082.47
714.28	1079.20
714.62	1076.88
714.95	1078.19
715.29	1080.27
715.62	1080.23
715.96	1082.33
716.29	1082.33
716.63	1080.32
716.96	1080.32
717.29	1079.67
717.63	1081.28
717.96	1084.93
718.30	1087.46
718.63	1086.97
718.97	1086.34
719.30	1086.27
719.63	1082.03
719.97	1080.04
720.30	1079.76
720.64	1082.01
720.97	1079.34
721.30	1081.09
721.64	1080.86
721.97	1080.88
722.31	1081.33
722.64	1081.47
722.97	1078.52
723.31	1081.61
723.64	1079.36
723.97	1077.79
724.31	1078.50
724.64	1081.02
724.98	1075.66
725.31	1077.02
725.64	1074.84
725.98	1075.59
726.31	1076.04
726.64	1077.25
726.97	1080.74
727.31	1082.57
727.64	1081.42
727.97	1077.47
728.31	1079.01
728.64	1077.11
728.97	1075.17
729.31	1073.23
729.64	1079.71
729.97	1081.58
730.30	1079.20
730.64	1082.19
730.97	1085.87
731.30	1083.15
731.63	1081.84
731.97	1082.17
732.30	1078.66
732.63	1078.78
732.96	1074.87
733.30	1076.06
733.63	1077.44
733.96	1079.20
734.29	1079.41
734.63	1084.58
734.96	1084.56
735.29	1086.45
735.62	1085.59
735.95	1082.66
736.29	1081.42
736.62	1081.63
736.95	1082.57
737.28	1083.46
737.61	1084.44
737.94	1082.38
738.28	1081.33
738.61	1080.37
738.94	1078.36
739.27	1078.54
739.60	1082.01
739.93	1079.78
740.27	1077.89
740.60	1081.54
740.93	1083.32
741.26	1082.50
741.59	1083.43
741.92	1081.44
742.25	1078.80
742.58	1076.46
742.91	1074.68
743.25	1074.68
743.58	1076.30
743.91	1078.38
744.24	1080.56
744.57	1082.87
744.90	1083.60
745.23	1085.00
745.56	1085.35
745.89	1083.18
746.22	1077.68
746.55	1078.78
746.88	1077.33
747.21	1076.01
747.54	1078.31
747.87	1082.40
748.20	1081.56
748.53	1082.31
748.87	1080.74
749.20	1084.00
749.53	1085.63
749.86	1084.04
750.19	1082.76
750.52	1084.86
750.85	1080.65
751.18	1079.90
751.51	1083.57
751.84	1084.96
752.16	1082.90
752.49	1079.60
752.82	1079.24
753.15	1077.30
753.48	1076.46
753.81	1080.74
754.14	1086.01
754.47	1083.86
754.80	1079.38
755.13	1081.05
755.46	1078.00
755.79	1076.90
756.12	1078.40
756.45	1083.08
756.78	1081.94
757.11	1082.64
757.43	1081.05
757.76	1080.39
758.09	1081.77
758.42	1080.63
758.75	1079.34
759.08	1078.54
759.41	1077.00
759.74	1073.67
760.07	1077.07
760.39	1075.03
760.72	1076.67
761.05	1078.61
761.38	1081.40
761.71	1080.48
762.04	1082.26
762.36	1082.97
762.69	1079.67
763.02	1076.60
763.35	1076.04
763.68	1077.09
764.01	1074.80
