SpectraSuite Data File
++++++++++++++++++++++++++++++++++++
Date: Mon Aug 26 10:22:14 PDT 2019
User: corrico
Dark Spectrum Present: No
Reference Spectrum Present: No
Number of Sampled Component Spectra: 1
Spectrometers: USB2+H06089
Integration Time (usec): 2000 (USB2+H06089)
Spectra Averaged: 20 (USB2+H06089)
Boxcar Smoothing: 2 (USB2+H06089)
Correct for Electrical Dark: No (USB2+H06089)
Strobe/Lamp Enabled: No (USB2+H06089)
Correct for Detector Non-linearity: No (USB2+H06089)
Correct for Stray Light: No (USB2+H06089)
Number of Pixels in Processed Spectrum: 2048
>>>>>Begin Processed Spectral Data<<<<<
339.70	1034.75
340.07	1034.75
340.45	1000.44
340.82	976.59
341.19	953.09
341.57	928.91
341.94	915.78
342.31	906.11
342.69	902.72
343.06	895.25
343.43	892.84
343.81	895.56
344.18	897.92
344.55	902.37
344.93	909.56
345.30	913.96
345.67	920.42
346.04	931.25
346.42	936.10
346.79	944.15
347.16	955.99
347.54	965.85
347.91	971.30
348.28	983.35
348.65	996.65
349.03	1002.90
349.40	1010.36
349.77	1019.35
350.14	1028.74
350.52	1033.21
350.89	1043.04
351.26	1049.89
351.63	1059.58
352.01	1062.37
352.38	1065.93
352.75	1068.92
353.12	1072.20
353.50	1071.36
353.87	1074.45
354.24	1076.58
354.61	1077.75
354.98	1077.61
355.36	1082.01
355.73	1083.46
356.10	1087.86
356.47	1090.32
356.84	1091.06
357.22	1091.56
357.59	1089.64
357.96	1087.39
358.33	1084.00
358.70	1083.79
359.08	1082.92
359.45	1085.17
359.82	1085.84
360.19	1084.79
360.56	1086.73
360.94	1082.76
361.31	1079.83
361.68	1077.51
362.05	1078.28
362.42	1074.45
362.79	1076.06
363.16	1077.44
363.54	1076.60
363.91	1075.73
364.28	1080.74
364.65	1079.85
365.02	1076.95
365.39	1075.76
365.76	1074.94
366.14	1071.24
366.51	1072.01
366.88	1072.78
367.25	1074.52
367.62	1077.96
367.99	1077.91
368.36	1076.90
368.73	1079.15
369.10	1079.67
369.48	1074.68
369.85	1073.49
370.22	1076.60
370.59	1072.69
370.96	1074.33
371.33	1078.45
371.70	1080.74
372.07	1079.34
372.44	1083.25
372.81	1082.40
373.18	1083.79
373.55	1083.32
373.93	1081.51
374.30	1083.43
374.67	1081.14
375.04	1079.90
375.41	1082.12
375.78	1082.52
376.15	1079.03
376.52	1082.66
376.89	1080.60
377.26	1082.59
377.63	1082.24
378.00	1081.42
378.37	1081.35
378.74	1082.24
379.11	1081.02
379.48	1081.12
379.85	1080.63
380.22	1079.69
380.59	1079.10
380.96	1075.45
381.33	1078.14
381.70	1081.28
382.07	1080.84
382.44	1084.58
382.81	1086.31
383.18	1086.57
383.55	1087.06
383.92	1086.76
384.29	1083.55
384.66	1081.96
385.03	1080.32
385.40	1082.66
385.77	1082.50
386.14	1083.74
386.51	1086.83
386.88	1087.09
387.25	1083.43
387.62	1085.68
387.99	1088.04
388.36	1087.90
388.73	1089.92
389.10	1090.99
389.46	1087.65
389.83	1083.53
390.20	1082.80
390.57	1080.93
390.94	1080.11
391.31	1081.21
391.68	1083.50
392.05	1081.21
392.42	1080.02
392.79	1078.05
393.16	1079.78
393.53	1080.63
393.89	1085.12
394.26	1087.69
394.63	1091.23
395.00	1092.47
395.37	1092.54
395.74	1090.43
396.11	1090.39
396.48	1091.09
396.84	1091.81
397.21	1092.87
397.58	1094.67
397.95	1096.07
398.32	1094.67
398.69	1094.62
399.06	1092.96
399.42	1093.69
399.79	1093.45
400.16	1094.60
400.53	1093.99
400.90	1094.27
401.27	1092.05
401.64	1090.97
402.00	1091.46
402.37	1090.43
402.74	1091.16
403.11	1090.88
403.48	1091.65
403.84	1093.66
404.21	1094.62
404.58	1093.36
404.95	1094.18
405.32	1090.83
405.68	1090.50
406.05	1092.70
406.42	1094.43
406.79	1093.85
407.16	1099.02
407.52	1096.73
407.89	1094.39
408.26	1096.14
408.63	1099.56
408.99	1096.45
409.36	1096.52
409.73	1094.41
410.10	1096.68
410.47	1094.67
410.83	1095.46
411.20	1099.09
411.57	1103.89
411.94	1102.21
412.30	1103.07
412.67	1103.12
413.04	1101.29
413.40	1101.03
413.77	1101.67
414.14	1103.89
414.51	1106.28
414.87	1109.93
415.24	1108.83
415.61	1107.05
415.97	1104.62
416.34	1104.99
416.71	1101.34
417.08	1104.45
417.44	1103.31
417.81	1109.13
418.18	1112.34
418.54	1111.78
418.91	1112.06
419.28	1114.84
419.64	1115.48
420.01	1116.65
420.38	1119.71
420.74	1120.30
421.11	1123.29
421.48	1121.42
421.84	1121.54
422.21	1123.25
422.58	1125.45
422.94	1127.04
423.31	1130.88
423.68	1135.49
424.04	1139.79
424.41	1146.18
424.77	1149.37
425.14	1153.49
425.51	1155.97
425.87	1163.46
426.24	1165.91
426.61	1175.56
426.97	1183.47
427.34	1189.48
427.70	1195.08
428.07	1203.67
428.44	1210.64
428.80	1221.71
429.17	1233.23
429.53	1244.79
429.90	1257.59
430.27	1267.12
430.63	1275.43
431.00	1289.82
431.36	1303.51
431.73	1318.28
432.09	1339.00
432.46	1359.08
432.83	1378.65
433.19	1399.22
433.56	1420.49
433.92	1444.95
434.29	1471.75
434.65	1502.79
435.02	1531.62
435.38	1567.08
435.75	1597.56
436.11	1638.21
436.48	1673.90
436.84	1720.79
437.21	1765.58
437.57	1814.62
437.94	1861.50
438.30	1919.80
438.67	1978.41
439.03	2044.06
439.40	2115.82
439.76	2186.27
440.13	2265.87
440.49	2344.47
440.86	2422.52
441.22	2507.56
441.59	2598.86
441.95	2696.41
442.32	2802.67
442.68	2927.12
443.05	3050.56
443.41	3185.16
443.78	3314.64
444.14	3461.96
444.51	3596.05
444.87	3770.44
445.24	3938.77
445.60	4126.25
445.96	4310.99
446.33	4534.48
446.69	4731.60
447.06	4953.88
447.42	5186.70
447.79	5433.16
448.15	5702.65
448.51	5984.23
448.88	6313.38
449.24	6622.62
449.61	6978.40
449.97	7342.28
450.33	7737.41
450.70	8108.79
451.06	8552.06
451.43	8957.93
451.79	9423.89
452.15	9920.83
452.52	10461.73
452.88	11011.82
453.24	11655.49
453.61	12352.36
453.97	13055.46
454.34	13745.19
454.70	14573.39
455.06	15371.61
455.43	16129.03
455.79	16832.17
456.15	17664.26
456.52	18431.63
456.88	19388.48
457.24	20340.85
457.61	21485.37
457.97	22573.30
458.33	23654.37
458.70	24692.51
459.06	25679.07
459.42	26704.30
459.79	27633.30
460.15	28721.93
460.51	29746.36
460.88	30854.30
461.24	31827.19
461.60	32990.79
461.96	34052.76
462.33	35087.79
462.69	36135.62
463.05	37286.75
463.42	38330.13
463.78	39294.15
464.14	40108.43
464.50	40894.14
464.87	41457.30
465.23	41815.17
465.59	42207.28
465.95	42535.40
466.32	42793.91
466.68	43085.17
467.04	43278.42
467.40	43370.74
467.77	43469.23
468.13	43380.50
468.49	43167.81
468.85	43056.26
469.22	42886.03
469.58	42622.49
469.94	42462.47
470.30	42277.68
470.66	41895.87
471.03	41373.42
471.39	41016.69
471.75	40289.30
472.11	39552.27
472.47	39050.25
472.84	38513.00
473.20	37761.17
473.56	37339.17
473.92	36728.32
474.28	36073.39
474.65	35408.16
475.01	34741.32
475.37	33935.75
475.73	33261.91
476.09	32552.10
476.45	31918.92
476.81	31337.88
477.18	30761.01
477.54	30279.93
477.90	29813.79
478.26	29191.18
478.62	28633.48
478.98	28194.80
479.34	27735.40
479.71	27150.68
480.07	26724.80
480.43	26302.24
480.79	25809.84
481.15	25330.94
481.51	24938.60
481.87	24586.23
482.23	24191.33
482.59	23831.83
482.96	23482.15
483.32	23171.80
483.68	22791.88
484.04	22458.89
484.40	22057.56
484.76	21648.39
485.12	21208.20
485.48	20794.77
485.84	20307.14
486.20	19890.48
486.56	19436.07
486.92	19027.13
487.28	18589.59
487.64	18176.83
488.00	17748.77
488.37	17342.83
488.73	16881.79
489.09	16412.61
489.45	15976.50
489.81	15513.73
490.17	15063.31
490.53	14676.66
490.89	14258.54
491.25	13834.49
491.61	13442.77
491.97	13060.45
492.33	12641.33
492.69	12295.07
493.05	11961.03
493.41	11631.08
493.77	11305.02
494.13	11007.40
494.49	10704.32
494.85	10414.33
495.21	10133.98
495.57	9852.79
495.93	9576.16
496.29	9316.81
496.64	9081.84
497.00	8839.69
497.36	8596.51
497.72	8355.69
498.08	8130.16
498.44	7892.15
498.80	7678.74
499.16	7472.46
499.52	7272.68
499.88	7086.74
500.24	6910.71
500.60	6742.73
500.96	6584.91
501.32	6435.16
501.68	6268.24
502.03	6095.08
502.39	5930.38
502.75	5764.74
503.11	5603.92
503.47	5470.49
503.83	5344.07
504.19	5220.66
504.55	5102.13
504.91	4988.10
505.26	4860.71
505.62	4735.16
505.98	4603.65
506.34	4480.84
506.70	4358.31
507.06	4244.40
507.42	4138.75
507.78	4046.13
508.13	3950.17
508.49	3867.67
508.85	3790.12
509.21	3707.55
509.57	3627.15
509.93	3545.94
510.28	3452.59
510.64	3364.33
511.00	3283.51
511.36	3206.79
511.72	3141.58
512.07	3083.49
512.43	3021.47
512.79	2960.22
513.15	2898.61
513.51	2830.81
513.86	2772.60
514.22	2722.11
514.58	2666.69
514.94	2614.99
515.30	2572.32
515.65	2523.03
516.01	2479.84
516.37	2441.97
516.73	2405.46
517.08	2364.08
517.44	2323.99
517.80	2283.10
518.16	2245.11
518.51	2207.13
518.87	2177.68
519.23	2145.26
519.59	2114.07
519.94	2080.50
520.30	2052.58
520.66	2015.08
521.01	1986.81
521.37	1957.62
521.73	1934.92
522.09	1907.65
522.44	1890.47
522.80	1869.39
523.16	1844.58
523.51	1822.43
523.87	1800.62
524.23	1775.25
524.58	1750.63
524.94	1731.69
525.30	1706.81
525.65	1684.04
526.01	1667.14
526.37	1648.72
526.72	1630.74
527.08	1615.18
527.44	1602.87
527.79	1589.27
528.15	1576.91
528.51	1562.07
528.86	1544.89
529.22	1526.83
529.58	1508.26
529.93	1493.78
530.29	1480.01
530.65	1468.97
531.00	1458.60
531.36	1448.70
531.71	1435.61
532.07	1424.59
532.43	1412.98
532.78	1403.15
533.14	1393.48
533.49	1387.02
533.85	1378.27
534.21	1372.21
534.56	1362.94
534.92	1353.63
535.27	1344.05
535.63	1336.26
535.98	1328.44
536.34	1322.00
536.69	1314.09
537.05	1307.91
537.41	1300.94
537.76	1295.88
538.12	1290.01
538.47	1288.39
538.83	1282.66
539.18	1276.11
539.54	1268.78
539.89	1266.70
540.25	1260.26
540.60	1251.04
540.96	1249.78
541.31	1245.40
541.67	1240.37
542.02	1237.72
542.38	1237.68
542.73	1230.21
543.09	1228.24
543.44	1222.16
543.80	1218.11
544.15	1213.43
544.51	1212.12
544.86	1210.67
545.22	1208.61
545.57	1203.62
545.93	1202.29
546.28	1199.50
546.64	1195.33
546.99	1189.41
547.35	1188.27
547.70	1183.96
548.05	1179.61
548.41	1173.47
548.76	1172.49
549.12	1168.68
549.47	1171.18
549.83	1171.23
550.18	1169.50
550.53	1171.02
550.89	1171.23
551.24	1167.30
551.60	1164.65
551.95	1165.14
552.30	1160.13
552.66	1154.28
553.01	1152.18
553.37	1152.64
553.72	1150.09
554.07	1148.88
554.43	1147.33
554.78	1145.34
555.13	1142.60
555.49	1140.64
555.84	1139.00
556.19	1139.35
556.55	1136.87
556.90	1134.22
557.26	1133.66
557.61	1131.72
557.96	1127.79
558.32	1126.45
558.67	1125.14
559.02	1121.33
559.37	1123.62
559.73	1121.02
560.08	1120.37
560.43	1118.85
560.79	1121.47
561.14	1115.03
561.49	1119.55
561.85	1119.45
562.20	1120.13
562.55	1117.75
562.90	1121.61
563.26	1118.75
563.61	1116.76
563.96	1118.47
564.32	1118.96
564.67	1116.81
565.02	1118.80
565.37	1118.64
565.73	1113.37
566.08	1110.05
566.43	1111.31
566.78	1106.25
567.14	1105.72
567.49	1107.78
567.84	1109.02
568.19	1106.77
568.54	1108.78
568.90	1108.64
569.25	1108.57
569.60	1108.08
569.95	1109.69
570.31	1109.06
570.66	1109.46
571.01	1106.61
571.36	1107.33
571.71	1103.40
572.06	1102.84
572.42	1100.92
572.77	1102.25
573.12	1100.99
573.47	1104.87
573.82	1106.46
574.18	1106.09
574.53	1105.48
574.88	1103.63
575.23	1097.73
575.58	1094.69
575.93	1095.18
576.28	1094.43
576.64	1097.92
576.99	1099.98
577.34	1099.56
577.69	1101.48
578.04	1101.18
578.39	1099.63
578.74	1097.99
579.09	1101.64
579.44	1099.96
579.80	1099.42
580.15	1100.03
580.50	1102.02
580.85	1098.16
581.20	1097.38
581.55	1098.13
581.90	1096.42
582.25	1094.06
582.60	1095.00
582.95	1093.15
583.30	1091.27
583.65	1089.05
584.00	1088.30
584.35	1089.17
584.71	1091.39
585.06	1090.46
585.41	1088.91
585.76	1090.15
586.11	1088.40
586.46	1086.06
586.81	1088.33
587.16	1091.30
587.51	1091.70
587.86	1091.32
588.21	1094.32
588.56	1092.14
588.91	1088.89
589.26	1090.29
589.61	1090.29
589.96	1088.04
590.31	1090.46
590.66	1092.91
591.01	1087.48
591.36	1085.68
591.71	1086.62
592.06	1083.04
592.41	1082.92
592.76	1088.61
593.10	1088.49
593.45	1088.75
593.80	1089.24
594.15	1089.50
594.50	1084.65
594.85	1088.04
595.20	1087.02
595.55	1085.89
595.90	1085.54
596.25	1089.64
596.60	1088.79
596.95	1087.46
597.30	1089.33
597.64	1099.07
597.99	1100.92
598.34	1101.99
598.69	1106.35
599.04	1106.82
599.39	1096.96
599.74	1091.63
600.09	1090.46
600.44	1085.77
600.78	1087.37
601.13	1089.10
601.48	1088.12
601.83	1087.16
602.18	1088.07
602.53	1087.09
602.88	1084.11
603.22	1088.14
603.57	1086.87
603.92	1085.61
604.27	1083.64
604.62	1083.50
604.97	1078.94
605.31	1080.23
605.66	1081.89
606.01	1080.46
606.36	1083.67
606.71	1085.75
607.05	1084.79
607.40	1082.36
607.75	1083.01
608.10	1081.26
608.44	1082.94
608.79	1082.66
609.14	1085.38
609.49	1088.26
609.84	1090.92
610.18	1092.70
610.53	1092.82
610.88	1093.59
611.23	1093.80
611.57	1092.00
611.92	1088.54
612.27	1093.29
612.62	1092.63
612.96	1093.31
613.31	1091.09
613.66	1090.01
614.00	1087.97
614.35	1084.42
614.70	1082.69
615.05	1085.17
615.39	1088.98
615.74	1087.79
616.09	1088.68
616.43	1088.26
616.78	1085.84
617.13	1086.15
617.47	1085.75
617.82	1087.04
618.17	1088.77
618.51	1089.22
618.86	1087.16
619.21	1087.11
619.55	1089.10
619.90	1086.15
620.25	1085.77
620.59	1082.83
620.94	1084.98
621.29	1086.03
621.63	1087.72
621.98	1089.59
622.32	1090.97
622.67	1087.53
623.02	1085.38
623.36	1084.23
623.71	1082.69
624.05	1082.90
624.40	1086.13
624.75	1086.36
625.09	1086.66
625.44	1083.08
625.78	1085.99
626.13	1084.30
626.48	1081.09
626.82	1084.25
627.17	1090.69
627.51	1086.99
627.86	1085.00
628.20	1085.07
628.55	1084.00
628.89	1082.26
629.24	1084.65
629.58	1086.36
629.93	1088.70
630.28	1087.06
630.62	1089.71
630.97	1088.98
631.31	1089.78
631.66	1088.19
632.00	1087.48
632.35	1082.87
632.69	1082.54
633.04	1080.25
633.38	1080.81
633.73	1080.95
634.07	1078.85
634.42	1080.53
634.76	1082.05
635.11	1078.92
635.45	1079.69
635.79	1082.97
636.14	1080.79
636.48	1081.02
636.83	1082.92
637.17	1081.82
637.52	1083.95
637.86	1084.86
638.21	1080.25
638.55	1079.78
638.89	1078.31
639.24	1075.13
639.58	1073.56
639.93	1078.21
640.27	1081.16
640.61	1082.87
640.96	1084.14
641.30	1087.04
641.65	1086.62
641.99	1087.18
642.33	1089.59
642.68	1089.45
643.02	1089.19
643.37	1090.67
643.71	1087.46
644.05	1084.72
644.40	1085.12
644.74	1082.17
645.08	1082.01
645.43	1082.71
645.77	1081.70
646.11	1083.32
646.46	1086.41
646.80	1087.48
647.14	1088.56
647.49	1090.24
647.83	1087.90
648.17	1088.14
648.52	1084.65
648.86	1083.39
649.20	1084.79
649.55	1082.36
649.89	1080.88
650.23	1080.91
650.57	1081.73
650.92	1080.48
651.26	1082.78
651.60	1085.17
651.95	1085.80
652.29	1085.10
652.63	1083.64
652.97	1084.72
653.32	1081.84
653.66	1080.60
654.00	1083.11
654.34	1084.21
654.69	1084.67
655.03	1086.59
655.37	1088.14
655.71	1086.29
656.05	1085.94
656.40	1087.30
656.74	1084.56
657.08	1086.99
657.42	1088.77
657.76	1091.93
658.11	1089.36
658.45	1088.96
658.79	1086.50
659.13	1081.44
659.47	1078.21
659.82	1078.38
660.16	1078.36
660.50	1077.75
660.84	1081.42
661.18	1081.47
661.52	1083.64
661.87	1083.55
662.21	1082.87
662.55	1085.66
662.89	1084.63
663.23	1085.52
663.57	1086.38
663.91	1085.94
664.25	1082.54
664.60	1086.64
664.94	1083.15
665.28	1083.27
665.62	1087.04
665.96	1089.54
666.30	1088.63
666.64	1089.92
666.98	1089.68
667.32	1088.91
667.66	1087.06
668.01	1084.09
668.35	1081.58
668.69	1079.97
669.03	1080.09
669.37	1081.00
669.71	1081.98
670.05	1081.09
670.39	1082.73
670.73	1079.53
671.07	1076.62
671.41	1076.06
671.75	1076.79
672.09	1075.97
672.43	1078.43
672.77	1080.58
673.11	1081.33
673.45	1082.76
673.79	1084.49
674.13	1082.54
674.47	1082.59
674.81	1084.00
675.15	1084.02
675.49	1079.08
675.83	1076.44
676.17	1075.57
676.51	1074.84
676.85	1075.66
677.19	1077.11
677.53	1080.51
677.87	1081.75
678.21	1080.60
678.55	1078.31
678.89	1080.74
679.23	1081.40
679.57	1083.25
679.90	1086.59
680.24	1083.41
680.58	1083.06
680.92	1084.89
681.26	1085.54
681.60	1084.02
681.94	1089.96
682.28	1089.54
682.62	1087.46
682.96	1083.62
683.29	1080.86
683.63	1079.71
683.97	1082.12
684.31	1083.32
684.65	1083.11
684.99	1084.44
685.33	1083.11
685.67	1083.97
686.00	1084.21
686.34	1086.92
686.68	1086.80
687.02	1089.75
687.36	1088.86
687.70	1086.62
688.03	1087.37
688.37	1087.37
688.71	1087.58
689.05	1086.76
689.39	1086.38
689.72	1084.09
690.06	1083.11
690.40	1080.95
690.74	1081.44
691.08	1080.98
691.41	1083.86
691.75	1082.92
692.09	1085.26
692.43	1084.67
692.76	1087.62
693.10	1084.96
693.44	1085.82
693.78	1082.03
694.11	1081.68
694.45	1081.66
694.79	1084.02
695.13	1084.70
695.46	1085.68
695.80	1085.14
696.14	1083.50
696.48	1083.53
696.81	1083.90
697.15	1085.38
697.49	1085.12
697.82	1085.66
698.16	1084.65
698.50	1086.66
698.83	1087.62
699.17	1087.13
699.51	1085.54
699.84	1084.18
700.18	1083.62
700.52	1083.11
700.85	1084.93
701.19	1083.01
701.53	1082.17
701.86	1081.47
702.20	1080.27
702.54	1077.42
702.87	1080.77
703.21	1083.15
703.55	1081.40
703.88	1082.01
704.22	1085.70
704.55	1086.41
704.89	1081.87
705.23	1082.61
705.56	1080.53
705.90	1082.08
706.23	1080.23
706.57	1084.56
706.91	1088.42
707.24	1089.66
707.58	1088.09
707.91	1085.84
708.25	1084.23
708.58	1079.90
708.92	1081.44
709.26	1080.74
709.59	1082.10
709.93	1078.64
710.26	1078.07
710.60	1078.89
710.93	1080.30
711.27	1081.33
711.60	1083.74
711.94	1083.06
712.27	1079.57
712.61	1075.69
712.94	1077.77
713.28	1080.51
713.61	1082.47
713.95	1084.46
714.28	1086.41
714.62	1085.21
714.95	1084.60
715.29	1083.64
715.62	1083.18
715.96	1083.67
716.29	1082.54
716.63	1079.03
716.96	1080.44
717.29	1083.81
717.63	1082.57
717.96	1084.60
718.30	1084.16
718.63	1083.25
718.97	1079.24
719.30	1078.24
719.63	1077.72
719.97	1079.88
720.30	1080.93
720.64	1080.11
720.97	1082.10
721.30	1082.78
721.64	1082.57
721.97	1081.75
722.31	1081.63
722.64	1081.12
722.97	1079.92
723.31	1080.70
723.64	1079.38
723.97	1079.43
724.31	1079.13
724.64	1080.09
724.98	1077.82
725.31	1080.16
725.64	1082.24
725.98	1085.19
726.31	1084.81
726.64	1086.80
726.97	1087.09
727.31	1086.08
727.64	1081.91
727.97	1081.28
728.31	1077.86
728.64	1073.58
728.97	1074.19
729.31	1076.95
729.64	1077.14
729.97	1081.02
730.30	1085.54
730.64	1083.60
730.97	1084.16
731.30	1083.01
731.63	1081.16
731.97	1077.23
732.30	1079.64
732.63	1080.09
732.96	1082.10
733.30	1084.09
733.63	1088.35
733.96	1084.96
734.29	1081.94
734.63	1080.51
734.96	1080.41
735.29	1077.77
735.62	1080.67
735.95	1081.00
736.29	1081.70
736.62	1080.70
736.95	1080.98
737.28	1078.10
737.61	1080.32
737.94	1081.19
738.28	1080.44
738.61	1082.92
738.94	1086.13
739.27	1083.55
739.60	1080.37
739.93	1076.30
740.27	1073.93
740.60	1073.46
740.93	1072.69
741.26	1075.50
741.59	1077.11
741.92	1077.68
742.25	1074.61
742.58	1073.53
742.91	1071.97
743.25	1076.53
743.58	1076.76
743.91	1077.77
744.24	1078.89
744.57	1079.60
744.90	1076.67
745.23	1073.65
745.56	1075.92
745.89	1076.79
746.22	1078.80
746.55	1081.70
746.88	1086.62
747.21	1086.99
747.54	1088.61
747.87	1087.95
748.20	1084.09
748.53	1082.10
748.87	1080.74
749.20	1077.47
749.53	1077.51
749.86	1079.29
750.19	1082.85
750.52	1085.00
750.85	1086.03
751.18	1083.06
751.51	1084.63
751.84	1080.67
752.16	1077.33
752.49	1077.98
752.82	1075.69
753.15	1076.39
753.48	1077.56
753.81	1079.22
754.14	1079.97
754.47	1082.15
754.80	1082.10
755.13	1080.25
755.46	1080.09
755.79	1079.88
756.12	1083.93
756.45	1081.80
756.78	1081.84
757.11	1081.02
757.43	1081.47
757.76	1076.74
758.09	1077.89
758.42	1076.95
758.75	1078.12
759.08	1078.73
759.41	1078.96
759.74	1080.48
760.07	1082.71
760.39	1081.23
760.72	1079.64
761.05	1081.33
761.38	1082.19
761.71	1082.22
762.04	1082.24
762.36	1083.71
762.69	1083.86
763.02	1082.59
763.35	1080.70
763.68	1081.40
