SpectraSuite Data File
++++++++++++++++++++++++++++++++++++
Date: Mon Aug 26 10:22:09 PDT 2019
User: corrico
Dark Spectrum Present: No
Reference Spectrum Present: No
Number of Sampled Component Spectra: 1
Spectrometers: USB2+H06089
Integration Time (usec): 2000 (USB2+H06089)
Spectra Averaged: 20 (USB2+H06089)
Boxcar Smoothing: 2 (USB2+H06089)
Correct for Electrical Dark: No (USB2+H06089)
Strobe/Lamp Enabled: No (USB2+H06089)
Correct for Detector Non-linearity: No (USB2+H06089)
Correct for Stray Light: No (USB2+H06089)
Number of Pixels in Processed Spectrum: 2048
>>>>>Begin Processed Spectral Data<<<<<
339.70	1037.44
340.07	1037.44
340.45	998.07
340.82	974.90
341.19	948.29
341.57	921.26
341.94	910.89
342.31	902.39
342.69	895.77
343.06	894.79
343.43	892.26
343.81	893.83
344.18	894.93
344.55	900.76
344.93	903.80
345.30	911.45
345.67	919.32
346.04	931.46
346.42	939.16
346.79	948.29
347.16	956.93
347.54	966.90
347.91	973.76
348.28	984.15
348.65	996.20
349.03	1007.02
349.40	1017.15
349.77	1025.88
350.14	1034.40
350.52	1039.97
350.89	1046.29
351.26	1049.54
351.63	1054.83
352.01	1055.96
352.38	1059.37
352.75	1062.60
353.12	1070.77
353.50	1074.77
353.87	1079.74
354.24	1080.48
354.61	1082.08
354.98	1079.78
355.36	1080.41
355.73	1081.21
356.10	1080.74
356.47	1080.39
356.84	1080.02
357.22	1079.31
357.59	1078.73
357.96	1083.25
358.33	1085.87
358.70	1084.79
359.08	1085.49
359.45	1084.72
359.82	1082.36
360.19	1080.13
360.56	1079.88
360.94	1082.15
361.31	1079.67
361.68	1082.17
362.05	1083.48
362.42	1084.63
362.79	1081.37
363.16	1083.81
363.54	1079.95
363.91	1077.16
364.28	1076.53
364.65	1075.64
365.02	1073.74
365.39	1071.68
365.76	1071.31
366.14	1073.98
366.51	1073.86
366.88	1075.97
367.25	1082.08
367.62	1081.96
367.99	1078.40
368.36	1079.24
368.73	1077.44
369.10	1073.30
369.48	1070.56
369.85	1070.07
370.22	1070.47
370.59	1070.87
370.96	1071.05
371.33	1075.17
371.70	1077.37
372.07	1079.15
372.44	1080.84
372.81	1081.16
373.18	1082.61
373.55	1082.92
373.93	1079.38
374.30	1078.50
374.67	1076.41
375.04	1072.83
375.41	1071.82
375.78	1074.00
376.15	1073.49
376.52	1075.10
376.89	1074.52
377.26	1074.03
377.63	1072.85
378.00	1072.27
378.37	1075.10
378.74	1077.21
379.11	1076.48
379.48	1076.81
379.85	1079.50
380.22	1081.33
380.59	1080.16
380.96	1082.64
381.33	1081.51
381.70	1079.83
382.07	1077.16
382.44	1079.29
382.81	1079.34
383.18	1079.46
383.55	1083.67
383.92	1084.07
384.29	1080.27
384.66	1079.57
385.03	1080.84
385.40	1079.74
385.77	1079.06
386.14	1082.61
386.51	1081.47
386.88	1081.70
387.25	1080.67
387.62	1081.75
387.99	1084.04
388.36	1083.83
388.73	1083.71
389.10	1083.88
389.46	1085.31
389.83	1083.13
390.20	1085.94
390.57	1086.87
390.94	1087.27
391.31	1088.42
391.68	1089.59
392.05	1089.24
392.42	1091.18
392.79	1091.09
393.16	1088.47
393.53	1087.46
393.89	1087.32
394.26	1086.52
394.63	1087.23
395.00	1088.00
395.37	1088.33
395.74	1088.21
396.11	1085.77
396.48	1085.10
396.84	1083.06
397.21	1083.41
397.58	1082.85
397.95	1084.30
398.32	1084.28
398.69	1087.46
399.06	1090.08
399.42	1091.44
399.79	1089.47
400.16	1090.13
400.53	1089.54
400.90	1089.47
401.27	1091.77
401.64	1094.97
402.00	1093.12
402.37	1095.11
402.74	1094.79
403.11	1092.77
403.48	1089.96
403.84	1092.12
404.21	1089.31
404.58	1089.10
404.95	1086.78
405.32	1089.75
405.68	1089.78
406.05	1091.53
406.42	1091.30
406.79	1093.71
407.16	1094.22
407.52	1095.79
407.89	1094.65
408.26	1097.43
408.63	1096.85
408.99	1098.06
409.36	1095.21
409.73	1097.83
410.10	1097.15
410.47	1098.86
410.83	1098.18
411.20	1100.96
411.57	1103.02
411.94	1102.53
412.30	1103.73
412.67	1108.57
413.04	1108.22
413.40	1105.51
413.77	1106.00
414.14	1106.21
414.51	1101.34
414.87	1104.15
415.24	1106.79
415.61	1105.74
415.97	1104.41
416.34	1106.46
416.71	1107.64
417.08	1105.65
417.44	1106.07
417.81	1109.72
418.18	1108.88
418.54	1109.09
418.91	1110.44
419.28	1114.31
419.64	1112.55
420.01	1114.54
420.38	1115.22
420.74	1117.68
421.11	1118.54
421.48	1122.75
421.84	1124.70
422.21	1128.00
422.58	1131.53
422.94	1134.50
423.31	1137.78
423.68	1141.97
424.04	1140.80
424.41	1142.46
424.77	1147.73
425.14	1154.14
425.51	1155.43
425.87	1163.95
426.24	1169.17
426.61	1172.96
426.97	1177.48
427.34	1188.76
427.70	1194.38
428.07	1205.47
428.44	1217.03
428.80	1226.02
429.17	1233.06
429.53	1243.55
429.90	1254.04
430.27	1261.85
430.63	1274.45
431.00	1289.66
431.36	1305.22
431.73	1316.04
432.09	1331.81
432.46	1349.06
432.83	1363.85
433.19	1383.42
433.56	1409.33
433.92	1436.04
434.29	1461.22
434.65	1497.43
435.02	1526.08
435.38	1556.92
435.75	1588.12
436.11	1629.11
436.48	1667.19
436.84	1709.43
437.21	1757.13
437.57	1804.60
437.94	1853.73
438.30	1907.23
438.67	1966.45
439.03	2027.82
439.40	2101.89
439.76	2169.82
440.13	2242.98
440.49	2326.09
440.86	2406.54
441.22	2487.90
441.59	2580.58
441.95	2682.23
442.32	2786.64
442.68	2906.92
443.05	3032.02
443.41	3158.81
443.78	3291.54
444.14	3428.63
444.51	3565.01
444.87	3728.89
445.24	3894.32
445.60	4064.34
445.96	4249.57
446.33	4464.78
446.69	4666.21
447.06	4893.45
447.42	5125.66
447.79	5359.78
448.15	5626.09
448.51	5897.66
448.88	6211.15
449.24	6517.34
449.61	6875.16
449.97	7220.32
450.33	7602.81
450.70	7957.28
451.06	8381.34
451.43	8786.84
451.79	9252.96
452.15	9746.86
452.52	10293.09
452.88	10845.88
453.24	11478.60
453.61	12188.22
453.97	12900.66
454.34	13605.84
454.70	14441.62
455.06	15249.92
455.43	16013.06
455.79	16706.35
456.15	17512.05
456.52	18253.35
456.88	19166.48
457.24	20079.55
457.61	21182.50
457.97	22252.53
458.33	23358.01
458.70	24409.52
459.06	25411.64
459.42	26452.97
459.79	27385.44
460.15	28432.38
460.51	29455.60
460.88	30559.74
461.24	31548.43
461.60	32687.52
461.96	33747.97
462.33	34780.24
462.69	35798.77
463.05	36902.45
463.42	37943.81
463.78	38863.71
464.14	39607.81
464.50	40357.97
464.87	40895.29
465.23	41233.17
465.59	41643.86
465.95	41978.77
466.32	42217.11
466.68	42464.90
467.04	42608.68
467.40	42625.42
467.77	42720.42
468.13	42637.80
468.49	42502.63
468.85	42399.62
469.22	42272.02
469.58	42025.56
469.94	41886.77
470.30	41635.84
470.66	41275.56
471.03	40766.37
471.39	40386.48
471.75	39666.16
472.11	38956.84
472.47	38461.20
472.84	37959.98
473.20	37272.45
473.56	36882.49
473.92	36328.37
474.28	35669.60
474.65	34998.99
475.01	34281.76
475.37	33450.56
475.73	32752.97
476.09	32078.21
476.45	31419.80
476.81	30879.62
477.18	30322.01
477.54	29844.87
477.90	29379.39
478.26	28821.17
478.62	28286.87
478.98	27813.31
479.34	27374.23
479.71	26804.84
480.07	26364.82
480.43	25927.31
480.79	25469.80
481.15	24995.38
481.51	24642.05
481.87	24321.75
482.23	23965.59
482.59	23636.60
482.96	23316.21
483.32	22993.26
483.68	22585.96
484.04	22231.56
484.40	21823.06
484.76	21387.51
485.12	20924.18
485.48	20493.38
485.84	19997.61
486.20	19557.54
486.56	19110.52
486.92	18726.39
487.28	18329.84
487.64	17930.05
488.00	17543.81
488.37	17146.55
488.73	16707.02
489.09	16246.31
489.45	15822.79
489.81	15367.00
490.17	14939.90
490.53	14539.48
490.89	14122.14
491.25	13693.61
491.61	13288.06
491.97	12888.79
492.33	12482.33
492.69	12141.29
493.05	11811.98
493.41	11496.20
493.77	11174.75
494.13	10878.60
494.49	10572.36
494.85	10280.73
495.21	10004.76
495.57	9744.26
495.93	9477.23
496.29	9220.94
496.64	8995.52
497.00	8733.97
497.36	8475.99
497.72	8226.54
498.08	8003.30
498.44	7770.98
498.80	7568.26
499.16	7370.32
499.52	7175.78
499.88	6997.92
500.24	6821.30
500.60	6661.45
500.96	6510.79
501.32	6350.36
501.68	6174.17
502.03	5999.73
502.39	5833.64
502.75	5659.44
503.11	5515.71
503.47	5385.50
503.83	5261.62
504.19	5129.10
504.55	5012.96
504.91	4893.29
505.26	4775.61
505.62	4658.30
505.98	4551.94
506.34	4435.64
506.70	4316.77
507.06	4207.18
507.42	4103.43
507.78	4003.72
508.13	3916.51
508.49	3834.41
508.85	3754.71
509.21	3669.59
509.57	3584.95
509.93	3492.59
510.28	3401.80
510.64	3317.80
511.00	3240.85
511.36	3167.56
511.72	3104.58
512.07	3051.43
512.43	2987.65
512.79	2924.38
513.15	2862.52
513.51	2803.70
513.86	2735.45
514.22	2684.03
514.58	2636.50
514.94	2592.03
515.30	2543.16
515.65	2507.16
516.01	2459.32
516.37	2413.72
516.73	2373.86
517.08	2339.55
517.44	2296.53
517.80	2262.69
518.16	2229.92
518.51	2195.31
518.87	2156.05
519.23	2122.26
519.59	2091.50
519.94	2062.36
520.30	2035.63
520.66	2009.40
521.01	1985.45
521.37	1955.03
521.73	1925.44
522.09	1897.73
522.44	1875.92
522.80	1854.31
523.16	1832.15
523.51	1811.11
523.87	1785.15
524.23	1763.94
524.58	1739.58
524.94	1721.63
525.30	1699.98
525.65	1684.93
526.01	1664.17
526.37	1648.21
526.72	1628.45
527.08	1611.79
527.44	1594.42
527.79	1577.97
528.15	1561.91
528.51	1547.73
528.86	1535.30
529.22	1517.14
529.58	1503.86
529.93	1486.61
530.29	1472.76
530.65	1459.58
531.00	1453.71
531.36	1442.10
531.71	1432.74
532.07	1424.82
532.43	1412.93
532.78	1398.52
533.14	1387.31
533.49	1380.75
533.85	1372.19
534.21	1367.43
534.56	1359.69
534.92	1352.85
535.27	1343.65
535.63	1336.63
535.98	1329.07
536.34	1324.23
536.69	1316.83
537.05	1307.45
537.41	1298.79
537.76	1291.20
538.12	1283.03
538.47	1276.60
538.83	1275.50
539.18	1267.35
539.54	1259.56
539.89	1255.67
540.25	1253.05
540.60	1244.67
540.96	1240.46
541.31	1237.46
541.67	1231.85
542.02	1230.02
542.38	1229.34
542.73	1227.59
543.09	1227.92
543.44	1229.41
543.80	1224.17
544.15	1222.86
544.51	1217.55
544.86	1212.80
545.22	1203.25
545.57	1198.40
545.93	1192.03
546.28	1192.55
546.64	1189.06
546.99	1191.43
547.35	1189.48
547.70	1187.14
548.05	1182.72
548.41	1180.07
548.76	1173.54
549.12	1172.63
549.47	1170.41
549.83	1167.06
550.18	1162.12
550.53	1162.19
550.89	1160.02
551.24	1154.45
551.60	1153.16
551.95	1150.79
552.30	1146.46
552.66	1143.12
553.01	1147.45
553.37	1145.65
553.72	1146.42
554.07	1149.41
554.43	1150.82
554.78	1147.07
555.13	1144.43
555.49	1143.56
555.84	1138.39
556.19	1137.99
556.55	1135.28
556.90	1134.11
557.26	1135.21
557.61	1136.05
557.96	1132.54
558.32	1133.52
558.67	1132.47
559.02	1130.27
559.37	1129.82
559.73	1127.55
560.08	1122.61
560.43	1126.50
560.79	1124.32
561.14	1124.65
561.49	1126.15
561.85	1125.89
562.20	1121.44
562.55	1120.30
562.90	1116.74
563.26	1113.11
563.61	1115.24
563.96	1117.61
564.32	1115.48
564.67	1114.94
565.02	1117.82
565.37	1113.49
565.73	1111.17
566.08	1111.61
566.43	1109.44
566.78	1105.11
567.14	1106.89
567.49	1103.45
567.84	1104.52
568.19	1104.03
568.54	1102.09
568.90	1102.39
569.25	1103.91
569.60	1101.53
569.95	1104.76
570.31	1106.02
570.66	1102.63
571.01	1102.18
571.36	1103.54
571.71	1100.00
572.06	1100.24
572.42	1099.07
572.77	1100.75
573.12	1098.72
573.47	1099.35
573.82	1100.38
574.18	1101.60
574.53	1100.50
574.88	1103.09
575.23	1101.85
575.58	1098.88
575.93	1100.57
576.28	1096.17
576.64	1088.82
576.99	1087.16
577.34	1087.55
577.69	1086.99
578.04	1089.80
578.39	1094.53
578.74	1097.01
579.09	1098.27
579.44	1096.96
579.80	1095.23
580.15	1096.59
580.50	1093.55
580.85	1089.64
581.20	1090.03
581.55	1093.01
581.90	1090.74
582.25	1091.13
582.60	1096.00
582.95	1095.21
583.30	1091.84
583.65	1089.07
584.00	1091.06
584.35	1087.16
584.71	1088.21
585.06	1089.45
585.41	1092.09
585.76	1091.91
586.11	1090.60
586.46	1089.96
586.81	1089.45
587.16	1089.26
587.51	1088.86
587.86	1091.30
588.21	1090.97
588.56	1092.66
588.91	1092.82
589.26	1089.17
589.61	1088.07
589.96	1086.64
590.31	1086.34
590.66	1088.47
591.01	1092.42
591.36	1091.37
591.71	1090.83
592.06	1089.26
592.41	1087.44
592.76	1082.73
593.10	1086.52
593.45	1088.02
593.80	1085.89
594.15	1082.90
594.50	1086.48
594.85	1084.67
595.20	1085.03
595.55	1087.34
595.90	1090.55
596.25	1091.42
596.60	1090.85
596.95	1090.71
597.30	1089.96
597.64	1099.91
597.99	1099.54
598.34	1102.86
598.69	1101.69
599.04	1103.89
599.39	1092.28
599.74	1089.40
600.09	1087.32
600.44	1088.16
600.78	1089.00
601.13	1088.54
601.48	1089.45
601.83	1086.97
602.18	1086.73
602.53	1085.10
602.88	1085.66
603.22	1086.50
603.57	1085.38
603.92	1086.27
604.27	1084.28
604.62	1083.71
604.97	1081.94
605.31	1081.96
605.66	1081.49
606.01	1080.58
606.36	1079.27
606.71	1078.94
607.05	1080.51
607.40	1080.79
607.75	1081.07
608.10	1084.67
608.44	1085.82
608.79	1085.94
609.14	1086.34
609.49	1087.76
609.84	1086.55
610.18	1086.87
610.53	1087.58
610.88	1086.50
611.23	1086.29
611.57	1085.24
611.92	1088.04
612.27	1086.31
612.62	1088.77
612.96	1089.57
613.31	1089.40
613.66	1088.40
614.00	1089.82
614.35	1089.47
614.70	1087.79
615.05	1087.09
615.39	1084.60
615.74	1081.91
616.09	1078.33
616.43	1078.61
616.78	1079.17
617.13	1081.19
617.47	1082.66
617.82	1083.64
618.17	1083.57
618.51	1086.45
618.86	1090.03
619.21	1089.89
619.55	1090.36
619.90	1090.10
620.25	1085.70
620.59	1080.39
620.94	1081.16
621.29	1081.19
621.63	1081.49
621.98	1082.94
622.32	1083.97
622.67	1083.27
623.02	1081.61
623.36	1078.40
623.71	1079.62
624.05	1079.01
624.40	1079.27
624.75	1077.63
625.09	1080.18
625.44	1075.36
625.78	1075.15
626.13	1078.40
626.48	1080.58
626.82	1081.42
627.17	1085.03
627.51	1083.39
627.86	1082.80
628.20	1083.86
628.55	1083.46
628.89	1084.18
629.24	1085.42
629.58	1083.97
629.93	1085.61
630.28	1086.45
630.62	1085.87
630.97	1088.30
631.31	1086.15
631.66	1083.01
632.00	1079.34
632.35	1076.88
632.69	1074.70
633.04	1076.83
633.38	1074.19
633.73	1074.47
634.07	1077.86
634.42	1078.57
634.76	1078.00
635.11	1080.77
635.45	1083.69
635.79	1082.57
636.14	1082.54
636.48	1080.88
636.83	1082.36
637.17	1082.24
637.52	1082.26
637.86	1080.32
638.21	1082.99
638.55	1083.08
638.89	1080.79
639.24	1081.35
639.58	1082.59
639.93	1083.36
640.27	1081.42
640.61	1081.47
640.96	1082.90
641.30	1081.61
641.65	1079.38
641.99	1078.12
642.33	1081.51
642.68	1080.32
643.02	1083.76
643.37	1081.94
643.71	1081.98
644.05	1080.25
644.40	1078.75
644.74	1077.09
645.08	1076.97
645.43	1079.29
645.77	1079.78
646.11	1082.73
646.46	1080.18
646.80	1082.97
647.14	1080.95
647.49	1080.48
647.83	1078.19
648.17	1081.91
648.52	1079.74
648.86	1083.36
649.20	1082.08
649.55	1080.51
649.89	1078.40
650.23	1081.02
650.57	1077.96
650.92	1078.89
651.26	1079.38
651.60	1080.23
651.95	1077.42
652.29	1081.30
652.63	1080.06
652.97	1079.95
653.32	1078.14
653.66	1082.47
654.00	1079.88
654.34	1083.95
654.69	1085.89
655.03	1086.24
655.37	1086.10
655.71	1083.88
656.05	1081.61
656.40	1081.21
656.74	1082.43
657.08	1078.38
657.42	1079.27
657.76	1078.64
658.11	1076.04
658.45	1074.91
658.79	1077.28
659.13	1077.49
659.47	1075.87
659.82	1077.89
660.16	1079.90
660.50	1076.55
660.84	1077.65
661.18	1078.64
661.52	1077.91
661.87	1076.06
662.21	1077.11
662.55	1077.72
662.89	1080.56
663.23	1082.45
663.57	1085.19
663.91	1085.07
664.25	1084.14
664.60	1080.56
664.94	1080.18
665.28	1079.92
665.62	1082.40
665.96	1082.22
666.30	1085.66
666.64	1088.28
666.98	1086.03
667.32	1085.91
667.66	1086.80
668.01	1087.04
668.35	1082.26
668.69	1084.04
669.03	1081.02
669.37	1077.16
669.71	1078.45
670.05	1081.00
670.39	1077.02
670.73	1080.23
671.07	1085.14
671.41	1081.19
671.75	1078.99
672.09	1080.27
672.43	1077.84
672.77	1077.00
673.11	1079.03
673.45	1080.13
673.79	1082.17
674.13	1082.73
674.47	1081.54
674.81	1081.89
675.15	1079.83
675.49	1076.51
675.83	1077.37
676.17	1076.04
676.51	1076.30
676.85	1078.68
677.19	1079.85
677.53	1081.00
677.87	1081.44
678.21	1078.47
678.55	1077.82
678.89	1079.90
679.23	1077.89
679.57	1079.81
679.90	1078.73
680.24	1077.23
680.58	1077.02
680.92	1077.44
681.26	1076.76
681.60	1077.02
681.94	1077.11
682.28	1080.63
682.62	1081.12
682.96	1079.57
683.29	1083.50
683.63	1083.71
683.97	1079.10
684.31	1076.72
684.65	1075.43
684.99	1072.83
685.33	1075.71
685.67	1076.04
686.00	1078.33
686.34	1082.66
686.68	1082.69
687.02	1080.09
687.36	1082.19
687.70	1081.63
688.03	1079.13
688.37	1075.87
688.71	1076.72
689.05	1075.92
689.39	1076.58
689.72	1077.16
690.06	1079.24
690.40	1078.96
690.74	1076.69
691.08	1077.33
691.41	1079.74
691.75	1081.33
692.09	1084.32
692.43	1084.63
692.76	1084.98
693.10	1083.22
693.44	1081.63
693.78	1080.67
694.11	1081.40
694.45	1078.33
694.79	1079.20
695.13	1081.42
695.46	1081.07
695.80	1081.96
696.14	1083.88
696.48	1087.27
696.81	1086.50
697.15	1083.95
697.49	1081.98
697.82	1083.04
698.16	1077.54
698.50	1076.20
698.83	1078.54
699.17	1082.87
699.51	1083.08
699.84	1084.16
700.18	1086.71
700.52	1084.39
700.85	1079.31
701.19	1077.35
701.53	1076.93
701.86	1074.33
702.20	1076.08
702.54	1079.48
702.87	1078.68
703.21	1079.20
703.55	1081.28
703.88	1080.86
704.22	1078.61
704.55	1080.02
704.89	1079.31
705.23	1077.86
705.56	1077.37
705.90	1076.83
706.23	1077.47
706.57	1080.44
706.91	1081.12
707.24	1082.38
707.58	1085.42
707.91	1087.32
708.25	1084.60
708.58	1086.38
708.92	1087.44
709.26	1087.51
709.59	1085.03
709.93	1084.32
710.26	1083.29
710.60	1081.21
710.93	1081.73
711.27	1080.37
711.60	1084.00
711.94	1084.84
712.27	1086.50
712.61	1083.36
712.94	1085.03
713.28	1080.48
713.61	1082.47
713.95	1081.12
714.28	1083.36
714.62	1083.43
714.95	1085.96
715.29	1081.87
715.62	1082.69
715.96	1080.60
716.29	1077.84
716.63	1076.55
716.96	1077.28
717.29	1073.79
717.63	1077.16
717.96	1077.84
718.30	1078.85
718.63	1077.25
718.97	1079.15
719.30	1073.88
719.63	1074.96
719.97	1073.84
720.30	1075.34
720.64	1076.67
720.97	1080.93
721.30	1080.13
721.64	1084.09
721.97	1084.30
722.31	1083.81
722.64	1083.15
722.97	1085.00
723.31	1083.93
723.64	1082.59
723.97	1082.31
724.31	1081.56
724.64	1079.48
724.98	1076.41
725.31	1075.20
725.64	1074.35
725.98	1072.46
726.31	1073.79
726.64	1074.19
726.97	1076.46
727.31	1079.01
727.64	1084.60
727.97	1087.20
728.31	1092.66
728.64	1092.37
728.97	1090.74
729.31	1085.17
729.64	1082.40
729.97	1076.18
730.30	1078.07
730.64	1080.53
730.97	1081.63
731.30	1081.26
731.63	1083.79
731.97	1080.09
732.30	1077.68
732.63	1080.44
732.96	1083.86
733.30	1082.66
733.63	1086.31
733.96	1086.41
734.29	1080.63
734.63	1077.40
734.96	1079.38
735.29	1077.65
735.62	1076.93
735.95	1079.69
736.29	1078.73
736.62	1076.83
736.95	1076.08
737.28	1076.74
737.61	1079.17
737.94	1078.40
738.28	1074.33
738.61	1075.31
738.94	1074.61
739.27	1073.02
739.60	1074.17
739.93	1076.97
740.27	1077.33
740.60	1077.18
740.93	1076.15
741.26	1078.10
741.59	1081.40
741.92	1082.24
742.25	1083.55
742.58	1085.47
742.91	1084.84
743.25	1081.05
743.58	1077.02
743.91	1077.79
744.24	1075.80
744.57	1075.57
744.90	1074.38
745.23	1078.36
745.56	1075.94
745.89	1076.11
746.22	1073.11
746.55	1075.73
746.88	1074.54
747.21	1073.79
747.54	1073.81
747.87	1076.69
748.20	1078.45
748.53	1079.36
748.87	1083.76
749.20	1083.79
749.53	1080.77
749.86	1082.10
750.19	1079.34
750.52	1077.61
750.85	1078.80
751.18	1081.26
751.51	1078.80
751.84	1080.88
752.16	1080.18
752.49	1080.34
752.82	1082.29
753.15	1082.10
753.48	1083.64
753.81	1083.71
754.14	1081.66
754.47	1080.56
754.80	1078.89
755.13	1074.42
755.46	1075.41
755.79	1077.96
756.12	1077.00
756.45	1078.43
756.78	1080.93
757.11	1080.53
757.43	1079.67
757.76	1080.48
758.09	1083.06
758.42	1082.92
758.75	1079.64
759.08	1078.50
759.41	1076.60
759.74	1074.91
760.07	1077.09
760.39	1076.95
760.72	1077.02
761.05	1076.74
761.38	1073.37
761.71	1070.70
762.04	1073.84
762.36	1076.44
762.69	1078.87
763.02	1082.03
763.35	1080.13
763.68	1081.02
