SpectraSuite Data File
++++++++++++++++++++++++++++++++++++
Date: Mon Aug 26 10:22:02 PDT 2019
User: corrico
Dark Spectrum Present: No
Reference Spectrum Present: No
Number of Sampled Component Spectra: 1
Spectrometers: USB2+H06089
Integration Time (usec): 2000 (USB2+H06089)
Spectra Averaged: 20 (USB2+H06089)
Boxcar Smoothing: 2 (USB2+H06089)
Correct for Electrical Dark: No (USB2+H06089)
Strobe/Lamp Enabled: No (USB2+H06089)
Correct for Detector Non-linearity: No (USB2+H06089)
Correct for Stray Light: No (USB2+H06089)
Number of Pixels in Processed Spectrum: 2048
>>>>>Begin Processed Spectral Data<<<<<
339.70	1035.22
340.07	1035.22
340.45	996.06
340.82	972.16
341.19	948.22
341.57	923.13
341.94	916.44
342.31	909.74
342.69	907.17
343.06	901.13
343.43	900.92
343.81	899.94
344.18	901.60
344.55	903.87
344.93	911.90
345.30	915.22
345.67	920.21
346.04	929.61
346.42	940.78
346.79	946.61
347.16	955.13
347.54	963.90
347.91	973.59
348.28	981.74
348.65	994.26
349.03	1007.13
349.40	1017.36
349.77	1025.90
350.14	1030.89
350.52	1034.87
350.89	1038.03
351.26	1043.90
351.63	1047.51
352.01	1053.40
352.38	1060.94
352.75	1068.97
353.12	1073.53
353.50	1079.34
353.87	1079.62
354.24	1083.20
354.61	1082.90
354.98	1082.83
355.36	1079.15
355.73	1082.92
356.10	1084.98
356.47	1085.05
356.84	1085.49
357.22	1088.89
357.59	1087.46
357.96	1083.41
358.33	1085.56
358.70	1086.20
359.08	1086.17
359.45	1086.34
359.82	1087.67
360.19	1081.98
360.56	1080.88
360.94	1079.69
361.31	1081.23
361.68	1077.04
362.05	1079.43
362.42	1076.79
362.79	1075.24
363.16	1070.72
363.54	1072.15
363.91	1072.29
364.28	1077.70
364.65	1080.60
365.02	1081.96
365.39	1082.31
365.76	1083.01
366.14	1082.50
366.51	1083.41
366.88	1082.92
367.25	1083.93
367.62	1081.37
367.99	1077.75
368.36	1074.77
368.73	1078.38
369.10	1080.70
369.48	1079.10
369.85	1078.94
370.22	1081.42
370.59	1081.96
370.96	1080.04
371.33	1082.47
371.70	1080.56
372.07	1078.17
372.44	1075.97
372.81	1075.08
373.18	1076.34
373.55	1077.56
373.93	1075.31
374.30	1073.39
374.67	1071.73
375.04	1070.72
375.41	1072.01
375.78	1074.82
376.15	1075.99
376.52	1078.40
376.89	1078.80
377.26	1079.20
377.63	1080.91
378.00	1086.22
378.37	1084.30
378.74	1083.64
379.11	1083.41
379.48	1079.36
379.85	1076.20
380.22	1076.79
380.59	1077.18
380.96	1081.12
381.33	1083.39
381.70	1082.29
382.07	1082.73
382.44	1084.04
382.81	1080.67
383.18	1078.85
383.55	1079.31
383.92	1078.07
384.29	1075.97
384.66	1072.95
385.03	1074.05
385.40	1076.20
385.77	1077.40
386.14	1076.20
386.51	1078.64
386.88	1080.81
387.25	1076.90
387.62	1080.65
387.99	1082.08
388.36	1083.43
388.73	1080.86
389.10	1085.19
389.46	1082.69
389.83	1084.74
390.20	1085.68
390.57	1084.91
390.94	1081.75
391.31	1081.30
391.68	1079.48
392.05	1077.68
392.42	1081.75
392.79	1083.39
393.16	1082.43
393.53	1083.64
393.89	1086.38
394.26	1087.34
394.63	1090.03
395.00	1092.23
395.37	1093.47
395.74	1092.52
396.11	1088.77
396.48	1086.87
396.84	1085.77
397.21	1084.72
397.58	1085.52
397.95	1089.10
398.32	1086.97
398.69	1089.57
399.06	1091.67
399.42	1091.16
399.79	1093.45
400.16	1094.22
400.53	1092.94
400.90	1093.94
401.27	1094.86
401.64	1091.65
402.00	1090.22
402.37	1092.77
402.74	1091.04
403.11	1090.15
403.48	1089.89
403.84	1093.47
404.21	1093.55
404.58	1091.67
404.95	1092.89
405.32	1094.36
405.68	1092.14
406.05	1088.33
406.42	1088.96
406.79	1086.85
407.16	1086.80
407.52	1086.66
407.89	1087.18
408.26	1088.04
408.63	1088.37
408.99	1090.50
409.36	1094.11
409.73	1097.27
410.10	1097.15
410.47	1099.79
410.83	1097.41
411.20	1094.69
411.57	1094.41
411.94	1095.02
412.30	1094.50
412.67	1094.57
413.04	1096.49
413.40	1095.30
413.77	1096.61
414.14	1094.74
414.51	1096.21
414.87	1097.24
415.24	1097.69
415.61	1097.64
415.97	1099.02
416.34	1096.05
416.71	1095.91
417.08	1101.25
417.44	1102.60
417.81	1104.15
418.18	1108.06
418.54	1110.87
418.91	1107.17
419.28	1107.59
419.64	1107.75
420.01	1109.72
420.38	1106.09
420.74	1108.74
421.11	1111.54
421.48	1112.11
421.84	1110.05
422.21	1117.79
422.58	1117.47
422.94	1119.85
423.31	1126.17
423.68	1133.71
424.04	1134.67
424.41	1138.41
424.77	1140.54
425.14	1140.52
425.51	1142.74
425.87	1144.78
426.24	1149.51
426.61	1154.87
426.97	1164.72
427.34	1172.58
427.70	1178.88
428.07	1184.87
428.44	1193.25
428.80	1196.97
429.17	1201.89
429.53	1211.39
429.90	1224.92
430.27	1231.96
430.63	1246.50
431.00	1259.91
431.36	1274.87
431.73	1283.41
432.09	1298.01
432.46	1309.95
432.83	1324.49
433.19	1339.30
433.56	1362.45
433.92	1384.99
434.29	1406.24
434.65	1428.50
435.02	1449.07
435.38	1472.69
435.75	1500.94
436.11	1532.28
436.48	1565.94
436.84	1604.84
437.21	1642.52
437.57	1682.59
437.94	1725.89
438.30	1772.16
438.67	1819.32
439.03	1868.05
439.40	1922.09
439.76	1980.00
440.13	2042.70
440.49	2110.25
440.86	2178.83
441.22	2252.13
441.59	2323.71
441.95	2406.84
442.32	2491.59
442.68	2592.49
443.05	2691.19
443.41	2799.73
443.78	2901.35
444.14	3017.91
444.51	3130.40
444.87	3268.23
445.24	3410.56
445.60	3559.00
445.96	3711.18
446.33	3886.79
446.69	4054.23
447.06	4239.18
447.42	4430.45
447.79	4629.04
448.15	4862.21
448.51	5095.93
448.88	5351.87
449.24	5606.57
449.61	5904.42
449.97	6193.39
450.33	6509.31
450.70	6807.94
451.06	7179.59
451.43	7525.36
451.79	7911.85
452.15	8313.86
452.52	8763.27
452.88	9214.60
453.24	9726.26
453.61	10298.52
453.97	10863.78
454.34	11419.97
454.70	12059.19
455.06	12697.50
455.43	13315.64
455.79	13907.11
456.15	14612.76
456.52	15297.62
456.88	16140.45
457.24	16922.17
457.61	17884.38
457.97	18760.14
458.33	19658.65
458.70	20476.64
459.06	21283.54
459.42	22140.16
459.79	22960.75
460.15	23894.55
460.51	24759.59
460.88	25671.91
461.24	26478.25
461.60	27424.88
461.96	28218.36
462.33	29044.88
462.69	29905.70
463.05	30810.18
463.42	31651.93
463.78	32473.06
464.14	33107.39
464.50	33786.43
464.87	34290.67
465.23	34568.80
465.59	34888.59
465.95	35202.90
466.32	35452.59
466.68	35704.94
467.04	35929.66
467.40	36056.80
467.77	36234.30
468.13	36243.76
468.49	36172.39
468.85	36115.50
469.22	36026.67
469.58	35790.51
469.94	35587.24
470.30	35322.62
470.66	34936.08
471.03	34353.05
471.39	33931.00
471.75	33257.33
472.11	32591.87
472.47	32128.49
472.84	31696.99
473.20	31049.34
473.56	30661.67
473.92	30148.91
474.28	29590.55
474.65	29039.52
475.01	28525.47
475.37	27898.09
475.73	27382.75
476.09	26818.96
476.45	26300.67
476.81	25843.98
477.18	25365.60
477.54	24960.64
477.90	24618.11
478.26	24182.49
478.62	23790.42
478.98	23476.56
479.34	23156.14
479.71	22712.21
480.07	22350.43
480.43	21976.34
480.79	21539.11
481.15	21092.53
481.51	20750.49
481.87	20446.08
482.23	20132.52
482.59	19858.13
482.96	19560.84
483.32	19257.60
483.68	18891.07
484.04	18545.19
484.40	18173.63
484.76	17830.55
485.12	17465.45
485.48	17164.23
485.84	16824.50
486.20	16503.77
486.56	16144.95
486.92	15833.51
487.28	15472.81
487.64	15121.52
488.00	14789.68
488.37	14433.03
488.73	14013.30
489.09	13610.59
489.45	13228.92
489.81	12845.12
490.17	12529.19
490.53	12230.05
490.89	11923.74
491.25	11607.02
491.61	11265.75
491.97	10919.07
492.33	10590.55
492.69	10288.18
493.05	10000.83
493.41	9741.82
493.77	9471.56
494.13	9226.93
494.49	8970.81
494.85	8734.29
495.21	8488.12
495.57	8264.27
495.93	8027.15
496.29	7809.17
496.64	7599.88
497.00	7395.74
497.36	7191.62
497.72	7005.36
498.08	6843.31
498.44	6662.48
498.80	6492.69
499.16	6328.20
499.52	6165.18
499.88	5996.52
500.24	5852.70
500.60	5721.67
500.96	5601.21
501.32	5471.92
501.68	5338.08
502.03	5196.67
502.39	5062.30
502.75	4928.11
503.11	4810.97
503.47	4704.76
503.83	4598.75
504.19	4490.41
504.55	4382.40
504.91	4281.87
505.26	4178.35
505.62	4074.17
505.98	3975.40
506.34	3878.03
506.70	3774.79
507.06	3684.82
507.42	3602.01
507.78	3525.27
508.13	3449.15
508.49	3381.16
508.85	3304.84
509.21	3228.32
509.57	3157.41
509.93	3086.37
510.28	3012.95
510.64	2950.43
511.00	2893.16
511.36	2836.38
511.72	2779.88
512.07	2732.01
512.43	2681.90
512.79	2631.63
513.15	2580.39
513.51	2526.68
513.86	2478.58
514.22	2435.33
514.58	2390.93
514.94	2347.86
515.30	2315.77
515.65	2277.62
516.01	2240.74
516.37	2205.51
516.73	2175.62
517.08	2145.78
517.44	2115.07
517.80	2081.49
518.16	2051.57
518.51	2017.64
518.87	1985.62
519.23	1954.96
519.59	1927.15
519.94	1903.89
520.30	1880.15
520.66	1854.38
521.01	1830.51
521.37	1811.22
521.73	1784.71
522.09	1764.81
522.44	1744.40
522.80	1726.07
523.16	1705.97
523.51	1686.89
523.87	1666.06
524.23	1650.38
524.58	1630.65
524.94	1616.73
525.30	1601.68
525.65	1585.13
526.01	1566.57
526.37	1553.13
526.72	1536.63
527.08	1520.62
527.44	1510.16
527.79	1495.25
528.15	1480.39
528.51	1464.08
528.86	1454.27
529.22	1439.97
529.58	1430.00
529.93	1423.54
530.29	1415.30
530.65	1402.92
531.00	1394.14
531.36	1387.17
531.71	1379.02
532.07	1366.94
532.43	1363.41
532.78	1354.21
533.14	1343.16
533.49	1331.67
533.85	1323.69
534.21	1313.34
534.56	1304.10
534.92	1302.46
535.27	1298.41
535.63	1294.95
535.98	1287.06
536.34	1282.57
536.69	1273.09
537.05	1268.55
537.41	1265.06
537.76	1262.48
538.12	1258.11
538.47	1254.06
538.83	1246.85
539.18	1240.69
539.54	1237.49
539.89	1230.28
540.25	1225.25
540.60	1224.05
540.96	1222.60
541.31	1217.48
541.67	1217.80
542.02	1214.27
542.38	1208.79
542.73	1203.13
543.09	1198.59
543.44	1196.65
543.80	1195.69
544.15	1194.82
544.51	1190.56
544.86	1186.07
545.22	1180.19
545.57	1174.41
545.93	1170.92
546.28	1172.80
546.64	1172.33
546.99	1174.53
547.35	1173.97
547.70	1169.47
548.05	1163.60
548.41	1160.91
548.76	1157.65
549.12	1158.35
549.47	1157.28
549.83	1160.13
550.18	1161.49
550.53	1157.21
550.89	1152.53
551.24	1150.02
551.60	1143.21
551.95	1136.42
552.30	1134.53
552.66	1132.96
553.01	1132.07
553.37	1133.71
553.72	1137.80
554.07	1139.33
554.43	1136.61
554.78	1133.71
555.13	1131.09
555.49	1129.19
555.84	1129.17
556.19	1130.67
556.55	1128.65
556.90	1130.74
557.26	1128.44
557.61	1122.01
557.96	1120.44
558.32	1122.03
558.67	1118.00
559.02	1118.57
559.37	1121.16
559.73	1123.55
560.08	1124.65
560.43	1120.58
560.79	1120.79
561.14	1120.09
561.49	1115.69
561.85	1112.76
562.20	1115.64
562.55	1110.44
562.90	1106.23
563.26	1107.68
563.61	1107.42
563.96	1107.96
564.32	1111.64
564.67	1114.42
565.02	1110.87
565.37	1109.84
565.73	1106.84
566.08	1101.99
566.43	1101.08
566.78	1101.06
567.14	1098.90
567.49	1096.78
567.84	1098.55
568.19	1099.33
568.54	1098.76
568.90	1101.57
569.25	1104.87
569.60	1103.68
569.95	1102.06
570.31	1101.29
570.66	1098.65
571.01	1097.17
571.36	1099.35
571.71	1097.69
572.06	1097.27
572.42	1095.89
572.77	1094.72
573.12	1092.98
573.47	1094.20
573.82	1094.08
574.18	1096.31
574.53	1095.89
574.88	1093.59
575.23	1092.52
575.58	1094.41
575.93	1095.63
576.28	1096.92
576.64	1097.24
576.99	1096.80
577.34	1094.08
577.69	1089.12
578.04	1088.89
578.39	1090.32
578.74	1089.68
579.09	1091.79
579.44	1092.87
579.80	1092.00
580.15	1092.89
580.50	1092.33
580.85	1092.77
581.20	1095.46
581.55	1096.89
581.90	1092.77
582.25	1096.66
582.60	1096.40
582.95	1093.90
583.30	1090.81
583.65	1092.12
584.00	1089.57
584.35	1088.54
584.71	1090.62
585.06	1092.70
585.41	1091.93
585.76	1091.88
586.11	1090.22
586.46	1085.96
586.81	1082.47
587.16	1086.03
587.51	1085.66
587.86	1086.90
588.21	1092.12
588.56	1094.69
588.91	1091.06
589.26	1090.01
589.61	1087.62
589.96	1085.82
590.31	1087.97
590.66	1090.08
591.01	1089.92
591.36	1093.78
591.71	1093.59
592.06	1093.55
592.41	1091.51
592.76	1091.39
593.10	1089.68
593.45	1088.82
593.80	1086.62
594.15	1087.11
594.50	1088.51
594.85	1089.05
595.20	1088.14
595.55	1087.58
595.90	1088.93
596.25	1088.26
596.60	1088.23
596.95	1088.96
597.30	1088.02
597.64	1095.35
597.99	1094.69
598.34	1093.43
598.69	1091.53
599.04	1091.23
599.39	1081.91
599.74	1082.03
600.09	1079.81
600.44	1083.60
600.78	1083.39
601.13	1084.14
601.48	1082.90
601.83	1084.44
602.18	1079.24
602.53	1083.60
602.88	1084.21
603.22	1086.66
603.57	1089.31
603.92	1091.34
604.27	1086.22
604.62	1085.28
604.97	1084.00
605.31	1080.09
605.66	1079.46
606.01	1080.48
606.36	1080.48
606.71	1077.98
607.05	1081.07
607.40	1081.07
607.75	1081.58
608.10	1079.10
608.44	1083.71
608.79	1082.54
609.14	1084.25
609.49	1085.28
609.84	1087.51
610.18	1085.07
610.53	1083.32
610.88	1084.56
611.23	1082.64
611.57	1083.93
611.92	1082.66
612.27	1087.09
612.62	1086.97
612.96	1089.00
613.31	1088.19
613.66	1089.61
614.00	1088.33
614.35	1087.34
614.70	1084.16
615.05	1085.49
615.39	1086.45
615.74	1085.82
616.09	1086.80
616.43	1088.75
616.78	1086.78
617.13	1086.62
617.47	1087.46
617.82	1085.19
618.17	1082.85
618.51	1083.95
618.86	1078.33
619.21	1075.29
619.55	1077.47
619.90	1079.92
620.25	1079.41
620.59	1085.96
620.94	1084.72
621.29	1081.89
621.63	1082.94
621.98	1081.12
622.32	1079.46
622.67	1080.18
623.02	1081.77
623.36	1081.77
623.71	1083.53
624.05	1082.40
624.40	1081.44
624.75	1082.80
625.09	1082.03
625.44	1081.09
625.78	1080.93
626.13	1083.97
626.48	1082.50
626.82	1080.46
627.17	1081.33
627.51	1082.03
627.86	1082.97
628.20	1084.70
628.55	1088.77
628.89	1085.75
629.24	1083.76
629.58	1082.01
629.93	1079.50
630.28	1076.86
630.62	1075.99
630.97	1077.14
631.31	1076.39
631.66	1075.38
632.00	1076.83
632.35	1082.22
632.69	1083.20
633.04	1083.43
633.38	1083.34
633.73	1082.69
634.07	1076.72
634.42	1076.65
634.76	1075.71
635.11	1077.82
635.45	1076.01
635.79	1082.69
636.14	1081.58
636.48	1083.15
636.83	1081.19
637.17	1080.72
637.52	1079.57
637.86	1081.37
638.21	1081.14
638.55	1081.44
638.89	1084.91
639.24	1084.42
639.58	1084.63
639.93	1083.15
640.27	1083.01
640.61	1080.04
640.96	1076.32
641.30	1076.15
641.65	1078.94
641.99	1084.67
642.33	1087.39
642.68	1090.27
643.02	1087.97
643.37	1087.20
643.71	1082.24
644.05	1081.30
644.40	1082.40
644.74	1083.71
645.08	1084.25
645.43	1081.56
645.77	1081.14
646.11	1080.16
646.46	1083.08
646.80	1081.37
647.14	1079.22
647.49	1079.71
647.83	1078.07
648.17	1075.20
648.52	1074.05
648.86	1073.09
649.20	1069.84
649.55	1072.15
649.89	1072.88
650.23	1072.97
650.57	1079.57
650.92	1082.64
651.26	1080.60
651.60	1077.54
651.95	1078.21
652.29	1078.45
652.63	1076.13
652.97	1077.86
653.32	1082.01
653.66	1081.09
654.00	1083.15
654.34	1087.27
654.69	1084.44
655.03	1082.66
655.37	1082.15
655.71	1080.13
656.05	1079.01
656.40	1082.05
656.74	1082.94
657.08	1084.98
657.42	1086.85
657.76	1086.29
658.11	1084.63
658.45	1084.65
658.79	1082.17
659.13	1078.61
659.47	1077.93
659.82	1076.74
660.16	1076.53
660.50	1081.00
660.84	1081.96
661.18	1078.87
661.52	1080.72
661.87	1080.46
662.21	1081.37
662.55	1076.58
662.89	1080.06
663.23	1080.20
663.57	1080.18
663.91	1079.78
664.25	1084.14
664.60	1081.80
664.94	1081.42
665.28	1080.37
665.62	1078.68
665.96	1078.03
666.30	1080.13
666.64	1081.02
666.98	1082.52
667.32	1082.87
667.66	1084.11
668.01	1085.56
668.35	1086.38
668.69	1085.66
669.03	1086.03
669.37	1088.00
669.71	1085.33
670.05	1083.06
670.39	1083.79
670.73	1080.32
671.07	1076.93
671.41	1077.18
671.75	1076.20
672.09	1075.24
672.43	1078.85
672.77	1079.60
673.11	1079.10
673.45	1080.84
673.79	1081.63
674.13	1077.21
674.47	1077.42
674.81	1077.91
675.15	1080.91
675.49	1081.63
675.83	1084.63
676.17	1085.59
676.51	1082.52
676.85	1079.55
677.19	1077.98
677.53	1077.98
677.87	1076.88
678.21	1080.20
678.55	1080.93
678.89	1080.11
679.23	1079.10
679.57	1078.28
679.90	1079.20
680.24	1080.84
680.58	1080.84
680.92	1082.59
681.26	1084.14
681.60	1083.27
681.94	1079.57
682.28	1081.00
682.62	1078.82
682.96	1077.70
683.29	1079.10
683.63	1079.60
683.97	1080.30
684.31	1082.54
684.65	1082.76
684.99	1080.93
685.33	1081.40
685.67	1082.50
686.00	1080.70
686.34	1081.80
686.68	1081.89
687.02	1080.84
687.36	1078.24
687.70	1081.35
688.03	1079.01
688.37	1077.40
688.71	1078.12
689.05	1079.20
689.39	1079.43
689.72	1083.22
690.06	1086.48
690.40	1088.33
690.74	1088.37
691.08	1086.36
691.41	1084.23
691.75	1080.46
692.09	1078.05
692.43	1073.46
692.76	1073.23
693.10	1072.01
693.44	1074.33
693.78	1073.30
694.11	1077.56
694.45	1077.68
694.79	1079.71
695.13	1078.68
695.46	1081.91
695.80	1081.75
696.14	1081.75
696.48	1082.24
696.81	1083.22
697.15	1083.27
697.49	1084.39
697.82	1082.47
698.16	1082.10
698.50	1085.54
698.83	1086.17
699.17	1087.25
699.51	1090.13
699.84	1091.46
700.18	1089.59
700.52	1087.13
700.85	1083.79
701.19	1078.40
701.53	1074.84
701.86	1074.14
702.20	1075.05
702.54	1074.12
702.87	1077.40
703.21	1078.96
703.55	1078.85
703.88	1077.21
704.22	1079.85
704.55	1080.95
704.89	1081.44
705.23	1081.42
705.56	1082.17
705.90	1080.06
706.23	1077.49
706.57	1078.03
706.91	1076.79
707.24	1076.86
707.58	1077.54
707.91	1079.43
708.25	1077.54
708.58	1075.29
708.92	1076.72
709.26	1077.68
709.59	1081.98
709.93	1085.35
710.26	1087.02
710.60	1083.90
710.93	1083.20
711.27	1078.66
711.60	1073.23
711.94	1074.52
712.27	1077.37
712.61	1080.70
712.94	1082.40
713.28	1085.89
713.61	1084.58
713.95	1084.02
714.28	1081.35
714.62	1078.43
714.95	1077.28
715.29	1078.40
715.62	1078.38
715.96	1076.97
716.29	1078.80
716.63	1078.52
716.96	1075.87
717.29	1077.11
717.63	1076.55
717.96	1076.34
718.30	1076.51
718.63	1080.11
718.97	1076.83
719.30	1079.71
719.63	1078.52
719.97	1078.66
720.30	1075.94
720.64	1078.45
720.97	1078.54
721.30	1078.96
721.64	1082.12
721.97	1084.70
722.31	1084.11
722.64	1082.94
722.97	1081.49
723.31	1077.21
723.64	1079.38
723.97	1079.48
724.31	1078.12
724.64	1079.69
724.98	1080.32
725.31	1077.91
725.64	1078.28
725.98	1080.65
726.31	1081.33
726.64	1081.98
726.97	1083.62
727.31	1084.58
727.64	1084.11
727.97	1083.60
728.31	1085.94
728.64	1083.39
728.97	1082.61
729.31	1077.56
729.64	1078.03
729.97	1072.11
730.30	1073.09
730.64	1071.08
730.97	1074.68
731.30	1072.46
731.63	1075.92
731.97	1076.15
732.30	1079.41
732.63	1079.69
732.96	1081.94
733.30	1083.86
733.63	1083.69
733.96	1080.37
734.29	1078.89
734.63	1078.92
734.96	1077.16
735.29	1074.98
735.62	1076.69
735.95	1080.53
736.29	1082.10
736.62	1081.23
736.95	1084.89
737.28	1082.36
737.61	1077.98
737.94	1076.01
738.28	1074.59
738.61	1074.96
738.94	1078.12
739.27	1080.56
739.60	1079.60
739.93	1083.64
740.27	1081.66
740.60	1078.17
740.93	1075.55
741.26	1076.06
741.59	1074.49
741.92	1074.45
742.25	1075.13
742.58	1075.73
742.91	1075.48
743.25	1075.41
743.58	1076.55
743.91	1079.81
744.24	1081.07
744.57	1083.50
744.90	1079.69
745.23	1081.16
745.56	1078.52
745.89	1078.73
746.22	1074.98
746.55	1078.31
746.88	1074.63
747.21	1075.52
747.54	1076.08
747.87	1078.00
748.20	1079.81
748.53	1080.23
748.87	1078.24
749.20	1078.05
749.53	1075.83
749.86	1074.33
750.19	1078.33
750.52	1081.12
750.85	1081.75
751.18	1084.21
751.51	1082.45
751.84	1076.15
752.16	1076.15
752.49	1072.95
752.82	1076.13
753.15	1076.32
753.48	1079.67
753.81	1079.15
754.14	1083.53
754.47	1078.28
754.80	1081.33
755.13	1082.66
755.46	1083.97
755.79	1083.34
756.12	1085.28
756.45	1086.24
756.78	1082.90
757.11	1082.71
757.43	1083.86
757.76	1084.07
758.09	1079.88
758.42	1080.23
758.75	1079.15
759.08	1075.85
759.41	1075.03
759.74	1076.83
760.07	1076.58
760.39	1074.40
760.72	1075.66
761.05	1075.64
761.38	1073.44
761.71	1073.93
762.04	1072.62
762.36	1072.29
762.69	1071.68
763.02	1072.13
763.35	1075.48
763.68	1076.25
764.01	1074.45
