SpectraSuite Data File
++++++++++++++++++++++++++++++++++++
Date: Mon Aug 26 10:22:12 PDT 2019
User: corrico
Dark Spectrum Present: No
Reference Spectrum Present: No
Number of Sampled Component Spectra: 1
Spectrometers: USB2+H06089
Integration Time (usec): 2000 (USB2+H06089)
Spectra Averaged: 20 (USB2+H06089)
Boxcar Smoothing: 2 (USB2+H06089)
Correct for Electrical Dark: No (USB2+H06089)
Strobe/Lamp Enabled: No (USB2+H06089)
Correct for Detector Non-linearity: No (USB2+H06089)
Correct for Stray Light: No (USB2+H06089)
Number of Pixels in Processed Spectrum: 2048
>>>>>Begin Processed Spectral Data<<<<<
339.70	1034.05
340.07	1034.05
340.45	993.89
340.82	972.35
341.19	949.77
341.57	922.36
341.94	912.55
342.31	906.40
342.69	901.32
343.06	896.14
343.43	894.44
343.81	895.40
344.18	900.66
344.55	903.03
344.93	910.12
345.30	917.82
345.67	924.89
346.04	931.28
346.42	941.13
346.79	948.60
347.16	956.97
347.54	963.43
347.91	971.18
348.28	979.21
348.65	990.49
349.03	1000.06
349.40	1012.61
349.77	1021.57
350.14	1028.06
350.52	1031.36
350.89	1041.49
351.26	1045.87
351.63	1051.65
352.01	1057.69
352.38	1062.16
352.75	1059.86
353.12	1062.53
353.50	1069.37
353.87	1071.64
354.24	1071.85
354.61	1076.62
354.98	1077.56
355.36	1077.70
355.73	1077.86
356.10	1081.73
356.47	1081.70
356.84	1081.58
357.22	1080.18
357.59	1081.73
357.96	1080.56
358.33	1084.21
358.70	1086.10
359.08	1083.71
359.45	1081.30
359.82	1080.39
360.19	1076.48
360.56	1075.20
360.94	1077.30
361.31	1080.65
361.68	1081.19
362.05	1079.20
362.42	1078.28
362.79	1074.66
363.16	1073.07
363.54	1072.64
363.91	1074.63
364.28	1077.82
364.65	1079.55
365.02	1077.77
365.39	1080.02
365.76	1080.72
366.14	1080.09
366.51	1079.46
366.88	1078.33
367.25	1075.10
367.62	1073.93
367.99	1072.53
368.36	1072.41
368.73	1074.07
369.10	1076.06
369.48	1075.76
369.85	1073.56
370.22	1074.03
370.59	1073.37
370.96	1071.43
371.33	1070.82
371.70	1072.25
372.07	1072.76
372.44	1074.19
372.81	1078.92
373.18	1076.93
373.55	1076.86
373.93	1075.05
374.30	1076.32
374.67	1072.43
375.04	1075.90
375.41	1077.40
375.78	1079.22
376.15	1076.53
376.52	1078.61
376.89	1078.68
377.26	1077.89
377.63	1079.53
378.00	1082.94
378.37	1079.50
378.74	1078.47
379.11	1080.13
379.48	1077.37
379.85	1075.31
380.22	1080.32
380.59	1084.11
380.96	1081.98
381.33	1082.87
381.70	1084.30
382.07	1080.37
382.44	1080.16
382.81	1082.05
383.18	1083.95
383.55	1086.06
383.92	1087.20
384.29	1083.06
384.66	1080.77
385.03	1078.75
385.40	1076.15
385.77	1077.89
386.14	1081.94
386.51	1083.64
386.88	1084.63
387.25	1086.31
387.62	1086.71
387.99	1088.77
388.36	1090.10
388.73	1090.76
389.10	1090.41
389.46	1088.28
389.83	1085.54
390.20	1082.97
390.57	1082.66
390.94	1082.19
391.31	1083.48
391.68	1081.96
392.05	1085.91
392.42	1086.52
392.79	1086.10
393.16	1085.14
393.53	1087.11
393.89	1085.59
394.26	1087.55
394.63	1092.00
395.00	1092.00
395.37	1089.31
395.74	1089.47
396.11	1084.63
396.48	1080.88
396.84	1082.90
397.21	1083.06
397.58	1082.22
397.95	1088.51
398.32	1088.79
398.69	1087.30
399.06	1090.27
399.42	1089.03
399.79	1085.68
400.16	1084.21
400.53	1084.74
400.90	1081.98
401.27	1084.14
401.64	1086.45
402.00	1088.33
402.37	1090.41
402.74	1089.68
403.11	1091.44
403.48	1091.63
403.84	1091.13
404.21	1091.16
404.58	1095.96
404.95	1097.41
405.32	1098.55
405.68	1100.50
406.05	1100.82
406.42	1097.83
406.79	1096.38
407.16	1093.90
407.52	1095.49
407.89	1095.09
408.26	1097.10
408.63	1097.24
408.99	1096.52
409.36	1096.70
409.73	1097.62
410.10	1098.93
410.47	1101.95
410.83	1108.17
411.20	1106.56
411.57	1106.91
411.94	1108.59
412.30	1106.39
412.67	1104.03
413.04	1103.96
413.40	1103.59
413.77	1102.58
414.14	1103.49
414.51	1104.71
414.87	1107.47
415.24	1106.51
415.61	1106.21
415.97	1105.51
416.34	1105.69
416.71	1104.90
417.08	1105.74
417.44	1107.61
417.81	1109.53
418.18	1106.44
418.54	1107.49
418.91	1107.54
419.28	1108.95
419.64	1110.26
420.01	1113.63
420.38	1113.63
420.74	1117.49
421.11	1122.33
421.48	1125.45
421.84	1125.80
422.21	1131.56
422.58	1133.15
422.94	1131.18
423.31	1131.16
423.68	1135.91
424.04	1137.64
424.41	1143.96
424.77	1149.98
425.14	1153.44
425.51	1162.87
425.87	1166.92
426.24	1171.30
426.61	1175.65
426.97	1182.49
427.34	1185.76
427.70	1193.02
428.07	1199.20
428.44	1208.84
428.80	1218.88
429.17	1226.70
429.53	1236.93
429.90	1250.99
430.27	1259.79
430.63	1270.77
431.00	1285.14
431.36	1301.69
431.73	1318.38
432.09	1335.46
432.46	1353.23
432.83	1369.24
433.19	1386.00
433.56	1402.71
433.92	1428.36
434.29	1457.64
434.65	1489.14
435.02	1521.00
435.38	1553.34
435.75	1583.96
436.11	1622.72
436.48	1663.44
436.84	1704.33
437.21	1749.29
437.57	1799.36
437.94	1847.76
438.30	1897.43
438.67	1955.73
439.03	2024.24
439.40	2093.84
439.76	2162.33
440.13	2239.35
440.49	2321.95
440.86	2394.51
441.22	2476.99
441.59	2567.83
441.95	2669.31
442.32	2775.41
442.68	2900.09
443.05	3023.41
443.41	3156.54
443.78	3286.81
444.14	3420.90
444.51	3550.71
444.87	3717.50
445.24	3875.67
445.60	4052.64
445.96	4233.70
446.33	4446.90
446.69	4638.36
447.06	4851.93
447.42	5076.27
447.79	5308.92
448.15	5568.04
448.51	5840.27
448.88	6164.25
449.24	6469.08
449.61	6831.72
449.97	7194.08
450.33	7575.78
450.70	7926.62
451.06	8352.39
451.43	8742.32
451.79	9189.32
452.15	9678.26
452.52	10216.65
452.88	10751.34
453.24	11386.24
453.61	12075.81
453.97	12763.13
454.34	13458.69
454.70	14274.46
455.06	15060.86
455.43	15820.01
455.79	16516.86
456.15	17314.42
456.52	18062.08
456.88	18972.20
457.24	19877.37
457.61	21000.46
457.97	22064.53
458.33	23147.73
458.70	24195.01
459.06	25193.48
459.42	26194.43
459.79	27098.30
460.15	28139.61
460.51	29114.67
460.88	30194.41
461.24	31160.93
461.60	32304.17
461.96	33350.57
462.33	34371.28
462.69	35371.30
463.05	36466.08
463.42	37459.38
463.78	38368.14
464.14	39110.49
464.50	39861.22
464.87	40408.13
465.23	40778.97
465.59	41205.60
465.95	41558.48
466.32	41815.71
466.68	42048.59
467.04	42171.87
467.40	42189.51
467.77	42291.61
468.13	42203.23
468.49	42038.15
468.85	41920.47
469.22	41772.73
469.58	41484.78
469.94	41326.11
470.30	41098.43
470.66	40757.01
471.03	40246.45
471.39	39899.51
471.75	39174.44
472.11	38475.86
472.47	37992.30
472.84	37478.32
473.20	36772.55
473.56	36380.63
473.92	35813.36
474.28	35160.44
474.65	34488.22
475.01	33803.56
475.37	32992.43
475.73	32312.31
476.09	31625.08
476.45	31008.59
476.81	30457.84
477.18	29903.18
477.54	29424.96
477.90	28979.95
478.26	28424.38
478.62	27902.21
478.98	27448.19
479.34	27005.80
479.71	26442.60
480.07	26007.63
480.43	25576.18
480.79	25134.03
481.15	24673.83
481.51	24318.00
481.87	23999.71
482.23	23642.34
482.59	23305.18
482.96	22998.90
483.32	22698.07
483.68	22304.79
484.04	21957.83
484.40	21567.24
484.76	21124.55
485.12	20656.19
485.48	20219.91
485.84	19727.93
486.20	19295.28
486.56	18880.49
486.92	18506.31
487.28	18113.57
487.64	17722.30
488.00	17324.22
488.37	16932.30
488.73	16499.16
489.09	16051.70
489.45	15650.90
489.81	15212.64
490.17	14779.55
490.53	14374.73
490.89	13976.16
491.25	13546.25
491.61	13154.63
491.97	12768.79
492.33	12375.30
492.69	12011.09
493.05	11686.62
493.41	11359.91
493.77	11042.11
494.13	10745.96
494.49	10458.36
494.85	10170.87
495.21	9905.03
495.57	9647.45
495.93	9385.03
496.29	9144.12
496.64	8923.22
497.00	8667.61
497.36	8422.39
497.72	8180.22
498.08	7947.85
498.44	7710.03
498.80	7508.88
499.16	7306.31
499.52	7121.24
499.88	6946.12
500.24	6782.45
500.60	6622.10
500.96	6460.53
501.32	6296.79
501.68	6120.90
502.03	5946.37
502.39	5785.43
502.75	5627.19
503.11	5477.81
503.47	5342.93
503.83	5221.34
504.19	5091.06
504.55	4973.73
504.91	4856.92
505.26	4742.98
505.62	4622.11
505.98	4510.52
506.34	4388.79
506.70	4270.21
507.06	4156.79
507.42	4055.05
507.78	3955.34
508.13	3867.48
508.49	3796.70
508.85	3721.05
509.21	3640.59
509.57	3559.98
509.93	3476.51
510.28	3378.94
510.64	3297.84
511.00	3220.62
511.36	3144.44
511.72	3081.48
512.07	3030.17
512.43	2968.13
512.79	2907.46
513.15	2853.65
513.51	2788.05
513.86	2722.77
514.22	2671.84
514.58	2615.46
514.94	2563.33
515.30	2523.99
515.65	2482.51
516.01	2440.36
516.37	2402.82
516.73	2366.09
517.08	2330.85
517.44	2291.99
517.80	2254.78
518.16	2218.78
518.51	2188.71
518.87	2149.59
519.23	2120.57
519.59	2087.55
519.94	2056.61
520.30	2022.85
520.66	1993.06
521.01	1958.61
521.37	1928.30
521.73	1900.05
522.09	1872.24
522.44	1851.39
522.80	1829.39
523.16	1809.16
523.51	1788.19
523.87	1770.64
524.23	1748.40
524.58	1736.28
524.94	1717.58
525.30	1701.43
525.65	1678.14
526.01	1662.08
526.37	1642.78
526.72	1626.70
527.08	1610.97
527.44	1594.79
527.79	1578.50
528.15	1561.14
528.51	1545.74
528.86	1528.56
529.22	1519.24
529.58	1503.47
529.93	1490.17
530.29	1476.29
530.65	1464.82
531.00	1450.41
531.36	1441.77
531.71	1429.55
532.07	1417.12
532.43	1407.11
532.78	1395.85
533.14	1386.86
533.49	1377.76
533.85	1369.80
534.21	1361.79
534.56	1355.69
534.92	1349.01
535.27	1340.40
535.63	1333.82
535.98	1326.55
536.34	1319.20
536.69	1308.48
537.05	1302.58
537.41	1296.33
537.76	1286.85
538.12	1279.95
538.47	1278.38
538.83	1274.42
539.18	1266.65
539.54	1265.57
539.89	1259.61
540.25	1249.52
540.60	1245.31
540.96	1243.88
541.31	1240.95
541.67	1239.50
542.02	1236.53
542.38	1229.37
542.73	1226.32
543.09	1220.10
543.44	1216.75
543.80	1214.29
544.15	1212.33
544.51	1209.00
544.86	1208.28
545.22	1201.91
545.57	1196.34
545.93	1194.05
546.28	1188.01
546.64	1183.40
546.99	1186.14
547.35	1186.39
547.70	1183.49
548.05	1181.81
548.41	1178.41
548.76	1177.08
549.12	1174.95
549.47	1170.74
549.83	1166.52
550.18	1165.12
550.53	1157.16
550.89	1154.66
551.24	1153.93
551.60	1154.61
551.95	1150.14
552.30	1149.93
552.66	1144.66
553.01	1145.15
553.37	1141.99
553.72	1143.05
554.07	1141.67
554.43	1139.70
554.78	1134.72
555.13	1135.18
555.49	1134.67
555.84	1129.59
556.19	1129.61
556.55	1129.12
556.90	1124.14
557.26	1119.62
557.61	1119.92
557.96	1120.88
558.32	1119.74
558.67	1122.59
559.02	1123.60
559.37	1124.60
559.73	1121.28
560.08	1121.07
560.43	1120.25
560.79	1120.13
561.14	1116.65
561.49	1119.01
561.85	1118.12
562.20	1111.61
562.55	1109.30
562.90	1106.91
563.26	1108.62
563.61	1109.20
563.96	1113.44
564.32	1112.36
564.67	1115.36
565.02	1111.26
565.37	1108.52
565.73	1109.18
566.08	1111.85
566.43	1113.49
566.78	1112.90
567.14	1114.63
567.49	1112.46
567.84	1113.16
568.19	1109.27
568.54	1109.60
568.90	1108.88
569.25	1108.20
569.60	1104.99
569.95	1108.10
570.31	1108.27
570.66	1109.86
571.01	1109.06
571.36	1107.61
571.71	1106.51
572.06	1105.81
572.42	1100.05
572.77	1099.70
573.12	1099.16
573.47	1094.06
573.82	1091.63
574.18	1094.93
574.53	1097.10
574.88	1095.04
575.23	1096.19
575.58	1098.67
575.93	1099.33
576.28	1099.42
576.64	1099.96
576.99	1099.30
577.34	1095.65
577.69	1094.60
578.04	1091.06
578.39	1091.25
578.74	1091.79
579.09	1092.42
579.44	1089.73
579.80	1090.32
580.15	1093.08
580.50	1093.29
580.85	1095.51
581.20	1097.45
581.55	1097.85
581.90	1096.42
582.25	1098.83
582.60	1095.98
582.95	1093.31
583.30	1093.03
583.65	1091.44
584.00	1090.83
584.35	1088.75
584.71	1091.72
585.06	1089.96
585.41	1090.03
585.76	1089.75
586.11	1091.49
586.46	1091.06
586.81	1092.75
587.16	1093.47
587.51	1094.53
587.86	1094.34
588.21	1094.18
588.56	1092.54
588.91	1091.04
589.26	1085.33
589.61	1084.32
589.96	1081.09
590.31	1083.62
590.66	1085.82
591.01	1088.54
591.36	1089.61
591.71	1089.92
592.06	1086.90
592.41	1088.70
592.76	1089.64
593.10	1092.12
593.45	1092.16
593.80	1094.81
594.15	1092.40
594.50	1092.73
594.85	1091.70
595.20	1090.03
595.55	1088.42
595.90	1087.58
596.25	1083.95
596.60	1080.09
596.95	1081.05
597.30	1079.38
597.64	1088.93
597.99	1092.59
598.34	1095.28
598.69	1097.80
599.04	1099.14
599.39	1086.66
599.74	1090.17
600.09	1092.26
600.44	1092.23
600.78	1090.74
601.13	1092.07
601.48	1087.97
601.83	1088.61
602.18	1092.33
602.53	1095.11
602.88	1092.61
603.22	1092.42
603.57	1091.51
603.92	1085.68
604.27	1082.26
604.62	1086.87
604.97	1086.17
605.31	1084.07
605.66	1087.65
606.01	1090.39
606.36	1088.49
606.71	1086.29
607.05	1082.03
607.40	1079.17
607.75	1078.26
608.10	1080.04
608.44	1080.56
608.79	1084.70
609.14	1088.98
609.49	1089.40
609.84	1087.81
610.18	1089.29
610.53	1091.20
610.88	1089.96
611.23	1087.97
611.57	1086.83
611.92	1085.14
612.27	1083.32
612.62	1083.41
612.96	1085.14
613.31	1086.69
613.66	1087.58
614.00	1088.23
614.35	1085.05
614.70	1084.84
615.05	1086.59
615.39	1084.79
615.74	1083.41
616.09	1087.11
616.43	1090.39
616.78	1087.55
617.13	1091.51
617.47	1091.27
617.82	1089.99
618.17	1087.04
618.51	1086.29
618.86	1085.40
619.21	1086.31
619.55	1088.28
619.90	1086.59
620.25	1088.21
620.59	1086.62
620.94	1087.90
621.29	1082.36
621.63	1085.03
621.98	1085.35
622.32	1086.22
622.67	1084.28
623.02	1084.93
623.36	1083.55
623.71	1083.04
624.05	1079.27
624.40	1081.09
624.75	1079.85
625.09	1080.04
625.44	1083.50
625.78	1087.06
626.13	1086.69
626.48	1088.68
626.82	1085.91
627.17	1084.21
627.51	1082.47
627.86	1079.57
628.20	1081.66
628.55	1083.69
628.89	1084.89
629.24	1087.97
629.58	1088.89
629.93	1087.46
630.28	1087.93
630.62	1083.13
630.97	1077.61
631.31	1076.06
631.66	1073.93
632.00	1073.58
632.35	1073.88
632.69	1075.78
633.04	1075.83
633.38	1075.59
633.73	1077.49
634.07	1078.80
634.42	1078.03
634.76	1079.31
635.11	1081.51
635.45	1080.95
635.79	1082.36
636.14	1083.62
636.48	1085.40
636.83	1086.38
637.17	1086.73
637.52	1086.64
637.86	1086.83
638.21	1084.70
638.55	1082.61
638.89	1080.98
639.24	1080.13
639.58	1080.16
639.93	1081.63
640.27	1080.13
640.61	1082.64
640.96	1082.54
641.30	1084.56
641.65	1086.76
641.99	1084.53
642.33	1082.52
642.68	1079.48
643.02	1078.75
643.37	1073.09
643.71	1074.40
644.05	1074.07
644.40	1076.32
644.74	1076.58
645.08	1079.57
645.43	1083.90
645.77	1084.35
646.11	1083.97
646.46	1081.68
646.80	1084.00
647.14	1082.64
647.49	1081.84
647.83	1083.25
648.17	1085.19
648.52	1084.86
648.86	1083.93
649.20	1085.96
649.55	1086.69
649.89	1090.29
650.23	1091.30
650.57	1094.15
650.92	1091.30
651.26	1089.61
651.60	1085.40
651.95	1081.80
652.29	1079.62
652.63	1079.74
652.97	1080.06
653.32	1079.57
653.66	1082.71
654.00	1082.52
654.34	1085.07
654.69	1084.81
655.03	1085.96
655.37	1081.77
655.71	1082.33
656.05	1080.13
656.40	1080.51
656.74	1081.21
657.08	1084.37
657.42	1081.77
657.76	1080.11
658.11	1082.71
658.45	1083.25
658.79	1080.25
659.13	1083.74
659.47	1088.19
659.82	1083.06
660.16	1080.72
660.50	1081.33
660.84	1080.20
661.18	1078.43
661.52	1079.15
661.87	1080.91
662.21	1079.03
662.55	1080.20
662.89	1080.95
663.23	1084.04
663.57	1082.40
663.91	1086.24
664.25	1083.71
664.60	1082.43
664.94	1082.83
665.28	1084.56
665.62	1081.49
665.96	1082.57
666.30	1083.97
666.64	1082.08
666.98	1076.32
667.32	1076.04
667.66	1074.42
668.01	1076.41
668.35	1079.71
668.69	1082.15
669.03	1084.04
669.37	1081.70
669.71	1078.31
670.05	1076.46
670.39	1079.90
670.73	1080.23
671.07	1084.44
671.41	1084.11
671.75	1084.09
672.09	1078.85
672.43	1077.49
672.77	1077.07
673.11	1077.54
673.45	1075.76
673.79	1078.03
674.13	1078.94
674.47	1078.50
674.81	1077.58
675.15	1078.92
675.49	1079.83
675.83	1077.82
676.17	1075.55
676.51	1074.59
676.85	1072.69
677.19	1071.15
677.53	1074.87
677.87	1075.57
678.21	1080.18
678.55	1079.48
678.89	1083.06
679.23	1081.58
679.57	1082.40
679.90	1079.46
680.24	1081.05
680.58	1076.01
680.92	1076.90
681.26	1078.24
681.60	1079.24
681.94	1079.62
682.28	1085.87
682.62	1084.02
682.96	1082.26
683.29	1077.82
683.63	1076.23
683.97	1072.04
684.31	1073.37
684.65	1078.73
684.99	1082.73
685.33	1084.98
685.67	1088.91
686.00	1091.44
686.34	1085.35
686.68	1084.86
687.02	1082.47
687.36	1081.40
687.70	1076.69
688.03	1078.57
688.37	1080.63
688.71	1082.90
689.05	1081.12
689.39	1082.97
689.72	1080.04
690.06	1079.36
690.40	1076.79
690.74	1077.68
691.08	1077.91
691.41	1082.92
691.75	1080.25
692.09	1083.41
692.43	1082.92
692.76	1083.25
693.10	1083.76
693.44	1088.12
693.78	1084.81
694.11	1083.48
694.45	1082.17
694.79	1078.73
695.13	1074.38
695.46	1075.15
695.80	1075.57
696.14	1075.52
696.48	1077.44
696.81	1078.00
697.15	1080.91
697.49	1082.54
697.82	1083.95
698.16	1084.11
698.50	1087.83
698.83	1084.16
699.17	1083.36
699.51	1084.35
699.84	1084.28
700.18	1083.01
700.52	1085.82
700.85	1086.45
701.19	1085.68
701.53	1084.70
701.86	1081.82
702.20	1079.50
702.54	1079.17
702.87	1079.95
703.21	1080.37
703.55	1080.88
703.88	1082.33
704.22	1081.07
704.55	1079.31
704.89	1082.03
705.23	1082.71
705.56	1081.35
705.90	1081.35
706.23	1080.70
706.57	1076.53
706.91	1077.58
707.24	1077.61
707.58	1079.62
707.91	1081.87
708.25	1084.74
708.58	1082.59
708.92	1084.86
709.26	1084.14
709.59	1083.95
709.93	1084.35
710.26	1086.29
710.60	1086.48
710.93	1085.66
711.27	1082.10
711.60	1080.77
711.94	1080.84
712.27	1078.21
712.61	1078.38
712.94	1079.92
713.28	1080.79
713.61	1079.74
713.95	1080.41
714.28	1082.05
714.62	1082.26
714.95	1079.88
715.29	1077.42
715.62	1077.11
715.96	1075.64
716.29	1072.90
716.63	1073.86
716.96	1075.05
717.29	1076.44
717.63	1074.19
717.96	1077.86
718.30	1075.71
718.63	1075.43
718.97	1072.71
719.30	1073.70
719.63	1070.19
719.97	1072.36
720.30	1074.12
720.64	1076.39
720.97	1079.55
721.30	1085.73
721.64	1084.60
721.97	1084.25
722.31	1086.92
722.64	1084.74
722.97	1082.87
723.31	1083.32
723.64	1083.60
723.97	1079.88
724.31	1081.23
724.64	1079.60
724.98	1081.21
725.31	1079.83
725.64	1080.09
725.98	1079.95
726.31	1079.36
726.64	1080.53
726.97	1079.69
727.31	1081.44
727.64	1082.12
727.97	1082.97
728.31	1080.74
728.64	1083.36
728.97	1081.73
729.31	1076.76
729.64	1075.27
729.97	1074.35
730.30	1076.32
730.64	1076.41
730.97	1082.01
731.30	1083.62
731.63	1087.39
731.97	1085.00
732.30	1087.72
732.63	1087.39
732.96	1087.58
733.30	1085.91
733.63	1083.22
733.96	1079.41
734.29	1078.40
734.63	1077.23
734.96	1076.06
735.29	1079.81
735.62	1077.58
735.95	1080.04
736.29	1080.81
736.62	1078.87
736.95	1075.69
737.28	1077.04
737.61	1075.71
737.94	1077.37
738.28	1079.92
738.61	1082.83
738.94	1083.18
739.27	1079.53
739.60	1079.99
739.93	1076.74
740.27	1074.17
740.60	1077.02
740.93	1077.44
741.26	1073.95
741.59	1079.97
741.92	1079.55
742.25	1077.84
742.58	1081.54
742.91	1085.80
743.25	1086.64
743.58	1087.97
743.91	1086.13
744.24	1082.94
744.57	1079.60
744.90	1076.46
745.23	1075.17
745.56	1076.81
745.89	1077.61
746.22	1081.00
746.55	1079.08
746.88	1083.46
747.21	1086.48
747.54	1089.36
747.87	1088.56
748.20	1091.74
748.53	1087.44
748.87	1085.89
749.20	1082.78
749.53	1082.36
749.86	1080.34
750.19	1081.35
750.52	1076.30
750.85	1075.55
751.18	1074.94
751.51	1074.61
751.84	1074.96
752.16	1076.97
752.49	1076.46
752.82	1075.71
753.15	1074.59
753.48	1076.65
753.81	1077.28
754.14	1078.47
754.47	1074.47
754.80	1074.82
755.13	1074.38
755.46	1073.23
755.79	1072.60
756.12	1075.27
756.45	1073.16
756.78	1073.04
757.11	1077.33
757.43	1078.19
757.76	1078.61
758.09	1083.76
758.42	1080.46
758.75	1078.89
759.08	1082.24
759.41	1084.07
759.74	1079.34
760.07	1078.94
760.39	1080.70
760.72	1076.34
761.05	1075.31
761.38	1075.31
761.71	1079.24
762.04	1076.97
762.36	1076.01
762.69	1074.49
763.02	1075.50
763.35	1075.45
763.68	1073.58
