SpectraSuite Data File
++++++++++++++++++++++++++++++++++++
Date: Mon Aug 26 10:22:03 PDT 2019
User: corrico
Dark Spectrum Present: No
Reference Spectrum Present: No
Number of Sampled Component Spectra: 1
Spectrometers: USB2+H06089
Integration Time (usec): 2000 (USB2+H06089)
Spectra Averaged: 20 (USB2+H06089)
Boxcar Smoothing: 2 (USB2+H06089)
Correct for Electrical Dark: No (USB2+H06089)
Strobe/Lamp Enabled: No (USB2+H06089)
Correct for Detector Non-linearity: No (USB2+H06089)
Correct for Stray Light: No (USB2+H06089)
Number of Pixels in Processed Spectrum: 2048
>>>>>Begin Processed Spectral Data<<<<<
339.70	1022.70
340.07	1022.70
340.45	988.10
340.82	966.27
341.19	945.41
341.57	923.67
341.94	911.76
342.31	906.58
342.69	904.69
343.06	899.84
343.43	894.01
343.81	897.74
344.18	897.57
344.55	899.35
344.93	902.77
345.30	910.63
345.67	914.87
346.04	925.33
346.42	933.62
346.79	944.31
347.16	955.48
347.54	965.35
347.91	972.80
348.28	983.17
348.65	991.87
349.03	1000.11
349.40	1011.39
349.77	1021.13
350.14	1028.01
350.52	1034.77
350.89	1039.88
351.26	1043.41
351.63	1046.97
352.01	1051.46
352.38	1056.92
352.75	1060.36
353.12	1064.03
353.50	1067.47
353.87	1072.15
354.24	1074.38
354.61	1078.17
354.98	1081.54
355.36	1083.39
355.73	1081.73
356.10	1087.11
356.47	1087.16
356.84	1087.30
357.22	1091.74
357.59	1094.90
357.96	1091.13
358.33	1091.77
358.70	1091.77
359.08	1087.83
359.45	1085.94
359.82	1086.43
360.19	1086.50
360.56	1085.12
360.94	1081.89
361.31	1082.90
361.68	1082.80
362.05	1080.79
362.42	1083.83
362.79	1083.64
363.16	1081.66
363.54	1079.31
363.91	1076.34
364.28	1075.64
364.65	1076.41
365.02	1076.41
365.39	1075.43
365.76	1076.48
366.14	1074.14
366.51	1072.11
366.88	1069.70
367.25	1069.51
367.62	1070.33
367.99	1068.62
368.36	1072.50
368.73	1074.35
369.10	1073.98
369.48	1072.55
369.85	1075.05
370.22	1074.98
370.59	1077.14
370.96	1078.43
371.33	1080.30
371.70	1078.89
372.07	1074.75
372.44	1071.87
372.81	1068.92
373.18	1065.48
373.55	1062.93
373.93	1070.16
374.30	1071.08
374.67	1074.38
375.04	1077.72
375.41	1080.95
375.78	1079.01
376.15	1077.86
376.52	1074.21
376.89	1077.33
377.26	1075.73
377.63	1072.69
378.00	1072.43
378.37	1074.07
378.74	1071.45
379.11	1074.12
379.48	1073.72
379.85	1073.95
380.22	1077.23
380.59	1075.97
380.96	1078.80
381.33	1079.76
381.70	1079.24
382.07	1077.23
382.44	1080.98
382.81	1076.20
383.18	1075.94
383.55	1076.74
383.92	1077.70
384.29	1075.15
384.66	1074.05
385.03	1076.25
385.40	1078.17
385.77	1077.14
386.14	1076.62
386.51	1080.30
386.88	1081.82
387.25	1076.74
387.62	1077.09
387.99	1080.86
388.36	1080.37
388.73	1078.78
389.10	1083.01
389.46	1083.50
389.83	1083.76
390.20	1084.81
390.57	1084.32
390.94	1085.63
391.31	1085.61
391.68	1082.59
392.05	1081.12
392.42	1080.79
392.79	1081.16
393.16	1082.50
393.53	1084.79
393.89	1085.84
394.26	1085.94
394.63	1086.01
395.00	1086.41
395.37	1085.28
395.74	1084.00
396.11	1086.08
396.48	1085.70
396.84	1088.54
397.21	1090.92
397.58	1092.98
397.95	1092.37
398.32	1094.62
398.69	1092.68
399.06	1091.95
399.42	1091.23
399.79	1092.35
400.16	1091.23
400.53	1091.56
400.90	1092.94
401.27	1091.72
401.64	1091.11
402.00	1092.37
402.37	1088.75
402.74	1085.19
403.11	1087.27
403.48	1085.70
403.84	1084.32
404.21	1088.12
404.58	1093.45
404.95	1093.26
405.32	1094.83
405.68	1096.52
406.05	1098.67
406.42	1094.57
406.79	1097.66
407.16	1099.14
407.52	1096.31
407.89	1094.86
408.26	1098.41
408.63	1095.75
408.99	1093.45
409.36	1098.88
409.73	1099.65
410.10	1099.05
410.47	1098.98
410.83	1099.96
411.20	1093.97
411.57	1093.45
411.94	1097.78
412.30	1099.65
412.67	1099.89
413.04	1103.91
413.40	1102.06
413.77	1098.11
414.14	1099.63
414.51	1098.95
414.87	1098.41
415.24	1101.74
415.61	1103.31
415.97	1104.38
416.34	1109.62
416.71	1111.89
417.08	1113.04
417.44	1111.52
417.81	1112.11
418.18	1109.98
418.54	1109.06
418.91	1108.71
419.28	1108.71
419.64	1108.17
420.01	1110.79
420.38	1113.04
420.74	1113.93
421.11	1119.95
421.48	1122.17
421.84	1126.15
422.21	1129.96
422.58	1134.20
422.94	1134.62
423.31	1137.27
423.68	1140.10
424.04	1144.66
424.41	1148.22
424.77	1154.96
425.14	1161.33
425.51	1165.31
425.87	1168.63
426.24	1172.63
426.61	1175.16
426.97	1182.42
427.34	1189.18
427.70	1198.19
428.07	1206.50
428.44	1218.27
428.80	1224.29
429.17	1230.28
429.53	1240.30
429.90	1252.77
430.27	1260.10
430.63	1274.56
431.00	1292.75
431.36	1306.07
431.73	1318.17
432.09	1336.19
432.46	1352.85
432.83	1370.69
433.19	1390.93
433.56	1415.28
433.92	1440.44
434.29	1467.24
434.65	1498.08
435.02	1528.91
435.38	1560.46
435.75	1592.97
436.11	1634.58
436.48	1675.68
436.84	1720.72
437.21	1768.91
437.57	1817.73
437.94	1860.30
438.30	1911.33
438.67	1965.18
439.03	2029.95
439.40	2100.37
439.76	2170.29
440.13	2245.07
440.49	2326.59
440.86	2407.05
441.22	2494.12
441.59	2588.23
441.95	2691.99
442.32	2797.13
442.68	2911.67
443.05	3033.92
443.41	3165.43
443.78	3291.80
444.14	3428.72
444.51	3571.33
444.87	3740.97
445.24	3907.27
445.60	4089.59
445.96	4273.72
446.33	4484.42
446.69	4671.66
447.06	4886.92
447.42	5113.77
447.79	5358.33
448.15	5625.92
448.51	5921.46
448.88	6255.46
449.24	6569.86
449.61	6930.84
449.97	7299.52
450.33	7679.41
450.70	8041.10
451.06	8490.01
451.43	8898.93
451.79	9360.46
452.15	9857.40
452.52	10392.40
452.88	10928.36
453.24	11575.12
453.61	12263.33
453.97	12966.26
454.34	13665.03
454.70	14486.77
455.06	15288.22
455.43	16065.16
455.79	16775.04
456.15	17627.65
456.52	18403.21
456.88	19335.94
457.24	20273.74
457.61	21385.36
457.97	22408.83
458.33	23459.94
458.70	24486.61
459.06	25436.92
459.42	26477.75
459.79	27437.94
460.15	28526.52
460.51	29529.91
460.88	30636.75
461.24	31605.78
461.60	32742.39
461.96	33818.24
462.33	34870.26
462.69	35944.10
463.05	37083.61
463.42	38115.95
463.78	39019.14
464.14	39764.91
464.50	40493.30
464.87	41012.93
465.23	41364.03
465.59	41773.32
465.95	42161.83
466.32	42460.52
466.68	42780.41
467.04	42991.52
467.40	43082.22
467.77	43188.22
468.13	43114.94
468.49	42913.25
468.85	42785.02
469.22	42647.32
469.58	42357.66
469.94	42164.21
470.30	41964.19
470.66	41617.70
471.03	41063.48
471.39	40639.85
471.75	39876.15
472.11	39044.86
472.47	38431.95
472.84	37846.88
473.20	37127.10
473.56	36753.46
473.92	36277.74
474.28	35729.19
474.65	35150.42
475.01	34516.70
475.37	33695.94
475.73	32986.60
476.09	32230.30
476.45	31557.05
476.81	31003.86
477.18	30442.65
477.54	29976.74
477.90	29562.35
478.26	29001.79
478.62	28471.26
478.98	28044.98
479.34	27609.01
479.71	27052.57
480.07	26627.99
480.43	26178.96
480.79	25687.31
481.15	25187.49
481.51	24786.30
481.87	24416.82
482.23	24035.92
482.59	23692.82
482.96	23334.53
483.32	22995.25
483.68	22590.71
484.04	22238.97
484.40	21832.99
484.76	21448.08
485.12	21032.85
485.48	20625.22
485.84	20145.83
486.20	19730.18
486.56	19266.78
486.92	18845.01
487.28	18429.12
487.64	18015.13
488.00	17588.21
488.37	17173.84
488.73	16688.11
489.09	16181.57
489.45	15727.37
489.81	15266.73
490.17	14837.03
490.53	14479.16
490.89	14115.09
491.25	13733.23
491.61	13343.93
491.97	12959.01
492.33	12557.93
492.69	12214.32
493.05	11879.30
493.41	11558.76
493.77	11220.04
494.13	10915.11
494.49	10602.86
494.85	10296.63
495.21	10011.74
495.57	9758.11
495.93	9479.19
496.29	9214.43
496.64	8980.68
497.00	8729.71
497.36	8469.32
497.72	8237.66
498.08	8019.26
498.44	7786.73
498.80	7575.31
499.16	7376.03
499.52	7167.05
499.88	6984.04
500.24	6823.34
500.60	6666.88
500.96	6519.77
501.32	6380.96
501.68	6215.62
502.03	6042.00
502.39	5874.51
502.75	5715.94
503.11	5560.32
503.47	5423.26
503.83	5296.91
504.19	5173.54
504.55	5046.03
504.91	4927.93
505.26	4806.22
505.62	4685.52
505.98	4572.66
506.34	4456.24
506.70	4337.13
507.06	4226.12
507.42	4124.98
507.78	4027.41
508.13	3929.34
508.49	3844.10
508.85	3767.79
509.21	3681.99
509.57	3595.09
509.93	3515.74
510.28	3427.78
510.64	3344.39
511.00	3264.88
511.36	3186.31
511.72	3116.21
512.07	3055.64
512.43	2991.04
512.79	2930.42
513.15	2871.51
513.51	2810.37
513.86	2751.28
514.22	2700.09
514.58	2647.12
514.94	2600.64
515.30	2555.84
515.65	2515.35
516.01	2475.68
516.37	2432.26
516.73	2391.75
517.08	2349.57
517.44	2303.37
517.80	2259.95
518.16	2227.89
518.51	2195.63
518.87	2166.77
519.23	2137.24
519.59	2104.89
519.94	2065.78
520.30	2033.71
520.66	2002.80
521.01	1974.34
521.37	1946.44
521.73	1924.15
522.09	1894.29
522.44	1868.82
522.80	1850.33
523.16	1830.09
523.51	1812.11
523.87	1795.17
524.23	1778.46
524.58	1752.85
524.94	1733.78
525.30	1705.03
525.65	1684.53
526.01	1663.37
526.37	1643.03
526.72	1627.26
527.08	1612.98
527.44	1599.41
527.79	1581.90
528.15	1573.17
528.51	1551.19
528.86	1533.19
529.22	1514.21
529.58	1498.81
529.93	1482.92
530.29	1474.44
530.65	1467.68
531.00	1455.84
531.36	1443.55
531.71	1426.84
532.07	1415.16
532.43	1400.83
532.78	1389.53
533.14	1383.63
533.49	1376.84
533.85	1369.05
534.21	1363.81
534.56	1357.81
534.92	1348.08
535.27	1344.36
535.63	1331.13
535.98	1326.17
536.34	1319.78
536.69	1313.72
537.05	1303.96
537.41	1300.50
537.76	1289.96
538.12	1283.64
538.47	1274.05
538.83	1266.77
539.18	1261.15
539.54	1256.61
539.89	1252.82
540.25	1252.51
540.60	1252.87
540.96	1251.62
541.31	1247.46
541.67	1242.19
542.02	1237.28
542.38	1229.18
542.73	1221.57
543.09	1218.01
543.44	1216.89
543.80	1215.30
544.15	1211.02
544.51	1211.04
544.86	1206.12
545.22	1199.83
545.57	1196.53
545.93	1196.97
546.28	1195.69
546.64	1192.78
546.99	1190.49
547.35	1188.22
547.70	1185.15
548.05	1181.92
548.41	1182.16
548.76	1180.38
549.12	1177.48
549.47	1175.89
549.83	1169.99
550.18	1166.01
550.53	1163.18
550.89	1158.28
551.24	1154.89
551.60	1152.81
551.95	1153.16
552.30	1152.62
552.66	1151.96
553.01	1150.26
553.37	1151.31
553.72	1147.00
554.07	1145.11
554.43	1144.15
554.78	1141.39
555.13	1139.49
555.49	1140.38
555.84	1137.13
556.19	1135.51
556.55	1139.89
556.90	1140.75
557.26	1141.90
557.61	1145.22
557.96	1140.96
558.32	1136.77
558.67	1133.31
559.02	1129.61
559.37	1122.73
559.73	1129.24
560.08	1127.60
560.43	1127.79
560.79	1124.21
561.14	1123.81
561.49	1118.61
561.85	1119.17
562.20	1117.09
562.55	1117.56
562.90	1117.77
563.26	1116.88
563.61	1115.43
563.96	1116.48
564.32	1116.53
564.67	1117.86
565.02	1116.39
565.37	1111.45
565.73	1110.44
566.08	1110.37
566.43	1106.54
566.78	1107.00
567.14	1109.69
567.49	1108.83
567.84	1108.48
568.19	1111.54
568.54	1109.06
568.90	1109.27
569.25	1106.56
569.60	1105.60
569.95	1102.21
570.31	1099.86
570.66	1098.55
571.01	1098.20
571.36	1099.49
571.71	1098.98
572.06	1104.26
572.42	1105.95
572.77	1106.14
573.12	1104.80
573.47	1104.73
573.82	1104.50
574.18	1102.02
574.53	1105.20
574.88	1101.81
575.23	1098.86
575.58	1095.18
575.93	1092.91
576.28	1089.45
576.64	1093.01
576.99	1094.41
577.34	1094.01
577.69	1092.96
578.04	1092.66
578.39	1088.93
578.74	1088.19
579.09	1087.11
579.44	1089.99
579.80	1091.53
580.15	1095.02
580.50	1097.71
580.85	1098.06
581.20	1099.00
581.55	1097.17
581.90	1096.89
582.25	1097.85
582.60	1100.08
582.95	1096.70
583.30	1093.90
583.65	1090.13
584.00	1091.04
584.35	1090.01
584.71	1091.23
585.06	1088.56
585.41	1090.99
585.76	1085.73
586.11	1085.59
586.46	1085.91
586.81	1091.09
587.16	1089.73
587.51	1090.34
587.86	1093.38
588.21	1092.19
588.56	1091.46
588.91	1091.84
589.26	1092.45
589.61	1089.87
589.96	1089.07
590.31	1090.67
590.66	1088.63
591.01	1090.22
591.36	1088.56
591.71	1088.89
592.06	1085.21
592.41	1086.66
592.76	1085.38
593.10	1085.61
593.45	1087.30
593.80	1085.00
594.15	1083.11
594.50	1083.88
594.85	1082.31
595.20	1078.82
595.55	1082.57
595.90	1084.67
596.25	1084.37
596.60	1084.07
596.95	1085.17
597.30	1085.59
597.64	1097.43
597.99	1097.83
598.34	1097.69
598.69	1099.42
599.04	1097.22
599.39	1086.08
599.74	1084.04
600.09	1084.98
600.44	1083.08
600.78	1084.93
601.13	1084.37
601.48	1084.84
601.83	1085.21
602.18	1085.99
602.53	1084.30
602.88	1080.34
603.22	1081.98
603.57	1082.50
603.92	1083.27
604.27	1086.59
604.62	1088.02
604.97	1085.99
605.31	1082.73
605.66	1082.01
606.01	1078.19
606.36	1079.20
606.71	1079.83
607.05	1080.70
607.40	1079.60
607.75	1082.50
608.10	1085.73
608.44	1085.96
608.79	1088.89
609.14	1092.96
609.49	1093.24
609.84	1091.37
610.18	1093.45
610.53	1095.21
610.88	1093.10
611.23	1090.55
611.57	1092.80
611.92	1088.37
612.27	1083.69
612.62	1079.55
612.96	1080.67
613.31	1077.11
613.66	1079.17
614.00	1080.93
614.35	1084.49
614.70	1085.84
615.05	1088.19
615.39	1089.64
615.74	1088.63
616.09	1085.99
616.43	1082.64
616.78	1079.41
617.13	1077.75
617.47	1079.83
617.82	1080.77
618.17	1083.13
618.51	1084.98
618.86	1083.83
619.21	1083.43
619.55	1085.38
619.90	1088.23
620.25	1089.80
620.59	1092.49
620.94	1094.97
621.29	1095.58
621.63	1094.01
621.98	1091.65
622.32	1089.22
622.67	1083.41
623.02	1082.43
623.36	1081.35
623.71	1083.60
624.05	1083.34
624.40	1085.03
624.75	1083.74
625.09	1082.61
625.44	1081.21
625.78	1084.07
626.13	1085.03
626.48	1084.02
626.82	1084.70
627.17	1082.54
627.51	1082.10
627.86	1082.17
628.20	1085.61
628.55	1087.76
628.89	1090.48
629.24	1090.06
629.58	1092.09
629.93	1090.69
630.28	1087.09
630.62	1086.36
630.97	1084.09
631.31	1082.29
631.66	1081.82
632.00	1082.19
632.35	1081.70
632.69	1082.03
633.04	1080.77
633.38	1080.70
633.73	1081.68
634.07	1080.93
634.42	1082.69
634.76	1084.44
635.11	1082.99
635.45	1082.97
635.79	1079.27
636.14	1078.05
636.48	1073.25
636.83	1073.42
637.17	1072.60
637.52	1073.28
637.86	1076.06
638.21	1078.52
638.55	1080.53
638.89	1079.97
639.24	1085.80
639.58	1083.86
639.93	1085.52
640.27	1083.04
640.61	1083.08
640.96	1082.19
641.30	1083.04
641.65	1083.64
641.99	1085.03
642.33	1086.45
642.68	1086.36
643.02	1082.45
643.37	1082.54
643.71	1083.32
644.05	1083.34
644.40	1083.36
644.74	1085.38
645.08	1085.45
645.43	1083.41
645.77	1082.47
646.11	1084.49
646.46	1085.42
646.80	1081.49
647.14	1082.73
647.49	1082.99
647.83	1077.70
648.17	1075.55
648.52	1077.77
648.86	1076.25
649.20	1075.76
649.55	1077.54
649.89	1078.45
650.23	1078.36
650.57	1082.90
650.92	1082.99
651.26	1082.69
651.60	1084.28
651.95	1085.70
652.29	1082.92
652.63	1083.71
652.97	1083.46
653.32	1079.97
653.66	1079.57
654.00	1076.93
654.34	1077.09
654.69	1077.58
655.03	1076.15
655.37	1074.75
655.71	1078.54
656.05	1076.83
656.40	1077.70
656.74	1082.52
657.08	1085.12
657.42	1084.56
657.76	1088.61
658.11	1087.72
658.45	1086.99
658.79	1085.73
659.13	1085.52
659.47	1082.59
659.82	1080.86
660.16	1083.39
660.50	1081.89
660.84	1082.45
661.18	1081.87
661.52	1082.15
661.87	1080.30
662.21	1080.86
662.55	1082.47
662.89	1081.80
663.23	1082.03
663.57	1080.34
663.91	1081.61
664.25	1079.48
664.60	1079.48
664.94	1080.37
665.28	1082.05
665.62	1083.11
665.96	1083.60
666.30	1084.96
666.64	1083.93
666.98	1085.28
667.32	1084.56
667.66	1086.34
668.01	1086.99
668.35	1090.69
668.69	1088.93
669.03	1089.14
669.37	1084.28
669.71	1083.27
670.05	1077.98
670.39	1075.27
670.73	1072.01
671.07	1076.11
671.41	1077.18
671.75	1081.42
672.09	1084.77
672.43	1087.44
672.77	1084.70
673.11	1087.18
673.45	1087.27
673.79	1085.00
674.13	1086.87
674.47	1087.60
674.81	1081.98
675.15	1080.04
675.49	1078.36
675.83	1075.76
676.17	1073.37
676.51	1073.49
676.85	1074.63
677.19	1079.99
677.53	1080.23
677.87	1082.61
678.21	1082.80
678.55	1080.91
678.89	1077.93
679.23	1079.48
679.57	1079.88
679.90	1081.70
680.24	1080.51
680.58	1079.38
680.92	1077.28
681.26	1074.82
681.60	1075.29
681.94	1076.01
682.28	1078.12
682.62	1077.77
682.96	1078.82
683.29	1077.75
683.63	1080.95
683.97	1082.64
684.31	1083.46
684.65	1082.66
684.99	1081.94
685.33	1080.23
685.67	1078.94
686.00	1076.41
686.34	1077.16
686.68	1078.73
687.02	1079.13
687.36	1078.71
687.70	1078.75
688.03	1079.85
688.37	1081.56
688.71	1085.38
689.05	1087.41
689.39	1088.42
689.72	1090.41
690.06	1087.93
690.40	1084.30
690.74	1082.03
691.08	1081.66
691.41	1079.99
691.75	1081.47
692.09	1079.74
692.43	1080.06
692.76	1079.99
693.10	1077.61
693.44	1078.85
693.78	1081.37
694.11	1079.06
694.45	1082.45
694.79	1084.67
695.13	1085.10
695.46	1087.20
695.80	1088.09
696.14	1085.73
696.48	1086.22
696.81	1083.18
697.15	1082.64
697.49	1084.98
697.82	1085.17
698.16	1084.07
698.50	1085.38
698.83	1087.93
699.17	1087.53
699.51	1087.30
699.84	1085.28
700.18	1084.00
700.52	1080.27
700.85	1078.36
701.19	1080.41
701.53	1085.24
701.86	1086.45
702.20	1084.44
702.54	1083.83
702.87	1080.63
703.21	1075.27
703.55	1073.93
703.88	1074.05
704.22	1072.95
704.55	1073.60
704.89	1077.98
705.23	1077.91
705.56	1078.14
705.90	1077.75
706.23	1074.96
706.57	1075.38
706.91	1077.56
707.24	1079.95
707.58	1083.97
707.91	1089.26
708.25	1085.73
708.58	1083.97
708.92	1081.56
709.26	1080.91
709.59	1082.08
709.93	1080.18
710.26	1080.18
710.60	1079.69
710.93	1079.97
711.27	1076.37
711.60	1079.83
711.94	1078.64
712.27	1079.46
712.61	1080.48
712.94	1080.63
713.28	1079.08
713.61	1081.54
713.95	1080.32
714.28	1079.27
714.62	1080.41
714.95	1083.13
715.29	1082.73
715.62	1084.42
715.96	1086.62
716.29	1085.87
716.63	1082.87
716.96	1083.50
717.29	1080.70
717.63	1076.88
717.96	1075.99
718.30	1079.10
718.63	1077.16
718.97	1079.90
719.30	1081.87
719.63	1081.37
719.97	1079.67
720.30	1078.43
720.64	1081.33
720.97	1080.30
721.30	1082.43
721.64	1083.04
721.97	1084.67
722.31	1079.74
722.64	1079.71
722.97	1076.37
723.31	1077.44
723.64	1077.75
723.97	1077.16
724.31	1075.78
724.64	1079.41
724.98	1079.08
725.31	1082.83
725.64	1082.76
725.98	1085.80
726.31	1084.25
726.64	1083.18
726.97	1078.73
727.31	1081.14
727.64	1081.28
727.97	1081.19
728.31	1083.27
728.64	1084.60
728.97	1085.91
729.31	1082.76
729.64	1085.40
729.97	1084.14
730.30	1086.15
730.64	1082.90
730.97	1082.31
731.30	1079.85
731.63	1076.90
731.97	1074.91
732.30	1076.65
732.63	1078.89
732.96	1080.32
733.30	1086.01
733.63	1084.23
733.96	1085.33
734.29	1085.56
734.63	1084.30
734.96	1080.48
735.29	1081.84
735.62	1078.03
735.95	1075.59
736.29	1080.37
736.62	1080.91
736.95	1079.48
737.28	1083.41
737.61	1085.47
737.94	1082.01
738.28	1081.63
738.61	1082.90
738.94	1080.67
739.27	1077.79
739.60	1077.25
739.93	1075.34
740.27	1076.65
740.60	1076.55
740.93	1081.68
741.26	1085.26
741.59	1087.41
741.92	1084.86
742.25	1085.17
742.58	1082.71
742.91	1082.03
743.25	1080.51
743.58	1082.73
743.91	1082.83
744.24	1084.30
744.57	1080.39
744.90	1082.69
745.23	1080.70
745.56	1081.82
745.89	1080.20
746.22	1080.77
746.55	1080.30
746.88	1082.69
747.21	1082.61
747.54	1082.64
747.87	1083.97
748.20	1081.96
748.53	1078.96
748.87	1077.61
749.20	1077.51
749.53	1078.38
749.86	1079.64
750.19	1081.02
750.52	1083.62
750.85	1085.19
751.18	1084.67
751.51	1087.34
751.84	1088.54
752.16	1088.77
752.49	1085.82
752.82	1083.81
753.15	1078.14
753.48	1077.63
753.81	1074.49
754.14	1076.37
754.47	1079.57
754.80	1083.57
755.13	1085.35
755.46	1086.90
755.79	1085.28
756.12	1082.17
756.45	1082.69
756.78	1079.64
757.11	1079.57
757.43	1080.95
757.76	1084.44
758.09	1080.72
758.42	1080.48
758.75	1078.50
759.08	1079.06
759.41	1076.90
759.74	1077.07
760.07	1079.67
760.39	1082.78
760.72	1083.48
761.05	1083.22
761.38	1083.81
761.71	1080.32
762.04	1081.19
762.36	1079.01
762.69	1076.93
763.02	1077.93
763.35	1079.20
763.68	1076.37
