SpectraSuite Data File
++++++++++++++++++++++++++++++++++++
Date: Mon Aug 26 10:22:11 PDT 2019
User: corrico
Dark Spectrum Present: No
Reference Spectrum Present: No
Number of Sampled Component Spectra: 1
Spectrometers: USB2+H06089
Integration Time (usec): 2000 (USB2+H06089)
Spectra Averaged: 20 (USB2+H06089)
Boxcar Smoothing: 2 (USB2+H06089)
Correct for Electrical Dark: No (USB2+H06089)
Strobe/Lamp Enabled: No (USB2+H06089)
Correct for Detector Non-linearity: No (USB2+H06089)
Correct for Stray Light: No (USB2+H06089)
Number of Pixels in Processed Spectrum: 2048
>>>>>Begin Processed Spectral Data<<<<<
339.70	1037.33
340.07	1037.33
340.45	997.68
340.82	976.57
341.19	954.28
341.57	926.66
341.94	914.40
342.31	909.04
342.69	902.11
343.06	896.92
343.43	894.81
343.81	898.02
344.18	900.12
344.55	902.25
344.93	906.84
345.30	913.86
345.67	918.03
346.04	924.35
346.42	931.21
346.79	940.08
347.16	948.39
347.54	959.48
347.91	968.49
348.28	979.30
348.65	987.92
349.03	1001.87
349.40	1013.08
349.77	1024.69
350.14	1034.98
350.52	1040.13
350.89	1043.41
351.26	1050.06
351.63	1054.81
352.01	1058.81
352.38	1066.47
352.75	1067.87
353.12	1064.92
353.50	1067.80
353.87	1067.71
354.24	1065.69
354.61	1072.64
354.98	1078.00
355.36	1079.99
355.73	1084.42
356.10	1088.56
356.47	1086.31
356.84	1085.40
357.22	1084.81
357.59	1083.88
357.96	1085.17
358.33	1084.98
358.70	1088.42
359.08	1086.94
359.45	1087.11
359.82	1085.26
360.19	1083.62
360.56	1082.50
360.94	1082.54
361.31	1079.88
361.68	1078.57
362.05	1077.44
362.42	1075.92
362.79	1074.84
363.16	1073.25
363.54	1075.20
363.91	1076.90
364.28	1076.01
364.65	1073.84
365.02	1076.41
365.39	1075.05
365.76	1074.96
366.14	1075.52
366.51	1077.54
366.88	1077.37
367.25	1078.52
367.62	1078.33
367.99	1078.36
368.36	1078.73
368.73	1077.75
369.10	1073.86
369.48	1074.96
369.85	1073.65
370.22	1072.46
370.59	1071.24
370.96	1072.78
371.33	1072.53
371.70	1071.71
372.07	1071.17
372.44	1073.02
372.81	1072.71
373.18	1071.10
373.55	1070.77
373.93	1070.56
374.30	1071.17
374.67	1072.04
375.04	1074.70
375.41	1075.52
375.78	1076.08
376.15	1076.01
376.52	1076.97
376.89	1075.99
377.26	1078.85
377.63	1079.76
378.00	1078.38
378.37	1076.90
378.74	1078.87
379.11	1077.28
379.48	1080.09
379.85	1081.87
380.22	1081.58
380.59	1075.66
380.96	1075.64
381.33	1072.04
381.70	1069.70
382.07	1072.78
382.44	1075.24
382.81	1074.66
383.18	1075.59
383.55	1076.01
383.92	1073.23
384.29	1075.80
384.66	1077.51
385.03	1077.75
385.40	1080.06
385.77	1082.12
386.14	1081.61
386.51	1080.86
386.88	1081.73
387.25	1083.32
387.62	1084.60
387.99	1087.95
388.36	1088.30
388.73	1092.07
389.10	1088.51
389.46	1087.02
389.83	1083.48
390.20	1082.59
390.57	1079.90
390.94	1082.17
391.31	1084.93
391.68	1086.50
392.05	1087.27
392.42	1086.62
392.79	1085.96
393.16	1084.63
393.53	1084.46
393.89	1085.28
394.26	1085.59
394.63	1087.20
395.00	1088.12
395.37	1088.79
395.74	1088.02
396.11	1086.55
396.48	1085.31
396.84	1083.74
397.21	1081.77
397.58	1082.43
397.95	1081.51
398.32	1083.90
398.69	1086.45
399.06	1088.02
399.42	1093.59
399.79	1097.13
400.16	1097.99
400.53	1096.14
400.90	1096.24
401.27	1091.27
401.64	1090.76
402.00	1091.65
402.37	1089.59
402.74	1087.81
403.11	1086.52
403.48	1087.27
403.84	1085.26
404.21	1087.74
404.58	1089.40
404.95	1093.47
405.32	1094.60
405.68	1094.79
406.05	1095.11
406.42	1097.73
406.79	1095.65
407.16	1093.10
407.52	1092.35
407.89	1092.80
408.26	1090.60
408.63	1091.25
408.99	1094.25
409.36	1095.93
409.73	1097.88
410.10	1103.52
410.47	1105.44
410.83	1106.00
411.20	1101.46
411.57	1099.54
411.94	1092.77
412.30	1090.13
412.67	1090.46
413.04	1093.92
413.40	1098.62
413.77	1101.74
414.14	1104.55
414.51	1104.55
414.87	1107.17
415.24	1102.56
415.61	1101.99
415.97	1105.11
416.34	1104.57
416.71	1104.43
417.08	1106.46
417.44	1110.91
417.81	1107.78
418.18	1110.94
418.54	1111.17
418.91	1111.12
419.28	1110.49
419.64	1108.31
420.01	1107.89
420.38	1111.10
420.74	1114.21
421.11	1116.13
421.48	1122.52
421.84	1126.92
422.21	1127.39
422.58	1131.44
422.94	1132.54
423.31	1135.09
423.68	1137.08
424.04	1142.06
424.41	1143.28
424.77	1150.19
425.14	1156.13
425.51	1161.33
425.87	1166.90
426.24	1173.26
426.61	1178.51
426.97	1183.52
427.34	1189.81
427.70	1196.34
428.07	1201.37
428.44	1207.65
428.80	1216.80
429.17	1225.34
429.53	1236.76
429.90	1251.34
430.27	1263.84
430.63	1280.02
431.00	1293.66
431.36	1308.27
431.73	1321.58
432.09	1337.01
432.46	1348.20
432.83	1364.02
433.19	1380.31
433.56	1402.71
433.92	1430.54
434.29	1460.47
434.65	1489.73
435.02	1519.78
435.38	1553.51
435.75	1585.32
436.11	1620.77
436.48	1663.70
436.84	1708.78
437.21	1749.92
437.57	1795.45
437.94	1846.89
438.30	1898.83
438.67	1957.16
439.03	2022.41
439.40	2092.86
439.76	2159.35
440.13	2236.34
440.49	2316.05
440.86	2390.79
441.22	2476.29
441.59	2567.83
441.95	2668.23
442.32	2768.32
442.68	2888.57
443.05	3008.57
443.41	3140.37
443.78	3269.24
444.14	3413.18
444.51	3549.82
444.87	3708.56
445.24	3869.65
445.60	4046.65
445.96	4227.64
446.33	4438.87
446.69	4641.28
447.06	4862.14
447.42	5088.23
447.79	5318.21
448.15	5584.03
448.51	5860.94
448.88	6176.28
449.24	6477.95
449.61	6835.28
449.97	7187.22
450.33	7569.57
450.70	7922.78
451.06	8344.59
451.43	8735.02
451.79	9186.77
452.15	9665.01
452.52	10193.52
452.88	10747.01
453.24	11381.04
453.61	12083.98
453.97	12786.02
454.34	13483.24
454.70	14292.22
455.06	15087.23
455.43	15842.64
455.79	16536.00
456.15	17334.76
456.52	18076.80
456.88	18982.26
457.24	19868.99
457.61	20963.90
457.97	22028.23
458.33	23112.53
458.70	24166.69
459.06	25154.39
459.42	26185.75
459.79	27105.32
460.15	28144.99
460.51	29123.47
460.88	30225.26
461.24	31170.53
461.60	32316.06
461.96	33369.93
462.33	34392.28
462.69	35398.12
463.05	36508.64
463.42	37503.11
463.78	38424.72
464.14	39179.94
464.50	39941.80
464.87	40483.78
465.23	40847.64
465.59	41238.86
465.95	41567.87
466.32	41812.59
466.68	42066.03
467.04	42195.83
467.40	42200.02
467.77	42295.56
468.13	42187.06
468.49	42003.25
468.85	41891.47
469.22	41750.52
469.58	41497.44
469.94	41376.32
470.30	41142.64
470.66	40774.82
471.03	40299.51
471.39	39933.68
471.75	39198.31
472.11	38498.07
472.47	38005.46
472.84	37460.09
473.20	36753.62
473.56	36356.85
473.92	35790.18
474.28	35157.44
474.65	34520.75
475.01	33819.95
475.37	33002.75
475.73	32327.43
476.09	31629.48
476.45	30997.59
476.81	30474.29
477.18	29926.91
477.54	29460.77
477.90	29022.88
478.26	28455.91
478.62	27922.85
478.98	27482.22
479.34	27031.62
479.71	26466.38
480.07	26042.25
480.43	25620.39
480.79	25154.28
481.15	24700.45
481.51	24335.21
481.87	23987.59
482.23	23619.73
482.59	23287.63
482.96	22968.43
483.32	22675.37
483.68	22314.48
484.04	21973.56
484.40	21566.87
484.76	21128.62
485.12	20668.55
485.48	20221.32
485.84	19718.90
486.20	19277.07
486.56	18852.80
486.92	18468.04
487.28	18100.86
487.64	17714.84
488.00	17343.51
488.37	16970.57
488.73	16544.08
489.09	16068.50
489.45	15642.88
489.81	15207.58
490.17	14768.52
490.53	14380.23
490.89	13984.26
491.25	13585.71
491.61	13189.39
491.97	12801.56
492.33	12391.97
492.69	12030.54
493.05	11690.67
493.41	11358.69
493.77	11036.52
494.13	10734.28
494.49	10445.55
494.85	10162.70
495.21	9900.33
495.57	9643.43
495.93	9387.56
496.29	9140.31
496.64	8912.29
497.00	8657.52
497.36	8402.92
497.72	8167.11
498.08	7945.79
498.44	7722.81
498.80	7516.77
499.16	7326.44
499.52	7135.47
499.88	6959.02
500.24	6790.88
500.60	6626.71
500.96	6464.91
501.32	6298.10
501.68	6125.88
502.03	5944.42
502.39	5784.10
502.75	5621.38
503.11	5475.22
503.47	5332.11
503.83	5206.78
504.19	5078.56
504.55	4960.23
504.91	4841.61
505.26	4729.50
505.62	4614.53
505.98	4500.05
506.34	4384.76
506.70	4267.22
507.06	4158.20
507.42	4052.85
507.78	3962.25
508.13	3869.56
508.49	3788.20
508.85	3714.95
509.21	3634.64
509.57	3549.52
509.93	3471.72
510.28	3383.41
510.64	3294.98
511.00	3218.00
511.36	3140.30
511.72	3072.05
512.07	3019.06
512.43	2961.32
512.79	2896.65
513.15	2846.33
513.51	2788.47
513.86	2730.61
514.22	2675.82
514.58	2629.47
514.94	2576.06
515.30	2528.01
515.65	2482.70
516.01	2444.15
516.37	2400.90
516.73	2362.16
517.08	2326.40
517.44	2282.47
517.80	2238.56
518.16	2205.84
518.51	2173.26
518.87	2138.76
519.23	2111.70
519.59	2082.94
519.94	2051.01
520.30	2019.65
520.66	1990.51
521.01	1959.78
521.37	1934.87
521.73	1906.62
522.09	1883.83
522.44	1858.20
522.80	1834.93
523.16	1813.14
523.51	1791.63
523.87	1767.67
524.23	1750.88
524.58	1731.25
524.94	1710.70
525.30	1694.55
525.65	1679.43
526.01	1656.84
526.37	1641.68
526.72	1626.60
527.08	1609.17
527.44	1590.63
527.79	1577.73
528.15	1565.21
528.51	1548.10
528.86	1531.79
529.22	1514.98
529.58	1501.95
529.93	1486.19
530.29	1472.45
530.65	1460.54
531.00	1448.63
531.36	1431.94
531.71	1420.35
532.07	1409.94
532.43	1396.04
532.78	1387.10
533.14	1382.86
533.49	1371.72
533.85	1364.44
534.21	1359.10
534.56	1353.02
534.92	1342.67
535.27	1336.26
535.63	1326.15
535.98	1318.75
536.34	1311.92
536.69	1304.99
537.05	1300.28
537.41	1296.52
537.76	1294.43
538.12	1286.05
538.47	1278.54
538.83	1268.90
539.18	1261.71
539.54	1252.37
539.89	1246.41
540.25	1245.17
540.60	1241.96
540.96	1239.08
541.31	1236.18
541.67	1236.97
542.02	1232.25
542.38	1228.73
542.73	1225.60
543.09	1219.79
543.44	1213.78
543.80	1213.54
544.15	1211.04
544.51	1210.13
544.86	1210.31
545.22	1208.04
545.57	1202.22
545.93	1199.24
546.28	1194.40
546.64	1189.88
546.99	1186.82
547.35	1180.82
547.70	1179.14
548.05	1177.59
548.41	1176.21
548.76	1172.73
549.12	1174.06
549.47	1169.19
549.83	1162.73
550.18	1159.36
550.53	1157.51
550.89	1155.34
551.24	1154.38
551.60	1152.41
551.95	1151.31
552.30	1149.23
552.66	1145.39
553.01	1145.15
553.37	1143.80
553.72	1142.23
554.07	1141.13
554.43	1140.73
554.78	1135.11
555.13	1134.27
555.49	1131.72
555.84	1132.33
556.19	1132.49
556.55	1134.36
556.90	1133.17
557.26	1132.87
557.61	1130.95
557.96	1129.05
558.32	1125.42
558.67	1123.13
559.02	1121.58
559.37	1118.42
559.73	1115.12
560.08	1117.18
560.43	1118.99
560.79	1116.15
561.14	1119.41
561.49	1119.45
561.85	1116.69
562.20	1116.65
562.55	1117.82
562.90	1114.59
563.26	1115.29
563.61	1115.24
563.96	1113.65
564.32	1112.20
564.67	1109.46
565.02	1110.19
565.37	1107.66
565.73	1105.36
566.08	1106.63
566.43	1107.78
566.78	1104.50
567.14	1105.58
567.49	1105.97
567.84	1104.10
568.19	1106.25
568.54	1104.73
568.90	1106.02
569.25	1103.59
569.60	1106.49
569.95	1104.48
570.31	1103.96
570.66	1104.41
571.01	1106.04
571.36	1103.21
571.71	1101.90
572.06	1104.73
572.42	1104.22
572.77	1101.92
573.12	1100.47
573.47	1099.00
573.82	1096.99
574.18	1094.72
574.53	1096.47
574.88	1095.72
575.23	1093.99
575.58	1093.90
575.93	1093.59
576.28	1093.36
576.64	1094.76
576.99	1098.25
577.34	1095.79
577.69	1094.25
578.04	1092.89
578.39	1091.65
578.74	1090.20
579.09	1090.48
579.44	1089.92
579.80	1091.16
580.15	1093.33
580.50	1093.99
580.85	1095.28
581.20	1100.29
581.55	1099.68
581.90	1097.31
582.25	1096.96
582.60	1096.05
582.95	1089.57
583.30	1089.24
583.65	1090.15
584.00	1087.83
584.35	1088.63
584.71	1092.16
585.06	1091.86
585.41	1090.97
585.76	1091.60
586.11	1091.74
586.46	1090.08
586.81	1087.97
587.16	1089.29
587.51	1089.24
587.86	1084.65
588.21	1086.01
588.56	1084.16
588.91	1082.94
589.26	1082.57
589.61	1085.31
589.96	1085.47
590.31	1087.72
590.66	1085.73
591.01	1086.29
591.36	1086.08
591.71	1084.37
592.06	1085.82
592.41	1086.57
592.76	1088.14
593.10	1089.29
593.45	1090.64
593.80	1088.65
594.15	1090.78
594.50	1090.46
594.85	1089.50
595.20	1090.41
595.55	1093.24
595.90	1095.07
596.25	1092.19
596.60	1093.17
596.95	1090.22
597.30	1086.27
597.64	1091.91
597.99	1094.41
598.34	1094.27
598.69	1094.88
599.04	1095.49
599.39	1086.64
599.74	1084.23
600.09	1083.64
600.44	1082.61
600.78	1085.31
601.13	1087.02
601.48	1087.97
601.83	1086.69
602.18	1088.86
602.53	1087.34
602.88	1084.91
603.22	1085.61
603.57	1087.18
603.92	1086.90
604.27	1089.94
604.62	1093.57
604.97	1089.78
605.31	1089.43
605.66	1089.26
606.01	1088.04
606.36	1083.86
606.71	1086.92
607.05	1084.51
607.40	1085.77
607.75	1083.41
608.10	1083.29
608.44	1085.45
608.79	1087.02
609.14	1083.81
609.49	1086.43
609.84	1089.36
610.18	1091.20
610.53	1092.63
610.88	1095.32
611.23	1094.41
611.57	1089.61
611.92	1084.00
612.27	1081.28
612.62	1079.76
612.96	1076.58
613.31	1078.89
613.66	1080.06
614.00	1078.82
614.35	1079.64
614.70	1082.01
615.05	1082.47
615.39	1084.21
615.74	1087.39
616.09	1085.28
616.43	1083.13
616.78	1080.98
617.13	1079.43
617.47	1078.85
617.82	1080.02
618.17	1081.00
618.51	1083.97
618.86	1087.83
619.21	1085.80
619.55	1085.38
619.90	1087.02
620.25	1085.38
620.59	1080.13
620.94	1082.12
621.29	1082.33
621.63	1079.50
621.98	1078.75
622.32	1078.43
622.67	1078.94
623.02	1078.31
623.36	1078.57
623.71	1077.33
624.05	1078.52
624.40	1074.89
624.75	1076.01
625.09	1076.01
625.44	1080.37
625.78	1080.58
626.13	1082.97
626.48	1083.43
626.82	1085.73
627.17	1082.87
627.51	1082.71
627.86	1083.39
628.20	1082.99
628.55	1080.93
628.89	1081.26
629.24	1081.07
629.58	1082.61
629.93	1082.45
630.28	1083.48
630.62	1084.56
630.97	1087.69
631.31	1085.75
631.66	1086.24
632.00	1083.25
632.35	1082.45
632.69	1080.25
633.04	1081.75
633.38	1081.75
633.73	1087.79
634.07	1087.76
634.42	1087.51
634.76	1087.67
635.11	1086.62
635.45	1087.06
635.79	1087.06
636.14	1087.06
636.48	1087.02
636.83	1086.43
637.17	1083.34
637.52	1083.69
637.86	1080.65
638.21	1078.17
638.55	1079.69
638.89	1080.56
639.24	1080.25
639.58	1081.82
639.93	1084.09
640.27	1079.90
640.61	1079.06
640.96	1076.30
641.30	1074.91
641.65	1074.26
641.99	1078.10
642.33	1077.98
642.68	1082.71
643.02	1084.00
643.37	1083.57
643.71	1082.66
644.05	1083.97
644.40	1080.86
644.74	1081.61
645.08	1085.00
645.43	1089.54
645.77	1089.87
646.11	1089.61
646.46	1090.34
646.80	1086.78
647.14	1081.89
647.49	1080.25
647.83	1081.42
648.17	1081.35
648.52	1082.50
648.86	1084.70
649.20	1084.00
649.55	1084.00
649.89	1082.73
650.23	1083.60
650.57	1082.45
650.92	1081.98
651.26	1082.73
651.60	1082.19
651.95	1078.85
652.29	1074.28
652.63	1073.53
652.97	1072.78
653.32	1075.31
653.66	1077.09
654.00	1081.14
654.34	1083.62
654.69	1083.29
655.03	1080.77
655.37	1080.20
655.71	1078.89
656.05	1079.90
656.40	1076.93
656.74	1079.57
657.08	1080.23
657.42	1080.34
657.76	1076.79
658.11	1083.20
658.45	1081.63
658.79	1082.38
659.13	1087.86
659.47	1091.42
659.82	1087.65
660.16	1089.19
660.50	1088.42
660.84	1084.04
661.18	1080.13
661.52	1079.50
661.87	1080.84
662.21	1080.30
662.55	1081.61
662.89	1084.37
663.23	1086.57
663.57	1085.14
663.91	1084.81
664.25	1082.54
664.60	1080.09
664.94	1079.92
665.28	1078.87
665.62	1078.14
665.96	1080.32
666.30	1083.71
666.64	1082.12
666.98	1081.75
667.32	1083.11
667.66	1082.12
668.01	1081.96
668.35	1084.39
668.69	1084.35
669.03	1084.96
669.37	1082.78
669.71	1079.13
670.05	1075.97
670.39	1076.62
670.73	1075.20
671.07	1077.77
671.41	1079.20
671.75	1081.00
672.09	1080.72
672.43	1081.28
672.77	1079.64
673.11	1079.22
673.45	1078.33
673.79	1079.69
674.13	1081.66
674.47	1082.61
674.81	1083.93
675.15	1081.80
675.49	1078.92
675.83	1077.51
676.17	1076.65
676.51	1075.43
676.85	1076.72
677.19	1077.61
677.53	1077.49
677.87	1078.94
678.21	1079.01
678.55	1079.62
678.89	1080.11
679.23	1081.54
679.57	1080.06
679.90	1078.61
680.24	1079.41
680.58	1076.93
680.92	1076.69
681.26	1076.51
681.60	1076.25
681.94	1079.01
682.28	1083.25
682.62	1083.90
682.96	1087.76
683.29	1090.99
683.63	1087.55
683.97	1085.26
684.31	1082.12
684.65	1078.43
684.99	1079.69
685.33	1078.21
685.67	1075.80
686.00	1075.27
686.34	1078.61
686.68	1077.09
687.02	1078.54
687.36	1080.56
687.70	1080.79
688.03	1078.17
688.37	1078.10
688.71	1076.25
689.05	1077.77
689.39	1077.68
689.72	1077.37
690.06	1076.58
690.40	1080.11
690.74	1077.91
691.08	1077.79
691.41	1079.76
691.75	1081.02
692.09	1080.09
692.43	1083.39
692.76	1084.35
693.10	1081.75
693.44	1079.24
693.78	1081.30
694.11	1076.83
694.45	1077.18
694.79	1077.72
695.13	1079.76
695.46	1078.75
695.80	1081.98
696.14	1079.10
696.48	1077.37
696.81	1077.23
697.15	1074.91
697.49	1076.72
697.82	1080.37
698.16	1081.21
698.50	1081.14
698.83	1082.50
699.17	1081.96
699.51	1079.95
699.84	1081.09
700.18	1077.98
700.52	1078.10
700.85	1074.42
701.19	1074.00
701.53	1074.42
701.86	1074.10
702.20	1073.28
702.54	1074.61
702.87	1074.91
703.21	1073.32
703.55	1077.04
703.88	1078.78
704.22	1079.81
704.55	1081.37
704.89	1084.42
705.23	1083.27
705.56	1080.46
705.90	1077.54
706.23	1076.30
706.57	1074.73
706.91	1073.95
707.24	1075.87
707.58	1076.23
707.91	1079.67
708.25	1081.07
708.58	1083.97
708.92	1083.88
709.26	1085.99
709.59	1081.56
709.93	1082.08
710.26	1083.29
710.60	1081.84
710.93	1081.51
711.27	1080.53
711.60	1078.89
711.94	1077.58
712.27	1079.20
712.61	1077.33
712.94	1080.56
713.28	1079.24
713.61	1075.01
713.95	1072.50
714.28	1073.49
714.62	1073.04
714.95	1073.39
715.29	1073.58
715.62	1073.98
715.96	1074.26
716.29	1075.20
716.63	1076.58
716.96	1079.78
717.29	1083.34
717.63	1082.33
717.96	1082.01
718.30	1082.71
718.63	1080.65
718.97	1078.12
719.30	1079.74
719.63	1081.30
719.97	1081.51
720.30	1082.87
720.64	1083.93
720.97	1083.55
721.30	1080.67
721.64	1076.18
721.97	1077.89
722.31	1077.44
722.64	1074.21
722.97	1075.15
723.31	1076.95
723.64	1074.40
723.97	1074.87
724.31	1076.44
724.64	1077.35
724.98	1078.03
725.31	1079.97
725.64	1078.52
725.98	1082.22
726.31	1077.54
726.64	1079.20
726.97	1077.18
727.31	1077.28
727.64	1076.62
727.97	1080.70
728.31	1078.99
728.64	1079.92
728.97	1081.44
729.31	1078.33
729.64	1079.08
729.97	1078.99
730.30	1079.67
730.64	1076.18
730.97	1080.41
731.30	1080.25
731.63	1080.04
731.97	1078.64
732.30	1080.48
732.63	1079.29
732.96	1078.05
733.30	1077.70
733.63	1077.77
733.96	1079.01
734.29	1078.26
734.63	1076.39
734.96	1078.10
735.29	1079.76
735.62	1079.46
735.95	1080.98
736.29	1081.91
736.62	1082.01
736.95	1082.03
737.28	1084.67
737.61	1083.41
737.94	1081.00
738.28	1079.88
738.61	1079.46
738.94	1076.55
739.27	1076.83
739.60	1080.48
739.93	1080.09
740.27	1080.48
740.60	1081.47
740.93	1079.17
741.26	1080.44
741.59	1081.61
741.92	1081.16
742.25	1077.65
742.58	1078.24
742.91	1075.22
743.25	1075.01
743.58	1073.91
743.91	1075.38
744.24	1074.00
744.57	1074.35
744.90	1072.69
745.23	1074.26
745.56	1076.58
745.89	1077.82
746.22	1074.66
746.55	1075.97
746.88	1073.81
747.21	1070.58
747.54	1070.84
747.87	1075.36
748.20	1075.64
748.53	1075.83
748.87	1078.05
749.20	1081.42
749.53	1082.85
749.86	1086.27
750.19	1090.01
750.52	1090.29
750.85	1083.60
751.18	1080.44
751.51	1076.53
751.84	1075.29
752.16	1074.89
752.49	1077.77
752.82	1081.51
753.15	1081.23
753.48	1077.82
753.81	1077.77
754.14	1078.89
754.47	1074.77
754.80	1072.71
755.13	1075.10
755.46	1075.50
755.79	1075.43
756.12	1077.21
756.45	1079.08
756.78	1079.69
757.11	1080.39
757.43	1080.95
757.76	1082.73
758.09	1082.40
758.42	1080.56
758.75	1076.60
759.08	1075.59
759.41	1072.39
759.74	1074.21
760.07	1074.61
760.39	1076.74
760.72	1078.43
761.05	1078.00
761.38	1077.98
761.71	1075.83
762.04	1075.45
762.36	1075.17
762.69	1075.55
763.02	1075.29
763.35	1075.71
763.68	1076.93
