SpectraSuite Data File
++++++++++++++++++++++++++++++++++++
Date: Mon Aug 26 10:22:03 PDT 2019
User: corrico
Dark Spectrum Present: No
Reference Spectrum Present: No
Number of Sampled Component Spectra: 1
Spectrometers: USB2+H06089
Integration Time (usec): 2000 (USB2+H06089)
Spectra Averaged: 20 (USB2+H06089)
Boxcar Smoothing: 2 (USB2+H06089)
Correct for Electrical Dark: No (USB2+H06089)
Strobe/Lamp Enabled: No (USB2+H06089)
Correct for Detector Non-linearity: No (USB2+H06089)
Correct for Stray Light: No (USB2+H06089)
Number of Pixels in Processed Spectrum: 2048
>>>>>Begin Processed Spectral Data<<<<<
339.70	1015.79
340.07	1015.79
340.45	985.76
340.82	967.18
341.19	946.28
341.57	923.29
341.94	913.75
342.31	907.43
342.69	903.33
343.06	901.34
343.43	901.48
343.81	901.01
344.18	900.99
344.55	904.20
344.93	907.47
345.30	912.79
345.67	923.46
346.04	930.43
346.42	938.51
346.79	950.09
347.16	957.47
347.54	961.63
347.91	970.67
348.28	979.23
348.65	985.11
349.03	998.50
349.40	1011.72
349.77	1024.80
350.14	1034.26
350.52	1042.83
350.89	1045.99
351.26	1051.65
351.63	1056.14
352.01	1060.99
352.38	1065.01
352.75	1070.91
353.12	1073.39
353.50	1075.64
353.87	1074.35
354.24	1077.86
354.61	1078.75
354.98	1080.91
355.36	1079.60
355.73	1082.61
356.10	1084.60
356.47	1084.49
356.84	1082.64
357.22	1085.59
357.59	1087.90
357.96	1082.01
358.33	1084.32
358.70	1087.16
359.08	1085.05
359.45	1083.74
359.82	1086.34
360.19	1083.20
360.56	1081.35
360.94	1082.99
361.31	1079.43
361.68	1082.22
362.05	1083.67
362.42	1085.42
362.79	1080.93
363.16	1082.71
363.54	1078.64
363.91	1076.06
364.28	1070.14
364.65	1071.29
365.02	1068.13
365.39	1067.31
365.76	1069.95
366.14	1071.31
366.51	1071.12
366.88	1071.90
367.25	1073.42
367.62	1068.55
367.99	1069.27
368.36	1069.93
368.73	1073.16
369.10	1070.28
369.48	1071.78
369.85	1069.34
370.22	1071.36
370.59	1069.51
370.96	1070.47
371.33	1071.45
371.70	1074.07
372.07	1075.57
372.44	1074.91
372.81	1078.38
373.18	1080.02
373.55	1079.90
373.93	1076.18
374.30	1079.17
374.67	1078.24
375.04	1080.46
375.41	1082.45
375.78	1082.38
376.15	1080.13
376.52	1078.21
376.89	1076.39
377.26	1074.40
377.63	1076.72
378.00	1076.51
378.37	1076.37
378.74	1073.49
379.11	1079.13
379.48	1079.90
379.85	1080.67
380.22	1083.41
380.59	1085.07
380.96	1081.33
381.33	1080.37
381.70	1081.02
382.07	1082.85
382.44	1084.18
382.81	1083.64
383.18	1083.01
383.55	1083.60
383.92	1080.56
384.29	1078.75
384.66	1080.93
385.03	1082.61
385.40	1080.27
385.77	1079.57
386.14	1080.27
386.51	1078.61
386.88	1078.87
387.25	1083.32
387.62	1084.81
387.99	1087.16
388.36	1088.54
388.73	1086.22
389.10	1086.78
389.46	1090.13
389.83	1087.20
390.20	1085.21
390.57	1084.77
390.94	1084.04
391.31	1084.51
391.68	1088.37
392.05	1089.47
392.42	1091.98
392.79	1093.47
393.16	1088.93
393.53	1089.14
393.89	1089.00
394.26	1088.14
394.63	1086.13
395.00	1086.92
395.37	1085.35
395.74	1085.87
396.11	1089.10
396.48	1086.99
396.84	1089.40
397.21	1088.68
397.58	1087.76
397.95	1084.04
398.32	1085.21
398.69	1082.31
399.06	1082.36
399.42	1081.84
399.79	1083.88
400.16	1082.80
400.53	1085.38
400.90	1085.54
401.27	1086.87
401.64	1084.51
402.00	1087.81
402.37	1086.27
402.74	1090.06
403.11	1088.77
403.48	1091.27
403.84	1092.28
404.21	1095.75
404.58	1095.14
404.95	1098.51
405.32	1100.15
405.68	1098.60
406.05	1097.36
406.42	1098.27
406.79	1097.73
407.16	1096.75
407.52	1097.83
407.89	1093.15
408.26	1091.81
408.63	1090.15
408.99	1089.64
409.36	1088.00
409.73	1094.32
410.10	1093.97
410.47	1094.22
410.83	1094.53
411.20	1096.00
411.57	1093.55
411.94	1096.54
412.30	1099.56
412.67	1100.03
413.04	1101.71
413.40	1102.37
413.77	1101.62
414.14	1101.08
414.51	1099.82
414.87	1100.82
415.24	1104.50
415.61	1104.01
415.97	1102.49
416.34	1106.09
416.71	1107.14
417.08	1107.05
417.44	1105.46
417.81	1107.49
418.18	1106.23
418.54	1103.70
418.91	1104.45
419.28	1110.16
419.64	1110.37
420.01	1113.35
420.38	1114.45
420.74	1115.76
421.11	1117.65
421.48	1122.43
421.84	1125.26
422.21	1131.49
422.58	1131.79
422.94	1131.72
423.31	1135.00
423.68	1136.19
424.04	1137.24
424.41	1140.52
424.77	1142.46
425.14	1146.16
425.51	1151.24
425.87	1157.44
426.24	1163.50
426.61	1168.25
426.97	1172.26
427.34	1176.00
427.70	1180.78
428.07	1186.63
428.44	1194.94
428.80	1204.02
429.17	1213.31
429.53	1222.70
429.90	1233.35
430.27	1238.92
430.63	1249.47
431.00	1265.88
431.36	1279.01
431.73	1289.38
432.09	1309.48
432.46	1328.72
432.83	1342.70
433.19	1360.16
433.56	1382.60
433.92	1407.62
434.29	1429.29
434.65	1453.15
435.02	1477.58
435.38	1509.34
435.75	1533.05
436.11	1561.77
436.48	1593.69
436.84	1632.83
437.21	1669.11
437.57	1712.20
437.94	1758.77
438.30	1808.44
438.67	1858.08
439.03	1914.56
439.40	1977.19
439.76	2035.59
440.13	2100.70
440.49	2173.21
440.86	2247.05
441.22	2322.51
441.59	2409.35
441.95	2500.63
442.32	2589.57
442.68	2692.86
443.05	2800.85
443.41	2909.12
443.78	3021.42
444.14	3148.32
444.51	3271.11
444.87	3419.24
445.24	3562.06
445.60	3722.48
445.96	3881.92
446.33	4069.98
446.69	4242.41
447.06	4437.14
447.42	4637.65
447.79	4847.02
448.15	5089.59
448.51	5341.34
448.88	5619.81
449.24	5889.40
449.61	6213.09
449.97	6521.88
450.33	6851.17
450.70	7173.67
451.06	7571.40
451.43	7924.07
451.79	8324.30
452.15	8757.68
452.52	9229.69
452.88	9700.07
453.24	10250.26
453.61	10850.58
453.97	11448.40
454.34	12050.69
454.70	12727.29
455.06	13402.42
455.43	14070.27
455.79	14699.90
456.15	15454.96
456.52	16177.03
456.88	17062.18
457.24	17891.13
457.61	18895.61
457.97	19806.81
458.33	20736.56
458.70	21603.10
459.06	22449.01
459.42	23330.37
459.79	24198.17
460.15	25193.39
460.51	26118.48
460.88	27123.77
461.24	28011.13
461.60	29007.22
461.96	29885.29
462.33	30765.76
462.69	31652.68
463.05	32636.34
463.42	33524.36
463.78	34334.51
464.14	34993.58
464.50	35670.65
464.87	36156.43
465.23	36451.76
465.59	36825.66
465.95	37167.15
466.32	37438.02
466.68	37718.48
467.04	37951.93
467.40	38077.61
467.77	38235.16
468.13	38232.93
468.49	38102.89
468.85	37985.37
469.22	37835.67
469.58	37550.71
469.94	37325.60
470.30	37099.11
470.66	36759.87
471.03	36224.68
471.39	35842.54
471.75	35189.42
472.11	34497.51
472.47	33984.27
472.84	33510.69
473.20	32864.47
473.56	32505.52
473.92	31998.52
474.28	31464.24
474.65	30915.18
475.01	30370.86
475.37	29660.98
475.73	29070.02
476.09	28418.55
476.45	27811.13
476.81	27264.71
477.18	26721.45
477.54	26268.32
477.90	25883.33
478.26	25425.64
478.62	25012.51
478.98	24672.78
479.34	24346.18
479.71	23908.24
480.07	23539.75
480.43	23150.45
480.79	22712.79
481.15	22259.41
481.51	21910.22
481.87	21608.41
482.23	21272.87
482.59	20971.88
482.96	20652.86
483.32	20317.89
483.68	19927.13
484.04	19581.88
484.40	19202.83
484.76	18874.41
485.12	18501.70
485.48	18171.92
485.84	17799.87
486.20	17462.22
486.56	17064.26
486.92	16716.13
487.28	16337.43
487.64	15955.50
488.00	15589.96
488.37	15215.66
488.73	14809.18
489.09	14380.88
489.45	13995.49
489.81	13596.97
490.17	13236.38
490.53	12908.66
490.89	12594.10
491.25	12251.00
491.61	11902.51
491.97	11538.35
492.33	11182.68
492.69	10854.26
493.05	10551.51
493.41	10266.01
493.77	9986.67
494.13	9715.31
494.49	9452.67
494.85	9188.94
495.21	8932.77
495.57	8690.29
495.93	8448.70
496.29	8207.58
496.64	8001.96
497.00	7781.86
497.36	7563.79
497.72	7366.02
498.08	7191.06
498.44	6989.68
498.80	6802.16
499.16	6628.30
499.52	6450.35
499.88	6281.48
500.24	6136.25
500.60	6000.06
500.96	5867.11
501.32	5733.19
501.68	5584.21
502.03	5430.67
502.39	5287.27
502.75	5145.11
503.11	5014.22
503.47	4901.97
503.83	4792.06
504.19	4680.86
504.55	4577.99
504.91	4470.05
505.26	4358.01
505.62	4245.45
505.98	4145.02
506.34	4036.89
506.70	3930.16
507.06	3837.45
507.42	3753.47
507.78	3665.12
508.13	3579.87
508.49	3505.47
508.85	3429.21
509.21	3353.54
509.57	3277.50
509.93	3207.56
510.28	3131.66
510.64	3059.15
511.00	2990.95
511.36	2931.97
511.72	2876.17
512.07	2824.32
512.43	2769.13
512.79	2716.85
513.15	2663.88
513.51	2606.65
513.86	2558.37
514.22	2514.16
514.58	2466.15
514.94	2424.40
515.30	2386.34
515.65	2344.37
516.01	2311.42
516.37	2275.33
516.73	2238.89
517.08	2203.22
517.44	2168.55
517.80	2130.03
518.16	2095.81
518.51	2057.40
518.87	2027.84
519.23	2001.28
519.59	1971.95
519.94	1946.81
520.30	1925.32
520.66	1899.32
521.01	1872.48
521.37	1849.35
521.73	1825.27
522.09	1803.22
522.44	1779.44
522.80	1761.16
523.16	1739.98
523.51	1719.26
523.87	1701.45
524.23	1685.21
524.58	1660.35
524.94	1640.97
525.30	1621.15
525.65	1601.11
526.01	1582.37
526.37	1571.44
526.72	1559.78
527.08	1548.38
527.44	1534.50
527.79	1520.93
528.15	1505.03
528.51	1491.86
528.86	1482.35
529.22	1471.07
529.58	1461.69
529.93	1451.81
530.29	1438.47
530.65	1424.01
531.00	1413.40
531.36	1404.06
531.71	1393.98
532.07	1385.41
532.43	1376.42
532.78	1365.49
533.14	1353.56
533.49	1345.36
533.85	1333.99
534.21	1326.55
534.56	1322.61
534.92	1315.03
535.27	1310.42
535.63	1305.97
535.98	1301.38
536.34	1292.96
536.69	1286.62
537.05	1281.37
537.41	1277.35
537.76	1271.31
538.12	1263.37
538.47	1257.78
538.83	1251.32
539.18	1242.47
539.54	1238.14
539.89	1236.55
540.25	1236.90
540.60	1232.85
540.96	1231.94
541.31	1225.29
541.67	1222.81
542.02	1214.29
542.38	1209.19
542.73	1204.91
543.09	1199.74
543.44	1192.71
543.80	1190.33
544.15	1186.63
544.51	1179.14
544.86	1179.19
545.22	1180.45
545.57	1177.08
545.93	1177.01
546.28	1181.39
546.64	1179.26
546.99	1174.43
547.35	1176.33
547.70	1173.47
548.05	1168.28
548.41	1165.26
548.76	1162.92
549.12	1157.63
549.47	1153.70
549.83	1153.11
550.18	1152.20
550.53	1148.43
550.89	1148.48
551.24	1151.33
551.60	1146.32
551.95	1143.40
552.30	1147.59
552.66	1144.73
553.01	1139.02
553.37	1136.61
553.72	1136.28
554.07	1130.31
554.43	1129.19
554.78	1131.18
555.13	1132.84
555.49	1131.34
555.84	1127.65
556.19	1128.61
556.55	1128.26
556.90	1126.83
557.26	1125.35
557.61	1127.51
557.96	1125.59
558.32	1121.21
558.67	1121.56
559.02	1120.48
559.37	1122.33
559.73	1122.15
560.08	1120.60
560.43	1119.95
560.79	1120.23
561.14	1116.25
561.49	1114.00
561.85	1112.46
562.20	1111.12
562.55	1108.88
562.90	1108.41
563.26	1107.66
563.61	1108.95
563.96	1108.69
564.32	1109.02
564.67	1109.37
565.02	1110.00
565.37	1110.79
565.73	1113.09
566.08	1117.25
566.43	1115.01
566.78	1112.34
567.14	1110.37
567.49	1107.75
567.84	1103.28
568.19	1101.41
568.54	1102.28
568.90	1103.09
569.25	1099.89
569.60	1098.88
569.95	1099.14
570.31	1096.35
570.66	1093.69
571.01	1096.00
571.36	1095.37
571.71	1097.52
572.06	1098.67
572.42	1100.33
572.77	1099.30
573.12	1098.41
573.47	1094.39
573.82	1095.42
574.18	1094.81
574.53	1093.85
574.88	1092.40
575.23	1095.42
575.58	1093.71
575.93	1092.42
576.28	1092.66
576.64	1094.90
576.99	1093.59
577.34	1094.86
577.69	1094.83
578.04	1096.47
578.39	1096.49
578.74	1099.44
579.09	1097.24
579.44	1096.78
579.80	1095.09
580.15	1093.92
580.50	1093.59
580.85	1095.21
581.20	1095.72
581.55	1096.00
581.90	1094.13
582.25	1092.23
582.60	1090.50
582.95	1086.36
583.30	1087.72
583.65	1089.80
584.00	1091.91
584.35	1094.11
584.71	1098.37
585.06	1095.79
585.41	1097.83
585.76	1095.16
586.11	1091.42
586.46	1093.15
586.81	1094.39
587.16	1091.20
587.51	1089.26
587.86	1088.44
588.21	1083.15
588.56	1083.20
588.91	1079.97
589.26	1080.77
589.61	1084.04
589.96	1087.39
590.31	1089.61
590.66	1093.10
591.01	1096.24
591.36	1094.04
591.71	1091.20
592.06	1089.12
592.41	1087.37
592.76	1086.45
593.10	1085.59
593.45	1086.55
593.80	1086.36
594.15	1087.67
594.50	1086.41
594.85	1088.33
595.20	1087.95
595.55	1086.20
595.90	1088.09
596.25	1086.83
596.60	1086.48
596.95	1087.06
597.30	1086.85
597.64	1099.40
597.99	1099.91
598.34	1100.87
598.69	1096.78
599.04	1098.58
599.39	1084.86
599.74	1083.76
600.09	1082.43
600.44	1086.80
600.78	1084.98
601.13	1084.46
601.48	1085.33
601.83	1087.39
602.18	1087.09
602.53	1085.82
602.88	1085.52
603.22	1085.33
603.57	1084.18
603.92	1086.13
604.27	1086.76
604.62	1086.24
604.97	1086.34
605.31	1087.06
605.66	1083.27
606.01	1086.83
606.36	1087.81
606.71	1088.21
607.05	1084.35
607.40	1084.93
607.75	1083.62
608.10	1080.67
608.44	1081.28
608.79	1083.93
609.14	1082.85
609.49	1077.47
609.84	1081.47
610.18	1078.80
610.53	1077.42
610.88	1078.82
611.23	1085.26
611.57	1085.40
611.92	1087.46
612.27	1090.46
612.62	1088.58
612.96	1087.65
613.31	1085.59
613.66	1086.90
614.00	1087.83
614.35	1088.89
614.70	1086.24
615.05	1087.58
615.39	1085.47
615.74	1084.93
616.09	1084.72
616.43	1086.59
616.78	1089.00
617.13	1089.82
617.47	1087.79
617.82	1089.36
618.17	1087.04
618.51	1084.56
618.86	1084.56
619.21	1082.61
619.55	1078.21
619.90	1082.12
620.25	1081.61
620.59	1078.21
620.94	1081.75
621.29	1085.05
621.63	1081.42
621.98	1079.36
622.32	1083.11
622.67	1079.64
623.02	1080.13
623.36	1079.06
623.71	1080.79
624.05	1081.09
624.40	1083.79
624.75	1085.80
625.09	1086.43
625.44	1084.89
625.78	1085.59
626.13	1084.30
626.48	1084.44
626.82	1087.37
627.17	1084.23
627.51	1081.19
627.86	1078.66
628.20	1077.86
628.55	1076.69
628.89	1080.65
629.24	1081.07
629.58	1084.35
629.93	1082.36
630.28	1077.02
630.62	1078.71
630.97	1079.34
631.31	1080.74
631.66	1080.30
632.00	1083.79
632.35	1080.11
632.69	1084.02
633.04	1076.81
633.38	1077.89
633.73	1080.93
634.07	1081.58
634.42	1075.87
634.76	1080.53
635.11	1081.33
635.45	1078.26
635.79	1076.76
636.14	1077.68
636.48	1078.03
636.83	1077.07
637.17	1079.57
637.52	1084.23
637.86	1084.18
638.21	1086.36
638.55	1086.59
638.89	1085.38
639.24	1084.35
639.58	1086.24
639.93	1086.34
640.27	1086.87
640.61	1090.60
640.96	1091.58
641.30	1087.76
641.65	1083.29
641.99	1082.99
642.33	1076.32
642.68	1077.91
643.02	1078.68
643.37	1081.47
643.71	1080.77
644.05	1082.38
644.40	1075.57
644.74	1077.47
645.08	1077.86
645.43	1080.53
645.77	1078.33
646.11	1082.47
646.46	1081.96
646.80	1081.61
647.14	1075.64
647.49	1080.63
647.83	1079.17
648.17	1080.11
648.52	1080.09
648.86	1085.26
649.20	1082.90
649.55	1085.94
649.89	1084.53
650.23	1084.60
650.57	1081.09
650.92	1080.60
651.26	1079.71
651.60	1079.24
651.95	1079.34
652.29	1080.56
652.63	1079.62
652.97	1078.57
653.32	1081.98
653.66	1081.63
654.00	1079.01
654.34	1079.90
654.69	1078.64
655.03	1079.29
655.37	1076.01
655.71	1079.99
656.05	1080.63
656.40	1080.67
656.74	1076.86
657.08	1081.47
657.42	1080.81
657.76	1082.33
658.11	1081.77
658.45	1081.91
658.79	1080.79
659.13	1080.41
659.47	1079.85
659.82	1080.98
660.16	1082.69
660.50	1080.88
660.84	1083.95
661.18	1085.10
661.52	1086.52
661.87	1084.89
662.21	1086.22
662.55	1084.63
662.89	1084.04
663.23	1081.47
663.57	1079.48
663.91	1079.74
664.25	1079.57
664.60	1076.76
664.94	1079.90
665.28	1083.13
665.62	1083.01
665.96	1082.54
666.30	1081.33
666.64	1079.01
666.98	1080.88
667.32	1083.20
667.66	1084.30
668.01	1086.45
668.35	1084.63
668.69	1084.18
669.03	1083.64
669.37	1084.37
669.71	1084.89
670.05	1086.29
670.39	1082.40
670.73	1078.43
671.07	1075.01
671.41	1075.69
671.75	1076.74
672.09	1078.99
672.43	1078.47
672.77	1081.16
673.11	1082.52
673.45	1083.20
673.79	1082.99
674.13	1086.41
674.47	1084.42
674.81	1084.23
675.15	1084.86
675.49	1082.90
675.83	1081.12
676.17	1081.26
676.51	1078.43
676.85	1077.93
677.19	1080.95
677.53	1081.44
677.87	1084.00
678.21	1086.22
678.55	1085.03
678.89	1080.46
679.23	1084.96
679.57	1082.52
679.90	1080.37
680.24	1080.88
680.58	1082.50
680.92	1077.40
681.26	1079.53
681.60	1081.02
681.94	1079.46
682.28	1082.01
682.62	1082.03
682.96	1081.12
683.29	1081.26
683.63	1084.53
683.97	1083.01
684.31	1085.52
684.65	1086.15
684.99	1086.24
685.33	1082.33
685.67	1082.15
686.00	1079.24
686.34	1075.80
686.68	1077.21
687.02	1079.13
687.36	1081.07
687.70	1081.35
688.03	1085.99
688.37	1083.88
688.71	1086.01
689.05	1084.60
689.39	1085.03
689.72	1079.88
690.06	1078.52
690.40	1076.58
690.74	1078.92
691.08	1076.90
691.41	1079.55
691.75	1080.44
692.09	1080.44
692.43	1078.52
692.76	1078.43
693.10	1079.50
693.44	1079.48
693.78	1078.19
694.11	1076.67
694.45	1079.88
694.79	1079.15
695.13	1078.57
695.46	1080.91
695.80	1081.30
696.14	1081.33
696.48	1079.31
696.81	1082.59
697.15	1080.81
697.49	1081.30
697.82	1080.32
698.16	1082.69
698.50	1082.08
698.83	1083.71
699.17	1082.40
699.51	1081.89
699.84	1078.19
700.18	1077.07
700.52	1075.69
700.85	1078.05
701.19	1077.25
701.53	1077.65
701.86	1076.65
702.20	1078.71
702.54	1077.93
702.87	1078.87
703.21	1081.73
703.55	1081.16
703.88	1076.55
704.22	1079.03
704.55	1082.40
704.89	1078.99
705.23	1080.70
705.56	1083.43
705.90	1082.33
706.23	1078.38
706.57	1080.41
706.91	1078.73
707.24	1079.71
707.58	1080.51
707.91	1083.08
708.25	1082.97
708.58	1084.67
708.92	1081.33
709.26	1075.34
709.59	1072.53
709.93	1073.65
710.26	1073.49
710.60	1078.94
710.93	1081.56
711.27	1081.70
711.60	1082.33
711.94	1080.51
712.27	1078.05
712.61	1078.07
712.94	1080.46
713.28	1077.37
713.61	1080.02
713.95	1078.33
714.28	1079.90
714.62	1078.28
714.95	1080.51
715.29	1078.43
715.62	1080.60
715.96	1080.25
716.29	1079.85
716.63	1079.95
716.96	1080.11
717.29	1078.87
717.63	1077.65
717.96	1077.35
718.30	1077.35
718.63	1077.72
718.97	1076.48
719.30	1075.34
719.63	1077.23
719.97	1078.68
720.30	1078.24
720.64	1078.87
720.97	1081.35
721.30	1081.49
721.64	1080.44
721.97	1084.91
722.31	1084.65
722.64	1084.67
722.97	1084.35
723.31	1082.76
723.64	1079.29
723.97	1078.50
724.31	1079.67
724.64	1081.26
724.98	1081.91
725.31	1083.29
725.64	1084.09
725.98	1081.44
726.31	1082.80
726.64	1084.32
726.97	1081.82
727.31	1083.55
727.64	1086.50
727.97	1084.89
728.31	1084.74
728.64	1082.80
728.97	1078.14
729.31	1076.46
729.64	1075.80
729.97	1073.98
730.30	1077.42
730.64	1082.52
730.97	1083.25
731.30	1082.71
731.63	1084.46
731.97	1084.86
732.30	1083.32
732.63	1083.18
732.96	1083.88
733.30	1081.40
733.63	1081.61
733.96	1083.13
734.29	1084.39
734.63	1084.09
734.96	1085.94
735.29	1084.93
735.62	1083.90
735.95	1079.43
736.29	1080.70
736.62	1078.94
736.95	1079.38
737.28	1079.15
737.61	1080.93
737.94	1076.06
738.28	1076.25
738.61	1075.48
738.94	1078.40
739.27	1080.25
739.60	1082.90
739.93	1084.70
740.27	1083.97
740.60	1078.17
740.93	1077.25
741.26	1078.59
741.59	1081.05
741.92	1081.44
742.25	1084.58
742.58	1084.60
742.91	1081.40
743.25	1080.65
743.58	1079.13
743.91	1079.41
744.24	1076.06
744.57	1075.94
744.90	1075.45
745.23	1074.26
745.56	1075.05
745.89	1076.25
746.22	1078.45
746.55	1077.93
746.88	1080.06
747.21	1077.56
747.54	1077.37
747.87	1077.25
748.20	1074.89
748.53	1075.05
748.87	1077.23
749.20	1076.39
749.53	1076.95
749.86	1078.80
750.19	1078.96
750.52	1077.33
750.85	1081.51
751.18	1080.11
751.51	1078.00
751.84	1075.64
752.16	1071.64
752.49	1067.80
752.82	1067.78
753.15	1068.29
753.48	1071.99
753.81	1078.10
754.14	1082.36
754.47	1083.13
754.80	1085.38
755.13	1083.48
755.46	1081.33
755.79	1078.52
756.12	1076.83
756.45	1074.68
756.78	1075.10
757.11	1076.30
757.43	1076.53
757.76	1076.08
758.09	1078.38
758.42	1079.01
758.75	1078.24
759.08	1082.17
759.41	1084.72
759.74	1083.60
760.07	1086.59
760.39	1087.25
760.72	1087.32
761.05	1085.73
761.38	1083.76
761.71	1081.19
762.04	1080.27
762.36	1074.75
762.69	1076.58
763.02	1077.86
763.35	1078.36
763.68	1080.95
764.01	1084.21
