SpectraSuite Data File
++++++++++++++++++++++++++++++++++++
Date: Mon Aug 26 10:22:04 PDT 2019
User: corrico
Dark Spectrum Present: No
Reference Spectrum Present: No
Number of Sampled Component Spectra: 1
Spectrometers: USB2+H06089
Integration Time (usec): 2000 (USB2+H06089)
Spectra Averaged: 20 (USB2+H06089)
Boxcar Smoothing: 2 (USB2+H06089)
Correct for Electrical Dark: No (USB2+H06089)
Strobe/Lamp Enabled: No (USB2+H06089)
Correct for Detector Non-linearity: No (USB2+H06089)
Correct for Stray Light: No (USB2+H06089)
Number of Pixels in Processed Spectrum: 2048
>>>>>Begin Processed Spectral Data<<<<<
339.70	1028.55
340.07	1028.55
340.45	994.17
340.82	972.19
341.19	951.15
341.57	924.23
341.94	914.66
342.31	904.43
342.69	898.44
343.06	894.53
343.43	893.08
343.81	892.94
344.18	897.60
344.55	901.93
344.93	904.10
345.30	910.49
345.67	917.49
346.04	926.03
346.42	933.62
346.79	944.80
347.16	954.70
347.54	964.46
347.91	971.86
348.28	980.90
348.65	986.02
349.03	997.19
349.40	1007.95
349.77	1017.90
350.14	1028.24
350.52	1040.18
350.89	1044.18
351.26	1049.82
351.63	1056.03
352.01	1061.64
352.38	1064.97
352.75	1072.85
353.12	1076.95
353.50	1077.49
353.87	1079.69
354.24	1084.77
354.61	1084.79
354.98	1083.88
355.36	1085.03
355.73	1087.37
356.10	1083.69
356.47	1084.37
356.84	1083.20
357.22	1084.18
357.59	1084.96
357.96	1085.52
358.33	1085.68
358.70	1089.07
359.08	1087.51
359.45	1083.83
359.82	1084.67
360.19	1083.11
360.56	1083.36
360.94	1083.22
361.31	1085.12
361.68	1086.38
362.05	1084.14
362.42	1081.87
362.79	1081.80
363.16	1079.76
363.54	1078.47
363.91	1080.63
364.28	1083.60
364.65	1086.22
365.02	1086.90
365.39	1085.33
365.76	1084.07
366.14	1081.94
366.51	1080.30
366.88	1077.21
367.25	1076.41
367.62	1078.38
367.99	1079.55
368.36	1077.47
368.73	1079.29
369.10	1080.25
369.48	1078.61
369.85	1078.24
370.22	1079.85
370.59	1080.06
370.96	1080.32
371.33	1079.55
371.70	1079.53
372.07	1079.48
372.44	1079.60
372.81	1076.74
373.18	1079.38
373.55	1078.38
373.93	1077.14
374.30	1073.84
374.67	1075.27
375.04	1074.59
375.41	1073.49
375.78	1075.59
376.15	1080.46
376.52	1080.37
376.89	1081.47
377.26	1081.63
377.63	1081.80
378.00	1082.12
378.37	1085.40
378.74	1084.65
379.11	1089.89
379.48	1090.78
379.85	1089.68
380.22	1087.23
380.59	1086.83
380.96	1083.93
381.33	1081.42
381.70	1081.87
382.07	1081.12
382.44	1081.84
382.81	1079.57
383.18	1082.52
383.55	1079.06
383.92	1081.63
384.29	1081.73
384.66	1083.62
385.03	1081.37
385.40	1083.20
385.77	1082.26
386.14	1080.44
386.51	1078.19
386.88	1079.85
387.25	1080.37
387.62	1080.06
387.99	1082.83
388.36	1087.16
388.73	1086.01
389.10	1085.33
389.46	1086.78
389.83	1087.58
390.20	1083.50
390.57	1084.98
390.94	1085.63
391.31	1082.76
391.68	1079.90
392.05	1080.95
392.42	1078.75
392.79	1080.34
393.16	1082.57
393.53	1085.45
393.89	1086.15
394.26	1090.83
394.63	1090.50
395.00	1088.96
395.37	1089.17
395.74	1085.61
396.11	1083.06
396.48	1083.15
396.84	1083.69
397.21	1083.06
397.58	1087.90
397.95	1087.18
398.32	1088.00
398.69	1090.46
399.06	1090.24
399.42	1088.54
399.79	1090.32
400.16	1091.67
400.53	1092.66
400.90	1094.06
401.27	1095.98
401.64	1095.07
402.00	1094.08
402.37	1094.08
402.74	1092.49
403.11	1093.10
403.48	1091.39
403.84	1090.39
404.21	1087.86
404.58	1089.33
404.95	1090.74
405.32	1093.22
405.68	1094.55
406.05	1097.27
406.42	1096.12
406.79	1095.00
407.16	1098.32
407.52	1099.47
407.89	1098.23
408.26	1098.48
408.63	1100.71
408.99	1097.64
409.36	1098.48
409.73	1099.42
410.10	1101.69
410.47	1101.48
410.83	1099.70
411.20	1095.58
411.57	1096.12
411.94	1096.17
412.30	1093.17
412.67	1094.20
413.04	1099.89
413.40	1101.60
413.77	1104.73
414.14	1108.85
414.51	1111.15
414.87	1110.91
415.24	1109.98
415.61	1110.58
415.97	1110.16
416.34	1110.14
416.71	1107.99
417.08	1107.47
417.44	1106.11
417.81	1107.85
418.18	1110.02
418.54	1114.42
418.91	1120.44
419.28	1122.99
419.64	1122.68
420.01	1122.24
420.38	1122.10
420.74	1121.14
421.11	1122.64
421.48	1123.39
421.84	1129.03
422.21	1132.70
422.58	1132.12
422.94	1131.93
423.31	1133.99
423.68	1136.70
424.04	1140.73
424.41	1147.63
424.77	1154.38
425.14	1161.26
425.51	1166.22
425.87	1168.04
426.24	1173.22
426.61	1177.50
426.97	1183.84
427.34	1191.33
427.70	1199.36
428.07	1210.01
428.44	1218.13
428.80	1228.85
429.17	1238.00
429.53	1247.44
429.90	1259.58
430.27	1269.04
430.63	1275.87
431.00	1289.73
431.36	1307.03
431.73	1316.72
432.09	1336.77
432.46	1358.84
432.83	1376.96
433.19	1401.89
433.56	1425.71
433.92	1448.30
434.29	1478.00
434.65	1507.87
435.02	1529.84
435.38	1566.97
435.75	1600.22
436.11	1637.39
436.48	1680.86
436.84	1731.53
437.21	1775.98
437.57	1823.42
437.94	1871.40
438.30	1922.80
438.67	1976.91
439.03	2038.91
439.40	2109.92
439.76	2182.81
440.13	2258.38
440.49	2336.81
440.86	2415.57
441.22	2507.25
441.59	2598.46
441.95	2701.49
442.32	2806.70
442.68	2923.28
443.05	3042.18
443.41	3170.00
443.78	3296.78
444.14	3443.02
444.51	3582.21
444.87	3751.01
445.24	3913.09
445.60	4099.78
445.96	4290.65
446.33	4509.23
446.69	4704.55
447.06	4933.33
447.42	5154.91
447.79	5387.52
448.15	5660.98
448.51	5956.41
448.88	6288.20
449.24	6604.01
449.61	6965.13
449.97	7323.79
450.33	7714.36
450.70	8080.33
451.06	8535.40
451.43	8947.54
451.79	9410.78
452.15	9902.27
452.52	10437.50
452.88	10972.55
453.24	11607.58
453.61	12320.44
453.97	13030.86
454.34	13741.29
454.70	14582.08
455.06	15384.06
455.43	16161.40
455.79	16873.76
456.15	17721.04
456.52	18486.86
456.88	19444.73
457.24	20377.08
457.61	21489.86
457.97	22546.12
458.33	23628.85
458.70	24669.11
459.06	25636.52
459.42	26675.72
459.79	27627.78
460.15	28701.73
460.51	29709.80
460.88	30832.09
461.24	31828.45
461.60	32982.64
461.96	34079.74
462.33	35153.93
462.69	36261.08
463.05	37414.89
463.42	38445.22
463.78	39368.56
464.14	40112.26
464.50	40806.23
464.87	41311.51
465.23	41651.03
465.59	42035.86
465.95	42405.43
466.32	42686.27
466.68	43006.83
467.04	43235.10
467.40	43338.11
467.77	43442.71
468.13	43366.71
468.49	43149.39
468.85	42994.82
469.22	42830.00
469.58	42532.47
469.94	42344.95
470.30	42143.69
470.66	41802.48
471.03	41251.71
471.39	40867.49
471.75	40106.79
472.11	39310.05
472.47	38703.40
472.84	38115.53
473.20	37381.56
473.56	37017.30
473.92	36489.68
474.28	35963.38
474.65	35389.41
475.01	34751.78
475.37	33946.59
475.73	33261.87
476.09	32483.27
476.45	31815.56
476.81	31241.94
477.18	30651.14
477.54	30183.27
477.90	29742.08
478.26	29156.64
478.62	28639.24
478.98	28202.89
479.34	27765.80
479.71	27209.45
480.07	26787.90
480.43	26344.51
480.79	25883.98
481.15	25381.82
481.51	24979.67
481.87	24599.12
482.23	24206.80
482.59	23836.98
482.96	23474.43
483.32	23155.88
483.68	22778.28
484.04	22406.14
484.40	22001.78
484.76	21603.00
485.12	21151.16
485.48	20738.11
485.84	20275.50
486.20	19839.46
486.56	19393.12
486.92	18998.36
487.28	18551.55
487.64	18117.99
488.00	17699.53
488.37	17265.64
488.73	16781.71
489.09	16298.27
489.45	15851.18
489.81	15390.33
490.17	14970.37
490.53	14593.80
490.89	14223.65
491.25	13829.83
491.61	13447.76
491.97	13046.52
492.33	12643.08
492.69	12290.71
493.05	11956.93
493.41	11618.63
493.77	11299.17
494.13	10989.87
494.49	10669.64
494.85	10373.04
495.21	10092.81
495.57	9822.20
495.93	9543.49
496.29	9288.67
496.64	9052.30
497.00	8794.91
497.36	8532.24
497.72	8288.42
498.08	8064.25
498.44	7830.03
498.80	7623.83
499.16	7434.55
499.52	7241.52
499.88	7061.33
500.24	6896.20
500.60	6739.78
500.96	6590.83
501.32	6445.81
501.68	6282.00
502.03	6104.94
502.39	5943.95
502.75	5770.75
503.11	5619.16
503.47	5477.13
503.83	5338.79
504.19	5204.77
504.55	5084.67
504.91	4962.99
505.26	4839.24
505.62	4724.35
505.98	4601.96
506.34	4480.39
506.70	4363.88
507.06	4251.89
507.42	4148.88
507.78	4055.66
508.13	3961.05
508.49	3876.93
508.85	3799.49
509.21	3709.63
509.57	3623.29
509.93	3537.04
510.28	3439.89
510.64	3350.13
511.00	3274.67
511.36	3199.21
511.72	3128.22
512.07	3064.30
512.43	3002.02
512.79	2941.07
513.15	2880.94
513.51	2820.04
513.86	2759.61
514.22	2705.87
514.58	2653.54
514.94	2603.26
515.30	2560.27
515.65	2519.07
516.01	2484.46
516.37	2441.34
516.73	2399.03
517.08	2361.11
517.44	2323.68
517.80	2279.19
518.16	2239.87
518.51	2202.42
518.87	2169.23
519.23	2133.77
519.59	2098.24
519.94	2067.91
520.30	2042.68
520.66	2010.12
521.01	1978.90
521.37	1954.79
521.73	1933.56
522.09	1905.38
522.44	1883.80
522.80	1866.90
523.16	1843.50
523.51	1815.74
523.87	1797.18
524.23	1774.31
524.58	1752.64
524.94	1732.35
525.30	1712.13
525.65	1688.70
526.01	1666.74
526.37	1647.01
526.72	1628.83
527.08	1609.91
527.44	1591.03
527.79	1576.75
528.15	1561.23
528.51	1546.42
528.86	1534.78
529.22	1525.61
529.58	1514.63
529.93	1503.54
530.29	1493.00
530.65	1482.21
531.00	1462.79
531.36	1448.65
531.71	1433.95
532.07	1420.38
532.43	1408.11
532.78	1404.32
533.14	1396.15
533.49	1389.83
533.85	1378.08
534.21	1372.05
534.56	1364.11
534.92	1353.72
535.27	1342.98
535.63	1338.39
535.98	1330.10
536.34	1323.85
536.69	1318.99
537.05	1311.94
537.41	1302.79
537.76	1294.11
538.12	1283.03
538.47	1274.82
538.83	1270.82
539.18	1269.62
539.54	1264.73
539.89	1263.59
540.25	1260.24
540.60	1255.04
540.96	1247.32
541.31	1244.79
541.67	1241.12
542.02	1235.29
542.38	1232.81
542.73	1228.15
543.09	1225.93
543.44	1224.15
543.80	1222.02
544.15	1218.11
544.51	1216.70
544.86	1208.82
545.22	1203.22
545.57	1202.24
545.93	1199.31
546.28	1196.74
546.64	1196.76
546.99	1192.69
547.35	1190.82
547.70	1187.87
548.05	1184.97
548.41	1182.88
548.76	1182.18
549.12	1175.91
549.47	1173.36
549.83	1175.00
550.18	1170.71
550.53	1167.32
550.89	1164.18
551.24	1164.46
551.60	1158.47
551.95	1156.44
552.30	1157.09
552.66	1158.33
553.01	1155.22
553.37	1153.84
553.72	1151.45
554.07	1143.21
554.43	1142.42
554.78	1139.68
555.13	1140.38
555.49	1140.75
555.84	1141.06
556.19	1138.20
556.55	1137.95
556.90	1133.66
557.26	1131.46
557.61	1131.63
557.96	1129.59
558.32	1128.30
558.67	1126.99
559.02	1126.92
559.37	1124.96
559.73	1121.70
560.08	1117.61
560.43	1118.31
560.79	1115.41
561.14	1116.44
561.49	1120.65
561.85	1120.41
562.20	1118.40
562.55	1118.28
562.90	1114.21
563.26	1110.79
563.61	1113.93
563.96	1113.91
564.32	1115.10
564.67	1118.54
565.02	1118.75
565.37	1116.62
565.73	1117.30
566.08	1115.57
566.43	1114.70
566.78	1111.43
567.14	1113.42
567.49	1111.40
567.84	1110.02
568.19	1109.18
568.54	1108.99
568.90	1105.86
569.25	1106.42
569.60	1106.93
569.95	1104.15
570.31	1107.38
570.66	1107.05
571.01	1107.26
571.36	1107.26
571.71	1107.19
572.06	1106.37
572.42	1105.58
572.77	1104.31
573.12	1105.04
573.47	1103.61
573.82	1102.35
574.18	1103.77
574.53	1103.63
574.88	1103.87
575.23	1106.46
575.58	1107.52
575.93	1105.20
576.28	1104.64
576.64	1100.94
576.99	1098.98
577.34	1098.98
577.69	1098.04
578.04	1098.67
578.39	1100.82
578.74	1102.23
579.09	1098.93
579.44	1099.89
579.80	1098.67
580.15	1097.03
580.50	1096.14
580.85	1100.57
581.20	1099.16
581.55	1100.17
581.90	1100.59
582.25	1099.89
582.60	1093.24
582.95	1094.50
583.30	1094.41
583.65	1095.04
584.00	1095.16
584.35	1096.73
584.71	1096.19
585.06	1095.25
585.41	1093.71
585.76	1095.96
586.11	1100.24
586.46	1099.49
586.81	1100.12
587.16	1102.79
587.51	1101.18
587.86	1100.17
588.21	1101.57
588.56	1099.89
588.91	1095.21
589.26	1095.96
589.61	1093.19
589.96	1085.17
590.31	1084.91
590.66	1087.09
591.01	1085.84
591.36	1087.39
591.71	1095.63
592.06	1094.57
592.41	1093.01
592.76	1091.34
593.10	1088.98
593.45	1087.37
593.80	1089.47
594.15	1088.47
594.50	1088.84
594.85	1089.71
595.20	1091.81
595.55	1089.87
595.90	1089.22
596.25	1089.78
596.60	1092.16
596.95	1090.10
597.30	1088.42
597.64	1101.32
597.99	1101.92
598.34	1102.63
598.69	1099.12
599.04	1100.54
599.39	1087.27
599.74	1088.21
600.09	1087.32
600.44	1090.01
600.78	1089.05
601.13	1090.95
601.48	1088.21
601.83	1086.22
602.18	1085.89
602.53	1088.04
602.88	1088.89
603.22	1089.50
603.57	1090.13
603.92	1090.53
604.27	1087.53
604.62	1088.09
604.97	1089.66
605.31	1089.31
605.66	1087.32
606.01	1088.51
606.36	1087.76
606.71	1087.32
607.05	1088.12
607.40	1090.06
607.75	1091.60
608.10	1091.16
608.44	1088.68
608.79	1087.62
609.14	1089.43
609.49	1089.66
609.84	1091.53
610.18	1091.91
610.53	1091.56
610.88	1088.40
611.23	1087.02
611.57	1084.25
611.92	1086.73
612.27	1085.07
612.62	1085.05
612.96	1085.70
613.31	1086.24
613.66	1083.79
614.00	1084.77
614.35	1083.08
614.70	1082.80
615.05	1081.63
615.39	1083.13
615.74	1084.30
616.09	1086.87
616.43	1088.16
616.78	1089.73
617.13	1088.86
617.47	1089.64
617.82	1090.67
618.17	1087.95
618.51	1085.28
618.86	1087.51
619.21	1086.36
619.55	1086.90
619.90	1087.86
620.25	1091.04
620.59	1088.21
620.94	1086.62
621.29	1083.04
621.63	1087.41
621.98	1089.24
622.32	1089.75
622.67	1091.74
623.02	1091.11
623.36	1087.93
623.71	1084.23
624.05	1084.93
624.40	1081.63
624.75	1085.59
625.09	1082.83
625.44	1084.53
625.78	1083.74
626.13	1085.52
626.48	1086.41
626.82	1089.52
627.17	1088.40
627.51	1088.30
627.86	1091.39
628.20	1089.94
628.55	1086.92
628.89	1086.38
629.24	1087.90
629.58	1082.36
629.93	1082.50
630.28	1085.80
630.62	1085.05
630.97	1082.38
631.31	1088.70
631.66	1090.20
632.00	1089.29
632.35	1092.30
632.69	1093.10
633.04	1089.05
633.38	1086.97
633.73	1087.39
634.07	1084.25
634.42	1082.80
634.76	1085.61
635.11	1086.55
635.45	1085.49
635.79	1086.80
636.14	1088.77
636.48	1088.58
636.83	1085.19
637.17	1084.09
637.52	1084.25
637.86	1083.53
638.21	1079.76
638.55	1081.23
638.89	1081.58
639.24	1078.26
639.58	1077.75
639.93	1080.18
640.27	1080.67
640.61	1078.54
640.96	1084.91
641.30	1086.97
641.65	1088.00
641.99	1088.30
642.33	1093.71
642.68	1093.36
643.02	1091.16
643.37	1090.53
643.71	1088.91
644.05	1085.61
644.40	1082.61
644.74	1083.95
645.08	1080.95
645.43	1082.76
645.77	1084.00
646.11	1084.53
646.46	1082.80
646.80	1084.25
647.14	1081.21
647.49	1079.76
647.83	1081.58
648.17	1085.07
648.52	1087.48
648.86	1093.19
649.20	1092.40
649.55	1087.25
649.89	1085.05
650.23	1084.53
650.57	1084.84
650.92	1087.30
651.26	1092.66
651.60	1094.01
651.95	1091.49
652.29	1088.79
652.63	1089.05
652.97	1087.02
653.32	1084.56
653.66	1086.62
654.00	1087.25
654.34	1085.87
654.69	1087.46
655.03	1088.33
655.37	1089.00
655.71	1087.88
656.05	1089.14
656.40	1086.08
656.74	1086.38
657.08	1084.07
657.42	1085.19
657.76	1084.00
658.11	1085.68
658.45	1085.19
658.79	1085.61
659.13	1082.47
659.47	1079.81
659.82	1076.23
660.16	1076.88
660.50	1079.20
660.84	1081.63
661.18	1085.19
661.52	1088.33
661.87	1088.63
662.21	1086.27
662.55	1084.67
662.89	1084.65
663.23	1081.98
663.57	1079.88
663.91	1078.52
664.25	1077.47
664.60	1076.90
664.94	1081.63
665.28	1082.45
665.62	1085.28
665.96	1085.14
666.30	1086.83
666.64	1083.71
666.98	1086.57
667.32	1086.41
667.66	1085.91
668.01	1084.21
668.35	1084.93
668.69	1083.62
669.03	1081.98
669.37	1084.84
669.71	1083.43
670.05	1082.90
670.39	1082.97
670.73	1082.90
671.07	1082.31
671.41	1082.40
671.75	1082.85
672.09	1080.70
672.43	1081.51
672.77	1081.44
673.11	1083.41
673.45	1083.46
673.79	1084.67
674.13	1086.22
674.47	1083.20
674.81	1082.94
675.15	1085.82
675.49	1087.55
675.83	1084.00
676.17	1086.64
676.51	1084.30
676.85	1079.85
677.19	1078.59
677.53	1082.22
677.87	1083.06
678.21	1083.69
678.55	1086.01
678.89	1083.95
679.23	1083.60
679.57	1086.29
679.90	1086.34
680.24	1088.40
680.58	1089.26
680.92	1088.63
681.26	1085.21
681.60	1086.03
681.94	1082.43
682.28	1083.55
682.62	1078.00
682.96	1077.75
683.29	1075.15
683.63	1075.08
683.97	1078.07
684.31	1083.79
684.65	1085.42
684.99	1087.04
685.33	1083.88
685.67	1082.57
686.00	1079.78
686.34	1074.84
686.68	1077.28
687.02	1081.89
687.36	1079.55
687.70	1078.78
688.03	1082.69
688.37	1081.14
688.71	1080.30
689.05	1079.10
689.39	1081.51
689.72	1082.90
690.06	1081.61
690.40	1081.80
690.74	1084.51
691.08	1085.94
691.41	1088.00
691.75	1091.74
692.09	1092.82
692.43	1091.91
692.76	1092.77
693.10	1093.57
693.44	1091.49
693.78	1090.03
694.11	1091.13
694.45	1089.00
694.79	1083.15
695.13	1082.38
695.46	1082.80
695.80	1079.90
696.14	1077.51
696.48	1078.87
696.81	1079.53
697.15	1077.23
697.49	1078.19
697.82	1082.94
698.16	1085.70
698.50	1086.36
698.83	1088.33
699.17	1087.69
699.51	1089.89
699.84	1085.77
700.18	1085.94
700.52	1087.83
700.85	1089.29
701.19	1086.94
701.53	1088.33
701.86	1088.02
702.20	1089.00
702.54	1086.50
702.87	1082.64
703.21	1083.69
703.55	1082.03
703.88	1080.93
704.22	1083.81
704.55	1084.25
704.89	1083.86
705.23	1085.14
705.56	1082.97
705.90	1083.34
706.23	1082.61
706.57	1084.98
706.91	1085.33
707.24	1087.02
707.58	1088.54
707.91	1091.42
708.25	1088.49
708.58	1085.84
708.92	1081.30
709.26	1078.40
709.59	1078.10
709.93	1076.65
710.26	1081.80
710.60	1086.71
710.93	1086.71
711.27	1085.89
711.60	1089.94
711.94	1086.43
712.27	1084.56
712.61	1087.23
712.94	1085.24
713.28	1082.10
713.61	1082.26
713.95	1081.47
714.28	1080.46
714.62	1080.46
714.95	1086.08
715.29	1085.10
715.62	1085.68
715.96	1083.93
716.29	1084.44
716.63	1080.51
716.96	1084.58
717.29	1085.28
717.63	1082.80
717.96	1087.04
718.30	1086.06
718.63	1085.03
718.97	1083.88
719.30	1088.33
719.63	1085.54
719.97	1084.93
720.30	1081.14
720.64	1082.24
720.97	1081.51
721.30	1081.42
721.64	1083.36
721.97	1085.89
722.31	1085.99
722.64	1084.23
722.97	1083.13
723.31	1080.56
723.64	1077.14
723.97	1075.01
724.31	1074.75
724.64	1074.24
724.98	1076.18
725.31	1079.06
725.64	1082.45
725.98	1084.37
726.31	1086.73
726.64	1085.61
726.97	1084.91
727.31	1085.05
727.64	1086.34
727.97	1086.59
728.31	1087.20
728.64	1087.79
728.97	1084.21
729.31	1083.29
729.64	1081.77
729.97	1078.24
730.30	1077.11
730.64	1078.40
730.97	1076.81
731.30	1077.91
731.63	1081.54
731.97	1083.53
732.30	1083.08
732.63	1082.61
732.96	1081.09
733.30	1082.40
733.63	1080.32
733.96	1080.81
734.29	1084.91
734.63	1085.35
734.96	1086.45
735.29	1088.09
735.62	1087.06
735.95	1083.18
736.29	1083.93
736.62	1081.63
736.95	1082.83
737.28	1083.43
737.61	1086.94
737.94	1089.31
738.28	1086.10
738.61	1084.84
738.94	1086.41
739.27	1082.94
739.60	1079.48
739.93	1081.98
740.27	1081.49
740.60	1082.45
740.93	1086.01
741.26	1087.83
741.59	1087.51
741.92	1086.92
742.25	1083.13
742.58	1080.37
742.91	1078.96
743.25	1079.69
743.58	1078.07
743.91	1082.52
744.24	1082.45
744.57	1079.67
744.90	1076.76
745.23	1077.89
745.56	1075.43
745.89	1076.20
746.22	1079.60
746.55	1082.10
746.88	1085.07
747.21	1084.74
747.54	1083.93
747.87	1081.54
748.20	1084.44
748.53	1084.30
748.87	1083.25
749.20	1082.22
749.53	1082.36
749.86	1078.57
750.19	1078.61
750.52	1078.14
750.85	1080.11
751.18	1083.22
751.51	1084.79
751.84	1082.33
752.16	1084.51
752.49	1081.09
752.82	1082.40
753.15	1081.63
753.48	1083.04
753.81	1084.67
754.14	1088.07
754.47	1083.88
754.80	1082.94
755.13	1081.56
755.46	1078.52
755.79	1078.94
756.12	1081.63
756.45	1083.69
756.78	1084.39
757.11	1085.47
757.43	1083.48
757.76	1083.18
758.09	1084.04
758.42	1083.88
758.75	1085.87
759.08	1087.86
759.41	1086.34
759.74	1084.35
760.07	1084.49
760.39	1084.51
760.72	1080.95
761.05	1079.17
761.38	1081.07
761.71	1081.49
762.04	1080.70
762.36	1082.97
762.69	1085.99
763.02	1083.27
763.35	1083.81
763.68	1080.44
