SpectraSuite Data File
++++++++++++++++++++++++++++++++++++
Date: Mon Aug 26 10:22:26 PDT 2019
User: corrico
Dark Spectrum Present: No
Reference Spectrum Present: No
Number of Sampled Component Spectra: 1
Spectrometers: USB2+H06089
Integration Time (usec): 2000 (USB2+H06089)
Spectra Averaged: 20 (USB2+H06089)
Boxcar Smoothing: 2 (USB2+H06089)
Correct for Electrical Dark: No (USB2+H06089)
Strobe/Lamp Enabled: No (USB2+H06089)
Correct for Detector Non-linearity: No (USB2+H06089)
Correct for Stray Light: No (USB2+H06089)
Number of Pixels in Processed Spectrum: 2048
>>>>>Begin Processed Spectral Data<<<<<
339.70	1031.24
340.07	1031.24
340.45	1000.11
340.82	977.24
341.19	952.95
341.57	924.72
341.94	911.69
342.31	902.04
342.69	897.38
343.06	894.81
343.43	898.37
343.81	899.66
344.18	898.79
344.55	902.81
344.93	908.85
345.30	912.06
345.67	919.53
346.04	929.64
346.42	940.15
346.79	947.80
347.16	960.02
347.54	968.35
347.91	976.78
348.28	986.42
348.65	994.91
349.03	1001.07
349.40	1009.38
349.77	1017.74
350.14	1024.24
350.52	1034.19
350.89	1043.90
351.26	1049.80
351.63	1055.02
352.01	1059.30
352.38	1061.99
352.75	1064.52
353.12	1067.03
353.50	1071.19
353.87	1074.94
354.24	1077.77
354.61	1075.87
354.98	1082.40
355.36	1083.43
355.73	1085.80
356.10	1087.41
356.47	1089.89
356.84	1087.37
357.22	1088.44
357.59	1086.83
357.96	1086.55
358.33	1087.88
358.70	1086.01
359.08	1085.54
359.45	1082.52
359.82	1082.80
360.19	1080.30
360.56	1079.01
360.94	1078.85
361.31	1080.13
361.68	1076.88
362.05	1078.82
362.42	1080.70
362.79	1078.19
363.16	1079.46
363.54	1080.32
363.91	1078.14
364.28	1077.23
364.65	1076.39
365.02	1072.92
365.39	1071.36
365.76	1072.39
366.14	1071.31
366.51	1074.59
366.88	1077.61
367.25	1076.67
367.62	1076.34
367.99	1078.14
368.36	1074.38
368.73	1072.62
369.10	1072.64
369.48	1073.95
369.85	1074.24
370.22	1074.49
370.59	1074.38
370.96	1073.72
371.33	1073.28
371.70	1073.23
372.07	1072.64
372.44	1074.28
372.81	1076.37
373.18	1076.37
373.55	1076.60
373.93	1081.40
374.30	1080.58
374.67	1081.02
375.04	1079.78
375.41	1081.98
375.78	1081.63
376.15	1080.11
376.52	1081.23
376.89	1081.96
377.26	1080.20
377.63	1076.72
378.00	1079.38
378.37	1078.21
378.74	1078.96
379.11	1078.50
379.48	1083.01
379.85	1081.84
380.22	1082.52
380.59	1082.66
380.96	1081.35
381.33	1081.40
381.70	1077.68
382.07	1077.21
382.44	1079.10
382.81	1079.67
383.18	1077.09
383.55	1083.39
383.92	1082.69
384.29	1078.99
384.66	1076.90
385.03	1077.70
385.40	1076.44
385.77	1079.48
386.14	1080.56
386.51	1086.15
386.88	1083.79
387.25	1079.36
387.62	1080.02
387.99	1079.03
388.36	1075.13
388.73	1080.06
389.10	1084.25
389.46	1081.40
389.83	1085.00
390.20	1085.66
390.57	1084.42
390.94	1082.80
391.31	1084.09
391.68	1081.66
392.05	1084.91
392.42	1086.22
392.79	1088.47
393.16	1088.23
393.53	1090.03
393.89	1087.18
394.26	1085.05
394.63	1083.39
395.00	1082.17
395.37	1080.60
395.74	1081.51
396.11	1083.55
396.48	1083.22
396.84	1084.84
397.21	1087.04
397.58	1087.83
397.95	1087.27
398.32	1088.37
398.69	1087.97
399.06	1085.33
399.42	1082.12
399.79	1080.74
400.16	1081.05
400.53	1079.76
400.90	1080.44
401.27	1085.26
401.64	1083.97
402.00	1083.88
402.37	1085.80
402.74	1089.05
403.11	1087.55
403.48	1088.35
403.84	1090.34
404.21	1091.42
404.58	1090.41
404.95	1093.31
405.32	1093.40
405.68	1094.67
406.05	1094.88
406.42	1093.83
406.79	1092.87
407.16	1095.89
407.52	1095.60
407.89	1098.51
408.26	1100.66
408.63	1096.07
408.99	1095.53
409.36	1096.45
409.73	1092.40
410.10	1091.77
410.47	1099.12
410.83	1101.67
411.20	1101.90
411.57	1104.17
411.94	1105.13
412.30	1099.40
412.67	1100.50
413.04	1101.13
413.40	1100.36
413.77	1100.57
414.14	1106.75
414.51	1102.79
414.87	1102.72
415.24	1105.93
415.61	1104.33
415.97	1100.15
416.34	1104.52
416.71	1103.21
417.08	1102.16
417.44	1106.89
417.81	1109.62
418.18	1108.10
418.54	1108.41
418.91	1110.26
419.28	1107.47
419.64	1106.75
420.01	1106.93
420.38	1109.79
420.74	1111.59
421.11	1113.11
421.48	1118.61
421.84	1118.96
422.21	1118.59
422.58	1117.40
422.94	1120.44
423.31	1120.55
423.68	1125.31
424.04	1131.27
424.41	1133.08
424.77	1134.20
425.14	1137.15
425.51	1144.33
425.87	1145.97
426.24	1151.71
426.61	1160.46
426.97	1166.36
427.34	1165.26
427.70	1172.87
428.07	1177.57
428.44	1184.43
428.80	1192.46
429.17	1204.77
429.53	1209.92
429.90	1223.52
430.27	1231.59
430.63	1238.80
431.00	1249.59
431.36	1262.77
431.73	1271.43
432.09	1284.39
432.46	1302.81
432.83	1317.44
433.19	1332.70
433.56	1353.34
433.92	1375.42
434.29	1395.76
434.65	1418.62
435.02	1441.49
435.38	1468.34
435.75	1495.65
436.11	1525.42
436.48	1561.75
436.84	1597.74
437.21	1629.88
437.57	1663.72
437.94	1705.62
438.30	1748.05
438.67	1794.25
439.03	1845.96
439.40	1901.87
439.76	1956.29
440.13	2015.34
440.49	2083.01
440.86	2146.86
441.22	2216.23
441.59	2284.62
441.95	2366.09
442.32	2450.77
442.68	2548.96
443.05	2643.47
443.41	2752.96
443.78	2850.54
444.14	2960.80
444.51	3067.83
444.87	3208.99
445.24	3343.08
445.60	3499.87
445.96	3658.94
446.33	3835.65
446.69	3997.87
447.06	4179.31
447.42	4357.16
447.79	4537.13
448.15	4764.44
448.51	4994.07
448.88	5248.35
449.24	5499.00
449.61	5781.76
449.97	6043.52
450.33	6331.38
450.70	6599.51
451.06	6925.20
451.43	7223.36
451.79	7584.46
452.15	7976.73
452.52	8422.53
452.88	8883.06
453.24	9427.30
453.61	9995.70
453.97	10560.94
454.34	11109.73
454.70	11746.26
455.06	12387.03
455.43	13014.50
455.79	13612.39
456.15	14327.80
456.52	14994.55
456.88	15755.48
457.24	16481.56
457.61	17321.84
457.97	18083.38
458.33	18870.73
458.70	19643.98
459.06	20406.55
459.42	21247.73
459.79	22035.35
460.15	22924.87
460.51	23778.74
460.88	24725.65
461.24	25538.97
461.60	26491.84
461.96	27362.29
462.33	28210.76
462.69	28989.81
463.05	29816.25
463.42	30535.35
463.78	31181.55
464.14	31692.16
464.50	32273.62
464.87	32772.44
465.23	33115.75
465.59	33467.16
465.95	33827.15
466.32	34075.58
466.68	34272.82
467.04	34430.66
467.40	34572.94
467.77	34701.27
468.13	34694.02
468.49	34589.23
468.85	34520.07
469.22	34334.21
469.58	33990.83
469.94	33738.89
470.30	33450.16
470.66	33032.43
471.03	32455.13
471.39	32069.44
471.75	31445.73
472.11	30856.20
472.47	30491.31
472.84	30196.52
473.20	29723.75
473.56	29456.84
473.92	29026.08
474.28	28510.11
474.65	27995.73
475.01	27503.26
475.37	26927.00
475.73	26477.12
476.09	25939.64
476.45	25421.49
476.81	24911.87
477.18	24373.94
477.54	23927.37
477.90	23592.53
478.26	23166.79
478.62	22821.70
478.98	22533.58
479.34	22182.80
479.71	21746.29
480.07	21421.24
480.43	21059.04
480.79	20665.22
481.15	20305.20
481.51	20012.89
481.87	19741.46
482.23	19442.57
482.59	19191.08
482.96	18922.01
483.32	18613.79
483.68	18244.80
484.04	17917.60
484.40	17551.42
484.76	17183.09
485.12	16809.00
485.48	16490.64
485.84	16139.70
486.20	15773.50
486.56	15418.93
486.92	15111.13
487.28	14759.91
487.64	14398.58
488.00	14081.18
488.37	13749.80
488.73	13392.69
489.09	13043.67
489.45	12736.24
489.81	12423.61
490.17	12139.49
490.53	11855.05
490.89	11558.31
491.25	11255.17
491.61	10954.06
491.97	10630.57
492.33	10298.24
492.69	9997.60
493.05	9696.07
493.41	9401.98
493.77	9118.35
494.13	8877.79
494.49	8622.70
494.85	8389.28
495.21	8167.81
495.57	7962.78
495.93	7740.25
496.29	7542.89
496.64	7350.24
497.00	7157.55
497.36	6963.12
497.72	6775.41
498.08	6594.62
498.44	6411.78
498.80	6238.11
499.16	6078.14
499.52	5934.64
499.88	5798.33
500.24	5686.24
500.60	5573.96
500.96	5451.67
501.32	5334.13
501.68	5226.11
502.03	5090.31
502.39	4960.25
502.75	4827.99
503.11	4700.22
503.47	4570.08
503.83	4452.33
504.19	4332.10
504.55	4234.52
504.91	4139.17
505.26	4044.61
505.62	3959.25
505.98	3869.77
506.34	3776.97
506.70	3687.28
507.06	3597.92
507.42	3508.44
507.78	3434.69
508.13	3354.64
508.49	3278.13
508.85	3210.42
509.21	3148.77
509.57	3078.93
509.93	3018.21
510.28	2950.74
510.64	2884.24
511.00	2820.06
511.36	2760.57
511.72	2704.44
512.07	2654.94
512.43	2605.86
512.79	2553.34
513.15	2504.30
513.51	2451.90
513.86	2404.17
514.22	2362.93
514.58	2323.38
514.94	2290.75
515.30	2257.07
515.65	2224.54
516.01	2193.22
516.37	2159.85
516.73	2128.93
517.08	2104.12
517.44	2073.90
517.80	2037.86
518.16	2013.16
518.51	1982.95
518.87	1950.63
519.23	1925.11
519.59	1901.26
519.94	1872.97
520.30	1851.83
520.66	1826.16
521.01	1806.03
521.37	1786.34
521.73	1765.75
522.09	1740.75
522.44	1723.24
522.80	1699.32
523.16	1682.24
523.51	1658.64
523.87	1639.59
524.23	1619.84
524.58	1600.51
524.94	1581.24
525.30	1569.68
525.65	1555.59
526.01	1543.04
526.37	1531.81
526.72	1522.00
527.08	1509.74
527.44	1496.63
527.79	1485.35
528.15	1473.58
528.51	1457.15
528.86	1444.39
529.22	1429.79
529.58	1414.10
529.93	1403.17
530.29	1395.15
530.65	1386.39
531.00	1380.47
531.36	1373.75
531.71	1365.07
532.07	1353.44
532.43	1347.14
532.78	1339.30
533.14	1333.52
533.49	1325.38
533.85	1319.71
534.21	1306.30
534.56	1299.84
534.92	1291.58
535.27	1286.94
535.63	1284.74
535.98	1284.23
536.34	1279.20
536.69	1273.35
537.05	1264.47
537.41	1252.91
537.76	1246.57
538.12	1239.83
538.47	1233.74
538.83	1233.25
539.18	1231.26
539.54	1224.50
539.89	1222.37
540.25	1219.44
540.60	1213.15
540.96	1209.05
541.31	1207.39
541.67	1206.03
542.02	1201.21
542.38	1197.18
542.73	1194.31
543.09	1194.87
543.44	1190.51
543.80	1190.16
544.15	1189.88
544.51	1190.02
544.86	1187.17
545.22	1183.52
545.57	1182.65
545.93	1178.97
546.28	1174.57
546.64	1165.26
546.99	1163.57
547.35	1160.13
547.70	1157.07
548.05	1155.15
548.41	1157.39
548.76	1153.28
549.12	1153.16
549.47	1151.52
549.83	1148.22
550.18	1145.53
550.53	1143.45
550.89	1137.97
551.24	1137.15
551.60	1138.04
551.95	1135.53
552.30	1136.40
552.66	1137.01
553.01	1137.36
553.37	1136.89
553.72	1137.06
554.07	1136.40
554.43	1136.52
554.78	1133.52
555.13	1130.90
555.49	1128.72
555.84	1128.91
556.19	1124.79
556.55	1124.51
556.90	1123.22
557.26	1121.65
557.61	1119.22
557.96	1120.91
558.32	1118.94
558.67	1118.54
559.02	1120.91
559.37	1121.73
559.73	1122.15
560.08	1123.95
560.43	1120.60
560.79	1115.01
561.14	1112.36
561.49	1112.29
561.85	1109.62
562.20	1110.30
562.55	1112.85
562.90	1110.75
563.26	1109.41
563.61	1110.12
563.96	1112.71
564.32	1112.22
564.67	1111.54
565.02	1108.10
565.37	1105.06
565.73	1101.95
566.08	1103.38
566.43	1104.64
566.78	1107.85
567.14	1108.34
567.49	1109.02
567.84	1109.20
568.19	1108.62
568.54	1104.76
568.90	1104.17
569.25	1101.71
569.60	1098.48
569.95	1098.46
570.31	1098.72
570.66	1097.95
571.01	1098.44
571.36	1099.28
571.71	1098.32
572.06	1098.46
572.42	1100.89
572.77	1101.60
573.12	1100.22
573.47	1099.98
573.82	1100.12
574.18	1098.74
574.53	1099.40
574.88	1100.43
575.23	1098.06
575.58	1097.85
575.93	1094.65
576.28	1091.79
576.64	1089.47
576.99	1091.95
577.34	1088.07
577.69	1085.59
578.04	1084.77
578.39	1084.98
578.74	1082.76
579.09	1086.80
579.44	1091.02
579.80	1091.93
580.15	1094.29
580.50	1096.03
580.85	1093.47
581.20	1093.36
581.55	1095.35
581.90	1093.40
582.25	1090.85
582.60	1089.64
582.95	1088.37
583.30	1086.22
583.65	1084.89
584.00	1086.52
584.35	1086.90
584.71	1088.68
585.06	1089.07
585.41	1091.44
585.76	1090.43
586.11	1095.28
586.46	1093.87
586.81	1096.49
587.16	1096.10
587.51	1095.75
587.86	1093.85
588.21	1094.69
588.56	1091.09
588.91	1089.24
589.26	1090.90
589.61	1089.52
589.96	1088.96
590.31	1092.28
590.66	1091.72
591.01	1090.32
591.36	1087.51
591.71	1086.43
592.06	1082.24
592.41	1083.36
592.76	1083.13
593.10	1083.29
593.45	1084.14
593.80	1084.86
594.15	1084.42
594.50	1088.28
594.85	1089.40
595.20	1090.34
595.55	1090.92
595.90	1090.88
596.25	1087.16
596.60	1089.61
596.95	1089.80
597.30	1087.51
597.64	1097.69
597.99	1099.07
598.34	1095.00
598.69	1091.60
599.04	1092.47
599.39	1082.85
599.74	1081.09
600.09	1083.71
600.44	1086.80
600.78	1086.94
601.13	1086.94
601.48	1085.12
601.83	1082.78
602.18	1082.24
602.53	1083.04
602.88	1081.58
603.22	1086.22
603.57	1088.91
603.92	1089.03
604.27	1088.96
604.62	1088.42
604.97	1083.29
605.31	1081.19
605.66	1080.95
606.01	1080.79
606.36	1081.66
606.71	1085.17
607.05	1087.06
607.40	1084.77
607.75	1083.50
608.10	1082.87
608.44	1081.68
608.79	1079.41
609.14	1077.82
609.49	1078.59
609.84	1078.26
610.18	1077.35
610.53	1079.15
610.88	1081.89
611.23	1079.99
611.57	1080.04
611.92	1082.57
612.27	1078.92
612.62	1080.44
612.96	1081.66
613.31	1083.57
613.66	1082.03
614.00	1084.84
614.35	1082.66
614.70	1080.06
615.05	1078.92
615.39	1080.23
615.74	1080.91
616.09	1082.40
616.43	1089.57
616.78	1089.17
617.13	1087.93
617.47	1085.99
617.82	1087.02
618.17	1084.86
618.51	1085.59
618.86	1083.29
619.21	1082.05
619.55	1079.78
619.90	1079.38
620.25	1078.05
620.59	1080.53
620.94	1083.25
621.29	1086.85
621.63	1084.81
621.98	1085.87
622.32	1084.44
622.67	1086.24
623.02	1081.70
623.36	1081.16
623.71	1084.32
624.05	1086.38
624.40	1084.35
624.75	1086.13
625.09	1090.08
625.44	1086.83
625.78	1086.17
626.13	1086.15
626.48	1084.11
626.82	1082.52
627.17	1084.42
627.51	1083.43
627.86	1084.23
628.20	1088.16
628.55	1087.46
628.89	1085.82
629.24	1087.55
629.58	1086.55
629.93	1081.58
630.28	1080.53
630.62	1082.61
630.97	1081.02
631.31	1080.11
631.66	1083.08
632.00	1086.43
632.35	1083.53
632.69	1083.64
633.04	1085.19
633.38	1084.89
633.73	1084.58
634.07	1085.26
634.42	1086.94
634.76	1084.65
635.11	1086.13
635.45	1084.25
635.79	1082.03
636.14	1081.58
636.48	1081.28
636.83	1078.73
637.17	1080.32
637.52	1082.69
637.86	1082.36
638.21	1083.18
638.55	1082.92
638.89	1078.61
639.24	1078.43
639.58	1076.53
639.93	1079.15
640.27	1078.66
640.61	1082.50
640.96	1080.84
641.30	1079.24
641.65	1075.15
641.99	1076.27
642.33	1074.80
642.68	1078.00
643.02	1080.23
643.37	1083.36
643.71	1083.20
644.05	1084.96
644.40	1083.64
644.74	1082.24
645.08	1081.37
645.43	1082.43
645.77	1080.95
646.11	1080.51
646.46	1082.66
646.80	1081.63
647.14	1079.17
647.49	1081.47
647.83	1081.37
648.17	1082.15
648.52	1082.10
648.86	1082.40
649.20	1080.79
649.55	1078.99
649.89	1078.75
650.23	1080.25
650.57	1082.45
650.92	1082.94
651.26	1083.76
651.60	1080.34
651.95	1078.43
652.29	1074.47
652.63	1070.89
652.97	1071.29
653.32	1072.78
653.66	1074.33
654.00	1077.40
654.34	1080.44
654.69	1079.55
655.03	1079.20
655.37	1079.74
655.71	1078.94
656.05	1073.95
656.40	1074.49
656.74	1075.38
657.08	1075.24
657.42	1076.32
657.76	1080.67
658.11	1079.08
658.45	1083.64
658.79	1084.21
659.13	1084.30
659.47	1082.29
659.82	1085.38
660.16	1080.70
660.50	1079.27
660.84	1076.69
661.18	1079.17
661.52	1079.46
661.87	1080.72
662.21	1082.78
662.55	1087.16
662.89	1088.12
663.23	1088.19
663.57	1083.95
663.91	1083.46
664.25	1081.96
664.60	1080.16
664.94	1078.38
665.28	1084.02
665.62	1083.20
665.96	1079.83
666.30	1078.31
666.64	1081.89
666.98	1079.69
667.32	1078.40
667.66	1079.29
668.01	1081.09
668.35	1077.79
668.69	1077.93
669.03	1078.21
669.37	1081.14
669.71	1082.19
670.05	1081.80
670.39	1079.83
670.73	1082.31
671.07	1079.41
671.41	1079.01
671.75	1081.23
672.09	1083.32
672.43	1081.14
672.77	1079.95
673.11	1080.77
673.45	1079.22
673.79	1076.58
674.13	1075.59
674.47	1075.90
674.81	1075.64
675.15	1076.15
675.49	1080.04
675.83	1081.33
676.17	1082.97
676.51	1079.10
676.85	1076.93
677.19	1078.43
677.53	1078.36
677.87	1079.13
678.21	1082.59
678.55	1085.10
678.89	1081.94
679.23	1080.41
679.57	1079.10
679.90	1077.02
680.24	1076.37
680.58	1076.20
680.92	1077.77
681.26	1078.03
681.60	1081.66
681.94	1084.11
682.28	1083.41
682.62	1084.77
682.96	1086.45
683.29	1083.11
683.63	1077.47
683.97	1074.47
684.31	1070.02
684.65	1070.42
684.99	1070.26
685.33	1075.55
685.67	1079.62
686.00	1080.98
686.34	1079.15
686.68	1079.60
687.02	1077.40
687.36	1078.66
687.70	1082.73
688.03	1084.70
688.37	1084.51
688.71	1085.68
689.05	1084.96
689.39	1082.36
689.72	1078.89
690.06	1079.50
690.40	1079.81
690.74	1079.43
691.08	1079.97
691.41	1079.90
691.75	1078.71
692.09	1076.72
692.43	1078.94
692.76	1081.19
693.10	1085.40
693.44	1087.20
693.78	1087.48
694.11	1085.07
694.45	1081.33
694.79	1080.18
695.13	1078.03
695.46	1076.76
695.80	1074.42
696.14	1075.36
696.48	1073.65
696.81	1075.03
697.15	1074.40
697.49	1076.95
697.82	1078.59
698.16	1079.06
698.50	1079.36
698.83	1081.26
699.17	1081.00
699.51	1079.13
699.84	1078.75
700.18	1081.30
700.52	1082.43
700.85	1082.90
701.19	1085.82
701.53	1091.13
701.86	1089.24
702.20	1085.33
702.54	1084.18
702.87	1080.79
703.21	1075.38
703.55	1072.48
703.88	1073.16
704.22	1071.29
704.55	1071.99
704.89	1075.50
705.23	1075.17
705.56	1076.32
705.90	1077.58
706.23	1077.33
706.57	1074.40
706.91	1074.63
707.24	1075.94
707.58	1075.71
707.91	1077.09
708.25	1078.17
708.58	1080.41
708.92	1081.35
709.26	1081.84
709.59	1082.90
709.93	1085.24
710.26	1083.29
710.60	1081.91
710.93	1084.07
711.27	1082.40
711.60	1079.48
711.94	1079.81
712.27	1079.15
712.61	1078.00
712.94	1075.64
713.28	1075.52
713.61	1077.56
713.95	1079.97
714.28	1080.06
714.62	1081.49
714.95	1081.09
715.29	1080.04
715.62	1078.94
715.96	1076.60
716.29	1077.09
716.63	1076.08
716.96	1077.72
717.29	1076.23
717.63	1076.90
717.96	1076.39
718.30	1078.89
718.63	1077.58
718.97	1079.69
719.30	1078.05
719.63	1078.89
719.97	1079.10
720.30	1081.16
720.64	1078.24
720.97	1083.04
721.30	1083.15
721.64	1083.71
721.97	1080.23
722.31	1082.12
722.64	1079.27
722.97	1080.72
723.31	1078.96
723.64	1081.80
723.97	1080.77
724.31	1079.27
724.64	1078.78
724.98	1081.16
725.31	1079.76
725.64	1079.99
725.98	1081.80
726.31	1077.49
726.64	1078.10
726.97	1075.64
727.31	1076.83
727.64	1075.99
727.97	1078.17
728.31	1078.54
728.64	1080.25
728.97	1077.79
729.31	1080.23
729.64	1080.93
729.97	1076.41
730.30	1076.41
730.64	1077.54
730.97	1075.36
731.30	1076.37
731.63	1078.52
731.97	1078.57
732.30	1079.88
732.63	1079.78
732.96	1079.81
733.30	1079.76
733.63	1082.43
733.96	1080.37
734.29	1081.77
734.63	1080.51
734.96	1079.64
735.29	1075.59
735.62	1075.78
735.95	1074.28
736.29	1072.43
736.62	1073.67
736.95	1075.55
737.28	1075.73
737.61	1077.65
737.94	1078.68
738.28	1077.11
738.61	1075.83
738.94	1077.86
739.27	1075.41
739.60	1076.48
739.93	1077.23
740.27	1076.44
740.60	1077.63
740.93	1080.77
741.26	1080.98
741.59	1079.78
741.92	1082.80
742.25	1081.47
742.58	1080.88
742.91	1077.98
743.25	1077.70
743.58	1076.30
743.91	1077.07
744.24	1077.68
744.57	1076.97
744.90	1076.65
745.23	1075.92
745.56	1075.90
745.89	1073.35
746.22	1076.58
746.55	1077.33
746.88	1077.40
747.21	1076.83
747.54	1076.20
747.87	1074.75
748.20	1077.21
748.53	1080.06
748.87	1077.63
749.20	1080.39
749.53	1081.40
749.86	1079.81
750.19	1080.06
750.52	1080.16
750.85	1081.80
751.18	1082.92
751.51	1082.90
751.84	1079.60
752.16	1083.04
752.49	1077.09
752.82	1074.07
753.15	1072.85
753.48	1075.80
753.81	1072.74
754.14	1078.10
754.47	1082.08
754.80	1084.89
755.13	1083.39
755.46	1083.11
755.79	1081.82
756.12	1083.64
756.45	1082.05
756.78	1080.46
757.11	1079.48
757.43	1080.56
757.76	1079.62
758.09	1080.25
758.42	1082.12
758.75	1084.23
759.08	1082.78
759.41	1082.10
759.74	1080.13
760.07	1081.42
760.39	1081.09
760.72	1079.88
761.05	1074.87
761.38	1078.14
761.71	1075.36
762.04	1075.94
762.36	1078.24
762.69	1083.01
763.02	1080.09
763.35	1080.44
763.68	1078.82
764.01	1079.08
