SpectraSuite Data File
++++++++++++++++++++++++++++++++++++
Date: Mon Aug 26 10:21:59 PDT 2019
User: corrico
Dark Spectrum Present: No
Reference Spectrum Present: No
Number of Sampled Component Spectra: 1
Spectrometers: USB2+H06089
Integration Time (usec): 2000 (USB2+H06089)
Spectra Averaged: 20 (USB2+H06089)
Boxcar Smoothing: 2 (USB2+H06089)
Correct for Electrical Dark: No (USB2+H06089)
Strobe/Lamp Enabled: No (USB2+H06089)
Correct for Detector Non-linearity: No (USB2+H06089)
Correct for Stray Light: No (USB2+H06089)
Number of Pixels in Processed Spectrum: 2048
>>>>>Begin Processed Spectral Data<<<<<
339.70	1039.55
340.07	1039.55
340.45	1001.02
340.82	977.38
341.19	946.40
341.57	920.70
341.94	909.56
342.31	904.29
342.69	899.80
343.06	903.17
343.43	900.87
343.81	903.59
344.18	903.28
344.55	907.05
344.93	909.42
345.30	916.55
345.67	920.06
346.04	925.80
346.42	931.79
346.79	941.01
347.16	946.86
347.54	955.73
347.91	966.41
348.28	978.41
348.65	990.00
349.03	1004.14
349.40	1015.42
349.77	1027.17
350.14	1033.63
350.52	1039.29
350.89	1040.91
351.26	1046.62
351.63	1047.20
352.01	1051.60
352.38	1057.92
352.75	1064.01
353.12	1068.64
353.50	1073.35
353.87	1077.35
354.24	1075.52
354.61	1076.55
354.98	1076.60
355.36	1075.64
355.73	1073.60
356.10	1077.02
356.47	1077.79
356.84	1077.04
357.22	1080.84
357.59	1081.73
357.96	1080.60
358.33	1081.66
358.70	1080.98
359.08	1078.28
359.45	1076.34
359.82	1072.92
360.19	1071.33
360.56	1074.10
360.94	1074.24
361.31	1077.68
361.68	1076.15
362.05	1074.07
362.42	1070.68
362.79	1073.46
363.16	1071.73
363.54	1073.56
363.91	1075.01
364.28	1077.30
364.65	1071.71
365.02	1072.08
365.39	1074.61
365.76	1076.39
366.14	1073.95
366.51	1076.93
366.88	1076.44
367.25	1075.76
367.62	1069.44
367.99	1069.20
368.36	1068.20
368.73	1067.47
369.10	1067.28
369.48	1071.68
369.85	1072.67
370.22	1074.66
370.59	1076.18
370.96	1076.69
371.33	1075.01
371.70	1073.30
372.07	1069.81
372.44	1065.72
372.81	1065.62
373.18	1063.09
373.55	1064.92
373.93	1065.97
374.30	1068.52
374.67	1069.98
375.04	1074.17
375.41	1073.23
375.78	1072.90
376.15	1072.41
376.52	1069.51
376.89	1070.61
377.26	1072.71
377.63	1073.37
378.00	1074.14
378.37	1075.92
378.74	1075.17
379.11	1072.76
379.48	1072.95
379.85	1074.26
380.22	1073.04
380.59	1072.04
380.96	1075.10
381.33	1075.45
381.70	1072.32
382.07	1073.88
382.44	1073.32
382.81	1069.44
383.18	1071.36
383.55	1073.46
383.92	1071.22
384.29	1071.40
384.66	1073.70
385.03	1070.72
385.40	1071.82
385.77	1076.15
386.14	1078.28
386.51	1080.20
386.88	1082.08
387.25	1083.39
387.62	1081.98
387.99	1080.77
388.36	1077.00
388.73	1074.68
389.10	1072.39
389.46	1069.25
389.83	1071.80
390.20	1072.04
390.57	1072.46
390.94	1076.32
391.31	1079.50
391.68	1077.28
392.05	1079.15
392.42	1083.06
392.79	1080.44
393.16	1077.91
393.53	1081.00
393.89	1080.72
394.26	1081.16
394.63	1079.85
395.00	1083.67
395.37	1082.43
395.74	1081.98
396.11	1078.89
396.48	1082.33
396.84	1081.58
397.21	1079.92
397.58	1081.58
397.95	1083.29
398.32	1082.64
398.69	1083.43
399.06	1083.27
399.42	1082.73
399.79	1083.97
400.16	1081.47
400.53	1082.73
400.90	1082.54
401.27	1084.96
401.64	1083.04
402.00	1084.21
402.37	1082.59
402.74	1085.52
403.11	1084.86
403.48	1085.59
403.84	1084.67
404.21	1083.22
404.58	1080.74
404.95	1081.47
405.32	1082.85
405.68	1083.04
406.05	1084.44
406.42	1086.62
406.79	1086.45
407.16	1085.19
407.52	1087.11
407.89	1088.28
408.26	1087.93
408.63	1089.17
408.99	1090.06
409.36	1089.29
409.73	1089.45
410.10	1088.42
410.47	1085.75
410.83	1085.66
411.20	1086.03
411.57	1085.96
411.94	1084.84
412.30	1086.15
412.67	1085.99
413.04	1085.70
413.40	1084.46
413.77	1084.91
414.14	1085.45
414.51	1086.50
414.87	1087.58
415.24	1090.29
415.61	1091.25
415.97	1088.98
416.34	1088.93
416.71	1091.02
417.08	1090.81
417.44	1090.10
417.81	1093.22
418.18	1095.04
418.54	1093.85
418.91	1095.84
419.28	1102.88
419.64	1105.90
420.01	1106.30
420.38	1110.79
420.74	1109.51
421.11	1108.06
421.48	1104.66
421.84	1104.92
422.21	1104.45
422.58	1103.75
422.94	1105.41
423.31	1108.10
423.68	1111.97
424.04	1111.97
424.41	1115.50
424.77	1116.41
425.14	1118.33
425.51	1119.92
425.87	1126.24
426.24	1128.14
426.61	1130.29
426.97	1135.44
427.34	1137.20
427.70	1135.67
428.07	1144.38
428.44	1148.92
428.80	1155.03
429.17	1161.14
429.53	1169.75
429.90	1175.35
430.27	1184.52
430.63	1192.22
431.00	1202.57
431.36	1210.92
431.73	1218.95
432.09	1226.56
432.46	1235.78
432.83	1242.61
433.19	1251.67
433.56	1262.58
433.92	1279.78
434.29	1292.44
434.65	1311.26
435.02	1330.78
435.38	1349.74
435.75	1363.48
436.11	1382.02
436.48	1401.89
436.84	1425.08
437.21	1447.90
437.57	1475.31
437.94	1506.25
438.30	1534.17
438.67	1563.29
439.03	1598.40
439.40	1635.80
439.76	1675.45
440.13	1720.64
440.49	1769.63
440.86	1819.53
441.22	1870.09
441.59	1919.47
441.95	1976.07
442.32	2032.80
442.68	2096.11
443.05	2162.75
443.41	2236.66
443.78	2308.38
444.14	2383.62
444.51	2451.62
444.87	2533.58
445.24	2615.41
445.60	2710.55
445.96	2803.47
446.33	2922.79
446.69	3033.59
447.06	3153.17
447.42	3267.67
447.79	3392.98
448.15	3529.50
448.51	3671.50
448.88	3831.97
449.24	3992.11
449.61	4190.96
449.97	4390.87
450.33	4601.96
450.70	4800.67
451.06	5038.73
451.43	5236.48
451.79	5468.92
452.15	5722.54
452.52	6004.13
452.88	6284.90
453.24	6625.35
453.61	6984.21
453.97	7344.48
454.34	7695.96
454.70	8103.75
455.06	8486.74
455.43	8856.47
455.79	9196.48
456.15	9604.58
456.52	9982.36
456.88	10472.54
457.24	10970.18
457.61	11592.88
457.97	12183.17
458.33	12802.17
458.70	13376.72
459.06	13920.34
459.42	14473.40
459.79	14977.04
460.15	15536.31
460.51	16044.70
460.88	16615.67
461.24	17097.43
461.60	17648.27
461.96	18116.71
462.33	18601.48
462.69	19069.84
463.05	19627.76
463.42	20160.77
463.78	20660.75
464.14	21072.45
464.50	21504.84
464.87	21830.64
465.23	22018.00
465.59	22275.07
465.95	22509.17
466.32	22639.81
466.68	22753.99
467.04	22872.46
467.40	22890.37
467.77	22914.87
468.13	22878.22
468.49	22728.15
468.85	22593.26
469.22	22461.91
469.58	22281.55
469.94	22150.97
470.30	22007.50
470.66	21762.89
471.03	21437.81
471.39	21184.54
471.75	20747.98
472.11	20351.12
472.47	20101.55
472.84	19794.78
473.20	19410.27
473.56	19164.26
473.92	18771.66
474.28	18308.77
474.65	17933.02
475.01	17548.42
475.37	17121.46
475.73	16828.76
476.09	16535.84
476.45	16239.10
476.81	15976.66
477.18	15724.89
477.54	15518.90
477.90	15337.25
478.26	15089.20
478.62	14880.92
478.98	14739.69
479.34	14571.33
479.71	14345.94
480.07	14131.57
480.43	13882.54
480.79	13550.51
481.15	13230.23
481.51	12980.56
481.87	12809.78
482.23	12623.59
482.59	12445.12
482.96	12249.97
483.32	12046.22
483.68	11790.21
484.04	11573.20
484.40	11381.77
484.76	11189.56
485.12	10987.69
485.48	10823.69
485.84	10635.11
486.20	10442.86
486.56	10243.14
486.92	10060.39
487.28	9841.37
487.64	9616.18
488.00	9411.32
488.37	9215.23
488.73	9007.46
489.09	8803.71
489.45	8620.15
489.81	8398.26
490.17	8159.48
490.53	7920.51
490.89	7676.98
491.25	7417.25
491.61	7190.66
491.97	6998.72
492.33	6815.01
492.69	6649.42
493.05	6502.92
493.41	6364.95
493.77	6217.47
494.13	6064.82
494.49	5913.29
494.85	5770.99
495.21	5629.69
495.57	5497.15
495.93	5373.45
496.29	5242.00
496.64	5109.13
497.00	4966.76
497.36	4845.99
497.72	4731.49
498.08	4635.08
498.44	4535.86
498.80	4445.92
499.16	4333.43
499.52	4217.69
499.88	4101.60
500.24	3982.35
500.60	3874.03
500.96	3775.71
501.32	3690.86
501.68	3611.35
502.03	3544.02
502.39	3477.76
502.75	3411.40
503.11	3345.80
503.47	3286.72
503.83	3222.87
504.19	3157.31
504.55	3100.41
504.91	3033.24
505.26	2966.96
505.62	2905.28
505.98	2843.56
506.34	2778.05
506.70	2725.02
507.06	2664.86
507.42	2610.42
507.78	2557.11
508.13	2511.79
508.49	2458.90
508.85	2424.89
509.21	2387.32
509.57	2348.80
509.93	2308.80
510.28	2277.58
510.64	2234.46
511.00	2194.21
511.36	2155.00
511.72	2119.17
512.07	2081.32
512.43	2049.30
512.79	2015.06
513.15	1982.74
513.51	1951.16
513.86	1925.09
514.22	1895.72
514.58	1870.49
514.94	1846.59
515.30	1825.48
515.65	1802.14
516.01	1780.59
516.37	1759.22
516.73	1742.95
517.08	1725.05
517.44	1704.96
517.80	1685.98
518.16	1664.64
518.51	1641.96
518.87	1623.18
519.23	1606.92
519.59	1590.25
519.94	1575.44
520.30	1562.05
520.66	1543.44
521.01	1524.32
521.37	1515.66
521.73	1501.45
522.09	1485.44
522.44	1473.16
522.80	1462.81
523.16	1448.46
523.51	1438.68
523.87	1432.78
524.23	1424.85
524.58	1417.17
524.94	1405.63
525.30	1397.79
525.65	1387.12
526.01	1377.41
526.37	1364.81
526.72	1356.93
527.08	1346.00
527.44	1336.26
527.79	1322.47
528.15	1316.72
528.51	1308.36
528.86	1303.82
529.22	1297.27
529.58	1295.16
529.93	1289.68
530.29	1285.19
530.65	1277.91
531.00	1273.16
531.36	1267.10
531.71	1259.51
532.07	1252.47
532.43	1244.72
532.78	1239.88
533.14	1235.62
533.49	1231.00
533.85	1229.30
534.21	1229.34
534.56	1225.36
534.92	1221.67
535.27	1222.13
535.63	1215.60
535.98	1210.36
536.34	1204.25
536.69	1199.81
537.05	1194.02
537.41	1191.26
537.76	1188.62
538.12	1184.43
538.47	1182.77
538.83	1180.24
539.18	1178.37
539.54	1171.30
539.89	1172.63
540.25	1168.56
540.60	1168.28
540.96	1165.56
541.31	1168.70
541.67	1164.95
542.02	1164.25
542.38	1159.08
542.73	1158.61
543.09	1154.52
543.44	1149.34
543.80	1144.92
544.15	1144.12
544.51	1140.66
544.86	1139.26
545.22	1140.33
545.57	1143.38
545.93	1139.89
546.28	1137.22
546.64	1138.27
546.99	1137.66
547.35	1134.20
547.70	1130.99
548.05	1129.87
548.41	1125.91
548.76	1121.47
549.12	1117.68
549.47	1119.45
549.83	1119.38
550.18	1119.71
550.53	1123.60
550.89	1125.82
551.24	1123.81
551.60	1122.19
551.95	1117.75
552.30	1113.86
552.66	1113.04
553.01	1111.85
553.37	1116.32
553.72	1117.63
554.07	1119.31
554.43	1118.66
554.78	1118.38
555.13	1110.61
555.49	1110.96
555.84	1107.31
556.19	1104.83
556.55	1108.15
556.90	1115.05
557.26	1113.93
557.61	1114.09
557.96	1113.93
558.32	1108.27
558.67	1103.96
559.02	1101.81
559.37	1102.13
559.73	1100.43
560.08	1102.56
560.43	1100.92
560.79	1104.03
561.14	1103.02
561.49	1103.00
561.85	1098.90
562.20	1094.88
562.55	1087.39
562.90	1088.37
563.26	1087.62
563.61	1092.23
563.96	1092.40
564.32	1094.62
564.67	1093.19
565.02	1090.41
565.37	1088.96
565.73	1092.09
566.08	1091.09
566.43	1088.70
566.78	1092.66
567.14	1091.42
567.49	1088.56
567.84	1091.58
568.19	1092.80
568.54	1091.44
568.90	1091.32
569.25	1093.03
569.60	1091.20
569.95	1093.73
570.31	1095.89
570.66	1094.46
571.01	1093.80
571.36	1092.84
571.71	1093.64
572.06	1087.53
572.42	1087.48
572.77	1085.19
573.12	1087.25
573.47	1081.84
573.82	1085.10
574.18	1086.66
574.53	1088.19
574.88	1086.01
575.23	1085.35
575.58	1085.63
575.93	1082.36
576.28	1083.20
576.64	1083.25
576.99	1087.34
577.34	1088.84
577.69	1091.79
578.04	1090.55
578.39	1090.85
578.74	1088.91
579.09	1085.94
579.44	1086.27
579.80	1087.41
580.15	1087.74
580.50	1087.34
580.85	1086.48
581.20	1087.76
581.55	1084.23
581.90	1083.90
582.25	1082.12
582.60	1084.91
582.95	1080.25
583.30	1080.77
583.65	1082.80
584.00	1084.58
584.35	1083.41
584.71	1088.58
585.06	1091.63
585.41	1087.67
585.76	1086.17
586.11	1085.99
586.46	1081.80
586.81	1080.13
587.16	1082.31
587.51	1082.94
587.86	1084.56
588.21	1085.59
588.56	1086.01
588.91	1087.23
589.26	1090.57
589.61	1086.97
589.96	1087.23
590.31	1087.88
590.66	1084.93
591.01	1083.62
591.36	1082.94
591.71	1082.01
592.06	1081.89
592.41	1083.43
592.76	1081.33
593.10	1085.99
593.45	1086.45
593.80	1088.09
594.15	1086.94
594.50	1087.11
594.85	1085.31
595.20	1084.23
595.55	1083.53
595.90	1081.75
596.25	1082.73
596.60	1084.09
596.95	1084.56
597.30	1082.57
597.64	1092.91
597.99	1092.12
598.34	1088.09
598.69	1087.69
599.04	1083.39
599.39	1076.72
599.74	1074.49
600.09	1076.53
600.44	1077.79
600.78	1081.19
601.13	1081.00
601.48	1083.95
601.83	1081.26
602.18	1081.23
602.53	1084.21
602.88	1086.34
603.22	1086.83
603.57	1087.81
603.92	1087.39
604.27	1083.53
604.62	1081.26
604.97	1078.07
605.31	1081.14
605.66	1078.40
606.01	1078.40
606.36	1077.16
606.71	1080.06
607.05	1078.96
607.40	1081.40
607.75	1083.50
608.10	1081.94
608.44	1080.32
608.79	1077.61
609.14	1074.33
609.49	1076.32
609.84	1082.33
610.18	1082.78
610.53	1085.40
610.88	1088.30
611.23	1086.92
611.57	1084.56
611.92	1083.64
612.27	1084.42
612.62	1085.87
612.96	1083.60
613.31	1079.97
613.66	1080.46
614.00	1081.12
614.35	1079.81
614.70	1082.22
615.05	1084.63
615.39	1087.37
615.74	1082.03
616.09	1083.64
616.43	1082.78
616.78	1083.15
617.13	1081.42
617.47	1085.05
617.82	1081.66
618.17	1083.36
618.51	1083.60
618.86	1082.26
619.21	1083.69
619.55	1085.70
619.90	1081.73
620.25	1078.96
620.59	1081.63
620.94	1078.45
621.29	1076.41
621.63	1079.83
621.98	1081.42
622.32	1075.43
622.67	1077.42
623.02	1078.78
623.36	1076.13
623.71	1073.18
624.05	1077.37
624.40	1077.54
624.75	1079.43
625.09	1076.62
625.44	1075.97
625.78	1075.08
626.13	1075.73
626.48	1072.74
626.82	1078.07
627.17	1079.67
627.51	1079.10
627.86	1076.04
628.20	1077.09
628.55	1076.30
628.89	1076.74
629.24	1079.15
629.58	1078.66
629.93	1080.72
630.28	1081.30
630.62	1082.50
630.97	1082.10
631.31	1086.38
631.66	1082.24
632.00	1081.19
632.35	1079.88
632.69	1079.76
633.04	1077.65
633.38	1079.97
633.73	1081.16
634.07	1082.50
634.42	1081.63
634.76	1081.54
635.11	1081.68
635.45	1079.13
635.79	1078.52
636.14	1079.76
636.48	1079.60
636.83	1080.04
637.17	1079.36
637.52	1080.77
637.86	1081.75
638.21	1080.58
638.55	1081.07
638.89	1081.02
639.24	1079.15
639.58	1077.21
639.93	1078.36
640.27	1078.61
640.61	1078.94
640.96	1082.36
641.30	1082.40
641.65	1082.92
641.99	1082.69
642.33	1081.96
642.68	1078.17
643.02	1076.06
643.37	1075.80
643.71	1075.78
644.05	1078.89
644.40	1078.19
644.74	1082.66
645.08	1082.71
645.43	1081.49
645.77	1079.20
646.11	1080.16
646.46	1076.67
646.80	1075.41
647.14	1075.27
647.49	1075.03
647.83	1073.14
648.17	1077.86
648.52	1077.33
648.86	1078.75
649.20	1083.95
649.55	1085.99
649.89	1083.55
650.23	1085.75
650.57	1084.98
650.92	1080.72
651.26	1080.79
651.60	1080.93
651.95	1081.61
652.29	1081.07
652.63	1082.47
652.97	1085.00
653.32	1083.11
653.66	1080.25
654.00	1081.73
654.34	1081.87
654.69	1081.28
655.03	1081.00
655.37	1080.72
655.71	1079.74
656.05	1079.29
656.40	1078.03
656.74	1077.56
657.08	1080.44
657.42	1081.58
657.76	1080.86
658.11	1081.70
658.45	1082.99
658.79	1080.46
659.13	1077.25
659.47	1076.76
659.82	1074.38
660.16	1075.45
660.50	1079.22
660.84	1078.54
661.18	1079.64
661.52	1078.82
661.87	1077.30
662.21	1074.17
662.55	1079.20
662.89	1079.29
663.23	1079.90
663.57	1079.92
663.91	1084.30
664.25	1082.12
664.60	1078.50
664.94	1079.71
665.28	1079.10
665.62	1076.41
665.96	1078.17
666.30	1081.80
666.64	1081.82
666.98	1078.68
667.32	1079.90
667.66	1076.41
668.01	1074.54
668.35	1075.87
668.69	1081.14
669.03	1078.96
669.37	1081.89
669.71	1084.09
670.05	1085.42
670.39	1081.58
670.73	1080.06
671.07	1076.01
671.41	1075.48
671.75	1072.67
672.09	1070.94
672.43	1072.62
672.77	1077.42
673.11	1078.64
673.45	1079.74
673.79	1082.69
674.13	1083.18
674.47	1082.43
674.81	1080.11
675.15	1079.95
675.49	1080.27
675.83	1079.76
676.17	1076.58
676.51	1077.14
676.85	1079.83
677.19	1079.50
677.53	1078.26
677.87	1080.93
678.21	1082.85
678.55	1079.36
678.89	1081.91
679.23	1082.36
679.57	1081.40
679.90	1079.60
680.24	1078.75
680.58	1076.72
680.92	1078.07
681.26	1079.36
681.60	1076.72
681.94	1076.48
682.28	1078.66
682.62	1079.22
682.96	1078.57
683.29	1079.60
683.63	1081.51
683.97	1080.93
684.31	1079.60
684.65	1080.11
684.99	1083.32
685.33	1083.76
685.67	1080.09
686.00	1080.72
686.34	1080.13
686.68	1077.44
687.02	1077.84
687.36	1080.39
687.70	1074.89
688.03	1071.87
688.37	1073.60
688.71	1071.82
689.05	1070.72
689.39	1074.70
689.72	1076.13
690.06	1076.34
690.40	1077.58
690.74	1078.17
691.08	1081.77
691.41	1084.74
691.75	1086.27
692.09	1086.29
692.43	1085.75
692.76	1083.57
693.10	1079.46
693.44	1076.06
693.78	1074.17
694.11	1075.80
694.45	1075.66
694.79	1076.08
695.13	1075.01
695.46	1076.95
695.80	1077.33
696.14	1076.65
696.48	1078.71
696.81	1081.82
697.15	1080.60
697.49	1077.25
697.82	1080.72
698.16	1081.28
698.50	1078.96
698.83	1078.89
699.17	1080.02
699.51	1078.40
699.84	1076.44
700.18	1079.64
700.52	1081.19
700.85	1080.93
701.19	1077.44
701.53	1077.07
701.86	1074.91
702.20	1072.95
702.54	1076.55
702.87	1076.46
703.21	1076.83
703.55	1077.47
703.88	1075.64
704.22	1074.96
704.55	1075.73
704.89	1079.13
705.23	1080.18
705.56	1082.92
705.90	1081.07
706.23	1086.17
706.57	1084.09
706.91	1081.51
707.24	1082.38
707.58	1081.91
707.91	1078.05
708.25	1079.27
708.58	1081.42
708.92	1081.87
709.26	1082.97
709.59	1081.63
709.93	1078.92
710.26	1077.82
710.60	1075.97
710.93	1074.70
711.27	1072.67
711.60	1074.21
711.94	1073.79
712.27	1072.50
712.61	1073.84
712.94	1076.65
713.28	1076.93
713.61	1077.16
713.95	1075.85
714.28	1075.36
714.62	1074.28
714.95	1071.43
715.29	1071.97
715.62	1074.98
715.96	1075.50
716.29	1077.40
716.63	1081.96
716.96	1080.56
717.29	1080.67
717.63	1080.93
717.96	1081.66
718.30	1078.61
718.63	1080.98
718.97	1080.84
719.30	1079.38
719.63	1077.54
719.97	1076.86
720.30	1075.34
720.64	1073.74
720.97	1074.84
721.30	1073.09
721.64	1072.22
721.97	1071.40
722.31	1072.90
722.64	1072.43
722.97	1073.74
723.31	1076.39
723.64	1077.77
723.97	1078.36
724.31	1078.07
724.64	1080.34
724.98	1081.02
725.31	1076.88
725.64	1076.81
725.98	1077.86
726.31	1073.65
726.64	1071.01
726.97	1075.03
727.31	1074.19
727.64	1078.80
727.97	1083.71
728.31	1085.47
728.64	1082.61
728.97	1083.55
729.31	1078.03
729.64	1075.66
729.97	1074.91
730.30	1075.50
730.64	1075.22
730.97	1076.55
731.30	1076.88
731.63	1077.11
731.97	1081.05
732.30	1079.15
732.63	1078.50
732.96	1080.20
733.30	1077.82
733.63	1075.73
733.96	1079.06
734.29	1078.38
734.63	1077.25
734.96	1078.05
735.29	1076.97
735.62	1074.26
735.95	1076.41
736.29	1076.25
736.62	1079.83
736.95	1079.08
737.28	1079.78
737.61	1076.13
737.94	1074.87
738.28	1070.65
738.61	1072.18
738.94	1072.18
739.27	1074.89
739.60	1074.33
739.93	1072.48
740.27	1072.57
740.60	1073.18
740.93	1068.83
741.26	1071.66
741.59	1076.11
741.92	1073.32
742.25	1073.32
742.58	1075.90
742.91	1075.15
743.25	1075.57
743.58	1076.81
743.91	1076.39
744.24	1078.50
744.57	1079.62
744.90	1077.93
745.23	1079.71
745.56	1079.17
745.89	1077.35
746.22	1076.13
746.55	1078.17
746.88	1080.04
747.21	1078.28
747.54	1079.90
747.87	1078.92
748.20	1079.69
748.53	1077.42
748.87	1079.53
749.20	1080.23
749.53	1078.14
749.86	1075.24
750.19	1074.38
750.52	1073.49
750.85	1070.02
751.18	1075.31
751.51	1075.27
751.84	1073.67
752.16	1076.74
752.49	1080.06
752.82	1081.02
753.15	1080.72
753.48	1081.02
753.81	1081.23
754.14	1078.68
754.47	1076.62
754.80	1077.49
755.13	1079.41
755.46	1077.04
755.79	1078.89
756.12	1079.71
756.45	1080.41
756.78	1084.56
757.11	1082.33
757.43	1078.17
757.76	1077.30
758.09	1074.31
758.42	1067.00
758.75	1071.36
759.08	1074.03
759.41	1070.40
759.74	1074.68
760.07	1077.91
760.39	1076.67
760.72	1077.98
761.05	1078.47
761.38	1077.77
761.71	1078.73
762.04	1077.23
762.36	1076.86
762.69	1078.96
763.02	1077.89
763.35	1078.28
763.68	1079.85
764.01	1079.41
764.33	1080.04
764.66	1080.88
