SpectraSuite Data File
++++++++++++++++++++++++++++++++++++
Date: Mon Aug 26 10:22:19 PDT 2019
User: corrico
Dark Spectrum Present: No
Reference Spectrum Present: No
Number of Sampled Component Spectra: 1
Spectrometers: USB2+H06089
Integration Time (usec): 2000 (USB2+H06089)
Spectra Averaged: 20 (USB2+H06089)
Boxcar Smoothing: 2 (USB2+H06089)
Correct for Electrical Dark: No (USB2+H06089)
Strobe/Lamp Enabled: No (USB2+H06089)
Correct for Detector Non-linearity: No (USB2+H06089)
Correct for Stray Light: No (USB2+H06089)
Number of Pixels in Processed Spectrum: 2048
>>>>>Begin Processed Spectral Data<<<<<
339.70	1038.85
340.07	1038.85
340.45	1001.21
340.82	976.99
341.19	952.57
341.57	927.30
341.94	915.78
342.31	909.18
342.69	905.67
343.06	903.42
343.43	902.79
343.81	902.70
344.18	904.34
344.55	907.73
344.93	910.49
345.30	914.61
345.67	922.29
346.04	927.23
346.42	936.10
346.79	944.99
347.16	952.64
347.54	963.67
347.91	976.03
348.28	981.55
348.65	991.40
349.03	1003.32
349.40	1009.52
349.77	1017.59
350.14	1028.10
350.52	1034.00
350.89	1037.23
351.26	1045.66
351.63	1051.42
352.01	1058.23
352.38	1063.00
352.75	1069.88
353.12	1072.13
353.50	1073.84
353.87	1074.28
354.24	1076.95
354.61	1076.86
354.98	1079.36
355.36	1081.70
355.73	1082.76
356.10	1087.06
356.47	1087.16
356.84	1084.81
357.22	1082.99
357.59	1082.50
357.96	1078.75
358.33	1080.23
358.70	1085.26
359.08	1086.76
359.45	1086.38
359.82	1083.83
360.19	1084.21
360.56	1079.53
360.94	1078.24
361.31	1077.35
361.68	1080.70
362.05	1078.26
362.42	1078.94
362.79	1079.95
363.16	1081.80
363.54	1079.50
363.91	1081.87
364.28	1081.84
364.65	1080.06
365.02	1077.72
365.39	1075.59
365.76	1072.90
366.14	1071.17
366.51	1072.08
366.88	1068.59
367.25	1069.84
367.62	1071.26
367.99	1073.91
368.36	1070.63
368.73	1074.24
369.10	1072.81
369.48	1074.49
369.85	1072.36
370.22	1074.33
370.59	1075.48
370.96	1079.48
371.33	1075.41
371.70	1077.11
372.07	1078.28
372.44	1077.02
372.81	1076.58
373.18	1078.24
373.55	1076.27
373.93	1072.39
374.30	1073.56
374.67	1075.03
375.04	1076.13
375.41	1073.74
375.78	1076.34
376.15	1077.00
376.52	1075.24
376.89	1072.36
377.26	1076.39
377.63	1077.70
378.00	1076.83
378.37	1077.44
378.74	1078.61
379.11	1077.16
379.48	1079.76
379.85	1081.23
380.22	1079.62
380.59	1080.79
380.96	1082.03
381.33	1081.84
381.70	1082.33
382.07	1081.77
382.44	1079.95
382.81	1081.80
383.18	1080.37
383.55	1078.21
383.92	1082.36
384.29	1086.15
384.66	1084.28
385.03	1084.14
385.40	1084.44
385.77	1082.19
386.14	1077.86
386.51	1077.75
386.88	1080.56
387.25	1083.55
387.62	1083.04
387.99	1086.41
388.36	1086.22
388.73	1082.33
389.10	1082.24
389.46	1083.57
389.83	1082.78
390.20	1083.48
390.57	1084.16
390.94	1083.67
391.31	1081.70
391.68	1081.30
392.05	1082.99
392.42	1084.04
392.79	1082.59
393.16	1085.70
393.53	1085.45
393.89	1082.76
394.26	1083.36
394.63	1084.77
395.00	1082.87
395.37	1084.79
395.74	1088.89
396.11	1089.64
396.48	1089.78
396.84	1091.34
397.21	1091.44
397.58	1090.46
397.95	1091.34
398.32	1090.27
398.69	1090.20
399.06	1091.13
399.42	1087.95
399.79	1088.47
400.16	1087.62
400.53	1090.01
400.90	1092.00
401.27	1098.53
401.64	1096.92
402.00	1098.34
402.37	1097.20
402.74	1096.61
403.11	1095.00
403.48	1094.60
403.84	1094.08
404.21	1094.74
404.58	1096.66
404.95	1095.65
405.32	1095.89
405.68	1099.05
406.05	1096.10
406.42	1093.76
406.79	1093.73
407.16	1093.94
407.52	1091.91
407.89	1093.71
408.26	1092.84
408.63	1092.42
408.99	1094.43
409.36	1091.39
409.73	1092.16
410.10	1092.12
410.47	1091.79
410.83	1092.12
411.20	1096.66
411.57	1098.62
411.94	1103.54
412.30	1105.34
412.67	1106.25
413.04	1103.80
413.40	1103.52
413.77	1099.54
414.14	1100.40
414.51	1099.58
414.87	1101.20
415.24	1096.35
415.61	1096.87
415.97	1096.12
416.34	1095.60
416.71	1097.97
417.08	1102.72
417.44	1105.86
417.81	1106.72
418.18	1106.35
418.54	1106.72
418.91	1105.08
419.28	1104.59
419.64	1105.36
420.01	1106.89
420.38	1111.17
420.74	1115.80
421.11	1116.11
421.48	1117.51
421.84	1119.90
422.21	1119.67
422.58	1119.45
422.94	1123.20
423.31	1126.34
423.68	1131.51
424.04	1134.41
424.41	1138.67
424.77	1141.78
425.14	1146.28
425.51	1145.06
425.87	1151.80
426.24	1155.01
426.61	1156.06
426.97	1158.92
427.34	1169.31
427.70	1172.12
428.07	1176.14
428.44	1182.06
428.80	1190.82
429.17	1196.04
429.53	1202.43
429.90	1212.98
430.27	1225.25
430.63	1230.37
431.00	1241.00
431.36	1254.36
431.73	1268.34
432.09	1283.90
432.46	1302.09
432.83	1315.64
433.19	1329.35
433.56	1346.88
433.92	1362.96
434.29	1383.51
434.65	1410.83
435.02	1435.59
435.38	1463.14
435.75	1490.92
436.11	1523.29
436.48	1553.16
436.84	1589.65
437.21	1627.66
437.57	1666.11
437.94	1707.28
438.30	1751.80
438.67	1795.59
439.03	1841.09
439.40	1897.33
439.76	1949.48
440.13	2007.52
440.49	2076.59
440.86	2139.34
441.22	2203.57
441.59	2274.60
441.95	2357.53
442.32	2436.90
442.68	2534.94
443.05	2632.94
443.41	2737.84
443.78	2834.86
444.14	2940.95
444.51	3047.28
444.87	3188.72
445.24	3321.71
445.60	3471.69
445.96	3629.63
446.33	3801.66
446.69	3960.35
447.06	4140.55
447.42	4319.93
447.79	4501.88
448.15	4725.38
448.51	4947.96
448.88	5206.17
449.24	5459.14
449.61	5745.48
449.97	6013.35
450.33	6301.49
450.70	6571.19
451.06	6886.46
451.43	7187.18
451.79	7551.41
452.15	7943.05
452.52	8380.55
452.88	8840.53
453.24	9377.57
453.61	9945.40
453.97	10499.76
454.34	11039.39
454.70	11668.69
455.06	12291.89
455.43	12908.71
455.79	13492.88
456.15	14193.62
456.52	14856.08
456.88	15611.84
457.24	16326.41
457.61	17183.14
457.97	17954.74
458.33	18729.69
458.70	19497.88
459.06	20259.77
459.42	21071.28
459.79	21847.33
460.15	22744.34
460.51	23585.55
460.88	24486.47
461.24	25268.56
461.60	26220.16
461.96	27082.99
462.33	27924.91
462.69	28734.27
463.05	29626.64
463.42	30352.54
463.78	31021.32
464.14	31566.20
464.50	32141.43
464.87	32602.54
465.23	32947.25
465.59	33283.33
465.95	33621.58
466.32	33917.55
466.68	34132.83
467.04	34296.31
467.40	34446.44
467.77	34596.07
468.13	34570.79
468.49	34489.01
468.85	34420.27
469.22	34262.59
469.58	33910.85
469.94	33657.40
470.30	33372.69
470.66	32948.42
471.03	32352.17
471.39	31994.75
471.75	31382.96
472.11	30800.70
472.47	30477.29
472.84	30174.70
473.20	29702.29
473.56	29439.54
473.92	29017.77
474.28	28484.65
474.65	28002.94
475.01	27521.05
475.37	26947.13
475.73	26500.32
476.09	25981.37
476.45	25472.14
476.81	24985.31
477.18	24472.52
477.54	24004.02
477.90	23649.38
478.26	23234.29
478.62	22862.21
478.98	22541.98
479.34	22207.52
479.71	21797.15
480.07	21426.06
480.43	21060.30
480.79	20693.89
481.15	20340.50
481.51	20009.38
481.87	19776.01
482.23	19484.80
482.59	19222.35
482.96	18946.07
483.32	18657.84
483.68	18283.42
484.04	17964.66
484.40	17600.41
484.76	17238.89
485.12	16877.37
485.48	16548.85
485.84	16178.20
486.20	15820.31
486.56	15468.13
486.92	15172.59
487.28	14832.84
487.64	14490.96
488.00	14180.42
488.37	13856.93
488.73	13486.61
489.09	13123.95
489.45	12821.81
489.81	12499.68
490.17	12196.58
490.53	11924.14
490.89	11632.28
491.25	11316.47
491.61	11010.44
491.97	10701.73
492.33	10373.58
492.69	10081.34
493.05	9785.36
493.41	9492.28
493.77	9216.19
494.13	8956.11
494.49	8698.84
494.85	8455.96
495.21	8224.24
495.57	7998.80
495.93	7776.90
496.29	7574.70
496.64	7392.30
497.00	7207.47
497.36	7008.38
497.72	6820.06
498.08	6638.02
498.44	6444.20
498.80	6276.03
499.16	6115.89
499.52	5963.71
499.88	5830.13
500.24	5711.02
500.60	5580.24
500.96	5466.67
501.32	5349.06
501.68	5224.66
502.03	5101.60
502.39	4977.48
502.75	4839.78
503.11	4715.45
503.47	4592.81
503.83	4468.69
504.19	4352.30
504.55	4252.47
504.91	4156.67
505.26	4067.83
505.62	3986.07
505.98	3900.08
506.34	3798.50
506.70	3708.04
507.06	3616.90
507.42	3531.19
507.78	3454.86
508.13	3384.34
508.49	3304.98
508.85	3232.70
509.21	3160.38
509.57	3089.18
509.93	3022.40
510.28	2957.66
510.64	2892.27
511.00	2827.04
511.36	2764.34
511.72	2713.41
512.07	2665.10
512.43	2618.05
512.79	2567.85
513.15	2523.00
513.51	2473.29
513.86	2428.38
514.22	2386.46
514.58	2343.65
514.94	2302.92
515.30	2266.43
515.65	2227.93
516.01	2192.96
516.37	2166.73
516.73	2135.90
517.08	2110.77
517.44	2079.75
517.80	2052.88
518.16	2026.44
518.51	2002.94
518.87	1973.26
519.23	1949.32
519.59	1924.72
519.94	1896.00
520.30	1870.18
520.66	1843.94
521.01	1820.59
521.37	1794.96
521.73	1774.95
522.09	1752.59
522.44	1732.04
522.80	1714.40
523.16	1692.39
523.51	1670.21
523.87	1653.35
524.23	1638.21
524.58	1618.01
524.94	1606.40
525.30	1590.49
525.65	1573.24
526.01	1555.73
526.37	1543.96
526.72	1527.43
527.08	1516.69
527.44	1501.97
527.79	1487.90
528.15	1470.07
528.51	1458.50
528.86	1442.89
529.22	1431.47
529.58	1421.20
529.93	1411.37
530.29	1400.20
530.65	1391.73
531.00	1384.03
531.36	1376.66
531.71	1368.56
532.07	1358.82
532.43	1347.56
532.78	1336.66
533.14	1324.81
533.49	1316.55
533.85	1314.68
534.21	1310.42
534.56	1304.71
534.92	1299.54
535.27	1295.16
535.63	1285.87
535.98	1279.34
536.34	1276.53
536.69	1274.09
537.05	1268.20
537.41	1261.88
537.76	1259.09
538.12	1254.29
538.47	1249.54
538.83	1244.86
539.18	1242.54
539.54	1235.19
539.89	1230.23
540.25	1225.50
540.60	1225.20
540.96	1219.58
541.31	1216.54
541.67	1213.24
542.02	1207.83
542.38	1197.35
542.73	1194.38
543.09	1194.63
543.44	1189.76
543.80	1187.92
544.15	1189.88
544.51	1189.44
544.86	1184.43
545.22	1182.46
545.57	1181.46
545.93	1176.73
546.28	1173.57
546.64	1173.64
546.99	1171.39
547.35	1169.73
547.70	1170.90
548.05	1167.79
548.41	1161.09
548.76	1155.38
549.12	1153.14
549.47	1149.37
549.83	1146.98
550.18	1146.79
550.53	1147.21
550.89	1144.73
551.24	1143.02
551.60	1139.79
551.95	1137.01
552.30	1138.25
552.66	1134.90
553.01	1134.72
553.37	1136.63
553.72	1136.85
554.07	1134.83
554.43	1138.20
554.78	1136.05
555.13	1132.77
555.49	1131.46
555.84	1129.17
556.19	1121.23
556.55	1120.11
556.90	1118.33
557.26	1120.86
557.61	1122.94
557.96	1127.60
558.32	1125.54
558.67	1125.54
559.02	1120.55
559.37	1114.75
559.73	1111.36
560.08	1111.66
560.43	1110.28
560.79	1110.54
561.14	1114.40
561.49	1113.39
561.85	1113.14
562.20	1112.99
562.55	1114.33
562.90	1110.49
563.26	1111.61
563.61	1112.13
563.96	1115.52
564.32	1111.33
564.67	1111.33
565.02	1113.16
565.37	1111.24
565.73	1110.49
566.08	1113.67
566.43	1117.68
566.78	1112.69
567.14	1113.02
567.49	1110.33
567.84	1107.47
568.19	1100.73
568.54	1101.18
568.90	1097.41
569.25	1096.38
569.60	1100.03
569.95	1101.92
570.31	1104.12
570.66	1104.94
571.01	1106.51
571.36	1102.11
571.71	1100.64
572.06	1096.82
572.42	1097.64
572.77	1095.14
573.12	1092.26
573.47	1093.22
573.82	1093.66
574.18	1096.45
574.53	1095.96
574.88	1098.37
575.23	1100.26
575.58	1101.74
575.93	1098.32
576.28	1097.48
576.64	1095.77
576.99	1093.33
577.34	1089.82
577.69	1089.54
578.04	1090.53
578.39	1090.03
578.74	1087.30
579.09	1092.30
579.44	1091.02
579.80	1089.17
580.15	1091.27
580.50	1089.89
580.85	1084.32
581.20	1086.69
581.55	1088.72
581.90	1086.78
582.25	1088.68
582.60	1090.17
582.95	1092.37
583.30	1090.85
583.65	1093.03
584.00	1092.40
584.35	1090.88
584.71	1085.61
585.06	1086.43
585.41	1087.62
585.76	1088.98
586.11	1092.49
586.46	1091.79
586.81	1089.10
587.16	1088.23
587.51	1088.51
587.86	1085.31
588.21	1087.44
588.56	1089.14
588.91	1086.15
589.26	1086.85
589.61	1087.20
589.96	1086.29
590.31	1089.03
590.66	1090.88
591.01	1089.40
591.36	1091.84
591.71	1093.45
592.06	1092.21
592.41	1089.45
592.76	1087.69
593.10	1086.36
593.45	1085.94
593.80	1083.15
594.15	1084.91
594.50	1088.30
594.85	1086.08
595.20	1084.21
595.55	1086.34
595.90	1088.51
596.25	1086.36
596.60	1088.86
596.95	1090.36
597.30	1089.73
597.64	1096.21
597.99	1097.10
598.34	1097.76
598.69	1096.52
599.04	1097.59
599.39	1092.82
599.74	1092.30
600.09	1089.92
600.44	1090.69
600.78	1089.87
601.13	1085.61
601.48	1084.30
601.83	1087.11
602.18	1086.55
602.53	1084.93
602.88	1082.59
603.22	1086.48
603.57	1085.73
603.92	1087.16
604.27	1089.45
604.62	1093.80
604.97	1089.68
605.31	1084.42
605.66	1080.84
606.01	1079.36
606.36	1076.86
606.71	1078.71
607.05	1081.33
607.40	1086.06
607.75	1085.14
608.10	1086.48
608.44	1085.00
608.79	1086.94
609.14	1084.53
609.49	1084.07
609.84	1083.04
610.18	1084.11
610.53	1084.49
610.88	1086.10
611.23	1090.15
611.57	1088.49
611.92	1089.03
612.27	1086.76
612.62	1085.73
612.96	1078.78
613.31	1082.19
613.66	1086.06
614.00	1086.45
614.35	1085.05
614.70	1089.52
615.05	1089.40
615.39	1085.94
615.74	1088.23
616.09	1090.24
616.43	1089.29
616.78	1087.51
617.13	1088.91
617.47	1086.27
617.82	1082.47
618.17	1084.56
618.51	1084.77
618.86	1082.64
619.21	1082.83
619.55	1085.28
619.90	1084.98
620.25	1085.89
620.59	1084.11
620.94	1082.73
621.29	1082.47
621.63	1081.28
621.98	1079.88
622.32	1080.44
622.67	1084.07
623.02	1087.27
623.36	1087.86
623.71	1089.73
624.05	1087.93
624.40	1088.79
624.75	1085.31
625.09	1085.82
625.44	1084.42
625.78	1084.93
626.13	1081.75
626.48	1082.19
626.82	1081.66
627.17	1081.63
627.51	1084.86
627.86	1085.61
628.20	1085.66
628.55	1085.61
628.89	1085.03
629.24	1082.40
629.58	1081.63
629.93	1081.66
630.28	1079.99
630.62	1080.44
630.97	1080.51
631.31	1079.85
631.66	1078.33
632.00	1077.16
632.35	1079.69
632.69	1079.48
633.04	1082.59
633.38	1086.64
633.73	1090.95
634.07	1091.44
634.42	1093.17
634.76	1090.20
635.11	1090.22
635.45	1088.77
635.79	1086.55
636.14	1088.23
636.48	1087.48
636.83	1085.40
637.17	1085.03
637.52	1083.29
637.86	1082.05
638.21	1084.63
638.55	1082.33
638.89	1082.61
639.24	1081.87
639.58	1083.20
639.93	1080.67
640.27	1080.79
640.61	1080.63
640.96	1081.61
641.30	1079.24
641.65	1082.61
641.99	1082.12
642.33	1083.20
642.68	1084.02
643.02	1083.90
643.37	1082.43
643.71	1083.76
644.05	1080.53
644.40	1082.57
644.74	1081.61
645.08	1081.96
645.43	1082.69
645.77	1083.06
646.11	1078.94
646.46	1081.12
646.80	1082.57
647.14	1084.67
647.49	1083.34
647.83	1083.76
648.17	1084.96
648.52	1084.70
648.86	1081.47
649.20	1085.19
649.55	1087.79
649.89	1084.91
650.23	1084.60
650.57	1083.04
650.92	1082.85
651.26	1082.57
651.60	1085.24
651.95	1081.82
652.29	1082.90
652.63	1083.01
652.97	1083.74
653.32	1082.38
653.66	1082.12
654.00	1082.54
654.34	1081.19
654.69	1078.00
655.03	1076.72
655.37	1079.67
655.71	1079.60
656.05	1080.16
656.40	1081.70
656.74	1081.70
657.08	1083.11
657.42	1085.80
657.76	1083.67
658.11	1082.99
658.45	1081.19
658.79	1074.21
659.13	1070.84
659.47	1071.78
659.82	1072.53
660.16	1072.88
660.50	1078.52
660.84	1082.17
661.18	1084.91
661.52	1085.59
661.87	1085.94
662.21	1085.73
662.55	1084.30
662.89	1081.66
663.23	1081.02
663.57	1085.45
663.91	1086.52
664.25	1084.96
664.60	1085.82
664.94	1086.01
665.28	1081.44
665.62	1080.41
665.96	1080.27
666.30	1079.53
666.64	1079.90
666.98	1080.25
667.32	1077.16
667.66	1080.09
668.01	1079.67
668.35	1079.46
668.69	1081.40
669.03	1082.36
669.37	1079.17
669.71	1080.70
670.05	1079.36
670.39	1074.98
670.73	1077.23
671.07	1077.72
671.41	1075.64
671.75	1079.13
672.09	1083.46
672.43	1082.76
672.77	1084.84
673.11	1085.82
673.45	1081.28
673.79	1079.57
674.13	1077.42
674.47	1076.20
674.81	1075.90
675.15	1075.22
675.49	1075.87
675.83	1076.72
676.17	1075.48
676.51	1073.30
676.85	1076.04
677.19	1076.30
677.53	1077.40
677.87	1079.48
678.21	1082.29
678.55	1080.41
678.89	1082.83
679.23	1083.22
679.57	1084.98
679.90	1087.13
680.24	1088.51
680.58	1088.40
680.92	1088.82
681.26	1086.92
681.60	1084.84
681.94	1086.17
682.28	1082.61
682.62	1082.64
682.96	1080.39
683.29	1077.98
683.63	1079.10
683.97	1081.33
684.31	1079.20
684.65	1082.10
684.99	1086.97
685.33	1085.31
685.67	1084.32
686.00	1085.26
686.34	1082.01
686.68	1077.63
687.02	1074.63
687.36	1078.38
687.70	1082.19
688.03	1084.28
688.37	1087.79
688.71	1089.99
689.05	1085.05
689.39	1082.43
689.72	1084.96
690.06	1085.31
690.40	1084.56
690.74	1085.56
691.08	1082.69
691.41	1077.68
691.75	1073.37
692.09	1073.14
692.43	1071.22
692.76	1076.51
693.10	1079.27
693.44	1078.40
693.78	1078.96
694.11	1081.82
694.45	1079.34
694.79	1078.52
695.13	1078.36
695.46	1079.03
695.80	1078.92
696.14	1077.98
696.48	1077.09
696.81	1083.01
697.15	1083.20
697.49	1084.07
697.82	1083.81
698.16	1085.14
698.50	1082.90
698.83	1083.60
699.17	1081.05
699.51	1082.54
699.84	1082.59
700.18	1080.65
700.52	1078.19
700.85	1081.75
701.19	1079.85
701.53	1078.05
701.86	1082.73
702.20	1082.97
702.54	1078.28
702.87	1077.54
703.21	1077.47
703.55	1074.68
703.88	1075.71
704.22	1076.13
704.55	1079.62
704.89	1076.48
705.23	1072.97
705.56	1072.29
705.90	1073.16
706.23	1074.24
706.57	1079.67
706.91	1081.94
707.24	1080.11
707.58	1078.80
707.91	1075.01
708.25	1074.63
708.58	1077.89
708.92	1079.13
709.26	1081.91
709.59	1083.88
709.93	1081.00
710.26	1080.98
710.60	1084.91
710.93	1086.45
711.27	1086.76
711.60	1086.43
711.94	1083.90
712.27	1081.05
712.61	1079.03
712.94	1078.19
713.28	1077.44
713.61	1075.59
713.95	1074.54
714.28	1075.01
714.62	1073.28
714.95	1076.01
715.29	1075.87
715.62	1074.61
715.96	1073.70
716.29	1075.76
716.63	1077.40
716.96	1081.47
717.29	1084.74
717.63	1084.42
717.96	1084.39
718.30	1084.93
718.63	1084.23
718.97	1084.30
719.30	1084.00
719.63	1082.08
719.97	1081.05
720.30	1078.82
720.64	1078.54
720.97	1081.33
721.30	1079.53
721.64	1080.25
721.97	1082.97
722.31	1082.36
722.64	1082.97
722.97	1087.95
723.31	1085.61
723.64	1080.74
723.97	1081.84
724.31	1078.66
724.64	1075.27
724.98	1077.47
725.31	1077.25
725.64	1076.41
725.98	1075.83
726.31	1074.47
726.64	1074.94
726.97	1077.82
727.31	1073.70
727.64	1074.28
727.97	1074.82
728.31	1074.10
728.64	1074.75
728.97	1079.71
729.31	1078.61
729.64	1079.01
729.97	1076.69
730.30	1077.77
730.64	1074.14
730.97	1076.08
731.30	1075.97
731.63	1077.28
731.97	1074.17
732.30	1078.40
732.63	1081.44
732.96	1082.33
733.30	1080.81
733.63	1083.83
733.96	1083.74
734.29	1082.54
734.63	1085.12
734.96	1083.86
735.29	1086.10
735.62	1082.80
735.95	1080.84
736.29	1076.04
736.62	1078.71
736.95	1077.68
737.28	1080.67
737.61	1079.53
737.94	1082.52
738.28	1082.05
738.61	1078.68
738.94	1076.34
739.27	1075.80
739.60	1073.23
739.93	1072.55
740.27	1072.53
740.60	1070.91
740.93	1071.17
741.26	1073.63
741.59	1073.18
741.92	1074.96
742.25	1078.31
742.58	1079.99
742.91	1080.06
743.25	1079.71
743.58	1080.37
743.91	1079.76
744.24	1077.09
744.57	1077.00
744.90	1078.45
745.23	1076.88
745.56	1077.98
745.89	1081.82
746.22	1079.92
746.55	1081.75
746.88	1082.36
747.21	1082.17
747.54	1078.82
747.87	1078.19
748.20	1078.31
748.53	1079.34
748.87	1076.20
749.20	1077.00
749.53	1080.77
749.86	1080.25
750.19	1074.77
750.52	1076.97
750.85	1077.11
751.18	1075.99
751.51	1073.51
751.84	1076.11
752.16	1074.05
752.49	1075.15
752.82	1076.34
753.15	1078.82
753.48	1079.48
753.81	1078.50
754.14	1078.96
754.47	1077.40
754.80	1075.99
755.13	1074.24
755.46	1076.30
755.79	1075.92
756.12	1077.35
756.45	1077.68
756.78	1080.32
757.11	1079.31
757.43	1081.28
757.76	1079.31
758.09	1082.87
758.42	1084.70
758.75	1087.58
759.08	1085.24
759.41	1085.12
759.74	1080.56
760.07	1077.49
760.39	1076.60
760.72	1077.77
761.05	1080.48
761.38	1081.61
761.71	1080.74
762.04	1083.67
762.36	1082.87
762.69	1080.11
763.02	1080.91
763.35	1080.95
763.68	1074.52
764.01	1075.57
