SpectraSuite Data File
++++++++++++++++++++++++++++++++++++
Date: Mon Aug 26 10:21:54 PDT 2019
User: corrico
Dark Spectrum Present: No
Reference Spectrum Present: No
Number of Sampled Component Spectra: 1
Spectrometers: USB2+H06089
Integration Time (usec): 2000 (USB2+H06089)
Spectra Averaged: 20 (USB2+H06089)
Boxcar Smoothing: 2 (USB2+H06089)
Correct for Electrical Dark: No (USB2+H06089)
Strobe/Lamp Enabled: No (USB2+H06089)
Correct for Detector Non-linearity: No (USB2+H06089)
Correct for Stray Light: No (USB2+H06089)
Number of Pixels in Processed Spectrum: 2048
>>>>>Begin Processed Spectral Data<<<<<
339.70	1016.38
340.07	1016.38
340.45	985.30
340.82	965.38
341.19	944.20
341.57	920.84
341.94	911.43
342.31	903.75
342.69	896.26
343.06	893.92
343.43	894.76
343.81	895.16
344.18	899.94
344.55	906.58
344.93	908.32
345.30	910.40
345.67	917.56
346.04	921.94
346.42	928.40
346.79	937.95
347.16	949.70
347.54	956.93
347.91	967.41
348.28	979.26
348.65	988.29
349.03	995.57
349.40	1005.47
349.77	1013.80
350.14	1019.56
350.52	1024.38
350.89	1030.16
351.26	1035.64
351.63	1040.60
352.01	1044.79
352.38	1051.72
352.75	1057.06
353.12	1059.09
353.50	1062.74
353.87	1066.96
354.24	1070.84
354.61	1073.60
354.98	1074.26
355.36	1073.93
355.73	1076.88
356.10	1076.90
356.47	1076.55
356.84	1080.39
357.22	1082.73
357.59	1080.13
357.96	1080.95
358.33	1082.92
358.70	1079.50
359.08	1079.67
359.45	1080.39
359.82	1077.63
360.19	1075.38
360.56	1075.05
360.94	1069.95
361.31	1069.23
361.68	1068.62
362.05	1067.94
362.42	1069.98
362.79	1068.95
363.16	1065.69
363.54	1065.81
363.91	1066.30
364.28	1063.05
364.65	1065.22
365.02	1066.28
365.39	1067.71
365.76	1063.70
366.14	1065.32
366.51	1067.73
366.88	1071.08
367.25	1068.83
367.62	1071.12
367.99	1068.43
368.36	1064.71
368.73	1062.14
369.10	1061.81
369.48	1062.53
369.85	1068.43
370.22	1069.18
370.59	1066.18
370.96	1067.66
371.33	1065.01
371.70	1060.73
372.07	1059.94
372.44	1064.87
372.81	1066.68
373.18	1070.12
373.55	1069.13
373.93	1070.05
374.30	1068.90
374.67	1067.71
375.04	1066.23
375.41	1067.89
375.78	1070.61
376.15	1073.09
376.52	1070.98
376.89	1072.15
377.26	1074.26
377.63	1071.19
378.00	1066.89
378.37	1069.37
378.74	1069.77
379.11	1069.53
379.48	1069.55
379.85	1069.02
380.22	1067.54
380.59	1066.61
380.96	1069.32
381.33	1071.59
381.70	1074.47
382.07	1075.08
382.44	1073.74
382.81	1071.78
383.18	1073.11
383.55	1071.03
383.92	1068.57
384.29	1068.97
384.66	1067.31
385.03	1064.62
385.40	1065.95
385.77	1069.77
386.14	1072.53
386.51	1072.15
386.88	1072.22
387.25	1069.04
387.62	1067.35
387.99	1064.45
388.36	1067.85
388.73	1067.78
389.10	1072.32
389.46	1071.29
389.83	1073.39
390.20	1067.68
390.57	1068.13
390.94	1066.07
391.31	1068.50
391.68	1067.68
392.05	1069.74
392.42	1070.51
392.79	1073.21
393.16	1071.54
393.53	1072.81
393.89	1076.46
394.26	1076.30
394.63	1075.41
395.00	1076.86
395.37	1073.93
395.74	1071.12
396.11	1072.85
396.48	1070.72
396.84	1071.52
397.21	1072.62
397.58	1072.48
397.95	1068.95
398.32	1070.14
398.69	1069.34
399.06	1071.19
399.42	1071.75
399.79	1072.95
400.16	1074.24
400.53	1076.08
400.90	1076.95
401.27	1078.43
401.64	1077.61
402.00	1074.00
402.37	1070.21
402.74	1069.79
403.11	1069.25
403.48	1072.53
403.84	1075.48
404.21	1079.74
404.58	1077.37
404.95	1075.59
405.32	1071.36
405.68	1071.26
406.05	1068.38
406.42	1071.54
406.79	1075.08
407.16	1077.00
407.52	1075.85
407.89	1079.10
408.26	1075.17
408.63	1074.77
408.99	1075.62
409.36	1074.94
409.73	1073.28
410.10	1075.66
410.47	1074.89
410.83	1073.09
411.20	1074.61
411.57	1074.14
411.94	1076.48
412.30	1078.12
412.67	1080.56
413.04	1080.58
413.40	1080.46
413.77	1078.61
414.14	1077.23
414.51	1078.10
414.87	1079.62
415.24	1080.16
415.61	1079.62
415.97	1079.90
416.34	1077.44
416.71	1073.67
417.08	1072.57
417.44	1073.65
417.81	1071.92
418.18	1076.48
418.54	1081.58
418.91	1081.28
419.28	1080.37
419.64	1082.38
420.01	1077.30
420.38	1077.89
420.74	1082.33
421.11	1084.07
421.48	1086.41
421.84	1089.33
422.21	1086.52
422.58	1084.72
422.94	1085.63
423.31	1085.87
423.68	1088.86
424.04	1092.05
424.41	1091.42
424.77	1092.35
425.14	1090.10
425.51	1088.79
425.87	1090.60
426.24	1092.14
426.61	1094.39
426.97	1098.69
427.34	1099.91
427.70	1097.31
428.07	1101.81
428.44	1102.32
428.80	1099.07
429.17	1099.89
429.53	1102.25
429.90	1100.40
430.27	1100.17
430.63	1105.25
431.00	1110.82
431.36	1116.95
431.73	1122.33
432.09	1126.66
432.46	1130.71
432.83	1131.88
433.19	1134.06
433.56	1136.17
433.92	1140.00
434.29	1143.35
434.65	1148.15
435.02	1153.02
435.38	1160.86
435.75	1166.55
436.11	1171.58
436.48	1179.56
436.84	1188.62
437.21	1194.33
437.57	1201.00
437.94	1211.51
438.30	1217.66
438.67	1225.04
439.03	1237.07
439.40	1249.59
439.76	1258.32
440.13	1270.79
440.49	1283.99
440.86	1292.84
441.22	1302.74
441.59	1316.46
441.95	1330.90
442.32	1345.20
442.68	1363.78
443.05	1388.05
443.41	1409.77
443.78	1435.08
444.14	1462.18
444.51	1487.25
444.87	1512.69
445.24	1542.55
445.60	1569.33
445.96	1599.08
446.33	1629.36
446.69	1658.76
447.06	1689.54
447.42	1722.96
447.79	1754.40
448.15	1800.81
448.51	1848.84
448.88	1899.41
449.24	1948.07
449.61	2008.09
449.97	2061.29
450.33	2119.19
450.70	2172.18
451.06	2236.64
451.43	2296.91
451.79	2368.22
452.15	2442.14
452.52	2523.87
452.88	2608.55
453.24	2695.92
453.61	2791.91
453.97	2892.86
454.34	2988.72
454.70	3102.43
455.06	3219.17
455.43	3331.82
455.79	3438.11
456.15	3575.75
456.52	3696.20
456.88	3832.00
457.24	3971.12
457.61	4129.81
457.97	4276.72
458.33	4436.58
458.70	4604.77
459.06	4759.97
459.42	4924.60
459.79	5086.01
460.15	5270.30
460.51	5438.87
460.88	5618.95
461.24	5777.57
461.60	5946.04
461.96	6087.99
462.33	6225.33
462.69	6373.75
463.05	6544.77
463.42	6702.03
463.78	6848.88
464.14	6989.92
464.50	7123.42
464.87	7210.14
465.23	7270.45
465.59	7341.75
465.95	7399.42
466.32	7453.74
466.68	7522.48
467.04	7586.92
467.40	7634.55
467.77	7667.08
468.13	7672.93
468.49	7660.81
468.85	7644.35
469.22	7630.64
469.58	7600.30
469.94	7581.21
470.30	7547.99
470.66	7496.17
471.03	7400.80
471.39	7332.64
471.75	7209.81
472.11	7092.46
472.47	6994.55
472.84	6894.49
473.20	6772.11
473.56	6694.68
473.92	6599.05
474.28	6533.30
474.65	6471.25
475.01	6416.60
475.37	6336.13
475.73	6273.01
476.09	6167.03
476.45	6068.10
476.81	5976.28
477.18	5882.63
477.54	5797.53
477.90	5725.96
478.26	5651.81
478.62	5568.86
478.98	5505.76
479.34	5438.35
479.71	5358.54
480.07	5294.57
480.43	5248.63
480.79	5183.47
481.15	5123.46
481.51	5081.35
481.87	5037.00
482.23	4964.77
482.59	4909.23
482.96	4837.58
483.32	4767.27
483.68	4694.69
484.04	4638.52
484.40	4570.20
484.76	4521.40
485.12	4459.89
485.48	4403.95
485.84	4336.73
486.20	4276.98
486.56	4209.20
486.92	4147.45
487.28	4070.36
487.64	4002.39
488.00	3934.23
488.37	3859.10
488.73	3782.49
489.09	3709.82
489.45	3650.51
489.81	3584.25
490.17	3528.90
490.53	3468.32
490.89	3417.93
491.25	3346.97
491.61	3287.26
491.97	3221.12
492.33	3158.60
492.69	3086.09
493.05	3028.07
493.41	2962.53
493.77	2902.87
494.13	2851.22
494.49	2803.59
494.85	2750.11
495.21	2709.43
495.57	2666.06
495.93	2620.23
496.29	2573.21
496.64	2532.46
497.00	2486.80
497.36	2443.82
497.72	2402.54
498.08	2364.46
498.44	2324.27
498.80	2284.64
499.16	2250.12
499.52	2218.57
499.88	2187.30
500.24	2159.52
500.60	2132.70
500.96	2100.07
501.32	2069.24
501.68	2041.79
502.03	2014.76
502.39	1984.61
502.75	1961.77
503.11	1936.47
503.47	1913.15
503.83	1890.26
504.19	1868.17
504.55	1841.44
504.91	1816.68
505.26	1792.69
505.62	1767.22
505.98	1749.13
506.34	1728.37
506.70	1706.48
507.06	1687.46
507.42	1667.96
507.78	1641.91
508.13	1625.83
508.49	1606.38
508.85	1586.70
509.21	1569.56
509.57	1557.84
509.93	1539.84
510.28	1526.10
510.64	1511.61
511.00	1499.02
511.36	1481.35
511.72	1464.89
512.07	1452.82
512.43	1441.84
512.79	1426.23
513.15	1418.29
513.51	1408.86
513.86	1400.83
514.22	1392.17
514.58	1384.22
514.94	1373.05
515.30	1367.06
515.65	1356.08
516.01	1340.96
516.37	1333.43
516.73	1325.52
517.08	1314.98
517.44	1309.67
517.80	1307.03
518.16	1300.00
518.51	1293.26
518.87	1291.09
519.23	1281.23
519.59	1273.74
519.94	1269.16
520.30	1264.36
520.66	1256.24
521.01	1250.52
521.37	1248.02
521.73	1241.09
522.09	1238.14
522.44	1233.88
522.80	1232.36
523.16	1225.69
523.51	1221.24
523.87	1219.11
524.23	1214.18
524.58	1211.04
524.94	1207.34
525.30	1204.02
525.65	1197.68
526.01	1194.16
526.37	1188.76
526.72	1183.87
527.08	1177.50
527.44	1174.39
527.79	1171.04
528.15	1167.55
528.51	1166.73
528.86	1169.33
529.22	1161.51
529.58	1161.02
529.93	1160.32
530.29	1159.36
530.65	1155.87
531.00	1155.48
531.36	1148.36
531.71	1145.11
532.07	1140.00
532.43	1134.41
532.78	1134.13
533.14	1132.94
533.49	1131.16
533.85	1131.06
534.21	1133.29
534.56	1131.51
534.92	1130.22
535.27	1129.89
535.63	1129.61
535.98	1126.03
536.34	1124.77
536.69	1125.05
537.05	1122.85
537.41	1119.43
537.76	1119.22
538.12	1118.07
538.47	1113.18
538.83	1110.79
539.18	1112.48
539.54	1110.94
539.89	1108.74
540.25	1111.10
540.60	1109.51
540.96	1106.14
541.31	1106.02
541.67	1109.32
542.02	1110.51
542.38	1109.55
542.73	1109.51
543.09	1109.46
543.44	1106.56
543.80	1103.02
544.15	1108.90
544.51	1109.48
544.86	1108.36
545.22	1108.15
545.57	1108.48
545.93	1104.15
546.28	1101.74
546.64	1100.08
546.99	1095.86
547.35	1096.47
547.70	1094.76
548.05	1095.07
548.41	1095.44
548.76	1095.84
549.12	1093.29
549.47	1094.88
549.83	1095.07
550.18	1094.88
550.53	1095.23
550.89	1094.57
551.24	1090.85
551.60	1088.35
551.95	1087.55
552.30	1088.23
552.66	1089.82
553.01	1091.58
553.37	1090.24
553.72	1088.75
554.07	1091.06
554.43	1093.17
554.78	1091.93
555.13	1093.90
555.49	1089.03
555.84	1085.59
556.19	1083.79
556.55	1082.54
556.90	1080.98
557.26	1083.79
557.61	1085.17
557.96	1084.65
558.32	1085.40
558.67	1090.88
559.02	1089.50
559.37	1086.27
559.73	1085.26
560.08	1085.96
560.43	1082.73
560.79	1083.57
561.14	1085.31
561.49	1083.20
561.85	1082.24
562.20	1079.41
562.55	1078.68
562.90	1076.48
563.26	1077.86
563.61	1078.71
563.96	1080.11
564.32	1081.28
564.67	1082.29
565.02	1082.66
565.37	1079.13
565.73	1079.22
566.08	1079.20
566.43	1081.47
566.78	1078.92
567.14	1081.91
567.49	1081.84
567.84	1080.02
568.19	1076.32
568.54	1080.16
568.90	1078.68
569.25	1078.24
569.60	1082.47
569.95	1083.22
570.31	1080.86
570.66	1081.96
571.01	1079.60
571.36	1080.65
571.71	1083.25
572.06	1081.47
572.42	1081.00
572.77	1082.80
573.12	1081.05
573.47	1079.60
573.82	1078.40
574.18	1080.06
574.53	1081.49
574.88	1079.29
575.23	1078.50
575.58	1080.09
575.93	1075.97
576.28	1074.91
576.64	1075.83
576.99	1075.43
577.34	1076.74
577.69	1077.35
578.04	1075.99
578.39	1075.10
578.74	1076.58
579.09	1076.34
579.44	1080.09
579.80	1082.45
580.15	1084.30
580.50	1080.77
580.85	1080.60
581.20	1077.54
581.55	1076.39
581.90	1074.35
582.25	1075.36
582.60	1076.97
582.95	1076.97
583.30	1075.99
583.65	1075.62
584.00	1077.28
584.35	1076.60
584.71	1077.49
585.06	1078.36
585.41	1076.11
585.76	1077.02
586.11	1075.34
586.46	1073.81
586.81	1073.11
587.16	1077.65
587.51	1075.69
587.86	1076.86
588.21	1079.67
588.56	1081.14
588.91	1081.89
589.26	1081.14
589.61	1082.85
589.96	1081.47
590.31	1078.36
590.66	1080.18
591.01	1082.01
591.36	1077.96
591.71	1076.55
592.06	1076.88
592.41	1076.76
592.76	1078.47
593.10	1081.00
593.45	1080.95
593.80	1080.09
594.15	1077.35
594.50	1075.59
594.85	1077.86
595.20	1078.00
595.55	1080.41
595.90	1079.10
596.25	1076.53
596.60	1071.92
596.95	1072.08
597.30	1073.18
597.64	1085.38
597.99	1090.50
598.34	1089.99
598.69	1093.59
599.04	1090.53
599.39	1079.10
599.74	1078.92
600.09	1081.02
600.44	1077.23
600.78	1076.97
601.13	1078.26
601.48	1076.60
601.83	1076.04
602.18	1077.37
602.53	1079.99
602.88	1080.06
603.22	1075.62
603.57	1075.05
603.92	1075.20
604.27	1075.38
604.62	1073.67
604.97	1077.28
605.31	1081.05
605.66	1078.64
606.01	1076.79
606.36	1073.86
606.71	1074.19
607.05	1071.64
607.40	1072.92
607.75	1072.64
608.10	1076.37
608.44	1074.26
608.79	1072.83
609.14	1073.30
609.49	1070.80
609.84	1069.58
610.18	1072.32
610.53	1073.60
610.88	1074.14
611.23	1079.03
611.57	1077.51
611.92	1079.15
612.27	1082.50
612.62	1081.94
612.96	1081.87
613.31	1083.29
613.66	1077.82
614.00	1073.51
614.35	1072.78
614.70	1072.60
615.05	1073.16
615.39	1076.11
615.74	1077.91
616.09	1079.36
616.43	1078.59
616.78	1079.60
617.13	1077.21
617.47	1076.11
617.82	1077.28
618.17	1079.88
618.51	1077.11
618.86	1076.76
619.21	1076.23
619.55	1072.32
619.90	1067.78
620.25	1069.67
620.59	1070.19
620.94	1072.08
621.29	1076.58
621.63	1081.40
621.98	1081.23
622.32	1083.74
622.67	1085.03
623.02	1083.39
623.36	1080.84
623.71	1082.08
624.05	1081.82
624.40	1077.75
624.75	1080.25
625.09	1079.31
625.44	1077.82
625.78	1079.36
626.13	1081.35
626.48	1080.51
626.82	1079.27
627.17	1079.22
627.51	1080.06
627.86	1078.87
628.20	1076.88
628.55	1079.15
628.89	1079.01
629.24	1076.93
629.58	1075.83
629.93	1077.54
630.28	1080.04
630.62	1077.93
630.97	1077.07
631.31	1080.04
631.66	1077.30
632.00	1070.87
632.35	1073.79
632.69	1071.22
633.04	1069.86
633.38	1070.87
633.73	1077.00
634.07	1078.05
634.42	1081.89
634.76	1083.11
635.11	1084.14
635.45	1081.70
635.79	1079.83
636.14	1078.05
636.48	1076.58
636.83	1074.47
637.17	1074.80
637.52	1075.08
637.86	1076.23
638.21	1079.29
638.55	1077.91
638.89	1076.48
639.24	1074.38
639.58	1074.10
639.93	1070.14
640.27	1072.46
640.61	1073.58
640.96	1072.83
641.30	1073.07
641.65	1074.35
641.99	1077.09
642.33	1075.92
642.68	1076.34
643.02	1074.28
643.37	1075.50
643.71	1071.66
644.05	1071.94
644.40	1075.83
644.74	1078.24
645.08	1075.15
645.43	1075.45
645.77	1073.98
646.11	1073.35
646.46	1069.70
646.80	1074.35
647.14	1073.88
647.49	1074.49
647.83	1071.22
648.17	1073.63
648.52	1071.87
648.86	1076.37
649.20	1077.21
649.55	1079.95
649.89	1082.17
650.23	1081.54
650.57	1077.68
650.92	1078.10
651.26	1075.80
651.60	1077.65
651.95	1077.70
652.29	1080.86
652.63	1082.12
652.97	1084.32
653.32	1080.70
653.66	1081.16
654.00	1079.01
654.34	1076.76
654.69	1078.17
655.03	1080.32
655.37	1078.43
655.71	1077.40
656.05	1079.74
656.40	1076.44
656.74	1072.46
657.08	1075.01
657.42	1072.36
657.76	1073.65
658.11	1075.83
658.45	1076.90
658.79	1074.10
659.13	1079.24
659.47	1078.36
659.82	1079.20
660.16	1077.00
660.50	1078.96
660.84	1076.97
661.18	1073.09
661.52	1070.82
661.87	1073.37
662.21	1073.42
662.55	1072.76
662.89	1074.40
663.23	1072.78
663.57	1072.43
663.91	1069.27
664.25	1068.38
664.60	1068.27
664.94	1071.22
665.28	1071.78
665.62	1075.45
665.96	1077.82
666.30	1076.15
666.64	1074.89
666.98	1073.79
667.32	1070.28
667.66	1072.20
668.01	1075.17
668.35	1076.27
668.69	1075.97
669.03	1080.34
669.37	1076.86
669.71	1075.71
670.05	1075.83
670.39	1075.76
670.73	1075.69
671.07	1078.14
671.41	1078.28
671.75	1078.38
672.09	1078.64
672.43	1078.33
672.77	1076.62
673.11	1077.56
673.45	1076.46
673.79	1075.17
674.13	1072.53
674.47	1072.08
674.81	1070.05
675.15	1072.69
675.49	1073.28
675.83	1072.41
676.17	1071.15
676.51	1070.19
676.85	1066.96
677.19	1071.57
677.53	1072.90
677.87	1074.89
678.21	1078.00
678.55	1079.03
678.89	1073.84
679.23	1074.12
679.57	1072.76
679.90	1073.79
680.24	1072.53
680.58	1076.15
680.92	1077.09
681.26	1078.78
681.60	1079.60
681.94	1079.53
682.28	1078.19
682.62	1079.20
682.96	1078.10
683.29	1074.31
683.63	1075.94
683.97	1078.43
684.31	1078.00
684.65	1078.00
684.99	1082.45
685.33	1079.85
685.67	1077.21
686.00	1074.75
686.34	1075.41
686.68	1070.37
687.02	1072.95
687.36	1073.04
687.70	1076.01
688.03	1075.73
688.37	1078.50
688.71	1075.48
689.05	1076.60
689.39	1075.36
689.72	1075.97
690.06	1075.13
690.40	1076.55
690.74	1076.62
691.08	1076.27
691.41	1074.10
691.75	1076.76
692.09	1076.72
692.43	1072.57
692.76	1072.64
693.10	1074.28
693.44	1071.24
693.78	1071.87
694.11	1073.49
694.45	1075.34
694.79	1073.02
695.13	1074.07
695.46	1074.03
695.80	1075.03
696.14	1073.30
696.48	1075.76
696.81	1075.62
697.15	1073.65
697.49	1073.25
697.82	1074.17
698.16	1074.47
698.50	1074.42
698.83	1077.93
699.17	1080.30
699.51	1078.94
699.84	1078.26
700.18	1076.37
700.52	1075.71
700.85	1075.50
701.19	1076.23
701.53	1076.53
701.86	1078.87
702.20	1078.82
702.54	1077.47
702.87	1074.75
703.21	1073.95
703.55	1074.31
703.88	1075.24
704.22	1073.53
704.55	1076.48
704.89	1075.27
705.23	1070.56
705.56	1069.09
705.90	1071.47
706.23	1071.03
706.57	1072.13
706.91	1073.04
707.24	1074.21
707.58	1075.29
707.91	1076.95
708.25	1074.87
708.58	1080.88
708.92	1078.66
709.26	1075.71
709.59	1073.04
709.93	1078.24
710.26	1073.81
710.60	1076.08
710.93	1076.32
711.27	1078.59
711.60	1077.84
711.94	1078.47
712.27	1078.33
712.61	1081.73
712.94	1078.14
713.28	1078.73
713.61	1078.47
713.95	1078.19
714.28	1075.10
714.62	1079.36
714.95	1076.11
715.29	1078.43
715.62	1078.21
715.96	1080.67
716.29	1077.04
716.63	1078.33
716.96	1080.34
717.29	1078.03
717.63	1076.06
717.96	1078.89
718.30	1079.46
718.63	1076.11
718.97	1076.51
719.30	1076.74
719.63	1074.94
719.97	1074.12
720.30	1070.96
720.64	1074.12
720.97	1073.28
721.30	1072.69
721.64	1071.54
721.97	1075.13
722.31	1071.73
722.64	1074.00
722.97	1076.76
723.31	1079.81
723.64	1081.94
723.97	1083.90
724.31	1082.97
724.64	1081.44
724.98	1081.68
725.31	1078.54
725.64	1078.05
725.98	1079.15
726.31	1081.19
726.64	1077.89
726.97	1081.75
727.31	1082.08
727.64	1081.49
727.97	1079.01
728.31	1077.51
728.64	1073.02
728.97	1073.81
729.31	1069.93
729.64	1070.87
729.97	1071.24
730.30	1073.60
730.64	1074.66
730.97	1075.83
731.30	1071.73
731.63	1075.76
731.97	1075.03
732.30	1068.99
732.63	1069.23
732.96	1072.92
733.30	1071.97
733.63	1071.33
733.96	1076.51
734.29	1079.15
734.63	1079.71
734.96	1076.83
735.29	1077.07
735.62	1078.45
735.95	1076.74
736.29	1074.66
736.62	1079.36
736.95	1081.47
737.28	1081.54
737.61	1083.76
737.94	1082.33
738.28	1078.54
738.61	1075.92
738.94	1073.51
739.27	1069.23
739.60	1074.98
739.93	1075.87
740.27	1076.76
740.60	1074.94
740.93	1078.03
741.26	1075.22
741.59	1075.99
741.92	1073.77
742.25	1073.79
742.58	1074.75
742.91	1074.52
743.25	1071.38
743.58	1073.67
743.91	1072.90
744.24	1070.87
744.57	1071.17
744.90	1072.25
745.23	1068.67
745.56	1071.50
745.89	1071.78
746.22	1072.83
746.55	1075.50
746.88	1076.39
747.21	1073.07
747.54	1071.85
747.87	1068.36
748.20	1065.79
748.53	1070.21
748.87	1071.10
749.20	1074.45
749.53	1079.20
749.86	1081.23
750.19	1077.33
750.52	1075.45
750.85	1074.63
751.18	1072.78
751.51	1069.23
751.84	1068.27
752.16	1070.35
752.49	1068.20
752.82	1066.42
753.15	1069.41
753.48	1070.70
753.81	1071.36
754.14	1073.04
754.47	1075.87
754.80	1076.20
755.13	1074.40
755.46	1074.63
755.79	1074.80
756.12	1071.33
756.45	1072.22
756.78	1073.70
757.11	1077.02
757.43	1074.47
757.76	1074.56
758.09	1072.81
758.42	1073.00
758.75	1071.75
759.08	1072.25
759.41	1073.88
759.74	1078.47
760.07	1078.85
760.39	1076.83
760.72	1079.34
761.05	1081.16
761.38	1078.26
761.71	1079.27
762.04	1080.48
762.36	1081.68
762.69	1080.81
763.02	1078.89
763.35	1081.19
763.68	1079.57
764.01	1078.87
764.33	1080.41
764.66	1083.55
764.99	1083.67
765.32	1085.45
765.65	1083.36
765.97	1078.80
766.30	1075.85
