SpectraSuite Data File
++++++++++++++++++++++++++++++++++++
Date: Mon Aug 26 10:22:06 PDT 2019
User: corrico
Dark Spectrum Present: No
Reference Spectrum Present: No
Number of Sampled Component Spectra: 1
Spectrometers: USB2+H06089
Integration Time (usec): 2000 (USB2+H06089)
Spectra Averaged: 20 (USB2+H06089)
Boxcar Smoothing: 2 (USB2+H06089)
Correct for Electrical Dark: No (USB2+H06089)
Strobe/Lamp Enabled: No (USB2+H06089)
Correct for Detector Non-linearity: No (USB2+H06089)
Correct for Stray Light: No (USB2+H06089)
Number of Pixels in Processed Spectrum: 2048
>>>>>Begin Processed Spectral Data<<<<<
339.70	1035.69
340.07	1035.69
340.45	999.41
340.82	978.84
341.19	955.13
341.57	929.68
341.94	915.85
342.31	909.27
342.69	902.30
343.06	895.14
343.43	890.22
343.81	893.34
344.18	893.92
344.55	895.51
344.93	902.04
345.30	909.34
345.67	914.80
346.04	920.35
346.42	932.66
346.79	943.33
347.16	953.60
347.54	965.31
347.91	979.89
348.28	986.47
348.65	995.50
349.03	1004.35
349.40	1013.66
349.77	1020.66
350.14	1027.52
350.52	1035.69
350.89	1042.22
351.26	1047.97
351.63	1052.30
352.01	1058.37
352.38	1062.25
352.75	1067.05
353.12	1073.56
353.50	1074.49
353.87	1076.74
354.24	1079.15
354.61	1079.06
354.98	1076.48
355.36	1082.52
355.73	1084.32
356.10	1083.36
356.47	1082.19
356.84	1082.26
357.22	1080.93
357.59	1082.05
357.96	1083.48
358.33	1086.83
358.70	1090.46
359.08	1089.10
359.45	1088.86
359.82	1088.30
360.19	1091.39
360.56	1087.41
360.94	1087.04
361.31	1083.93
361.68	1083.74
362.05	1078.61
362.42	1079.31
362.79	1075.73
363.16	1073.32
363.54	1070.30
363.91	1071.61
364.28	1071.59
364.65	1074.73
365.02	1080.39
365.39	1078.61
365.76	1077.96
366.14	1078.68
366.51	1079.60
366.88	1074.89
367.25	1079.08
367.62	1077.16
367.99	1072.48
368.36	1069.16
368.73	1069.27
369.10	1068.88
369.48	1071.90
369.85	1074.14
370.22	1076.08
370.59	1075.62
370.96	1074.98
371.33	1074.05
371.70	1071.47
372.07	1067.66
372.44	1071.36
372.81	1073.00
373.18	1073.84
373.55	1074.98
373.93	1079.48
374.30	1079.01
374.67	1081.37
375.04	1079.95
375.41	1080.39
375.78	1081.94
376.15	1084.39
376.52	1081.12
376.89	1082.64
377.26	1084.42
377.63	1081.54
378.00	1076.93
378.37	1077.75
378.74	1078.17
379.11	1077.51
379.48	1078.14
379.85	1079.29
380.22	1079.81
380.59	1078.43
380.96	1078.61
381.33	1077.61
381.70	1075.20
382.07	1076.34
382.44	1074.59
382.81	1073.49
383.18	1078.75
383.55	1082.31
383.92	1085.00
384.29	1088.91
384.66	1090.22
385.03	1086.38
385.40	1087.06
385.77	1082.05
386.14	1081.47
386.51	1082.19
386.88	1084.63
387.25	1082.03
387.62	1083.36
387.99	1082.31
388.36	1084.00
388.73	1081.82
389.10	1083.83
389.46	1082.99
389.83	1082.92
390.20	1084.09
390.57	1082.57
390.94	1084.49
391.31	1084.89
391.68	1085.70
392.05	1084.28
392.42	1083.29
392.79	1084.18
393.16	1086.10
393.53	1087.37
393.89	1090.67
394.26	1093.50
394.63	1095.18
395.00	1092.49
395.37	1096.03
395.74	1093.19
396.11	1096.24
396.48	1093.71
396.84	1095.28
397.21	1089.26
397.58	1088.00
397.95	1086.57
398.32	1084.30
398.69	1085.33
399.06	1086.08
399.42	1084.30
399.79	1085.24
400.16	1086.78
400.53	1085.21
400.90	1086.20
401.27	1089.17
401.64	1087.67
402.00	1088.56
402.37	1090.03
402.74	1090.99
403.11	1091.95
403.48	1092.26
403.84	1091.70
404.21	1092.00
404.58	1096.05
404.95	1095.86
405.32	1098.86
405.68	1100.47
406.05	1100.92
406.42	1098.32
406.79	1099.26
407.16	1097.01
407.52	1096.80
407.89	1095.86
408.26	1092.66
408.63	1094.69
408.99	1096.52
409.36	1099.49
409.73	1101.69
410.10	1103.45
410.47	1098.98
410.83	1097.34
411.20	1095.70
411.57	1094.69
411.94	1098.34
412.30	1099.40
412.67	1097.88
413.04	1096.45
413.40	1093.69
413.77	1093.78
414.14	1097.69
414.51	1099.49
414.87	1098.13
415.24	1098.74
415.61	1098.27
415.97	1097.22
416.34	1102.30
416.71	1108.17
417.08	1114.19
417.44	1113.79
417.81	1114.05
418.18	1110.33
418.54	1107.82
418.91	1108.43
419.28	1111.64
419.64	1114.77
420.01	1117.49
420.38	1122.47
420.74	1126.13
421.11	1126.01
421.48	1127.04
421.84	1125.33
422.21	1123.95
422.58	1122.40
422.94	1126.83
423.31	1129.99
423.68	1136.05
424.04	1142.49
424.41	1147.99
424.77	1149.74
425.14	1149.88
425.51	1154.94
425.87	1159.83
426.24	1163.34
426.61	1170.99
426.97	1177.94
427.34	1186.86
427.70	1195.29
428.07	1202.10
428.44	1208.16
428.80	1221.62
429.17	1230.96
429.53	1235.33
429.90	1247.95
430.27	1259.35
430.63	1270.77
431.00	1283.25
431.36	1305.39
431.73	1323.48
432.09	1339.72
432.46	1358.10
432.83	1377.03
433.19	1393.41
433.56	1414.88
433.92	1445.63
434.29	1473.27
434.65	1503.23
435.02	1533.61
435.38	1566.64
435.75	1597.16
436.11	1633.27
436.48	1673.20
436.84	1715.17
437.21	1758.58
437.57	1806.24
437.94	1853.54
438.30	1906.79
438.67	1966.94
439.03	2035.42
439.40	2106.20
439.76	2181.75
440.13	2257.00
440.49	2338.50
440.86	2412.41
441.22	2495.03
441.59	2591.02
441.95	2693.47
442.32	2797.57
442.68	2917.78
443.05	3040.82
443.41	3162.44
443.78	3286.95
444.14	3422.94
444.51	3562.13
444.87	3728.33
445.24	3896.90
445.60	4083.23
445.96	4272.09
446.33	4487.63
446.69	4689.40
447.06	4908.15
447.42	5136.70
447.79	5376.07
448.15	5643.36
448.51	5931.67
448.88	6257.23
449.24	6568.78
449.61	6923.26
449.97	7272.91
450.33	7651.30
450.70	8004.96
451.06	8436.53
451.43	8845.14
451.79	9318.40
452.15	9804.15
452.52	10343.15
452.88	10891.45
453.24	11532.85
453.61	12237.89
453.97	12952.67
454.34	13658.31
454.70	14491.22
455.06	15295.59
455.43	16071.34
455.79	16769.19
456.15	17598.86
456.52	18343.60
456.88	19270.99
457.24	20173.99
457.61	21316.36
457.97	22383.64
458.33	23499.75
458.70	24546.93
459.06	25538.31
459.42	26546.52
459.79	27475.17
460.15	28547.02
460.51	29560.73
460.88	30687.16
461.24	31677.93
461.60	32841.30
461.96	33862.40
462.33	34916.79
462.69	35971.25
463.05	37112.47
463.42	38149.87
463.78	39135.49
464.14	39903.72
464.50	40648.93
464.87	41175.52
465.23	41499.31
465.59	41875.93
465.95	42199.88
466.32	42438.85
466.68	42717.75
467.04	42920.35
467.40	42960.72
467.77	43060.10
468.13	42977.64
468.49	42766.62
468.85	42646.74
469.22	42514.40
469.58	42271.60
469.94	42130.93
470.30	41941.16
470.66	41590.36
471.03	41079.63
471.39	40707.49
471.75	39988.36
472.11	39264.29
472.47	38730.48
472.84	38191.48
473.20	37462.22
473.56	37050.49
473.92	36488.88
474.28	35875.24
474.65	35234.71
475.01	34523.67
475.37	33689.41
475.73	32978.55
476.09	32256.21
476.45	31602.29
476.81	31072.18
477.18	30501.51
477.54	30027.04
477.90	29576.69
478.26	28984.63
478.62	28449.63
478.98	28019.65
479.34	27582.14
479.71	27007.86
480.07	26592.00
480.43	26149.59
480.79	25663.41
481.15	25184.49
481.51	24795.07
481.87	24454.46
482.23	24087.20
482.59	23780.87
482.96	23453.15
483.32	23159.27
483.68	22753.78
484.04	22413.81
484.40	21976.48
484.76	21550.95
485.12	21086.66
485.48	20660.59
485.84	20157.96
486.20	19708.86
486.56	19261.91
486.92	18873.96
487.28	18469.94
487.64	18065.17
488.00	17683.24
488.37	17296.93
488.73	16855.13
489.09	16372.05
489.45	15938.86
489.81	15480.61
490.17	15027.43
490.53	14613.60
490.89	14218.24
491.25	13801.74
491.61	13405.77
491.97	13007.27
492.33	12598.75
492.69	12243.65
493.05	11905.74
493.41	11584.62
493.77	11261.14
494.13	10958.88
494.49	10657.68
494.85	10367.15
495.21	10078.23
495.57	9816.37
495.93	9542.48
496.29	9277.11
496.64	9043.15
497.00	8791.31
497.36	8536.07
497.72	8300.66
498.08	8085.15
498.44	7847.18
498.80	7633.47
499.16	7432.56
499.52	7229.96
499.88	7042.48
500.24	6875.02
500.60	6719.51
500.96	6562.04
501.32	6413.84
501.68	6246.56
502.03	6075.21
502.39	5899.16
502.75	5729.80
503.11	5567.69
503.47	5422.81
503.83	5285.87
504.19	5166.05
504.55	5049.40
504.91	4936.75
505.26	4822.84
505.62	4708.78
505.98	4595.17
506.34	4469.63
506.70	4344.43
507.06	4228.74
507.42	4121.87
507.78	4016.97
508.13	3929.55
508.49	3844.28
508.85	3770.21
509.21	3689.15
509.57	3605.97
509.93	3519.96
510.28	3437.57
510.64	3348.02
511.00	3266.31
511.36	3193.33
511.72	3120.19
512.07	3051.89
512.43	2992.30
512.79	2931.29
513.15	2870.88
513.51	2811.10
513.86	2754.90
514.22	2704.84
514.58	2654.96
514.94	2605.37
515.30	2562.75
515.65	2520.90
516.01	2473.41
516.37	2430.46
516.73	2390.51
517.08	2354.86
517.44	2318.14
517.80	2281.09
518.16	2245.72
518.51	2207.52
518.87	2169.65
519.23	2134.19
519.59	2101.01
519.94	2067.16
520.30	2042.75
520.66	2008.58
521.01	1979.77
521.37	1952.71
521.73	1926.07
522.09	1898.76
522.44	1882.54
522.80	1858.50
523.16	1838.87
523.51	1817.24
523.87	1793.32
524.23	1767.41
524.58	1748.10
524.94	1727.36
525.30	1708.45
525.65	1690.33
526.01	1672.99
526.37	1651.53
526.72	1633.62
527.08	1611.39
527.44	1594.72
527.79	1580.26
528.15	1564.34
528.51	1546.37
528.86	1534.22
529.22	1518.52
529.58	1504.19
529.93	1490.08
530.29	1478.00
530.65	1468.05
531.00	1454.20
531.36	1441.44
531.71	1432.57
532.07	1421.34
532.43	1406.92
532.78	1397.39
533.14	1387.10
533.49	1375.44
533.85	1364.70
534.21	1361.21
534.56	1356.25
534.92	1350.09
535.27	1347.75
535.63	1342.48
535.98	1329.24
536.34	1316.64
536.69	1310.33
537.05	1295.84
537.41	1288.82
537.76	1283.46
538.12	1279.43
538.47	1270.75
538.83	1270.42
539.18	1267.26
539.54	1265.62
539.89	1260.36
540.25	1258.79
540.60	1253.92
540.96	1245.98
541.31	1242.54
541.67	1238.92
542.02	1235.01
542.38	1230.37
542.73	1227.28
543.09	1221.76
543.44	1217.31
543.80	1213.80
544.15	1212.33
544.51	1209.59
544.86	1203.90
545.22	1202.33
545.57	1200.86
545.93	1197.11
546.28	1191.66
546.64	1191.57
546.99	1191.85
547.35	1187.24
547.70	1184.83
548.05	1184.50
548.41	1182.20
548.76	1176.49
549.12	1171.37
549.47	1171.67
549.83	1168.25
550.18	1162.47
550.53	1160.95
550.89	1160.77
551.24	1155.73
551.60	1157.91
551.95	1156.67
552.30	1152.06
552.66	1150.42
553.01	1148.59
553.37	1148.03
553.72	1150.61
554.07	1153.44
554.43	1153.91
554.78	1152.83
555.13	1148.59
555.49	1144.64
555.84	1144.15
556.19	1140.05
556.55	1140.31
556.90	1141.32
557.26	1138.39
557.61	1134.04
557.96	1132.75
558.32	1129.47
558.67	1124.21
559.02	1127.83
559.37	1126.80
559.73	1123.34
560.08	1121.94
560.43	1122.29
560.79	1121.63
561.14	1122.90
561.49	1125.94
561.85	1126.41
562.20	1128.40
562.55	1123.88
562.90	1122.05
563.26	1120.25
563.61	1119.08
563.96	1116.76
564.32	1117.84
564.67	1118.19
565.02	1117.65
565.37	1117.98
565.73	1115.57
566.08	1110.75
566.43	1107.61
566.78	1111.12
567.14	1109.67
567.49	1110.02
567.84	1111.75
568.19	1114.59
568.54	1111.19
568.90	1114.12
569.25	1110.91
569.60	1107.99
569.95	1105.88
570.31	1104.03
570.66	1098.76
571.01	1099.72
571.36	1102.30
571.71	1100.50
572.06	1100.33
572.42	1099.56
572.77	1100.08
573.12	1097.45
573.47	1096.38
573.82	1094.65
574.18	1096.59
574.53	1098.27
574.88	1100.29
575.23	1102.23
575.58	1106.16
575.93	1104.92
576.28	1103.05
576.64	1101.03
576.99	1102.18
577.34	1098.02
577.69	1095.60
578.04	1094.48
578.39	1095.46
578.74	1091.16
579.09	1092.89
579.44	1093.80
579.80	1096.28
580.15	1094.69
580.50	1094.76
580.85	1093.47
581.20	1093.71
581.55	1093.08
581.90	1095.00
582.25	1095.65
582.60	1095.21
582.95	1093.92
583.30	1092.45
583.65	1092.35
584.00	1092.59
584.35	1093.92
584.71	1095.14
585.06	1092.61
585.41	1089.24
585.76	1091.16
586.11	1090.41
586.46	1088.82
586.81	1088.84
587.16	1092.09
587.51	1087.23
587.86	1086.78
588.21	1088.51
588.56	1086.87
588.91	1085.21
589.26	1090.64
589.61	1093.01
589.96	1092.42
590.31	1094.88
590.66	1093.90
591.01	1090.41
591.36	1088.77
591.71	1087.58
592.06	1087.90
592.41	1089.54
592.76	1091.11
593.10	1089.57
593.45	1091.04
593.80	1090.27
594.15	1087.23
594.50	1085.21
594.85	1086.50
595.20	1084.25
595.55	1086.50
595.90	1090.22
596.25	1090.64
596.60	1086.29
596.95	1087.83
597.30	1084.28
597.64	1095.32
597.99	1092.49
598.34	1095.16
598.69	1094.74
599.04	1097.36
599.39	1083.50
599.74	1081.84
600.09	1079.27
600.44	1079.88
600.78	1078.40
601.13	1077.58
601.48	1081.84
601.83	1085.40
602.18	1086.20
602.53	1088.14
602.88	1092.05
603.22	1092.07
603.57	1090.15
603.92	1090.81
604.27	1090.57
604.62	1086.97
604.97	1085.28
605.31	1083.25
605.66	1081.44
606.01	1077.49
606.36	1076.53
606.71	1077.96
607.05	1080.30
607.40	1080.60
607.75	1081.44
608.10	1082.92
608.44	1082.17
608.79	1079.62
609.14	1080.88
609.49	1081.77
609.84	1083.97
610.18	1086.03
610.53	1087.62
610.88	1085.99
611.23	1086.99
611.57	1083.60
611.92	1083.60
612.27	1084.65
612.62	1083.46
612.96	1082.08
613.31	1083.95
613.66	1082.12
614.00	1082.24
614.35	1080.11
614.70	1079.92
615.05	1081.96
615.39	1080.88
615.74	1081.21
616.09	1087.02
616.43	1087.25
616.78	1085.00
617.13	1088.21
617.47	1086.76
617.82	1085.49
618.17	1085.10
618.51	1082.19
618.86	1081.75
619.21	1083.01
619.55	1080.20
619.90	1079.81
620.25	1081.00
620.59	1078.40
620.94	1076.58
621.29	1080.93
621.63	1083.79
621.98	1086.85
622.32	1089.96
622.67	1089.10
623.02	1084.77
623.36	1081.84
623.71	1078.71
624.05	1077.54
624.40	1083.50
624.75	1083.55
625.09	1083.27
625.44	1087.27
625.78	1086.92
626.13	1084.51
626.48	1088.98
626.82	1090.55
627.17	1086.43
627.51	1089.26
627.86	1088.07
628.20	1087.04
628.55	1088.93
628.89	1091.91
629.24	1089.10
629.58	1089.61
629.93	1088.09
630.28	1086.03
630.62	1084.46
630.97	1083.57
631.31	1082.94
631.66	1079.81
632.00	1078.05
632.35	1076.18
632.69	1075.76
633.04	1077.04
633.38	1080.37
633.73	1079.95
634.07	1082.66
634.42	1083.67
634.76	1084.35
635.11	1086.55
635.45	1088.82
635.79	1088.58
636.14	1088.72
636.48	1087.02
636.83	1083.34
637.17	1083.83
637.52	1085.73
637.86	1083.20
638.21	1082.15
638.55	1082.36
638.89	1083.41
639.24	1080.74
639.58	1083.88
639.93	1086.27
640.27	1088.86
640.61	1090.29
640.96	1093.38
641.30	1093.33
641.65	1092.94
641.99	1090.27
642.33	1088.72
642.68	1085.49
643.02	1086.99
643.37	1084.00
643.71	1081.05
644.05	1079.15
644.40	1079.17
644.74	1078.43
645.08	1078.80
645.43	1082.54
645.77	1084.11
646.11	1083.53
646.46	1082.05
646.80	1082.59
647.14	1084.89
647.49	1085.40
647.83	1086.78
648.17	1085.05
648.52	1089.12
648.86	1088.89
649.20	1089.03
649.55	1089.17
649.89	1093.33
650.23	1087.86
650.57	1081.96
650.92	1077.47
651.26	1077.16
651.60	1075.41
651.95	1075.80
652.29	1075.92
652.63	1076.93
652.97	1080.32
653.32	1081.33
653.66	1082.33
654.00	1085.31
654.34	1089.75
654.69	1088.56
655.03	1087.95
655.37	1086.43
655.71	1087.69
656.05	1083.39
656.40	1082.99
656.74	1081.00
657.08	1082.10
657.42	1077.11
657.76	1079.01
658.11	1076.37
658.45	1075.92
658.79	1076.04
659.13	1076.25
659.47	1077.72
659.82	1079.29
660.16	1078.64
660.50	1077.33
660.84	1079.53
661.18	1075.17
661.52	1074.14
661.87	1075.69
662.21	1077.09
662.55	1078.75
662.89	1082.26
663.23	1078.82
663.57	1082.03
663.91	1083.32
664.25	1085.07
664.60	1083.46
664.94	1085.47
665.28	1084.25
665.62	1083.67
665.96	1083.11
666.30	1086.59
666.64	1088.98
666.98	1088.07
667.32	1088.40
667.66	1085.33
668.01	1082.03
668.35	1083.11
668.69	1081.40
669.03	1080.02
669.37	1082.26
669.71	1079.95
670.05	1078.21
670.39	1080.06
670.73	1084.53
671.07	1082.78
671.41	1083.43
671.75	1083.06
672.09	1082.61
672.43	1080.74
672.77	1082.29
673.11	1083.81
673.45	1081.84
673.79	1081.42
674.13	1080.51
674.47	1079.41
674.81	1080.56
675.15	1079.03
675.49	1081.87
675.83	1081.28
676.17	1083.41
676.51	1083.48
676.85	1087.62
677.19	1085.21
677.53	1085.94
677.87	1084.74
678.21	1081.96
678.55	1082.10
678.89	1081.21
679.23	1082.40
679.57	1082.78
679.90	1084.11
680.24	1084.30
680.58	1084.81
680.92	1081.80
681.26	1083.97
681.60	1087.51
681.94	1086.41
682.28	1087.06
682.62	1087.25
682.96	1084.93
683.29	1083.46
683.63	1082.66
683.97	1083.46
684.31	1083.71
684.65	1081.14
684.99	1077.37
685.33	1074.63
685.67	1074.89
686.00	1077.79
686.34	1076.65
686.68	1078.71
687.02	1080.41
687.36	1078.57
687.70	1075.01
688.03	1077.18
688.37	1076.27
688.71	1078.66
689.05	1079.24
689.39	1080.04
689.72	1081.49
690.06	1082.40
690.40	1081.77
690.74	1086.69
691.08	1087.09
691.41	1087.97
691.75	1088.30
692.09	1086.38
692.43	1079.20
692.76	1077.93
693.10	1077.84
693.44	1078.45
693.78	1081.61
694.11	1086.01
694.45	1087.51
694.79	1083.36
695.13	1082.73
695.46	1080.39
695.80	1079.92
696.14	1082.52
696.48	1084.11
696.81	1084.02
697.15	1084.11
697.49	1081.42
697.82	1077.18
698.16	1077.58
698.50	1077.28
698.83	1077.00
699.17	1074.98
699.51	1076.60
699.84	1080.02
700.18	1081.40
700.52	1083.86
700.85	1084.72
701.19	1085.17
701.53	1083.86
701.86	1083.39
702.20	1081.84
702.54	1082.03
702.87	1082.10
703.21	1080.25
703.55	1078.92
703.88	1079.13
704.22	1081.05
704.55	1079.69
704.89	1079.34
705.23	1080.34
705.56	1082.08
705.90	1080.58
706.23	1080.84
706.57	1080.48
706.91	1080.93
707.24	1078.14
707.58	1077.18
707.91	1079.43
708.25	1080.74
708.58	1078.59
708.92	1078.68
709.26	1079.67
709.59	1076.51
709.93	1074.35
710.26	1075.38
710.60	1074.52
710.93	1078.96
711.27	1082.19
711.60	1084.28
711.94	1084.02
712.27	1084.74
712.61	1081.02
712.94	1078.66
713.28	1076.13
713.61	1077.79
713.95	1079.03
714.28	1080.13
714.62	1082.19
714.95	1087.13
715.29	1084.04
715.62	1085.75
715.96	1083.53
716.29	1083.04
716.63	1082.01
716.96	1085.14
717.29	1086.36
717.63	1086.52
717.96	1087.06
718.30	1086.87
718.63	1086.78
718.97	1084.35
719.30	1084.46
719.63	1081.49
719.97	1081.16
720.30	1079.29
720.64	1079.64
720.97	1078.61
721.30	1077.65
721.64	1077.09
721.97	1075.78
722.31	1075.76
722.64	1079.41
722.97	1080.86
723.31	1080.77
723.64	1084.28
723.97	1083.64
724.31	1082.97
724.64	1081.51
724.98	1082.64
725.31	1081.73
725.64	1080.09
725.98	1080.16
726.31	1081.07
726.64	1077.91
726.97	1078.33
727.31	1082.87
727.64	1082.83
727.97	1083.79
728.31	1087.60
728.64	1085.49
728.97	1082.71
729.31	1080.86
729.64	1082.71
729.97	1081.07
730.30	1079.83
730.64	1079.78
730.97	1079.48
731.30	1075.80
731.63	1073.46
731.97	1075.73
732.30	1075.97
732.63	1077.09
732.96	1077.33
733.30	1078.24
733.63	1079.08
733.96	1078.26
734.29	1078.47
734.63	1081.80
734.96	1083.11
735.29	1080.88
735.62	1080.20
735.95	1080.13
736.29	1078.05
736.62	1076.79
736.95	1077.37
737.28	1075.69
737.61	1074.14
737.94	1074.77
738.28	1075.10
738.61	1077.40
738.94	1077.91
739.27	1079.13
739.60	1080.65
739.93	1083.43
740.27	1079.55
740.60	1081.02
740.93	1083.53
741.26	1081.96
741.59	1078.50
741.92	1078.38
742.25	1079.10
742.58	1076.15
742.91	1076.11
743.25	1078.73
743.58	1079.15
743.91	1079.10
744.24	1078.14
744.57	1078.40
744.90	1078.10
745.23	1080.95
745.56	1076.62
745.89	1078.54
746.22	1078.94
746.55	1076.51
746.88	1074.21
747.21	1078.99
747.54	1078.96
747.87	1077.33
748.20	1079.36
748.53	1079.71
748.87	1078.12
749.20	1077.61
749.53	1077.44
749.86	1072.97
750.19	1073.95
750.52	1074.28
750.85	1076.53
751.18	1079.64
751.51	1080.48
751.84	1079.53
752.16	1078.19
752.49	1076.86
752.82	1074.91
753.15	1079.06
753.48	1082.47
753.81	1086.36
754.14	1085.82
754.47	1087.55
754.80	1085.28
755.13	1083.01
755.46	1080.39
755.79	1080.20
756.12	1080.58
756.45	1084.63
756.78	1081.63
757.11	1084.53
757.43	1081.49
757.76	1078.31
758.09	1074.87
758.42	1076.53
758.75	1075.52
759.08	1077.75
759.41	1078.99
759.74	1079.31
760.07	1079.10
760.39	1075.92
760.72	1077.93
761.05	1075.73
761.38	1074.84
761.71	1075.97
762.04	1078.07
762.36	1074.89
762.69	1079.10
763.02	1080.20
763.35	1080.67
763.68	1080.74
