SpectraSuite Data File
++++++++++++++++++++++++++++++++++++
Date: Mon Aug 26 10:22:10 PDT 2019
User: corrico
Dark Spectrum Present: No
Reference Spectrum Present: No
Number of Sampled Component Spectra: 1
Spectrometers: USB2+H06089
Integration Time (usec): 2000 (USB2+H06089)
Spectra Averaged: 20 (USB2+H06089)
Boxcar Smoothing: 2 (USB2+H06089)
Correct for Electrical Dark: No (USB2+H06089)
Strobe/Lamp Enabled: No (USB2+H06089)
Correct for Detector Non-linearity: No (USB2+H06089)
Correct for Stray Light: No (USB2+H06089)
Number of Pixels in Processed Spectrum: 2048
>>>>>Begin Processed Spectral Data<<<<<
339.70	1038.61
340.07	1038.61
340.45	1002.99
340.82	981.20
341.19	956.06
341.57	926.59
341.94	909.98
342.31	900.24
342.69	892.61
343.06	890.48
343.43	890.69
343.81	893.85
344.18	897.29
344.55	900.03
344.93	904.34
345.30	911.80
345.67	918.33
346.04	927.32
346.42	938.95
346.79	946.51
347.16	953.58
347.54	964.79
347.91	974.62
348.28	982.46
348.65	991.94
349.03	1001.45
349.40	1006.45
349.77	1015.14
350.14	1017.90
350.52	1022.42
350.89	1028.17
351.26	1038.12
351.63	1041.89
352.01	1051.77
352.38	1059.63
352.75	1066.75
353.12	1069.93
353.50	1072.43
353.87	1077.96
354.24	1081.28
354.61	1084.56
354.98	1085.82
355.36	1087.27
355.73	1086.34
356.10	1085.73
356.47	1083.15
356.84	1083.97
357.22	1083.64
357.59	1080.70
357.96	1079.10
358.33	1077.14
358.70	1074.40
359.08	1077.16
359.45	1081.02
359.82	1080.88
360.19	1081.61
360.56	1084.89
360.94	1082.29
361.31	1078.96
361.68	1077.82
362.05	1080.72
362.42	1078.59
362.79	1079.08
363.16	1080.34
363.54	1081.12
363.91	1079.06
364.28	1079.83
364.65	1080.23
365.02	1078.82
365.39	1077.98
365.76	1079.31
366.14	1077.37
366.51	1076.20
366.88	1073.77
367.25	1074.98
367.62	1075.17
367.99	1074.96
368.36	1074.61
368.73	1073.53
369.10	1073.14
369.48	1071.15
369.85	1072.22
370.22	1073.28
370.59	1077.56
370.96	1078.59
371.33	1079.85
371.70	1082.03
372.07	1080.86
372.44	1079.20
372.81	1079.38
373.18	1079.27
373.55	1078.99
373.93	1078.03
374.30	1083.29
374.67	1084.42
375.04	1083.13
375.41	1081.80
375.78	1079.71
376.15	1075.59
376.52	1075.62
376.89	1077.07
377.26	1076.41
377.63	1081.77
378.00	1081.37
378.37	1077.47
378.74	1076.95
379.11	1076.30
379.48	1075.20
379.85	1078.21
380.22	1079.97
380.59	1078.36
380.96	1081.35
381.33	1083.79
381.70	1080.41
382.07	1079.85
382.44	1081.89
382.81	1081.30
383.18	1082.45
383.55	1083.41
383.92	1086.45
384.29	1086.97
384.66	1087.02
385.03	1083.39
385.40	1084.30
385.77	1083.50
386.14	1081.23
386.51	1079.99
386.88	1082.22
387.25	1080.86
387.62	1082.36
387.99	1085.05
388.36	1082.85
388.73	1081.21
389.10	1085.75
389.46	1084.09
389.83	1083.57
390.20	1087.93
390.57	1089.40
390.94	1088.86
391.31	1087.18
391.68	1087.09
392.05	1085.03
392.42	1084.58
392.79	1084.07
393.16	1086.43
393.53	1086.34
393.89	1088.79
394.26	1088.65
394.63	1089.17
395.00	1087.04
395.37	1087.04
395.74	1085.56
396.11	1084.46
396.48	1083.48
396.84	1081.63
397.21	1083.32
397.58	1083.46
397.95	1085.14
398.32	1084.46
398.69	1087.58
399.06	1086.76
399.42	1090.83
399.79	1092.94
400.16	1094.53
400.53	1095.44
400.90	1095.67
401.27	1093.08
401.64	1090.32
402.00	1088.42
402.37	1087.23
402.74	1084.81
403.11	1082.19
403.48	1085.07
403.84	1086.27
404.21	1092.09
404.58	1097.08
404.95	1100.61
405.32	1099.21
405.68	1097.57
406.05	1093.24
406.42	1090.08
406.79	1088.89
407.16	1086.41
407.52	1086.27
407.89	1090.57
408.26	1096.38
408.63	1097.64
408.99	1101.95
409.36	1101.60
409.73	1105.51
410.10	1102.77
410.47	1100.80
410.83	1097.10
411.20	1102.46
411.57	1096.96
411.94	1095.98
412.30	1101.32
412.67	1102.98
413.04	1100.19
413.40	1097.55
413.77	1098.72
414.14	1095.00
414.51	1095.09
414.87	1095.14
415.24	1097.85
415.61	1097.36
415.97	1095.60
416.34	1099.35
416.71	1101.53
417.08	1105.06
417.44	1108.62
417.81	1114.33
418.18	1115.34
418.54	1117.23
418.91	1116.37
419.28	1114.40
419.64	1116.60
420.01	1116.53
420.38	1117.40
420.74	1117.00
421.11	1116.90
421.48	1119.83
421.84	1119.17
422.21	1120.13
422.58	1124.49
422.94	1129.66
423.31	1131.49
423.68	1137.20
424.04	1143.00
424.41	1143.33
424.77	1146.02
425.14	1151.17
425.51	1155.71
425.87	1161.14
426.24	1169.82
426.61	1175.70
426.97	1181.88
427.34	1187.61
427.70	1193.79
428.07	1201.61
428.44	1210.20
428.80	1218.18
429.17	1227.61
429.53	1237.56
429.90	1247.51
430.27	1260.85
430.63	1272.83
431.00	1290.55
431.36	1306.74
431.73	1324.39
432.09	1340.96
432.46	1359.06
432.83	1371.74
433.19	1390.14
433.56	1413.89
433.92	1437.53
434.29	1460.78
434.65	1494.06
435.02	1522.96
435.38	1550.51
435.75	1581.94
436.11	1622.20
436.48	1662.39
436.84	1704.47
437.21	1749.62
437.57	1802.98
437.94	1852.63
438.30	1902.25
438.67	1960.78
439.03	2028.99
439.40	2097.07
439.76	2166.24
440.13	2244.85
440.49	2330.96
440.86	2403.75
441.22	2488.67
441.59	2578.15
441.95	2678.20
442.32	2777.37
442.68	2897.96
443.05	3016.06
443.41	3144.72
443.78	3272.63
444.14	3416.78
444.51	3554.64
444.87	3724.28
445.24	3887.11
445.60	4070.64
445.96	4255.73
446.33	4469.04
446.69	4667.57
447.06	4890.10
447.42	5112.22
447.79	5340.28
448.15	5601.11
448.51	5869.55
448.88	6193.69
449.24	6494.99
449.61	6845.08
449.97	7199.14
450.33	7584.30
450.70	7937.44
451.06	8368.07
451.43	8768.75
451.79	9230.53
452.15	9723.38
452.52	10264.44
452.88	10811.59
453.24	11456.74
453.61	12156.63
453.97	12854.13
454.34	13543.21
454.70	14360.59
455.06	15149.26
455.43	15890.86
455.79	16583.73
456.15	17387.30
456.52	18125.53
456.88	19036.70
457.24	19951.76
457.61	21066.04
457.97	22130.82
458.33	23234.80
458.70	24296.07
459.06	25308.54
459.42	26321.83
459.79	27235.55
460.15	28276.90
460.51	29264.44
460.88	30328.76
461.24	31301.13
461.60	32459.81
461.96	33523.14
462.33	34541.79
462.69	35567.97
463.05	36682.14
463.42	37673.50
463.78	38575.63
464.14	39327.48
464.50	40076.31
464.87	40600.31
465.23	40934.80
465.59	41349.10
465.95	41674.13
466.32	41916.79
466.68	42154.03
467.04	42328.82
467.40	42346.21
467.77	42445.15
468.13	42351.57
468.49	42186.56
468.85	42072.16
469.22	41928.08
469.58	41670.62
469.94	41530.77
470.30	41322.30
470.66	40973.98
471.03	40474.14
471.39	40112.85
471.75	39407.20
472.11	38706.33
472.47	38208.66
472.84	37685.41
473.20	36982.97
473.56	36573.07
473.92	36013.33
474.28	35383.03
474.65	34731.75
475.01	34036.73
475.37	33214.99
475.73	32528.84
476.09	31823.77
476.45	31196.32
476.81	30676.51
477.18	30149.92
477.54	29664.60
477.90	29196.22
478.26	28623.93
478.62	28083.67
478.98	27618.70
479.34	27171.63
479.71	26637.05
480.07	26196.80
480.43	25741.98
480.79	25272.17
481.15	24825.59
481.51	24456.28
481.87	24136.61
482.23	23772.14
482.59	23455.80
482.96	23120.23
483.32	22801.24
483.68	22408.64
484.04	22078.98
484.40	21650.94
484.76	21217.59
485.12	20761.07
485.48	20326.15
485.84	19828.50
486.20	19410.23
486.56	18977.37
486.92	18596.49
487.28	18212.55
487.64	17816.86
488.00	17426.39
488.37	17049.09
488.73	16620.54
489.09	16161.00
489.45	15741.11
489.81	15299.57
490.17	14865.40
490.53	14448.99
490.89	14052.39
491.25	13648.32
491.61	13243.94
491.97	12843.20
492.33	12448.68
492.69	12075.48
493.05	11735.87
493.41	11412.97
493.77	11085.27
494.13	10788.93
494.49	10498.89
494.85	10216.49
495.21	9953.25
495.57	9710.44
495.93	9445.00
496.29	9191.66
496.64	8949.90
497.00	8690.57
497.36	8419.84
497.72	8171.77
498.08	7947.03
498.44	7725.45
498.80	7511.18
499.16	7315.91
499.52	7124.57
499.88	6950.95
500.24	6782.19
500.60	6626.99
500.96	6481.83
501.32	6334.36
501.68	6158.60
502.03	5988.96
502.39	5821.75
502.75	5648.70
503.11	5489.82
503.47	5350.18
503.83	5215.60
504.19	5093.22
504.55	4975.51
504.91	4858.32
505.26	4742.30
505.62	4628.60
505.98	4515.22
506.34	4399.74
506.70	4284.23
507.06	4180.31
507.42	4073.02
507.78	3971.84
508.13	3879.84
508.49	3804.63
508.85	3721.62
509.21	3641.01
509.57	3561.97
509.93	3479.37
510.28	3385.33
510.64	3302.03
511.00	3223.67
511.36	3151.53
511.72	3084.22
512.07	3028.02
512.43	2969.77
512.79	2913.73
513.15	2852.86
513.51	2793.29
513.86	2735.64
514.22	2678.95
514.58	2623.37
514.94	2577.70
515.30	2536.37
515.65	2489.58
516.01	2450.17
516.37	2410.12
516.73	2368.51
517.08	2326.19
517.44	2285.70
517.80	2242.77
518.16	2209.96
518.51	2176.00
518.87	2147.04
519.23	2120.22
519.59	2093.56
519.94	2059.34
520.30	2029.22
520.66	1995.33
521.01	1964.93
521.37	1934.48
521.73	1904.94
522.09	1884.81
522.44	1866.37
522.80	1844.18
523.16	1824.17
523.51	1803.76
523.87	1777.71
524.23	1754.40
524.58	1732.60
524.94	1710.63
525.30	1692.96
525.65	1670.67
526.01	1654.41
526.37	1641.35
526.72	1630.04
527.08	1613.52
527.44	1596.64
527.79	1578.43
528.15	1556.08
528.51	1535.77
528.86	1523.88
529.22	1511.87
529.58	1500.75
529.93	1493.12
530.29	1482.75
530.65	1469.46
531.00	1458.74
531.36	1446.61
531.71	1433.39
532.07	1420.92
532.43	1408.65
532.78	1396.13
533.14	1385.34
533.49	1374.92
533.85	1366.66
534.21	1360.76
534.56	1356.18
534.92	1349.01
535.27	1341.17
535.63	1334.69
535.98	1324.72
536.34	1318.49
536.69	1310.00
537.05	1304.83
537.41	1296.56
537.76	1291.23
538.12	1284.91
538.47	1280.04
538.83	1275.66
539.18	1272.17
539.54	1267.38
539.89	1256.96
540.25	1253.82
540.60	1246.92
540.96	1239.43
541.31	1237.00
541.67	1236.95
542.02	1231.43
542.38	1229.97
542.73	1225.36
543.09	1221.06
543.44	1213.22
543.80	1210.29
544.15	1205.66
544.51	1206.64
544.86	1199.66
545.22	1200.81
545.57	1197.72
545.93	1193.98
546.28	1192.50
546.64	1192.81
546.99	1187.31
547.35	1182.77
547.70	1179.51
548.05	1175.18
548.41	1173.38
548.76	1174.79
549.12	1174.06
549.47	1170.01
549.83	1165.68
550.18	1162.15
550.53	1158.49
550.89	1155.24
551.24	1156.32
551.60	1157.42
551.95	1154.42
552.30	1151.03
552.66	1149.62
553.01	1149.04
553.37	1146.39
553.72	1146.39
554.07	1146.25
554.43	1146.79
554.78	1142.23
555.13	1140.45
555.49	1137.78
555.84	1134.27
556.19	1128.82
556.55	1129.26
556.90	1129.82
557.26	1129.05
557.61	1127.88
557.96	1128.63
558.32	1128.02
558.67	1126.08
559.02	1121.44
559.37	1122.33
559.73	1122.43
560.08	1120.23
560.43	1117.70
560.79	1118.87
561.14	1120.86
561.49	1119.20
561.85	1117.00
562.20	1115.38
562.55	1115.80
562.90	1112.27
563.26	1113.18
563.61	1115.71
563.96	1118.33
564.32	1118.92
564.67	1117.11
565.02	1111.59
565.37	1107.75
565.73	1102.42
566.08	1096.19
566.43	1097.88
566.78	1101.78
567.14	1100.45
567.49	1103.75
567.84	1108.62
568.19	1105.53
568.54	1103.59
568.90	1105.32
569.25	1105.93
569.60	1107.28
569.95	1109.55
570.31	1108.52
570.66	1107.61
571.01	1105.81
571.36	1104.03
571.71	1099.93
572.06	1101.69
572.42	1102.16
572.77	1100.59
573.12	1098.69
573.47	1102.42
573.82	1101.36
574.18	1100.71
574.53	1098.67
574.88	1098.04
575.23	1094.62
575.58	1096.07
575.93	1095.53
576.28	1097.36
576.64	1096.87
576.99	1095.67
577.34	1091.37
577.69	1091.06
578.04	1089.66
578.39	1088.65
578.74	1091.09
579.09	1093.26
579.44	1091.18
579.80	1092.96
580.15	1095.18
580.50	1092.52
580.85	1094.32
581.20	1097.38
581.55	1097.38
581.90	1094.90
582.25	1097.64
582.60	1094.27
582.95	1089.82
583.30	1090.50
583.65	1090.29
584.00	1086.92
584.35	1085.45
584.71	1087.37
585.06	1084.53
585.41	1087.93
585.76	1090.34
586.11	1091.06
586.46	1092.73
586.81	1093.31
587.16	1090.99
587.51	1092.73
587.86	1094.43
588.21	1094.83
588.56	1095.04
588.91	1094.67
589.26	1092.19
589.61	1088.16
589.96	1088.63
590.31	1088.82
590.66	1090.29
591.01	1092.77
591.36	1096.10
591.71	1093.19
592.06	1092.35
592.41	1090.10
592.76	1085.89
593.10	1084.39
593.45	1084.21
593.80	1082.78
594.15	1082.76
594.50	1084.77
594.85	1085.91
595.20	1085.56
595.55	1087.79
595.90	1086.31
596.25	1088.84
596.60	1088.54
596.95	1090.41
597.30	1090.29
597.64	1103.54
597.99	1100.26
598.34	1098.74
598.69	1097.08
599.04	1096.19
599.39	1085.77
599.74	1086.66
600.09	1087.44
600.44	1089.00
600.78	1091.79
601.13	1091.79
601.48	1093.47
601.83	1092.42
602.18	1092.16
602.53	1088.70
602.88	1088.75
603.22	1084.14
603.57	1088.84
603.92	1088.86
604.27	1088.70
604.62	1089.19
604.97	1089.89
605.31	1087.74
605.66	1089.54
606.01	1090.81
606.36	1090.32
606.71	1091.79
607.05	1092.84
607.40	1089.43
607.75	1088.72
608.10	1088.98
608.44	1092.66
608.79	1089.19
609.14	1091.60
609.49	1089.12
609.84	1088.61
610.18	1085.96
610.53	1087.72
610.88	1087.04
611.23	1089.96
611.57	1089.89
611.92	1085.70
612.27	1081.63
612.62	1078.99
612.96	1078.82
613.31	1077.28
613.66	1080.39
614.00	1083.53
614.35	1087.88
614.70	1085.77
615.05	1084.74
615.39	1082.85
615.74	1086.03
616.09	1080.13
616.43	1082.19
616.78	1085.89
617.13	1085.17
617.47	1082.45
617.82	1086.90
618.17	1087.83
618.51	1086.50
618.86	1085.35
619.21	1084.44
619.55	1085.28
619.90	1082.40
620.25	1084.67
620.59	1084.79
620.94	1085.47
621.29	1083.27
621.63	1082.85
621.98	1080.67
622.32	1083.32
622.67	1080.95
623.02	1082.59
623.36	1083.95
623.71	1082.78
624.05	1080.91
624.40	1084.70
624.75	1083.11
625.09	1082.83
625.44	1080.53
625.78	1081.80
626.13	1082.66
626.48	1080.72
626.82	1079.92
627.17	1081.16
627.51	1084.02
627.86	1080.34
628.20	1083.88
628.55	1084.72
628.89	1086.41
629.24	1085.42
629.58	1084.00
629.93	1080.95
630.28	1084.37
630.62	1081.80
630.97	1078.59
631.31	1081.44
631.66	1081.77
632.00	1078.92
632.35	1078.33
632.69	1078.52
633.04	1077.11
633.38	1080.13
633.73	1079.38
634.07	1083.27
634.42	1084.77
634.76	1086.94
635.11	1082.50
635.45	1086.90
635.79	1086.01
636.14	1086.13
636.48	1083.86
636.83	1086.66
637.17	1080.20
637.52	1079.64
637.86	1077.72
638.21	1076.90
638.55	1074.45
638.89	1077.77
639.24	1076.93
639.58	1076.04
639.93	1074.61
640.27	1076.37
640.61	1077.16
640.96	1075.92
641.30	1078.71
641.65	1082.69
641.99	1083.62
642.33	1081.23
642.68	1082.47
643.02	1081.54
643.37	1082.52
643.71	1081.28
644.05	1082.90
644.40	1083.15
644.74	1082.33
645.08	1082.15
645.43	1081.40
645.77	1080.77
646.11	1081.07
646.46	1080.72
646.80	1077.11
647.14	1076.79
647.49	1078.82
647.83	1077.63
648.17	1079.36
648.52	1079.99
648.86	1079.67
649.20	1079.50
649.55	1080.58
649.89	1077.77
650.23	1080.51
650.57	1079.41
650.92	1077.96
651.26	1078.38
651.60	1077.63
651.95	1076.93
652.29	1080.34
652.63	1077.86
652.97	1077.93
653.32	1081.61
653.66	1081.87
654.00	1081.58
654.34	1082.50
654.69	1079.22
655.03	1077.18
655.37	1074.31
655.71	1071.57
656.05	1073.14
656.40	1074.77
656.74	1076.69
657.08	1074.82
657.42	1075.57
657.76	1073.18
658.11	1073.42
658.45	1074.66
658.79	1078.31
659.13	1082.36
659.47	1086.08
659.82	1088.84
660.16	1086.15
660.50	1086.38
660.84	1084.96
661.18	1081.63
661.52	1078.61
661.87	1081.77
662.21	1079.53
662.55	1079.22
662.89	1079.03
663.23	1083.62
663.57	1082.40
663.91	1085.07
664.25	1082.97
664.60	1081.87
664.94	1078.59
665.28	1079.24
665.62	1075.50
665.96	1075.31
666.30	1079.38
666.64	1079.62
666.98	1077.42
667.32	1082.54
667.66	1084.18
668.01	1080.04
668.35	1080.77
668.69	1084.58
669.03	1082.61
669.37	1086.03
669.71	1089.59
670.05	1085.68
670.39	1084.28
670.73	1084.28
671.07	1082.24
671.41	1080.25
671.75	1085.28
672.09	1082.78
672.43	1082.33
672.77	1085.45
673.11	1083.22
673.45	1081.54
673.79	1080.56
674.13	1081.51
674.47	1078.99
674.81	1081.80
675.15	1079.48
675.49	1082.05
675.83	1084.39
676.17	1083.62
676.51	1081.70
676.85	1082.64
677.19	1081.68
677.53	1078.64
677.87	1079.60
678.21	1082.61
678.55	1081.68
678.89	1081.47
679.23	1080.84
679.57	1077.18
679.90	1075.62
680.24	1075.48
680.58	1078.12
680.92	1079.64
681.26	1081.19
681.60	1083.39
681.94	1087.67
682.28	1086.34
682.62	1084.14
682.96	1081.68
683.29	1078.12
683.63	1075.36
683.97	1074.26
684.31	1076.62
684.65	1078.40
684.99	1079.85
685.33	1077.02
685.67	1079.36
686.00	1078.40
686.34	1078.07
686.68	1080.06
687.02	1084.28
687.36	1082.38
687.70	1082.01
688.03	1080.67
688.37	1078.28
688.71	1077.33
689.05	1076.27
689.39	1075.52
689.72	1079.62
690.06	1079.85
690.40	1078.36
690.74	1076.27
691.08	1080.20
691.41	1078.94
691.75	1078.87
692.09	1077.44
692.43	1079.62
692.76	1076.76
693.10	1076.06
693.44	1076.86
693.78	1079.81
694.11	1082.19
694.45	1082.64
694.79	1081.75
695.13	1079.95
695.46	1082.26
695.80	1079.10
696.14	1077.09
696.48	1075.50
696.81	1077.09
697.15	1076.18
697.49	1077.77
697.82	1078.99
698.16	1083.32
698.50	1086.29
698.83	1083.86
699.17	1082.45
699.51	1083.27
699.84	1080.46
700.18	1077.77
700.52	1078.43
700.85	1077.65
701.19	1079.34
701.53	1079.57
701.86	1079.50
702.20	1080.63
702.54	1081.58
702.87	1078.12
703.21	1079.67
703.55	1077.14
703.88	1075.36
704.22	1078.71
704.55	1075.83
704.89	1075.01
705.23	1077.11
705.56	1080.60
705.90	1079.50
706.23	1080.95
706.57	1078.00
706.91	1080.34
707.24	1076.08
707.58	1076.08
707.91	1079.74
708.25	1081.40
708.58	1076.65
708.92	1074.49
709.26	1072.20
709.59	1072.25
709.93	1069.65
710.26	1072.53
710.60	1078.92
710.93	1077.70
711.27	1078.94
711.60	1083.57
711.94	1084.74
712.27	1085.00
712.61	1089.92
712.94	1085.66
713.28	1084.07
713.61	1082.66
713.95	1077.63
714.28	1074.98
714.62	1074.33
714.95	1074.87
715.29	1074.80
715.62	1078.45
715.96	1080.41
716.29	1083.86
716.63	1083.46
716.96	1083.69
717.29	1082.17
717.63	1082.54
717.96	1079.69
718.30	1077.75
718.63	1076.27
718.97	1075.34
719.30	1075.73
719.63	1076.34
719.97	1079.90
720.30	1081.61
720.64	1082.94
720.97	1079.85
721.30	1077.58
721.64	1074.40
721.97	1074.12
722.31	1071.17
722.64	1070.14
722.97	1074.38
723.31	1074.63
723.64	1072.53
723.97	1076.86
724.31	1077.35
724.64	1073.72
724.98	1074.96
725.31	1076.86
725.64	1076.30
725.98	1076.79
726.31	1078.61
726.64	1079.13
726.97	1074.19
727.31	1072.50
727.64	1071.73
727.97	1072.78
728.31	1072.64
728.64	1077.07
728.97	1077.63
729.31	1079.48
729.64	1080.11
729.97	1080.06
730.30	1080.53
730.64	1078.05
730.97	1077.72
731.30	1078.73
731.63	1077.16
731.97	1073.95
732.30	1078.66
732.63	1078.12
732.96	1076.48
733.30	1078.61
733.63	1082.76
733.96	1082.17
734.29	1084.35
734.63	1084.46
734.96	1081.80
735.29	1079.46
735.62	1078.96
735.95	1078.33
736.29	1080.11
736.62	1082.57
736.95	1086.34
737.28	1085.14
737.61	1082.78
737.94	1080.58
738.28	1080.34
738.61	1078.87
738.94	1077.11
739.27	1081.56
739.60	1079.57
739.93	1079.60
740.27	1079.22
740.60	1084.16
740.93	1080.09
741.26	1082.05
741.59	1082.59
741.92	1082.15
742.25	1080.84
742.58	1081.61
742.91	1081.44
743.25	1079.27
743.58	1079.29
743.91	1077.23
744.24	1079.38
744.57	1081.00
744.90	1083.74
745.23	1082.26
745.56	1080.06
745.89	1077.33
746.22	1076.83
746.55	1076.58
746.88	1078.73
747.21	1081.42
747.54	1081.70
747.87	1079.85
748.20	1075.52
748.53	1072.97
748.87	1074.54
749.20	1074.52
749.53	1078.10
749.86	1084.00
750.19	1087.46
750.52	1083.08
750.85	1085.31
751.18	1083.50
751.51	1082.52
751.84	1078.80
752.16	1082.05
752.49	1082.87
752.82	1082.64
753.15	1083.39
753.48	1084.53
753.81	1085.05
754.14	1080.32
754.47	1076.67
754.80	1074.82
755.13	1074.52
755.46	1072.46
755.79	1073.81
756.12	1078.12
756.45	1080.27
756.78	1083.06
757.11	1084.58
757.43	1086.78
757.76	1086.97
758.09	1083.53
758.42	1081.77
758.75	1080.95
759.08	1077.49
759.41	1073.60
759.74	1073.32
760.07	1075.29
760.39	1073.07
760.72	1073.79
761.05	1076.86
761.38	1080.16
761.71	1077.54
762.04	1078.12
762.36	1081.14
762.69	1081.28
763.02	1081.07
763.35	1081.09
763.68	1080.86
