SpectraSuite Data File
++++++++++++++++++++++++++++++++++++
Date: Mon Aug 26 10:22:29 PDT 2019
User: corrico
Dark Spectrum Present: No
Reference Spectrum Present: No
Number of Sampled Component Spectra: 1
Spectrometers: USB2+H06089
Integration Time (usec): 2000 (USB2+H06089)
Spectra Averaged: 20 (USB2+H06089)
Boxcar Smoothing: 2 (USB2+H06089)
Correct for Electrical Dark: No (USB2+H06089)
Strobe/Lamp Enabled: No (USB2+H06089)
Correct for Detector Non-linearity: No (USB2+H06089)
Correct for Stray Light: No (USB2+H06089)
Number of Pixels in Processed Spectrum: 2048
>>>>>Begin Processed Spectral Data<<<<<
339.70	1033.46
340.07	1033.46
340.45	996.69
340.82	972.42
341.19	947.00
341.57	918.92
341.94	909.09
342.31	905.69
342.69	901.90
343.06	899.12
343.43	900.61
343.81	899.96
344.18	899.00
344.55	903.63
344.93	907.87
345.30	913.00
345.67	920.51
346.04	932.26
346.42	941.64
346.79	951.52
347.16	961.68
347.54	971.18
347.91	974.79
348.28	982.18
348.65	994.68
349.03	1004.67
349.40	1010.74
349.77	1021.25
350.14	1027.82
350.52	1035.01
350.89	1040.60
351.26	1047.62
351.63	1053.40
352.01	1059.77
352.38	1060.29
352.75	1062.44
353.12	1065.76
353.50	1070.02
353.87	1071.80
354.24	1073.25
354.61	1074.45
354.98	1075.17
355.36	1075.59
355.73	1076.62
356.10	1081.30
356.47	1083.69
356.84	1087.11
357.22	1088.65
357.59	1089.99
357.96	1088.49
358.33	1091.16
358.70	1087.65
359.08	1086.78
359.45	1087.06
359.82	1086.69
360.19	1083.90
360.56	1085.35
360.94	1082.31
361.31	1081.87
361.68	1079.53
362.05	1079.95
362.42	1078.05
362.79	1080.70
363.16	1080.91
363.54	1080.95
363.91	1079.85
364.28	1080.98
364.65	1079.27
365.02	1079.43
365.39	1079.36
365.76	1075.97
366.14	1072.71
366.51	1071.97
366.88	1073.46
367.25	1074.10
367.62	1077.02
367.99	1081.30
368.36	1080.81
368.73	1073.23
369.10	1073.09
369.48	1070.75
369.85	1066.21
370.22	1064.05
370.59	1066.18
370.96	1064.36
371.33	1062.95
371.70	1067.14
372.07	1069.02
372.44	1071.97
372.81	1073.04
373.18	1077.14
373.55	1076.37
373.93	1080.93
374.30	1078.82
374.67	1080.02
375.04	1079.67
375.41	1079.46
375.78	1076.37
376.15	1077.68
376.52	1075.38
376.89	1077.35
377.26	1078.38
377.63	1076.76
378.00	1077.14
378.37	1081.07
378.74	1077.65
379.11	1074.52
379.48	1076.44
379.85	1079.29
380.22	1077.91
380.59	1079.74
380.96	1081.49
381.33	1080.77
381.70	1081.26
382.07	1082.01
382.44	1084.65
382.81	1084.63
383.18	1086.59
383.55	1084.44
383.92	1087.09
384.29	1086.45
384.66	1088.26
385.03	1088.16
385.40	1089.12
385.77	1088.16
386.14	1087.37
386.51	1087.79
386.88	1086.99
387.25	1087.55
387.62	1087.58
387.99	1087.44
388.36	1086.31
388.73	1088.12
389.10	1085.94
389.46	1083.86
389.83	1085.56
390.20	1085.70
390.57	1082.40
390.94	1084.89
391.31	1084.18
391.68	1079.69
392.05	1080.11
392.42	1080.86
392.79	1080.18
393.16	1083.39
393.53	1088.07
393.89	1087.74
394.26	1088.21
394.63	1087.76
395.00	1086.57
395.37	1084.00
395.74	1084.04
396.11	1086.94
396.48	1086.29
396.84	1086.85
397.21	1086.90
397.58	1086.62
397.95	1085.80
398.32	1087.88
398.69	1088.00
399.06	1087.16
399.42	1087.44
399.79	1086.97
400.16	1086.24
400.53	1084.37
400.90	1084.60
401.27	1083.39
401.64	1084.93
402.00	1084.79
402.37	1085.63
402.74	1086.73
403.11	1090.41
403.48	1090.76
403.84	1092.82
404.21	1096.07
404.58	1095.25
404.95	1096.56
405.32	1096.28
405.68	1094.18
406.05	1091.42
406.42	1093.85
406.79	1090.41
407.16	1089.61
407.52	1093.19
407.89	1096.10
408.26	1094.86
408.63	1096.47
408.99	1096.00
409.36	1089.73
409.73	1085.82
410.10	1087.97
410.47	1089.10
410.83	1090.76
411.20	1092.96
411.57	1096.07
411.94	1096.35
412.30	1097.71
412.67	1095.60
413.04	1097.06
413.40	1096.12
413.77	1095.82
414.14	1093.99
414.51	1097.83
414.87	1099.02
415.24	1102.02
415.61	1098.74
415.97	1099.91
416.34	1099.33
416.71	1098.72
417.08	1098.18
417.44	1102.63
417.81	1104.03
418.18	1107.12
418.54	1108.52
418.91	1109.77
419.28	1108.78
419.64	1110.98
420.01	1111.05
420.38	1115.34
420.74	1117.91
421.11	1123.06
421.48	1122.57
421.84	1124.18
422.21	1124.02
422.58	1126.94
422.94	1128.91
423.31	1131.20
423.68	1132.77
424.04	1134.79
424.41	1136.52
424.77	1139.68
425.14	1144.87
425.51	1146.96
425.87	1150.26
426.24	1155.24
426.61	1158.38
426.97	1163.50
427.34	1170.13
427.70	1179.51
428.07	1182.25
428.44	1189.51
428.80	1196.69
429.17	1207.58
429.53	1214.95
429.90	1228.17
430.27	1238.19
430.63	1247.37
431.00	1253.03
431.36	1262.32
431.73	1272.64
432.09	1284.56
432.46	1299.91
432.83	1320.62
433.19	1336.19
433.56	1353.81
433.92	1375.37
434.29	1395.64
434.65	1415.79
435.02	1444.98
435.38	1473.27
435.75	1500.52
436.11	1529.52
436.48	1561.61
436.84	1591.77
437.21	1623.89
437.57	1662.74
437.94	1709.11
438.30	1755.94
438.67	1806.07
439.03	1857.66
439.40	1914.09
439.76	1969.28
440.13	2030.16
440.49	2094.36
440.86	2162.33
441.22	2234.35
441.59	2302.13
441.95	2380.18
442.32	2462.92
442.68	2559.05
443.05	2649.25
443.41	2753.08
443.78	2854.26
444.14	2965.39
444.51	3074.13
444.87	3213.34
445.24	3357.71
445.60	3513.28
445.96	3663.10
446.33	3837.87
446.69	4005.38
447.06	4185.93
447.42	4369.38
447.79	4565.99
448.15	4783.84
448.51	5011.79
448.88	5271.40
449.24	5518.59
449.61	5803.71
449.97	6079.94
450.33	6371.36
450.70	6635.68
451.06	6961.46
451.43	7266.61
451.79	7633.89
452.15	8030.42
452.52	8481.87
452.88	8959.66
453.24	9504.14
453.61	10093.98
453.97	10669.40
454.34	11233.47
454.70	11885.64
455.06	12529.26
455.43	13152.71
455.79	13749.59
456.15	14459.97
456.52	15111.34
456.88	15890.90
457.24	16614.76
457.61	17481.39
457.97	18247.92
458.33	19027.55
458.70	19794.31
459.06	20565.44
459.42	21409.23
459.79	22185.31
460.15	23107.43
460.51	23967.20
460.88	24906.41
461.24	25683.73
461.60	26676.54
461.96	27535.65
462.33	28385.24
462.69	29175.81
463.05	30040.85
463.42	30749.40
463.78	31422.35
464.14	31966.01
464.50	32548.45
464.87	33040.06
465.23	33392.61
465.59	33743.01
465.95	34072.72
466.32	34337.27
466.68	34557.94
467.04	34691.33
467.40	34822.91
467.77	34983.40
468.13	34970.41
468.49	34856.69
468.85	34771.42
469.22	34584.18
469.58	34215.38
469.94	33959.30
470.30	33651.40
470.66	33236.17
471.03	32641.23
471.39	32250.69
471.75	31608.79
472.11	31005.80
472.47	30639.46
472.84	30340.76
473.20	29824.25
473.56	29559.30
473.92	29141.31
474.28	28638.68
474.65	28150.30
475.01	27700.10
475.37	27119.93
475.73	26651.54
476.09	26114.78
476.45	25571.57
476.81	25054.59
477.18	24520.11
477.54	24058.53
477.90	23687.13
478.26	23275.06
478.62	22935.85
478.98	22638.46
479.34	22315.67
479.71	21912.17
480.07	21559.61
480.43	21186.55
480.79	20807.95
481.15	20452.65
481.51	20142.44
481.87	19901.11
482.23	19615.75
482.59	19356.70
482.96	19091.31
483.32	18802.62
483.68	18419.83
484.04	18090.59
484.40	17713.81
484.76	17327.24
485.12	16956.62
485.48	16632.08
485.84	16262.65
486.20	15910.94
486.56	15552.56
486.92	15238.03
487.28	14883.68
487.64	14515.53
488.00	14184.11
488.37	13862.90
488.73	13500.75
489.09	13144.26
489.45	12843.27
489.81	12531.93
490.17	12234.17
490.53	11941.76
490.89	11637.96
491.25	11330.91
491.61	11023.34
491.97	10695.90
492.33	10372.44
492.69	10069.50
493.05	9764.64
493.41	9470.30
493.77	9197.53
494.13	8944.61
494.49	8705.37
494.85	8459.42
495.21	8236.25
495.57	8018.44
495.93	7808.00
496.29	7601.52
496.64	7425.05
497.00	7234.97
497.36	7041.57
497.72	6845.86
498.08	6667.91
498.44	6477.71
498.80	6307.18
499.16	6134.94
499.52	5988.96
499.88	5851.69
500.24	5732.93
500.60	5599.80
500.96	5495.69
501.32	5378.67
501.68	5258.60
502.03	5128.98
502.39	5006.85
502.75	4860.19
503.11	4730.36
503.47	4609.33
503.83	4483.46
504.19	4368.28
504.55	4270.33
504.91	4167.86
505.26	4071.06
505.62	3989.05
505.98	3897.06
506.34	3801.97
506.70	3707.46
507.06	3618.77
507.42	3529.64
507.78	3454.72
508.13	3385.70
508.49	3316.07
508.85	3243.21
509.21	3175.83
509.57	3101.12
509.93	3030.62
510.28	2966.91
510.64	2904.39
511.00	2843.14
511.36	2780.51
511.72	2721.32
512.07	2673.69
512.43	2621.33
512.79	2564.41
513.15	2522.61
513.51	2475.65
513.86	2424.09
514.22	2385.33
514.58	2345.40
514.94	2306.62
515.30	2267.79
515.65	2232.80
516.01	2197.79
516.37	2169.93
516.73	2140.47
517.08	2116.05
517.44	2082.33
517.80	2056.04
518.16	2026.32
518.51	1999.38
518.87	1970.40
519.23	1945.83
519.59	1917.53
519.94	1896.37
520.30	1869.95
520.66	1842.89
521.01	1819.98
521.37	1794.72
521.73	1769.44
522.09	1748.29
522.44	1729.61
522.80	1712.69
523.16	1691.93
523.51	1672.17
523.87	1650.26
524.23	1633.32
524.58	1611.51
524.94	1596.01
525.30	1579.67
525.65	1566.10
526.01	1550.21
526.37	1537.73
526.72	1526.29
527.08	1512.99
527.44	1499.89
527.79	1487.57
528.15	1473.79
528.51	1459.16
528.86	1446.99
529.22	1437.00
529.58	1423.77
529.93	1413.03
530.29	1404.86
530.65	1396.90
531.00	1389.51
531.36	1378.90
531.71	1368.96
532.07	1359.38
532.43	1350.40
532.78	1340.42
533.14	1334.81
533.49	1328.18
533.85	1318.96
534.21	1311.43
534.56	1305.90
534.92	1298.46
535.27	1292.21
535.63	1285.56
535.98	1277.32
536.34	1270.86
536.69	1267.45
537.05	1263.37
537.41	1259.23
537.76	1257.17
538.12	1249.47
538.47	1244.98
538.83	1238.99
539.18	1237.58
539.54	1231.36
539.89	1226.51
540.25	1221.95
540.60	1220.07
540.96	1216.59
541.31	1212.87
541.67	1209.43
542.02	1206.36
542.38	1201.56
542.73	1193.70
543.09	1193.56
543.44	1188.97
543.80	1183.91
544.15	1182.37
544.51	1180.78
544.86	1174.25
545.22	1174.90
545.57	1176.61
545.93	1174.53
546.28	1173.85
546.64	1174.41
546.99	1170.31
547.35	1165.28
547.70	1163.48
548.05	1160.20
548.41	1158.03
548.76	1156.95
549.12	1156.25
549.47	1152.18
549.83	1149.46
550.18	1148.55
550.53	1147.54
550.89	1147.21
551.24	1146.77
551.60	1146.09
551.95	1141.29
552.30	1140.50
552.66	1137.71
553.01	1136.19
553.37	1134.81
553.72	1132.84
554.07	1130.69
554.43	1130.69
554.78	1131.25
555.13	1126.99
555.49	1129.43
555.84	1131.32
556.19	1129.19
556.55	1125.49
556.90	1126.34
557.26	1121.40
557.61	1117.98
557.96	1116.95
558.32	1117.35
558.67	1121.00
559.02	1121.94
559.37	1121.12
559.73	1120.77
560.08	1118.35
560.43	1113.11
560.79	1114.87
561.14	1112.60
561.49	1111.85
561.85	1112.69
562.20	1115.55
562.55	1113.44
562.90	1111.19
563.26	1110.23
563.61	1107.17
563.96	1104.01
564.32	1104.08
564.67	1104.94
565.02	1104.85
565.37	1105.90
565.73	1104.76
566.08	1102.28
566.43	1104.26
566.78	1103.75
567.14	1102.77
567.49	1107.26
567.84	1108.17
568.19	1104.01
568.54	1101.81
568.90	1102.60
569.25	1099.14
569.60	1097.50
569.95	1101.18
570.31	1101.39
570.66	1101.46
571.01	1101.29
571.36	1103.12
571.71	1102.09
572.06	1102.25
572.42	1100.57
572.77	1099.28
573.12	1094.55
573.47	1092.77
573.82	1094.29
574.18	1095.84
574.53	1097.78
574.88	1100.85
575.23	1099.61
575.58	1098.41
575.93	1097.15
576.28	1095.21
576.64	1091.32
576.99	1096.66
577.34	1095.70
577.69	1094.97
578.04	1094.65
578.39	1098.37
578.74	1094.41
579.09	1094.86
579.44	1096.19
579.80	1096.59
580.15	1096.28
580.50	1093.80
580.85	1090.34
581.20	1091.16
581.55	1091.27
581.90	1091.11
582.25	1094.83
582.60	1097.15
582.95	1095.86
583.30	1096.24
583.65	1095.75
584.00	1094.69
584.35	1094.65
584.71	1093.03
585.06	1092.54
585.41	1094.39
585.76	1093.83
586.11	1088.70
586.46	1089.54
586.81	1089.12
587.16	1088.16
587.51	1085.42
587.86	1088.96
588.21	1085.70
588.56	1086.73
588.91	1083.50
589.26	1083.53
589.61	1083.76
589.96	1085.73
590.31	1084.44
590.66	1084.84
591.01	1088.68
591.36	1088.82
591.71	1087.76
592.06	1087.62
592.41	1090.48
592.76	1088.02
593.10	1089.78
593.45	1090.15
593.80	1091.32
594.15	1088.63
594.50	1092.42
594.85	1089.66
595.20	1090.99
595.55	1090.10
595.90	1091.51
596.25	1089.75
596.60	1088.79
596.95	1087.34
597.30	1084.84
597.64	1093.83
597.99	1093.01
598.34	1091.58
598.69	1089.57
599.04	1091.13
599.39	1081.80
599.74	1081.02
600.09	1085.91
600.44	1088.51
600.78	1091.13
601.13	1091.60
601.48	1090.88
601.83	1088.42
602.18	1086.99
602.53	1080.20
602.88	1077.77
603.22	1076.72
603.57	1079.01
603.92	1081.35
604.27	1083.04
604.62	1085.24
604.97	1085.14
605.31	1084.46
605.66	1081.47
606.01	1084.21
606.36	1082.73
606.71	1085.40
607.05	1084.91
607.40	1086.31
607.75	1085.54
608.10	1086.59
608.44	1083.50
608.79	1083.18
609.14	1084.46
609.49	1083.32
609.84	1083.48
610.18	1087.81
610.53	1087.20
610.88	1084.49
611.23	1084.56
611.57	1084.18
611.92	1083.08
612.27	1082.47
612.62	1087.13
612.96	1085.80
613.31	1084.67
613.66	1083.18
614.00	1085.38
614.35	1080.60
614.70	1083.90
615.05	1085.45
615.39	1082.54
615.74	1081.09
616.09	1082.99
616.43	1077.93
616.78	1078.38
617.13	1082.47
617.47	1082.01
617.82	1081.91
618.17	1084.14
618.51	1082.01
618.86	1079.71
619.21	1080.11
619.55	1078.26
619.90	1079.57
620.25	1081.28
620.59	1081.80
620.94	1078.59
621.29	1080.86
621.63	1081.33
621.98	1081.51
622.32	1078.24
622.67	1079.90
623.02	1080.39
623.36	1080.84
623.71	1079.20
624.05	1084.02
624.40	1084.39
624.75	1081.16
625.09	1079.97
625.44	1078.28
625.78	1077.54
626.13	1078.12
626.48	1080.34
626.82	1082.01
627.17	1082.94
627.51	1082.50
627.86	1085.03
628.20	1080.93
628.55	1076.79
628.89	1078.66
629.24	1078.10
629.58	1076.48
629.93	1080.11
630.28	1085.68
630.62	1086.22
630.97	1086.85
631.31	1085.28
631.66	1085.26
632.00	1083.83
632.35	1083.57
632.69	1084.21
633.04	1085.00
633.38	1085.40
633.73	1084.18
634.07	1082.66
634.42	1082.10
634.76	1082.19
635.11	1081.44
635.45	1082.76
635.79	1081.42
636.14	1081.23
636.48	1080.95
636.83	1081.80
637.17	1082.83
637.52	1085.07
637.86	1085.31
638.21	1089.31
638.55	1089.92
638.89	1089.71
639.24	1089.61
639.58	1088.33
639.93	1084.25
640.27	1084.65
640.61	1079.55
640.96	1080.41
641.30	1081.56
641.65	1082.01
641.99	1079.74
642.33	1083.29
642.68	1081.82
643.02	1083.34
643.37	1084.72
643.71	1087.62
644.05	1084.79
644.40	1083.86
644.74	1084.79
645.08	1083.83
645.43	1079.88
645.77	1084.14
646.11	1084.39
646.46	1080.37
646.80	1080.30
647.14	1081.02
647.49	1080.60
647.83	1082.73
648.17	1082.19
648.52	1080.16
648.86	1082.61
649.20	1080.98
649.55	1081.96
649.89	1084.18
650.23	1085.61
650.57	1085.84
650.92	1084.89
651.26	1083.74
651.60	1082.22
651.95	1083.32
652.29	1081.56
652.63	1082.10
652.97	1078.38
653.32	1078.31
653.66	1076.32
654.00	1079.06
654.34	1077.02
654.69	1081.30
655.03	1082.33
655.37	1086.31
655.71	1082.64
656.05	1086.29
656.40	1086.64
656.74	1084.98
657.08	1081.44
657.42	1085.35
657.76	1087.27
658.11	1084.30
658.45	1083.67
658.79	1084.81
659.13	1083.90
659.47	1081.23
659.82	1080.95
660.16	1086.17
660.50	1085.42
660.84	1083.43
661.18	1080.46
661.52	1080.23
661.87	1079.27
662.21	1078.75
662.55	1077.79
662.89	1080.88
663.23	1081.87
663.57	1078.66
663.91	1081.73
664.25	1083.08
664.60	1078.78
664.94	1079.81
665.28	1080.32
665.62	1076.27
665.96	1075.73
666.30	1077.98
666.64	1076.72
666.98	1076.04
667.32	1078.59
667.66	1077.84
668.01	1078.19
668.35	1077.23
668.69	1077.89
669.03	1075.87
669.37	1075.87
669.71	1075.90
670.05	1078.85
670.39	1082.38
670.73	1083.71
671.07	1083.22
671.41	1084.65
671.75	1083.36
672.09	1080.93
672.43	1079.85
672.77	1081.66
673.11	1079.97
673.45	1076.83
673.79	1074.87
674.13	1076.62
674.47	1075.71
674.81	1076.30
675.15	1078.66
675.49	1082.47
675.83	1082.05
676.17	1084.79
676.51	1085.14
676.85	1086.22
677.19	1080.30
677.53	1081.07
677.87	1076.95
678.21	1077.30
678.55	1077.42
678.89	1083.53
679.23	1081.00
679.57	1082.66
679.90	1084.16
680.24	1081.37
680.58	1078.26
680.92	1080.81
681.26	1082.19
681.60	1080.18
681.94	1082.66
682.28	1083.41
682.62	1084.58
682.96	1084.74
683.29	1082.76
683.63	1082.83
683.97	1081.66
684.31	1075.05
684.65	1071.80
684.99	1073.23
685.33	1076.20
685.67	1077.18
686.00	1083.29
686.34	1084.86
686.68	1087.95
687.02	1086.43
687.36	1088.51
687.70	1084.84
688.03	1085.19
688.37	1080.77
688.71	1077.56
689.05	1075.64
689.39	1077.37
689.72	1078.50
690.06	1082.64
690.40	1082.66
690.74	1084.77
691.08	1084.39
691.41	1083.43
691.75	1082.54
692.09	1086.45
692.43	1082.85
692.76	1081.63
693.10	1081.96
693.44	1082.17
693.78	1079.62
694.11	1079.62
694.45	1080.81
694.79	1081.09
695.13	1076.95
695.46	1073.58
695.80	1071.92
696.14	1073.46
696.48	1071.90
696.81	1076.81
697.15	1083.53
697.49	1088.65
697.82	1087.32
698.16	1086.50
698.50	1082.99
698.83	1078.28
699.17	1074.84
699.51	1076.01
699.84	1077.18
700.18	1077.63
700.52	1079.55
700.85	1079.29
701.19	1077.28
701.53	1076.44
701.86	1078.52
702.20	1078.85
702.54	1078.87
702.87	1078.54
703.21	1081.14
703.55	1076.74
703.88	1075.05
704.22	1075.15
704.55	1078.57
704.89	1077.54
705.23	1083.39
705.56	1081.91
705.90	1082.12
706.23	1079.29
706.57	1079.78
706.91	1077.75
707.24	1078.10
707.58	1080.46
707.91	1079.41
708.25	1077.09
708.58	1078.73
708.92	1078.94
709.26	1076.60
709.59	1077.23
709.93	1077.49
710.26	1078.19
710.60	1081.33
710.93	1078.68
711.27	1080.02
711.60	1079.41
711.94	1078.17
712.27	1075.34
712.61	1079.10
712.94	1079.31
713.28	1078.00
713.61	1075.78
713.95	1077.47
714.28	1079.06
714.62	1076.93
714.95	1079.53
715.29	1077.63
715.62	1079.41
715.96	1076.95
716.29	1077.49
716.63	1077.79
716.96	1081.05
717.29	1078.03
717.63	1080.51
717.96	1082.10
718.30	1083.46
718.63	1080.18
718.97	1080.81
719.30	1077.58
719.63	1077.72
719.97	1077.91
720.30	1081.14
720.64	1082.26
720.97	1084.81
721.30	1085.82
721.64	1083.60
721.97	1085.28
722.31	1084.72
722.64	1084.23
722.97	1083.76
723.31	1086.57
723.64	1084.56
723.97	1083.08
724.31	1079.34
724.64	1073.65
724.98	1071.24
725.31	1069.25
725.64	1073.11
725.98	1076.06
726.31	1079.55
726.64	1081.12
726.97	1082.52
727.31	1080.27
727.64	1079.95
727.97	1082.52
728.31	1081.73
728.64	1083.83
728.97	1081.87
729.31	1079.81
729.64	1078.52
729.97	1076.76
730.30	1074.21
730.64	1077.58
730.97	1080.06
731.30	1081.09
731.63	1083.46
731.97	1081.94
732.30	1081.49
732.63	1081.19
732.96	1079.22
733.30	1078.10
733.63	1079.81
733.96	1078.82
734.29	1081.44
734.63	1082.26
734.96	1083.18
735.29	1085.00
735.62	1083.08
735.95	1079.10
736.29	1078.28
736.62	1077.75
736.95	1074.31
737.28	1073.07
737.61	1074.00
737.94	1074.66
738.28	1074.14
738.61	1076.13
738.94	1080.65
739.27	1081.12
739.60	1080.77
739.93	1082.78
740.27	1081.16
740.60	1078.31
740.93	1076.79
741.26	1074.61
741.59	1071.45
741.92	1070.72
742.25	1072.32
742.58	1075.05
742.91	1077.82
743.25	1078.47
743.58	1080.27
743.91	1079.17
744.24	1078.05
744.57	1077.42
744.90	1076.39
745.23	1078.45
745.56	1077.11
745.89	1078.61
746.22	1079.90
746.55	1082.08
746.88	1081.68
747.21	1084.23
747.54	1083.81
747.87	1083.08
748.20	1080.58
748.53	1078.38
748.87	1076.62
749.20	1077.86
749.53	1076.93
749.86	1077.35
750.19	1079.78
750.52	1081.70
750.85	1079.69
751.18	1082.85
751.51	1084.09
751.84	1082.92
752.16	1079.97
752.49	1079.64
752.82	1074.59
753.15	1073.84
753.48	1071.75
753.81	1072.36
754.14	1070.65
754.47	1073.16
754.80	1073.32
755.13	1074.96
755.46	1075.24
755.79	1076.81
756.12	1075.43
756.45	1072.81
756.78	1073.37
757.11	1074.80
757.43	1075.15
757.76	1074.94
758.09	1079.22
758.42	1079.95
758.75	1079.95
759.08	1081.63
759.41	1086.78
759.74	1087.39
760.07	1084.49
760.39	1080.77
760.72	1079.53
761.05	1074.80
761.38	1074.73
761.71	1075.22
762.04	1077.89
762.36	1076.37
762.69	1078.17
763.02	1076.93
763.35	1080.02
763.68	1079.85
764.01	1080.48
