SpectraSuite Data File
++++++++++++++++++++++++++++++++++++
Date: Mon Aug 26 10:22:05 PDT 2019
User: corrico
Dark Spectrum Present: No
Reference Spectrum Present: No
Number of Sampled Component Spectra: 1
Spectrometers: USB2+H06089
Integration Time (usec): 2000 (USB2+H06089)
Spectra Averaged: 20 (USB2+H06089)
Boxcar Smoothing: 2 (USB2+H06089)
Correct for Electrical Dark: No (USB2+H06089)
Strobe/Lamp Enabled: No (USB2+H06089)
Correct for Detector Non-linearity: No (USB2+H06089)
Correct for Stray Light: No (USB2+H06089)
Number of Pixels in Processed Spectrum: 2048
>>>>>Begin Processed Spectral Data<<<<<
339.70	1016.26
340.07	1016.26
340.45	984.69
340.82	965.47
341.19	946.09
341.57	922.26
341.94	914.26
342.31	907.19
342.69	901.39
343.06	896.59
343.43	896.75
343.81	893.97
344.18	895.82
344.55	900.22
344.93	907.29
345.30	915.10
345.67	922.41
346.04	933.05
346.42	939.42
346.79	945.86
347.16	954.92
347.54	965.47
347.91	971.42
348.28	982.11
348.65	992.06
349.03	999.48
349.40	1007.79
349.77	1017.20
350.14	1026.56
350.52	1033.09
350.89	1038.73
351.26	1044.91
351.63	1052.05
352.01	1056.33
352.38	1062.70
352.75	1068.81
353.12	1074.54
353.50	1076.93
353.87	1078.87
354.24	1080.63
354.61	1082.66
354.98	1082.15
355.36	1083.69
355.73	1086.64
356.10	1087.72
356.47	1086.94
356.84	1087.88
357.22	1085.66
357.59	1087.55
357.96	1087.25
358.33	1086.45
358.70	1086.90
359.08	1087.90
359.45	1084.67
359.82	1083.95
360.19	1085.03
360.56	1082.47
360.94	1081.33
361.31	1077.09
361.68	1075.24
362.05	1074.12
362.42	1073.60
362.79	1076.25
363.16	1080.46
363.54	1081.58
363.91	1079.83
364.28	1080.04
364.65	1078.12
365.02	1076.41
365.39	1076.72
365.76	1080.23
366.14	1078.92
366.51	1078.82
366.88	1078.21
367.25	1077.16
367.62	1075.41
367.99	1077.18
368.36	1079.36
368.73	1079.01
369.10	1075.41
369.48	1074.84
369.85	1075.31
370.22	1073.00
370.59	1075.83
370.96	1080.39
371.33	1082.26
371.70	1080.09
372.07	1081.49
372.44	1081.96
372.81	1081.58
373.18	1080.88
373.55	1084.21
373.93	1082.43
374.30	1082.01
374.67	1081.66
375.04	1079.22
375.41	1077.96
375.78	1078.78
376.15	1079.31
376.52	1075.78
376.89	1079.60
377.26	1078.05
377.63	1080.86
378.00	1079.34
378.37	1080.67
378.74	1078.14
379.11	1079.29
379.48	1078.19
379.85	1079.55
380.22	1084.35
380.59	1085.14
380.96	1084.81
381.33	1084.14
381.70	1082.33
382.07	1080.63
382.44	1081.96
382.81	1081.89
383.18	1082.10
383.55	1080.79
383.92	1083.67
384.29	1081.26
384.66	1081.87
385.03	1081.05
385.40	1084.63
385.77	1082.43
386.14	1084.21
386.51	1085.59
386.88	1085.61
387.25	1087.25
387.62	1087.55
387.99	1086.97
388.36	1088.42
388.73	1090.62
389.10	1086.43
389.46	1085.10
389.83	1082.71
390.20	1081.16
390.57	1080.86
390.94	1082.22
391.31	1083.34
391.68	1084.46
392.05	1084.04
392.42	1081.58
392.79	1084.32
393.16	1084.21
393.53	1085.00
393.89	1086.59
394.26	1085.38
394.63	1084.96
395.00	1085.66
395.37	1088.14
395.74	1085.47
396.11	1087.86
396.48	1084.63
396.84	1084.86
397.21	1083.67
397.58	1086.52
397.95	1088.37
398.32	1090.32
398.69	1091.25
399.06	1095.00
399.42	1092.84
399.79	1095.04
400.16	1094.67
400.53	1093.19
400.90	1093.15
401.27	1095.04
401.64	1094.08
402.00	1098.51
402.37	1099.75
402.74	1096.03
403.11	1097.50
403.48	1094.55
403.84	1092.07
404.21	1092.63
404.58	1094.39
404.95	1093.22
405.32	1095.00
405.68	1094.41
406.05	1095.25
406.42	1099.42
406.79	1099.89
407.16	1100.73
407.52	1101.13
407.89	1098.06
408.26	1094.32
408.63	1094.13
408.99	1096.82
409.36	1095.44
409.73	1098.67
410.10	1098.48
410.47	1099.58
410.83	1097.99
411.20	1102.58
411.57	1104.41
411.94	1106.84
412.30	1107.99
412.67	1109.58
413.04	1108.20
413.40	1107.17
413.77	1104.97
414.14	1104.36
414.51	1103.73
414.87	1103.80
415.24	1102.51
415.61	1104.08
415.97	1103.00
416.34	1102.46
416.71	1101.46
417.08	1104.22
417.44	1105.11
417.81	1109.91
418.18	1111.61
418.54	1115.01
418.91	1114.75
419.28	1115.66
419.64	1114.28
420.01	1116.15
420.38	1117.44
420.74	1118.24
421.11	1119.85
421.48	1124.56
421.84	1124.88
422.21	1126.48
422.58	1132.49
422.94	1136.17
423.31	1135.53
423.68	1142.56
424.04	1146.42
424.41	1148.62
424.77	1151.05
425.14	1156.60
425.51	1157.89
425.87	1161.05
426.24	1164.51
426.61	1172.07
426.97	1179.86
427.34	1189.72
427.70	1200.27
428.07	1207.08
428.44	1214.08
428.80	1221.13
429.17	1223.52
429.53	1231.64
429.90	1243.90
430.27	1257.36
430.63	1270.44
431.00	1290.88
431.36	1307.00
431.73	1322.54
432.09	1339.11
432.46	1358.21
432.83	1375.09
433.19	1394.94
433.56	1416.80
433.92	1444.49
434.29	1467.70
434.65	1495.79
435.02	1522.45
435.38	1553.37
435.75	1582.83
436.11	1626.30
436.48	1664.54
436.84	1708.45
437.21	1757.86
437.57	1804.67
437.94	1851.43
438.30	1906.04
438.67	1966.80
439.03	2031.61
439.40	2102.78
439.76	2169.98
440.13	2245.09
440.49	2328.72
440.86	2407.29
441.22	2492.90
441.59	2591.02
441.95	2697.84
442.32	2794.25
442.68	2908.14
443.05	3025.28
443.41	3152.26
443.78	3276.12
444.14	3423.97
444.51	3565.55
444.87	3737.74
445.24	3900.08
445.60	4085.87
445.96	4268.67
446.33	4479.72
446.69	4677.96
447.06	4898.95
447.42	5119.69
447.79	5352.81
448.15	5621.43
448.51	5900.16
448.88	6221.52
449.24	6534.78
449.61	6897.30
449.97	7247.91
450.33	7636.93
450.70	7993.82
451.06	8426.12
451.43	8834.82
451.79	9305.71
452.15	9794.88
452.52	10338.68
452.88	10882.91
453.24	11505.07
453.61	12206.03
453.97	12906.18
454.34	13614.36
454.70	14437.66
455.06	15264.01
455.43	16012.56
455.79	16714.65
456.15	17545.12
456.52	18306.17
456.88	19209.71
457.24	20124.75
457.61	21234.67
457.97	22262.40
458.33	23334.67
458.70	24367.67
459.06	25364.22
459.42	26381.77
459.79	27315.88
460.15	28396.25
460.51	29415.53
460.88	30523.98
461.24	31528.16
461.60	32681.04
461.96	33712.75
462.33	34741.46
462.69	35797.56
463.05	36923.24
463.42	37943.78
463.78	38904.60
464.14	39674.00
464.50	40392.33
464.87	40880.12
465.23	41196.45
465.59	41566.44
465.95	41864.32
466.32	42104.86
466.68	42409.48
467.04	42624.50
467.40	42666.56
467.77	42801.52
468.13	42737.76
468.49	42527.04
468.85	42399.93
469.22	42270.40
469.58	42030.50
469.94	41898.91
470.30	41722.65
470.66	41360.82
471.03	40839.54
471.39	40450.71
471.75	39704.80
472.11	38964.56
472.47	38450.70
472.84	37915.30
473.20	37205.74
473.56	36817.75
473.92	36270.74
474.28	35669.72
474.65	35051.72
475.01	34361.12
475.37	33536.55
475.73	32850.54
476.09	32139.46
476.45	31508.46
476.81	30959.76
477.18	30407.82
477.54	29919.37
477.90	29465.47
478.26	28869.45
478.62	28346.95
478.98	27905.15
479.34	27461.86
479.71	26902.49
480.07	26478.39
480.43	26048.97
480.79	25553.88
481.15	25091.17
481.51	24696.56
481.87	24362.68
482.23	23997.70
482.59	23699.75
482.96	23378.70
483.32	23082.53
483.68	22691.70
484.04	22319.16
484.40	21894.38
484.76	21454.31
485.12	20998.63
485.48	20576.87
485.84	20110.56
486.20	19675.41
486.56	19249.53
486.92	18855.57
487.28	18435.58
487.64	18030.36
488.00	17643.10
488.37	17228.03
488.73	16781.73
489.09	16308.74
489.45	15849.80
489.81	15370.11
490.17	14931.94
490.53	14528.01
490.89	14125.04
491.25	13731.29
491.61	13353.22
491.97	12958.47
492.33	12555.99
492.69	12218.77
493.05	11898.28
493.41	11583.73
493.77	11269.87
494.13	10973.98
494.49	10665.03
494.85	10364.15
495.21	10072.82
495.57	9791.75
495.93	9522.45
496.29	9255.81
496.64	9016.96
497.00	8760.13
497.36	8511.43
497.72	8266.23
498.08	8057.62
498.44	7824.18
498.80	7614.46
499.16	7420.08
499.52	7215.05
499.88	7026.50
500.24	6853.72
500.60	6696.34
500.96	6548.82
501.32	6403.57
501.68	6237.74
502.03	6064.73
502.39	5897.40
502.75	5720.74
503.11	5557.51
503.47	5413.89
503.83	5281.09
504.19	5153.41
504.55	5034.66
504.91	4923.88
505.26	4807.32
505.62	4698.06
505.98	4585.23
506.34	4463.68
506.70	4337.81
507.06	4224.64
507.42	4116.89
507.78	4015.03
508.13	3920.89
508.49	3846.76
508.85	3769.55
509.21	3682.22
509.57	3596.82
509.93	3519.84
510.28	3430.38
510.64	3341.68
511.00	3267.81
511.36	3193.92
511.72	3126.21
512.07	3066.64
512.43	3005.79
512.79	2940.13
513.15	2880.40
513.51	2817.12
513.86	2758.91
514.22	2704.82
514.58	2656.55
514.94	2608.81
515.30	2567.45
515.65	2522.16
516.01	2480.76
516.37	2440.69
516.73	2399.56
517.08	2356.99
517.44	2313.67
517.80	2274.98
518.16	2240.15
518.51	2198.84
518.87	2163.22
519.23	2131.29
519.59	2101.85
519.94	2064.33
520.30	2040.60
520.66	2012.95
521.01	1986.30
521.37	1955.14
521.73	1925.51
522.09	1898.31
522.44	1873.69
522.80	1852.04
523.16	1829.25
523.51	1810.33
523.87	1786.23
524.23	1764.30
524.58	1740.09
524.94	1716.90
525.30	1694.38
525.65	1676.01
526.01	1656.77
526.37	1640.60
526.72	1628.87
527.08	1611.27
527.44	1595.38
527.79	1578.57
528.15	1563.90
528.51	1549.34
528.86	1535.53
529.22	1521.00
529.58	1509.95
529.93	1496.02
530.29	1482.54
530.65	1469.60
531.00	1458.22
531.36	1446.54
531.71	1436.25
532.07	1424.82
532.43	1417.29
532.78	1406.66
533.14	1394.07
533.49	1382.25
533.85	1371.55
534.21	1363.50
534.56	1355.50
534.92	1353.11
535.27	1346.37
535.63	1340.35
535.98	1332.68
536.34	1324.25
536.69	1313.25
537.05	1306.07
537.41	1297.66
537.76	1290.27
538.12	1284.53
538.47	1276.57
538.83	1269.76
539.18	1266.16
539.54	1264.01
539.89	1261.88
540.25	1260.12
540.60	1255.84
540.96	1248.79
541.31	1241.47
541.67	1234.23
542.02	1228.45
542.38	1223.87
542.73	1222.63
543.09	1219.61
543.44	1216.40
543.80	1212.35
544.15	1211.95
544.51	1209.40
544.86	1207.51
545.22	1205.33
545.57	1202.52
545.93	1199.85
546.28	1196.18
546.64	1189.69
546.99	1186.00
547.35	1185.18
547.70	1182.37
548.05	1179.56
548.41	1179.09
548.76	1176.42
549.12	1174.93
549.47	1170.10
549.83	1164.88
550.18	1160.53
550.53	1158.99
550.89	1154.87
551.24	1152.06
551.60	1152.04
551.95	1154.52
552.30	1154.63
552.66	1151.89
553.01	1154.02
553.37	1153.63
553.72	1150.28
554.07	1147.71
554.43	1147.71
554.78	1145.74
555.13	1144.69
555.49	1142.44
555.84	1141.06
556.19	1139.51
556.55	1137.76
556.90	1137.06
557.26	1136.96
557.61	1134.13
557.96	1133.47
558.32	1131.60
558.67	1130.69
559.02	1130.03
559.37	1130.29
559.73	1129.45
560.08	1127.97
560.43	1126.34
560.79	1126.34
561.14	1121.89
561.49	1120.63
561.85	1124.58
562.20	1125.98
562.55	1123.81
562.90	1126.66
563.26	1127.90
563.61	1124.35
563.96	1120.48
564.32	1118.47
564.67	1117.16
565.02	1115.90
565.37	1115.08
565.73	1113.42
566.08	1113.67
566.43	1112.27
566.78	1110.16
567.14	1109.46
567.49	1110.58
567.84	1110.51
568.19	1108.55
568.54	1107.19
568.90	1108.01
569.25	1108.29
569.60	1105.41
569.95	1106.89
570.31	1109.48
570.66	1105.74
571.01	1101.85
571.36	1102.95
571.71	1102.67
572.06	1102.70
572.42	1101.92
572.77	1101.53
573.12	1100.52
573.47	1097.62
573.82	1095.63
574.18	1093.71
574.53	1092.91
574.88	1094.62
575.23	1096.75
575.58	1095.86
575.93	1098.41
576.28	1103.05
576.64	1104.69
576.99	1107.56
577.34	1105.22
577.69	1105.51
578.04	1103.14
578.39	1100.40
578.74	1099.44
579.09	1103.56
579.44	1104.62
579.80	1102.53
580.15	1105.58
580.50	1102.95
580.85	1099.09
581.20	1094.39
581.55	1096.12
581.90	1091.67
582.25	1091.93
582.60	1092.00
582.95	1093.73
583.30	1092.09
583.65	1090.20
584.00	1090.32
584.35	1089.78
584.71	1089.26
585.06	1087.93
585.41	1090.74
585.76	1090.13
586.11	1090.15
586.46	1091.77
586.81	1093.78
587.16	1091.98
587.51	1093.64
587.86	1095.82
588.21	1093.15
588.56	1091.04
588.91	1092.54
589.26	1090.60
589.61	1087.97
589.96	1089.40
590.31	1090.85
590.66	1092.21
591.01	1091.93
591.36	1093.66
591.71	1091.58
592.06	1093.50
592.41	1091.13
592.76	1092.96
593.10	1092.47
593.45	1091.06
593.80	1087.44
594.15	1084.86
594.50	1083.11
594.85	1077.70
595.20	1079.99
595.55	1082.01
595.90	1084.23
596.25	1082.83
596.60	1087.18
596.95	1086.50
597.30	1083.74
597.64	1093.83
597.99	1096.92
598.34	1099.93
598.69	1098.74
599.04	1103.14
599.39	1092.70
599.74	1089.92
600.09	1086.41
600.44	1089.64
600.78	1085.82
601.13	1088.84
601.48	1088.26
601.83	1089.80
602.18	1089.40
602.53	1091.60
602.88	1088.93
603.22	1088.21
603.57	1086.17
603.92	1084.96
604.27	1085.38
604.62	1086.45
604.97	1087.81
605.31	1087.95
605.66	1089.96
606.01	1090.53
606.36	1087.34
606.71	1084.81
607.05	1086.45
607.40	1082.12
607.75	1077.89
608.10	1077.33
608.44	1081.28
608.79	1079.64
609.14	1082.57
609.49	1084.84
609.84	1088.04
610.18	1087.46
610.53	1086.92
610.88	1085.00
611.23	1085.82
611.57	1083.74
611.92	1084.23
612.27	1083.43
612.62	1083.62
612.96	1083.88
613.31	1087.46
613.66	1088.58
614.00	1088.84
614.35	1087.67
614.70	1086.41
615.05	1080.86
615.39	1080.46
615.74	1081.30
616.09	1085.03
616.43	1086.15
616.78	1091.11
617.13	1089.61
617.47	1090.50
617.82	1090.71
618.17	1090.03
618.51	1089.61
618.86	1091.02
619.21	1091.20
619.55	1090.53
619.90	1092.59
620.25	1092.37
620.59	1088.98
620.94	1087.72
621.29	1086.01
621.63	1082.29
621.98	1080.51
622.32	1082.40
622.67	1084.11
623.02	1083.88
623.36	1086.22
623.71	1086.73
624.05	1086.90
624.40	1084.63
624.75	1085.14
625.09	1082.24
625.44	1083.46
625.78	1083.93
626.13	1086.94
626.48	1087.06
626.82	1087.97
627.17	1088.04
627.51	1087.23
627.86	1085.00
628.20	1082.99
628.55	1083.01
628.89	1082.76
629.24	1082.05
629.58	1083.41
629.93	1085.94
630.28	1088.96
630.62	1086.24
630.97	1083.86
631.31	1082.92
631.66	1083.32
632.00	1080.79
632.35	1083.25
632.69	1084.18
633.04	1081.05
633.38	1079.55
633.73	1079.55
634.07	1076.30
634.42	1073.81
634.76	1077.00
635.11	1080.95
635.45	1079.85
635.79	1081.07
636.14	1084.63
636.48	1086.73
636.83	1084.16
637.17	1087.39
637.52	1088.58
637.86	1088.40
638.21	1085.75
638.55	1085.40
638.89	1084.63
639.24	1083.67
639.58	1084.04
639.93	1083.55
640.27	1083.46
640.61	1084.28
640.96	1087.90
641.30	1090.27
641.65	1092.49
641.99	1091.27
642.33	1089.99
642.68	1085.96
643.02	1085.00
643.37	1084.25
643.71	1084.16
644.05	1082.50
644.40	1086.34
644.74	1083.15
645.08	1083.20
645.43	1084.16
645.77	1084.28
646.11	1081.80
646.46	1082.29
646.80	1081.96
647.14	1081.94
647.49	1083.90
647.83	1084.58
648.17	1085.94
648.52	1087.23
648.86	1090.92
649.20	1089.94
649.55	1090.43
649.89	1091.16
650.23	1090.50
650.57	1085.47
650.92	1084.60
651.26	1082.54
651.60	1081.33
651.95	1081.80
652.29	1082.26
652.63	1082.54
652.97	1084.07
653.32	1085.35
653.66	1086.27
654.00	1085.42
654.34	1085.68
654.69	1083.39
655.03	1084.98
655.37	1082.50
655.71	1082.69
656.05	1081.26
656.40	1084.00
656.74	1080.48
657.08	1077.93
657.42	1079.62
657.76	1079.20
658.11	1076.79
658.45	1079.08
658.79	1080.95
659.13	1079.24
659.47	1082.24
659.82	1082.05
660.16	1080.95
660.50	1081.63
660.84	1082.24
661.18	1079.92
661.52	1080.95
661.87	1080.98
662.21	1082.78
662.55	1081.30
662.89	1081.14
663.23	1082.99
663.57	1083.55
663.91	1082.94
664.25	1084.49
664.60	1084.70
664.94	1082.33
665.28	1082.76
665.62	1079.90
665.96	1080.58
666.30	1083.67
666.64	1084.93
666.98	1084.74
667.32	1086.15
667.66	1087.74
668.01	1087.95
668.35	1085.75
668.69	1083.60
669.03	1085.49
669.37	1083.64
669.71	1080.95
670.05	1081.73
670.39	1080.41
670.73	1077.18
671.07	1075.78
671.41	1077.42
671.75	1077.70
672.09	1077.56
672.43	1077.96
672.77	1078.05
673.11	1075.29
673.45	1075.62
673.79	1078.54
674.13	1077.96
674.47	1081.87
674.81	1081.73
675.15	1080.11
675.49	1079.99
675.83	1082.01
676.17	1078.61
676.51	1079.90
676.85	1078.92
677.19	1080.67
677.53	1081.19
677.87	1081.89
678.21	1080.65
678.55	1083.88
678.89	1079.83
679.23	1080.48
679.57	1081.70
679.90	1083.55
680.24	1085.07
680.58	1089.03
680.92	1090.50
681.26	1088.89
681.60	1087.53
681.94	1084.67
682.28	1083.57
682.62	1080.67
682.96	1078.50
683.29	1079.31
683.63	1081.58
683.97	1081.68
684.31	1081.21
684.65	1080.95
684.99	1081.56
685.33	1081.14
685.67	1077.86
686.00	1077.18
686.34	1080.16
686.68	1076.79
687.02	1076.65
687.36	1079.55
687.70	1079.97
688.03	1081.37
688.37	1086.15
688.71	1087.27
689.05	1086.64
689.39	1087.76
689.72	1085.84
690.06	1084.70
690.40	1085.00
690.74	1082.59
691.08	1081.80
691.41	1083.27
691.75	1087.39
692.09	1084.46
692.43	1089.26
692.76	1089.85
693.10	1088.14
693.44	1082.54
693.78	1086.52
694.11	1083.32
694.45	1085.82
694.79	1086.15
695.13	1084.14
695.46	1079.15
695.80	1081.63
696.14	1078.26
696.48	1078.26
696.81	1078.87
697.15	1080.79
697.49	1079.29
697.82	1082.10
698.16	1079.92
698.50	1080.86
698.83	1080.91
699.17	1080.18
699.51	1077.49
699.84	1077.79
700.18	1077.82
700.52	1078.26
700.85	1081.02
701.19	1081.12
701.53	1081.82
701.86	1083.53
702.20	1080.95
702.54	1081.49
702.87	1082.71
703.21	1082.97
703.55	1082.03
703.88	1083.67
704.22	1079.01
704.55	1076.20
704.89	1079.17
705.23	1080.77
705.56	1081.63
705.90	1086.03
706.23	1088.42
706.57	1087.18
706.91	1086.34
707.24	1085.33
707.58	1085.59
707.91	1084.84
708.25	1087.20
708.58	1089.31
708.92	1089.54
709.26	1086.22
709.59	1085.47
709.93	1082.85
710.26	1077.11
710.60	1074.05
710.93	1071.61
711.27	1074.07
711.60	1071.57
711.94	1075.52
712.27	1078.61
712.61	1083.90
712.94	1078.78
713.28	1079.92
713.61	1078.61
713.95	1080.16
714.28	1075.22
714.62	1079.36
714.95	1078.57
715.29	1078.94
715.62	1077.44
715.96	1083.50
716.29	1083.34
716.63	1084.81
716.96	1086.59
717.29	1084.09
717.63	1078.78
717.96	1079.53
718.30	1078.96
718.63	1075.71
718.97	1079.50
719.30	1083.13
719.63	1079.81
719.97	1082.17
720.30	1084.46
720.64	1083.29
720.97	1081.80
721.30	1084.46
721.64	1080.88
721.97	1079.29
722.31	1076.04
722.64	1076.18
722.97	1076.30
723.31	1078.07
723.64	1077.18
723.97	1081.07
724.31	1081.66
724.64	1082.94
724.98	1083.50
725.31	1085.05
725.64	1083.71
725.98	1081.89
726.31	1079.01
726.64	1078.24
726.97	1078.14
727.31	1077.42
727.64	1077.40
727.97	1077.96
728.31	1080.81
728.64	1081.00
728.97	1081.70
729.31	1080.23
729.64	1078.00
729.97	1075.41
730.30	1075.08
730.64	1075.20
730.97	1078.61
731.30	1078.03
731.63	1078.66
731.97	1081.16
732.30	1082.26
732.63	1083.76
732.96	1088.33
733.30	1088.86
733.63	1087.25
733.96	1084.63
734.29	1082.10
734.63	1080.93
734.96	1083.50
735.29	1081.94
735.62	1082.87
735.95	1081.56
736.29	1081.87
736.62	1077.68
736.95	1079.10
737.28	1078.38
737.61	1079.69
737.94	1082.36
738.28	1082.29
738.61	1082.57
738.94	1084.28
739.27	1085.56
739.60	1080.32
739.93	1082.85
740.27	1081.00
740.60	1078.47
740.93	1075.85
741.26	1076.95
741.59	1078.19
741.92	1075.87
742.25	1076.58
742.58	1079.46
742.91	1080.91
743.25	1076.58
743.58	1077.30
743.91	1077.84
744.24	1076.30
744.57	1076.13
744.90	1079.43
745.23	1080.63
745.56	1081.91
745.89	1081.44
746.22	1080.16
746.55	1077.82
746.88	1081.30
747.21	1078.99
747.54	1081.16
747.87	1082.05
748.20	1080.95
748.53	1080.06
748.87	1082.31
749.20	1078.10
749.53	1078.47
749.86	1077.77
750.19	1074.03
750.52	1073.28
750.85	1077.28
751.18	1076.01
751.51	1075.43
751.84	1076.88
752.16	1079.20
752.49	1076.51
752.82	1078.43
753.15	1081.09
753.48	1083.74
753.81	1081.19
754.14	1082.59
754.47	1081.02
754.80	1085.40
755.13	1084.44
755.46	1084.02
755.79	1083.62
756.12	1084.51
756.45	1079.81
756.78	1078.50
757.11	1079.76
757.43	1079.81
757.76	1080.84
758.09	1078.43
758.42	1078.75
758.75	1079.88
759.08	1078.61
759.41	1077.09
759.74	1080.77
760.07	1082.40
760.39	1078.75
760.72	1079.92
761.05	1078.73
761.38	1078.31
761.71	1079.01
762.04	1082.59
762.36	1081.35
762.69	1081.40
763.02	1081.35
763.35	1081.66
763.68	1078.64
