SpectraSuite Data File
++++++++++++++++++++++++++++++++++++
Date: Mon Aug 26 10:22:25 PDT 2019
User: corrico
Dark Spectrum Present: No
Reference Spectrum Present: No
Number of Sampled Component Spectra: 1
Spectrometers: USB2+H06089
Integration Time (usec): 2000 (USB2+H06089)
Spectra Averaged: 20 (USB2+H06089)
Boxcar Smoothing: 2 (USB2+H06089)
Correct for Electrical Dark: No (USB2+H06089)
Strobe/Lamp Enabled: No (USB2+H06089)
Correct for Detector Non-linearity: No (USB2+H06089)
Correct for Stray Light: No (USB2+H06089)
Number of Pixels in Processed Spectrum: 2048
>>>>>Begin Processed Spectral Data<<<<<
339.70	1029.25
340.07	1029.25
340.45	992.18
340.82	969.82
341.19	943.75
341.57	920.72
341.94	914.82
342.31	905.88
342.69	901.88
343.06	897.64
343.43	895.61
343.81	896.33
344.18	899.47
344.55	903.40
344.93	916.13
345.30	921.23
345.67	926.85
346.04	933.64
346.42	941.88
346.79	947.89
347.16	959.01
347.54	968.33
347.91	977.48
348.28	985.41
348.65	992.69
349.03	999.53
349.40	1008.02
349.77	1020.54
350.14	1028.01
350.52	1034.73
350.89	1040.70
351.26	1047.25
351.63	1050.60
352.01	1054.41
352.38	1059.07
352.75	1061.81
353.12	1065.44
353.50	1067.52
353.87	1074.07
354.24	1077.02
354.61	1080.88
354.98	1082.40
355.36	1086.27
355.73	1085.05
356.10	1083.43
356.47	1082.94
356.84	1086.10
357.22	1085.00
357.59	1086.17
357.96	1090.03
358.33	1092.21
358.70	1088.68
359.08	1087.23
359.45	1084.21
359.82	1082.05
360.19	1082.31
360.56	1081.40
360.94	1081.07
361.31	1082.22
361.68	1081.94
362.05	1078.31
362.42	1079.01
362.79	1077.14
363.16	1074.56
363.54	1071.17
363.91	1072.04
364.28	1072.20
364.65	1075.45
365.02	1075.29
365.39	1076.34
365.76	1075.10
366.14	1075.94
366.51	1073.16
366.88	1077.04
367.25	1080.32
367.62	1078.52
367.99	1077.51
368.36	1078.52
368.73	1076.32
369.10	1073.16
369.48	1076.08
369.85	1075.10
370.22	1075.66
370.59	1073.28
370.96	1075.41
371.33	1075.66
371.70	1075.01
372.07	1074.84
372.44	1078.07
372.81	1078.45
373.18	1075.45
373.55	1075.66
373.93	1074.38
374.30	1076.37
374.67	1075.48
375.04	1080.63
375.41	1082.17
375.78	1084.91
376.15	1082.26
376.52	1087.30
376.89	1084.74
377.26	1082.40
377.63	1076.72
378.00	1076.37
378.37	1070.23
378.74	1072.83
379.11	1072.64
379.48	1075.36
379.85	1075.71
380.22	1080.48
380.59	1078.57
380.96	1078.99
381.33	1079.60
381.70	1080.91
382.07	1077.61
382.44	1077.35
382.81	1080.58
383.18	1080.81
383.55	1081.30
383.92	1082.71
384.29	1084.11
384.66	1082.85
385.03	1083.29
385.40	1082.22
385.77	1078.26
386.14	1075.94
386.51	1076.53
386.88	1075.24
387.25	1075.17
387.62	1079.57
387.99	1079.43
388.36	1079.48
388.73	1080.11
389.10	1082.40
389.46	1079.17
389.83	1079.85
390.20	1078.66
390.57	1078.94
390.94	1078.92
391.31	1082.24
391.68	1085.75
392.05	1088.84
392.42	1089.89
392.79	1090.36
393.16	1090.67
393.53	1087.95
393.89	1086.29
394.26	1084.67
394.63	1083.48
395.00	1082.64
395.37	1083.15
395.74	1083.53
396.11	1086.45
396.48	1090.62
396.84	1095.79
397.21	1094.22
397.58	1090.76
397.95	1088.09
398.32	1084.49
398.69	1081.05
399.06	1085.59
399.42	1089.78
399.79	1094.29
400.16	1095.16
400.53	1094.04
400.90	1092.61
401.27	1095.07
401.64	1093.01
402.00	1090.57
402.37	1089.14
402.74	1088.56
403.11	1086.29
403.48	1084.72
403.84	1085.73
404.21	1089.40
404.58	1089.33
404.95	1089.00
405.32	1091.39
405.68	1092.30
406.05	1092.33
406.42	1094.83
406.79	1096.26
407.16	1098.34
407.52	1100.71
407.89	1099.89
408.26	1099.44
408.63	1098.53
408.99	1099.70
409.36	1099.49
409.73	1099.12
410.10	1097.92
410.47	1098.86
410.83	1098.90
411.20	1100.08
411.57	1100.94
411.94	1099.84
412.30	1098.60
412.67	1099.23
413.04	1098.72
413.40	1096.05
413.77	1098.69
414.14	1097.43
414.51	1095.70
414.87	1094.34
415.24	1100.54
415.61	1101.83
415.97	1102.53
416.34	1101.76
416.71	1103.12
417.08	1102.88
417.44	1103.05
417.81	1109.48
418.18	1108.45
418.54	1107.26
418.91	1109.02
419.28	1110.35
419.64	1107.47
420.01	1110.91
420.38	1112.67
420.74	1110.14
421.11	1111.29
421.48	1115.08
421.84	1117.02
422.21	1120.65
422.58	1123.34
422.94	1126.69
423.31	1133.50
423.68	1136.56
424.04	1137.99
424.41	1141.22
424.77	1144.97
425.14	1143.52
425.51	1147.52
425.87	1154.89
426.24	1158.10
426.61	1163.69
426.97	1167.88
427.34	1171.11
427.70	1177.92
428.07	1187.47
428.44	1189.88
428.80	1195.48
429.17	1206.08
429.53	1211.27
429.90	1216.96
430.27	1228.59
430.63	1241.26
431.00	1250.34
431.36	1264.08
431.73	1278.05
432.09	1289.49
432.46	1301.60
432.83	1317.44
433.19	1332.56
433.56	1351.89
433.92	1373.15
434.29	1395.66
434.65	1418.53
435.02	1440.97
435.38	1463.37
435.75	1488.46
436.11	1521.37
436.48	1551.68
436.84	1585.53
437.21	1625.64
437.57	1666.77
437.94	1705.88
438.30	1751.31
438.67	1796.57
439.03	1844.34
439.40	1899.72
439.76	1954.23
440.13	2010.54
440.49	2078.21
440.86	2145.08
441.22	2214.57
441.59	2289.68
441.95	2371.36
442.32	2454.57
442.68	2549.45
443.05	2639.56
443.41	2736.67
443.78	2839.75
444.14	2945.14
444.51	3053.18
444.87	3195.84
445.24	3338.03
445.60	3490.51
445.96	3656.01
446.33	3827.15
446.69	3990.03
447.06	4167.70
447.42	4346.59
447.79	4534.27
448.15	4755.27
448.51	4976.77
448.88	5243.90
449.24	5487.99
449.61	5767.59
449.97	6039.59
450.33	6323.33
450.70	6578.38
451.06	6915.44
451.43	7215.38
451.79	7578.61
452.15	7986.80
452.52	8430.52
452.88	8878.33
453.24	9405.72
453.61	9978.01
453.97	10530.28
454.34	11075.74
454.70	11722.22
455.06	12359.18
455.43	12991.92
455.79	13595.12
456.15	14318.98
456.52	14964.22
456.88	15740.85
457.24	16444.88
457.61	17292.49
457.97	18066.06
458.33	18859.29
458.70	19619.12
459.06	20395.22
459.42	21215.55
459.79	21981.33
460.15	22882.13
460.51	23748.25
460.88	24689.98
461.24	25522.21
461.60	26480.10
461.96	27374.23
462.33	28211.37
462.69	28979.34
463.05	29809.98
463.42	30548.56
463.78	31167.23
464.14	31677.58
464.50	32276.10
464.87	32745.36
465.23	33073.69
465.59	33424.14
465.95	33785.54
466.32	34035.51
466.68	34270.83
467.04	34417.76
467.40	34570.98
467.77	34709.28
468.13	34706.77
468.49	34602.34
468.85	34539.33
469.22	34354.38
469.58	34005.55
469.94	33744.35
470.30	33446.02
470.66	33017.42
471.03	32441.11
471.39	32076.22
471.75	31448.14
472.11	30841.64
472.47	30484.78
472.84	30168.78
473.20	29661.16
473.56	29389.83
473.92	28968.18
474.28	28441.75
474.65	27930.76
475.01	27466.51
475.37	26876.79
475.73	26410.00
476.09	25881.71
476.45	25378.34
476.81	24845.63
477.18	24319.85
477.54	23878.03
477.90	23530.90
478.26	23122.46
478.62	22777.81
478.98	22493.98
479.34	22168.97
479.71	21744.89
480.07	21395.12
480.43	21047.41
480.79	20662.60
481.15	20308.64
481.51	20016.85
481.87	19763.11
482.23	19470.89
482.59	19225.98
482.96	18956.35
483.32	18646.49
483.68	18266.22
484.04	17937.30
484.40	17563.66
484.76	17194.30
485.12	16828.01
485.48	16513.74
485.84	16155.66
486.20	15803.62
486.56	15427.62
486.92	15133.39
487.28	14771.35
487.64	14404.57
488.00	14079.87
488.37	13755.40
488.73	13384.52
489.09	13032.13
489.45	12737.13
489.81	12416.33
490.17	12123.67
490.53	11849.64
490.89	11554.73
491.25	11238.69
491.61	10925.20
491.97	10600.54
492.33	10264.42
492.69	9971.45
493.05	9671.49
493.41	9385.08
493.77	9112.27
494.13	8855.56
494.49	8604.72
494.85	8372.35
495.21	8146.42
495.57	7931.37
495.93	7718.92
496.29	7515.72
496.64	7334.40
497.00	7143.32
497.36	6953.33
497.72	6766.61
498.08	6582.76
498.44	6389.36
498.80	6229.27
499.16	6064.91
499.52	5915.28
499.88	5789.43
500.24	5680.18
500.60	5547.87
500.96	5433.18
501.32	5323.29
501.68	5199.29
502.03	5063.82
502.39	4944.73
502.75	4812.87
503.11	4687.16
503.47	4569.59
503.83	4453.01
504.19	4334.34
504.55	4233.02
504.91	4134.84
505.26	4043.72
505.62	3956.44
505.98	3874.62
506.34	3781.46
506.70	3682.62
507.06	3592.51
507.42	3508.98
507.78	3431.76
508.13	3360.35
508.49	3291.99
508.85	3218.63
509.21	3149.57
509.57	3076.38
509.93	3007.10
510.28	2941.75
510.64	2878.67
511.00	2816.98
511.36	2755.42
511.72	2704.63
512.07	2653.28
512.43	2604.38
512.79	2552.12
513.15	2504.68
513.51	2454.19
513.86	2410.33
514.22	2370.28
514.58	2329.93
514.94	2298.10
515.30	2265.19
515.65	2226.04
516.01	2191.98
516.37	2163.50
516.73	2130.78
517.08	2097.85
517.44	2068.03
517.80	2035.63
518.16	2009.91
518.51	1983.14
518.87	1956.85
519.23	1931.64
519.59	1909.27
519.94	1878.75
520.30	1856.28
520.66	1833.06
521.01	1809.89
521.37	1785.88
521.73	1764.69
522.09	1737.10
522.44	1717.04
522.80	1702.88
523.16	1684.55
523.51	1663.35
523.87	1645.63
524.23	1625.15
524.58	1601.07
524.94	1582.25
525.30	1566.68
525.65	1550.77
526.01	1536.44
526.37	1527.43
526.72	1516.99
527.08	1506.42
527.44	1495.79
527.79	1483.41
528.15	1467.59
528.51	1451.46
528.86	1438.45
529.22	1428.19
529.58	1413.71
529.93	1401.61
530.29	1395.10
530.65	1384.12
531.00	1372.23
531.36	1367.72
531.71	1363.69
532.07	1354.05
532.43	1351.36
532.78	1346.98
533.14	1335.30
533.49	1326.29
533.85	1319.34
534.21	1309.32
534.56	1303.40
534.92	1300.99
535.27	1293.78
535.63	1289.61
535.98	1284.35
536.34	1273.37
536.69	1264.17
537.05	1256.05
537.41	1247.34
537.76	1241.19
538.12	1237.35
538.47	1234.63
538.83	1233.63
539.18	1231.12
539.54	1228.76
539.89	1228.57
540.25	1227.40
540.60	1225.62
540.96	1222.84
541.31	1217.13
541.67	1213.50
542.02	1209.85
542.38	1204.44
542.73	1200.02
543.09	1197.86
543.44	1196.65
543.80	1191.03
544.15	1187.17
544.51	1185.95
544.86	1185.81
545.22	1178.06
545.57	1178.16
545.93	1177.76
546.28	1172.63
546.64	1168.79
546.99	1166.99
547.35	1163.32
547.70	1159.97
548.05	1159.52
548.41	1158.75
548.76	1157.61
549.12	1157.09
549.47	1157.61
549.83	1157.68
550.18	1153.70
550.53	1153.21
550.89	1152.53
551.24	1148.31
551.60	1144.73
551.95	1142.77
552.30	1136.89
552.66	1134.22
553.01	1133.92
553.37	1136.26
553.72	1135.09
554.07	1136.87
554.43	1135.07
554.78	1130.17
555.13	1123.97
555.49	1123.90
555.84	1123.60
556.19	1126.20
556.55	1129.00
556.90	1128.77
557.26	1128.40
557.61	1125.40
557.96	1120.27
558.32	1118.59
558.67	1118.78
559.02	1118.73
559.37	1118.57
559.73	1116.11
560.08	1115.24
560.43	1115.50
560.79	1113.49
561.14	1113.60
561.49	1116.15
561.85	1117.44
562.20	1114.61
562.55	1111.97
562.90	1109.86
563.26	1106.32
563.61	1101.83
563.96	1099.54
564.32	1095.91
564.67	1096.52
565.02	1098.72
565.37	1102.95
565.73	1104.03
566.08	1111.01
566.43	1113.21
566.78	1109.39
567.14	1104.05
567.49	1103.12
567.84	1100.24
568.19	1098.06
568.54	1099.70
568.90	1101.43
569.25	1104.31
569.60	1105.15
569.95	1104.76
570.31	1101.78
570.66	1101.41
571.01	1098.04
571.36	1097.06
571.71	1095.30
572.06	1098.69
572.42	1098.37
572.77	1099.68
573.12	1101.08
573.47	1104.78
573.82	1102.28
574.18	1103.63
574.53	1100.52
574.88	1097.38
575.23	1093.50
575.58	1093.57
575.93	1091.23
576.28	1095.16
576.64	1097.55
576.99	1097.13
577.34	1099.14
577.69	1101.22
578.04	1097.27
578.39	1094.01
578.74	1092.16
579.09	1091.11
579.44	1091.93
579.80	1094.46
580.15	1094.74
580.50	1098.83
580.85	1099.37
581.20	1096.40
581.55	1094.01
581.90	1092.66
582.25	1090.48
582.60	1088.68
582.95	1089.07
583.30	1089.54
583.65	1090.57
584.00	1092.14
584.35	1091.02
584.71	1089.40
585.06	1089.31
585.41	1088.63
585.76	1088.02
586.11	1086.55
586.46	1087.04
586.81	1085.38
587.16	1087.04
587.51	1086.43
587.86	1090.03
588.21	1092.98
588.56	1096.14
588.91	1097.17
589.26	1095.18
589.61	1096.47
589.96	1095.79
590.31	1094.95
590.66	1093.50
591.01	1096.26
591.36	1092.49
591.71	1092.00
592.06	1091.98
592.41	1092.07
592.76	1090.69
593.10	1089.80
593.45	1086.41
593.80	1083.41
594.15	1081.73
594.50	1079.22
594.85	1078.61
595.20	1082.10
595.55	1084.11
595.90	1083.41
596.25	1085.17
596.60	1085.19
596.95	1084.00
597.30	1084.35
597.64	1093.80
597.99	1094.88
598.34	1096.24
598.69	1092.87
599.04	1090.46
599.39	1079.57
599.74	1076.86
600.09	1077.79
600.44	1081.40
600.78	1081.19
601.13	1082.01
601.48	1083.06
601.83	1080.44
602.18	1077.68
602.53	1081.33
602.88	1082.97
603.22	1082.71
603.57	1087.32
603.92	1088.33
604.27	1084.65
604.62	1083.88
604.97	1081.75
605.31	1081.23
605.66	1080.56
606.01	1080.77
606.36	1080.79
606.71	1082.24
607.05	1082.19
607.40	1082.08
607.75	1085.10
608.10	1085.63
608.44	1087.37
608.79	1082.15
609.14	1083.53
609.49	1080.86
609.84	1081.23
610.18	1080.79
610.53	1083.79
610.88	1084.46
611.23	1087.04
611.57	1088.82
611.92	1088.72
612.27	1092.66
612.62	1092.56
612.96	1092.02
613.31	1089.38
613.66	1089.68
614.00	1084.35
614.35	1081.37
614.70	1086.15
615.05	1086.66
615.39	1087.13
615.74	1088.93
616.09	1092.23
616.43	1088.51
616.78	1085.24
617.13	1081.35
617.47	1081.73
617.82	1080.39
618.17	1077.44
618.51	1077.89
618.86	1081.91
619.21	1081.84
619.55	1081.30
619.90	1083.79
620.25	1084.09
620.59	1084.98
620.94	1086.13
621.29	1083.90
621.63	1084.89
621.98	1085.80
622.32	1083.76
622.67	1083.64
623.02	1088.89
623.36	1086.38
623.71	1085.45
624.05	1086.78
624.40	1086.06
624.75	1080.63
625.09	1083.04
625.44	1085.99
625.78	1084.84
626.13	1082.33
626.48	1085.54
626.82	1083.43
627.17	1080.84
627.51	1083.64
627.86	1083.39
628.20	1080.02
628.55	1078.26
628.89	1080.23
629.24	1077.00
629.58	1077.30
629.93	1080.98
630.28	1082.47
630.62	1080.58
630.97	1083.08
631.31	1082.01
631.66	1080.70
632.00	1080.81
632.35	1082.12
632.69	1081.30
633.04	1084.02
633.38	1083.60
633.73	1081.82
634.07	1082.26
634.42	1081.70
634.76	1080.77
635.11	1082.36
635.45	1086.01
635.79	1087.79
636.14	1083.22
636.48	1081.12
636.83	1080.25
637.17	1079.97
637.52	1079.81
637.86	1081.77
638.21	1083.29
638.55	1083.22
638.89	1080.95
639.24	1080.04
639.58	1082.54
639.93	1083.97
640.27	1086.17
640.61	1087.30
640.96	1084.09
641.30	1083.71
641.65	1085.47
641.99	1082.10
642.33	1082.73
642.68	1085.42
643.02	1086.50
643.37	1085.42
643.71	1085.54
644.05	1084.86
644.40	1086.38
644.74	1083.36
645.08	1079.50
645.43	1080.37
645.77	1079.15
646.11	1076.30
646.46	1079.17
646.80	1081.19
647.14	1081.21
647.49	1082.36
647.83	1084.86
648.17	1086.20
648.52	1084.63
648.86	1086.13
649.20	1086.83
649.55	1082.52
649.89	1080.95
650.23	1086.08
650.57	1086.50
650.92	1084.23
651.26	1086.15
651.60	1085.52
651.95	1080.91
652.29	1079.48
652.63	1079.31
652.97	1080.74
653.32	1079.88
653.66	1079.76
654.00	1079.62
654.34	1081.68
654.69	1079.03
655.03	1079.08
655.37	1081.70
655.71	1084.00
656.05	1083.08
656.40	1086.06
656.74	1085.12
657.08	1084.77
657.42	1081.30
657.76	1083.01
658.11	1080.32
658.45	1084.09
658.79	1084.67
659.13	1084.30
659.47	1084.18
659.82	1086.48
660.16	1084.70
660.50	1083.34
660.84	1084.65
661.18	1082.57
661.52	1082.50
661.87	1082.33
662.21	1081.63
662.55	1080.37
662.89	1079.13
663.23	1079.13
663.57	1077.37
663.91	1076.37
664.25	1080.67
664.60	1081.89
664.94	1080.32
665.28	1079.99
665.62	1080.48
665.96	1077.00
666.30	1075.87
666.64	1077.25
666.98	1077.68
667.32	1079.27
667.66	1080.37
668.01	1081.96
668.35	1080.93
668.69	1082.69
669.03	1083.27
669.37	1084.04
669.71	1082.33
670.05	1081.42
670.39	1080.39
670.73	1079.92
671.07	1077.51
671.41	1077.79
671.75	1080.95
672.09	1077.86
672.43	1076.69
672.77	1076.18
673.11	1076.13
673.45	1076.95
673.79	1080.20
674.13	1083.11
674.47	1085.99
674.81	1087.09
675.15	1087.04
675.49	1084.84
675.83	1084.56
676.17	1082.61
676.51	1084.23
676.85	1084.74
677.19	1088.86
677.53	1087.90
677.87	1089.96
678.21	1088.28
678.55	1084.23
678.89	1079.48
679.23	1077.49
679.57	1076.93
679.90	1077.44
680.24	1079.24
680.58	1083.13
680.92	1086.03
681.26	1081.51
681.60	1080.02
681.94	1079.15
682.28	1079.99
682.62	1077.84
682.96	1081.00
683.29	1081.33
683.63	1083.22
683.97	1080.37
684.31	1081.09
684.65	1081.54
684.99	1080.58
685.33	1076.41
685.67	1075.38
686.00	1073.21
686.34	1072.46
686.68	1073.72
687.02	1072.90
687.36	1076.67
687.70	1077.37
688.03	1077.42
688.37	1075.20
688.71	1080.02
689.05	1077.89
689.39	1079.76
689.72	1079.31
690.06	1080.06
690.40	1077.93
690.74	1080.13
691.08	1077.02
691.41	1080.23
691.75	1084.28
692.09	1086.17
692.43	1084.11
692.76	1088.51
693.10	1085.59
693.44	1084.79
693.78	1082.36
694.11	1081.37
694.45	1079.64
694.79	1079.64
695.13	1076.23
695.46	1078.31
695.80	1079.92
696.14	1080.18
696.48	1080.95
696.81	1081.75
697.15	1080.32
697.49	1079.99
697.82	1080.72
698.16	1082.01
698.50	1084.46
698.83	1086.80
699.17	1088.82
699.51	1087.90
699.84	1086.22
700.18	1089.66
700.52	1086.80
700.85	1087.06
701.19	1089.82
701.53	1090.60
701.86	1083.39
702.20	1082.64
702.54	1080.20
702.87	1073.56
703.21	1074.14
703.55	1079.64
703.88	1082.05
704.22	1080.95
704.55	1086.62
704.89	1085.54
705.23	1082.94
705.56	1081.75
705.90	1082.78
706.23	1079.92
706.57	1081.82
706.91	1080.23
707.24	1081.82
707.58	1081.16
707.91	1080.23
708.25	1078.66
708.58	1079.85
708.92	1078.85
709.26	1080.16
709.59	1081.54
709.93	1081.44
710.26	1082.01
710.60	1081.07
710.93	1077.96
711.27	1074.96
711.60	1076.58
711.94	1073.81
712.27	1073.74
712.61	1075.15
712.94	1077.47
713.28	1077.00
713.61	1080.88
713.95	1080.44
714.28	1082.52
714.62	1081.30
714.95	1079.06
715.29	1078.45
715.62	1080.93
715.96	1080.20
716.29	1081.73
716.63	1083.53
716.96	1082.15
717.29	1083.06
717.63	1084.00
717.96	1085.45
718.30	1085.26
718.63	1083.79
718.97	1082.47
719.30	1076.72
719.63	1077.42
719.97	1075.71
720.30	1078.57
720.64	1077.09
720.97	1081.35
721.30	1079.76
721.64	1080.34
721.97	1081.37
722.31	1083.81
722.64	1083.71
722.97	1084.32
723.31	1083.57
723.64	1081.35
723.97	1079.97
724.31	1078.59
724.64	1078.17
724.98	1076.74
725.31	1077.37
725.64	1077.91
725.98	1079.24
726.31	1080.37
726.64	1084.63
726.97	1084.16
727.31	1082.43
727.64	1082.10
727.97	1079.85
728.31	1078.00
728.64	1076.06
728.97	1076.58
729.31	1079.57
729.64	1082.73
729.97	1082.40
730.30	1084.84
730.64	1086.97
730.97	1084.39
731.30	1086.24
731.63	1086.94
731.97	1086.10
732.30	1083.95
732.63	1085.24
732.96	1081.30
733.30	1080.30
733.63	1080.39
733.96	1082.03
734.29	1080.58
734.63	1080.09
734.96	1081.56
735.29	1079.64
735.62	1080.93
735.95	1082.76
736.29	1080.18
736.62	1081.77
736.95	1083.83
737.28	1078.10
737.61	1073.77
737.94	1074.10
738.28	1073.18
738.61	1075.05
738.94	1077.35
739.27	1081.84
739.60	1087.27
739.93	1087.34
740.27	1085.47
740.60	1086.31
740.93	1083.43
741.26	1080.81
741.59	1078.59
741.92	1078.68
742.25	1079.01
742.58	1079.85
742.91	1078.99
743.25	1082.08
743.58	1081.19
743.91	1080.39
744.24	1080.32
744.57	1082.66
744.90	1077.35
745.23	1077.70
745.56	1080.27
745.89	1077.47
746.22	1074.91
746.55	1079.36
746.88	1077.61
747.21	1076.27
747.54	1079.06
747.87	1079.17
748.20	1080.44
748.53	1080.81
748.87	1080.77
749.20	1082.33
749.53	1084.37
749.86	1080.04
750.19	1081.19
750.52	1078.80
750.85	1077.09
751.18	1076.44
751.51	1077.96
751.84	1075.05
752.16	1078.71
752.49	1078.45
752.82	1077.49
753.15	1077.82
753.48	1082.85
753.81	1078.57
754.14	1079.22
754.47	1077.65
754.80	1073.49
755.13	1074.75
755.46	1077.98
755.79	1082.38
756.12	1085.96
756.45	1090.90
756.78	1086.01
757.11	1083.90
757.43	1079.43
757.76	1078.80
758.09	1078.78
758.42	1079.62
758.75	1082.01
759.08	1081.30
759.41	1079.20
759.74	1077.21
760.07	1078.57
760.39	1076.58
760.72	1080.46
761.05	1078.36
761.38	1080.53
761.71	1081.49
762.04	1082.10
762.36	1079.50
762.69	1082.73
763.02	1082.24
763.35	1080.09
763.68	1081.40
764.01	1082.31
