SpectraSuite Data File
++++++++++++++++++++++++++++++++++++
Date: Mon Aug 26 10:21:54 PDT 2019
User: corrico
Dark Spectrum Present: No
Reference Spectrum Present: No
Number of Sampled Component Spectra: 1
Spectrometers: USB2+H06089
Integration Time (usec): 2000 (USB2+H06089)
Spectra Averaged: 20 (USB2+H06089)
Boxcar Smoothing: 2 (USB2+H06089)
Correct for Electrical Dark: No (USB2+H06089)
Strobe/Lamp Enabled: No (USB2+H06089)
Correct for Detector Non-linearity: No (USB2+H06089)
Correct for Stray Light: No (USB2+H06089)
Number of Pixels in Processed Spectrum: 2048
>>>>>Begin Processed Spectral Data<<<<<
339.70	1030.30
340.07	1030.30
340.45	992.90
340.82	972.35
341.19	947.71
341.57	920.74
341.94	910.87
342.31	905.53
342.69	897.03
343.06	893.90
343.43	894.37
343.81	895.47
344.18	898.84
344.55	903.75
344.93	910.80
345.30	913.49
345.67	923.27
346.04	927.95
346.42	935.37
346.79	940.92
347.16	950.19
347.54	956.20
347.91	964.84
348.28	975.16
348.65	985.30
349.03	997.30
349.40	1004.42
349.77	1014.22
350.14	1018.72
350.52	1027.38
350.89	1033.42
351.26	1040.70
351.63	1043.20
352.01	1048.51
352.38	1048.93
352.75	1051.35
353.12	1055.14
353.50	1062.18
353.87	1067.14
354.24	1071.03
354.61	1073.95
354.98	1075.57
355.36	1072.92
355.73	1073.32
356.10	1075.80
356.47	1076.23
356.84	1077.11
357.22	1078.54
357.59	1078.89
357.96	1077.35
358.33	1078.17
358.70	1076.53
359.08	1076.65
359.45	1077.65
359.82	1078.89
360.19	1076.51
360.56	1077.33
360.94	1080.13
361.31	1080.79
361.68	1077.35
362.05	1078.26
362.42	1077.35
362.79	1073.63
363.16	1071.47
363.54	1071.57
363.91	1068.90
364.28	1070.54
364.65	1067.66
365.02	1064.80
365.39	1067.21
365.76	1071.45
366.14	1068.34
366.51	1066.75
366.88	1067.64
367.25	1065.95
367.62	1064.83
367.99	1066.86
368.36	1071.82
368.73	1073.63
369.10	1072.88
369.48	1067.68
369.85	1067.14
370.22	1065.81
370.59	1064.73
370.96	1069.58
371.33	1074.35
371.70	1073.00
372.07	1073.56
372.44	1076.08
372.81	1071.33
373.18	1070.33
373.55	1069.04
373.93	1064.48
374.30	1061.46
374.67	1063.70
375.04	1064.62
375.41	1062.93
375.78	1067.92
376.15	1066.96
376.52	1065.48
376.89	1061.99
377.26	1064.05
377.63	1064.48
378.00	1069.37
378.37	1068.76
378.74	1074.82
379.11	1075.64
379.48	1072.55
379.85	1069.81
380.22	1069.72
380.59	1063.75
380.96	1060.66
381.33	1063.07
381.70	1061.71
382.07	1065.74
382.44	1072.11
382.81	1075.01
383.18	1071.54
383.55	1073.21
383.92	1071.03
384.29	1068.64
384.66	1068.48
385.03	1070.56
385.40	1071.57
385.77	1074.31
386.14	1073.51
386.51	1074.07
386.88	1073.46
387.25	1070.51
387.62	1067.94
387.99	1067.89
388.36	1069.93
388.73	1071.80
389.10	1075.08
389.46	1074.52
389.83	1076.90
390.20	1076.27
390.57	1073.84
390.94	1071.19
391.31	1072.04
391.68	1073.18
392.05	1074.21
392.42	1076.41
392.79	1076.90
393.16	1075.71
393.53	1072.95
393.89	1071.08
394.26	1072.48
394.63	1074.19
395.00	1073.44
395.37	1071.10
395.74	1073.16
396.11	1071.54
396.48	1072.62
396.84	1072.67
397.21	1075.08
397.58	1072.57
397.95	1074.17
398.32	1069.44
398.69	1072.27
399.06	1071.33
399.42	1071.90
399.79	1071.71
400.16	1073.58
400.53	1074.82
400.90	1077.07
401.27	1078.52
401.64	1076.79
402.00	1079.83
402.37	1077.42
402.74	1072.34
403.11	1070.30
403.48	1068.48
403.84	1066.02
404.21	1065.69
404.58	1070.75
404.95	1071.38
405.32	1077.18
405.68	1075.36
406.05	1071.54
406.42	1071.92
406.79	1073.98
407.16	1072.64
407.52	1074.77
407.89	1079.55
408.26	1080.67
408.63	1077.86
408.99	1078.85
409.36	1077.70
409.73	1078.33
410.10	1074.84
410.47	1074.96
410.83	1073.46
411.20	1077.86
411.57	1076.20
411.94	1075.99
412.30	1077.33
412.67	1078.24
413.04	1075.71
413.40	1076.60
413.77	1077.00
414.14	1079.15
414.51	1077.37
414.87	1079.08
415.24	1080.30
415.61	1078.43
415.97	1076.86
416.34	1078.87
416.71	1078.45
417.08	1077.86
417.44	1081.09
417.81	1082.38
418.18	1081.12
418.54	1079.83
418.91	1078.45
419.28	1079.06
419.64	1079.92
420.01	1078.47
420.38	1080.30
420.74	1082.76
421.11	1085.61
421.48	1085.42
421.84	1088.00
422.21	1088.14
422.58	1086.55
422.94	1083.48
423.31	1081.80
423.68	1081.30
424.04	1081.05
424.41	1083.79
424.77	1086.69
425.14	1089.92
425.51	1092.87
425.87	1093.83
426.24	1091.98
426.61	1091.56
426.97	1090.99
427.34	1092.00
427.70	1093.57
428.07	1097.45
428.44	1100.54
428.80	1101.60
429.17	1104.17
429.53	1105.32
429.90	1105.95
430.27	1105.08
430.63	1107.56
431.00	1108.78
431.36	1111.59
431.73	1111.80
432.09	1112.36
432.46	1117.07
432.83	1119.60
433.19	1125.91
433.56	1134.39
433.92	1141.92
434.29	1145.25
434.65	1152.76
435.02	1156.79
435.38	1162.54
435.75	1170.55
436.11	1179.21
436.48	1183.98
436.84	1191.66
437.21	1196.72
437.57	1203.69
437.94	1210.67
438.30	1217.36
438.67	1225.76
439.03	1236.93
439.40	1247.97
439.76	1258.79
440.13	1271.05
440.49	1283.97
440.86	1297.69
441.22	1314.44
441.59	1329.38
441.95	1348.48
442.32	1361.42
442.68	1376.70
443.05	1393.81
443.41	1414.78
443.78	1433.72
444.14	1459.00
444.51	1482.45
444.87	1508.33
445.24	1534.74
445.60	1567.20
445.96	1596.78
446.33	1633.06
446.69	1661.62
447.06	1694.50
447.42	1730.71
447.79	1769.19
448.15	1814.24
448.51	1863.77
448.88	1916.17
449.24	1962.68
449.61	2021.33
449.97	2079.10
450.33	2136.46
450.70	2190.60
451.06	2254.68
451.43	2314.27
451.79	2384.91
452.15	2454.73
452.52	2534.82
452.88	2621.26
453.24	2714.44
453.61	2810.84
453.97	2918.74
454.34	3022.08
454.70	3130.09
455.06	3248.36
455.43	3361.55
455.79	3466.92
456.15	3601.01
456.52	3728.43
456.88	3869.44
457.24	4004.33
457.61	4175.54
457.97	4321.85
458.33	4486.69
458.70	4658.20
459.06	4826.89
459.42	4997.84
459.79	5170.13
460.15	5354.23
460.51	5512.80
460.88	5689.05
461.24	5843.87
461.60	6011.34
461.96	6150.04
462.33	6295.32
462.69	6444.43
463.05	6615.24
463.42	6778.12
463.78	6936.18
464.14	7077.97
464.50	7214.28
464.87	7296.32
465.23	7347.43
465.59	7423.88
465.95	7481.48
466.32	7530.67
466.68	7609.25
467.04	7672.79
467.40	7716.02
467.77	7762.08
468.13	7770.34
468.49	7760.65
468.85	7757.49
469.22	7733.83
469.58	7689.48
469.94	7674.76
470.30	7633.47
470.66	7576.57
471.03	7496.74
471.39	7436.61
471.75	7311.90
472.11	7187.25
472.47	7087.73
472.84	6980.37
473.20	6843.70
473.56	6774.52
473.92	6691.85
474.28	6612.97
474.65	6545.52
475.01	6497.40
475.37	6408.32
475.73	6330.33
476.09	6244.10
476.45	6150.60
476.81	6056.25
477.18	5961.91
477.54	5880.27
477.90	5789.85
478.26	5703.28
478.62	5619.51
478.98	5543.93
479.34	5477.09
479.71	5409.84
480.07	5351.52
480.43	5300.31
480.79	5245.37
481.15	5181.48
481.51	5127.29
481.87	5074.73
482.23	5006.64
482.59	4949.41
482.96	4885.82
483.32	4825.51
483.68	4759.34
484.04	4704.71
484.40	4636.88
484.76	4580.94
485.12	4507.66
485.48	4444.07
485.84	4375.51
486.20	4304.15
486.56	4229.79
486.92	4169.29
487.28	4095.82
487.64	4015.47
488.00	3950.17
488.37	3885.66
488.73	3812.03
489.09	3741.07
489.45	3680.16
489.81	3614.98
490.17	3551.79
490.53	3494.47
490.89	3436.40
491.25	3378.10
491.61	3317.78
491.97	3246.86
492.33	3177.84
492.69	3114.41
493.05	3047.33
493.41	2985.19
493.77	2929.23
494.13	2872.21
494.49	2815.34
494.85	2766.02
495.21	2719.70
495.57	2675.05
495.93	2634.81
496.29	2589.64
496.64	2550.27
497.00	2501.63
497.36	2456.95
497.72	2414.78
498.08	2381.14
498.44	2339.20
498.80	2300.79
499.16	2267.65
499.52	2234.23
499.88	2203.87
500.24	2170.38
500.60	2147.02
500.96	2115.12
501.32	2084.08
501.68	2048.55
502.03	2020.16
502.39	1987.11
502.75	1956.52
503.11	1930.01
503.47	1910.25
503.83	1889.87
504.19	1871.68
504.55	1849.98
504.91	1826.32
505.26	1802.54
505.62	1778.60
505.98	1756.78
506.34	1735.44
506.70	1715.19
507.06	1693.03
507.42	1673.76
507.78	1651.27
508.13	1635.33
508.49	1615.86
508.85	1596.69
509.21	1581.31
509.57	1566.05
509.93	1550.28
510.28	1534.06
510.64	1518.84
511.00	1503.37
511.36	1487.15
511.72	1469.15
512.07	1459.72
512.43	1449.19
512.79	1432.15
513.15	1421.08
513.51	1413.17
513.86	1397.58
514.22	1384.19
514.58	1377.34
514.94	1370.15
515.30	1359.78
515.65	1353.95
516.01	1350.72
516.37	1344.17
516.73	1335.21
517.08	1328.28
517.44	1319.64
517.80	1313.04
518.16	1302.41
518.51	1293.03
518.87	1287.53
519.23	1280.34
519.59	1269.62
519.94	1265.79
520.30	1261.99
520.66	1252.26
521.01	1250.57
521.37	1242.99
521.73	1238.26
522.09	1230.00
522.44	1230.12
522.80	1223.44
523.16	1223.09
523.51	1216.84
523.87	1217.57
524.23	1210.57
524.58	1208.18
524.94	1201.61
525.30	1199.43
525.65	1192.13
526.01	1189.53
526.37	1181.29
526.72	1180.75
527.08	1176.31
527.44	1175.25
527.79	1172.77
528.15	1171.46
528.51	1169.31
528.86	1169.89
529.22	1166.62
529.58	1160.93
529.93	1159.17
530.29	1155.50
530.65	1149.18
531.00	1149.55
531.36	1150.05
531.71	1149.44
532.07	1146.11
532.43	1145.53
532.78	1140.43
533.14	1137.03
533.49	1132.21
533.85	1132.77
534.21	1129.82
534.56	1129.68
534.92	1130.43
535.27	1128.23
535.63	1126.17
535.98	1125.19
536.34	1124.79
536.69	1121.87
537.05	1123.69
537.41	1122.29
537.76	1123.36
538.12	1122.05
538.47	1119.29
538.83	1116.76
539.18	1114.14
539.54	1111.15
539.89	1106.65
540.25	1107.00
540.60	1107.19
540.96	1108.71
541.31	1108.71
541.67	1110.98
542.02	1113.11
542.38	1113.28
542.73	1110.30
543.09	1106.82
543.44	1103.31
543.80	1099.09
544.15	1095.07
544.51	1093.76
544.86	1094.69
545.22	1093.64
545.57	1093.50
545.93	1096.89
546.28	1097.69
546.64	1095.79
546.99	1097.90
547.35	1097.24
547.70	1093.97
548.05	1094.08
548.41	1095.32
548.76	1094.29
549.12	1094.67
549.47	1096.07
549.83	1094.41
550.18	1095.70
550.53	1097.31
550.89	1094.74
551.24	1092.52
551.60	1093.15
551.95	1091.63
552.30	1090.97
552.66	1092.66
553.01	1096.73
553.37	1094.57
553.72	1093.85
554.07	1091.04
554.43	1090.06
554.78	1084.30
555.13	1090.64
555.49	1093.12
555.84	1091.81
556.19	1092.12
556.55	1094.74
556.90	1089.87
557.26	1086.08
557.61	1086.90
557.96	1087.51
558.32	1087.11
558.67	1085.42
559.02	1086.36
559.37	1087.48
559.73	1087.06
560.08	1086.71
560.43	1088.21
560.79	1087.48
561.14	1087.09
561.49	1086.48
561.85	1087.79
562.20	1088.26
562.55	1087.93
562.90	1087.81
563.26	1088.56
563.61	1084.42
563.96	1084.91
564.32	1084.44
564.67	1087.67
565.02	1086.76
565.37	1087.65
565.73	1086.03
566.08	1086.24
566.43	1082.10
566.78	1080.65
567.14	1082.80
567.49	1080.74
567.84	1081.07
568.19	1084.30
568.54	1084.53
568.90	1080.53
569.25	1080.25
569.60	1078.85
569.95	1073.72
570.31	1073.88
570.66	1075.97
571.01	1075.50
571.36	1077.70
571.71	1079.15
572.06	1078.96
572.42	1080.27
572.77	1081.84
573.12	1079.01
573.47	1078.00
573.82	1078.47
574.18	1076.39
574.53	1076.01
574.88	1075.78
575.23	1074.70
575.58	1074.96
575.93	1075.80
576.28	1077.23
576.64	1077.82
576.99	1079.85
577.34	1078.47
577.69	1077.02
578.04	1075.71
578.39	1077.30
578.74	1078.21
579.09	1080.04
579.44	1082.99
579.80	1081.84
580.15	1078.57
580.50	1075.34
580.85	1075.31
581.20	1073.42
581.55	1075.99
581.90	1078.59
582.25	1082.26
582.60	1082.33
582.95	1081.96
583.30	1078.87
583.65	1077.00
584.00	1078.87
584.35	1078.03
584.71	1079.83
585.06	1078.50
585.41	1078.68
585.76	1074.59
586.11	1072.62
586.46	1071.01
586.81	1074.07
587.16	1075.41
587.51	1075.69
587.86	1078.33
588.21	1078.10
588.56	1078.80
588.91	1079.27
589.26	1080.58
589.61	1078.75
589.96	1078.31
590.31	1077.35
590.66	1075.59
591.01	1073.56
591.36	1075.27
591.71	1075.38
592.06	1076.06
592.41	1075.69
592.76	1076.04
593.10	1077.98
593.45	1074.77
593.80	1077.44
594.15	1078.61
594.50	1082.69
594.85	1079.41
595.20	1082.19
595.55	1076.25
595.90	1076.60
596.25	1072.88
596.60	1074.75
596.95	1077.07
597.30	1080.84
597.64	1092.52
597.99	1093.08
598.34	1091.27
598.69	1092.66
599.04	1091.04
599.39	1076.86
599.74	1075.62
600.09	1077.84
600.44	1073.28
600.78	1070.94
601.13	1073.46
601.48	1072.32
601.83	1071.33
602.18	1075.97
602.53	1077.51
602.88	1076.04
603.22	1077.91
603.57	1074.84
603.92	1071.40
604.27	1071.08
604.62	1070.42
604.97	1071.73
605.31	1073.60
605.66	1074.94
606.01	1076.27
606.36	1077.25
606.71	1077.00
607.05	1079.38
607.40	1079.85
607.75	1079.13
608.10	1081.33
608.44	1077.25
608.79	1075.38
609.14	1077.91
609.49	1081.21
609.84	1078.99
610.18	1082.17
610.53	1083.25
610.88	1081.21
611.23	1079.36
611.57	1079.90
611.92	1080.84
612.27	1079.99
612.62	1081.26
612.96	1078.54
613.31	1077.63
613.66	1076.32
614.00	1075.66
614.35	1073.14
614.70	1074.28
615.05	1078.99
615.39	1081.33
615.74	1080.23
616.09	1079.71
616.43	1080.13
616.78	1074.94
617.13	1075.13
617.47	1077.35
617.82	1079.08
618.17	1079.88
618.51	1082.15
618.86	1079.06
619.21	1076.65
619.55	1076.32
619.90	1074.73
620.25	1077.30
620.59	1077.35
620.94	1076.67
621.29	1073.25
621.63	1074.38
621.98	1070.44
622.32	1073.07
622.67	1075.38
623.02	1078.96
623.36	1078.68
623.71	1076.44
624.05	1077.33
624.40	1075.55
624.75	1075.17
625.09	1077.96
625.44	1079.85
625.78	1079.41
626.13	1081.63
626.48	1078.99
626.82	1076.48
627.17	1078.75
627.51	1076.67
627.86	1075.90
628.20	1078.14
628.55	1079.15
628.89	1078.73
629.24	1080.81
629.58	1080.16
629.93	1076.72
630.28	1075.99
630.62	1073.98
630.97	1068.45
631.31	1067.54
631.66	1067.59
632.00	1066.96
632.35	1068.99
632.69	1069.88
633.04	1072.69
633.38	1077.07
633.73	1076.90
634.07	1078.14
634.42	1079.41
634.76	1078.21
635.11	1077.21
635.45	1078.85
635.79	1076.58
636.14	1078.00
636.48	1075.71
636.83	1071.24
637.17	1069.39
637.52	1068.59
637.86	1068.67
638.21	1067.75
638.55	1070.07
638.89	1071.38
639.24	1067.82
639.58	1070.16
639.93	1075.94
640.27	1078.59
640.61	1077.21
640.96	1079.62
641.30	1074.84
641.65	1069.58
641.99	1068.62
642.33	1071.54
642.68	1073.79
643.02	1074.31
643.37	1074.28
643.71	1072.43
644.05	1070.75
644.40	1070.28
644.74	1073.21
645.08	1075.83
645.43	1072.81
645.77	1072.34
646.11	1072.78
646.46	1074.77
646.80	1072.27
647.14	1077.00
647.49	1077.42
647.83	1078.94
648.17	1079.46
648.52	1082.17
648.86	1083.06
649.20	1082.08
649.55	1080.93
649.89	1077.72
650.23	1077.75
650.57	1078.38
650.92	1077.72
651.26	1077.09
651.60	1073.49
651.95	1074.59
652.29	1073.02
652.63	1075.94
652.97	1077.40
653.32	1079.53
653.66	1078.66
654.00	1079.20
654.34	1077.82
654.69	1075.36
655.03	1078.19
655.37	1078.21
655.71	1080.37
656.05	1080.39
656.40	1082.40
656.74	1080.95
657.08	1080.77
657.42	1075.73
657.76	1075.94
658.11	1072.18
658.45	1069.70
658.79	1065.90
659.13	1066.79
659.47	1063.94
659.82	1061.69
660.16	1060.17
660.50	1061.74
660.84	1061.27
661.18	1064.31
661.52	1069.88
661.87	1077.33
662.21	1077.58
662.55	1080.65
662.89	1076.81
663.23	1075.99
663.57	1073.04
663.91	1076.11
664.25	1073.88
664.60	1077.40
664.94	1079.22
665.28	1078.43
665.62	1076.65
665.96	1079.67
666.30	1081.66
666.64	1082.71
666.98	1083.64
667.32	1083.79
667.66	1081.63
668.01	1081.14
668.35	1081.19
668.69	1079.60
669.03	1078.87
669.37	1080.98
669.71	1078.66
670.05	1073.86
670.39	1075.94
670.73	1077.00
671.07	1079.36
671.41	1080.25
671.75	1082.87
672.09	1081.21
672.43	1080.11
672.77	1077.14
673.11	1077.44
673.45	1077.42
673.79	1077.21
674.13	1078.00
674.47	1075.62
674.81	1076.01
675.15	1074.94
675.49	1074.87
675.83	1075.87
676.17	1078.17
676.51	1076.46
676.85	1077.58
677.19	1080.06
677.53	1079.38
677.87	1078.45
678.21	1081.77
678.55	1084.23
678.89	1083.60
679.23	1081.09
679.57	1078.85
679.90	1076.53
680.24	1074.38
680.58	1071.61
680.92	1075.48
681.26	1076.11
681.60	1075.97
681.94	1075.20
682.28	1079.76
682.62	1076.39
682.96	1077.14
683.29	1075.24
683.63	1074.26
683.97	1071.05
684.31	1072.39
684.65	1075.38
684.99	1074.10
685.33	1074.77
685.67	1075.85
686.00	1079.29
686.34	1073.88
686.68	1075.73
687.02	1075.15
687.36	1074.89
687.70	1072.01
688.03	1074.54
688.37	1076.86
688.71	1076.93
689.05	1077.79
689.39	1077.47
689.72	1077.98
690.06	1076.97
690.40	1075.36
690.74	1074.73
691.08	1075.73
691.41	1074.40
691.75	1074.03
692.09	1075.92
692.43	1075.55
692.76	1074.47
693.10	1075.20
693.44	1076.93
693.78	1076.65
694.11	1076.18
694.45	1075.20
694.79	1074.75
695.13	1072.53
695.46	1075.66
695.80	1076.65
696.14	1077.04
696.48	1078.07
696.81	1078.17
697.15	1073.07
697.49	1072.71
697.82	1070.63
698.16	1072.69
698.50	1072.83
698.83	1077.33
699.17	1078.17
699.51	1082.29
699.84	1082.50
700.18	1081.30
700.52	1076.67
700.85	1073.60
701.19	1070.63
701.53	1066.18
701.86	1066.70
702.20	1070.94
702.54	1072.13
702.87	1074.40
703.21	1077.47
703.55	1080.81
703.88	1077.11
704.22	1075.59
704.55	1072.01
704.89	1072.41
705.23	1066.11
705.56	1066.91
705.90	1067.64
706.23	1067.82
706.57	1068.34
706.91	1070.30
707.24	1070.44
707.58	1070.05
707.91	1075.85
708.25	1073.32
708.58	1072.85
708.92	1075.34
709.26	1076.83
709.59	1074.00
709.93	1074.28
710.26	1078.52
710.60	1078.50
710.93	1080.09
711.27	1080.79
711.60	1081.21
711.94	1078.05
712.27	1077.00
712.61	1076.41
712.94	1075.15
713.28	1075.99
713.61	1076.48
713.95	1078.31
714.28	1072.90
714.62	1071.05
714.95	1068.48
715.29	1069.60
715.62	1068.99
715.96	1074.77
716.29	1076.27
716.63	1077.93
716.96	1075.94
717.29	1076.44
717.63	1073.51
717.96	1073.91
718.30	1075.76
718.63	1076.67
718.97	1074.63
719.30	1076.65
719.63	1078.99
719.97	1076.65
720.30	1077.70
720.64	1079.15
720.97	1079.57
721.30	1076.95
721.64	1076.90
721.97	1078.38
722.31	1079.20
722.64	1076.11
722.97	1076.72
723.31	1074.63
723.64	1071.85
723.97	1069.98
724.31	1070.61
724.64	1070.37
724.98	1073.67
725.31	1075.73
725.64	1076.37
725.98	1075.24
726.31	1075.62
726.64	1076.48
726.97	1076.51
727.31	1075.10
727.64	1075.45
727.97	1075.90
728.31	1075.66
728.64	1073.44
728.97	1072.50
729.31	1077.65
729.64	1077.40
729.97	1077.91
730.30	1079.88
730.64	1082.17
730.97	1077.30
731.30	1076.83
731.63	1078.12
731.97	1078.57
732.30	1078.73
732.63	1076.97
732.96	1077.23
733.30	1072.18
733.63	1070.91
733.96	1071.40
734.29	1075.41
734.63	1074.89
734.96	1077.18
735.29	1077.11
735.62	1078.26
735.95	1076.27
736.29	1078.45
736.62	1078.14
736.95	1077.09
737.28	1073.84
737.61	1073.95
737.94	1070.84
738.28	1069.39
738.61	1070.44
738.94	1072.64
739.27	1073.09
739.60	1073.60
739.93	1074.56
740.27	1078.19
740.60	1079.20
740.93	1081.23
741.26	1081.98
741.59	1082.85
741.92	1076.55
742.25	1074.98
742.58	1077.09
742.91	1077.25
743.25	1077.79
743.58	1080.84
743.91	1080.04
744.24	1077.11
744.57	1076.04
744.90	1075.29
745.23	1075.05
745.56	1074.56
745.89	1070.40
746.22	1071.19
746.55	1071.01
746.88	1071.85
747.21	1074.07
747.54	1077.16
747.87	1075.01
748.20	1073.46
748.53	1073.44
748.87	1071.40
749.20	1073.39
749.53	1073.49
749.86	1072.11
750.19	1070.77
750.52	1071.26
750.85	1070.68
751.18	1070.68
751.51	1072.64
751.84	1074.10
752.16	1075.55
752.49	1075.62
752.82	1077.75
753.15	1078.96
753.48	1079.34
753.81	1075.69
754.14	1077.86
754.47	1075.57
754.80	1075.45
755.13	1074.77
755.46	1077.30
755.79	1074.89
756.12	1080.25
756.45	1081.19
756.78	1079.97
757.11	1079.57
757.43	1081.16
757.76	1077.91
758.09	1075.71
758.42	1079.31
758.75	1078.85
759.08	1077.61
759.41	1077.18
759.74	1077.00
760.07	1072.46
760.39	1072.08
760.72	1072.36
761.05	1072.08
761.38	1073.39
761.71	1075.05
762.04	1075.24
762.36	1076.67
762.69	1077.21
763.02	1078.14
763.35	1079.81
763.68	1078.24
764.01	1074.70
764.33	1074.56
764.66	1070.84
764.99	1067.68
765.32	1071.08
765.65	1070.80
765.97	1069.58
766.30	1071.94
