SpectraSuite Data File
++++++++++++++++++++++++++++++++++++
Date: Mon Aug 26 10:21:59 PDT 2019
User: corrico
Dark Spectrum Present: No
Reference Spectrum Present: No
Number of Sampled Component Spectra: 1
Spectrometers: USB2+H06089
Integration Time (usec): 2000 (USB2+H06089)
Spectra Averaged: 20 (USB2+H06089)
Boxcar Smoothing: 2 (USB2+H06089)
Correct for Electrical Dark: No (USB2+H06089)
Strobe/Lamp Enabled: No (USB2+H06089)
Correct for Detector Non-linearity: No (USB2+H06089)
Correct for Stray Light: No (USB2+H06089)
Number of Pixels in Processed Spectrum: 2048
>>>>>Begin Processed Spectral Data<<<<<
339.70	1035.34
340.07	1035.34
340.45	1000.93
340.82	976.49
341.19	947.80
341.57	920.70
341.94	910.00
342.31	902.35
342.69	901.13
343.06	900.78
343.43	901.90
343.81	902.02
344.18	903.89
344.55	907.94
344.93	913.42
345.30	916.60
345.67	924.21
346.04	933.85
346.42	938.48
346.79	949.41
347.16	958.15
347.54	967.51
347.91	973.57
348.28	981.76
348.65	989.79
349.03	999.34
349.40	1007.53
349.77	1017.76
350.14	1027.82
350.52	1032.78
350.89	1039.31
351.26	1045.92
351.63	1049.85
352.01	1052.61
352.38	1059.35
352.75	1059.49
353.12	1059.96
353.50	1060.24
353.87	1063.70
354.24	1063.75
354.61	1072.41
354.98	1076.01
355.36	1077.30
355.73	1081.02
356.10	1084.23
356.47	1083.11
356.84	1085.99
357.22	1091.88
357.59	1088.79
357.96	1085.82
358.33	1084.96
358.70	1082.08
359.08	1076.39
359.45	1077.54
359.82	1082.73
360.19	1081.00
360.56	1080.16
360.94	1081.02
361.31	1079.57
361.68	1074.87
362.05	1074.28
362.42	1072.41
362.79	1072.36
363.16	1075.01
363.54	1075.83
363.91	1076.65
364.28	1078.07
364.65	1076.34
365.02	1075.29
365.39	1073.95
365.76	1073.70
366.14	1072.13
366.51	1071.90
366.88	1072.13
367.25	1070.84
367.62	1072.83
367.99	1069.88
368.36	1071.36
368.73	1065.37
369.10	1066.98
369.48	1066.00
369.85	1067.73
370.22	1068.74
370.59	1074.42
370.96	1075.38
371.33	1075.36
371.70	1075.55
372.07	1076.97
372.44	1075.78
372.81	1073.88
373.18	1073.21
373.55	1074.91
373.93	1073.95
374.30	1072.46
374.67	1074.33
375.04	1074.98
375.41	1076.25
375.78	1075.43
376.15	1073.00
376.52	1071.75
376.89	1072.43
377.26	1072.95
377.63	1072.11
378.00	1075.71
378.37	1075.10
378.74	1073.00
379.11	1071.75
379.48	1072.27
379.85	1070.05
380.22	1071.97
380.59	1071.57
380.96	1069.95
381.33	1070.96
381.70	1070.42
382.07	1069.93
382.44	1071.05
382.81	1075.13
383.18	1075.08
383.55	1078.61
383.92	1080.60
384.29	1082.90
384.66	1082.33
385.03	1081.58
385.40	1082.31
385.77	1080.72
386.14	1079.69
386.51	1079.24
386.88	1078.43
387.25	1079.64
387.62	1079.36
387.99	1078.12
388.36	1078.14
388.73	1079.85
389.10	1079.10
389.46	1079.46
389.83	1078.78
390.20	1077.25
390.57	1075.55
390.94	1075.55
391.31	1074.87
391.68	1078.26
392.05	1079.74
392.42	1081.47
392.79	1082.29
393.16	1080.74
393.53	1080.74
393.89	1079.31
394.26	1079.08
394.63	1076.37
395.00	1082.76
395.37	1081.66
395.74	1081.47
396.11	1080.27
396.48	1081.12
396.84	1078.21
397.21	1078.85
397.58	1079.69
397.95	1079.90
398.32	1080.44
398.69	1080.98
399.06	1078.68
399.42	1080.34
399.79	1082.36
400.16	1083.86
400.53	1083.22
400.90	1083.86
401.27	1081.09
401.64	1079.31
402.00	1079.50
402.37	1078.36
402.74	1077.63
403.11	1080.41
403.48	1081.28
403.84	1079.83
404.21	1081.14
404.58	1084.49
404.95	1082.80
405.32	1085.12
405.68	1083.67
406.05	1084.89
406.42	1082.24
406.79	1083.15
407.16	1082.52
407.52	1084.23
407.89	1082.80
408.26	1084.86
408.63	1086.90
408.99	1086.92
409.36	1088.51
409.73	1089.07
410.10	1088.75
410.47	1088.49
410.83	1088.00
411.20	1088.65
411.57	1088.47
411.94	1089.29
412.30	1088.42
412.67	1089.75
413.04	1086.85
413.40	1089.68
413.77	1089.99
414.14	1090.71
414.51	1090.20
414.87	1090.76
415.24	1087.79
415.61	1084.70
415.97	1086.15
416.34	1089.14
416.71	1090.13
417.08	1090.43
417.44	1094.20
417.81	1093.78
418.18	1092.47
418.54	1093.90
418.91	1095.39
419.28	1096.66
419.64	1094.46
420.01	1092.63
420.38	1094.88
420.74	1096.17
421.11	1096.61
421.48	1101.25
421.84	1105.53
422.21	1104.19
422.58	1105.01
422.94	1107.17
423.31	1107.68
423.68	1109.02
424.04	1115.97
424.41	1117.51
424.77	1120.63
425.14	1121.91
425.51	1122.90
425.87	1122.64
426.24	1126.13
426.61	1126.15
426.97	1133.36
427.34	1138.34
427.70	1142.70
428.07	1149.11
428.44	1154.63
428.80	1153.21
429.17	1156.06
429.53	1162.19
429.90	1167.62
430.27	1179.16
430.63	1192.18
431.00	1202.87
431.36	1211.11
431.73	1218.01
432.09	1225.36
432.46	1233.98
432.83	1244.35
433.19	1254.01
433.56	1266.58
433.92	1278.59
434.29	1294.29
434.65	1307.40
435.02	1326.19
435.38	1345.50
435.75	1366.57
436.11	1388.15
436.48	1412.96
436.84	1431.99
437.21	1456.54
437.57	1479.83
437.94	1504.71
438.30	1533.64
438.67	1567.22
439.03	1598.33
439.40	1639.69
439.76	1680.25
440.13	1723.15
440.49	1769.68
440.86	1818.20
441.22	1863.65
441.59	1915.68
441.95	1969.54
442.32	2026.08
442.68	2092.28
443.05	2155.98
443.41	2222.01
443.78	2296.21
444.14	2375.62
444.51	2451.27
444.87	2542.10
445.24	2629.99
445.60	2723.94
445.96	2820.77
446.33	2931.83
446.69	3035.77
447.06	3151.88
447.42	3273.87
447.79	3398.11
448.15	3543.85
448.51	3693.41
448.88	3858.51
449.24	4012.45
449.61	4198.52
449.97	4384.03
450.33	4587.73
450.70	4781.95
451.06	5003.50
451.43	5203.22
451.79	5425.03
452.15	5670.98
452.52	5947.28
452.88	6241.46
453.24	6585.00
453.61	6960.89
453.97	7321.94
454.34	7663.27
454.70	8062.33
455.06	8430.12
455.43	8790.65
455.79	9129.38
456.15	9554.58
456.52	9935.55
456.88	10437.43
457.24	10939.69
457.61	11555.65
457.97	12116.81
458.33	12714.82
458.70	13295.88
459.06	13830.27
459.42	14416.32
459.79	14954.50
460.15	15521.50
460.51	16010.50
460.88	16562.12
461.24	17029.22
461.60	17596.80
461.96	18100.56
462.33	18576.97
462.69	19053.22
463.05	19577.76
463.42	20065.11
463.78	20514.73
464.14	20948.64
464.50	21418.73
464.87	21803.19
465.23	22054.00
465.59	22347.62
465.95	22587.11
466.32	22735.73
466.68	22849.27
467.04	22932.17
467.40	22972.48
467.77	23042.50
468.13	22974.58
468.49	22820.50
468.85	22710.05
469.22	22580.86
469.58	22400.85
469.94	22287.49
470.30	22119.26
470.66	21868.84
471.03	21490.47
471.39	21161.35
471.75	20718.52
472.11	20328.98
472.47	20043.08
472.84	19792.55
473.20	19453.67
473.56	19193.77
473.92	18827.11
474.28	18412.13
474.65	18041.88
475.01	17664.00
475.37	17249.63
475.73	16936.87
476.09	16604.79
476.45	16286.83
476.81	16006.53
477.18	15743.75
477.54	15519.86
477.90	15341.98
478.26	15095.47
478.62	14896.08
478.98	14736.46
479.34	14585.87
479.71	14362.70
480.07	14165.86
480.43	13942.83
480.79	13654.31
481.15	13324.11
481.51	13084.30
481.87	12876.36
482.23	12637.23
482.59	12431.43
482.96	12266.26
483.32	12083.86
483.68	11869.58
484.04	11678.71
484.40	11503.19
484.76	11296.13
485.12	11072.58
485.48	10885.71
485.84	10697.89
486.20	10511.14
486.56	10322.02
486.92	10132.41
487.28	9916.01
487.64	9691.03
488.00	9464.40
488.37	9248.14
488.73	9034.66
489.09	8813.64
489.45	8614.90
489.81	8400.07
490.17	8178.93
490.53	7961.96
490.89	7734.02
491.25	7500.83
491.61	7280.84
491.97	7076.09
492.33	6893.32
492.69	6720.50
493.05	6561.15
493.41	6423.67
493.77	6280.01
494.13	6124.43
494.49	5989.88
494.85	5845.16
495.21	5694.76
495.57	5553.23
495.93	5413.00
496.29	5272.71
496.64	5141.67
497.00	5007.74
497.36	4886.06
497.72	4778.60
498.08	4679.81
498.44	4586.33
498.80	4500.05
499.16	4387.36
499.52	4269.79
499.88	4140.92
500.24	4011.12
500.60	3899.19
500.96	3806.62
501.32	3718.64
501.68	3646.18
502.03	3574.19
502.39	3503.41
502.75	3431.53
503.11	3367.00
503.47	3304.98
503.83	3244.64
504.19	3183.53
504.55	3127.26
504.91	3062.10
505.26	3000.15
505.62	2937.07
505.98	2865.59
506.34	2793.10
506.70	2729.65
507.06	2668.21
507.42	2608.20
507.78	2557.36
508.13	2515.47
508.49	2473.31
508.85	2431.25
509.21	2390.04
509.57	2352.50
509.93	2307.91
510.28	2269.03
510.64	2235.70
511.00	2199.89
511.36	2162.28
511.72	2131.81
512.07	2100.02
512.43	2063.63
512.79	2028.00
513.15	1996.29
513.51	1963.45
513.86	1934.03
514.22	1906.02
514.58	1883.38
514.94	1855.25
515.30	1831.66
515.65	1803.97
516.01	1780.98
516.37	1757.93
516.73	1741.85
517.08	1722.77
517.44	1704.28
517.80	1683.66
518.16	1667.00
518.51	1647.99
518.87	1631.40
519.23	1612.68
519.59	1596.01
519.94	1579.21
520.30	1563.10
520.66	1547.68
521.01	1533.31
521.37	1518.56
521.73	1505.39
522.09	1495.46
522.44	1480.74
522.80	1471.31
523.16	1459.14
523.51	1446.12
523.87	1429.11
524.23	1415.70
524.58	1405.16
524.94	1398.91
525.30	1390.49
525.65	1382.95
526.01	1380.07
526.37	1369.35
526.72	1358.31
527.08	1347.89
527.44	1339.75
527.79	1328.91
528.15	1322.03
528.51	1316.69
528.86	1310.37
529.22	1305.27
529.58	1297.10
529.93	1289.64
530.29	1283.81
530.65	1276.22
531.00	1270.00
531.36	1265.60
531.71	1261.43
532.07	1250.85
532.43	1246.34
532.78	1235.62
533.14	1232.50
533.49	1224.59
533.85	1221.43
534.21	1217.27
534.56	1218.93
534.92	1212.16
535.27	1214.22
535.63	1212.96
535.98	1210.62
536.34	1200.95
536.69	1195.10
537.05	1190.05
537.41	1190.44
537.76	1186.49
538.12	1185.93
538.47	1185.57
538.83	1186.44
539.18	1181.29
539.54	1177.50
539.89	1176.42
540.25	1173.12
540.60	1165.26
540.96	1160.79
541.31	1160.98
541.67	1159.45
542.02	1159.03
542.38	1155.17
542.73	1152.60
543.09	1150.82
543.44	1146.70
543.80	1145.27
544.15	1144.94
544.51	1145.13
544.86	1145.25
545.22	1146.96
545.57	1145.50
545.93	1143.84
546.28	1140.07
546.64	1133.99
546.99	1133.47
547.35	1131.98
547.70	1133.17
548.05	1133.90
548.41	1133.38
548.76	1132.59
549.12	1128.54
549.47	1127.34
549.83	1126.83
550.18	1124.30
550.53	1121.12
550.89	1119.60
551.24	1118.75
551.60	1116.62
551.95	1116.20
552.30	1114.82
552.66	1117.70
553.01	1116.79
553.37	1116.90
553.72	1119.27
554.07	1117.93
554.43	1114.35
554.78	1110.30
555.13	1108.59
555.49	1106.96
555.84	1107.52
556.19	1108.10
556.55	1108.99
556.90	1110.77
557.26	1113.63
557.61	1110.65
557.96	1112.88
558.32	1113.32
558.67	1108.76
559.02	1102.56
559.37	1100.15
559.73	1098.37
560.08	1095.53
560.43	1093.33
560.79	1095.46
561.14	1097.17
561.49	1097.27
561.85	1095.44
562.20	1099.72
562.55	1097.52
562.90	1097.97
563.26	1094.50
563.61	1096.14
563.96	1093.59
564.32	1093.66
564.67	1091.74
565.02	1090.76
565.37	1087.76
565.73	1088.75
566.08	1088.21
566.43	1088.16
566.78	1089.50
567.14	1094.25
567.49	1094.79
567.84	1093.80
568.19	1095.82
568.54	1096.14
568.90	1096.21
569.25	1095.65
569.60	1096.78
569.95	1095.37
570.31	1094.50
570.66	1092.49
571.01	1091.63
571.36	1089.07
571.71	1089.68
572.06	1089.92
572.42	1087.93
572.77	1085.40
573.12	1089.52
573.47	1090.88
573.82	1090.46
574.18	1089.03
574.53	1090.24
574.88	1087.74
575.23	1086.45
575.58	1086.85
575.93	1092.05
576.28	1091.37
576.64	1089.78
576.99	1088.00
577.34	1087.93
577.69	1084.79
578.04	1084.60
578.39	1090.34
578.74	1092.66
579.09	1088.70
579.44	1091.70
579.80	1091.88
580.15	1086.06
580.50	1083.79
580.85	1084.58
581.20	1080.93
581.55	1080.95
581.90	1082.19
582.25	1084.91
582.60	1088.86
582.95	1091.37
583.30	1090.50
583.65	1090.46
584.00	1087.97
584.35	1086.55
584.71	1083.50
585.06	1085.05
585.41	1085.77
585.76	1085.28
586.11	1086.31
586.46	1085.35
586.81	1085.19
587.16	1085.89
587.51	1086.64
587.86	1086.27
588.21	1086.59
588.56	1087.16
588.91	1085.14
589.26	1084.96
589.61	1083.50
589.96	1087.16
590.31	1085.52
590.66	1086.24
591.01	1086.85
591.36	1087.95
591.71	1087.11
592.06	1085.45
592.41	1084.74
592.76	1085.52
593.10	1085.07
593.45	1086.13
593.80	1089.94
594.15	1090.20
594.50	1091.04
594.85	1091.93
595.20	1090.27
595.55	1088.54
595.90	1087.18
596.25	1085.03
596.60	1081.87
596.95	1079.57
597.30	1080.06
597.64	1093.40
597.99	1093.24
598.34	1093.99
598.69	1093.05
599.04	1090.90
599.39	1079.01
599.74	1082.87
600.09	1083.27
600.44	1085.00
600.78	1087.16
601.13	1089.00
601.48	1085.31
601.83	1087.97
602.18	1087.37
602.53	1085.91
602.88	1085.38
603.22	1082.19
603.57	1078.21
603.92	1077.00
604.27	1076.60
604.62	1076.39
604.97	1077.47
605.31	1077.25
605.66	1080.11
606.01	1082.03
606.36	1080.53
606.71	1080.95
607.05	1084.74
607.40	1082.64
607.75	1083.60
608.10	1083.13
608.44	1086.01
608.79	1082.78
609.14	1083.55
609.49	1081.77
609.84	1082.54
610.18	1081.21
610.53	1082.66
610.88	1084.98
611.23	1083.88
611.57	1084.00
611.92	1085.82
612.27	1084.02
612.62	1083.15
612.96	1084.89
613.31	1085.59
613.66	1083.48
614.00	1085.56
614.35	1085.14
614.70	1084.70
615.05	1084.89
615.39	1082.43
615.74	1082.52
616.09	1083.25
616.43	1082.08
616.78	1079.03
617.13	1081.35
617.47	1079.57
617.82	1078.85
618.17	1078.24
618.51	1081.47
618.86	1081.00
619.21	1083.64
619.55	1083.97
619.90	1085.49
620.25	1082.78
620.59	1083.04
620.94	1079.48
621.29	1078.47
621.63	1081.87
621.98	1083.27
622.32	1085.84
622.67	1087.74
623.02	1089.43
623.36	1085.54
623.71	1083.95
624.05	1081.28
624.40	1081.02
624.75	1080.74
625.09	1079.03
625.44	1081.58
625.78	1081.30
626.13	1083.04
626.48	1081.89
626.82	1085.96
627.17	1085.24
627.51	1083.36
627.86	1083.74
628.20	1084.81
628.55	1082.29
628.89	1080.95
629.24	1083.48
629.58	1079.64
629.93	1076.72
630.28	1078.85
630.62	1078.24
630.97	1076.46
631.31	1078.92
631.66	1083.27
632.00	1080.70
632.35	1083.29
632.69	1083.62
633.04	1080.93
633.38	1080.30
633.73	1082.15
634.07	1082.57
634.42	1083.60
634.76	1084.96
635.11	1081.37
635.45	1078.82
635.79	1078.43
636.14	1079.43
636.48	1080.51
636.83	1081.26
637.17	1079.90
637.52	1079.81
637.86	1077.00
638.21	1078.21
638.55	1079.90
638.89	1084.89
639.24	1084.72
639.58	1084.86
639.93	1080.93
640.27	1077.79
640.61	1073.37
640.96	1071.73
641.30	1074.70
641.65	1077.84
641.99	1080.46
642.33	1081.07
642.68	1080.86
643.02	1081.82
643.37	1080.34
643.71	1078.96
644.05	1078.89
644.40	1080.53
644.74	1080.74
645.08	1079.83
645.43	1079.76
645.77	1083.41
646.11	1082.33
646.46	1078.00
646.80	1080.77
647.14	1084.07
647.49	1082.45
647.83	1081.82
648.17	1085.49
648.52	1086.22
648.86	1087.53
649.20	1088.61
649.55	1089.45
649.89	1090.78
650.23	1089.22
650.57	1084.65
650.92	1083.62
651.26	1085.33
651.60	1079.95
651.95	1080.37
652.29	1082.40
652.63	1084.09
652.97	1083.86
653.32	1087.39
653.66	1086.36
654.00	1084.70
654.34	1082.80
654.69	1081.70
655.03	1082.26
655.37	1080.56
655.71	1083.36
656.05	1083.71
656.40	1082.80
656.74	1079.08
657.08	1078.89
657.42	1076.69
657.76	1075.85
658.11	1077.00
658.45	1077.70
658.79	1080.16
659.13	1079.90
659.47	1080.98
659.82	1080.56
660.16	1079.31
660.50	1076.67
660.84	1074.10
661.18	1070.77
661.52	1071.43
661.87	1075.78
662.21	1079.29
662.55	1082.69
662.89	1088.00
663.23	1088.51
663.57	1086.80
663.91	1086.69
664.25	1083.88
664.60	1081.80
664.94	1079.27
665.28	1079.34
665.62	1078.17
665.96	1080.95
666.30	1081.30
666.64	1081.89
666.98	1078.31
667.32	1079.03
667.66	1079.03
668.01	1076.53
668.35	1078.03
668.69	1080.32
669.03	1078.82
669.37	1077.77
669.71	1079.13
670.05	1078.57
670.39	1078.17
670.73	1076.25
671.07	1076.67
671.41	1076.41
671.75	1076.39
672.09	1077.89
672.43	1082.97
672.77	1085.10
673.11	1083.22
673.45	1082.97
673.79	1081.14
674.13	1076.53
674.47	1072.85
674.81	1074.26
675.15	1074.96
675.49	1076.06
675.83	1076.62
676.17	1080.06
676.51	1081.33
676.85	1083.18
677.19	1083.36
677.53	1084.98
677.87	1081.28
678.21	1079.71
678.55	1078.33
678.89	1076.79
679.23	1078.21
679.57	1081.51
679.90	1081.14
680.24	1079.64
680.58	1081.47
680.92	1079.41
681.26	1080.09
681.60	1083.01
681.94	1083.97
682.28	1084.86
682.62	1084.23
682.96	1084.00
683.29	1080.30
683.63	1079.71
683.97	1081.73
684.31	1082.94
684.65	1080.86
684.99	1082.01
685.33	1082.73
685.67	1080.04
686.00	1079.15
686.34	1078.12
686.68	1077.93
687.02	1078.07
687.36	1078.33
687.70	1078.38
688.03	1078.17
688.37	1078.78
688.71	1077.75
689.05	1076.76
689.39	1078.71
689.72	1077.77
690.06	1077.68
690.40	1077.47
690.74	1079.48
691.08	1078.52
691.41	1080.37
691.75	1081.44
692.09	1081.26
692.43	1080.39
692.76	1080.30
693.10	1081.23
693.44	1081.56
693.78	1082.38
694.11	1081.47
694.45	1081.21
694.79	1080.48
695.13	1080.60
695.46	1079.67
695.80	1080.27
696.14	1079.43
696.48	1079.64
696.81	1079.74
697.15	1079.71
697.49	1077.16
697.82	1077.04
698.16	1077.68
698.50	1077.75
698.83	1074.91
699.17	1076.97
699.51	1077.14
699.84	1075.38
700.18	1074.66
700.52	1075.05
700.85	1076.65
701.19	1075.69
701.53	1075.34
701.86	1073.81
702.20	1080.67
702.54	1080.77
702.87	1080.88
703.21	1084.35
703.55	1085.03
703.88	1077.82
704.22	1076.01
704.55	1077.96
704.89	1075.90
705.23	1074.33
705.56	1077.61
705.90	1074.21
706.23	1073.21
706.57	1074.68
706.91	1077.23
707.24	1077.37
707.58	1082.80
707.91	1083.46
708.25	1080.88
708.58	1079.57
708.92	1077.28
709.26	1074.45
709.59	1075.59
709.93	1077.61
710.26	1077.35
710.60	1081.51
710.93	1083.29
711.27	1081.75
711.60	1079.64
711.94	1075.90
712.27	1074.24
712.61	1073.09
712.94	1076.34
713.28	1077.79
713.61	1083.04
713.95	1083.74
714.28	1083.60
714.62	1084.07
714.95	1085.31
715.29	1088.37
715.62	1085.24
715.96	1084.25
716.29	1081.23
716.63	1076.62
716.96	1071.99
717.29	1072.22
717.63	1073.65
717.96	1076.41
718.30	1080.53
718.63	1080.32
718.97	1082.24
719.30	1081.96
719.63	1078.89
719.97	1079.24
720.30	1080.18
720.64	1082.17
720.97	1081.42
721.30	1079.83
721.64	1077.54
721.97	1078.33
722.31	1077.14
722.64	1079.83
722.97	1081.21
723.31	1084.98
723.64	1086.34
723.97	1087.13
724.31	1085.66
724.64	1086.78
724.98	1084.58
725.31	1079.99
725.64	1077.58
725.98	1078.68
726.31	1077.25
726.64	1078.73
726.97	1080.30
727.31	1079.31
727.64	1077.28
727.97	1075.99
728.31	1076.74
728.64	1078.10
728.97	1079.36
729.31	1079.69
729.64	1082.17
729.97	1079.81
730.30	1077.40
730.64	1078.78
730.97	1077.72
731.30	1077.77
731.63	1076.95
731.97	1077.72
732.30	1075.15
732.63	1077.56
732.96	1074.94
733.30	1076.30
733.63	1078.07
733.96	1079.64
734.29	1076.01
734.63	1077.51
734.96	1075.22
735.29	1072.50
735.62	1070.40
735.95	1071.45
736.29	1069.77
736.62	1068.92
736.95	1073.98
737.28	1075.41
737.61	1077.96
737.94	1079.55
738.28	1083.62
738.61	1082.52
738.94	1083.55
739.27	1081.12
739.60	1082.97
739.93	1076.65
740.27	1074.54
740.60	1074.87
740.93	1075.97
741.26	1076.18
741.59	1079.60
741.92	1081.30
742.25	1082.24
742.58	1081.09
742.91	1080.84
743.25	1082.10
743.58	1081.28
743.91	1080.65
744.24	1083.67
744.57	1082.10
744.90	1080.23
745.23	1079.08
745.56	1077.79
745.89	1073.70
746.22	1075.45
746.55	1077.04
746.88	1078.43
747.21	1079.24
747.54	1082.26
747.87	1081.49
748.20	1079.69
748.53	1079.29
748.87	1076.55
749.20	1077.61
749.53	1074.63
749.86	1079.50
750.19	1080.58
750.52	1080.81
750.85	1080.74
751.18	1083.50
751.51	1078.59
751.84	1075.97
752.16	1077.70
752.49	1076.72
752.82	1074.68
753.15	1078.80
753.48	1082.85
753.81	1080.98
754.14	1081.37
754.47	1081.12
754.80	1079.71
755.13	1078.07
755.46	1082.90
755.79	1082.94
756.12	1084.53
756.45	1085.17
756.78	1084.23
757.11	1081.33
757.43	1080.11
757.76	1081.26
758.09	1078.66
758.42	1078.96
758.75	1081.12
759.08	1082.66
759.41	1079.64
759.74	1081.49
760.07	1082.31
760.39	1081.14
760.72	1078.21
761.05	1078.68
761.38	1073.79
761.71	1072.71
762.04	1073.63
762.36	1073.11
762.69	1076.13
763.02	1081.19
763.35	1078.80
763.68	1075.43
764.01	1077.07
764.33	1072.92
764.66	1071.97
