SpectraSuite Data File
++++++++++++++++++++++++++++++++++++
Date: Mon Aug 26 10:21:52 PDT 2019
User: corrico
Dark Spectrum Present: No
Reference Spectrum Present: No
Number of Sampled Component Spectra: 1
Spectrometers: USB2+H06089
Integration Time (usec): 2000 (USB2+H06089)
Spectra Averaged: 20 (USB2+H06089)
Boxcar Smoothing: 2 (USB2+H06089)
Correct for Electrical Dark: No (USB2+H06089)
Strobe/Lamp Enabled: No (USB2+H06089)
Correct for Detector Non-linearity: No (USB2+H06089)
Correct for Stray Light: No (USB2+H06089)
Number of Pixels in Processed Spectrum: 2048
>>>>>Begin Processed Spectral Data<<<<<
339.70	1027.61
340.07	1027.61
340.45	993.60
340.82	973.59
341.19	949.13
341.57	924.84
341.94	911.90
342.31	902.18
342.69	893.10
343.06	891.93
343.43	888.35
343.81	891.28
344.18	895.91
344.55	903.73
344.93	904.52
345.30	914.05
345.67	922.71
346.04	928.49
346.42	934.41
346.79	944.50
347.16	951.92
347.54	956.04
347.91	965.05
348.28	975.02
348.65	987.21
349.03	994.28
349.40	1007.18
349.77	1015.11
350.14	1019.72
350.52	1022.51
350.89	1029.37
351.26	1031.73
351.63	1037.00
352.01	1041.30
352.38	1048.84
352.75	1050.62
353.12	1056.89
353.50	1058.79
353.87	1065.01
354.24	1065.95
354.61	1069.79
354.98	1069.34
355.36	1074.03
355.73	1071.61
356.10	1073.46
356.47	1072.34
356.84	1075.13
357.22	1073.91
357.59	1076.76
357.96	1075.59
358.33	1075.69
358.70	1071.40
359.08	1068.15
359.45	1064.76
359.82	1063.63
360.19	1063.12
360.56	1065.67
360.94	1067.40
361.31	1070.00
361.68	1072.01
362.05	1074.49
362.42	1075.43
362.79	1073.95
363.16	1071.73
363.54	1069.70
363.91	1070.00
364.28	1066.68
364.65	1064.66
365.02	1065.93
365.39	1064.34
365.76	1060.64
366.14	1058.81
366.51	1061.97
366.88	1061.83
367.25	1063.16
367.62	1064.38
367.99	1066.54
368.36	1066.98
368.73	1064.31
369.10	1063.00
369.48	1060.57
369.85	1060.52
370.22	1058.91
370.59	1060.10
370.96	1059.28
371.33	1060.36
371.70	1058.93
372.07	1061.18
372.44	1061.36
372.81	1061.62
373.18	1060.36
373.55	1060.94
373.93	1057.27
374.30	1055.61
374.67	1055.61
375.04	1056.99
375.41	1057.10
375.78	1059.63
376.15	1060.54
376.52	1060.82
376.89	1064.26
377.26	1065.90
377.63	1063.98
378.00	1063.68
378.37	1064.50
378.74	1061.36
379.11	1058.91
379.48	1059.05
379.85	1061.83
380.22	1064.52
380.59	1066.86
380.96	1069.04
381.33	1073.04
381.70	1072.11
382.07	1069.51
382.44	1066.61
382.81	1067.40
383.18	1065.25
383.55	1067.00
383.92	1067.71
384.29	1070.75
384.66	1069.98
385.03	1071.05
385.40	1072.81
385.77	1070.75
386.14	1070.89
386.51	1071.31
386.88	1068.90
387.25	1067.45
387.62	1070.33
387.99	1066.82
388.36	1066.25
388.73	1068.03
389.10	1064.34
389.46	1062.30
389.83	1064.52
390.20	1060.33
390.57	1060.22
390.94	1061.67
391.31	1064.10
391.68	1065.62
392.05	1070.72
392.42	1071.24
392.79	1073.16
393.16	1071.71
393.53	1071.68
393.89	1072.92
394.26	1074.52
394.63	1074.33
395.00	1074.26
395.37	1072.67
395.74	1072.69
396.11	1069.39
396.48	1068.17
396.84	1070.40
397.21	1070.00
397.58	1069.91
397.95	1069.25
398.32	1071.59
398.69	1066.09
399.06	1068.22
399.42	1065.74
399.79	1067.21
400.16	1066.56
400.53	1072.60
400.90	1073.35
401.27	1074.45
401.64	1073.18
402.00	1072.85
402.37	1068.92
402.74	1068.48
403.11	1069.41
403.48	1071.05
403.84	1071.50
404.21	1075.41
404.58	1075.92
404.95	1076.41
405.32	1077.21
405.68	1076.11
406.05	1074.52
406.42	1072.43
406.79	1069.30
407.16	1069.11
407.52	1068.83
407.89	1069.09
408.26	1069.39
408.63	1069.20
408.99	1071.36
409.36	1072.22
409.73	1071.87
410.10	1070.21
410.47	1074.10
410.83	1072.95
411.20	1073.02
411.57	1073.11
411.94	1076.30
412.30	1073.56
412.67	1071.80
413.04	1067.96
413.40	1066.32
413.77	1065.27
414.14	1064.29
414.51	1063.75
414.87	1066.75
415.24	1068.76
415.61	1070.68
415.97	1073.23
416.34	1075.78
416.71	1074.45
417.08	1076.95
417.44	1074.75
417.81	1074.45
418.18	1075.10
418.54	1078.78
418.91	1076.32
419.28	1077.02
419.64	1075.03
420.01	1073.74
420.38	1072.85
420.74	1073.58
421.11	1074.89
421.48	1078.00
421.84	1080.60
422.21	1082.17
422.58	1082.71
422.94	1080.86
423.31	1078.75
423.68	1073.70
424.04	1072.29
424.41	1071.90
424.77	1074.66
425.14	1075.73
425.51	1079.43
425.87	1078.21
426.24	1078.85
426.61	1077.21
426.97	1080.44
427.34	1077.68
427.70	1077.49
428.07	1078.43
428.44	1079.71
428.80	1080.65
429.17	1082.52
429.53	1085.75
429.90	1084.37
430.27	1084.21
430.63	1082.01
431.00	1080.18
431.36	1080.13
431.73	1081.49
432.09	1079.60
432.46	1083.48
432.83	1090.15
433.19	1093.78
433.56	1092.87
433.92	1098.53
434.29	1095.04
434.65	1095.30
435.02	1091.74
435.38	1095.53
435.75	1092.73
436.11	1096.59
436.48	1098.20
436.84	1106.07
437.21	1108.76
437.57	1115.36
437.94	1120.16
438.30	1122.90
438.67	1123.46
439.03	1128.54
439.40	1130.43
439.76	1131.44
440.13	1137.22
440.49	1144.85
440.86	1148.31
441.22	1156.27
441.59	1164.56
441.95	1170.29
442.32	1170.53
442.68	1178.74
443.05	1186.30
443.41	1192.85
443.78	1201.30
444.14	1213.15
444.51	1219.40
444.87	1228.17
445.24	1238.28
445.60	1247.25
445.96	1259.65
446.33	1273.63
446.69	1282.15
447.06	1292.94
447.42	1302.91
447.79	1310.70
448.15	1322.87
448.51	1337.19
448.88	1352.71
449.24	1370.08
449.61	1390.68
449.97	1411.20
450.33	1431.85
450.70	1449.33
451.06	1468.55
451.43	1487.81
451.79	1511.52
452.15	1536.59
452.52	1565.65
452.88	1601.32
453.24	1636.43
453.61	1667.56
453.97	1699.56
454.34	1732.75
454.70	1766.92
455.06	1798.96
455.43	1837.18
455.79	1873.41
456.15	1916.81
456.52	1954.04
456.88	2001.88
457.24	2047.71
457.61	2101.03
457.97	2148.35
458.33	2199.61
458.70	2250.57
459.06	2294.97
459.42	2344.98
459.79	2391.96
460.15	2446.52
460.51	2493.82
460.88	2545.64
461.24	2592.47
461.60	2652.55
461.96	2701.14
462.33	2751.84
462.69	2803.61
463.05	2858.17
463.42	2904.46
463.78	2955.25
464.14	2997.95
464.50	3036.31
464.87	3070.41
465.23	3086.72
465.59	3104.21
465.95	3120.05
466.32	3135.69
466.68	3148.96
467.04	3163.96
467.40	3172.29
467.77	3180.27
468.13	3180.46
468.49	3178.82
468.85	3177.46
469.22	3176.97
469.58	3168.29
469.94	3160.96
470.30	3144.11
470.66	3122.49
471.03	3090.96
471.39	3067.01
471.75	3024.56
472.11	2985.54
472.47	2954.60
472.84	2921.92
473.20	2887.61
473.56	2867.48
473.92	2836.59
474.28	2806.42
474.65	2783.15
475.01	2760.33
475.37	2731.94
475.73	2702.97
476.09	2674.79
476.45	2645.88
476.81	2611.78
477.18	2591.60
477.54	2575.76
477.90	2557.13
478.26	2526.68
478.62	2503.53
478.98	2477.74
479.34	2454.94
479.71	2434.77
480.07	2424.12
480.43	2407.66
480.79	2384.16
481.15	2361.83
481.51	2335.13
481.87	2310.81
482.23	2289.37
482.59	2264.02
482.96	2247.22
483.32	2229.13
483.68	2209.23
484.04	2189.55
484.40	2175.20
484.76	2158.42
485.12	2142.46
485.48	2122.40
485.84	2104.70
486.20	2089.63
486.56	2068.96
486.92	2047.95
487.28	2026.88
487.64	2004.95
488.00	1984.12
488.37	1965.84
488.73	1946.44
489.09	1923.03
489.45	1905.38
489.81	1882.63
490.17	1855.27
490.53	1836.10
490.89	1819.09
491.25	1795.54
491.61	1773.19
491.97	1757.91
492.33	1738.95
492.69	1719.24
493.05	1701.57
493.41	1685.30
493.77	1666.20
494.13	1647.32
494.49	1632.34
494.85	1616.70
495.21	1604.55
495.57	1591.63
495.93	1577.68
496.29	1562.49
496.64	1546.46
497.00	1528.49
497.36	1514.82
497.72	1500.59
498.08	1489.26
498.44	1477.81
498.80	1469.06
499.16	1455.93
499.52	1446.40
499.88	1439.13
500.24	1431.35
500.60	1423.12
500.96	1412.58
501.32	1403.71
501.68	1392.41
502.03	1382.84
502.39	1373.05
502.75	1367.11
503.11	1358.12
503.47	1349.44
503.83	1341.38
504.19	1333.57
504.55	1324.98
504.91	1318.40
505.26	1310.42
505.62	1302.23
505.98	1294.11
506.34	1286.05
506.70	1274.52
507.06	1271.75
507.42	1264.29
507.78	1260.10
508.13	1256.98
508.49	1254.04
508.85	1247.79
509.21	1246.34
509.57	1240.55
509.93	1233.91
510.28	1229.79
510.64	1223.00
511.00	1217.90
511.36	1210.83
511.72	1205.38
512.07	1202.43
512.43	1200.18
512.79	1193.46
513.15	1191.94
513.51	1188.43
513.86	1183.63
514.22	1177.48
514.58	1177.87
514.94	1176.07
515.30	1175.53
515.65	1170.99
516.01	1169.61
516.37	1165.12
516.73	1162.15
517.08	1156.93
517.44	1154.70
517.80	1148.88
518.16	1144.99
518.51	1138.67
518.87	1137.34
519.23	1137.57
519.59	1137.17
519.94	1134.95
520.30	1136.68
520.66	1135.96
521.01	1131.95
521.37	1128.07
521.73	1127.95
522.09	1123.67
522.44	1120.04
522.80	1121.00
523.16	1122.29
523.51	1120.44
523.87	1121.94
524.23	1123.13
524.58	1121.00
524.94	1120.44
525.30	1119.57
525.65	1115.08
526.01	1113.11
526.37	1110.96
526.72	1110.21
527.08	1109.88
527.44	1110.49
527.79	1109.51
528.15	1110.89
528.51	1109.23
528.86	1107.28
529.22	1106.75
529.58	1106.00
529.93	1103.26
530.29	1102.13
530.65	1097.97
531.00	1093.85
531.36	1089.96
531.71	1092.23
532.07	1094.18
532.43	1094.79
532.78	1098.11
533.14	1100.78
533.49	1097.66
533.85	1096.45
534.21	1100.08
534.56	1097.20
534.92	1093.38
535.27	1092.52
535.63	1089.73
535.98	1087.83
536.34	1090.10
536.69	1092.09
537.05	1091.86
537.41	1090.36
537.76	1090.41
538.12	1088.70
538.47	1090.55
538.83	1087.65
539.18	1088.98
539.54	1087.44
539.89	1084.30
540.25	1081.84
540.60	1083.71
540.96	1085.05
541.31	1087.67
541.67	1091.74
542.02	1092.63
542.38	1091.60
542.73	1090.10
543.09	1085.68
543.44	1083.36
543.80	1081.66
544.15	1080.93
544.51	1080.39
544.86	1082.97
545.22	1083.04
545.57	1084.46
545.93	1083.64
546.28	1082.38
546.64	1084.11
546.99	1086.01
547.35	1084.51
547.70	1089.03
548.05	1090.22
548.41	1085.45
548.76	1082.80
549.12	1081.51
549.47	1079.81
549.83	1080.79
550.18	1084.81
550.53	1083.41
550.89	1081.21
551.24	1078.43
551.60	1075.83
551.95	1072.34
552.30	1077.86
552.66	1079.97
553.01	1079.90
553.37	1080.37
553.72	1082.50
554.07	1079.20
554.43	1077.16
554.78	1080.37
555.13	1078.36
555.49	1077.35
555.84	1076.72
556.19	1081.40
556.55	1078.73
556.90	1080.11
557.26	1079.24
557.61	1079.97
557.96	1079.78
558.32	1082.85
558.67	1082.40
559.02	1083.48
559.37	1081.21
559.73	1076.76
560.08	1075.41
560.43	1074.54
560.79	1075.78
561.14	1076.46
561.49	1081.68
561.85	1079.71
562.20	1081.94
562.55	1080.98
562.90	1082.05
563.26	1080.88
563.61	1080.41
563.96	1081.35
564.32	1077.98
564.67	1076.23
565.02	1073.60
565.37	1074.03
565.73	1071.64
566.08	1072.39
566.43	1074.10
566.78	1074.40
567.14	1073.67
567.49	1073.25
567.84	1072.95
568.19	1068.88
568.54	1069.55
568.90	1070.28
569.25	1070.44
569.60	1069.67
569.95	1069.74
570.31	1069.70
570.66	1069.25
571.01	1067.75
571.36	1068.92
571.71	1071.47
572.06	1068.34
572.42	1072.06
572.77	1075.31
573.12	1075.05
573.47	1074.80
573.82	1079.38
574.18	1074.14
574.53	1073.37
574.88	1073.74
575.23	1073.81
575.58	1071.80
575.93	1074.12
576.28	1077.42
576.64	1076.06
576.99	1077.37
577.34	1078.99
577.69	1081.30
578.04	1077.30
578.39	1078.10
578.74	1080.04
579.09	1079.15
579.44	1073.14
579.80	1073.93
580.15	1074.40
580.50	1073.67
580.85	1072.18
581.20	1076.51
581.55	1078.68
581.90	1079.48
582.25	1077.42
582.60	1077.30
582.95	1075.03
583.30	1073.56
583.65	1071.08
584.00	1071.85
584.35	1073.58
584.71	1076.41
585.06	1075.48
585.41	1075.73
585.76	1077.70
586.11	1075.92
586.46	1074.54
586.81	1075.52
587.16	1078.19
587.51	1074.77
587.86	1074.28
588.21	1074.33
588.56	1073.81
588.91	1073.23
589.26	1074.35
589.61	1076.79
589.96	1075.94
590.31	1073.30
590.66	1073.18
591.01	1073.84
591.36	1071.97
591.71	1071.05
592.06	1074.70
592.41	1074.28
592.76	1073.65
593.10	1075.34
593.45	1076.74
593.80	1072.39
594.15	1072.36
594.50	1072.53
594.85	1069.88
595.20	1072.29
595.55	1077.49
595.90	1079.38
596.25	1079.03
596.60	1079.10
596.95	1076.83
597.30	1075.43
597.64	1084.02
597.99	1083.67
598.34	1085.99
598.69	1087.39
599.04	1084.49
599.39	1074.84
599.74	1075.69
600.09	1077.79
600.44	1076.90
600.78	1080.53
601.13	1080.53
601.48	1081.00
601.83	1075.43
602.18	1072.92
602.53	1072.20
602.88	1072.78
603.22	1071.87
603.57	1075.48
603.92	1076.62
604.27	1072.64
604.62	1071.94
604.97	1072.43
605.31	1073.53
605.66	1071.08
606.01	1074.03
606.36	1074.26
606.71	1075.03
607.05	1076.81
607.40	1079.24
607.75	1079.62
608.10	1081.09
608.44	1080.02
608.79	1078.89
609.14	1081.42
609.49	1081.12
609.84	1081.44
610.18	1082.29
610.53	1084.56
610.88	1081.51
611.23	1084.21
611.57	1083.76
611.92	1084.32
612.27	1079.03
612.62	1081.28
612.96	1077.51
613.31	1079.57
613.66	1075.85
614.00	1077.98
614.35	1079.31
614.70	1080.16
615.05	1075.85
615.39	1079.15
615.74	1077.21
616.09	1076.11
616.43	1075.83
616.78	1073.58
617.13	1070.33
617.47	1071.66
617.82	1071.78
618.17	1068.62
618.51	1070.89
618.86	1070.61
619.21	1067.99
619.55	1067.24
619.90	1071.47
620.25	1072.48
620.59	1073.84
620.94	1076.46
621.29	1077.16
621.63	1076.67
621.98	1077.47
622.32	1078.80
622.67	1073.14
623.02	1073.04
623.36	1076.67
623.71	1073.60
624.05	1072.83
624.40	1077.11
624.75	1079.27
625.09	1073.91
625.44	1075.83
625.78	1078.71
626.13	1081.40
626.48	1076.79
626.82	1075.55
627.17	1075.62
627.51	1074.19
627.86	1072.20
628.20	1074.52
628.55	1078.21
628.89	1073.49
629.24	1074.59
629.58	1074.47
629.93	1072.48
630.28	1072.29
630.62	1075.13
630.97	1071.90
631.31	1069.60
631.66	1072.04
632.00	1069.67
632.35	1070.02
632.69	1071.78
633.04	1073.77
633.38	1071.43
633.73	1073.60
634.07	1075.87
634.42	1076.08
634.76	1074.38
635.11	1074.59
635.45	1077.54
635.79	1075.85
636.14	1073.95
636.48	1076.46
636.83	1077.30
637.17	1075.10
637.52	1073.65
637.86	1076.18
638.21	1075.41
638.55	1077.51
638.89	1077.00
639.24	1076.44
639.58	1073.56
639.93	1071.97
640.27	1069.44
640.61	1067.64
640.96	1070.75
641.30	1071.75
641.65	1073.84
641.99	1074.91
642.33	1075.03
642.68	1074.82
643.02	1074.98
643.37	1075.69
643.71	1074.75
644.05	1076.93
644.40	1077.65
644.74	1078.24
645.08	1074.89
645.43	1074.94
645.77	1073.93
646.11	1071.22
646.46	1068.13
646.80	1071.78
647.14	1068.78
647.49	1070.05
647.83	1070.12
648.17	1073.91
648.52	1071.99
648.86	1076.88
649.20	1076.86
649.55	1078.50
649.89	1076.44
650.23	1077.07
650.57	1076.86
650.92	1077.56
651.26	1079.60
651.60	1081.54
651.95	1082.54
652.29	1083.20
652.63	1081.14
652.97	1081.37
653.32	1078.54
653.66	1076.01
654.00	1075.29
654.34	1076.08
654.69	1073.60
655.03	1074.75
655.37	1076.15
655.71	1075.13
656.05	1075.57
656.40	1077.79
656.74	1076.44
657.08	1077.00
657.42	1078.99
657.76	1076.88
658.11	1074.84
658.45	1075.27
658.79	1072.78
659.13	1070.30
659.47	1071.92
659.82	1072.69
660.16	1071.17
660.50	1073.46
660.84	1076.58
661.18	1075.38
661.52	1077.96
661.87	1079.67
662.21	1077.47
662.55	1074.17
662.89	1076.67
663.23	1074.38
663.57	1078.07
663.91	1080.30
664.25	1083.39
664.60	1080.39
664.94	1080.11
665.28	1079.48
665.62	1079.53
665.96	1073.23
666.30	1074.38
666.64	1074.73
666.98	1073.67
667.32	1071.33
667.66	1074.61
668.01	1074.94
668.35	1074.21
668.69	1074.19
669.03	1073.60
669.37	1076.58
669.71	1074.56
670.05	1072.46
670.39	1071.64
670.73	1072.55
671.07	1071.31
671.41	1070.23
671.75	1072.06
672.09	1072.81
672.43	1078.03
672.77	1075.57
673.11	1076.74
673.45	1074.56
673.79	1073.18
674.13	1071.99
674.47	1071.40
674.81	1073.51
675.15	1073.44
675.49	1074.31
675.83	1071.71
676.17	1071.68
676.51	1070.42
676.85	1070.80
677.19	1071.38
677.53	1071.40
677.87	1070.94
678.21	1072.90
678.55	1074.26
678.89	1073.86
679.23	1072.95
679.57	1073.88
679.90	1071.75
680.24	1074.75
680.58	1075.31
680.92	1076.55
681.26	1078.57
681.60	1080.30
681.94	1076.93
682.28	1072.85
682.62	1071.85
682.96	1073.14
683.29	1071.12
683.63	1069.88
683.97	1072.97
684.31	1073.72
684.65	1071.26
684.99	1071.54
685.33	1074.38
685.67	1071.64
686.00	1070.77
686.34	1071.87
686.68	1069.86
687.02	1068.41
687.36	1070.72
687.70	1070.26
688.03	1071.29
688.37	1077.51
688.71	1077.91
689.05	1077.79
689.39	1078.64
689.72	1075.50
690.06	1069.79
690.40	1068.13
690.74	1066.63
691.08	1068.92
691.41	1071.10
691.75	1070.98
692.09	1067.85
692.43	1070.00
692.76	1066.58
693.10	1067.21
693.44	1071.43
693.78	1076.74
694.11	1073.84
694.45	1077.77
694.79	1075.94
695.13	1073.86
695.46	1075.41
695.80	1077.86
696.14	1075.27
696.48	1073.93
696.81	1073.93
697.15	1071.50
697.49	1071.22
697.82	1071.22
698.16	1072.83
698.50	1069.72
698.83	1069.32
699.17	1071.29
699.51	1072.62
699.84	1074.31
700.18	1078.59
700.52	1078.54
700.85	1077.61
701.19	1073.91
701.53	1070.70
701.86	1069.13
702.20	1071.66
702.54	1068.90
702.87	1070.68
703.21	1072.90
703.55	1075.31
703.88	1074.17
704.22	1079.34
704.55	1081.68
704.89	1082.94
705.23	1081.98
705.56	1082.43
705.90	1081.28
706.23	1079.27
706.57	1076.83
706.91	1075.13
707.24	1074.21
707.58	1074.61
707.91	1075.50
708.25	1079.17
708.58	1079.13
708.92	1079.55
709.26	1078.00
709.59	1077.35
709.93	1074.14
710.26	1075.01
710.60	1077.30
710.93	1076.32
711.27	1075.10
711.60	1074.73
711.94	1073.60
712.27	1072.55
712.61	1072.29
712.94	1073.72
713.28	1073.81
713.61	1074.35
713.95	1071.78
714.28	1072.27
714.62	1074.94
714.95	1080.18
715.29	1079.76
715.62	1082.69
715.96	1083.88
716.29	1081.82
716.63	1077.54
716.96	1081.14
717.29	1077.02
717.63	1076.55
717.96	1075.03
718.30	1073.65
718.63	1072.85
718.97	1074.19
719.30	1073.98
719.63	1074.45
719.97	1074.19
720.30	1073.95
720.64	1075.71
720.97	1076.11
721.30	1077.58
721.64	1078.07
721.97	1072.76
722.31	1068.62
722.64	1066.58
722.97	1068.64
723.31	1069.67
723.64	1073.88
723.97	1078.47
724.31	1078.64
724.64	1075.50
724.98	1073.44
725.31	1071.94
725.64	1072.27
725.98	1074.54
726.31	1075.78
726.64	1080.44
726.97	1082.50
727.31	1083.04
727.64	1084.39
727.97	1083.86
728.31	1080.44
728.64	1077.82
728.97	1074.54
729.31	1070.65
729.64	1074.07
729.97	1075.59
730.30	1074.94
730.64	1075.90
730.97	1077.98
731.30	1073.81
731.63	1070.75
731.97	1073.70
732.30	1071.97
732.63	1070.89
732.96	1071.01
733.30	1075.94
733.63	1076.51
733.96	1075.71
734.29	1075.69
734.63	1075.76
734.96	1075.85
735.29	1075.34
735.62	1082.40
735.95	1081.94
736.29	1081.49
736.62	1079.01
736.95	1078.05
737.28	1076.08
737.61	1076.23
737.94	1078.71
738.28	1076.15
738.61	1075.41
738.94	1069.88
739.27	1070.23
739.60	1066.16
739.93	1068.92
740.27	1068.59
740.60	1071.43
740.93	1072.69
741.26	1075.90
741.59	1077.28
741.92	1079.43
742.25	1081.80
742.58	1083.62
742.91	1081.40
743.25	1078.33
743.58	1077.63
743.91	1072.78
744.24	1069.88
744.57	1071.52
744.90	1073.14
745.23	1071.01
745.56	1075.69
745.89	1074.47
746.22	1075.62
746.55	1074.12
746.88	1077.40
747.21	1076.62
747.54	1077.51
747.87	1074.10
748.20	1072.01
748.53	1069.93
748.87	1069.55
749.20	1069.44
749.53	1071.10
749.86	1071.52
750.19	1073.95
750.52	1074.14
750.85	1073.95
751.18	1072.90
751.51	1073.25
751.84	1073.09
752.16	1070.96
752.49	1073.70
752.82	1074.68
753.15	1076.53
753.48	1076.34
753.81	1078.24
754.14	1075.31
754.47	1074.77
754.80	1076.13
755.13	1074.28
755.46	1071.97
755.79	1071.57
756.12	1073.21
756.45	1070.54
756.78	1070.19
757.11	1069.23
757.43	1071.10
757.76	1072.78
758.09	1076.51
758.42	1077.63
758.75	1078.50
759.08	1079.22
759.41	1076.15
759.74	1072.15
760.07	1071.03
760.39	1069.62
760.72	1068.06
761.05	1065.72
761.38	1067.49
761.71	1067.96
762.04	1071.22
762.36	1073.07
762.69	1077.58
763.02	1076.34
763.35	1074.82
763.68	1073.28
764.01	1072.22
764.33	1070.02
764.66	1072.04
764.99	1072.32
765.32	1071.29
765.65	1068.64
765.97	1069.65
766.30	1067.68
