SpectraSuite Data File
++++++++++++++++++++++++++++++++++++
Date: Mon Aug 26 10:22:07 PDT 2019
User: corrico
Dark Spectrum Present: No
Reference Spectrum Present: No
Number of Sampled Component Spectra: 1
Spectrometers: USB2+H06089
Integration Time (usec): 2000 (USB2+H06089)
Spectra Averaged: 20 (USB2+H06089)
Boxcar Smoothing: 2 (USB2+H06089)
Correct for Electrical Dark: No (USB2+H06089)
Strobe/Lamp Enabled: No (USB2+H06089)
Correct for Detector Non-linearity: No (USB2+H06089)
Correct for Stray Light: No (USB2+H06089)
Number of Pixels in Processed Spectrum: 2048
>>>>>Begin Processed Spectral Data<<<<<
339.70	1030.77
340.07	1030.77
340.45	996.79
340.82	977.15
341.19	952.57
341.57	927.76
341.94	921.33
342.31	912.36
342.69	905.44
343.06	901.71
343.43	898.25
343.81	894.25
344.18	894.72
344.55	897.48
344.93	906.02
345.30	915.80
345.67	925.42
346.04	934.69
346.42	944.06
346.79	949.74
347.16	958.59
347.54	962.19
347.91	972.05
348.28	982.04
348.65	990.84
349.03	998.54
349.40	1012.73
349.77	1017.17
350.14	1024.59
350.52	1035.17
350.89	1041.40
351.26	1044.23
351.63	1053.12
352.01	1058.11
352.38	1058.18
352.75	1063.96
353.12	1069.09
353.50	1070.42
353.87	1070.35
354.24	1075.10
354.61	1075.69
354.98	1080.44
355.36	1085.00
355.73	1089.17
356.10	1088.47
356.47	1087.44
356.84	1088.28
357.22	1088.42
357.59	1085.75
357.96	1088.26
358.33	1089.80
358.70	1089.12
359.08	1084.44
359.45	1087.23
359.82	1087.39
360.19	1085.99
360.56	1084.56
360.94	1087.37
361.31	1084.89
361.68	1085.12
362.05	1086.24
362.42	1084.39
362.79	1081.66
363.16	1081.77
363.54	1079.95
363.91	1080.98
364.28	1080.06
364.65	1077.42
365.02	1075.85
365.39	1073.93
365.76	1073.60
366.14	1073.67
366.51	1076.44
366.88	1076.18
367.25	1077.00
367.62	1074.10
367.99	1075.48
368.36	1074.80
368.73	1077.79
369.10	1078.07
369.48	1077.70
369.85	1074.56
370.22	1076.20
370.59	1075.38
370.96	1076.86
371.33	1075.76
371.70	1076.79
372.07	1078.14
372.44	1079.92
372.81	1076.20
373.18	1078.31
373.55	1080.65
373.93	1078.96
374.30	1077.25
374.67	1080.09
375.04	1080.13
375.41	1080.72
375.78	1081.00
376.15	1080.13
376.52	1077.37
376.89	1075.41
377.26	1074.96
377.63	1077.61
378.00	1079.01
378.37	1081.84
378.74	1084.67
379.11	1087.72
379.48	1087.48
379.85	1088.84
380.22	1087.72
380.59	1087.79
380.96	1086.01
381.33	1084.35
381.70	1083.74
382.07	1085.77
382.44	1086.55
382.81	1082.31
383.18	1081.61
383.55	1079.50
383.92	1076.58
384.29	1077.54
384.66	1078.82
385.03	1079.69
385.40	1080.77
385.77	1082.61
386.14	1081.00
386.51	1083.46
386.88	1083.29
387.25	1083.55
387.62	1086.27
387.99	1086.59
388.36	1087.67
388.73	1089.52
389.10	1089.75
389.46	1088.68
389.83	1088.72
390.20	1089.68
390.57	1088.14
390.94	1088.40
391.31	1088.00
391.68	1090.03
392.05	1089.47
392.42	1088.68
392.79	1090.69
393.16	1093.33
393.53	1089.24
393.89	1088.72
394.26	1088.70
394.63	1085.14
395.00	1081.73
395.37	1084.56
395.74	1084.30
396.11	1085.03
396.48	1085.49
396.84	1086.52
397.21	1087.32
397.58	1088.28
397.95	1088.72
398.32	1089.24
398.69	1090.17
399.06	1090.53
399.42	1088.58
399.79	1091.09
400.16	1089.71
400.53	1088.72
400.90	1088.40
401.27	1089.59
401.64	1087.02
402.00	1093.10
402.37	1094.46
402.74	1094.69
403.11	1099.12
403.48	1099.93
403.84	1094.95
404.21	1096.10
404.58	1097.31
404.95	1090.88
405.32	1093.19
405.68	1095.16
406.05	1091.18
406.42	1090.55
406.79	1094.15
407.16	1092.98
407.52	1097.43
407.89	1105.27
408.26	1105.60
408.63	1105.13
408.99	1106.86
409.36	1103.05
409.73	1095.96
410.10	1098.39
410.47	1096.03
410.83	1094.36
411.20	1098.83
411.57	1101.46
411.94	1098.23
412.30	1101.97
412.67	1103.75
413.04	1101.64
413.40	1103.05
413.77	1104.01
414.14	1104.87
414.51	1105.39
414.87	1104.69
415.24	1105.46
415.61	1107.35
415.97	1106.51
416.34	1107.45
416.71	1108.71
417.08	1105.29
417.44	1104.71
417.81	1107.71
418.18	1106.37
418.54	1104.36
418.91	1109.60
419.28	1114.42
419.64	1115.01
420.01	1114.17
420.38	1118.52
420.74	1119.38
421.11	1117.11
421.48	1120.13
421.84	1124.86
422.21	1126.20
422.58	1129.89
422.94	1134.32
423.31	1134.97
423.68	1139.37
424.04	1146.56
424.41	1149.44
424.77	1151.52
425.14	1157.96
425.51	1162.90
425.87	1162.94
426.24	1169.89
426.61	1178.39
426.97	1186.39
427.34	1194.33
427.70	1202.80
428.07	1210.15
428.44	1218.27
428.80	1221.81
429.17	1228.10
429.53	1238.49
429.90	1248.07
430.27	1260.66
430.63	1274.47
431.00	1294.50
431.36	1309.90
431.73	1326.10
432.09	1341.88
432.46	1360.86
432.83	1376.33
433.19	1398.56
433.56	1419.65
433.92	1443.50
434.29	1471.66
434.65	1496.42
435.02	1525.05
435.38	1563.83
435.75	1595.68
436.11	1632.66
436.48	1674.11
436.84	1717.93
437.21	1760.97
437.57	1808.09
437.94	1858.29
438.30	1913.22
438.67	1967.92
439.03	2028.59
439.40	2102.13
439.76	2168.86
440.13	2245.02
440.49	2331.62
440.86	2407.36
441.22	2491.15
441.59	2584.98
441.95	2686.82
442.32	2785.33
442.68	2907.06
443.05	3030.71
443.41	3156.84
443.78	3283.37
444.14	3424.77
444.51	3561.71
444.87	3726.62
445.24	3898.37
445.60	4080.30
445.96	4267.29
446.33	4484.05
446.69	4682.97
447.06	4899.28
447.42	5125.00
447.79	5365.68
448.15	5635.33
448.51	5917.20
448.88	6243.12
449.24	6554.01
449.61	6902.80
449.97	7256.27
450.33	7632.67
450.70	7983.68
451.06	8416.78
451.43	8821.97
451.79	9276.20
452.15	9773.45
452.52	10315.89
452.88	10863.36
453.24	11501.46
453.61	12210.39
453.97	12918.45
454.34	13624.59
454.70	14447.07
455.06	15266.40
455.43	16023.03
455.79	16713.84
456.15	17525.00
456.52	18281.25
456.88	19199.77
457.24	20108.01
457.61	21229.78
457.97	22306.50
458.33	23396.02
458.70	24444.04
459.06	25449.21
459.42	26470.92
459.79	27387.17
460.15	28474.54
460.51	29457.40
460.88	30572.36
461.24	31555.66
461.60	32728.25
461.96	33756.54
462.33	34812.12
462.69	35863.37
463.05	37018.52
463.42	38050.16
463.78	39010.95
464.14	39772.19
464.50	40497.99
464.87	40986.71
465.23	41280.80
465.59	41635.84
465.95	41946.29
466.32	42180.92
466.68	42461.23
467.04	42667.12
467.40	42715.15
467.77	42820.29
468.13	42752.16
468.49	42572.36
468.85	42434.17
469.22	42327.58
469.58	42082.50
469.94	41933.69
470.30	41736.48
470.66	41396.54
471.03	40871.18
471.39	40506.65
471.75	39791.71
472.11	39063.75
472.47	38565.85
472.84	38041.85
473.20	37311.06
473.56	36918.02
473.92	36349.43
474.28	35698.46
474.65	35038.80
475.01	34356.16
475.37	33519.77
475.73	32842.19
476.09	32151.71
476.45	31513.30
476.81	30968.82
477.18	30399.60
477.54	29916.77
477.90	29440.29
478.26	28847.90
478.62	28335.81
478.98	27909.48
479.34	27458.67
479.71	26906.56
480.07	26488.38
480.43	26045.01
480.79	25560.73
481.15	25081.65
481.51	24714.16
481.87	24389.11
482.23	24022.32
482.59	23702.00
482.96	23401.71
483.32	23073.07
483.68	22656.41
484.04	22299.08
484.40	21885.25
484.76	21434.20
485.12	20997.62
485.48	20585.57
485.84	20089.33
486.20	19650.60
486.56	19212.52
486.92	18809.83
487.28	18410.49
487.64	18014.78
488.00	17616.18
488.37	17219.81
488.73	16797.95
489.09	16313.96
489.45	15881.75
489.81	15427.71
490.17	14996.54
490.53	14574.56
490.89	14178.92
491.25	13755.38
491.61	13345.99
491.97	12942.86
492.33	12540.43
492.69	12184.08
493.05	11863.94
493.41	11561.87
493.77	11250.72
494.13	10946.52
494.49	10651.43
494.85	10354.76
495.21	10063.79
495.57	9787.91
495.93	9514.09
496.29	9254.20
496.64	9017.45
497.00	8758.87
497.36	8502.86
497.72	8266.98
498.08	8039.39
498.44	7807.75
498.80	7602.57
499.16	7401.87
499.52	7203.37
499.88	7014.12
500.24	6843.16
500.60	6689.37
500.96	6541.10
501.32	6390.79
501.68	6231.58
502.03	6058.34
502.39	5883.12
502.75	5705.52
503.11	5553.08
503.47	5407.25
503.83	5279.87
504.19	5155.85
504.55	5042.85
504.91	4922.73
505.26	4806.34
505.62	4690.53
505.98	4576.78
506.34	4455.28
506.70	4334.88
507.06	4222.49
507.42	4110.57
507.78	4007.42
508.13	3915.74
508.49	3829.68
508.85	3751.60
509.21	3669.96
509.57	3589.28
509.93	3505.87
510.28	3419.29
510.64	3334.00
511.00	3255.52
511.36	3181.00
511.72	3113.87
512.07	3055.99
512.43	2996.10
512.79	2931.24
513.15	2869.87
513.51	2806.75
513.86	2751.00
514.22	2703.69
514.58	2653.68
514.94	2608.29
515.30	2568.60
515.65	2516.40
516.01	2473.43
516.37	2432.14
516.73	2393.53
517.08	2349.03
517.44	2313.76
517.80	2269.83
518.16	2230.83
518.51	2191.14
518.87	2162.91
519.23	2132.02
519.59	2102.06
519.94	2072.64
520.30	2043.43
520.66	2014.27
521.01	1986.13
521.37	1951.54
521.73	1922.40
522.09	1901.22
522.44	1876.55
522.80	1848.88
523.16	1830.65
523.51	1812.60
523.87	1784.28
524.23	1759.08
524.58	1739.88
524.94	1719.45
525.30	1700.47
525.65	1682.38
526.01	1667.21
526.37	1649.09
526.72	1633.04
527.08	1615.27
527.44	1599.59
527.79	1581.45
528.15	1568.65
528.51	1553.20
528.86	1542.53
529.22	1526.17
529.58	1510.16
529.93	1498.36
530.29	1485.42
530.65	1468.17
531.00	1460.87
531.36	1450.59
531.71	1437.86
532.07	1424.78
532.43	1413.05
532.78	1397.46
533.14	1388.29
533.49	1377.12
533.85	1373.43
534.21	1368.23
534.56	1361.63
534.92	1354.30
535.27	1348.83
535.63	1338.08
535.98	1330.62
536.34	1322.22
536.69	1312.55
537.05	1299.11
537.41	1289.92
537.76	1281.51
538.12	1277.63
538.47	1273.25
538.83	1272.55
539.18	1267.80
539.54	1264.15
539.89	1258.74
540.25	1255.58
540.60	1251.44
540.96	1248.77
541.31	1245.33
541.67	1243.48
542.02	1239.45
542.38	1236.25
542.73	1233.95
543.09	1227.70
543.44	1224.78
543.80	1219.33
544.15	1213.19
544.51	1207.27
544.86	1205.77
545.22	1199.95
545.57	1199.55
545.93	1198.38
546.28	1198.05
546.64	1195.71
546.99	1191.57
547.35	1188.34
547.70	1186.51
548.05	1184.03
548.41	1181.10
548.76	1179.44
549.12	1176.80
549.47	1175.60
549.83	1170.74
550.18	1165.61
550.53	1161.56
550.89	1160.32
551.24	1155.15
551.60	1151.99
551.95	1149.67
552.30	1151.01
552.66	1145.79
553.01	1142.93
553.37	1143.07
553.72	1146.37
554.07	1141.36
554.43	1142.91
554.78	1142.88
555.13	1140.43
555.49	1136.12
555.84	1137.03
556.19	1136.68
556.55	1137.15
556.90	1135.91
557.26	1135.35
557.61	1134.64
557.96	1131.46
558.32	1130.71
558.67	1133.03
559.02	1131.44
559.37	1131.88
559.73	1131.86
560.08	1129.03
560.43	1127.06
560.79	1126.17
561.14	1124.67
561.49	1123.32
561.85	1124.18
562.20	1120.55
562.55	1119.95
562.90	1120.25
563.26	1121.42
563.61	1119.08
563.96	1120.18
564.32	1121.68
564.67	1119.31
565.02	1117.04
565.37	1117.30
565.73	1115.99
566.08	1112.29
566.43	1111.38
566.78	1108.36
567.14	1108.29
567.49	1108.38
567.84	1110.07
568.19	1105.32
568.54	1104.92
568.90	1104.52
569.25	1103.28
569.60	1102.98
569.95	1105.83
570.31	1106.84
570.66	1103.80
571.01	1103.98
571.36	1104.03
571.71	1106.09
572.06	1109.65
572.42	1110.30
572.77	1108.71
573.12	1108.50
573.47	1107.85
573.82	1106.04
574.18	1103.96
574.53	1105.32
574.88	1103.47
575.23	1102.58
575.58	1100.66
575.93	1105.72
576.28	1103.38
576.64	1102.98
576.99	1103.68
577.34	1101.57
577.69	1096.78
578.04	1101.50
578.39	1102.84
578.74	1101.36
579.09	1098.90
579.44	1098.44
579.80	1093.01
580.15	1094.29
580.50	1093.62
580.85	1095.07
581.20	1096.00
581.55	1096.42
581.90	1095.32
582.25	1093.90
582.60	1094.67
582.95	1094.15
583.30	1094.27
583.65	1090.41
584.00	1090.32
584.35	1089.92
584.71	1088.28
585.06	1088.23
585.41	1086.83
585.76	1089.33
586.11	1089.50
586.46	1093.85
586.81	1095.14
587.16	1099.12
587.51	1099.02
587.86	1102.11
588.21	1098.06
588.56	1100.75
588.91	1102.21
589.26	1103.28
589.61	1102.11
589.96	1105.11
590.31	1098.51
590.66	1095.28
591.01	1093.29
591.36	1091.30
591.71	1090.10
592.06	1095.14
592.41	1095.44
592.76	1095.30
593.10	1093.31
593.45	1090.34
593.80	1089.00
594.15	1089.26
594.50	1085.07
594.85	1089.50
595.20	1089.45
595.55	1089.22
595.90	1088.07
596.25	1089.92
596.60	1089.22
596.95	1089.73
597.30	1089.71
597.64	1100.24
597.99	1101.25
598.34	1097.83
598.69	1100.45
599.04	1099.61
599.39	1088.51
599.74	1090.13
600.09	1093.55
600.44	1091.42
600.78	1089.92
601.13	1089.66
601.48	1089.89
601.83	1088.02
602.18	1086.85
602.53	1086.55
602.88	1085.94
603.22	1080.25
603.57	1079.57
603.92	1079.99
604.27	1079.57
604.62	1080.70
604.97	1083.29
605.31	1086.52
605.66	1090.36
606.01	1093.83
606.36	1095.30
606.71	1097.57
607.05	1094.79
607.40	1094.62
607.75	1093.29
608.10	1092.12
608.44	1093.45
608.79	1094.29
609.14	1091.20
609.49	1090.81
609.84	1088.33
610.18	1084.93
610.53	1082.90
610.88	1081.84
611.23	1080.74
611.57	1082.29
611.92	1085.26
612.27	1087.62
612.62	1091.56
612.96	1092.94
613.31	1095.82
613.66	1094.69
614.00	1091.91
614.35	1089.38
614.70	1088.65
615.05	1086.20
615.39	1086.62
615.74	1088.28
616.09	1087.02
616.43	1089.26
616.78	1091.32
617.13	1087.53
617.47	1086.45
617.82	1087.27
618.17	1082.19
618.51	1079.69
618.86	1081.68
619.21	1083.71
619.55	1087.09
619.90	1089.47
620.25	1090.13
620.59	1089.07
620.94	1086.85
621.29	1083.79
621.63	1085.56
621.98	1083.50
622.32	1084.18
622.67	1079.76
623.02	1081.61
623.36	1080.67
623.71	1082.15
624.05	1082.08
624.40	1085.87
624.75	1081.89
625.09	1082.54
625.44	1083.50
625.78	1082.87
626.13	1082.08
626.48	1084.30
626.82	1084.60
627.17	1085.35
627.51	1086.59
627.86	1085.96
628.20	1086.62
628.55	1083.71
628.89	1081.61
629.24	1080.48
629.58	1082.22
629.93	1081.40
630.28	1086.66
630.62	1088.02
630.97	1090.69
631.31	1091.11
631.66	1091.77
632.00	1087.18
632.35	1088.04
632.69	1083.27
633.04	1084.30
633.38	1081.84
633.73	1082.45
634.07	1080.23
634.42	1084.93
634.76	1084.28
635.11	1084.86
635.45	1086.59
635.79	1089.45
636.14	1087.18
636.48	1086.27
636.83	1086.52
637.17	1084.49
637.52	1080.77
637.86	1082.22
638.21	1081.42
638.55	1083.11
638.89	1084.30
639.24	1086.90
639.58	1087.23
639.93	1091.16
640.27	1092.35
640.61	1090.99
640.96	1090.48
641.30	1088.44
641.65	1084.84
641.99	1081.75
642.33	1082.73
642.68	1082.12
643.02	1083.29
643.37	1085.73
643.71	1085.07
644.05	1084.60
644.40	1084.72
644.74	1085.75
645.08	1084.63
645.43	1084.53
645.77	1082.59
646.11	1082.85
646.46	1078.12
646.80	1078.05
647.14	1079.34
647.49	1081.12
647.83	1081.47
648.17	1084.39
648.52	1086.17
648.86	1086.43
649.20	1087.20
649.55	1087.37
649.89	1088.12
650.23	1084.77
650.57	1081.61
650.92	1079.43
651.26	1077.54
651.60	1078.26
651.95	1078.54
652.29	1079.50
652.63	1082.57
652.97	1083.32
653.32	1078.07
653.66	1077.93
654.00	1078.89
654.34	1078.14
654.69	1075.73
655.03	1080.91
655.37	1086.69
655.71	1088.28
656.05	1085.24
656.40	1089.92
656.74	1089.54
657.08	1086.22
657.42	1085.59
657.76	1087.51
658.11	1085.31
658.45	1088.37
658.79	1087.37
659.13	1087.34
659.47	1087.88
659.82	1086.97
660.16	1081.19
660.50	1079.95
660.84	1079.38
661.18	1079.55
661.52	1076.23
661.87	1076.95
662.21	1077.33
662.55	1074.56
662.89	1072.46
663.23	1078.00
663.57	1079.76
663.91	1081.77
664.25	1083.79
664.60	1084.25
664.94	1082.38
665.28	1080.37
665.62	1077.28
665.96	1076.76
666.30	1076.18
666.64	1078.68
666.98	1077.37
667.32	1078.75
667.66	1076.76
668.01	1081.26
668.35	1080.18
668.69	1081.09
669.03	1083.15
669.37	1086.64
669.71	1082.47
670.05	1082.47
670.39	1083.36
670.73	1079.83
671.07	1083.34
671.41	1088.84
671.75	1088.91
672.09	1093.52
672.43	1094.22
672.77	1090.03
673.11	1087.34
673.45	1086.17
673.79	1080.77
674.13	1079.90
674.47	1080.23
674.81	1079.36
675.15	1079.69
675.49	1082.78
675.83	1087.95
676.17	1087.27
676.51	1085.89
676.85	1083.81
677.19	1082.29
677.53	1077.44
677.87	1079.81
678.21	1082.29
678.55	1082.05
678.89	1080.09
679.23	1083.36
679.57	1081.77
679.90	1079.71
680.24	1081.47
680.58	1083.48
680.92	1081.28
681.26	1083.48
681.60	1082.29
681.94	1082.80
682.28	1082.94
682.62	1084.39
682.96	1082.31
683.29	1084.25
683.63	1083.48
683.97	1081.21
684.31	1081.33
684.65	1081.47
684.99	1079.31
685.33	1080.74
685.67	1083.43
686.00	1082.22
686.34	1082.24
686.68	1085.26
687.02	1082.36
687.36	1082.36
687.70	1080.72
688.03	1080.32
688.37	1075.45
688.71	1078.43
689.05	1075.85
689.39	1080.63
689.72	1080.88
690.06	1083.57
690.40	1080.30
690.74	1084.74
691.08	1081.80
691.41	1079.85
691.75	1081.35
692.09	1083.90
692.43	1083.06
692.76	1081.91
693.10	1084.18
693.44	1085.38
693.78	1085.45
694.11	1084.60
694.45	1084.63
694.79	1084.60
695.13	1082.64
695.46	1085.00
695.80	1083.90
696.14	1083.43
696.48	1086.43
696.81	1084.60
697.15	1081.73
697.49	1080.39
697.82	1079.57
698.16	1074.87
698.50	1078.10
698.83	1078.00
699.17	1080.39
699.51	1082.66
699.84	1084.28
700.18	1083.86
700.52	1081.07
700.85	1079.48
701.19	1079.34
701.53	1079.88
701.86	1078.96
702.20	1081.12
702.54	1084.51
702.87	1084.51
703.21	1085.49
703.55	1084.07
703.88	1083.97
704.22	1080.44
704.55	1077.75
704.89	1074.47
705.23	1078.38
705.56	1078.66
705.90	1078.12
706.23	1080.13
706.57	1084.65
706.91	1080.74
707.24	1082.76
707.58	1085.40
707.91	1087.46
708.25	1085.28
708.58	1087.32
708.92	1086.24
709.26	1086.57
709.59	1086.45
709.93	1087.13
710.26	1085.38
710.60	1086.24
710.93	1085.03
711.27	1084.44
711.60	1084.49
711.94	1083.32
712.27	1079.53
712.61	1080.34
712.94	1080.23
713.28	1079.15
713.61	1082.29
713.95	1083.46
714.28	1081.00
714.62	1080.77
714.95	1082.40
715.29	1080.20
715.62	1080.20
715.96	1082.57
716.29	1082.38
716.63	1081.63
716.96	1081.40
717.29	1081.40
717.63	1083.83
717.96	1082.31
718.30	1080.91
718.63	1083.90
718.97	1084.16
719.30	1077.16
719.63	1077.07
719.97	1077.82
720.30	1079.31
720.64	1078.89
720.97	1078.80
721.30	1079.03
721.64	1080.34
721.97	1081.63
722.31	1083.53
722.64	1086.59
722.97	1085.77
723.31	1083.76
723.64	1078.75
723.97	1078.43
724.31	1079.08
724.64	1083.67
724.98	1085.31
725.31	1085.33
725.64	1083.57
725.98	1083.57
726.31	1082.52
726.64	1081.42
726.97	1080.11
727.31	1084.09
727.64	1082.69
727.97	1078.28
728.31	1076.08
728.64	1074.87
728.97	1072.32
729.31	1072.41
729.64	1073.88
729.97	1075.52
730.30	1080.79
730.64	1079.74
730.97	1083.27
731.30	1084.07
731.63	1085.49
731.97	1083.39
732.30	1081.47
732.63	1080.16
732.96	1082.57
733.30	1081.00
733.63	1078.87
733.96	1082.73
734.29	1080.88
734.63	1076.39
734.96	1077.70
735.29	1080.70
735.62	1078.26
735.95	1077.72
736.29	1081.05
736.62	1080.56
736.95	1080.16
737.28	1081.26
737.61	1085.35
737.94	1083.15
738.28	1080.93
738.61	1081.19
738.94	1082.47
739.27	1081.35
739.60	1082.76
739.93	1084.00
740.27	1084.09
740.60	1083.08
740.93	1080.32
741.26	1081.23
741.59	1082.57
741.92	1081.75
742.25	1082.29
742.58	1083.86
742.91	1085.28
743.25	1087.46
743.58	1086.45
743.91	1083.11
744.24	1081.61
744.57	1076.86
744.90	1071.38
745.23	1070.94
745.56	1074.10
745.89	1075.76
746.22	1077.68
746.55	1080.02
746.88	1079.34
747.21	1078.12
747.54	1077.58
747.87	1079.95
748.20	1081.73
748.53	1087.90
748.87	1088.89
749.20	1087.88
749.53	1085.31
749.86	1087.18
750.19	1084.09
750.52	1085.73
750.85	1084.00
751.18	1085.21
751.51	1081.73
751.84	1079.55
752.16	1074.70
752.49	1078.61
752.82	1073.88
753.15	1074.17
753.48	1073.72
753.81	1077.72
754.14	1074.75
754.47	1077.93
754.80	1079.10
755.13	1083.41
755.46	1081.80
755.79	1084.11
756.12	1083.55
756.45	1082.90
756.78	1080.65
757.11	1082.85
757.43	1083.81
757.76	1082.59
758.09	1080.13
758.42	1081.94
758.75	1081.87
759.08	1080.44
759.41	1084.16
759.74	1085.33
760.07	1081.68
760.39	1078.38
760.72	1075.94
761.05	1074.35
761.38	1076.04
761.71	1074.68
762.04	1080.34
762.36	1081.09
762.69	1081.19
763.02	1080.51
763.35	1083.53
763.68	1078.82
