SpectraSuite Data File
++++++++++++++++++++++++++++++++++++
Date: Mon Aug 26 10:22:12 PDT 2019
User: corrico
Dark Spectrum Present: No
Reference Spectrum Present: No
Number of Sampled Component Spectra: 1
Spectrometers: USB2+H06089
Integration Time (usec): 2000 (USB2+H06089)
Spectra Averaged: 20 (USB2+H06089)
Boxcar Smoothing: 2 (USB2+H06089)
Correct for Electrical Dark: No (USB2+H06089)
Strobe/Lamp Enabled: No (USB2+H06089)
Correct for Detector Non-linearity: No (USB2+H06089)
Correct for Stray Light: No (USB2+H06089)
Number of Pixels in Processed Spectrum: 2048
>>>>>Begin Processed Spectral Data<<<<<
339.70	1021.64
340.07	1021.64
340.45	994.42
340.82	973.22
341.19	949.79
341.57	924.93
341.94	910.42
342.31	901.71
342.69	898.74
343.06	896.03
343.43	896.00
343.81	897.03
344.18	900.19
344.55	904.17
344.93	911.80
345.30	918.31
345.67	926.06
346.04	935.44
346.42	944.24
346.79	951.47
347.16	959.55
347.54	966.62
347.91	974.18
348.28	984.01
348.65	992.62
349.03	998.78
349.40	1009.03
349.77	1018.13
350.14	1022.86
350.52	1030.89
350.89	1040.56
351.26	1049.57
351.63	1053.66
352.01	1059.72
352.38	1064.55
352.75	1068.31
353.12	1068.03
353.50	1070.30
353.87	1073.16
354.24	1073.39
354.61	1076.23
354.98	1075.41
355.36	1080.18
355.73	1077.54
356.10	1077.37
356.47	1079.24
356.84	1082.59
357.22	1080.86
357.59	1084.70
357.96	1086.69
358.33	1084.77
358.70	1084.84
359.08	1084.49
359.45	1082.83
359.82	1083.32
360.19	1084.39
360.56	1084.58
360.94	1082.78
361.31	1084.63
361.68	1085.63
362.05	1082.43
362.42	1079.74
362.79	1081.40
363.16	1080.67
363.54	1079.46
363.91	1078.61
364.28	1080.74
364.65	1083.04
365.02	1082.87
365.39	1080.63
365.76	1082.24
366.14	1079.81
366.51	1075.59
366.88	1071.43
367.25	1073.18
367.62	1073.37
367.99	1075.31
368.36	1079.43
368.73	1081.73
369.10	1077.91
369.48	1076.81
369.85	1076.58
370.22	1074.17
370.59	1074.45
370.96	1077.51
371.33	1075.45
371.70	1076.97
372.07	1076.25
372.44	1073.67
372.81	1075.03
373.18	1078.03
373.55	1073.39
373.93	1075.57
374.30	1078.52
374.67	1078.45
375.04	1079.81
375.41	1081.96
375.78	1079.43
376.15	1076.08
376.52	1074.05
376.89	1073.14
377.26	1073.49
377.63	1073.28
378.00	1075.83
378.37	1078.24
378.74	1076.97
379.11	1077.44
379.48	1076.53
379.85	1078.00
380.22	1076.88
380.59	1081.05
380.96	1080.13
381.33	1081.56
381.70	1082.17
382.07	1082.26
382.44	1077.72
382.81	1078.50
383.18	1078.52
383.55	1079.62
383.92	1079.36
384.29	1079.85
384.66	1081.21
385.03	1084.49
385.40	1083.79
385.77	1083.36
386.14	1083.36
386.51	1081.61
386.88	1081.09
387.25	1080.63
387.62	1082.61
387.99	1082.54
388.36	1082.15
388.73	1080.65
389.10	1082.10
389.46	1081.58
389.83	1083.43
390.20	1084.53
390.57	1084.21
390.94	1081.94
391.31	1083.46
391.68	1084.93
392.05	1082.90
392.42	1082.10
392.79	1084.60
393.16	1081.21
393.53	1077.91
393.89	1082.50
394.26	1082.31
394.63	1081.42
395.00	1085.96
395.37	1086.50
395.74	1086.27
396.11	1088.72
396.48	1089.52
396.84	1086.20
397.21	1090.69
397.58	1088.72
397.95	1089.78
398.32	1091.18
398.69	1091.18
399.06	1087.11
399.42	1091.72
399.79	1088.00
400.16	1088.37
400.53	1087.76
400.90	1088.37
401.27	1084.70
401.64	1088.51
402.00	1084.70
402.37	1085.42
402.74	1089.12
403.11	1087.67
403.48	1086.01
403.84	1088.49
404.21	1087.90
404.58	1085.91
404.95	1087.79
405.32	1089.22
405.68	1089.50
406.05	1095.16
406.42	1095.77
406.79	1098.37
407.16	1101.25
407.52	1101.88
407.89	1101.43
408.26	1104.80
408.63	1103.91
408.99	1103.52
409.36	1102.02
409.73	1100.68
410.10	1099.44
410.47	1098.67
410.83	1098.09
411.20	1098.02
411.57	1097.97
411.94	1096.87
412.30	1095.63
412.67	1093.66
413.04	1097.88
413.40	1097.95
413.77	1097.64
414.14	1098.16
414.51	1101.22
414.87	1099.37
415.24	1099.05
415.61	1100.82
415.97	1100.24
416.34	1099.86
416.71	1101.34
417.08	1102.60
417.44	1100.66
417.81	1104.94
418.18	1102.63
418.54	1104.41
418.91	1108.76
419.28	1112.48
419.64	1114.94
420.01	1119.43
420.38	1117.25
420.74	1117.56
421.11	1123.34
421.48	1127.27
421.84	1127.86
422.21	1131.44
422.58	1133.26
422.94	1134.36
423.31	1134.81
423.68	1140.07
424.04	1145.36
424.41	1148.66
424.77	1149.41
425.14	1153.98
425.51	1155.73
425.87	1158.26
426.24	1163.11
426.61	1169.68
426.97	1174.43
427.34	1180.45
427.70	1187.24
428.07	1197.51
428.44	1208.82
428.80	1217.34
429.17	1229.51
429.53	1240.25
429.90	1249.52
430.27	1260.07
430.63	1271.89
431.00	1284.91
431.36	1299.82
431.73	1313.60
432.09	1327.55
432.46	1346.30
432.83	1367.25
433.19	1383.19
433.56	1403.46
433.92	1431.24
434.29	1460.24
434.65	1484.72
435.02	1519.62
435.38	1554.02
435.75	1580.89
436.11	1617.29
436.48	1660.98
436.84	1703.86
437.21	1749.60
437.57	1798.65
437.94	1847.76
438.30	1899.63
438.67	1953.76
439.03	2013.16
439.40	2080.92
439.76	2152.10
440.13	2231.21
440.49	2316.80
440.86	2402.14
441.22	2491.69
441.59	2580.53
441.95	2678.95
442.32	2779.55
442.68	2893.16
443.05	3012.74
443.41	3141.82
443.78	3272.33
444.14	3415.33
444.51	3553.03
444.87	3716.79
445.24	3880.40
445.60	4063.33
445.96	4242.83
446.33	4453.24
446.69	4651.84
447.06	4864.03
447.42	5082.52
447.79	5314.37
448.15	5577.68
448.51	5851.69
448.88	6173.94
449.24	6475.75
449.61	6825.89
449.97	7175.99
450.33	7546.71
450.70	7903.08
451.06	8323.97
451.43	8725.42
451.79	9184.92
452.15	9680.64
452.52	10209.84
452.88	10759.02
453.24	11384.16
453.61	12082.43
453.97	12780.92
454.34	13471.09
454.70	14293.63
455.06	15086.86
455.43	15831.50
455.79	16499.42
456.15	17313.20
456.52	18052.15
456.88	18962.69
457.24	19857.20
457.61	20989.03
457.97	22052.20
458.33	23151.17
458.70	24202.40
459.06	25200.08
459.42	26210.84
459.79	27099.96
460.15	28114.54
460.51	29080.03
460.88	30186.71
461.24	31144.67
461.60	32303.37
461.96	33327.68
462.33	34348.51
462.69	35334.15
463.05	36440.83
463.42	37432.96
463.78	38368.28
464.14	39127.58
464.50	39889.28
464.87	40430.67
465.23	40784.61
465.59	41196.38
465.95	41530.68
466.32	41759.25
466.68	41997.38
467.04	42145.93
467.40	42165.78
467.77	42286.53
468.13	42197.40
468.49	42027.92
468.85	41918.85
469.22	41769.01
469.58	41492.36
469.94	41339.34
470.30	41110.20
470.66	40746.55
471.03	40261.97
471.39	39896.44
471.75	39195.64
472.11	38497.06
472.47	37996.84
472.84	37470.57
473.20	36759.54
473.56	36362.42
473.92	35797.37
474.28	35149.95
474.65	34494.75
475.01	33813.53
475.37	32988.10
475.73	32315.21
476.09	31633.07
476.45	30992.67
476.81	30453.51
477.18	29915.81
477.54	29451.03
477.90	29024.16
478.26	28467.12
478.62	27941.55
478.98	27506.09
479.34	27052.89
479.71	26484.68
480.07	26055.90
480.43	25612.41
480.79	25149.03
481.15	24697.80
481.51	24350.47
481.87	24044.98
482.23	23704.74
482.59	23371.07
482.96	23033.80
483.32	22700.39
483.68	22286.91
484.04	21925.83
484.40	21516.52
484.76	21109.62
485.12	20663.84
485.48	20237.11
485.84	19744.90
486.20	19312.25
486.56	18864.20
486.92	18489.11
487.28	18090.61
487.64	17701.75
488.00	17317.04
488.37	16941.85
488.73	16518.99
489.09	16072.20
489.45	15658.42
489.81	15212.12
490.17	14779.99
490.53	14372.76
490.89	13974.38
491.25	13563.03
491.61	13180.38
491.97	12786.56
492.33	12383.33
492.69	12029.07
493.05	11691.89
493.41	11363.37
493.77	11041.66
494.13	10747.86
494.49	10453.35
494.85	10166.73
495.21	9895.86
495.57	9631.84
495.93	9364.34
496.29	9117.37
496.64	8904.36
497.00	8655.89
497.36	8419.14
497.72	8178.42
498.08	7949.86
498.44	7716.14
498.80	7510.69
499.16	7310.97
499.52	7114.39
499.88	6938.85
500.24	6773.07
500.60	6610.84
500.96	6457.35
501.32	6308.54
501.68	6141.78
502.03	5963.43
502.39	5801.86
502.75	5629.27
503.11	5476.64
503.47	5336.26
503.83	5205.73
504.19	5071.75
504.55	4957.02
504.91	4843.97
505.26	4724.39
505.62	4605.66
505.98	4498.65
506.34	4376.87
506.70	4254.60
507.06	4145.07
507.42	4051.98
507.78	3957.66
508.13	3866.89
508.49	3798.31
508.85	3727.05
509.21	3641.59
509.57	3556.05
509.93	3474.34
510.28	3377.35
510.64	3292.85
511.00	3213.16
511.36	3141.70
511.72	3080.43
512.07	3022.03
512.43	2961.01
512.79	2905.03
513.15	2844.01
513.51	2789.15
513.86	2729.70
514.22	2681.06
514.58	2629.24
514.94	2578.24
515.30	2530.14
515.65	2488.06
516.01	2446.07
516.37	2403.22
516.73	2367.43
517.08	2327.34
517.44	2284.53
517.80	2238.98
518.16	2204.46
518.51	2170.40
518.87	2135.36
519.23	2109.50
519.59	2084.93
519.94	2057.14
520.30	2027.47
520.66	1997.32
521.01	1961.93
521.37	1934.13
521.73	1904.66
522.09	1877.34
522.44	1857.31
522.80	1838.12
523.16	1814.78
523.51	1793.81
523.87	1772.18
524.23	1752.17
524.58	1734.90
524.94	1710.25
525.30	1692.75
525.65	1674.02
526.01	1654.13
526.37	1634.14
526.72	1625.53
527.08	1609.96
527.44	1593.69
527.79	1576.89
528.15	1561.84
528.51	1542.58
528.86	1527.90
529.22	1518.12
529.58	1504.24
529.93	1490.13
530.29	1479.62
530.65	1464.59
531.00	1450.83
531.36	1441.00
531.71	1432.27
532.07	1419.11
532.43	1406.73
532.78	1393.81
533.14	1383.89
533.49	1371.74
533.85	1363.06
534.21	1354.47
534.56	1347.77
534.92	1338.60
535.27	1331.16
535.63	1323.18
535.98	1315.78
536.34	1308.69
536.69	1304.12
537.05	1299.00
537.41	1292.72
537.76	1288.14
538.12	1281.86
538.47	1273.70
538.83	1267.49
539.18	1258.51
539.54	1254.43
539.89	1249.05
540.25	1244.06
540.60	1241.30
540.96	1240.86
541.31	1235.87
541.67	1231.00
542.02	1227.35
542.38	1223.84
542.73	1223.70
543.09	1219.16
543.44	1219.26
543.80	1217.83
544.15	1217.99
544.51	1212.35
544.86	1212.98
545.22	1209.61
545.57	1207.01
545.93	1198.92
546.28	1194.54
546.64	1187.38
546.99	1181.71
547.35	1177.80
547.70	1178.58
548.05	1177.55
548.41	1176.99
548.76	1173.99
549.12	1170.50
549.47	1168.82
549.83	1168.63
550.18	1164.42
550.53	1164.60
550.89	1165.61
551.24	1158.94
551.60	1156.46
551.95	1157.70
552.30	1156.13
552.66	1151.45
553.01	1149.13
553.37	1146.93
553.72	1143.98
554.07	1139.77
554.43	1137.66
554.78	1137.45
555.13	1135.37
555.49	1133.01
555.84	1132.42
556.19	1131.65
556.55	1132.94
556.90	1128.49
557.26	1128.56
557.61	1129.87
557.96	1128.96
558.32	1124.16
558.67	1123.71
559.02	1122.03
559.37	1119.64
559.73	1119.29
560.08	1119.97
560.43	1117.96
560.79	1114.75
561.14	1114.00
561.49	1112.27
561.85	1113.35
562.20	1117.51
562.55	1118.75
562.90	1117.51
563.26	1116.76
563.61	1113.51
563.96	1111.22
564.32	1110.98
564.67	1112.15
565.02	1114.07
565.37	1113.53
565.73	1114.59
566.08	1115.76
566.43	1114.33
566.78	1110.02
567.14	1108.66
567.49	1104.85
567.84	1101.13
568.19	1101.62
568.54	1100.71
568.90	1099.56
569.25	1097.80
569.60	1101.29
569.95	1100.15
570.31	1103.07
570.66	1102.88
571.01	1106.04
571.36	1104.45
571.71	1104.64
572.06	1103.26
572.42	1103.89
572.77	1104.05
573.12	1105.36
573.47	1105.13
573.82	1107.78
574.18	1107.54
574.53	1102.77
574.88	1099.07
575.23	1097.22
575.58	1090.90
575.93	1090.95
576.28	1091.27
576.64	1093.10
576.99	1092.80
577.34	1094.93
577.69	1095.67
578.04	1097.17
578.39	1094.74
578.74	1097.29
579.09	1097.66
579.44	1098.72
579.80	1097.73
580.15	1101.69
580.50	1098.27
580.85	1095.96
581.20	1092.19
581.55	1094.20
581.90	1091.23
582.25	1089.57
582.60	1092.33
582.95	1091.39
583.30	1090.46
583.65	1088.00
584.00	1090.01
584.35	1089.54
584.71	1092.40
585.06	1091.34
585.41	1090.62
585.76	1089.33
586.11	1086.80
586.46	1083.53
586.81	1083.57
587.16	1086.29
587.51	1089.80
587.86	1091.46
588.21	1093.78
588.56	1094.72
588.91	1096.92
589.26	1094.22
589.61	1092.35
589.96	1094.62
590.31	1093.90
590.66	1088.42
591.01	1090.39
591.36	1091.23
591.71	1090.74
592.06	1092.45
592.41	1093.62
592.76	1091.86
593.10	1092.75
593.45	1090.36
593.80	1086.20
594.15	1085.63
594.50	1084.63
594.85	1084.93
595.20	1085.80
595.55	1088.65
595.90	1091.02
596.25	1089.22
596.60	1085.63
596.95	1083.71
597.30	1083.79
597.64	1093.08
597.99	1095.70
598.34	1097.55
598.69	1096.63
599.04	1097.64
599.39	1085.89
599.74	1084.63
600.09	1085.00
600.44	1088.09
600.78	1081.12
601.13	1082.66
601.48	1085.21
601.83	1085.45
602.18	1083.06
602.53	1087.41
602.88	1085.54
603.22	1084.32
603.57	1082.94
603.92	1084.51
604.27	1086.08
604.62	1085.70
604.97	1085.33
605.31	1086.06
605.66	1084.56
606.01	1082.33
606.36	1084.51
606.71	1084.32
607.05	1084.81
607.40	1086.52
607.75	1085.14
608.10	1082.94
608.44	1081.19
608.79	1078.73
609.14	1079.92
609.49	1085.33
609.84	1087.18
610.18	1089.52
610.53	1093.50
610.88	1090.39
611.23	1087.30
611.57	1088.07
611.92	1084.32
612.27	1081.02
612.62	1083.06
612.96	1083.34
613.31	1082.71
613.66	1083.08
614.00	1088.56
614.35	1088.44
614.70	1084.86
615.05	1087.55
615.39	1087.97
615.74	1084.21
616.09	1085.28
616.43	1090.64
616.78	1084.98
617.13	1084.42
617.47	1086.36
617.82	1085.28
618.17	1081.12
618.51	1083.36
618.86	1083.53
619.21	1081.07
619.55	1082.47
619.90	1082.26
620.25	1082.76
620.59	1086.31
620.94	1085.96
621.29	1082.80
621.63	1086.10
621.98	1087.72
622.32	1085.61
622.67	1086.22
623.02	1087.86
623.36	1084.93
623.71	1081.02
624.05	1080.88
624.40	1077.93
624.75	1075.13
625.09	1077.84
625.44	1078.26
625.78	1079.13
626.13	1082.90
626.48	1086.45
626.82	1087.23
627.17	1089.75
627.51	1090.92
627.86	1088.37
628.20	1089.12
628.55	1087.81
628.89	1087.13
629.24	1084.89
629.58	1087.44
629.93	1086.29
630.28	1085.14
630.62	1083.90
630.97	1085.14
631.31	1084.70
631.66	1081.47
632.00	1082.24
632.35	1081.02
632.69	1078.57
633.04	1076.48
633.38	1078.33
633.73	1080.11
634.07	1082.19
634.42	1085.10
634.76	1085.21
635.11	1085.96
635.45	1080.32
635.79	1080.48
636.14	1079.15
636.48	1079.10
636.83	1077.16
637.17	1079.85
637.52	1080.44
637.86	1080.74
638.21	1083.69
638.55	1083.97
638.89	1084.09
639.24	1085.61
639.58	1087.37
639.93	1085.73
640.27	1084.63
640.61	1084.81
640.96	1084.93
641.30	1084.63
641.65	1085.75
641.99	1087.30
642.33	1087.53
642.68	1084.51
643.02	1083.79
643.37	1079.97
643.71	1080.39
644.05	1080.81
644.40	1080.93
644.74	1082.12
645.08	1086.36
645.43	1087.04
645.77	1085.56
646.11	1086.41
646.46	1083.41
646.80	1081.35
647.14	1077.16
647.49	1078.40
647.83	1076.23
648.17	1077.75
648.52	1077.37
648.86	1078.85
649.20	1078.28
649.55	1079.46
649.89	1079.76
650.23	1077.82
650.57	1081.40
650.92	1080.06
651.26	1079.10
651.60	1076.62
651.95	1077.18
652.29	1078.05
652.63	1081.63
652.97	1079.06
653.32	1081.12
653.66	1083.74
654.00	1082.29
654.34	1079.97
654.69	1081.68
655.03	1083.04
655.37	1083.46
655.71	1082.29
656.05	1084.32
656.40	1087.53
656.74	1087.37
657.08	1087.02
657.42	1085.19
657.76	1084.46
658.11	1080.37
658.45	1078.47
658.79	1078.19
659.13	1077.89
659.47	1077.42
659.82	1079.71
660.16	1080.39
660.50	1077.16
660.84	1079.29
661.18	1081.40
661.52	1079.38
661.87	1078.38
662.21	1082.64
662.55	1082.71
662.89	1077.02
663.23	1077.61
663.57	1080.48
663.91	1079.97
664.25	1079.08
664.60	1084.00
664.94	1088.49
665.28	1084.84
665.62	1080.60
665.96	1083.15
666.30	1079.69
666.64	1076.58
666.98	1076.53
667.32	1080.79
667.66	1079.97
668.01	1083.34
668.35	1085.66
668.69	1089.03
669.03	1086.24
669.37	1088.51
669.71	1085.63
670.05	1085.19
670.39	1082.78
670.73	1086.55
671.07	1084.98
671.41	1085.26
671.75	1087.37
672.09	1086.92
672.43	1082.40
672.77	1081.16
673.11	1082.47
673.45	1077.68
673.79	1078.66
674.13	1081.75
674.47	1083.06
674.81	1084.49
675.15	1084.72
675.49	1084.28
675.83	1082.78
676.17	1081.16
676.51	1080.32
676.85	1081.54
677.19	1082.47
677.53	1083.53
677.87	1082.99
678.21	1084.02
678.55	1083.97
678.89	1084.81
679.23	1084.63
679.57	1084.81
679.90	1083.08
680.24	1085.12
680.58	1082.47
680.92	1083.13
681.26	1083.48
681.60	1083.41
681.94	1082.78
682.28	1084.07
682.62	1085.94
682.96	1085.10
683.29	1082.19
683.63	1082.01
683.97	1080.06
684.31	1076.08
684.65	1076.48
684.99	1076.83
685.33	1075.13
685.67	1076.81
686.00	1077.23
686.34	1077.86
686.68	1079.81
687.02	1079.36
687.36	1078.21
687.70	1077.79
688.03	1078.12
688.37	1077.58
688.71	1079.34
689.05	1081.07
689.39	1082.15
689.72	1078.80
690.06	1078.66
690.40	1074.52
690.74	1077.14
691.08	1075.17
691.41	1076.88
691.75	1077.91
692.09	1079.20
692.43	1075.94
692.76	1079.13
693.10	1079.62
693.44	1078.99
693.78	1082.26
694.11	1082.17
694.45	1080.93
694.79	1081.82
695.13	1083.22
695.46	1084.42
695.80	1081.26
696.14	1081.89
696.48	1081.07
696.81	1081.19
697.15	1075.80
697.49	1081.98
697.82	1081.40
698.16	1082.01
698.50	1080.41
698.83	1084.58
699.17	1082.40
699.51	1081.16
699.84	1081.73
700.18	1082.36
700.52	1077.84
700.85	1075.36
701.19	1075.92
701.53	1073.88
701.86	1071.47
702.20	1071.01
702.54	1074.63
702.87	1072.62
703.21	1072.55
703.55	1073.98
703.88	1077.16
704.22	1073.09
704.55	1075.71
704.89	1077.16
705.23	1079.03
705.56	1076.69
705.90	1078.24
706.23	1077.93
706.57	1078.57
706.91	1076.62
707.24	1080.30
707.58	1079.55
707.91	1081.40
708.25	1082.12
708.58	1085.56
708.92	1083.04
709.26	1081.56
709.59	1081.42
709.93	1078.12
710.26	1073.74
710.60	1076.83
710.93	1080.02
711.27	1076.93
711.60	1076.48
711.94	1076.32
712.27	1073.88
712.61	1072.11
712.94	1073.79
713.28	1076.62
713.61	1078.54
713.95	1079.13
714.28	1080.02
714.62	1079.92
714.95	1077.91
715.29	1078.73
715.62	1079.13
715.96	1078.99
716.29	1079.20
716.63	1080.32
716.96	1079.76
717.29	1079.76
717.63	1081.63
717.96	1082.54
718.30	1084.56
718.63	1085.61
718.97	1085.38
719.30	1083.22
719.63	1082.52
719.97	1080.09
720.30	1078.82
720.64	1078.96
720.97	1080.58
721.30	1079.95
721.64	1080.60
721.97	1078.68
722.31	1078.45
722.64	1079.48
722.97	1078.26
723.31	1075.66
723.64	1074.12
723.97	1076.32
724.31	1074.45
724.64	1076.88
724.98	1078.68
725.31	1083.27
725.64	1081.87
725.98	1083.67
726.31	1086.52
726.64	1083.67
726.97	1082.47
727.31	1080.11
727.64	1078.52
727.97	1071.08
728.31	1076.34
728.64	1077.82
728.97	1080.20
729.31	1080.34
729.64	1083.86
729.97	1081.54
730.30	1080.91
730.64	1080.60
730.97	1081.05
731.30	1083.71
731.63	1082.10
731.97	1080.72
732.30	1080.18
732.63	1079.31
732.96	1077.02
733.30	1080.25
733.63	1082.01
733.96	1080.34
734.29	1082.22
734.63	1082.87
734.96	1079.97
735.29	1078.40
735.62	1080.81
735.95	1075.99
736.29	1077.72
736.62	1077.89
736.95	1081.96
737.28	1079.22
737.61	1083.64
737.94	1077.33
738.28	1077.93
738.61	1071.90
738.94	1070.00
739.27	1068.85
739.60	1072.04
739.93	1077.89
740.27	1082.19
740.60	1085.94
740.93	1087.23
741.26	1088.30
741.59	1083.48
741.92	1080.27
742.25	1084.37
742.58	1084.16
742.91	1084.37
743.25	1083.64
743.58	1083.34
743.91	1076.95
744.24	1075.08
744.57	1071.80
744.90	1072.11
745.23	1075.34
745.56	1080.37
745.89	1080.58
746.22	1084.91
746.55	1084.32
746.88	1081.80
747.21	1079.60
747.54	1081.68
747.87	1081.82
748.20	1083.18
748.53	1083.74
748.87	1084.18
749.20	1083.06
749.53	1084.32
749.86	1082.03
750.19	1078.71
750.52	1078.07
750.85	1075.55
751.18	1072.95
751.51	1075.01
751.84	1077.44
752.16	1077.33
752.49	1079.64
752.82	1078.68
753.15	1077.98
753.48	1080.11
753.81	1076.76
754.14	1074.89
754.47	1074.00
754.80	1072.76
755.13	1070.23
755.46	1074.14
755.79	1075.59
756.12	1076.30
756.45	1076.83
756.78	1077.23
757.11	1077.37
757.43	1073.72
757.76	1073.63
758.09	1074.91
758.42	1074.70
758.75	1075.80
759.08	1078.14
759.41	1079.24
759.74	1079.78
760.07	1079.55
760.39	1076.74
760.72	1077.68
761.05	1075.62
761.38	1075.78
761.71	1075.80
762.04	1077.33
762.36	1075.59
762.69	1076.81
763.02	1075.03
763.35	1077.35
763.68	1077.56
764.01	1080.70
