SpectraSuite Data File
++++++++++++++++++++++++++++++++++++
Date: Mon Aug 26 10:22:20 PDT 2019
User: corrico
Dark Spectrum Present: No
Reference Spectrum Present: No
Number of Sampled Component Spectra: 1
Spectrometers: USB2+H06089
Integration Time (usec): 2000 (USB2+H06089)
Spectra Averaged: 20 (USB2+H06089)
Boxcar Smoothing: 2 (USB2+H06089)
Correct for Electrical Dark: No (USB2+H06089)
Strobe/Lamp Enabled: No (USB2+H06089)
Correct for Detector Non-linearity: No (USB2+H06089)
Correct for Stray Light: No (USB2+H06089)
Number of Pixels in Processed Spectrum: 2048
>>>>>Begin Processed Spectral Data<<<<<
339.70	1045.40
340.07	1045.40
340.45	999.13
340.82	974.25
341.19	948.10
341.57	922.12
341.94	915.20
342.31	908.48
342.69	902.91
343.06	899.94
343.43	896.24
343.81	896.43
344.18	898.93
344.55	904.45
344.93	909.02
345.30	913.58
345.67	919.13
346.04	925.99
346.42	930.41
346.79	937.60
347.16	947.33
347.54	959.32
347.91	972.09
348.28	982.91
348.65	993.56
349.03	1003.25
349.40	1011.46
349.77	1016.26
350.14	1025.58
350.52	1029.37
350.89	1036.86
351.26	1042.59
351.63	1049.75
352.01	1052.47
352.38	1060.96
352.75	1064.12
353.12	1068.24
353.50	1070.94
353.87	1075.15
354.24	1075.87
354.61	1077.42
354.98	1079.13
355.36	1079.31
355.73	1077.89
356.10	1078.64
356.47	1078.31
356.84	1079.55
357.22	1084.23
357.59	1085.54
357.96	1088.75
358.33	1090.97
358.70	1090.06
359.08	1087.65
359.45	1087.81
359.82	1085.63
360.19	1085.00
360.56	1085.49
360.94	1080.88
361.31	1080.63
361.68	1079.69
362.05	1079.62
362.42	1079.10
362.79	1081.58
363.16	1082.76
363.54	1080.48
363.91	1080.18
364.28	1076.95
364.65	1076.79
365.02	1077.58
365.39	1078.36
365.76	1076.15
366.14	1078.92
366.51	1075.38
366.88	1072.46
367.25	1074.28
367.62	1074.12
367.99	1071.97
368.36	1075.92
368.73	1075.17
369.10	1071.85
369.48	1071.54
369.85	1070.82
370.22	1069.16
370.59	1069.37
370.96	1072.06
371.33	1073.88
371.70	1074.21
372.07	1072.90
372.44	1070.91
372.81	1069.93
373.18	1069.95
373.55	1070.21
373.93	1074.05
374.30	1076.30
374.67	1075.69
375.04	1075.34
375.41	1074.91
375.78	1072.34
376.15	1074.10
376.52	1073.25
376.89	1071.92
377.26	1072.97
377.63	1072.92
378.00	1073.53
378.37	1076.06
378.74	1077.47
379.11	1077.14
379.48	1079.36
379.85	1078.99
380.22	1079.67
380.59	1082.73
380.96	1084.07
381.33	1081.12
381.70	1080.20
382.07	1082.05
382.44	1078.92
382.81	1080.25
383.18	1085.68
383.55	1085.96
383.92	1082.17
384.29	1084.67
384.66	1084.25
385.03	1078.94
385.40	1080.09
385.77	1082.69
386.14	1080.70
386.51	1080.91
386.88	1083.13
387.25	1084.32
387.62	1084.28
387.99	1081.02
388.36	1077.44
388.73	1078.47
389.10	1075.87
389.46	1075.03
389.83	1081.40
390.20	1081.91
390.57	1078.57
390.94	1078.14
391.31	1076.74
391.68	1075.85
392.05	1077.14
392.42	1078.99
392.79	1080.95
393.16	1082.76
393.53	1079.08
393.89	1081.80
394.26	1082.83
394.63	1081.73
395.00	1081.51
395.37	1088.68
395.74	1085.77
396.11	1087.02
396.48	1086.83
396.84	1087.06
397.21	1085.45
397.58	1085.21
397.95	1085.61
398.32	1086.24
398.69	1085.91
399.06	1081.68
399.42	1084.09
399.79	1084.46
400.16	1088.75
400.53	1091.20
400.90	1094.46
401.27	1094.04
401.64	1090.39
402.00	1090.08
402.37	1089.68
402.74	1090.90
403.11	1094.48
403.48	1099.14
403.84	1099.79
404.21	1103.49
404.58	1103.00
404.95	1101.83
405.32	1099.68
405.68	1099.98
406.05	1092.91
406.42	1089.85
406.79	1091.60
407.16	1092.61
407.52	1088.28
407.89	1092.40
408.26	1091.79
408.63	1089.43
408.99	1089.29
409.36	1094.86
409.73	1094.15
410.10	1097.41
410.47	1096.40
410.83	1096.07
411.20	1092.35
411.57	1092.23
411.94	1092.68
412.30	1095.18
412.67	1097.29
413.04	1099.61
413.40	1099.21
413.77	1097.34
414.14	1093.59
414.51	1092.19
414.87	1091.16
415.24	1093.59
415.61	1095.53
415.97	1100.03
416.34	1101.83
416.71	1104.31
417.08	1105.44
417.44	1108.78
417.81	1109.11
418.18	1108.13
418.54	1106.89
418.91	1108.52
419.28	1106.56
419.64	1110.26
420.01	1112.78
420.38	1114.28
420.74	1114.98
421.11	1118.07
421.48	1118.73
421.84	1122.12
422.21	1120.46
422.58	1118.24
422.94	1120.30
423.31	1121.07
423.68	1123.13
424.04	1131.30
424.41	1138.51
424.77	1140.85
425.14	1143.26
425.51	1144.80
425.87	1147.26
426.24	1152.15
426.61	1159.36
426.97	1167.04
427.34	1175.67
427.70	1181.62
428.07	1185.74
428.44	1192.95
428.80	1199.66
429.17	1207.15
429.53	1217.85
429.90	1229.93
430.27	1237.68
430.63	1246.69
431.00	1257.31
431.36	1266.04
431.73	1275.76
432.09	1288.61
432.46	1301.06
432.83	1314.30
433.19	1332.77
433.56	1351.73
433.92	1370.76
434.29	1392.10
434.65	1416.68
435.02	1437.23
435.38	1461.48
435.75	1486.76
436.11	1520.41
436.48	1554.47
436.84	1587.21
437.21	1626.95
437.57	1667.56
437.94	1706.70
438.30	1748.47
438.67	1797.72
439.03	1842.89
439.40	1898.17
439.76	1952.76
440.13	2009.09
440.49	2072.03
440.86	2139.98
441.22	2207.27
441.59	2279.28
441.95	2357.81
442.32	2442.07
442.68	2539.06
443.05	2629.92
443.41	2727.78
443.78	2826.92
444.14	2929.67
444.51	3033.12
444.87	3171.99
445.24	3310.50
445.60	3459.85
445.96	3618.54
446.33	3788.51
446.69	3949.26
447.06	4125.52
447.42	4308.22
447.79	4497.36
448.15	4714.17
448.51	4938.16
448.88	5193.48
449.24	5440.83
449.61	5718.23
449.97	5989.71
450.33	6277.74
450.70	6541.19
451.06	6871.39
451.43	7174.75
451.79	7538.05
452.15	7928.94
452.52	8379.70
452.88	8843.81
453.24	9374.64
453.61	9945.10
453.97	10511.30
454.34	11044.31
454.70	11688.21
455.06	12327.27
455.43	12951.82
455.79	13543.86
456.15	14263.60
456.52	14904.39
456.88	15672.25
457.24	16391.17
457.61	17243.01
457.97	18005.41
458.33	18783.81
458.70	19535.63
459.06	20308.10
459.42	21146.37
459.79	21922.21
460.15	22808.66
460.51	23683.16
460.88	24600.81
461.24	25378.69
461.60	26351.83
461.96	27239.97
462.33	28075.38
462.69	28848.98
463.05	29712.63
463.42	30433.82
463.78	31066.87
464.14	31601.45
464.50	32212.37
464.87	32675.45
465.23	33020.86
465.59	33418.47
465.95	33769.30
466.32	34052.88
466.68	34306.19
467.04	34458.89
467.40	34575.84
467.77	34716.07
468.13	34684.42
468.49	34561.90
468.85	34496.10
469.22	34345.72
469.58	33986.61
469.94	33747.06
470.30	33476.03
470.66	33049.09
471.03	32470.06
471.39	32098.32
471.75	31464.13
472.11	30889.03
472.47	30557.43
472.84	30245.71
473.20	29767.64
473.56	29505.82
473.92	29077.86
474.28	28541.92
474.65	28052.68
475.01	27580.76
475.37	27023.59
475.73	26571.42
476.09	26080.52
476.45	25569.91
476.81	25079.80
477.18	24541.80
477.54	24077.61
477.90	23714.24
478.26	23272.32
478.62	22917.05
478.98	22622.19
479.34	22292.53
479.71	21847.59
480.07	21509.24
480.43	21129.65
480.79	20730.34
481.15	20369.38
481.51	20059.37
481.87	19800.60
482.23	19520.61
482.59	19275.88
482.96	18998.64
483.32	18721.92
483.68	18354.69
484.04	18013.21
484.40	17641.72
484.76	17271.63
485.12	16900.28
485.48	16567.18
485.84	16222.07
486.20	15866.87
486.56	15508.86
486.92	15198.97
487.28	14853.98
487.64	14497.82
488.00	14186.03
488.37	13861.33
488.73	13493.59
489.09	13140.59
489.45	12824.26
489.81	12499.47
490.17	12205.73
490.53	11928.82
490.89	11632.60
491.25	11331.87
491.61	11021.65
491.97	10698.80
492.33	10373.89
492.69	10078.63
493.05	9773.23
493.41	9483.24
493.77	9204.91
494.13	8952.32
494.49	8697.57
494.85	8460.50
495.21	8232.79
495.57	8022.98
495.93	7799.79
496.29	7597.73
496.64	7408.71
497.00	7214.75
497.36	7015.52
497.72	6825.82
498.08	6634.74
498.44	6449.25
498.80	6284.36
499.16	6118.37
499.52	5965.07
499.88	5839.12
500.24	5723.94
500.60	5592.52
500.96	5480.20
501.32	5365.80
501.68	5235.17
502.03	5102.74
502.39	4980.00
502.75	4849.08
503.11	4728.96
503.47	4618.44
503.83	4492.78
504.19	4370.69
504.55	4262.70
504.91	4159.55
505.26	4064.71
505.62	3982.54
505.98	3900.88
506.34	3809.39
506.70	3722.32
507.06	3626.24
507.42	3542.87
507.78	3463.64
508.13	3388.46
508.49	3306.55
508.85	3240.26
509.21	3166.63
509.57	3099.83
509.93	3032.30
510.28	2969.30
510.64	2907.90
511.00	2852.72
511.36	2794.48
511.72	2734.94
512.07	2686.16
512.43	2629.92
512.79	2570.98
513.15	2518.84
513.51	2472.33
513.86	2423.91
514.22	2380.91
514.58	2342.10
514.94	2304.44
515.30	2266.39
515.65	2230.25
516.01	2197.79
516.37	2166.03
516.73	2134.64
517.08	2109.48
517.44	2080.22
517.80	2053.28
518.16	2026.44
518.51	2000.76
518.87	1969.35
519.23	1943.07
519.59	1911.82
519.94	1891.86
520.30	1866.93
520.66	1844.23
521.01	1821.85
521.37	1804.18
521.73	1779.11
522.09	1758.49
522.44	1736.72
522.80	1718.51
523.16	1699.07
523.51	1675.66
523.87	1656.49
524.23	1640.95
524.58	1621.90
524.94	1601.96
525.30	1584.50
525.65	1565.56
526.01	1546.88
526.37	1531.18
526.72	1520.58
527.08	1509.65
527.44	1499.30
527.79	1488.81
528.15	1477.72
528.51	1460.80
528.86	1443.83
529.22	1429.32
529.58	1416.52
529.93	1402.80
530.29	1392.17
530.65	1385.62
531.00	1379.79
531.36	1372.96
531.71	1364.13
532.07	1354.82
532.43	1345.39
532.78	1336.82
533.14	1328.04
533.49	1323.83
533.85	1319.78
534.21	1312.57
534.56	1302.58
534.92	1297.48
535.27	1291.58
535.63	1290.31
535.98	1287.69
536.34	1286.85
536.69	1282.61
537.05	1271.89
537.41	1263.61
537.76	1255.79
538.12	1246.59
538.47	1240.11
538.83	1239.22
539.18	1233.09
539.54	1229.23
539.89	1227.89
540.25	1223.52
540.60	1215.21
540.96	1216.45
541.31	1211.86
541.67	1205.56
542.02	1202.54
542.38	1204.70
542.73	1196.62
543.09	1196.22
543.44	1194.82
543.80	1190.63
544.15	1187.17
544.51	1189.16
544.86	1185.76
545.22	1182.95
545.57	1181.50
545.93	1178.18
546.28	1174.25
546.64	1171.81
546.99	1167.62
547.35	1166.66
547.70	1162.45
548.05	1159.15
548.41	1158.21
548.76	1155.80
549.12	1152.97
549.47	1151.26
549.83	1148.43
550.18	1144.08
550.53	1142.70
550.89	1139.61
551.24	1137.76
551.60	1138.83
551.95	1137.97
552.30	1136.99
552.66	1135.46
553.01	1134.43
553.37	1130.69
553.72	1131.20
554.07	1130.71
554.43	1129.24
554.78	1131.20
555.13	1130.13
555.49	1126.78
555.84	1123.15
556.19	1124.81
556.55	1119.15
556.90	1118.14
557.26	1118.50
557.61	1120.79
557.96	1115.20
558.32	1117.25
558.67	1114.02
559.02	1113.09
559.37	1113.51
559.73	1115.85
560.08	1116.55
560.43	1119.55
560.79	1119.60
561.14	1118.61
561.49	1117.56
561.85	1116.81
562.20	1113.44
562.55	1111.97
562.90	1112.97
563.26	1112.20
563.61	1112.76
563.96	1111.50
564.32	1111.43
564.67	1105.06
565.02	1105.27
565.37	1103.14
565.73	1102.11
566.08	1098.74
566.43	1102.88
566.78	1100.31
567.14	1100.80
567.49	1102.91
567.84	1102.74
568.19	1098.16
568.54	1099.16
568.90	1099.02
569.25	1097.90
569.60	1096.80
569.95	1099.63
570.31	1098.83
570.66	1097.78
571.01	1098.13
571.36	1100.59
571.71	1099.70
572.06	1098.69
572.42	1098.95
572.77	1099.61
573.12	1097.66
573.47	1099.40
573.82	1100.66
574.18	1099.23
574.53	1096.99
574.88	1096.38
575.23	1093.33
575.58	1091.77
575.93	1088.98
576.28	1087.76
576.64	1087.44
576.99	1088.91
577.34	1090.36
577.69	1093.15
578.04	1095.39
578.39	1094.11
578.74	1093.22
579.09	1091.88
579.44	1089.73
579.80	1090.62
580.15	1092.80
580.50	1090.95
580.85	1091.02
581.20	1094.11
581.55	1095.00
581.90	1095.96
582.25	1096.99
582.60	1095.82
582.95	1089.85
583.30	1086.45
583.65	1083.76
584.00	1084.84
584.35	1085.45
584.71	1089.87
585.06	1089.24
585.41	1090.78
585.76	1093.69
586.11	1095.21
586.46	1095.02
586.81	1095.02
587.16	1098.65
587.51	1093.90
587.86	1092.16
588.21	1089.80
588.56	1088.68
588.91	1084.51
589.26	1083.60
589.61	1082.92
589.96	1085.10
590.31	1087.93
590.66	1088.07
591.01	1088.37
591.36	1090.83
591.71	1088.49
592.06	1089.50
592.41	1088.56
592.76	1086.73
593.10	1085.05
593.45	1084.96
593.80	1082.31
594.15	1084.70
594.50	1087.67
594.85	1083.29
595.20	1086.01
595.55	1086.43
595.90	1086.22
596.25	1086.36
596.60	1091.79
596.95	1089.73
597.30	1087.67
597.64	1097.13
597.99	1098.44
598.34	1099.26
598.69	1099.44
599.04	1099.00
599.39	1089.05
599.74	1086.80
600.09	1083.88
600.44	1082.61
600.78	1086.06
601.13	1084.46
601.48	1085.40
601.83	1089.87
602.18	1090.88
602.53	1087.62
602.88	1087.86
603.22	1087.18
603.57	1084.63
603.92	1085.26
604.27	1083.64
604.62	1083.95
604.97	1082.03
605.31	1081.23
605.66	1082.92
606.01	1084.04
606.36	1083.86
606.71	1084.72
607.05	1083.79
607.40	1080.63
607.75	1080.63
608.10	1083.34
608.44	1084.11
608.79	1085.77
609.14	1089.29
609.49	1092.19
609.84	1089.75
610.18	1089.80
610.53	1089.99
610.88	1089.78
611.23	1086.41
611.57	1087.69
611.92	1086.85
612.27	1083.93
612.62	1080.72
612.96	1085.42
613.31	1083.64
613.66	1083.81
614.00	1085.70
614.35	1088.89
614.70	1088.68
615.05	1088.72
615.39	1090.06
615.74	1089.24
616.09	1087.93
616.43	1084.39
616.78	1084.91
617.13	1085.31
617.47	1085.47
617.82	1087.81
618.17	1089.75
618.51	1090.53
618.86	1091.11
619.21	1088.56
619.55	1084.49
619.90	1080.02
620.25	1078.05
620.59	1076.27
620.94	1079.43
621.29	1078.89
621.63	1081.89
621.98	1085.28
622.32	1085.94
622.67	1084.63
623.02	1088.14
623.36	1090.46
623.71	1087.51
624.05	1085.54
624.40	1086.90
624.75	1084.35
625.09	1084.35
625.44	1083.83
625.78	1085.70
626.13	1083.81
626.48	1086.62
626.82	1084.07
627.17	1085.21
627.51	1084.72
627.86	1086.50
628.20	1082.94
628.55	1082.22
628.89	1084.21
629.24	1083.41
629.58	1082.50
629.93	1084.63
630.28	1082.78
630.62	1078.94
630.97	1074.38
631.31	1074.07
631.66	1069.18
632.00	1074.68
632.35	1075.01
632.69	1077.56
633.04	1078.75
633.38	1081.82
633.73	1078.68
634.07	1077.00
634.42	1080.27
634.76	1080.77
635.11	1081.94
635.45	1083.90
635.79	1087.90
636.14	1086.13
636.48	1085.10
636.83	1084.14
637.17	1084.09
637.52	1082.64
637.86	1083.90
638.21	1082.40
638.55	1081.56
638.89	1082.47
639.24	1083.13
639.58	1084.35
639.93	1086.90
640.27	1086.38
640.61	1087.25
640.96	1086.57
641.30	1083.74
641.65	1082.05
641.99	1083.01
642.33	1079.10
642.68	1077.61
643.02	1077.35
643.37	1078.47
643.71	1075.73
644.05	1074.21
644.40	1072.22
644.74	1071.99
645.08	1071.87
645.43	1073.30
645.77	1077.37
646.11	1085.26
646.46	1087.30
646.80	1087.44
647.14	1087.11
647.49	1083.83
647.83	1077.07
648.17	1075.62
648.52	1074.75
648.86	1075.05
649.20	1074.68
649.55	1075.94
649.89	1076.15
650.23	1074.94
650.57	1077.86
650.92	1080.44
651.26	1081.12
651.60	1082.15
651.95	1083.55
652.29	1082.36
652.63	1082.92
652.97	1083.67
653.32	1084.44
653.66	1082.66
654.00	1080.37
654.34	1077.18
654.69	1077.82
655.03	1074.35
655.37	1078.96
655.71	1082.24
656.05	1080.63
656.40	1079.48
656.74	1081.00
657.08	1080.67
657.42	1079.67
657.76	1083.34
658.11	1084.46
658.45	1085.14
658.79	1082.29
659.13	1085.33
659.47	1082.31
659.82	1083.41
660.16	1083.48
660.50	1083.97
660.84	1081.87
661.18	1084.65
661.52	1082.52
661.87	1081.77
662.21	1081.47
662.55	1082.33
662.89	1080.63
663.23	1078.96
663.57	1080.72
663.91	1079.57
664.25	1079.76
664.60	1083.13
664.94	1085.61
665.28	1081.23
665.62	1084.30
665.96	1082.22
666.30	1081.23
666.64	1079.48
666.98	1084.30
667.32	1081.05
667.66	1079.78
668.01	1079.17
668.35	1078.54
668.69	1076.08
669.03	1078.96
669.37	1082.78
669.71	1082.17
670.05	1084.30
670.39	1086.64
670.73	1084.72
671.07	1079.29
671.41	1079.64
671.75	1080.58
672.09	1080.16
672.43	1082.01
672.77	1084.02
673.11	1084.93
673.45	1085.28
673.79	1086.90
674.13	1085.77
674.47	1085.91
674.81	1084.86
675.15	1083.29
675.49	1080.41
675.83	1080.06
676.17	1081.16
676.51	1083.67
676.85	1083.90
677.19	1081.94
677.53	1082.61
677.87	1083.18
678.21	1083.01
678.55	1084.21
678.89	1085.00
679.23	1086.62
679.57	1085.99
679.90	1086.90
680.24	1084.14
680.58	1087.74
680.92	1087.39
681.26	1087.25
681.60	1085.19
681.94	1085.63
682.28	1083.20
682.62	1080.37
682.96	1078.73
683.29	1078.94
683.63	1081.47
683.97	1084.32
684.31	1084.09
684.65	1085.99
684.99	1084.72
685.33	1085.26
685.67	1083.04
686.00	1085.07
686.34	1083.55
686.68	1084.07
687.02	1080.51
687.36	1082.66
687.70	1082.19
688.03	1081.40
688.37	1080.20
688.71	1081.89
689.05	1081.09
689.39	1081.98
689.72	1081.84
690.06	1084.91
690.40	1085.40
690.74	1084.53
691.08	1083.67
691.41	1086.73
691.75	1083.76
692.09	1083.86
692.43	1082.97
692.76	1082.69
693.10	1082.99
693.44	1083.41
693.78	1081.42
694.11	1079.67
694.45	1079.69
694.79	1078.10
695.13	1078.68
695.46	1076.90
695.80	1077.56
696.14	1078.89
696.48	1078.66
696.81	1078.36
697.15	1082.90
697.49	1085.99
697.82	1085.66
698.16	1086.69
698.50	1089.73
698.83	1086.80
699.17	1084.32
699.51	1084.25
699.84	1084.14
700.18	1081.77
700.52	1081.56
700.85	1080.81
701.19	1075.10
701.53	1073.37
701.86	1072.04
702.20	1070.44
702.54	1070.63
702.87	1071.78
703.21	1070.70
703.55	1069.41
703.88	1071.03
704.22	1072.15
704.55	1076.13
704.89	1079.71
705.23	1083.06
705.56	1086.36
705.90	1087.02
706.23	1087.32
706.57	1084.63
706.91	1082.78
707.24	1080.88
707.58	1079.38
707.91	1079.53
708.25	1079.48
708.58	1076.74
708.92	1075.85
709.26	1076.76
709.59	1078.03
709.93	1081.16
710.26	1084.25
710.60	1083.39
710.93	1082.85
711.27	1081.28
711.60	1079.48
711.94	1079.24
712.27	1082.76
712.61	1085.77
712.94	1083.64
713.28	1084.46
713.61	1085.80
713.95	1083.36
714.28	1080.95
714.62	1082.90
714.95	1080.63
715.29	1079.31
715.62	1080.37
715.96	1080.48
716.29	1081.73
716.63	1081.73
716.96	1083.27
717.29	1080.13
717.63	1077.91
717.96	1075.48
718.30	1077.89
718.63	1076.25
718.97	1078.78
719.30	1080.27
719.63	1078.82
719.97	1077.21
720.30	1078.66
720.64	1075.90
720.97	1076.55
721.30	1081.44
721.64	1081.07
721.97	1079.20
722.31	1081.77
722.64	1082.43
722.97	1078.94
723.31	1082.38
723.64	1082.94
723.97	1083.60
724.31	1083.34
724.64	1080.98
724.98	1078.64
725.31	1080.32
725.64	1080.70
725.98	1080.67
726.31	1086.13
726.64	1087.69
726.97	1085.49
727.31	1085.87
727.64	1084.67
727.97	1083.90
728.31	1083.48
728.64	1086.27
728.97	1085.73
729.31	1085.87
729.64	1082.57
729.97	1081.82
730.30	1080.11
730.64	1078.17
730.97	1078.89
731.30	1080.95
731.63	1081.68
731.97	1080.41
732.30	1079.81
732.63	1078.61
732.96	1078.54
733.30	1076.27
733.63	1075.99
733.96	1078.47
734.29	1079.88
734.63	1080.41
734.96	1081.84
735.29	1081.00
735.62	1081.07
735.95	1079.43
736.29	1078.89
736.62	1075.99
736.95	1078.68
737.28	1080.20
737.61	1083.43
737.94	1078.59
738.28	1082.59
738.61	1082.83
738.94	1078.94
739.27	1074.45
739.60	1079.41
739.93	1078.96
740.27	1075.73
740.60	1078.87
740.93	1082.19
741.26	1080.81
741.59	1080.93
741.92	1084.37
742.25	1081.82
742.58	1079.48
742.91	1081.56
743.25	1081.00
743.58	1079.20
743.91	1083.04
744.24	1082.22
744.57	1081.89
744.90	1081.07
745.23	1081.75
745.56	1079.88
745.89	1081.80
746.22	1078.43
746.55	1079.27
746.88	1078.54
747.21	1077.84
747.54	1079.24
747.87	1080.23
748.20	1080.77
748.53	1079.88
748.87	1079.97
749.20	1077.89
749.53	1077.54
749.86	1074.68
750.19	1075.05
750.52	1075.62
750.85	1073.35
751.18	1073.09
751.51	1072.60
751.84	1076.27
752.16	1074.10
752.49	1077.61
752.82	1080.74
753.15	1083.97
753.48	1082.05
753.81	1085.28
754.14	1083.41
754.47	1083.86
754.80	1082.15
755.13	1079.92
755.46	1077.91
755.79	1081.75
756.12	1082.45
756.45	1082.24
756.78	1083.29
757.11	1081.91
757.43	1077.37
757.76	1078.05
758.09	1078.87
758.42	1078.96
758.75	1078.47
759.08	1082.03
759.41	1077.18
759.74	1077.75
760.07	1076.55
760.39	1080.53
760.72	1079.90
761.05	1083.48
761.38	1083.25
761.71	1085.26
762.04	1081.37
762.36	1085.94
762.69	1085.59
763.02	1084.56
763.35	1084.46
763.68	1087.02
764.01	1082.50
