SpectraSuite Data File
++++++++++++++++++++++++++++++++++++
Date: Mon Aug 26 10:21:57 PDT 2019
User: corrico
Dark Spectrum Present: No
Reference Spectrum Present: No
Number of Sampled Component Spectra: 1
Spectrometers: USB2+H06089
Integration Time (usec): 2000 (USB2+H06089)
Spectra Averaged: 20 (USB2+H06089)
Boxcar Smoothing: 2 (USB2+H06089)
Correct for Electrical Dark: No (USB2+H06089)
Strobe/Lamp Enabled: No (USB2+H06089)
Correct for Detector Non-linearity: No (USB2+H06089)
Correct for Stray Light: No (USB2+H06089)
Number of Pixels in Processed Spectrum: 2048
>>>>>Begin Processed Spectral Data<<<<<
339.70	1034.52
340.07	1034.52
340.45	996.58
340.82	971.06
341.19	943.91
341.57	913.96
341.94	904.15
342.31	893.34
342.69	893.15
343.06	887.95
343.43	891.74
343.81	891.39
344.18	896.64
344.55	897.38
344.93	905.81
345.30	910.63
345.67	918.26
346.04	927.34
346.42	935.79
346.79	942.32
347.16	949.93
347.54	962.97
347.91	971.35
348.28	983.14
348.65	993.14
349.03	1001.14
349.40	1006.76
349.77	1012.66
350.14	1018.46
350.52	1026.82
350.89	1035.31
351.26	1039.34
351.63	1047.06
352.01	1050.69
352.38	1051.44
352.75	1053.31
353.12	1056.87
353.50	1059.26
353.87	1060.94
354.24	1065.88
354.61	1069.11
354.98	1072.04
355.36	1072.01
355.73	1072.81
356.10	1075.73
356.47	1073.14
356.84	1071.64
357.22	1073.21
357.59	1072.92
357.96	1068.78
358.33	1074.14
358.70	1071.71
359.08	1071.97
359.45	1072.90
359.82	1076.83
360.19	1073.32
360.56	1075.55
360.94	1074.98
361.31	1074.94
361.68	1073.67
362.05	1073.00
362.42	1072.85
362.79	1069.55
363.16	1069.41
363.54	1067.28
363.91	1064.48
364.28	1066.75
364.65	1066.89
365.02	1062.72
365.39	1061.57
365.76	1064.92
366.14	1061.04
366.51	1060.29
366.88	1063.80
367.25	1065.22
367.62	1062.46
367.99	1060.29
368.36	1058.67
368.73	1057.17
369.10	1059.30
369.48	1058.46
369.85	1059.65
370.22	1062.21
370.59	1061.04
370.96	1058.32
371.33	1062.04
371.70	1063.02
372.07	1062.21
372.44	1062.46
372.81	1064.01
373.18	1063.56
373.55	1064.99
373.93	1066.11
374.30	1068.20
374.67	1069.20
375.04	1067.00
375.41	1070.49
375.78	1071.90
376.15	1070.94
376.52	1069.62
376.89	1071.10
377.26	1067.19
377.63	1066.77
378.00	1068.78
378.37	1067.52
378.74	1068.78
379.11	1070.58
379.48	1071.15
379.85	1070.21
380.22	1070.19
380.59	1069.44
380.96	1068.74
381.33	1068.69
381.70	1067.73
382.07	1065.74
382.44	1068.52
382.81	1068.17
383.18	1068.64
383.55	1069.98
383.92	1072.20
384.29	1070.75
384.66	1069.13
385.03	1065.37
385.40	1067.28
385.77	1069.16
386.14	1071.17
386.51	1073.91
386.88	1075.52
387.25	1075.71
387.62	1075.22
387.99	1071.50
388.36	1068.57
388.73	1065.04
389.10	1062.84
389.46	1063.40
389.83	1066.00
390.20	1066.96
390.57	1073.25
390.94	1077.14
391.31	1075.08
391.68	1074.49
392.05	1077.51
392.42	1075.27
392.79	1070.75
393.16	1074.54
393.53	1074.03
393.89	1069.93
394.26	1070.75
394.63	1073.37
395.00	1069.93
395.37	1070.65
395.74	1073.65
396.11	1074.87
396.48	1070.80
396.84	1071.66
397.21	1073.28
397.58	1071.24
397.95	1071.99
398.32	1073.37
398.69	1073.86
399.06	1072.41
399.42	1073.35
399.79	1071.80
400.16	1073.37
400.53	1075.41
400.90	1074.07
401.27	1076.06
401.64	1075.29
402.00	1075.87
402.37	1072.50
402.74	1075.36
403.11	1075.22
403.48	1073.86
403.84	1073.86
404.21	1072.95
404.58	1071.38
404.95	1068.31
405.32	1069.79
405.68	1071.31
406.05	1073.98
406.42	1073.86
406.79	1077.42
407.16	1076.60
407.52	1075.22
407.89	1077.35
408.26	1076.01
408.63	1074.40
408.99	1076.41
409.36	1077.49
409.73	1076.93
410.10	1077.65
410.47	1080.41
410.83	1079.95
411.20	1079.48
411.57	1079.08
411.94	1081.68
412.30	1078.89
412.67	1076.08
413.04	1075.87
413.40	1074.52
413.77	1074.54
414.14	1079.03
414.51	1083.13
414.87	1082.76
415.24	1084.53
415.61	1082.01
415.97	1077.56
416.34	1076.06
416.71	1076.62
417.08	1077.84
417.44	1082.15
417.81	1084.74
418.18	1085.70
418.54	1084.96
418.91	1084.86
419.28	1086.62
419.64	1082.83
420.01	1082.59
420.38	1082.50
420.74	1080.41
421.11	1077.84
421.48	1081.05
421.84	1083.97
422.21	1085.91
422.58	1089.05
422.94	1089.57
423.31	1089.31
423.68	1090.24
424.04	1090.39
424.41	1090.39
424.77	1092.21
425.14	1094.13
425.51	1094.06
425.87	1091.32
426.24	1090.55
426.61	1088.91
426.97	1090.48
427.34	1092.05
427.70	1099.65
428.07	1100.08
428.44	1099.63
428.80	1100.87
429.17	1105.62
429.53	1105.39
429.90	1111.08
430.27	1115.05
430.63	1114.87
431.00	1113.58
431.36	1118.59
431.73	1120.77
432.09	1125.26
432.46	1128.40
432.83	1129.12
433.19	1128.37
433.56	1131.32
433.92	1132.87
434.29	1135.86
434.65	1143.19
435.02	1155.50
435.38	1161.16
435.75	1168.70
436.11	1178.65
436.48	1184.12
436.84	1187.35
437.21	1195.66
437.57	1200.65
437.94	1206.08
438.30	1214.34
438.67	1221.24
439.03	1232.48
439.40	1246.78
439.76	1263.40
440.13	1275.85
440.49	1291.20
440.86	1303.14
441.22	1319.43
441.59	1334.50
441.95	1350.75
442.32	1366.59
442.68	1386.88
443.05	1404.53
443.41	1423.82
443.78	1449.61
444.14	1474.84
444.51	1491.76
444.87	1519.24
445.24	1543.77
445.60	1570.10
445.96	1595.68
446.33	1633.86
446.69	1662.23
447.06	1701.22
447.42	1736.89
447.79	1779.39
448.15	1821.50
448.51	1871.98
448.88	1920.50
449.24	1969.98
449.61	2024.05
449.97	2079.12
450.33	2132.84
450.70	2190.25
451.06	2254.15
451.43	2316.48
451.79	2390.41
452.15	2469.92
452.52	2554.53
452.88	2647.10
453.24	2743.30
453.61	2848.71
453.97	2949.66
454.34	3052.36
454.70	3171.26
455.06	3291.82
455.43	3410.00
455.79	3523.09
456.15	3654.54
456.52	3771.94
456.88	3912.44
457.24	4045.97
457.61	4217.27
457.97	4372.47
458.33	4543.85
458.70	4715.80
459.06	4878.80
459.42	5044.56
459.79	5202.33
460.15	5373.26
460.51	5533.28
460.88	5708.61
461.24	5861.05
461.60	6034.88
461.96	6193.24
462.33	6348.63
462.69	6507.56
463.05	6681.22
463.42	6861.51
463.78	7028.91
464.14	7170.11
464.50	7314.83
464.87	7422.68
465.23	7491.91
465.59	7582.80
465.95	7679.81
466.32	7744.83
466.68	7820.62
467.04	7873.75
467.40	7891.96
467.77	7896.24
468.13	7886.46
468.49	7869.49
468.85	7859.64
469.22	7837.54
469.58	7802.22
469.94	7782.21
470.30	7734.37
470.66	7665.51
471.03	7582.03
471.39	7519.49
471.75	7406.79
472.11	7299.19
472.47	7218.70
472.84	7127.59
473.20	7019.38
473.56	6949.14
473.92	6858.21
474.28	6776.83
474.65	6701.16
475.01	6621.02
475.37	6516.57
475.73	6429.01
476.09	6329.14
476.45	6226.97
476.81	6134.01
477.18	6051.81
477.54	5974.10
477.90	5902.97
478.26	5829.08
478.62	5745.06
478.98	5669.92
479.34	5603.73
479.71	5519.33
480.07	5457.90
480.43	5416.70
480.79	5370.87
481.15	5314.72
481.51	5268.87
481.87	5214.95
482.23	5145.11
482.59	5080.55
482.96	5023.54
483.32	4963.11
483.68	4891.91
484.04	4827.99
484.40	4764.42
484.76	4702.16
485.12	4625.62
485.48	4551.24
485.84	4481.28
486.20	4409.83
486.56	4331.82
486.92	4263.45
487.28	4202.78
487.64	4125.64
488.00	4050.91
488.37	3980.41
488.73	3910.64
489.09	3839.16
489.45	3781.09
489.81	3711.64
490.17	3640.31
490.53	3572.45
490.89	3499.80
491.25	3429.98
491.61	3367.14
491.97	3297.46
492.33	3226.10
492.69	3161.90
493.05	3093.56
493.41	3032.28
493.77	2981.87
494.13	2938.26
494.49	2886.84
494.85	2838.70
495.21	2783.69
495.57	2731.83
495.93	2680.50
496.29	2637.22
496.64	2594.76
497.00	2554.60
497.36	2509.62
497.72	2459.46
498.08	2417.31
498.44	2376.67
498.80	2337.10
499.16	2300.09
499.52	2270.90
499.88	2241.86
500.24	2208.88
500.60	2176.42
500.96	2144.70
501.32	2116.62
501.68	2082.54
502.03	2048.23
502.39	2019.37
502.75	1993.01
503.11	1963.12
503.47	1939.16
503.83	1920.41
504.19	1897.21
504.55	1872.52
504.91	1850.68
505.26	1823.79
505.62	1792.15
505.98	1767.24
506.34	1744.42
506.70	1719.36
507.06	1700.00
507.42	1687.27
507.78	1669.13
508.13	1651.27
508.49	1636.10
508.85	1616.47
509.21	1593.46
509.57	1575.88
509.93	1559.43
510.28	1541.64
510.64	1529.00
511.00	1515.40
511.36	1500.75
511.72	1487.88
512.07	1477.28
512.43	1465.71
512.79	1452.16
513.15	1438.12
513.51	1422.60
513.86	1408.51
514.22	1395.66
514.58	1387.66
514.94	1380.00
515.30	1372.51
515.65	1365.68
516.01	1357.35
516.37	1344.57
516.73	1336.31
517.08	1328.14
517.44	1321.75
517.80	1313.27
518.16	1310.56
518.51	1304.80
518.87	1298.93
519.23	1288.44
519.59	1283.27
519.94	1275.80
520.30	1269.20
520.66	1263.54
521.01	1257.08
521.37	1251.60
521.73	1246.83
522.09	1239.55
522.44	1230.93
522.80	1226.72
523.16	1219.16
523.51	1214.53
523.87	1210.67
524.23	1212.21
524.58	1210.97
524.94	1205.14
525.30	1198.94
525.65	1197.58
526.01	1190.19
526.37	1184.03
526.72	1183.75
527.08	1182.74
527.44	1178.06
527.79	1177.92
528.15	1173.01
528.51	1167.88
528.86	1163.74
529.22	1162.52
529.58	1158.31
529.93	1153.93
530.29	1156.51
530.65	1152.41
531.00	1150.00
531.36	1146.61
531.71	1150.58
532.07	1145.93
532.43	1149.09
532.78	1146.65
533.14	1146.23
533.49	1141.69
533.85	1140.82
534.21	1135.44
534.56	1129.89
534.92	1127.65
535.27	1125.54
535.63	1123.50
535.98	1120.98
536.34	1123.41
536.69	1122.38
537.05	1123.36
537.41	1119.69
537.76	1116.72
538.12	1114.00
538.47	1111.80
538.83	1109.30
539.18	1108.36
539.54	1110.21
539.89	1107.61
540.25	1106.86
540.60	1104.45
540.96	1103.94
541.31	1101.32
541.67	1102.84
542.02	1101.20
542.38	1104.78
542.73	1106.65
543.09	1106.11
543.44	1104.76
543.80	1106.54
544.15	1102.88
544.51	1101.83
544.86	1106.61
545.22	1103.96
545.57	1101.27
545.93	1102.91
546.28	1100.85
546.64	1094.29
546.99	1095.84
547.35	1094.32
547.70	1091.39
548.05	1088.91
548.41	1092.19
548.76	1089.61
549.12	1091.44
549.47	1091.88
549.83	1095.11
550.18	1091.74
550.53	1093.71
550.89	1090.99
551.24	1086.10
551.60	1086.43
551.95	1088.02
552.30	1090.15
552.66	1090.24
553.01	1093.55
553.37	1094.13
553.72	1092.77
554.07	1089.10
554.43	1091.25
554.78	1092.35
555.13	1089.07
555.49	1088.63
555.84	1088.04
556.19	1086.76
556.55	1085.05
556.90	1086.97
557.26	1088.82
557.61	1091.11
557.96	1093.55
558.32	1092.89
558.67	1087.69
559.02	1086.94
559.37	1085.66
559.73	1082.36
560.08	1082.22
560.43	1083.53
560.79	1079.41
561.14	1079.03
561.49	1081.21
561.85	1079.24
562.20	1079.34
562.55	1084.25
562.90	1083.95
563.26	1082.59
563.61	1084.09
563.96	1085.59
564.32	1082.54
564.67	1080.84
565.02	1079.67
565.37	1079.46
565.73	1078.61
566.08	1080.11
566.43	1081.73
566.78	1080.16
567.14	1081.44
567.49	1082.19
567.84	1080.84
568.19	1080.86
568.54	1082.71
568.90	1083.55
569.25	1085.17
569.60	1085.05
569.95	1083.13
570.31	1082.57
570.66	1080.13
571.01	1078.33
571.36	1079.83
571.71	1079.97
572.06	1080.30
572.42	1082.40
572.77	1081.61
573.12	1080.86
573.47	1084.93
573.82	1086.34
574.18	1083.53
574.53	1083.97
574.88	1082.24
575.23	1075.38
575.58	1073.74
575.93	1073.65
576.28	1074.24
576.64	1079.36
576.99	1086.38
577.34	1088.77
577.69	1086.08
578.04	1082.92
578.39	1078.99
578.74	1074.96
579.09	1073.81
579.44	1076.48
579.80	1075.90
580.15	1078.00
580.50	1078.45
580.85	1077.25
581.20	1077.96
581.55	1081.02
581.90	1075.71
582.25	1077.11
582.60	1075.57
582.95	1073.37
583.30	1072.43
583.65	1075.57
584.00	1072.08
584.35	1072.13
584.71	1073.56
585.06	1071.82
585.41	1073.53
585.76	1076.08
586.11	1077.61
586.46	1079.43
586.81	1081.23
587.16	1079.71
587.51	1078.61
587.86	1079.31
588.21	1078.89
588.56	1078.21
588.91	1077.72
589.26	1077.84
589.61	1074.80
589.96	1074.73
590.31	1074.63
590.66	1073.72
591.01	1074.61
591.36	1077.93
591.71	1077.89
592.06	1081.75
592.41	1082.73
592.76	1083.15
593.10	1079.85
593.45	1079.99
593.80	1075.76
594.15	1075.50
594.50	1070.61
594.85	1071.12
595.20	1070.02
595.55	1073.30
595.90	1074.75
596.25	1078.10
596.60	1079.71
596.95	1081.26
597.30	1077.42
597.64	1088.30
597.99	1089.00
598.34	1089.80
598.69	1090.15
599.04	1094.11
599.39	1082.43
599.74	1081.58
600.09	1081.07
600.44	1075.41
600.78	1073.95
601.13	1073.95
601.48	1073.09
601.83	1072.64
602.18	1075.52
602.53	1072.39
602.88	1073.11
603.22	1073.02
603.57	1072.01
603.92	1071.54
604.27	1071.66
604.62	1070.72
604.97	1071.36
605.31	1073.09
605.66	1070.00
606.01	1071.75
606.36	1071.66
606.71	1074.40
607.05	1071.29
607.40	1073.28
607.75	1073.63
608.10	1076.39
608.44	1074.75
608.79	1077.58
609.14	1082.47
609.49	1085.40
609.84	1078.96
610.18	1078.75
610.53	1078.50
610.88	1079.95
611.23	1077.82
611.57	1082.05
611.92	1084.32
612.27	1085.35
612.62	1079.50
612.96	1079.99
613.31	1079.08
613.66	1075.17
614.00	1072.50
614.35	1074.73
614.70	1070.51
615.05	1071.01
615.39	1072.27
615.74	1073.21
616.09	1073.49
616.43	1078.59
616.78	1077.25
617.13	1077.00
617.47	1078.31
617.82	1077.86
618.17	1075.38
618.51	1073.72
618.86	1071.26
619.21	1072.64
619.55	1071.59
619.90	1072.08
620.25	1074.52
620.59	1078.40
620.94	1076.39
621.29	1077.98
621.63	1075.48
621.98	1077.44
622.32	1075.94
622.67	1073.37
623.02	1071.03
623.36	1071.82
623.71	1071.05
624.05	1075.17
624.40	1078.05
624.75	1080.09
625.09	1080.11
625.44	1078.03
625.78	1073.93
626.13	1070.98
626.48	1071.87
626.82	1072.11
627.17	1075.48
627.51	1076.72
627.86	1080.11
628.20	1078.57
628.55	1078.87
628.89	1074.96
629.24	1071.22
629.58	1070.37
629.93	1068.85
630.28	1072.27
630.62	1075.34
630.97	1078.87
631.31	1078.87
631.66	1082.22
632.00	1077.93
632.35	1078.71
632.69	1079.43
633.04	1077.00
633.38	1077.79
633.73	1078.96
634.07	1079.43
634.42	1079.29
634.76	1078.85
635.11	1077.28
635.45	1078.87
635.79	1077.04
636.14	1075.66
636.48	1074.49
636.83	1071.94
637.17	1072.25
637.52	1073.88
637.86	1075.76
638.21	1076.60
638.55	1079.53
638.89	1078.54
639.24	1077.44
639.58	1073.35
639.93	1078.28
640.27	1075.94
640.61	1075.71
640.96	1074.19
641.30	1076.90
641.65	1071.08
641.99	1073.09
642.33	1075.83
642.68	1076.13
643.02	1076.37
643.37	1081.05
643.71	1080.98
644.05	1077.16
644.40	1078.38
644.74	1077.49
645.08	1078.80
645.43	1079.38
645.77	1082.80
646.11	1083.25
646.46	1082.33
646.80	1083.39
647.14	1079.34
647.49	1075.38
647.83	1075.87
648.17	1077.54
648.52	1073.11
648.86	1076.04
649.20	1075.08
649.55	1072.48
649.89	1072.41
650.23	1071.29
650.57	1068.92
650.92	1071.12
651.26	1072.15
651.60	1073.74
651.95	1075.38
652.29	1078.38
652.63	1082.50
652.97	1078.50
653.32	1077.02
653.66	1076.23
654.00	1076.32
654.34	1073.67
654.69	1078.00
655.03	1077.49
655.37	1078.45
655.71	1077.23
656.05	1073.67
656.40	1073.09
656.74	1071.82
657.08	1073.25
657.42	1072.83
657.76	1076.55
658.11	1076.74
658.45	1076.79
658.79	1075.50
659.13	1075.31
659.47	1072.76
659.82	1073.65
660.16	1074.84
660.50	1072.76
660.84	1070.40
661.18	1071.40
661.52	1070.33
661.87	1070.40
662.21	1072.69
662.55	1077.58
662.89	1079.27
663.23	1080.53
663.57	1082.03
663.91	1081.47
664.25	1077.21
664.60	1077.56
664.94	1076.90
665.28	1075.05
665.62	1076.20
665.96	1081.40
666.30	1079.29
666.64	1075.73
666.98	1077.30
667.32	1075.20
667.66	1074.96
668.01	1073.81
668.35	1074.03
668.69	1073.84
669.03	1076.39
669.37	1075.31
669.71	1076.23
670.05	1077.07
670.39	1075.55
670.73	1074.05
671.07	1070.49
671.41	1072.13
671.75	1073.14
672.09	1074.49
672.43	1072.18
672.77	1075.78
673.11	1074.96
673.45	1076.39
673.79	1078.47
674.13	1080.48
674.47	1080.04
674.81	1079.67
675.15	1079.83
675.49	1077.82
675.83	1078.57
676.17	1079.01
676.51	1077.23
676.85	1074.26
677.19	1074.42
677.53	1073.58
677.87	1072.76
678.21	1075.62
678.55	1075.57
678.89	1075.59
679.23	1076.86
679.57	1074.87
679.90	1075.01
680.24	1074.70
680.58	1076.04
680.92	1074.59
681.26	1077.16
681.60	1075.20
681.94	1077.65
682.28	1076.88
682.62	1078.94
682.96	1077.37
683.29	1077.33
683.63	1074.10
683.97	1071.57
684.31	1070.84
684.65	1072.74
684.99	1074.14
685.33	1076.11
685.67	1079.53
686.00	1078.36
686.34	1076.39
686.68	1076.32
687.02	1075.10
687.36	1071.38
687.70	1070.65
688.03	1072.48
688.37	1071.24
688.71	1072.83
689.05	1076.11
689.39	1075.71
689.72	1072.95
690.06	1073.09
690.40	1072.67
690.74	1071.19
691.08	1073.44
691.41	1074.24
691.75	1072.48
692.09	1074.26
692.43	1074.63
692.76	1071.80
693.10	1072.32
693.44	1073.91
693.78	1075.36
694.11	1074.10
694.45	1075.59
694.79	1076.01
695.13	1077.89
695.46	1074.89
695.80	1077.58
696.14	1077.18
696.48	1074.26
696.81	1070.72
697.15	1071.03
697.49	1069.60
697.82	1074.42
698.16	1077.79
698.50	1079.57
698.83	1079.55
699.17	1076.65
699.51	1073.79
699.84	1073.32
700.18	1075.20
700.52	1074.24
700.85	1075.99
701.19	1074.96
701.53	1074.49
701.86	1072.67
702.20	1071.71
702.54	1072.64
702.87	1072.92
703.21	1071.15
703.55	1071.10
703.88	1074.35
704.22	1072.48
704.55	1071.47
704.89	1071.40
705.23	1073.67
705.56	1071.71
705.90	1071.64
706.23	1072.32
706.57	1075.08
706.91	1074.26
707.24	1077.82
707.58	1079.85
707.91	1080.04
708.25	1077.35
708.58	1077.51
708.92	1077.07
709.26	1074.89
709.59	1076.30
709.93	1079.20
710.26	1076.88
710.60	1073.72
710.93	1072.69
711.27	1071.36
711.60	1070.16
711.94	1069.58
712.27	1069.67
712.61	1073.16
712.94	1074.70
713.28	1074.89
713.61	1076.65
713.95	1077.44
714.28	1076.25
714.62	1073.98
714.95	1075.55
715.29	1076.34
715.62	1075.55
715.96	1073.77
716.29	1073.93
716.63	1071.99
716.96	1073.44
717.29	1074.35
717.63	1073.58
717.96	1074.75
718.30	1076.06
718.63	1073.53
718.97	1070.56
719.30	1072.60
719.63	1070.84
719.97	1069.79
720.30	1069.09
720.64	1073.51
720.97	1074.05
721.30	1073.51
721.64	1074.35
721.97	1075.66
722.31	1074.52
722.64	1073.07
722.97	1074.35
723.31	1075.76
723.64	1075.31
723.97	1076.37
724.31	1077.42
724.64	1078.52
724.98	1077.40
725.31	1078.21
725.64	1078.36
725.98	1077.79
726.31	1077.07
726.64	1074.03
726.97	1073.23
727.31	1072.32
727.64	1070.16
727.97	1069.55
728.31	1069.25
728.64	1069.02
728.97	1069.48
729.31	1071.68
729.64	1075.29
729.97	1078.92
730.30	1077.14
730.64	1074.84
730.97	1076.23
731.30	1073.39
731.63	1073.02
731.97	1075.34
732.30	1075.57
732.63	1076.46
732.96	1077.44
733.30	1077.79
733.63	1076.74
733.96	1075.57
734.29	1075.62
734.63	1073.88
734.96	1070.91
735.29	1072.48
735.62	1074.45
735.95	1071.82
736.29	1072.67
736.62	1072.60
736.95	1071.78
737.28	1072.39
737.61	1072.57
737.94	1073.44
738.28	1074.19
738.61	1072.50
738.94	1071.99
739.27	1073.00
739.60	1070.65
739.93	1070.54
740.27	1071.64
740.60	1072.22
740.93	1073.16
741.26	1074.07
741.59	1073.53
741.92	1072.53
742.25	1072.01
742.58	1071.17
742.91	1070.09
743.25	1073.02
743.58	1073.49
743.91	1074.52
744.24	1073.98
744.57	1077.61
744.90	1074.94
745.23	1077.84
745.56	1075.17
745.89	1077.40
746.22	1071.22
746.55	1073.65
746.88	1073.72
747.21	1074.66
747.54	1073.70
747.87	1076.20
748.20	1072.36
748.53	1069.70
748.87	1069.09
749.20	1066.68
749.53	1068.76
749.86	1072.88
750.19	1073.49
750.52	1073.56
750.85	1075.87
751.18	1077.86
751.51	1078.00
751.84	1073.70
752.16	1077.04
752.49	1077.42
752.82	1072.97
753.15	1073.11
753.48	1078.17
753.81	1074.12
754.14	1070.40
754.47	1073.37
754.80	1071.73
755.13	1070.56
755.46	1072.22
755.79	1076.81
756.12	1076.86
756.45	1075.38
756.78	1077.75
757.11	1081.58
757.43	1078.05
757.76	1077.61
758.09	1080.86
758.42	1078.19
758.75	1073.53
759.08	1074.82
759.41	1073.00
759.74	1069.91
760.07	1069.79
760.39	1071.08
760.72	1071.24
761.05	1070.58
761.38	1070.54
761.71	1071.43
762.04	1072.71
762.36	1073.09
762.69	1072.34
763.02	1069.95
763.35	1072.53
763.68	1070.16
764.01	1069.44
764.33	1071.59
764.66	1076.97
764.99	1071.45
765.32	1070.91
765.65	1073.49
765.97	1071.80
766.30	1065.81
