SpectraSuite Data File
++++++++++++++++++++++++++++++++++++
Date: Mon Aug 26 10:22:07 PDT 2019
User: corrico
Dark Spectrum Present: No
Reference Spectrum Present: No
Number of Sampled Component Spectra: 1
Spectrometers: USB2+H06089
Integration Time (usec): 2000 (USB2+H06089)
Spectra Averaged: 20 (USB2+H06089)
Boxcar Smoothing: 2 (USB2+H06089)
Correct for Electrical Dark: No (USB2+H06089)
Strobe/Lamp Enabled: No (USB2+H06089)
Correct for Detector Non-linearity: No (USB2+H06089)
Correct for Stray Light: No (USB2+H06089)
Number of Pixels in Processed Spectrum: 2048
>>>>>Begin Processed Spectral Data<<<<<
339.70	1035.57
340.07	1035.57
340.45	996.01
340.82	971.02
341.19	945.83
341.57	915.80
341.94	906.68
342.31	898.63
342.69	896.52
343.06	896.35
343.43	897.81
343.81	900.73
344.18	905.44
344.55	909.44
344.93	912.90
345.30	917.30
345.67	923.08
346.04	926.90
346.42	931.72
346.79	938.34
347.16	948.78
347.54	958.00
347.91	970.06
348.28	984.57
348.65	993.16
349.03	1002.55
349.40	1013.01
349.77	1019.84
350.14	1022.95
350.52	1029.18
350.89	1037.26
351.26	1040.06
351.63	1045.07
352.01	1051.88
352.38	1057.90
352.75	1063.38
353.12	1070.02
353.50	1075.34
353.87	1078.19
354.24	1083.25
354.61	1082.57
354.98	1082.12
355.36	1081.61
355.73	1084.77
356.10	1085.40
356.47	1086.20
356.84	1089.43
357.22	1088.79
357.59	1084.44
357.96	1082.87
358.33	1083.76
358.70	1083.57
359.08	1082.97
359.45	1083.01
359.82	1084.14
360.19	1082.61
360.56	1075.22
360.94	1078.31
361.31	1077.04
361.68	1073.44
362.05	1076.48
362.42	1081.49
362.79	1079.53
363.16	1078.36
363.54	1078.94
363.91	1077.42
364.28	1078.54
364.65	1078.87
365.02	1080.95
365.39	1080.16
365.76	1077.04
366.14	1074.19
366.51	1070.16
366.88	1071.38
367.25	1071.66
367.62	1072.18
367.99	1070.12
368.36	1074.45
368.73	1074.21
369.10	1075.71
369.48	1075.41
369.85	1075.94
370.22	1074.84
370.59	1075.66
370.96	1075.13
371.33	1076.55
371.70	1077.02
372.07	1074.96
372.44	1073.53
372.81	1076.32
373.18	1076.08
373.55	1078.03
373.93	1079.48
374.30	1077.07
374.67	1075.03
375.04	1073.65
375.41	1073.28
375.78	1071.40
376.15	1075.43
376.52	1074.07
376.89	1077.14
377.26	1076.48
377.63	1078.10
378.00	1078.59
378.37	1079.53
378.74	1079.13
379.11	1077.18
379.48	1079.88
379.85	1080.18
380.22	1079.29
380.59	1079.48
380.96	1083.25
381.33	1081.56
381.70	1079.97
382.07	1082.08
382.44	1081.66
382.81	1080.65
383.18	1082.54
383.55	1081.61
383.92	1082.22
384.29	1081.77
384.66	1083.29
385.03	1084.67
385.40	1087.18
385.77	1088.09
386.14	1088.04
386.51	1089.52
386.88	1089.75
387.25	1090.64
387.62	1090.76
387.99	1090.83
388.36	1087.65
388.73	1084.16
389.10	1082.78
389.46	1078.92
389.83	1079.38
390.20	1081.42
390.57	1079.55
390.94	1080.77
391.31	1079.85
391.68	1077.30
392.05	1079.90
392.42	1083.74
392.79	1084.18
393.16	1089.12
393.53	1094.11
393.89	1091.27
394.26	1092.05
394.63	1090.20
395.00	1092.28
395.37	1089.61
395.74	1091.53
396.11	1090.32
396.48	1090.95
396.84	1091.81
397.21	1095.21
397.58	1094.36
397.95	1097.29
398.32	1096.45
398.69	1095.39
399.06	1094.81
399.42	1093.47
399.79	1090.67
400.16	1091.46
400.53	1088.49
400.90	1088.84
401.27	1089.40
401.64	1090.57
402.00	1092.68
402.37	1095.11
402.74	1095.84
403.11	1096.59
403.48	1096.26
403.84	1095.82
404.21	1095.70
404.58	1093.62
404.95	1095.98
405.32	1097.17
405.68	1098.46
406.05	1098.39
406.42	1098.60
406.79	1098.95
407.16	1100.45
407.52	1101.15
407.89	1100.57
408.26	1101.85
408.63	1100.40
408.99	1099.16
409.36	1097.88
409.73	1099.93
410.10	1095.51
410.47	1097.36
410.83	1097.50
411.20	1100.31
411.57	1101.55
411.94	1107.92
412.30	1109.20
412.67	1109.58
413.04	1107.14
413.40	1103.49
413.77	1104.29
414.14	1102.91
414.51	1104.83
414.87	1105.15
415.24	1108.24
415.61	1108.06
415.97	1107.00
416.34	1105.88
416.71	1108.88
417.08	1108.20
417.44	1106.93
417.81	1106.35
418.18	1104.71
418.54	1101.90
418.91	1105.22
419.28	1106.23
419.64	1112.57
420.01	1119.03
420.38	1122.90
420.74	1122.68
421.11	1126.31
421.48	1125.49
421.84	1126.38
422.21	1129.89
422.58	1133.62
422.94	1133.97
423.31	1139.05
423.68	1139.89
424.04	1143.52
424.41	1146.16
424.77	1153.84
425.14	1155.97
425.51	1163.78
425.87	1166.29
426.24	1172.66
426.61	1176.03
426.97	1181.60
427.34	1186.79
427.70	1197.89
428.07	1210.03
428.44	1219.54
428.80	1232.99
429.17	1241.49
429.53	1247.67
429.90	1255.81
430.27	1265.46
430.63	1276.46
431.00	1292.96
431.36	1310.51
431.73	1324.86
432.09	1345.32
432.46	1362.61
432.83	1380.64
433.19	1400.65
433.56	1423.23
433.92	1447.01
434.29	1473.09
434.65	1499.82
435.02	1530.80
435.38	1562.71
435.75	1595.47
436.11	1634.63
436.48	1676.24
436.84	1715.66
437.21	1760.83
437.57	1808.37
437.94	1859.77
438.30	1913.13
438.67	1973.91
439.03	2039.05
439.40	2108.71
439.76	2174.80
440.13	2247.08
440.49	2332.79
440.86	2409.84
441.22	2498.15
441.59	2589.85
441.95	2696.84
442.32	2795.56
442.68	2918.34
443.05	3038.18
443.41	3170.96
443.78	3301.63
444.14	3445.90
444.51	3586.78
444.87	3755.13
445.24	3913.49
445.60	4092.80
445.96	4269.84
446.33	4474.57
446.69	4674.80
447.06	4909.39
447.42	5133.47
447.79	5375.27
448.15	5647.57
448.51	5926.54
448.88	6245.16
449.24	6557.85
449.61	6920.19
449.97	7274.57
450.33	7664.60
450.70	8024.81
451.06	8469.13
451.43	8874.19
451.79	9337.64
452.15	9828.52
452.52	10364.15
452.88	10907.60
453.24	11537.39
453.61	12246.57
453.97	12953.23
454.34	13652.93
454.70	14472.91
455.06	15282.22
455.43	16050.46
455.79	16750.39
456.15	17577.28
456.52	18344.14
456.88	19282.71
457.24	20184.01
457.61	21300.40
457.97	22365.18
458.33	23453.99
458.70	24493.28
459.06	25504.89
459.42	26538.73
459.79	27481.63
460.15	28546.44
460.51	29544.96
460.88	30653.48
461.24	31634.07
461.60	32785.90
461.96	33855.52
462.33	34922.29
462.69	35995.43
463.05	37141.70
463.42	38186.54
463.78	39147.52
464.14	39903.75
464.50	40630.86
464.87	41150.76
465.23	41473.29
465.59	41845.85
465.95	42170.34
466.32	42400.93
466.68	42672.74
467.04	42864.83
467.40	42899.61
467.77	43012.94
468.13	42932.82
468.49	42751.50
468.85	42609.31
469.22	42479.20
469.58	42241.75
469.94	42113.17
470.30	41902.96
470.66	41558.22
471.03	41042.91
471.39	40644.85
471.75	39914.91
472.11	39192.01
472.47	38690.13
472.84	38166.16
473.20	37457.28
473.56	37058.38
473.92	36499.02
474.28	35862.60
474.65	35209.12
475.01	34498.37
475.37	33670.74
475.73	32968.88
476.09	32247.22
476.45	31582.58
476.81	31040.23
477.18	30470.01
477.54	29999.40
477.90	29561.53
478.26	28991.07
478.62	28467.66
478.98	28024.43
479.34	27575.84
479.71	27003.02
480.07	26583.17
480.43	26150.88
480.79	25677.97
481.15	25200.06
481.51	24811.74
481.87	24468.08
482.23	24089.29
482.59	23759.25
482.96	23427.22
483.32	23119.67
483.68	22712.16
484.04	22355.70
484.40	21948.23
484.76	21528.67
485.12	21075.68
485.48	20646.12
485.84	20166.48
486.20	19714.71
486.56	19274.94
486.92	18887.26
487.28	18489.09
487.64	18082.07
488.00	17695.85
488.37	17283.10
488.73	16822.55
489.09	16358.71
489.45	15916.60
489.81	15452.76
490.17	15018.00
490.53	14616.74
490.89	14210.98
491.25	13797.53
491.61	13403.17
491.97	13005.33
492.33	12602.50
492.69	12243.62
493.05	11921.92
493.41	11593.19
493.77	11271.20
494.13	10969.55
494.49	10670.10
494.85	10368.64
495.21	10086.98
495.57	9811.62
495.93	9540.84
496.29	9283.08
496.64	9057.55
497.00	8809.33
497.36	8559.62
497.72	8316.98
498.08	8086.69
498.44	7840.63
498.80	7615.96
499.16	7415.10
499.52	7214.75
499.88	7032.91
500.24	6863.20
500.60	6714.44
500.96	6565.34
501.32	6419.55
501.68	6243.82
502.03	6066.46
502.39	5892.86
502.75	5717.88
503.11	5557.30
503.47	5423.77
503.83	5297.71
504.19	5176.89
504.55	5062.70
504.91	4940.10
505.26	4818.11
505.62	4695.75
505.98	4575.00
506.34	4453.17
506.70	4333.17
507.06	4220.34
507.42	4113.77
507.78	4013.13
508.13	3920.05
508.49	3846.23
508.85	3767.44
509.21	3688.59
509.57	3600.00
509.93	3517.17
510.28	3427.11
510.64	3341.79
511.00	3259.64
511.36	3193.29
511.72	3119.96
512.07	3060.41
512.43	3000.33
512.79	2944.93
513.15	2880.43
513.51	2826.06
513.86	2763.42
514.22	2706.76
514.58	2651.22
514.94	2602.82
515.30	2557.97
515.65	2512.12
516.01	2473.99
516.37	2433.81
516.73	2398.84
517.08	2354.79
517.44	2311.02
517.80	2274.02
518.16	2236.57
518.51	2200.50
518.87	2169.47
519.23	2146.39
519.59	2106.46
519.94	2071.35
520.30	2039.26
520.66	2005.58
521.01	1971.29
521.37	1948.40
521.73	1925.14
522.09	1901.29
522.44	1884.13
522.80	1861.19
523.16	1838.40
523.51	1814.38
523.87	1790.91
524.23	1764.83
524.58	1745.71
524.94	1723.62
525.30	1704.05
525.65	1683.92
526.01	1664.17
526.37	1645.49
526.72	1632.50
527.08	1616.42
527.44	1599.85
527.79	1585.92
528.15	1568.91
528.51	1552.92
528.86	1539.93
529.22	1525.44
529.58	1513.69
529.93	1502.55
530.29	1488.56
530.65	1473.62
531.00	1461.90
531.36	1448.44
531.71	1437.04
532.07	1420.49
532.43	1407.27
532.78	1394.19
533.14	1385.20
533.49	1378.18
533.85	1374.97
534.21	1371.72
534.56	1363.92
534.92	1351.73
535.27	1340.99
535.63	1334.34
535.98	1325.91
536.34	1319.38
536.69	1313.79
537.05	1305.74
537.41	1294.92
537.76	1287.08
538.12	1284.79
538.47	1279.38
538.83	1272.92
539.18	1270.40
539.54	1267.75
539.89	1258.58
540.25	1255.14
540.60	1254.36
540.96	1251.88
541.31	1249.64
541.67	1245.77
542.02	1240.51
542.38	1236.06
542.73	1229.51
543.09	1227.07
543.44	1226.96
543.80	1224.31
544.15	1222.95
544.51	1221.41
544.86	1212.87
545.22	1208.21
545.57	1202.61
545.93	1196.08
546.28	1191.24
546.64	1188.13
546.99	1184.10
547.35	1181.95
547.70	1179.00
548.05	1174.64
548.41	1176.54
548.76	1172.89
549.12	1174.86
549.47	1171.32
549.83	1169.00
550.18	1161.30
550.53	1162.45
550.89	1157.93
551.24	1154.09
551.60	1153.63
551.95	1153.35
552.30	1150.58
552.66	1147.14
553.01	1147.26
553.37	1147.24
553.72	1144.55
554.07	1143.16
554.43	1142.86
554.78	1142.98
555.13	1141.71
555.49	1140.87
555.84	1139.40
556.19	1136.70
556.55	1137.08
556.90	1133.17
557.26	1132.73
557.61	1133.57
557.96	1133.50
558.32	1132.54
558.67	1133.50
559.02	1136.47
559.37	1133.29
559.73	1133.05
560.08	1130.90
560.43	1128.00
560.79	1121.19
561.14	1120.16
561.49	1121.05
561.85	1118.26
562.20	1119.97
562.55	1120.53
562.90	1117.42
563.26	1112.64
563.61	1114.96
563.96	1112.99
564.32	1112.36
564.67	1113.04
565.02	1113.84
565.37	1110.49
565.73	1114.38
566.08	1111.52
566.43	1110.54
566.78	1111.66
567.14	1114.66
567.49	1106.70
567.84	1108.27
568.19	1108.31
568.54	1107.94
568.90	1103.09
569.25	1106.72
569.60	1107.85
569.95	1105.41
570.31	1106.23
570.66	1106.82
571.01	1104.64
571.36	1104.97
571.71	1105.32
572.06	1104.31
572.42	1103.07
572.77	1101.62
573.12	1097.73
573.47	1098.86
573.82	1096.49
574.18	1099.00
574.53	1100.17
574.88	1101.95
575.23	1100.22
575.58	1101.20
575.93	1096.80
576.28	1097.85
576.64	1097.73
576.99	1101.29
577.34	1100.89
577.69	1103.47
578.04	1104.10
578.39	1103.12
578.74	1099.98
579.09	1096.54
579.44	1094.41
579.80	1093.52
580.15	1093.55
580.50	1093.80
580.85	1094.60
581.20	1095.00
581.55	1092.98
581.90	1091.86
582.25	1088.47
582.60	1089.05
582.95	1090.10
583.30	1090.62
583.65	1092.96
584.00	1096.49
584.35	1098.88
584.71	1098.32
585.06	1096.47
585.41	1093.08
585.76	1091.39
586.11	1088.58
586.46	1086.52
586.81	1090.34
587.16	1093.40
587.51	1095.56
587.86	1096.45
588.21	1097.80
588.56	1093.66
588.91	1089.68
589.26	1086.97
589.61	1086.66
589.96	1087.20
590.31	1086.97
590.66	1089.75
591.01	1088.35
591.36	1087.16
591.71	1084.74
592.06	1082.59
592.41	1081.33
592.76	1084.07
593.10	1080.20
593.45	1085.17
593.80	1088.40
594.15	1088.44
594.50	1087.55
594.85	1092.05
595.20	1092.23
595.55	1093.83
595.90	1094.86
596.25	1093.90
596.60	1093.24
596.95	1089.85
597.30	1087.86
597.64	1096.59
597.99	1098.48
598.34	1100.31
598.69	1099.05
599.04	1100.19
599.39	1090.88
599.74	1089.10
600.09	1086.94
600.44	1089.26
600.78	1089.31
601.13	1085.94
601.48	1087.95
601.83	1085.89
602.18	1086.41
602.53	1085.42
602.88	1086.71
603.22	1085.66
603.57	1086.57
603.92	1085.35
604.27	1082.92
604.62	1083.41
604.97	1083.79
605.31	1086.78
605.66	1087.51
606.01	1090.32
606.36	1088.26
606.71	1087.27
607.05	1087.46
607.40	1085.42
607.75	1085.59
608.10	1086.15
608.44	1089.07
608.79	1087.30
609.14	1088.40
609.49	1087.58
609.84	1087.81
610.18	1083.93
610.53	1083.93
610.88	1087.95
611.23	1089.96
611.57	1090.10
611.92	1092.47
612.27	1093.50
612.62	1089.64
612.96	1088.23
613.31	1091.65
613.66	1091.98
614.00	1090.43
614.35	1091.16
614.70	1093.08
615.05	1091.74
615.39	1090.50
615.74	1091.13
616.09	1090.81
616.43	1090.64
616.78	1089.45
617.13	1089.57
617.47	1087.69
617.82	1088.07
618.17	1088.98
618.51	1088.75
618.86	1084.86
619.21	1083.06
619.55	1081.33
619.90	1081.73
620.25	1081.54
620.59	1088.42
620.94	1091.88
621.29	1092.68
621.63	1088.26
621.98	1085.96
622.32	1083.08
622.67	1082.36
623.02	1082.24
623.36	1084.39
623.71	1086.71
624.05	1088.44
624.40	1085.07
624.75	1082.66
625.09	1078.82
625.44	1080.25
625.78	1075.45
626.13	1077.18
626.48	1078.61
626.82	1079.69
627.17	1076.79
627.51	1078.94
627.86	1079.08
628.20	1080.09
628.55	1078.05
628.89	1080.39
629.24	1077.58
629.58	1077.35
629.93	1074.35
630.28	1077.93
630.62	1077.40
630.97	1080.27
631.31	1083.22
631.66	1084.18
632.00	1082.66
632.35	1083.50
632.69	1082.24
633.04	1082.45
633.38	1083.41
633.73	1082.52
634.07	1082.45
634.42	1082.10
634.76	1077.98
635.11	1076.69
635.45	1080.48
635.79	1080.98
636.14	1082.59
636.48	1086.38
636.83	1087.48
637.17	1085.19
637.52	1083.76
637.86	1083.71
638.21	1081.12
638.55	1084.09
638.89	1082.64
639.24	1081.70
639.58	1081.42
639.93	1083.76
640.27	1081.21
640.61	1085.03
640.96	1088.09
641.30	1087.44
641.65	1088.82
641.99	1088.44
642.33	1088.33
642.68	1086.45
643.02	1088.35
643.37	1086.13
643.71	1085.26
644.05	1084.23
644.40	1084.21
644.74	1079.03
645.08	1076.65
645.43	1077.79
645.77	1079.90
646.11	1080.32
646.46	1081.58
646.80	1084.98
647.14	1085.33
647.49	1081.68
647.83	1081.73
648.17	1082.17
648.52	1081.82
648.86	1082.61
649.20	1087.06
649.55	1088.40
649.89	1089.87
650.23	1087.97
650.57	1086.83
650.92	1082.52
651.26	1082.01
651.60	1084.49
651.95	1086.17
652.29	1084.60
652.63	1083.53
652.97	1082.22
653.32	1081.73
653.66	1082.69
654.00	1082.26
654.34	1084.56
654.69	1088.12
655.03	1085.49
655.37	1082.05
655.71	1085.99
656.05	1086.29
656.40	1082.64
656.74	1083.34
657.08	1083.29
657.42	1079.99
657.76	1078.21
658.11	1079.41
658.45	1080.53
658.79	1083.01
659.13	1085.77
659.47	1089.19
659.82	1086.29
660.16	1087.95
660.50	1087.41
660.84	1086.85
661.18	1083.36
661.52	1085.66
661.87	1080.30
662.21	1079.03
662.55	1079.97
662.89	1081.94
663.23	1085.40
663.57	1090.85
663.91	1091.09
664.25	1089.00
664.60	1088.26
664.94	1086.43
665.28	1082.83
665.62	1083.88
665.96	1082.78
666.30	1083.29
666.64	1080.25
666.98	1081.33
667.32	1081.87
667.66	1083.22
668.01	1082.36
668.35	1081.91
668.69	1085.35
669.03	1084.09
669.37	1086.59
669.71	1086.41
670.05	1087.18
670.39	1083.69
670.73	1081.02
671.07	1080.04
671.41	1077.96
671.75	1078.78
672.09	1079.46
672.43	1082.87
672.77	1079.90
673.11	1081.94
673.45	1079.60
673.79	1079.64
674.13	1081.02
674.47	1084.79
674.81	1085.54
675.15	1085.12
675.49	1084.91
675.83	1081.00
676.17	1077.18
676.51	1074.63
676.85	1079.83
677.19	1075.50
677.53	1076.20
677.87	1078.73
678.21	1081.84
678.55	1079.08
678.89	1082.57
679.23	1084.28
679.57	1082.99
679.90	1083.62
680.24	1081.47
680.58	1080.58
680.92	1079.69
681.26	1082.87
681.60	1081.12
681.94	1081.77
682.28	1080.13
682.62	1082.01
682.96	1078.24
683.29	1077.98
683.63	1081.75
683.97	1085.68
684.31	1084.93
684.65	1085.99
684.99	1087.27
685.33	1084.00
685.67	1080.67
686.00	1081.00
686.34	1076.97
686.68	1074.07
687.02	1077.28
687.36	1078.54
687.70	1077.72
688.03	1079.74
688.37	1081.51
688.71	1079.17
689.05	1081.33
689.39	1081.61
689.72	1082.80
690.06	1082.01
690.40	1082.05
690.74	1082.36
691.08	1084.49
691.41	1085.00
691.75	1085.03
692.09	1087.32
692.43	1084.02
692.76	1083.71
693.10	1084.14
693.44	1084.18
693.78	1080.41
694.11	1083.67
694.45	1080.98
694.79	1079.78
695.13	1079.81
695.46	1078.61
695.80	1078.80
696.14	1077.23
696.48	1076.74
696.81	1076.46
697.15	1079.24
697.49	1075.31
697.82	1074.49
698.16	1076.41
698.50	1076.20
698.83	1075.87
699.17	1078.00
699.51	1080.06
699.84	1077.30
700.18	1078.54
700.52	1076.97
700.85	1076.18
701.19	1077.63
701.53	1079.36
701.86	1078.96
702.20	1079.71
702.54	1083.27
702.87	1084.11
703.21	1085.17
703.55	1085.00
703.88	1087.55
704.22	1084.23
704.55	1082.64
704.89	1081.23
705.23	1080.93
705.56	1080.67
705.90	1080.23
706.23	1082.08
706.57	1084.23
706.91	1087.09
707.24	1086.59
707.58	1087.20
707.91	1085.14
708.25	1085.17
708.58	1084.89
708.92	1083.93
709.26	1083.69
709.59	1083.88
709.93	1079.88
710.26	1076.76
710.60	1076.08
710.93	1077.23
711.27	1078.07
711.60	1079.76
711.94	1083.08
712.27	1085.33
712.61	1084.14
712.94	1079.01
713.28	1078.73
713.61	1075.17
713.95	1076.44
714.28	1078.66
714.62	1084.11
714.95	1085.89
715.29	1084.77
715.62	1082.54
715.96	1082.43
716.29	1081.37
716.63	1079.85
716.96	1083.67
717.29	1084.09
717.63	1079.50
717.96	1079.50
718.30	1081.54
718.63	1078.54
718.97	1079.34
719.30	1083.90
719.63	1081.96
719.97	1079.55
720.30	1079.85
720.64	1077.79
720.97	1078.96
721.30	1080.67
721.64	1081.51
721.97	1083.50
722.31	1085.33
722.64	1084.14
722.97	1084.56
723.31	1085.52
723.64	1083.53
723.97	1085.00
724.31	1085.49
724.64	1086.57
724.98	1085.45
725.31	1088.86
725.64	1085.38
725.98	1080.32
726.31	1080.79
726.64	1083.46
726.97	1080.53
727.31	1079.48
727.64	1083.60
727.97	1081.30
728.31	1077.54
728.64	1077.91
728.97	1078.57
729.31	1078.26
729.64	1077.44
729.97	1078.82
730.30	1077.25
730.64	1077.40
730.97	1079.50
731.30	1080.39
731.63	1079.08
731.97	1080.23
732.30	1077.70
732.63	1071.73
732.96	1070.68
733.30	1072.60
733.63	1075.24
733.96	1077.96
734.29	1083.36
734.63	1083.46
734.96	1084.23
735.29	1078.66
735.62	1078.12
735.95	1074.21
736.29	1077.68
736.62	1075.99
736.95	1081.35
737.28	1085.21
737.61	1086.06
737.94	1084.30
738.28	1085.70
738.61	1086.97
738.94	1082.61
739.27	1086.48
739.60	1085.61
739.93	1088.42
740.27	1087.60
740.60	1088.33
740.93	1083.46
741.26	1084.18
741.59	1082.17
741.92	1078.17
742.25	1077.77
742.58	1081.47
742.91	1081.68
743.25	1080.44
743.58	1083.69
743.91	1083.79
744.24	1081.19
744.57	1082.22
744.90	1080.30
745.23	1078.36
745.56	1080.98
745.89	1082.19
746.22	1081.61
746.55	1084.96
746.88	1087.44
747.21	1085.54
747.54	1082.33
747.87	1083.64
748.20	1081.51
748.53	1080.18
748.87	1080.91
749.20	1083.06
749.53	1082.64
749.86	1084.00
750.19	1084.58
750.52	1081.63
750.85	1082.76
751.18	1082.64
751.51	1082.01
751.84	1083.62
752.16	1083.50
752.49	1081.94
752.82	1078.28
753.15	1076.11
753.48	1074.31
753.81	1077.25
754.14	1078.52
754.47	1078.36
754.80	1078.05
755.13	1077.40
755.46	1077.65
755.79	1079.85
756.12	1085.12
756.45	1088.09
756.78	1085.07
757.11	1085.31
757.43	1085.07
757.76	1083.50
758.09	1079.36
758.42	1081.44
758.75	1081.44
759.08	1078.61
759.41	1081.91
759.74	1085.33
760.07	1087.27
760.39	1086.57
760.72	1086.71
761.05	1079.06
761.38	1076.53
761.71	1077.86
762.04	1079.62
762.36	1077.04
762.69	1079.20
763.02	1081.19
763.35	1078.59
763.68	1075.22
