SpectraSuite Data File
++++++++++++++++++++++++++++++++++++
Date: Mon Aug 26 10:22:24 PDT 2019
User: corrico
Dark Spectrum Present: No
Reference Spectrum Present: No
Number of Sampled Component Spectra: 1
Spectrometers: USB2+H06089
Integration Time (usec): 2000 (USB2+H06089)
Spectra Averaged: 20 (USB2+H06089)
Boxcar Smoothing: 2 (USB2+H06089)
Correct for Electrical Dark: No (USB2+H06089)
Strobe/Lamp Enabled: No (USB2+H06089)
Correct for Detector Non-linearity: No (USB2+H06089)
Correct for Stray Light: No (USB2+H06089)
Number of Pixels in Processed Spectrum: 2048
>>>>>Begin Processed Spectral Data<<<<<
339.70	1022.46
340.07	1022.46
340.45	989.48
340.82	968.65
341.19	942.46
341.57	918.87
341.94	906.68
342.31	900.03
342.69	897.01
343.06	899.14
343.43	900.19
343.81	904.15
344.18	909.86
344.55	912.69
344.93	914.24
345.30	918.89
345.67	921.84
346.04	925.92
346.42	932.19
346.79	945.86
347.16	953.04
347.54	960.60
347.91	970.01
348.28	983.00
348.65	989.39
349.03	1001.40
349.40	1014.01
349.77	1018.20
350.14	1024.36
350.52	1031.61
350.89	1037.09
351.26	1042.47
351.63	1054.67
352.01	1058.27
352.38	1059.28
352.75	1061.46
353.12	1064.87
353.50	1063.84
353.87	1066.42
354.24	1076.11
354.61	1081.07
354.98	1084.81
355.36	1088.63
355.73	1091.27
356.10	1087.16
356.47	1084.93
356.84	1085.80
357.22	1082.90
357.59	1083.97
357.96	1088.07
358.33	1088.51
358.70	1086.87
359.08	1087.95
359.45	1087.65
359.82	1082.19
360.19	1080.20
360.56	1079.50
360.94	1082.85
361.31	1081.94
361.68	1082.19
362.05	1085.07
362.42	1086.31
362.79	1084.00
363.16	1079.83
363.54	1080.63
363.91	1078.68
364.28	1075.71
364.65	1074.35
365.02	1076.23
365.39	1072.60
365.76	1069.98
366.14	1069.93
366.51	1068.81
366.88	1070.58
367.25	1076.06
367.62	1079.60
367.99	1080.56
368.36	1082.17
368.73	1079.90
369.10	1078.47
369.48	1074.96
369.85	1076.30
370.22	1074.77
370.59	1076.76
370.96	1075.69
371.33	1076.08
371.70	1069.32
372.07	1070.23
372.44	1065.29
372.81	1064.71
373.18	1065.18
373.55	1070.44
373.93	1070.51
374.30	1071.78
374.67	1072.43
375.04	1073.18
375.41	1074.26
375.78	1074.87
376.15	1076.23
376.52	1074.56
376.89	1076.20
377.26	1078.38
377.63	1079.78
378.00	1080.95
378.37	1081.30
378.74	1079.62
379.11	1075.43
379.48	1073.56
379.85	1075.45
380.22	1077.61
380.59	1076.72
380.96	1079.95
381.33	1078.21
381.70	1076.93
382.07	1076.60
382.44	1077.82
382.81	1074.24
383.18	1077.44
383.55	1078.96
383.92	1080.60
384.29	1084.63
384.66	1089.26
385.03	1089.54
385.40	1085.54
385.77	1084.18
386.14	1084.28
386.51	1082.40
386.88	1083.57
387.25	1086.62
387.62	1087.86
387.99	1084.49
388.36	1085.66
388.73	1085.68
389.10	1086.73
389.46	1085.31
389.83	1084.32
390.20	1080.91
390.57	1079.64
390.94	1078.92
391.31	1082.19
391.68	1086.94
392.05	1087.83
392.42	1089.17
392.79	1088.19
393.16	1089.24
393.53	1088.26
393.89	1087.55
394.26	1087.25
394.63	1091.11
395.00	1087.97
395.37	1085.96
395.74	1091.23
396.11	1089.99
396.48	1087.76
396.84	1089.59
397.21	1088.63
397.58	1086.99
397.95	1088.93
398.32	1089.71
398.69	1090.10
399.06	1091.67
399.42	1090.34
399.79	1089.73
400.16	1091.02
400.53	1089.71
400.90	1090.60
401.27	1091.58
401.64	1091.20
402.00	1091.16
402.37	1091.77
402.74	1089.68
403.11	1089.59
403.48	1090.24
403.84	1086.43
404.21	1086.80
404.58	1085.47
404.95	1087.32
405.32	1087.62
405.68	1092.21
406.05	1091.44
406.42	1098.25
406.79	1096.33
407.16	1095.72
407.52	1095.46
407.89	1096.35
408.26	1093.90
408.63	1094.65
408.99	1096.05
409.36	1092.59
409.73	1093.94
410.10	1093.78
410.47	1091.32
410.83	1093.64
411.20	1095.67
411.57	1092.07
411.94	1093.19
412.30	1098.83
412.67	1096.10
413.04	1097.73
413.40	1099.82
413.77	1100.54
414.14	1099.02
414.51	1101.01
414.87	1099.75
415.24	1102.70
415.61	1101.57
415.97	1104.29
416.34	1103.31
416.71	1105.04
417.08	1105.60
417.44	1107.75
417.81	1107.21
418.18	1108.95
418.54	1110.30
418.91	1113.04
419.28	1116.41
419.64	1115.22
420.01	1115.29
420.38	1118.40
420.74	1119.78
421.11	1118.82
421.48	1121.42
421.84	1125.28
422.21	1128.35
422.58	1129.10
422.94	1129.52
423.31	1130.95
423.68	1133.22
424.04	1132.44
424.41	1134.04
424.77	1140.47
425.14	1145.04
425.51	1146.53
425.87	1149.23
426.24	1154.75
426.61	1158.35
426.97	1165.84
427.34	1172.54
427.70	1180.52
428.07	1184.01
428.44	1188.66
428.80	1194.14
429.17	1202.03
429.53	1208.91
429.90	1221.34
430.27	1231.80
430.63	1239.45
431.00	1251.70
431.36	1264.78
431.73	1276.95
432.09	1291.02
432.46	1309.01
432.83	1324.79
433.19	1343.56
433.56	1356.32
433.92	1376.16
434.29	1395.17
434.65	1416.05
435.02	1439.13
435.38	1469.01
435.75	1491.51
436.11	1521.32
436.48	1551.63
436.84	1585.83
437.21	1623.91
437.57	1663.18
437.94	1705.34
438.30	1751.63
438.67	1792.45
439.03	1841.42
439.40	1895.58
439.76	1949.06
440.13	2013.42
440.49	2081.46
440.86	2142.18
441.22	2216.07
441.59	2290.38
441.95	2362.44
442.32	2446.54
442.68	2549.03
443.05	2641.46
443.41	2740.95
443.78	2841.13
444.14	2947.41
444.51	3051.08
444.87	3192.12
445.24	3330.91
445.60	3489.65
445.96	3647.07
446.33	3821.58
446.69	3982.23
447.06	4163.77
447.42	4341.60
447.79	4529.55
448.15	4751.52
448.51	4982.11
448.88	5232.64
449.24	5477.72
449.61	5756.31
449.97	6010.66
450.33	6289.79
450.70	6553.69
451.06	6873.43
451.43	7178.28
451.79	7549.16
452.15	7951.01
452.52	8402.83
452.88	8873.60
453.24	9405.19
453.61	9979.62
453.97	10526.00
454.34	11066.73
454.70	11700.78
455.06	12344.38
455.43	12976.80
455.79	13591.23
456.15	14302.83
456.52	14956.14
456.88	15727.28
457.24	16453.05
457.61	17284.48
457.97	18052.04
458.33	18835.27
458.70	19586.16
459.06	20326.01
459.42	21178.88
459.79	21947.44
460.15	22860.39
460.51	23723.55
460.88	24662.39
461.24	25443.38
461.60	26402.60
461.96	27246.86
462.33	28078.68
462.69	28851.74
463.05	29692.60
463.42	30428.84
463.78	31075.01
464.14	31615.93
464.50	32213.73
464.87	32682.84
465.23	33028.42
465.59	33399.00
465.95	33726.46
466.32	33989.66
466.68	34198.50
467.04	34334.14
467.40	34460.74
467.77	34620.64
468.13	34618.51
468.49	34567.42
468.85	34477.85
469.22	34313.03
469.58	33968.94
469.94	33706.62
470.30	33406.63
470.66	33018.08
471.03	32450.80
471.39	32058.79
471.75	31437.16
472.11	30845.01
472.47	30501.65
472.84	30182.80
473.20	29703.43
473.56	29445.65
473.92	29009.89
474.28	28472.10
474.65	27966.22
475.01	27484.77
475.37	26892.19
475.73	26413.23
476.09	25883.19
476.45	25373.40
476.81	24862.69
477.18	24330.10
477.54	23880.28
477.90	23526.88
478.26	23086.58
478.62	22727.61
478.98	22429.12
479.34	22122.98
479.71	21706.25
480.07	21380.30
480.43	21040.04
480.79	20659.51
481.15	20309.65
481.51	20006.95
481.87	19759.97
482.23	19458.82
482.59	19205.36
482.96	18912.46
483.32	18620.86
483.68	18230.22
484.04	17894.68
484.40	17538.20
484.76	17183.00
485.12	16828.57
485.48	16518.80
485.84	16170.93
486.20	15819.42
486.56	15448.40
486.92	15137.95
487.28	14787.57
487.64	14432.33
488.00	14103.60
488.37	13793.50
488.73	13430.25
489.09	13086.47
489.45	12780.38
489.81	12459.89
490.17	12164.07
490.53	11877.89
490.89	11580.67
491.25	11275.60
491.61	10980.69
491.97	10658.96
492.33	10327.71
492.69	10029.66
493.05	9729.84
493.41	9430.37
493.77	9152.17
494.13	8904.92
494.49	8652.26
494.85	8416.00
495.21	8190.42
495.57	7977.97
495.93	7757.78
496.29	7552.23
496.64	7357.22
497.00	7169.97
497.36	6966.70
497.72	6785.19
498.08	6603.17
498.44	6423.81
498.80	6254.40
499.16	6100.51
499.52	5945.71
499.88	5825.78
500.24	5705.95
500.60	5579.88
500.96	5461.76
501.32	5353.39
501.68	5224.31
502.03	5096.05
502.39	4974.25
502.75	4841.94
503.11	4712.04
503.47	4590.91
503.83	4469.67
504.19	4351.99
504.55	4244.77
504.91	4149.96
505.26	4055.31
505.62	3970.30
505.98	3880.66
506.34	3791.32
506.70	3690.91
507.06	3602.20
507.42	3513.73
507.78	3437.26
508.13	3360.45
508.49	3288.20
508.85	3220.86
509.21	3155.46
509.57	3086.07
509.93	3018.96
510.28	2957.36
510.64	2887.14
511.00	2821.56
511.36	2761.46
511.72	2709.57
512.07	2653.77
512.43	2606.51
512.79	2555.75
513.15	2508.56
513.51	2458.71
513.86	2414.50
514.22	2370.87
514.58	2330.31
514.94	2289.32
515.30	2255.08
515.65	2221.31
516.01	2189.48
516.37	2160.10
516.73	2135.18
517.08	2107.32
517.44	2074.84
517.80	2045.65
518.16	2021.78
518.51	1991.75
518.87	1961.86
519.23	1936.70
519.59	1912.50
519.94	1881.21
520.30	1853.49
520.66	1824.92
521.01	1803.48
521.37	1778.85
521.73	1761.11
522.09	1743.72
522.44	1735.25
522.80	1712.22
523.16	1695.20
523.51	1672.90
523.87	1650.94
524.23	1630.21
524.58	1608.23
524.94	1590.63
525.30	1575.25
525.65	1563.90
526.01	1544.75
526.37	1536.35
526.72	1523.36
527.08	1509.34
527.44	1493.50
527.79	1481.51
528.15	1470.61
528.51	1456.70
528.86	1444.95
529.22	1432.90
529.58	1422.81
529.93	1411.06
530.29	1398.54
530.65	1388.05
531.00	1378.88
531.36	1365.33
531.71	1357.79
532.07	1350.47
532.43	1340.50
532.78	1337.45
533.14	1330.83
533.49	1321.79
533.85	1316.25
534.21	1311.00
534.56	1299.98
534.92	1298.13
535.27	1291.46
535.63	1287.29
535.98	1283.01
536.34	1280.95
536.69	1272.08
537.05	1267.84
537.41	1263.42
537.76	1257.15
538.12	1251.37
538.47	1248.21
538.83	1241.51
539.18	1236.08
539.54	1231.03
539.89	1227.80
540.25	1224.29
540.60	1223.40
540.96	1216.35
541.31	1211.81
541.67	1208.02
542.02	1204.65
542.38	1201.70
542.73	1200.09
543.09	1202.43
543.44	1197.46
543.80	1192.22
544.15	1187.33
544.51	1184.10
544.86	1176.52
545.22	1176.12
545.57	1175.25
545.93	1177.92
546.28	1176.47
546.64	1176.12
546.99	1171.79
547.35	1168.49
547.70	1160.44
548.05	1160.81
548.41	1158.49
548.76	1156.58
549.12	1153.79
549.47	1153.88
549.83	1150.54
550.18	1152.13
550.53	1150.51
550.89	1150.44
551.24	1146.07
551.60	1145.50
551.95	1139.82
552.30	1138.41
552.66	1135.09
553.01	1138.86
553.37	1138.53
553.72	1138.58
554.07	1137.17
554.43	1136.12
554.78	1132.70
555.13	1125.94
555.49	1123.67
555.84	1125.26
556.19	1125.40
556.55	1121.40
556.90	1124.46
557.26	1124.91
557.61	1124.07
557.96	1124.16
558.32	1124.37
558.67	1123.34
559.02	1123.34
559.37	1119.50
559.73	1118.61
560.08	1121.91
560.43	1123.86
560.79	1123.22
561.14	1123.43
561.49	1122.45
561.85	1119.06
562.20	1114.05
562.55	1114.00
562.90	1113.58
563.26	1114.45
563.61	1113.70
563.96	1111.12
564.32	1111.47
564.67	1113.37
565.02	1113.56
565.37	1114.10
565.73	1118.14
566.08	1116.08
566.43	1112.15
566.78	1108.48
567.14	1108.85
567.49	1107.54
567.84	1106.75
568.19	1108.66
568.54	1108.41
568.90	1106.18
569.25	1103.87
569.60	1103.14
569.95	1098.06
570.31	1097.03
570.66	1095.46
571.01	1099.07
571.36	1096.42
571.71	1099.19
572.06	1100.40
572.42	1099.30
572.77	1094.97
573.12	1097.13
573.47	1093.45
573.82	1093.01
574.18	1092.84
574.53	1091.42
574.88	1088.51
575.23	1091.58
575.58	1092.42
575.93	1092.33
576.28	1095.28
576.64	1096.96
576.99	1096.59
577.34	1093.92
577.69	1095.25
578.04	1096.99
578.39	1096.63
578.74	1094.27
579.09	1093.69
579.44	1094.36
579.80	1090.29
580.15	1092.66
580.50	1092.98
580.85	1093.26
581.20	1091.53
581.55	1092.30
581.90	1089.89
582.25	1088.84
582.60	1088.93
582.95	1089.00
583.30	1085.59
583.65	1084.53
584.00	1086.76
584.35	1088.82
584.71	1091.44
585.06	1092.33
585.41	1093.43
585.76	1093.99
586.11	1091.86
586.46	1088.26
586.81	1089.47
587.16	1090.24
587.51	1089.19
587.86	1089.05
588.21	1086.69
588.56	1086.52
588.91	1085.03
589.26	1082.90
589.61	1083.25
589.96	1088.12
590.31	1086.43
590.66	1087.88
591.01	1089.94
591.36	1092.96
591.71	1092.87
592.06	1095.04
592.41	1092.33
592.76	1092.05
593.10	1086.87
593.45	1083.88
593.80	1083.11
594.15	1081.91
594.50	1082.71
594.85	1086.55
595.20	1084.51
595.55	1085.12
595.90	1088.30
596.25	1086.90
596.60	1084.89
596.95	1086.55
597.30	1086.64
597.64	1097.17
597.99	1100.64
598.34	1104.08
598.69	1105.32
599.04	1104.73
599.39	1095.30
599.74	1094.93
600.09	1092.66
600.44	1092.14
600.78	1091.72
601.13	1090.60
601.48	1091.23
601.83	1090.01
602.18	1090.53
602.53	1091.44
602.88	1091.79
603.22	1089.38
603.57	1090.43
603.92	1091.84
604.27	1089.87
604.62	1087.44
604.97	1084.35
605.31	1085.47
605.66	1084.25
606.01	1086.55
606.36	1087.53
606.71	1091.91
607.05	1088.77
607.40	1087.04
607.75	1087.39
608.10	1087.93
608.44	1088.26
608.79	1091.65
609.14	1092.26
609.49	1093.71
609.84	1092.59
610.18	1089.38
610.53	1087.39
610.88	1088.98
611.23	1086.45
611.57	1086.45
611.92	1087.48
612.27	1084.86
612.62	1083.62
612.96	1082.38
613.31	1082.83
613.66	1083.53
614.00	1086.24
614.35	1087.86
614.70	1088.42
615.05	1089.96
615.39	1089.05
615.74	1088.02
616.09	1086.22
616.43	1087.41
616.78	1086.08
617.13	1085.21
617.47	1086.27
617.82	1086.29
618.17	1088.70
618.51	1086.41
618.86	1087.23
619.21	1085.87
619.55	1085.73
619.90	1083.04
620.25	1083.88
620.59	1082.01
620.94	1080.51
621.29	1079.97
621.63	1079.81
621.98	1080.79
622.32	1082.50
622.67	1084.84
623.02	1086.48
623.36	1086.52
623.71	1086.97
624.05	1087.34
624.40	1089.78
624.75	1086.10
625.09	1084.98
625.44	1084.39
625.78	1083.34
626.13	1080.53
626.48	1082.85
626.82	1082.33
627.17	1081.56
627.51	1083.18
627.86	1084.77
628.20	1085.31
628.55	1085.45
628.89	1085.61
629.24	1083.53
629.58	1080.98
629.93	1079.90
630.28	1081.68
630.62	1083.83
630.97	1085.05
631.31	1088.26
631.66	1089.38
632.00	1088.86
632.35	1085.63
632.69	1087.83
633.04	1086.92
633.38	1088.12
633.73	1089.57
634.07	1090.74
634.42	1087.97
634.76	1088.63
635.11	1087.65
635.45	1084.44
635.79	1084.02
636.14	1085.52
636.48	1082.54
636.83	1083.97
637.17	1085.40
637.52	1086.92
637.86	1086.48
638.21	1087.37
638.55	1089.26
638.89	1089.47
639.24	1090.71
639.58	1089.82
639.93	1087.76
640.27	1083.97
640.61	1083.71
640.96	1081.91
641.30	1078.28
641.65	1079.99
641.99	1079.27
642.33	1077.91
642.68	1080.37
643.02	1082.54
643.37	1078.96
643.71	1075.36
644.05	1076.46
644.40	1074.68
644.74	1078.66
645.08	1081.51
645.43	1086.45
645.77	1087.41
646.11	1088.56
646.46	1089.07
646.80	1092.40
647.14	1091.98
647.49	1089.82
647.83	1088.70
648.17	1084.93
648.52	1077.00
648.86	1076.32
649.20	1076.69
649.55	1076.27
649.89	1078.26
650.23	1084.72
650.57	1085.26
650.92	1086.69
651.26	1086.78
651.60	1084.89
651.95	1082.15
652.29	1082.80
652.63	1084.46
652.97	1084.02
653.32	1086.55
653.66	1085.03
654.00	1086.15
654.34	1085.89
654.69	1088.49
655.03	1087.88
655.37	1092.73
655.71	1092.30
656.05	1092.75
656.40	1089.29
656.74	1087.25
657.08	1086.24
657.42	1085.77
657.76	1082.59
658.11	1086.38
658.45	1086.15
658.79	1082.90
659.13	1081.30
659.47	1084.00
659.82	1081.26
660.16	1079.64
660.50	1084.44
660.84	1085.84
661.18	1083.81
661.52	1084.14
661.87	1087.37
662.21	1088.16
662.55	1085.19
662.89	1084.02
663.23	1080.91
663.57	1082.76
663.91	1078.75
664.25	1081.82
664.60	1083.34
664.94	1086.13
665.28	1079.57
665.62	1079.24
665.96	1078.96
666.30	1079.71
666.64	1078.75
666.98	1082.66
667.32	1081.61
667.66	1079.57
668.01	1078.12
668.35	1079.53
668.69	1079.43
669.03	1079.71
669.37	1079.76
669.71	1077.11
670.05	1074.56
670.39	1074.89
670.73	1079.01
671.07	1078.52
671.41	1084.39
671.75	1084.49
672.09	1085.77
672.43	1086.27
672.77	1089.17
673.11	1085.03
673.45	1088.40
673.79	1088.26
674.13	1084.25
674.47	1083.48
674.81	1084.84
675.15	1083.71
675.49	1080.70
675.83	1080.67
676.17	1081.77
676.51	1083.11
676.85	1082.83
677.19	1087.41
677.53	1088.91
677.87	1088.72
678.21	1085.49
678.55	1085.24
678.89	1086.66
679.23	1087.55
679.57	1085.82
679.90	1089.31
680.24	1085.75
680.58	1083.27
680.92	1080.81
681.26	1079.48
681.60	1077.68
681.94	1080.11
682.28	1078.43
682.62	1078.71
682.96	1081.44
683.29	1082.22
683.63	1082.92
683.97	1079.88
684.31	1080.93
684.65	1078.00
684.99	1077.25
685.33	1078.14
685.67	1079.78
686.00	1081.09
686.34	1082.80
686.68	1083.50
687.02	1083.74
687.36	1085.94
687.70	1085.03
688.03	1086.13
688.37	1085.91
688.71	1086.38
689.05	1085.70
689.39	1086.69
689.72	1085.82
690.06	1084.96
690.40	1083.50
690.74	1083.22
691.08	1082.94
691.41	1086.50
691.75	1086.62
692.09	1086.64
692.43	1088.56
692.76	1089.87
693.10	1086.24
693.44	1087.95
693.78	1087.11
694.11	1085.49
694.45	1080.20
694.79	1078.96
695.13	1075.83
695.46	1074.28
695.80	1073.46
696.14	1076.13
696.48	1075.92
696.81	1077.82
697.15	1080.53
697.49	1078.71
697.82	1078.03
698.16	1078.14
698.50	1078.61
698.83	1079.43
699.17	1081.80
699.51	1084.51
699.84	1085.89
700.18	1086.29
700.52	1083.76
700.85	1081.00
701.19	1078.05
701.53	1078.36
701.86	1077.33
702.20	1080.11
702.54	1082.71
702.87	1085.77
703.21	1082.12
703.55	1080.27
703.88	1078.96
704.22	1079.67
704.55	1076.11
704.89	1079.69
705.23	1078.14
705.56	1077.11
705.90	1074.61
706.23	1074.91
706.57	1075.03
706.91	1077.16
707.24	1078.21
707.58	1078.05
707.91	1079.67
708.25	1077.23
708.58	1077.44
708.92	1078.87
709.26	1081.26
709.59	1082.08
709.93	1081.84
710.26	1084.35
710.60	1083.15
710.93	1081.82
711.27	1080.95
711.60	1085.07
711.94	1083.43
712.27	1084.74
712.61	1083.67
712.94	1080.39
713.28	1077.44
713.61	1076.93
713.95	1075.27
714.28	1078.96
714.62	1081.84
714.95	1083.22
715.29	1084.00
715.62	1083.15
715.96	1080.86
716.29	1082.66
716.63	1083.79
716.96	1083.81
717.29	1086.83
717.63	1086.36
717.96	1085.19
718.30	1083.55
718.63	1083.13
718.97	1078.12
719.30	1077.65
719.63	1078.96
719.97	1081.94
720.30	1082.08
720.64	1085.77
720.97	1086.92
721.30	1085.59
721.64	1081.75
721.97	1083.50
722.31	1083.67
722.64	1081.73
722.97	1081.63
723.31	1083.36
723.64	1081.51
723.97	1081.09
724.31	1080.72
724.64	1080.32
724.98	1077.18
725.31	1075.97
725.64	1076.13
725.98	1080.77
726.31	1081.54
726.64	1083.46
726.97	1083.62
727.31	1079.06
727.64	1078.21
727.97	1079.13
728.31	1079.31
728.64	1081.94
728.97	1086.41
729.31	1081.47
729.64	1079.88
729.97	1079.76
730.30	1075.85
730.64	1074.77
730.97	1074.84
731.30	1072.46
731.63	1071.22
731.97	1075.43
732.30	1075.85
732.63	1077.14
732.96	1078.31
733.30	1080.09
733.63	1077.30
733.96	1077.35
734.29	1083.86
734.63	1082.85
734.96	1084.25
735.29	1085.47
735.62	1085.47
735.95	1083.86
736.29	1086.01
736.62	1081.42
736.95	1084.11
737.28	1081.49
737.61	1079.43
737.94	1077.72
738.28	1080.70
738.61	1076.97
738.94	1080.70
739.27	1078.54
739.60	1079.06
739.93	1077.14
740.27	1078.66
740.60	1076.90
740.93	1076.30
741.26	1075.29
741.59	1078.00
741.92	1079.27
742.25	1080.41
742.58	1082.76
742.91	1082.33
743.25	1082.87
743.58	1081.75
743.91	1082.33
744.24	1083.60
744.57	1086.64
744.90	1086.15
745.23	1087.44
745.56	1088.37
745.89	1086.29
746.22	1083.97
746.55	1082.76
746.88	1079.48
747.21	1076.08
747.54	1075.15
747.87	1077.75
748.20	1080.53
748.53	1080.13
748.87	1083.01
749.20	1084.16
749.53	1083.11
749.86	1081.21
750.19	1085.17
750.52	1083.46
750.85	1084.18
751.18	1085.10
751.51	1083.53
751.84	1079.48
752.16	1085.61
752.49	1083.95
752.82	1083.86
753.15	1082.33
753.48	1081.82
753.81	1075.69
754.14	1078.71
754.47	1076.65
754.80	1079.06
755.13	1079.92
755.46	1080.63
755.79	1078.73
756.12	1082.29
756.45	1079.10
756.78	1078.45
757.11	1078.73
757.43	1075.73
757.76	1071.75
758.09	1075.01
758.42	1071.71
758.75	1072.04
759.08	1073.91
759.41	1076.06
759.74	1080.09
760.07	1086.08
760.39	1085.00
760.72	1086.59
761.05	1086.50
761.38	1080.25
761.71	1080.20
762.04	1078.40
762.36	1078.94
762.69	1077.28
763.02	1077.70
763.35	1073.63
763.68	1073.74
764.01	1073.02
