SpectraSuite Data File
++++++++++++++++++++++++++++++++++++
Date: Mon Aug 26 10:21:50 PDT 2019
User: corrico
Dark Spectrum Present: No
Reference Spectrum Present: No
Number of Sampled Component Spectra: 1
Spectrometers: USB2+H06089
Integration Time (usec): 2000 (USB2+H06089)
Spectra Averaged: 20 (USB2+H06089)
Boxcar Smoothing: 2 (USB2+H06089)
Correct for Electrical Dark: No (USB2+H06089)
Strobe/Lamp Enabled: No (USB2+H06089)
Correct for Detector Non-linearity: No (USB2+H06089)
Correct for Stray Light: No (USB2+H06089)
Number of Pixels in Processed Spectrum: 2048
>>>>>Begin Processed Spectral Data<<<<<
339.70	1029.02
340.07	1029.02
340.45	991.92
340.82	972.33
341.19	949.84
341.57	925.42
341.94	913.75
342.31	908.64
342.69	900.22
343.06	897.76
343.43	897.83
343.81	899.68
344.18	901.55
344.55	905.53
344.93	909.63
345.30	915.06
345.67	920.42
346.04	927.44
346.42	936.33
346.79	942.07
347.16	951.59
347.54	960.18
347.91	969.57
348.28	980.38
348.65	991.24
349.03	998.59
349.40	1008.70
349.77	1019.05
350.14	1023.75
350.52	1030.91
350.89	1034.73
351.26	1039.27
351.63	1040.37
352.01	1045.03
352.38	1048.82
352.75	1053.99
353.12	1056.28
353.50	1058.20
353.87	1065.11
354.24	1067.59
354.61	1070.14
354.98	1074.56
355.36	1078.82
355.73	1078.14
356.10	1078.80
356.47	1077.42
356.84	1080.41
357.22	1082.29
357.59	1080.46
357.96	1079.48
358.33	1081.77
358.70	1077.82
359.08	1078.80
359.45	1076.55
359.82	1079.76
360.19	1078.52
360.56	1079.90
360.94	1074.54
361.31	1076.39
361.68	1071.10
362.05	1067.31
362.42	1066.04
362.79	1066.65
363.16	1067.64
363.54	1068.03
363.91	1070.14
364.28	1069.27
364.65	1068.38
365.02	1065.62
365.39	1064.24
365.76	1061.18
366.14	1062.67
366.51	1062.14
366.88	1060.99
367.25	1065.32
367.62	1068.97
367.99	1063.77
368.36	1065.15
368.73	1066.39
369.10	1067.52
369.48	1068.10
369.85	1071.50
370.22	1068.20
370.59	1069.53
370.96	1063.05
371.33	1065.22
371.70	1067.12
372.07	1070.72
372.44	1068.90
372.81	1071.99
373.18	1070.37
373.55	1071.57
373.93	1073.30
374.30	1072.83
374.67	1075.10
375.04	1076.01
375.41	1073.65
375.78	1072.64
376.15	1074.73
376.52	1072.83
376.89	1072.81
377.26	1073.09
377.63	1074.40
378.00	1076.81
378.37	1080.39
378.74	1078.43
379.11	1076.76
379.48	1073.95
379.85	1071.08
380.22	1070.12
380.59	1066.77
380.96	1067.19
381.33	1067.12
381.70	1069.53
382.07	1067.80
382.44	1073.02
382.81	1073.21
383.18	1072.34
383.55	1072.41
383.92	1072.53
384.29	1072.85
384.66	1074.26
385.03	1078.82
385.40	1076.20
385.77	1077.28
386.14	1077.28
386.51	1074.61
386.88	1071.01
387.25	1071.17
387.62	1070.09
387.99	1068.92
388.36	1070.87
388.73	1072.85
389.10	1073.25
389.46	1073.16
389.83	1073.30
390.20	1074.21
390.57	1074.38
390.94	1073.28
391.31	1072.57
391.68	1073.93
392.05	1068.29
392.42	1066.37
392.79	1068.36
393.16	1069.95
393.53	1070.00
393.89	1074.56
394.26	1074.49
394.63	1072.74
395.00	1071.29
395.37	1069.77
395.74	1073.14
396.11	1074.26
396.48	1077.33
396.84	1078.21
397.21	1079.10
397.58	1078.50
397.95	1077.68
398.32	1078.82
398.69	1079.55
399.06	1079.50
399.42	1076.51
399.79	1077.61
400.16	1076.37
400.53	1076.15
400.90	1076.55
401.27	1080.48
401.64	1081.94
402.00	1078.59
402.37	1076.08
402.74	1076.65
403.11	1073.65
403.48	1068.97
403.84	1071.40
404.21	1071.38
404.58	1070.33
404.95	1070.21
405.32	1072.08
405.68	1073.84
406.05	1077.23
406.42	1076.41
406.79	1077.28
407.16	1082.26
407.52	1080.27
407.89	1080.46
408.26	1079.90
408.63	1080.02
408.99	1077.14
409.36	1079.13
409.73	1077.89
410.10	1082.03
410.47	1083.50
410.83	1083.36
411.20	1078.66
411.57	1077.28
411.94	1075.10
412.30	1074.89
412.67	1074.28
413.04	1077.96
413.40	1080.81
413.77	1083.67
414.14	1084.91
414.51	1084.96
414.87	1086.99
415.24	1087.86
415.61	1083.18
415.97	1078.03
416.34	1080.65
416.71	1078.66
417.08	1079.03
417.44	1081.28
417.81	1082.97
418.18	1079.76
418.54	1077.47
418.91	1076.88
419.28	1077.21
419.64	1082.08
420.01	1086.45
420.38	1091.30
420.74	1091.06
421.11	1092.63
421.48	1091.37
421.84	1092.52
422.21	1092.23
422.58	1093.19
422.94	1092.54
423.31	1093.64
423.68	1093.01
424.04	1093.22
424.41	1091.65
424.77	1093.40
425.14	1090.55
425.51	1089.33
425.87	1090.27
426.24	1093.73
426.61	1093.59
426.97	1098.09
427.34	1102.02
427.70	1101.50
428.07	1104.71
428.44	1105.95
428.80	1109.86
429.17	1112.88
429.53	1118.42
429.90	1117.68
430.27	1123.50
430.63	1127.44
431.00	1130.92
431.36	1134.13
431.73	1142.42
432.09	1144.62
432.46	1149.44
432.83	1153.77
433.19	1159.15
433.56	1165.47
433.92	1173.29
434.29	1180.05
434.65	1185.15
435.02	1195.80
435.38	1200.98
435.75	1210.71
436.11	1221.92
436.48	1235.73
436.84	1243.76
437.21	1255.91
437.57	1267.19
437.94	1277.28
438.30	1291.02
438.67	1310.02
439.03	1325.07
439.40	1340.12
439.76	1356.39
440.13	1373.08
440.49	1391.85
440.86	1411.23
441.22	1435.31
441.59	1459.72
441.95	1487.97
442.32	1516.97
442.68	1548.48
443.05	1582.55
443.41	1615.84
443.78	1648.63
444.14	1680.90
444.51	1719.40
444.87	1758.44
445.24	1797.46
445.60	1842.66
445.96	1892.74
446.33	1947.68
446.69	2000.97
447.06	2062.04
447.42	2124.06
447.79	2183.51
448.15	2243.85
448.51	2313.60
448.88	2388.82
449.24	2458.87
449.61	2546.46
449.97	2640.57
450.33	2733.84
450.70	2828.65
451.06	2937.86
451.43	3044.12
451.79	3169.34
452.15	3306.73
452.52	3449.22
452.88	3609.13
453.24	3773.06
453.61	3946.75
453.97	4121.80
454.34	4294.34
454.70	4477.07
455.06	4657.88
455.43	4840.79
455.79	5012.58
456.15	5212.37
456.52	5398.19
456.88	5626.91
457.24	5841.39
457.61	6105.38
457.97	6364.57
458.33	6626.55
458.70	6889.11
459.06	7152.82
459.42	7441.01
459.79	7700.74
460.15	7981.46
460.51	8243.53
460.88	8536.99
461.24	8801.28
461.60	9128.77
461.96	9441.79
462.33	9752.36
462.69	10039.00
463.05	10337.82
463.42	10607.82
463.78	10834.06
464.14	11035.09
464.50	11280.12
464.87	11442.81
465.23	11541.63
465.59	11681.75
465.95	11806.48
466.32	11859.75
466.68	11939.00
467.04	11977.08
467.40	12024.53
467.77	12070.10
468.13	12066.56
468.49	12043.11
468.85	12027.69
469.22	11962.45
469.58	11829.75
469.94	11746.47
470.30	11629.26
470.66	11537.60
471.03	11428.86
471.39	11383.34
471.75	11262.33
472.11	11155.58
472.47	11061.11
472.84	10934.40
473.20	10716.49
473.56	10545.59
473.92	10324.13
474.28	10099.06
474.65	9876.64
475.01	9718.70
475.37	9541.83
475.73	9408.60
476.09	9257.47
476.45	9123.15
476.81	8959.95
477.18	8805.77
477.54	8647.58
477.90	8511.19
478.26	8344.95
478.62	8218.60
478.98	8102.02
479.34	8023.22
479.71	7919.97
480.07	7851.94
480.43	7763.53
480.79	7671.06
481.15	7558.60
481.51	7443.82
481.87	7337.11
482.23	7232.42
482.59	7109.68
482.96	6989.78
483.32	6893.88
483.68	6783.53
484.04	6694.49
484.40	6617.91
484.76	6531.19
485.12	6427.95
485.48	6325.98
485.84	6197.32
486.20	6068.31
486.56	5948.66
486.92	5850.24
487.28	5749.60
487.64	5646.89
488.00	5550.39
488.37	5444.72
488.73	5313.81
489.09	5189.04
489.45	5069.48
489.81	4944.76
490.17	4826.37
490.53	4725.10
490.89	4619.63
491.25	4534.65
491.61	4447.09
491.97	4360.56
492.33	4263.50
492.69	4170.51
493.05	4071.69
493.41	3971.89
493.77	3870.75
494.13	3785.18
494.49	3713.00
494.85	3642.62
495.21	3575.68
495.57	3497.25
495.93	3430.69
496.29	3349.99
496.64	3279.35
497.00	3207.05
497.36	3147.58
497.72	3076.26
498.08	3013.42
498.44	2945.28
498.80	2888.24
499.16	2831.30
499.52	2781.66
499.88	2743.60
500.24	2704.02
500.60	2665.12
500.96	2629.99
501.32	2587.49
501.68	2539.22
502.03	2494.85
502.39	2448.69
502.75	2403.19
503.11	2360.13
503.47	2316.24
503.83	2277.55
504.19	2243.22
504.55	2206.00
504.91	2170.96
505.26	2134.78
505.62	2100.40
505.98	2067.54
506.34	2037.16
506.70	2006.96
507.06	1982.29
507.42	1954.49
507.78	1922.82
508.13	1895.48
508.49	1873.67
508.85	1849.35
509.21	1823.46
509.57	1799.08
509.93	1772.51
510.28	1741.48
510.64	1713.04
511.00	1688.72
511.36	1668.99
511.72	1651.60
512.07	1635.05
512.43	1617.17
512.79	1603.59
513.15	1587.52
513.51	1569.42
513.86	1550.91
514.22	1533.05
514.58	1511.61
514.94	1499.11
515.30	1486.08
515.65	1476.57
516.01	1467.80
516.37	1459.49
516.73	1446.76
517.08	1438.28
517.44	1424.73
517.80	1412.58
518.16	1403.20
518.51	1390.84
518.87	1377.87
519.23	1366.45
519.59	1357.28
519.94	1346.72
520.30	1338.90
520.66	1329.99
521.01	1325.14
521.37	1317.91
521.73	1310.54
522.09	1305.78
522.44	1300.31
522.80	1290.97
523.16	1285.33
523.51	1277.86
523.87	1272.78
524.23	1266.58
524.58	1266.60
524.94	1261.41
525.30	1258.30
525.65	1249.94
526.01	1245.80
526.37	1233.93
526.72	1230.00
527.08	1221.90
527.44	1217.71
527.79	1215.18
528.15	1215.74
528.51	1209.92
528.86	1209.73
529.22	1205.28
529.58	1197.32
529.93	1190.89
530.29	1186.96
530.65	1182.98
531.00	1181.78
531.36	1180.80
531.71	1178.09
532.07	1176.12
532.43	1171.70
532.78	1164.46
533.14	1161.42
533.49	1159.27
533.85	1154.42
534.21	1151.05
534.56	1150.14
534.92	1147.78
535.27	1144.94
535.63	1147.17
535.98	1146.56
536.34	1146.18
536.69	1146.79
537.05	1145.01
537.41	1140.47
537.76	1139.16
538.12	1135.49
538.47	1131.13
538.83	1129.36
539.18	1128.02
539.54	1127.30
539.89	1129.96
540.25	1127.97
540.60	1127.13
540.96	1126.62
541.31	1123.64
541.67	1119.57
542.02	1119.64
542.38	1117.54
542.73	1117.35
543.09	1119.27
543.44	1117.75
543.80	1117.00
544.15	1117.49
544.51	1115.01
544.86	1112.13
545.22	1113.30
545.57	1112.57
545.93	1111.52
546.28	1111.94
546.64	1112.57
546.99	1110.30
547.35	1106.23
547.70	1105.51
548.05	1104.64
548.41	1102.51
548.76	1099.30
549.12	1101.01
549.47	1099.47
549.83	1098.65
550.18	1099.54
550.53	1101.15
550.89	1102.46
551.24	1104.55
551.60	1102.51
551.95	1103.21
552.30	1102.77
552.66	1099.42
553.01	1096.40
553.37	1097.57
553.72	1093.66
554.07	1092.05
554.43	1090.08
554.78	1090.17
555.13	1089.61
555.49	1091.30
555.84	1093.76
556.19	1094.57
556.55	1093.52
556.90	1090.06
557.26	1089.73
557.61	1086.90
557.96	1086.66
558.32	1084.58
558.67	1085.35
559.02	1082.40
559.37	1083.48
559.73	1085.63
560.08	1090.06
560.43	1091.37
560.79	1092.05
561.14	1093.03
561.49	1092.80
561.85	1088.47
562.20	1085.89
562.55	1084.23
562.90	1079.83
563.26	1078.38
563.61	1081.14
563.96	1081.42
564.32	1080.51
564.67	1083.95
565.02	1084.70
565.37	1083.34
565.73	1084.51
566.08	1087.18
566.43	1086.01
566.78	1085.49
567.14	1083.01
567.49	1083.20
567.84	1081.91
568.19	1084.93
568.54	1086.22
568.90	1088.42
569.25	1088.86
569.60	1089.82
569.95	1085.07
570.31	1080.58
570.66	1080.39
571.01	1080.74
571.36	1082.64
571.71	1080.79
572.06	1083.79
572.42	1082.97
572.77	1080.48
573.12	1076.65
573.47	1079.38
573.82	1077.51
574.18	1073.37
574.53	1074.35
574.88	1076.53
575.23	1077.72
575.58	1079.99
575.93	1084.98
576.28	1086.06
576.64	1081.42
576.99	1080.60
577.34	1079.85
577.69	1079.62
578.04	1076.41
578.39	1082.03
578.74	1079.53
579.09	1082.76
579.44	1082.54
579.80	1085.19
580.15	1080.95
580.50	1081.94
580.85	1078.45
581.20	1076.34
581.55	1076.58
581.90	1077.40
582.25	1079.78
582.60	1078.50
582.95	1079.27
583.30	1077.00
583.65	1082.97
584.00	1083.93
584.35	1086.66
584.71	1086.08
585.06	1090.01
585.41	1086.17
585.76	1088.30
586.11	1085.14
586.46	1087.37
586.81	1087.27
587.16	1088.49
587.51	1084.44
587.86	1086.17
588.21	1086.20
588.56	1084.14
588.91	1081.30
589.26	1079.34
589.61	1078.57
589.96	1077.63
590.31	1076.44
590.66	1079.64
591.01	1082.26
591.36	1082.50
591.71	1082.76
592.06	1081.49
592.41	1077.51
592.76	1076.97
593.10	1076.90
593.45	1076.41
593.80	1077.25
594.15	1078.78
594.50	1078.36
594.85	1079.85
595.20	1079.08
595.55	1080.95
595.90	1078.33
596.25	1081.82
596.60	1082.29
596.95	1085.68
597.30	1085.35
597.64	1097.97
597.99	1094.39
598.34	1093.38
598.69	1092.47
599.04	1093.71
599.39	1080.63
599.74	1081.49
600.09	1079.22
600.44	1077.96
600.78	1076.65
601.13	1080.79
601.48	1081.68
601.83	1083.83
602.18	1086.50
602.53	1084.60
602.88	1084.84
603.22	1084.77
603.57	1080.13
603.92	1077.04
604.27	1077.42
604.62	1073.14
604.97	1070.30
605.31	1071.47
605.66	1072.50
606.01	1071.78
606.36	1073.16
606.71	1078.73
607.05	1079.67
607.40	1077.63
607.75	1079.92
608.10	1078.94
608.44	1070.47
608.79	1072.22
609.14	1072.32
609.49	1070.58
609.84	1070.54
610.18	1075.43
610.53	1074.26
610.88	1078.59
611.23	1081.16
611.57	1083.76
611.92	1080.70
612.27	1081.14
612.62	1076.90
612.96	1074.14
613.31	1073.28
613.66	1074.12
614.00	1074.12
614.35	1077.47
614.70	1081.44
615.05	1081.44
615.39	1082.45
615.74	1082.26
616.09	1080.11
616.43	1075.97
616.78	1075.90
617.13	1073.18
617.47	1076.13
617.82	1073.79
618.17	1074.14
618.51	1071.85
618.86	1074.12
619.21	1072.43
619.55	1071.78
619.90	1072.06
620.25	1076.39
620.59	1076.90
620.94	1073.53
621.29	1076.48
621.63	1075.27
621.98	1075.66
622.32	1075.01
622.67	1078.03
623.02	1077.35
623.36	1078.99
623.71	1076.81
624.05	1078.59
624.40	1080.53
624.75	1082.19
625.09	1083.04
625.44	1083.04
625.78	1080.20
626.13	1076.51
626.48	1075.57
626.82	1072.83
627.17	1072.32
627.51	1071.90
627.86	1073.00
628.20	1071.94
628.55	1073.09
628.89	1072.69
629.24	1076.60
629.58	1077.16
629.93	1076.23
630.28	1075.66
630.62	1076.65
630.97	1076.95
631.31	1076.93
631.66	1079.31
632.00	1083.32
632.35	1084.98
632.69	1083.81
633.04	1084.65
633.38	1086.38
633.73	1084.30
634.07	1084.65
634.42	1080.91
634.76	1078.00
635.11	1075.34
635.45	1073.53
635.79	1071.52
636.14	1073.67
636.48	1076.93
636.83	1078.94
637.17	1081.14
637.52	1081.84
637.86	1081.26
638.21	1077.82
638.55	1075.94
638.89	1076.44
639.24	1076.44
639.58	1075.15
639.93	1078.61
640.27	1079.78
640.61	1074.75
640.96	1075.57
641.30	1076.86
641.65	1073.70
641.99	1072.46
642.33	1075.59
642.68	1075.36
643.02	1074.52
643.37	1076.74
643.71	1073.98
644.05	1075.10
644.40	1072.76
644.74	1074.47
645.08	1068.36
645.43	1073.63
645.77	1076.95
646.11	1078.89
646.46	1077.86
646.80	1083.15
647.14	1083.18
647.49	1079.71
647.83	1078.36
648.17	1079.74
648.52	1078.80
648.86	1076.53
649.20	1074.80
649.55	1074.87
649.89	1076.34
650.23	1080.34
650.57	1082.64
650.92	1084.16
651.26	1085.12
651.60	1080.84
651.95	1077.72
652.29	1075.05
652.63	1072.69
652.97	1072.88
653.32	1074.33
653.66	1074.40
654.00	1077.37
654.34	1080.46
654.69	1078.45
655.03	1076.97
655.37	1077.21
655.71	1073.63
656.05	1070.49
656.40	1071.36
656.74	1071.75
657.08	1072.81
657.42	1074.24
657.76	1076.95
658.11	1079.50
658.45	1081.23
658.79	1080.60
659.13	1081.68
659.47	1081.77
659.82	1081.44
660.16	1083.27
660.50	1085.56
660.84	1083.06
661.18	1081.75
661.52	1079.36
661.87	1077.70
662.21	1073.28
662.55	1069.46
662.89	1068.22
663.23	1070.26
663.57	1071.31
663.91	1073.74
664.25	1077.77
664.60	1078.78
664.94	1077.65
665.28	1078.54
665.62	1076.04
665.96	1076.48
666.30	1074.73
666.64	1072.57
666.98	1070.28
667.32	1071.45
667.66	1070.21
668.01	1073.70
668.35	1075.34
668.69	1075.05
669.03	1076.51
669.37	1075.24
669.71	1074.56
670.05	1075.57
670.39	1073.79
670.73	1069.91
671.07	1072.69
671.41	1073.49
671.75	1073.77
672.09	1077.77
672.43	1079.85
672.77	1080.41
673.11	1077.58
673.45	1074.70
673.79	1070.84
674.13	1071.50
674.47	1068.62
674.81	1071.50
675.15	1072.83
675.49	1076.51
675.83	1078.05
676.17	1082.45
676.51	1078.45
676.85	1079.53
677.19	1080.18
677.53	1079.74
677.87	1080.72
678.21	1079.43
678.55	1076.48
678.89	1073.58
679.23	1071.22
679.57	1068.83
679.90	1073.02
680.24	1076.06
680.58	1075.59
680.92	1078.24
681.26	1077.18
681.60	1075.94
681.94	1074.33
682.28	1077.07
682.62	1076.55
682.96	1075.92
683.29	1073.72
683.63	1074.98
683.97	1075.64
684.31	1071.75
684.65	1074.56
684.99	1078.38
685.33	1077.18
685.67	1075.36
686.00	1079.83
686.34	1078.03
686.68	1075.08
687.02	1077.51
687.36	1077.25
687.70	1077.00
688.03	1076.86
688.37	1077.68
688.71	1077.23
689.05	1077.54
689.39	1077.30
689.72	1078.99
690.06	1080.58
690.40	1080.95
690.74	1082.73
691.08	1082.76
691.41	1082.03
691.75	1080.25
692.09	1079.22
692.43	1076.15
692.76	1075.13
693.10	1075.20
693.44	1078.05
693.78	1079.10
694.11	1078.57
694.45	1075.99
694.79	1074.52
695.13	1070.61
695.46	1069.41
695.80	1072.62
696.14	1076.13
696.48	1079.64
696.81	1081.61
697.15	1079.88
697.49	1075.41
697.82	1074.84
698.16	1070.63
698.50	1071.97
698.83	1073.04
699.17	1076.46
699.51	1076.69
699.84	1076.18
700.18	1079.83
700.52	1080.46
700.85	1078.57
701.19	1075.78
701.53	1077.84
701.86	1076.44
702.20	1074.24
702.54	1076.51
702.87	1080.27
703.21	1080.30
703.55	1078.05
703.88	1082.01
704.22	1083.04
704.55	1081.14
704.89	1080.58
705.23	1079.17
705.56	1081.23
705.90	1077.89
706.23	1078.52
706.57	1077.02
706.91	1077.77
707.24	1076.13
707.58	1078.24
707.91	1078.57
708.25	1081.12
708.58	1078.92
708.92	1076.55
709.26	1073.60
709.59	1073.42
709.93	1073.23
710.26	1075.20
710.60	1075.85
710.93	1081.98
711.27	1082.57
711.60	1081.14
711.94	1082.78
712.27	1081.58
712.61	1078.92
712.94	1079.08
713.28	1079.99
713.61	1077.25
713.95	1077.70
714.28	1075.50
714.62	1074.77
714.95	1075.48
715.29	1079.55
715.62	1079.03
715.96	1077.42
716.29	1076.53
716.63	1075.24
716.96	1073.42
717.29	1073.79
717.63	1075.66
717.96	1076.72
718.30	1075.94
718.63	1072.50
718.97	1073.32
719.30	1071.71
719.63	1072.81
719.97	1074.47
720.30	1079.31
720.64	1076.95
720.97	1077.54
721.30	1077.75
721.64	1078.87
721.97	1074.94
722.31	1076.60
722.64	1076.65
722.97	1076.04
723.31	1073.79
723.64	1075.13
723.97	1075.85
724.31	1079.03
724.64	1078.33
724.98	1077.54
725.31	1080.11
725.64	1078.45
725.98	1075.38
726.31	1074.45
726.64	1078.75
726.97	1074.59
727.31	1074.73
727.64	1078.21
727.97	1080.13
728.31	1075.52
728.64	1078.66
728.97	1082.12
729.31	1082.52
729.64	1082.76
729.97	1084.89
730.30	1082.38
730.64	1079.36
730.97	1075.03
731.30	1073.84
731.63	1071.47
731.97	1075.36
732.30	1077.49
732.63	1078.73
732.96	1077.84
733.30	1077.25
733.63	1073.56
733.96	1071.54
734.29	1069.18
734.63	1072.20
734.96	1075.31
735.29	1075.76
735.62	1078.07
735.95	1082.97
736.29	1080.58
736.62	1080.27
736.95	1083.46
737.28	1084.65
737.61	1085.56
737.94	1085.14
738.28	1083.69
738.61	1083.74
738.94	1079.08
739.27	1072.41
739.60	1068.69
739.93	1070.35
740.27	1067.49
740.60	1068.71
740.93	1075.66
741.26	1080.16
741.59	1078.87
741.92	1082.10
742.25	1082.66
742.58	1080.63
742.91	1080.86
743.25	1081.96
743.58	1075.45
743.91	1075.24
744.24	1075.43
744.57	1075.22
744.90	1074.05
745.23	1078.40
745.56	1081.00
745.89	1079.60
746.22	1077.70
746.55	1078.05
746.88	1074.00
747.21	1073.98
747.54	1075.36
747.87	1075.43
748.20	1075.55
748.53	1079.64
748.87	1076.74
749.20	1072.90
749.53	1070.58
749.86	1072.50
750.19	1069.86
750.52	1069.79
750.85	1076.44
751.18	1079.64
751.51	1077.75
751.84	1081.12
752.16	1080.67
752.49	1078.21
752.82	1080.13
753.15	1079.48
753.48	1079.20
753.81	1078.57
754.14	1078.45
754.47	1076.97
754.80	1078.03
755.13	1075.34
755.46	1077.25
755.79	1074.73
756.12	1074.87
756.45	1075.27
756.78	1076.93
757.11	1076.20
757.43	1077.25
757.76	1077.58
758.09	1075.22
758.42	1075.01
758.75	1076.72
759.08	1075.15
759.41	1074.80
759.74	1076.67
760.07	1073.58
760.39	1072.08
760.72	1074.17
761.05	1072.78
761.38	1073.63
761.71	1076.41
762.04	1078.38
762.36	1078.96
762.69	1080.86
763.02	1080.77
763.35	1081.80
763.68	1078.26
764.01	1077.25
764.33	1075.05
764.66	1073.74
764.99	1072.95
765.32	1074.87
765.65	1077.82
