SpectraSuite Data File
++++++++++++++++++++++++++++++++++++
Date: Mon Aug 26 10:21:58 PDT 2019
User: corrico
Dark Spectrum Present: No
Reference Spectrum Present: No
Number of Sampled Component Spectra: 1
Spectrometers: USB2+H06089
Integration Time (usec): 2000 (USB2+H06089)
Spectra Averaged: 20 (USB2+H06089)
Boxcar Smoothing: 2 (USB2+H06089)
Correct for Electrical Dark: No (USB2+H06089)
Strobe/Lamp Enabled: No (USB2+H06089)
Correct for Detector Non-linearity: No (USB2+H06089)
Correct for Stray Light: No (USB2+H06089)
Number of Pixels in Processed Spectrum: 2048
>>>>>Begin Processed Spectral Data<<<<<
339.70	1020.12
340.07	1020.12
340.45	990.82
340.82	972.42
341.19	949.34
341.57	925.92
341.94	915.50
342.31	909.30
342.69	902.14
343.06	899.84
343.43	899.44
343.81	898.23
344.18	896.45
344.55	902.58
344.93	908.57
345.30	913.04
345.67	920.16
346.04	933.48
346.42	941.55
346.79	948.01
347.16	958.07
347.54	966.17
347.91	972.54
348.28	981.92
348.65	993.63
349.03	1000.91
349.40	1010.78
349.77	1019.21
350.14	1024.36
350.52	1031.26
350.89	1038.94
351.26	1044.82
351.63	1051.88
352.01	1056.87
352.38	1059.79
352.75	1061.74
353.12	1065.18
353.50	1067.10
353.87	1070.72
354.24	1075.13
354.61	1080.37
354.98	1076.93
355.36	1075.71
355.73	1077.63
356.10	1076.39
356.47	1076.41
356.84	1078.07
357.22	1077.11
357.59	1074.21
357.96	1075.85
358.33	1074.14
358.70	1076.72
359.08	1079.43
359.45	1078.80
359.82	1077.89
360.19	1077.37
360.56	1076.90
360.94	1076.25
361.31	1075.08
361.68	1072.43
362.05	1071.22
362.42	1070.68
362.79	1067.24
363.16	1066.18
363.54	1066.84
363.91	1067.21
364.28	1063.49
364.65	1065.62
365.02	1068.27
365.39	1064.10
365.76	1062.14
366.14	1064.80
366.51	1065.34
366.88	1062.46
367.25	1064.57
367.62	1063.49
367.99	1063.42
368.36	1062.86
368.73	1064.34
369.10	1064.92
369.48	1066.39
369.85	1067.17
370.22	1066.75
370.59	1067.40
370.96	1069.39
371.33	1070.35
371.70	1065.72
372.07	1067.47
372.44	1065.79
372.81	1064.62
373.18	1065.79
373.55	1070.26
373.93	1068.45
374.30	1066.98
374.67	1066.04
375.04	1064.66
375.41	1062.37
375.78	1064.12
376.15	1069.27
376.52	1071.82
376.89	1074.59
377.26	1075.66
377.63	1075.76
378.00	1074.84
378.37	1073.95
378.74	1071.01
379.11	1074.33
379.48	1073.79
379.85	1073.93
380.22	1074.03
380.59	1074.17
380.96	1071.36
381.33	1073.09
381.70	1074.00
382.07	1074.21
382.44	1075.20
382.81	1076.41
383.18	1075.97
383.55	1073.84
383.92	1073.35
384.29	1074.31
384.66	1074.00
385.03	1073.93
385.40	1073.11
385.77	1072.71
386.14	1073.09
386.51	1074.77
386.88	1074.35
387.25	1077.02
387.62	1078.33
387.99	1079.20
388.36	1076.69
388.73	1075.78
389.10	1072.76
389.46	1072.43
389.83	1070.05
390.20	1071.57
390.57	1069.86
390.94	1069.44
391.31	1068.10
391.68	1068.48
392.05	1069.34
392.42	1071.57
392.79	1073.60
393.16	1074.10
393.53	1075.97
393.89	1076.32
394.26	1075.71
394.63	1077.84
395.00	1082.40
395.37	1078.59
395.74	1077.96
396.11	1078.52
396.48	1075.20
396.84	1069.53
397.21	1072.76
397.58	1073.67
397.95	1071.52
398.32	1074.80
398.69	1079.69
399.06	1079.81
399.42	1076.23
399.79	1076.97
400.16	1073.11
400.53	1071.85
400.90	1072.62
401.27	1075.10
401.64	1077.84
402.00	1082.64
402.37	1080.44
402.74	1081.07
403.11	1078.78
403.48	1079.34
403.84	1079.34
404.21	1082.38
404.58	1084.16
404.95	1086.31
405.32	1085.49
405.68	1083.22
406.05	1081.16
406.42	1078.54
406.79	1078.52
407.16	1080.91
407.52	1081.91
407.89	1080.58
408.26	1082.17
408.63	1083.95
408.99	1081.54
409.36	1081.14
409.73	1083.32
410.10	1079.88
410.47	1078.40
410.83	1080.72
411.20	1079.31
411.57	1080.58
411.94	1081.02
412.30	1079.06
412.67	1077.96
413.04	1077.47
413.40	1077.77
413.77	1080.18
414.14	1084.35
414.51	1083.67
414.87	1087.74
415.24	1086.10
415.61	1087.23
415.97	1084.56
416.34	1085.31
416.71	1083.39
417.08	1083.43
417.44	1083.95
417.81	1082.33
418.18	1083.25
418.54	1084.79
418.91	1089.00
419.28	1086.94
419.64	1091.30
420.01	1093.43
420.38	1094.97
420.74	1094.53
421.11	1096.00
421.48	1096.63
421.84	1095.56
422.21	1100.66
422.58	1099.68
422.94	1102.13
423.31	1103.80
423.68	1102.86
424.04	1100.50
424.41	1102.39
424.77	1102.46
425.14	1103.87
425.51	1109.04
425.87	1109.39
426.24	1110.61
426.61	1111.73
426.97	1115.62
427.34	1114.80
427.70	1120.77
428.07	1122.05
428.44	1128.58
428.80	1132.33
429.17	1136.75
429.53	1140.36
429.90	1144.40
430.27	1147.66
430.63	1151.03
431.00	1156.88
431.36	1161.35
431.73	1173.38
432.09	1179.30
432.46	1185.01
432.83	1192.88
433.19	1202.26
433.56	1211.37
433.92	1224.19
434.29	1235.78
434.65	1247.62
435.02	1259.84
435.38	1271.66
435.75	1285.47
436.11	1301.67
436.48	1321.30
436.84	1339.72
437.21	1358.77
437.57	1376.87
437.94	1399.71
438.30	1418.11
438.67	1438.77
439.03	1462.88
439.40	1492.77
439.76	1519.62
440.13	1551.26
440.49	1585.69
440.86	1617.10
441.22	1651.44
441.59	1689.80
441.95	1729.23
442.32	1773.47
442.68	1822.36
443.05	1871.35
443.41	1923.59
443.78	1982.46
444.14	2039.59
444.51	2098.41
444.87	2168.65
445.24	2234.30
445.60	2311.54
445.96	2381.94
446.33	2465.78
446.69	2548.56
447.06	2640.08
447.42	2723.80
447.79	2824.77
448.15	2930.70
448.51	3037.90
448.88	3163.37
449.24	3281.78
449.61	3429.10
449.97	3573.97
450.33	3726.16
450.70	3870.10
451.06	4043.86
451.43	4197.45
451.79	4381.95
452.15	4567.20
452.52	4780.45
452.88	4992.69
453.24	5239.55
453.61	5505.69
453.97	5776.28
454.34	6031.63
454.70	6326.16
455.06	6603.80
455.43	6872.98
455.79	7147.57
456.15	7466.45
456.52	7777.93
456.88	8169.12
457.24	8568.44
457.61	9024.31
457.97	9446.50
458.33	9885.32
458.70	10320.01
459.06	10728.45
459.42	11161.71
459.79	11588.51
460.15	12080.79
460.51	12483.32
460.88	12904.68
461.24	13278.54
461.60	13710.09
461.96	14048.08
462.33	14384.89
462.69	14741.91
463.05	15171.98
463.42	15563.56
463.78	15927.95
464.14	16262.14
464.50	16603.71
464.87	16845.26
465.23	16952.38
465.59	17102.53
465.95	17248.48
466.32	17325.98
466.68	17390.79
467.04	17470.46
467.40	17518.16
467.77	17580.35
468.13	17569.09
468.49	17482.68
468.85	17419.18
469.22	17326.40
469.58	17194.68
469.94	17106.44
470.30	16971.55
470.66	16795.99
471.03	16534.15
471.39	16307.35
471.75	15957.47
472.11	15641.94
472.47	15381.16
472.84	15153.33
473.20	14853.30
473.56	14665.35
473.92	14431.81
474.28	14192.61
474.65	13972.16
475.01	13748.89
475.37	13467.16
475.73	13230.18
476.09	12978.36
476.45	12726.57
476.81	12497.59
477.18	12294.51
477.54	12115.29
477.90	11959.06
478.26	11762.55
478.62	11605.80
478.98	11468.67
479.34	11379.43
479.71	11226.75
480.07	11081.52
480.43	10904.39
480.79	10696.81
481.15	10456.58
481.51	10284.48
481.87	10133.14
482.23	9955.63
482.59	9806.35
482.96	9646.40
483.32	9478.12
483.68	9312.62
484.04	9179.79
484.40	9040.20
484.76	8897.92
485.12	8751.78
485.48	8630.59
485.84	8489.52
486.20	8352.30
486.56	8198.33
486.92	8049.55
487.28	7859.19
487.64	7678.15
488.00	7496.50
488.37	7330.23
488.73	7156.47
489.09	6986.90
489.45	6841.64
489.81	6692.86
490.17	6540.11
490.53	6374.61
490.89	6203.75
491.25	6028.00
491.61	5859.25
491.97	5692.63
492.33	5546.98
492.69	5424.07
493.05	5293.29
493.41	5177.64
493.77	5071.80
494.13	4961.30
494.49	4846.90
494.85	4748.64
495.21	4639.71
495.57	4530.90
495.93	4420.59
496.29	4317.89
496.64	4213.71
497.00	4109.37
497.36	4020.48
497.72	3940.34
498.08	3861.35
498.44	3785.47
498.80	3712.96
499.16	3619.66
499.52	3525.88
499.88	3439.91
500.24	3351.65
500.60	3268.44
500.96	3201.71
501.32	3141.49
501.68	3081.71
502.03	3020.13
502.39	2965.34
502.75	2904.44
503.11	2850.59
503.47	2800.69
503.83	2755.44
504.19	2704.54
504.55	2664.49
504.91	2618.64
505.26	2564.41
505.62	2514.86
505.98	2470.90
506.34	2419.04
506.70	2367.80
507.06	2322.19
507.42	2274.93
507.78	2234.53
508.13	2202.07
508.49	2166.59
508.85	2137.96
509.21	2111.09
509.57	2076.08
509.93	2039.57
510.28	2009.54
510.64	1982.83
511.00	1947.63
511.36	1920.78
511.72	1894.92
512.07	1870.42
512.43	1837.20
512.79	1813.73
513.15	1790.14
513.51	1767.36
513.86	1744.40
514.22	1725.21
514.58	1709.06
514.94	1689.02
515.30	1665.97
515.65	1645.26
516.01	1629.11
516.37	1609.47
516.73	1590.65
517.08	1578.88
517.44	1565.33
517.80	1550.68
518.16	1534.67
518.51	1522.73
518.87	1511.59
519.23	1497.76
519.59	1486.52
519.94	1472.85
520.30	1457.94
520.66	1441.70
521.01	1433.23
521.37	1421.17
521.73	1411.23
522.09	1404.46
522.44	1396.53
522.80	1385.78
523.16	1374.18
523.51	1368.91
523.87	1357.72
524.23	1349.62
524.58	1338.60
524.94	1332.89
525.30	1321.54
525.65	1315.85
526.01	1306.42
526.37	1302.72
526.72	1295.56
527.08	1290.06
527.44	1284.02
527.79	1280.39
528.15	1273.30
528.51	1264.54
528.86	1262.20
529.22	1258.48
529.58	1251.79
529.93	1246.97
530.29	1245.05
530.65	1235.76
531.00	1227.89
531.36	1220.80
531.71	1214.08
532.07	1209.99
532.43	1203.48
532.78	1199.03
533.14	1200.62
533.49	1197.37
533.85	1195.15
534.21	1192.41
534.56	1188.88
534.92	1182.02
535.27	1183.30
535.63	1177.57
535.98	1174.86
536.34	1172.16
536.69	1171.16
537.05	1164.65
537.41	1162.22
537.76	1160.46
538.12	1157.37
538.47	1153.77
538.83	1151.38
539.18	1152.32
539.54	1151.01
539.89	1150.56
540.25	1148.45
540.60	1146.84
540.96	1141.62
541.31	1141.20
541.67	1139.86
542.02	1137.99
542.38	1136.07
542.73	1132.37
543.09	1130.10
543.44	1128.35
543.80	1129.05
544.15	1127.41
544.51	1130.20
544.86	1130.95
545.22	1128.44
545.57	1124.67
545.93	1122.83
546.28	1119.31
546.64	1118.75
546.99	1119.92
547.35	1121.56
547.70	1121.58
548.05	1119.20
548.41	1117.77
548.76	1116.62
549.12	1114.49
549.47	1113.88
549.83	1114.07
550.18	1111.66
550.53	1110.12
550.89	1108.83
551.24	1108.01
551.60	1106.49
551.95	1106.51
552.30	1104.92
552.66	1105.62
553.01	1103.87
553.37	1103.68
553.72	1101.99
554.07	1103.28
554.43	1104.64
554.78	1107.61
555.13	1109.30
555.49	1111.38
555.84	1110.87
556.19	1106.65
556.55	1103.14
556.90	1101.71
557.26	1100.03
557.61	1098.09
557.96	1098.13
558.32	1097.01
558.67	1095.91
559.02	1091.39
559.37	1094.20
559.73	1093.33
560.08	1097.29
560.43	1098.09
560.79	1099.42
561.14	1096.96
561.49	1097.71
561.85	1091.91
562.20	1089.14
562.55	1090.22
562.90	1090.27
563.26	1089.12
563.61	1091.46
563.96	1093.73
564.32	1091.86
564.67	1091.79
565.02	1089.61
565.37	1089.36
565.73	1089.03
566.08	1092.26
566.43	1090.53
566.78	1093.22
567.14	1091.84
567.49	1093.33
567.84	1091.06
568.19	1092.07
568.54	1090.81
568.90	1090.81
569.25	1088.96
569.60	1088.04
569.95	1087.13
570.31	1087.06
570.66	1086.62
571.01	1085.75
571.36	1087.95
571.71	1086.78
572.06	1087.37
572.42	1087.93
572.77	1088.44
573.12	1084.46
573.47	1086.22
573.82	1082.52
574.18	1083.08
574.53	1079.76
574.88	1081.73
575.23	1081.05
575.58	1082.85
575.93	1081.07
576.28	1082.73
576.64	1081.21
576.99	1080.88
577.34	1080.06
577.69	1081.37
578.04	1080.27
578.39	1080.56
578.74	1085.28
579.09	1083.97
579.44	1084.28
579.80	1084.91
580.15	1084.98
580.50	1080.46
580.85	1083.43
581.20	1084.14
581.55	1087.18
581.90	1089.45
582.25	1089.31
582.60	1088.07
582.95	1085.99
583.30	1083.32
583.65	1079.92
584.00	1079.43
584.35	1082.01
584.71	1082.61
585.06	1080.44
585.41	1081.66
585.76	1081.56
586.11	1079.53
586.46	1080.20
586.81	1081.58
587.16	1081.84
587.51	1082.08
587.86	1081.09
588.21	1080.32
588.56	1079.06
588.91	1079.27
589.26	1077.61
589.61	1081.14
589.96	1082.47
590.31	1085.56
590.66	1085.68
591.01	1084.11
591.36	1082.64
591.71	1079.90
592.06	1078.33
592.41	1078.03
592.76	1082.64
593.10	1079.29
593.45	1081.37
593.80	1078.94
594.15	1081.37
594.50	1077.84
594.85	1082.57
595.20	1084.70
595.55	1087.53
595.90	1084.25
596.25	1085.45
596.60	1081.42
596.95	1079.17
597.30	1074.63
597.64	1088.00
597.99	1089.38
598.34	1088.04
598.69	1086.99
599.04	1091.70
599.39	1077.00
599.74	1074.47
600.09	1074.82
600.44	1076.11
600.78	1075.78
601.13	1079.90
601.48	1082.54
601.83	1085.99
602.18	1083.50
602.53	1083.57
602.88	1080.53
603.22	1078.00
603.57	1075.71
603.92	1078.85
604.27	1079.95
604.62	1080.18
604.97	1080.63
605.31	1080.63
605.66	1078.31
606.01	1075.99
606.36	1078.57
606.71	1078.87
607.05	1080.95
607.40	1082.59
607.75	1083.76
608.10	1083.20
608.44	1084.25
608.79	1084.98
609.14	1083.69
609.49	1085.24
609.84	1081.94
610.18	1080.63
610.53	1079.36
610.88	1079.17
611.23	1077.49
611.57	1080.04
611.92	1080.34
612.27	1077.49
612.62	1077.28
612.96	1074.47
613.31	1070.12
613.66	1070.47
614.00	1069.84
614.35	1070.12
614.70	1074.17
615.05	1078.85
615.39	1076.95
615.74	1079.34
616.09	1079.43
616.43	1078.38
616.78	1075.99
617.13	1078.17
617.47	1079.31
617.82	1080.13
618.17	1077.86
618.51	1080.79
618.86	1078.17
619.21	1076.58
619.55	1075.90
619.90	1079.88
620.25	1076.04
620.59	1075.66
620.94	1075.13
621.29	1074.63
621.63	1071.47
621.98	1074.77
622.32	1077.61
622.67	1078.38
623.02	1077.42
623.36	1076.55
623.71	1075.50
624.05	1076.15
624.40	1077.49
624.75	1078.12
625.09	1083.57
625.44	1084.02
625.78	1082.33
626.13	1080.67
626.48	1082.87
626.82	1081.14
627.17	1079.55
627.51	1080.84
627.86	1080.74
628.20	1082.85
628.55	1081.61
628.89	1082.61
629.24	1082.31
629.58	1082.76
629.93	1079.60
630.28	1078.61
630.62	1077.93
630.97	1075.59
631.31	1076.76
631.66	1077.93
632.00	1078.89
632.35	1079.83
632.69	1080.11
633.04	1078.50
633.38	1078.78
633.73	1078.73
634.07	1077.47
634.42	1078.80
634.76	1080.20
635.11	1076.20
635.45	1075.62
635.79	1078.21
636.14	1078.14
636.48	1077.65
636.83	1078.33
637.17	1077.35
637.52	1075.59
637.86	1077.44
638.21	1076.11
638.55	1077.51
638.89	1078.71
639.24	1078.85
639.58	1078.50
639.93	1078.92
640.27	1078.73
640.61	1078.87
640.96	1077.56
641.30	1073.14
641.65	1075.43
641.99	1076.65
642.33	1076.27
642.68	1077.61
643.02	1080.09
643.37	1079.88
643.71	1079.67
644.05	1077.79
644.40	1080.23
644.74	1079.38
645.08	1078.26
645.43	1077.23
645.77	1080.65
646.11	1077.79
646.46	1077.40
646.80	1074.56
647.14	1076.37
647.49	1075.59
647.83	1076.27
648.17	1078.99
648.52	1084.32
648.86	1085.42
649.20	1082.64
649.55	1082.10
649.89	1079.43
650.23	1075.85
650.57	1073.32
650.92	1075.17
651.26	1074.35
651.60	1074.84
651.95	1074.80
652.29	1074.40
652.63	1076.23
652.97	1078.26
653.32	1078.03
653.66	1080.06
654.00	1080.16
654.34	1080.60
654.69	1081.51
655.03	1083.71
655.37	1082.71
655.71	1082.05
656.05	1079.64
656.40	1072.06
656.74	1072.69
657.08	1070.87
657.42	1071.73
657.76	1070.96
658.11	1075.55
658.45	1077.16
658.79	1079.38
659.13	1077.89
659.47	1077.68
659.82	1076.51
660.16	1074.21
660.50	1074.89
660.84	1077.98
661.18	1077.37
661.52	1080.81
661.87	1079.57
662.21	1079.15
662.55	1074.94
662.89	1075.71
663.23	1071.85
663.57	1072.57
663.91	1070.30
664.25	1070.44
664.60	1070.61
664.94	1073.53
665.28	1073.32
665.62	1076.06
665.96	1078.12
666.30	1076.60
666.64	1075.34
666.98	1074.54
667.32	1071.68
667.66	1072.15
668.01	1077.11
668.35	1078.52
668.69	1078.66
669.03	1079.03
669.37	1080.34
669.71	1072.95
670.05	1074.24
670.39	1076.93
670.73	1080.23
671.07	1078.36
671.41	1084.93
671.75	1086.17
672.09	1086.83
672.43	1083.97
672.77	1085.31
673.11	1085.19
673.45	1082.08
673.79	1078.80
674.13	1078.87
674.47	1076.53
674.81	1074.82
675.15	1076.79
675.49	1076.93
675.83	1074.17
676.17	1076.06
676.51	1076.44
676.85	1073.32
677.19	1072.60
677.53	1076.62
677.87	1074.68
678.21	1073.98
678.55	1076.44
678.89	1075.22
679.23	1073.09
679.57	1072.83
679.90	1075.17
680.24	1075.97
680.58	1077.33
680.92	1081.47
681.26	1083.79
681.60	1081.05
681.94	1080.65
682.28	1082.05
682.62	1079.46
682.96	1081.63
683.29	1081.09
683.63	1077.47
683.97	1076.27
684.31	1076.86
684.65	1076.20
684.99	1080.16
685.33	1078.12
685.67	1078.38
686.00	1077.11
686.34	1074.38
686.68	1073.53
687.02	1080.67
687.36	1083.50
687.70	1085.68
688.03	1085.40
688.37	1080.77
688.71	1082.50
689.05	1081.35
689.39	1082.66
689.72	1083.62
690.06	1086.94
690.40	1081.89
690.74	1079.13
691.08	1078.52
691.41	1077.47
691.75	1077.51
692.09	1080.20
692.43	1080.93
692.76	1076.95
693.10	1075.97
693.44	1073.28
693.78	1070.63
694.11	1069.41
694.45	1073.60
694.79	1076.48
695.13	1077.98
695.46	1078.92
695.80	1079.17
696.14	1077.75
696.48	1076.81
696.81	1078.92
697.15	1078.75
697.49	1080.23
697.82	1080.34
698.16	1081.54
698.50	1080.46
698.83	1080.93
699.17	1082.92
699.51	1082.78
699.84	1082.19
700.18	1079.10
700.52	1075.99
700.85	1076.32
701.19	1071.57
701.53	1070.94
701.86	1073.11
702.20	1075.69
702.54	1075.99
702.87	1079.55
703.21	1081.98
703.55	1082.22
703.88	1084.53
704.22	1083.20
704.55	1082.40
704.89	1080.32
705.23	1082.80
705.56	1080.09
705.90	1078.54
706.23	1080.27
706.57	1082.94
706.91	1078.64
707.24	1077.84
707.58	1078.10
707.91	1075.27
708.25	1073.16
708.58	1078.80
708.92	1077.56
709.26	1078.07
709.59	1079.71
709.93	1079.01
710.26	1076.65
710.60	1078.03
710.93	1077.00
711.27	1075.36
711.60	1075.62
711.94	1075.43
712.27	1072.60
712.61	1072.95
712.94	1073.98
713.28	1074.52
713.61	1074.14
713.95	1077.28
714.28	1077.25
714.62	1076.25
714.95	1077.30
715.29	1079.08
715.62	1078.28
715.96	1079.57
716.29	1080.46
716.63	1077.35
716.96	1072.57
717.29	1077.04
717.63	1075.92
717.96	1075.99
718.30	1078.78
718.63	1082.33
718.97	1079.24
719.30	1079.41
719.63	1080.91
719.97	1081.09
720.30	1081.61
720.64	1083.27
720.97	1081.61
721.30	1081.26
721.64	1078.94
721.97	1077.86
722.31	1077.65
722.64	1077.33
722.97	1077.44
723.31	1079.13
723.64	1076.83
723.97	1075.50
724.31	1080.79
724.64	1081.30
724.98	1081.12
725.31	1083.74
725.64	1082.47
725.98	1079.10
726.31	1076.95
726.64	1076.62
726.97	1077.68
727.31	1079.34
727.64	1081.23
727.97	1081.68
728.31	1082.66
728.64	1077.96
728.97	1077.75
729.31	1075.15
729.64	1075.73
729.97	1074.56
730.30	1078.43
730.64	1075.52
730.97	1077.51
731.30	1076.32
731.63	1076.04
731.97	1075.10
732.30	1077.63
732.63	1075.66
732.96	1077.51
733.30	1079.43
733.63	1081.28
733.96	1081.23
734.29	1081.16
734.63	1081.75
734.96	1077.37
735.29	1075.52
735.62	1075.17
735.95	1075.38
736.29	1076.79
736.62	1080.04
736.95	1078.99
737.28	1079.62
737.61	1078.17
737.94	1074.70
738.28	1074.68
738.61	1075.38
738.94	1077.37
739.27	1081.00
739.60	1081.21
739.93	1078.71
740.27	1076.55
740.60	1074.73
740.93	1073.14
741.26	1075.48
741.59	1075.24
741.92	1077.00
742.25	1076.90
742.58	1078.75
742.91	1074.45
743.25	1073.42
743.58	1071.38
743.91	1068.92
744.24	1066.39
744.57	1071.26
744.90	1075.90
745.23	1080.27
745.56	1078.64
745.89	1078.94
746.22	1076.32
746.55	1074.59
746.88	1074.12
747.21	1076.37
747.54	1078.52
747.87	1077.93
748.20	1075.34
748.53	1075.10
748.87	1075.10
749.20	1075.64
749.53	1078.24
749.86	1081.05
750.19	1080.27
750.52	1079.24
750.85	1076.90
751.18	1076.60
751.51	1074.28
751.84	1074.54
752.16	1076.69
752.49	1079.17
752.82	1079.43
753.15	1079.85
753.48	1077.77
753.81	1077.63
754.14	1077.37
754.47	1073.81
754.80	1073.77
755.13	1077.82
755.46	1077.02
755.79	1077.14
756.12	1080.74
756.45	1081.66
756.78	1078.54
757.11	1080.11
757.43	1077.77
757.76	1074.31
758.09	1072.71
758.42	1074.26
758.75	1071.05
759.08	1069.79
759.41	1068.20
759.74	1070.05
760.07	1072.71
760.39	1074.35
760.72	1075.05
761.05	1077.25
761.38	1079.78
761.71	1075.99
762.04	1076.44
762.36	1076.18
762.69	1077.02
763.02	1073.39
763.35	1074.80
763.68	1075.66
764.01	1078.36
764.33	1078.10
764.66	1080.93
764.99	1080.25
