SpectraSuite Data File
++++++++++++++++++++++++++++++++++++
Date: Mon Aug 26 10:22:05 PDT 2019
User: corrico
Dark Spectrum Present: No
Reference Spectrum Present: No
Number of Sampled Component Spectra: 1
Spectrometers: USB2+H06089
Integration Time (usec): 2000 (USB2+H06089)
Spectra Averaged: 20 (USB2+H06089)
Boxcar Smoothing: 2 (USB2+H06089)
Correct for Electrical Dark: No (USB2+H06089)
Strobe/Lamp Enabled: No (USB2+H06089)
Correct for Detector Non-linearity: No (USB2+H06089)
Correct for Stray Light: No (USB2+H06089)
Number of Pixels in Processed Spectrum: 2048
>>>>>Begin Processed Spectral Data<<<<<
339.70	1031.59
340.07	1031.59
340.45	996.20
340.82	975.96
341.19	950.02
341.57	921.12
341.94	906.26
342.31	899.05
342.69	891.58
343.06	891.04
343.43	892.21
343.81	895.33
344.18	899.16
344.55	904.13
344.93	907.54
345.30	914.00
345.67	921.96
346.04	928.49
346.42	936.42
346.79	942.93
347.16	950.63
347.54	959.55
347.91	970.69
348.28	980.33
348.65	992.64
349.03	1003.93
349.40	1009.19
349.77	1016.89
350.14	1024.55
350.52	1031.19
350.89	1036.27
351.26	1045.42
351.63	1048.63
352.01	1052.12
352.38	1057.24
352.75	1063.73
353.12	1066.18
353.50	1073.09
353.87	1080.18
354.24	1083.13
354.61	1083.74
354.98	1086.69
355.36	1087.60
355.73	1084.25
356.10	1082.01
356.47	1085.14
356.84	1084.91
357.22	1083.22
357.59	1086.24
357.96	1087.55
358.33	1084.46
358.70	1084.18
359.08	1084.81
359.45	1079.57
359.82	1082.43
360.19	1079.36
360.56	1078.14
360.94	1075.45
361.31	1075.48
361.68	1072.29
362.05	1074.59
362.42	1075.13
362.79	1079.46
363.16	1080.65
363.54	1079.15
363.91	1079.60
364.28	1079.88
364.65	1076.67
365.02	1078.17
365.39	1078.54
365.76	1076.93
366.14	1076.08
366.51	1076.01
366.88	1073.42
367.25	1073.49
367.62	1076.62
367.99	1074.28
368.36	1073.86
368.73	1074.42
369.10	1074.75
369.48	1070.40
369.85	1070.07
370.22	1070.51
370.59	1069.91
370.96	1066.89
371.33	1072.27
371.70	1076.15
372.07	1074.17
372.44	1074.68
372.81	1078.99
373.18	1076.97
373.55	1075.69
373.93	1078.71
374.30	1080.51
374.67	1081.28
375.04	1081.63
375.41	1081.26
375.78	1082.87
376.15	1082.99
376.52	1079.43
376.89	1079.15
377.26	1079.74
377.63	1079.69
378.00	1080.09
378.37	1082.38
378.74	1080.88
379.11	1082.80
379.48	1079.71
379.85	1080.56
380.22	1076.60
380.59	1079.27
380.96	1076.34
381.33	1079.99
381.70	1076.51
382.07	1078.68
382.44	1076.39
382.81	1079.53
383.18	1079.41
383.55	1083.76
383.92	1087.74
384.29	1090.17
384.66	1088.07
385.03	1087.37
385.40	1087.32
385.77	1084.60
386.14	1081.91
386.51	1084.39
386.88	1084.30
387.25	1082.05
387.62	1083.57
387.99	1086.06
388.36	1087.37
388.73	1087.81
389.10	1088.86
389.46	1089.47
389.83	1088.96
390.20	1088.21
390.57	1087.46
390.94	1088.35
391.31	1088.61
391.68	1089.45
392.05	1086.87
392.42	1088.04
392.79	1085.56
393.16	1085.14
393.53	1085.59
393.89	1086.94
394.26	1084.56
394.63	1085.73
395.00	1089.64
395.37	1088.07
395.74	1085.66
396.11	1089.94
396.48	1090.85
396.84	1086.71
397.21	1089.73
397.58	1090.06
397.95	1088.75
398.32	1086.13
398.69	1086.48
399.06	1082.85
399.42	1086.48
399.79	1085.35
400.16	1088.56
400.53	1089.57
400.90	1090.15
401.27	1089.07
401.64	1085.87
402.00	1084.77
402.37	1084.09
402.74	1084.93
403.11	1084.77
403.48	1087.60
403.84	1090.43
404.21	1089.89
404.58	1088.26
404.95	1088.79
405.32	1089.59
405.68	1089.64
406.05	1091.04
406.42	1094.81
406.79	1095.70
407.16	1096.00
407.52	1095.09
407.89	1095.72
408.26	1096.59
408.63	1099.00
408.99	1099.79
409.36	1102.21
409.73	1104.12
410.10	1104.85
410.47	1098.13
410.83	1097.62
411.20	1095.60
411.57	1094.08
411.94	1090.03
412.30	1094.08
412.67	1098.53
413.04	1100.31
413.40	1101.46
413.77	1103.42
414.14	1107.35
414.51	1103.70
414.87	1101.06
415.24	1102.98
415.61	1103.61
415.97	1102.37
416.34	1104.08
416.71	1107.26
417.08	1107.66
417.44	1107.54
417.81	1109.34
418.18	1110.07
418.54	1110.58
418.91	1110.89
419.28	1113.93
419.64	1113.74
420.01	1116.25
420.38	1119.83
420.74	1121.30
421.11	1122.59
421.48	1121.65
421.84	1123.08
422.21	1124.84
422.58	1126.48
422.94	1128.72
423.31	1136.77
423.68	1138.79
424.04	1138.86
424.41	1140.47
424.77	1146.42
425.14	1149.86
425.51	1153.63
425.87	1158.57
426.24	1168.40
426.61	1174.83
426.97	1177.01
427.34	1185.86
427.70	1195.92
428.07	1201.19
428.44	1212.21
428.80	1223.52
429.17	1233.67
429.53	1241.96
429.90	1254.08
430.27	1262.72
430.63	1277.18
431.00	1289.00
431.36	1303.30
431.73	1316.83
432.09	1330.10
432.46	1346.35
432.83	1367.74
433.19	1390.02
433.56	1418.72
433.92	1446.24
434.29	1471.33
434.65	1503.19
435.02	1534.85
435.38	1565.28
435.75	1598.94
436.11	1637.37
436.48	1672.97
436.84	1716.92
437.21	1760.48
437.57	1807.24
437.94	1858.34
438.30	1917.02
438.67	1975.51
439.03	2038.35
439.40	2107.16
439.76	2178.66
440.13	2250.66
440.49	2328.97
440.86	2407.48
441.22	2493.30
441.59	2582.27
441.95	2683.68
442.32	2791.44
442.68	2912.66
443.05	3035.65
443.41	3171.66
443.78	3303.60
444.14	3442.60
444.51	3579.97
444.87	3747.22
445.24	3904.15
445.60	4082.48
445.96	4258.82
446.33	4476.46
446.69	4677.16
447.06	4908.36
447.42	5131.04
447.79	5373.14
448.15	5641.11
448.51	5919.50
448.88	6234.02
449.24	6547.70
449.61	6900.55
449.97	7247.91
450.33	7628.18
450.70	7974.51
451.06	8406.08
451.43	8810.62
451.79	9268.85
452.15	9756.34
452.52	10301.14
452.88	10858.31
453.24	11493.60
453.61	12214.98
453.97	12919.24
454.34	13627.51
454.70	14435.53
455.06	15239.70
455.43	15981.48
455.79	16670.35
456.15	17477.51
456.52	18235.70
456.88	19147.67
457.24	20054.86
457.61	21167.90
457.97	22230.41
458.33	23319.46
458.70	24355.50
459.06	25346.78
459.42	26368.48
459.79	27295.40
460.15	28335.67
460.51	29337.30
460.88	30446.51
461.24	31435.29
461.60	32596.55
461.96	33673.47
462.33	34726.13
462.69	35767.29
463.05	36919.89
463.42	37944.55
463.78	38883.93
464.14	39647.86
464.50	40406.54
464.87	40887.36
465.23	41196.71
465.59	41592.12
465.95	41904.62
466.32	42136.38
466.68	42421.81
467.04	42636.06
467.40	42681.92
467.77	42823.59
468.13	42753.68
468.49	42584.41
468.85	42448.26
469.22	42300.81
469.58	42025.49
469.94	41879.86
470.30	41698.66
470.66	41347.34
471.03	40847.99
471.39	40494.08
471.75	39759.64
472.11	39003.81
472.47	38498.65
472.84	37956.05
473.20	37224.56
473.56	36843.66
473.92	36299.65
474.28	35695.58
474.65	35049.29
475.01	34378.47
475.37	33533.23
475.73	32848.06
476.09	32134.76
476.45	31492.21
476.81	30945.25
477.18	30391.69
477.54	29907.20
477.90	29429.90
478.26	28850.89
478.62	28315.99
478.98	27894.29
479.34	27468.64
479.71	26924.45
480.07	26516.49
480.43	26080.40
480.79	25609.23
481.15	25117.74
481.51	24739.46
481.87	24393.13
482.23	24029.65
482.59	23683.83
482.96	23366.48
483.32	23061.88
483.68	22670.31
484.04	22326.63
484.40	21927.12
484.76	21502.83
485.12	21044.97
485.48	20614.27
485.84	20116.30
486.20	19665.16
486.56	19208.19
486.92	18818.40
487.28	18400.47
487.64	17992.17
488.00	17595.14
488.37	17201.30
488.73	16750.11
489.09	16276.04
489.45	15830.70
489.81	15378.14
490.17	14942.64
490.53	14532.92
490.89	14138.52
491.25	13732.02
491.61	13335.27
491.97	12927.69
492.33	12529.47
492.69	12188.74
493.05	11881.03
493.41	11567.28
493.77	11267.62
494.13	10970.89
494.49	10666.43
494.85	10357.71
495.21	10068.75
495.57	9791.56
495.93	9514.61
496.29	9238.87
496.64	8998.87
497.00	8740.99
497.36	8480.79
497.72	8238.78
498.08	8029.16
498.44	7807.11
498.80	7600.82
499.16	7408.50
499.52	7220.34
499.88	7040.64
500.24	6869.43
500.60	6713.03
500.96	6562.65
501.32	6405.79
501.68	6242.23
502.03	6063.58
502.39	5894.69
502.75	5715.94
503.11	5552.45
503.47	5398.98
503.83	5269.81
504.19	5147.12
504.55	5035.99
504.91	4919.99
505.26	4801.52
505.62	4685.94
505.98	4570.32
506.34	4450.20
506.70	4333.95
507.06	4235.01
507.42	4125.97
507.78	4026.94
508.13	3937.88
508.49	3852.83
508.85	3769.22
509.21	3686.02
509.57	3599.23
509.93	3511.18
510.28	3425.19
510.64	3336.41
511.00	3255.80
511.36	3180.25
511.72	3110.88
512.07	3052.34
512.43	2990.97
512.79	2930.98
513.15	2870.48
513.51	2811.97
513.86	2755.09
514.22	2705.52
514.58	2653.82
514.94	2606.75
515.30	2558.49
515.65	2512.71
516.01	2467.04
516.37	2428.70
516.73	2389.92
517.08	2355.80
517.44	2314.44
517.80	2278.14
518.16	2237.22
518.51	2200.03
518.87	2167.15
519.23	2137.87
519.59	2102.32
519.94	2073.08
520.30	2044.36
520.66	2010.87
521.01	1980.09
521.37	1953.65
521.73	1928.91
522.09	1907.51
522.44	1880.85
522.80	1853.84
523.16	1829.76
523.51	1809.28
523.87	1784.59
524.23	1765.72
524.58	1747.63
524.94	1729.96
525.30	1704.68
525.65	1687.39
526.01	1668.66
526.37	1651.04
526.72	1633.37
527.08	1619.93
527.44	1603.52
527.79	1587.16
528.15	1568.91
528.51	1549.69
528.86	1534.90
529.22	1519.64
529.58	1507.14
529.93	1495.32
530.29	1481.04
530.65	1469.18
531.00	1454.50
531.36	1437.95
531.71	1429.08
532.07	1423.86
532.43	1409.85
532.78	1399.85
533.14	1393.65
533.49	1381.34
533.85	1364.56
534.21	1358.52
534.56	1354.00
534.92	1344.01
535.27	1330.73
535.63	1328.16
535.98	1317.58
536.34	1307.31
536.69	1302.32
537.05	1303.87
537.41	1299.16
537.76	1294.90
538.12	1288.37
538.47	1279.95
538.83	1270.75
539.18	1266.96
539.54	1258.69
539.89	1254.62
540.25	1253.73
540.60	1253.31
540.96	1246.57
541.31	1248.91
541.67	1243.64
542.02	1241.61
542.38	1237.32
542.73	1235.85
543.09	1230.56
543.44	1227.80
543.80	1223.84
544.15	1220.85
544.51	1214.57
544.86	1207.01
545.22	1202.87
545.57	1195.29
545.93	1190.19
546.28	1189.41
546.64	1190.14
546.99	1187.78
547.35	1185.11
547.70	1184.15
548.05	1179.40
548.41	1176.59
548.76	1176.84
549.12	1176.28
549.47	1171.13
549.83	1168.61
550.18	1165.00
550.53	1159.31
550.89	1159.27
551.24	1157.86
551.60	1160.60
551.95	1158.92
552.30	1160.25
552.66	1160.16
553.01	1157.16
553.37	1151.99
553.72	1148.81
554.07	1145.13
554.43	1137.43
554.78	1136.66
555.13	1133.17
555.49	1133.22
555.84	1135.93
556.19	1136.10
556.55	1135.35
556.90	1134.60
557.26	1131.53
557.61	1126.62
557.96	1128.11
558.32	1127.72
558.67	1129.64
559.02	1129.61
559.37	1128.11
559.73	1124.32
560.08	1122.68
560.43	1121.16
560.79	1119.17
561.14	1115.92
561.49	1118.07
561.85	1115.87
562.20	1114.54
562.55	1111.33
562.90	1110.98
563.26	1107.92
563.61	1108.06
563.96	1109.69
564.32	1114.98
564.67	1115.10
565.02	1112.90
565.37	1111.87
565.73	1109.04
566.08	1106.28
566.43	1108.88
566.78	1108.76
567.14	1110.58
567.49	1111.54
567.84	1114.21
568.19	1113.18
568.54	1115.62
568.90	1118.28
569.25	1115.17
569.60	1114.09
569.95	1112.90
570.31	1110.58
570.66	1103.68
571.01	1099.72
571.36	1097.85
571.71	1095.49
572.06	1094.08
572.42	1095.96
572.77	1101.18
573.12	1099.93
573.47	1103.16
573.82	1106.09
574.18	1104.62
574.53	1101.67
574.88	1103.45
575.23	1102.58
575.58	1098.46
575.93	1099.91
576.28	1101.06
576.64	1101.15
576.99	1100.03
577.34	1105.41
577.69	1101.43
578.04	1100.94
578.39	1100.05
578.74	1100.31
579.09	1097.27
579.44	1102.13
579.80	1101.99
580.15	1100.96
580.50	1096.40
580.85	1096.35
581.20	1093.31
581.55	1093.87
581.90	1093.19
582.25	1096.66
582.60	1093.43
582.95	1095.56
583.30	1094.57
583.65	1094.95
584.00	1092.35
584.35	1094.32
584.71	1091.44
585.06	1091.23
585.41	1090.62
585.76	1090.55
586.11	1090.08
586.46	1090.06
586.81	1092.77
587.16	1092.45
587.51	1091.84
587.86	1090.71
588.21	1092.37
588.56	1087.97
588.91	1087.27
589.26	1089.71
589.61	1090.67
589.96	1088.56
590.31	1090.41
590.66	1092.82
591.01	1092.89
591.36	1091.77
591.71	1092.66
592.06	1091.70
592.41	1086.57
592.76	1086.92
593.10	1087.67
593.45	1085.87
593.80	1085.87
594.15	1089.00
594.50	1090.64
594.85	1087.02
595.20	1088.09
595.55	1087.06
595.90	1088.47
596.25	1083.29
596.60	1085.75
596.95	1086.13
597.30	1088.51
597.64	1098.44
597.99	1099.70
598.34	1099.91
598.69	1100.00
599.04	1098.18
599.39	1089.75
599.74	1089.00
600.09	1089.89
600.44	1089.64
600.78	1089.82
601.13	1086.29
601.48	1087.46
601.83	1088.89
602.18	1088.72
602.53	1088.35
602.88	1091.18
603.22	1093.08
603.57	1089.94
603.92	1091.39
604.27	1091.16
604.62	1087.93
604.97	1088.42
605.31	1090.20
605.66	1084.93
606.01	1086.48
606.36	1087.18
606.71	1085.17
607.05	1083.76
607.40	1085.59
607.75	1084.51
608.10	1082.61
608.44	1083.39
608.79	1084.53
609.14	1087.58
609.49	1087.95
609.84	1091.51
610.18	1089.36
610.53	1088.91
610.88	1085.75
611.23	1089.19
611.57	1087.69
611.92	1087.39
612.27	1084.58
612.62	1089.14
612.96	1085.17
613.31	1083.90
613.66	1086.22
614.00	1087.27
614.35	1083.41
614.70	1087.93
615.05	1088.14
615.39	1083.53
615.74	1084.84
616.09	1084.04
616.43	1081.61
616.78	1080.93
617.13	1084.72
617.47	1087.04
617.82	1088.35
618.17	1085.75
618.51	1086.31
618.86	1085.82
619.21	1083.86
619.55	1081.63
619.90	1082.01
620.25	1081.28
620.59	1081.16
620.94	1080.81
621.29	1081.51
621.63	1080.88
621.98	1074.94
622.32	1077.44
622.67	1077.14
623.02	1079.34
623.36	1078.89
623.71	1086.27
624.05	1084.02
624.40	1085.61
624.75	1083.81
625.09	1084.49
625.44	1084.44
625.78	1081.94
626.13	1078.17
626.48	1078.50
626.82	1080.51
627.17	1082.50
627.51	1084.21
627.86	1084.16
628.20	1086.57
628.55	1081.58
628.89	1079.43
629.24	1080.18
629.58	1081.70
629.93	1080.72
630.28	1084.65
630.62	1082.08
630.97	1081.28
631.31	1080.11
631.66	1078.52
632.00	1078.59
632.35	1077.89
632.69	1077.37
633.04	1080.18
633.38	1080.86
633.73	1079.83
634.07	1081.87
634.42	1085.21
634.76	1083.06
635.11	1080.30
635.45	1083.11
635.79	1083.55
636.14	1080.72
636.48	1083.74
636.83	1085.70
637.17	1082.92
637.52	1082.17
637.86	1081.19
638.21	1079.62
638.55	1080.48
638.89	1080.11
639.24	1081.07
639.58	1083.11
639.93	1082.87
640.27	1081.77
640.61	1082.78
640.96	1081.89
641.30	1079.83
641.65	1079.24
641.99	1079.03
642.33	1074.91
642.68	1075.69
643.02	1075.13
643.37	1075.94
643.71	1074.07
644.05	1076.44
644.40	1075.78
644.74	1077.04
645.08	1075.78
645.43	1080.16
645.77	1082.61
646.11	1081.77
646.46	1081.61
646.80	1080.67
647.14	1081.28
647.49	1080.27
647.83	1081.16
648.17	1080.84
648.52	1083.22
648.86	1076.53
649.20	1074.89
649.55	1075.38
649.89	1075.48
650.23	1074.82
650.57	1079.48
650.92	1084.35
651.26	1081.68
651.60	1082.94
651.95	1085.12
652.29	1084.30
652.63	1078.24
652.97	1078.94
653.32	1079.62
653.66	1078.38
654.00	1079.76
654.34	1084.32
654.69	1088.42
655.03	1086.43
655.37	1084.00
655.71	1083.93
656.05	1083.22
656.40	1080.91
656.74	1083.18
657.08	1083.08
657.42	1080.77
657.76	1078.96
658.11	1080.06
658.45	1078.07
658.79	1081.70
659.13	1083.90
659.47	1084.35
659.82	1084.60
660.16	1086.27
660.50	1086.92
660.84	1086.29
661.18	1084.91
661.52	1082.52
661.87	1079.48
662.21	1074.17
662.55	1074.03
662.89	1076.95
663.23	1078.38
663.57	1083.39
663.91	1085.42
664.25	1088.51
664.60	1086.06
664.94	1085.40
665.28	1082.10
665.62	1086.22
665.96	1081.66
666.30	1081.49
666.64	1082.10
666.98	1082.22
667.32	1081.94
667.66	1079.01
668.01	1080.91
668.35	1079.13
668.69	1080.06
669.03	1077.54
669.37	1082.05
669.71	1080.65
670.05	1083.20
670.39	1082.36
670.73	1084.77
671.07	1084.07
671.41	1086.01
671.75	1083.60
672.09	1085.91
672.43	1080.39
672.77	1078.99
673.11	1073.60
673.45	1072.97
673.79	1069.37
674.13	1070.94
674.47	1069.70
674.81	1073.42
675.15	1074.21
675.49	1074.84
675.83	1076.53
676.17	1080.56
676.51	1077.93
676.85	1079.53
677.19	1080.04
677.53	1080.60
677.87	1076.93
678.21	1077.91
678.55	1078.94
678.89	1078.66
679.23	1078.64
679.57	1082.31
679.90	1084.46
680.24	1082.85
680.58	1080.44
680.92	1080.63
681.26	1082.52
681.60	1083.86
681.94	1086.69
682.28	1088.42
682.62	1089.66
682.96	1084.79
683.29	1083.50
683.63	1079.99
683.97	1081.91
684.31	1079.60
684.65	1083.50
684.99	1085.77
685.33	1086.31
685.67	1084.74
686.00	1085.24
686.34	1084.53
686.68	1080.72
687.02	1084.14
687.36	1084.98
687.70	1085.59
688.03	1085.42
688.37	1087.44
688.71	1083.69
689.05	1082.64
689.39	1081.77
689.72	1082.99
690.06	1080.74
690.40	1080.23
690.74	1080.11
691.08	1080.30
691.41	1076.58
691.75	1081.21
692.09	1080.65
692.43	1080.56
692.76	1081.33
693.10	1084.81
693.44	1081.33
693.78	1083.53
694.11	1085.47
694.45	1084.04
694.79	1083.43
695.13	1082.12
695.46	1079.48
695.80	1079.36
696.14	1080.86
696.48	1082.36
696.81	1082.45
697.15	1084.96
697.49	1083.53
697.82	1083.60
698.16	1080.91
698.50	1083.08
698.83	1081.33
699.17	1083.34
699.51	1082.71
699.84	1084.86
700.18	1083.34
700.52	1084.28
700.85	1083.39
701.19	1083.69
701.53	1083.88
701.86	1085.99
702.20	1085.24
702.54	1085.12
702.87	1083.22
703.21	1080.18
703.55	1079.48
703.88	1079.60
704.22	1080.16
704.55	1078.99
704.89	1080.23
705.23	1078.28
705.56	1079.90
705.90	1079.53
706.23	1080.30
706.57	1078.05
706.91	1079.06
707.24	1080.37
707.58	1077.91
707.91	1078.00
708.25	1081.23
708.58	1079.85
708.92	1079.17
709.26	1081.26
709.59	1081.49
709.93	1080.74
710.26	1082.83
710.60	1079.99
710.93	1079.71
711.27	1081.63
711.60	1081.68
711.94	1084.93
712.27	1088.44
712.61	1087.44
712.94	1084.07
713.28	1083.95
713.61	1080.72
713.95	1078.47
714.28	1081.94
714.62	1083.50
714.95	1081.19
715.29	1081.40
715.62	1080.09
715.96	1080.34
716.29	1079.69
716.63	1079.97
716.96	1078.14
717.29	1078.61
717.63	1075.24
717.96	1076.62
718.30	1079.76
718.63	1081.28
718.97	1081.61
719.30	1083.53
719.63	1083.76
719.97	1082.94
720.30	1083.57
720.64	1083.06
720.97	1081.49
721.30	1080.18
721.64	1078.52
721.97	1077.18
722.31	1077.49
722.64	1077.14
722.97	1074.54
723.31	1073.95
723.64	1074.56
723.97	1073.58
724.31	1073.67
724.64	1078.03
724.98	1082.08
725.31	1082.94
725.64	1083.62
725.98	1082.31
726.31	1078.57
726.64	1076.69
726.97	1073.53
727.31	1075.80
727.64	1077.68
727.97	1079.15
728.31	1077.44
728.64	1080.09
728.97	1080.60
729.31	1081.89
729.64	1080.95
729.97	1081.66
730.30	1081.02
730.64	1080.16
730.97	1076.58
731.30	1080.04
731.63	1079.60
731.97	1078.68
732.30	1079.85
732.63	1083.48
732.96	1079.97
733.30	1080.93
733.63	1085.73
733.96	1086.41
734.29	1085.96
734.63	1090.48
734.96	1092.73
735.29	1086.83
735.62	1082.83
735.95	1083.71
736.29	1082.87
736.62	1081.14
736.95	1085.59
737.28	1085.33
737.61	1085.10
737.94	1084.32
738.28	1081.80
738.61	1078.68
738.94	1080.16
739.27	1076.62
739.60	1075.34
739.93	1072.83
740.27	1073.02
740.60	1073.21
740.93	1074.73
741.26	1077.02
741.59	1081.47
741.92	1082.01
742.25	1083.46
742.58	1084.28
742.91	1079.69
743.25	1079.20
743.58	1077.77
743.91	1076.34
744.24	1077.00
744.57	1078.61
744.90	1073.42
745.23	1076.72
745.56	1077.18
745.89	1076.69
746.22	1078.80
746.55	1087.06
746.88	1084.70
747.21	1086.59
747.54	1089.00
747.87	1087.06
748.20	1084.42
748.53	1083.08
748.87	1080.81
749.20	1076.95
749.53	1078.64
749.86	1081.07
750.19	1080.25
750.52	1077.70
750.85	1079.53
751.18	1079.97
751.51	1080.44
751.84	1084.67
752.16	1088.91
752.49	1089.50
752.82	1087.25
753.15	1086.15
753.48	1083.88
753.81	1082.54
754.14	1081.42
754.47	1082.59
754.80	1084.86
755.13	1084.42
755.46	1081.68
755.79	1083.06
756.12	1081.33
756.45	1075.62
756.78	1075.83
757.11	1080.27
757.43	1078.33
757.76	1079.67
758.09	1082.15
758.42	1083.11
758.75	1080.06
759.08	1080.77
759.41	1079.36
759.74	1080.56
760.07	1079.57
760.39	1079.90
760.72	1076.69
761.05	1079.20
761.38	1076.06
761.71	1075.45
762.04	1076.46
762.36	1079.71
762.69	1076.44
763.02	1080.56
763.35	1080.74
763.68	1080.60
