SpectraSuite Data File
++++++++++++++++++++++++++++++++++++
Date: Mon Aug 26 10:21:54 PDT 2019
User: corrico
Dark Spectrum Present: No
Reference Spectrum Present: No
Number of Sampled Component Spectra: 1
Spectrometers: USB2+H06089
Integration Time (usec): 2000 (USB2+H06089)
Spectra Averaged: 20 (USB2+H06089)
Boxcar Smoothing: 2 (USB2+H06089)
Correct for Electrical Dark: No (USB2+H06089)
Strobe/Lamp Enabled: No (USB2+H06089)
Correct for Detector Non-linearity: No (USB2+H06089)
Correct for Stray Light: No (USB2+H06089)
Number of Pixels in Processed Spectrum: 2048
>>>>>Begin Processed Spectral Data<<<<<
339.70	1031.59
340.07	1031.59
340.45	999.46
340.82	975.91
341.19	952.86
341.57	927.44
341.94	912.22
342.31	905.55
342.69	900.94
343.06	894.32
343.43	890.22
343.81	894.86
344.18	897.34
344.55	904.85
344.93	911.12
345.30	916.98
345.67	921.87
346.04	929.99
346.42	937.13
346.79	946.89
347.16	956.62
347.54	963.81
347.91	972.07
348.28	978.60
348.65	988.57
349.03	997.21
349.40	1004.46
349.77	1012.23
350.14	1018.81
350.52	1024.08
350.89	1030.96
351.26	1038.05
351.63	1041.49
352.01	1047.30
352.38	1051.30
352.75	1056.56
353.12	1058.69
353.50	1063.33
353.87	1065.93
354.24	1070.75
354.61	1070.89
354.98	1071.52
355.36	1070.33
355.73	1072.22
356.10	1071.87
356.47	1073.95
356.84	1079.36
357.22	1084.07
357.59	1083.20
357.96	1082.31
358.33	1082.40
358.70	1078.82
359.08	1077.23
359.45	1075.59
359.82	1072.36
360.19	1071.43
360.56	1068.43
360.94	1065.22
361.31	1066.35
361.68	1067.42
362.05	1066.39
362.42	1065.95
362.79	1065.79
363.16	1064.87
363.54	1063.80
363.91	1064.41
364.28	1065.65
364.65	1066.30
365.02	1065.22
365.39	1066.14
365.76	1066.70
366.14	1065.22
366.51	1064.50
366.88	1062.93
367.25	1063.70
367.62	1060.71
367.99	1060.85
368.36	1060.26
368.73	1063.89
369.10	1062.37
369.48	1061.90
369.85	1063.31
370.22	1063.31
370.59	1062.84
370.96	1065.04
371.33	1067.38
371.70	1069.72
372.07	1070.94
372.44	1071.22
372.81	1072.46
373.18	1070.12
373.55	1070.09
373.93	1070.05
374.30	1066.89
374.67	1062.86
375.04	1064.01
375.41	1060.92
375.78	1062.60
376.15	1066.18
376.52	1066.84
376.89	1068.57
377.26	1070.77
377.63	1070.28
378.00	1068.29
378.37	1069.16
378.74	1066.44
379.11	1063.63
379.48	1061.76
379.85	1062.09
380.22	1062.67
380.59	1064.01
380.96	1066.47
381.33	1067.38
381.70	1069.39
382.07	1068.41
382.44	1069.67
382.81	1070.51
383.18	1071.92
383.55	1068.64
383.92	1067.82
384.29	1070.12
384.66	1066.91
385.03	1065.86
385.40	1070.61
385.77	1072.20
386.14	1068.52
386.51	1070.75
386.88	1069.84
387.25	1067.96
387.62	1065.72
387.99	1068.20
388.36	1069.74
388.73	1073.28
389.10	1074.40
389.46	1077.21
389.83	1074.21
390.20	1074.35
390.57	1071.75
390.94	1066.98
391.31	1068.13
391.68	1069.25
392.05	1070.75
392.42	1071.17
392.79	1073.81
393.16	1073.16
393.53	1073.86
393.89	1068.62
394.26	1068.62
394.63	1067.10
395.00	1067.42
395.37	1065.46
395.74	1066.63
396.11	1066.54
396.48	1067.52
396.84	1066.98
397.21	1069.98
397.58	1070.23
397.95	1069.27
398.32	1069.91
398.69	1069.65
399.06	1068.01
399.42	1070.42
399.79	1071.36
400.16	1072.46
400.53	1072.64
400.90	1073.74
401.27	1071.54
401.64	1070.82
402.00	1068.13
402.37	1068.34
402.74	1069.37
403.11	1071.78
403.48	1073.42
403.84	1078.24
404.21	1076.27
404.58	1078.50
404.95	1078.99
405.32	1081.07
405.68	1077.04
406.05	1081.54
406.42	1080.02
406.79	1079.53
407.16	1076.69
407.52	1076.13
407.89	1075.52
408.26	1073.28
408.63	1071.03
408.99	1072.85
409.36	1073.58
409.73	1069.11
410.10	1073.65
410.47	1077.86
410.83	1076.08
411.20	1077.18
411.57	1080.72
411.94	1073.72
412.30	1071.54
412.67	1073.18
413.04	1075.48
413.40	1076.04
413.77	1079.60
414.14	1081.14
414.51	1081.96
414.87	1081.80
415.24	1082.15
415.61	1082.03
415.97	1078.45
416.34	1076.13
416.71	1075.73
417.08	1074.54
417.44	1075.52
417.81	1078.36
418.18	1080.34
418.54	1079.41
418.91	1079.15
419.28	1082.19
419.64	1082.83
420.01	1081.00
420.38	1080.34
420.74	1081.61
421.11	1079.15
421.48	1079.10
421.84	1081.84
422.21	1085.99
422.58	1090.53
422.94	1092.54
423.31	1090.57
423.68	1090.24
424.04	1088.98
424.41	1084.56
424.77	1085.45
425.14	1090.85
425.51	1094.55
425.87	1094.93
426.24	1098.51
426.61	1098.72
426.97	1099.49
427.34	1101.25
427.70	1100.24
428.07	1099.23
428.44	1099.70
428.80	1098.30
429.17	1092.96
429.53	1095.44
429.90	1098.11
430.27	1099.02
430.63	1103.12
431.00	1109.58
431.36	1113.02
431.73	1111.22
432.09	1111.82
432.46	1112.83
432.83	1116.88
433.19	1121.84
433.56	1131.27
433.92	1138.58
434.29	1144.66
434.65	1148.92
435.02	1153.93
435.38	1156.69
435.75	1162.47
436.11	1167.30
436.48	1171.81
436.84	1176.24
437.21	1188.50
437.57	1193.86
437.94	1203.36
438.30	1213.24
438.67	1224.73
439.03	1230.56
439.40	1244.09
439.76	1253.08
440.13	1260.50
440.49	1270.44
440.86	1279.62
441.22	1291.60
441.59	1305.39
441.95	1325.63
442.32	1345.27
442.68	1367.01
443.05	1384.26
443.41	1403.83
443.78	1423.49
444.14	1443.67
444.51	1463.70
444.87	1492.35
445.24	1518.94
445.60	1545.48
445.96	1574.45
446.33	1604.13
446.69	1630.77
447.06	1659.23
447.42	1691.93
447.79	1722.63
448.15	1769.00
448.51	1812.46
448.88	1864.12
449.24	1904.99
449.61	1963.76
449.97	2011.62
450.33	2060.16
450.70	2112.26
451.06	2173.05
451.43	2228.24
451.79	2295.15
452.15	2374.47
452.52	2454.05
452.88	2538.59
453.24	2627.91
453.61	2720.80
453.97	2816.27
454.34	2902.87
454.70	3005.76
455.06	3108.65
455.43	3220.20
455.79	3323.30
456.15	3449.43
456.52	3572.03
456.88	3707.01
457.24	3828.51
457.61	3970.02
457.97	4116.98
458.33	4269.35
458.70	4425.06
459.06	4583.10
459.42	4755.08
459.79	4903.09
460.15	5065.90
460.51	5222.67
460.88	5382.90
461.24	5528.25
461.60	5699.88
461.96	5849.30
462.33	5985.36
462.69	6126.91
463.05	6278.28
463.42	6412.08
463.78	6539.95
464.14	6673.59
464.50	6809.58
464.87	6902.52
465.23	6961.74
465.59	7036.66
465.95	7087.45
466.32	7126.81
466.68	7192.84
467.04	7250.04
467.40	7295.12
467.77	7333.81
468.13	7345.05
468.49	7332.31
468.85	7333.81
469.22	7317.68
469.58	7280.82
469.94	7274.15
470.30	7235.74
470.66	7186.97
471.03	7109.63
471.39	7055.59
471.75	6930.89
472.11	6820.30
472.47	6727.68
472.84	6628.49
473.20	6509.78
473.56	6439.96
473.92	6355.37
474.28	6284.95
474.65	6221.85
475.01	6158.16
475.37	6079.99
475.73	6007.94
476.09	5908.10
476.45	5817.45
476.81	5736.61
477.18	5646.36
477.54	5571.25
477.90	5497.29
478.26	5415.23
478.62	5338.11
478.98	5273.79
479.34	5213.61
479.71	5140.05
480.07	5086.38
480.43	5036.32
480.79	4982.37
481.15	4925.91
481.51	4876.48
481.87	4833.18
482.23	4767.04
482.59	4700.08
482.96	4635.43
483.32	4581.06
483.68	4512.01
484.04	4459.77
484.40	4407.44
484.76	4353.68
485.12	4292.68
485.48	4237.17
485.84	4176.24
486.20	4115.53
486.56	4054.28
486.92	3997.80
487.28	3930.70
487.64	3861.21
488.00	3798.29
488.37	3728.29
488.73	3650.51
489.09	3579.69
489.45	3518.71
489.81	3460.79
490.17	3411.73
490.53	3363.26
490.89	3310.03
491.25	3255.94
491.61	3192.82
491.97	3126.60
492.33	3059.43
492.69	2994.58
493.05	2932.62
493.41	2871.79
493.77	2815.31
494.13	2769.32
494.49	2723.52
494.85	2676.71
495.21	2636.94
495.57	2596.03
495.93	2552.40
496.29	2512.57
496.64	2473.67
497.00	2428.63
497.36	2387.11
497.72	2345.76
498.08	2308.07
498.44	2269.15
498.80	2233.03
499.16	2195.98
499.52	2164.60
499.88	2134.71
500.24	2108.17
500.60	2082.49
500.96	2055.62
501.32	2027.42
501.68	1996.48
502.03	1970.47
502.39	1942.93
502.75	1913.55
503.11	1891.62
503.47	1866.88
503.83	1844.65
504.19	1824.03
504.55	1805.04
504.91	1781.85
505.26	1760.90
505.62	1736.07
505.98	1717.58
506.34	1695.60
506.70	1675.05
507.06	1660.38
507.42	1642.19
507.78	1620.10
508.13	1605.23
508.49	1588.85
508.85	1571.53
509.21	1552.73
509.57	1536.84
509.93	1518.00
510.28	1504.31
510.64	1485.73
511.00	1475.40
511.36	1461.50
511.72	1451.16
512.07	1435.92
512.43	1425.13
512.79	1412.98
513.15	1404.65
513.51	1395.15
513.86	1389.04
514.22	1383.61
514.58	1373.82
514.94	1363.92
515.30	1351.94
515.65	1340.78
516.01	1327.65
516.37	1319.13
516.73	1313.44
517.08	1308.66
517.44	1302.04
517.80	1296.61
518.16	1288.58
518.51	1279.73
518.87	1275.50
519.23	1270.14
519.59	1264.71
519.94	1263.42
520.30	1259.72
520.66	1251.27
521.01	1241.75
521.37	1237.00
521.73	1230.05
522.09	1222.11
522.44	1220.33
522.80	1219.09
523.16	1212.56
523.51	1209.07
523.87	1208.70
524.23	1202.68
524.58	1196.41
524.94	1195.12
525.30	1188.62
525.65	1184.05
526.01	1179.19
526.37	1175.96
526.72	1174.67
527.08	1174.18
527.44	1170.99
527.79	1169.96
528.15	1168.82
528.51	1163.55
528.86	1161.82
529.22	1160.62
529.58	1156.48
529.93	1156.93
530.29	1154.45
530.65	1147.07
531.00	1141.90
531.36	1144.62
531.71	1144.03
532.07	1142.63
532.43	1147.21
532.78	1145.72
533.14	1140.17
533.49	1135.37
533.85	1134.32
534.21	1129.92
534.56	1131.44
534.92	1127.74
535.27	1128.35
535.63	1125.40
535.98	1124.00
536.34	1120.34
536.69	1123.34
537.05	1120.46
537.41	1119.38
537.76	1115.29
538.12	1112.57
538.47	1110.07
538.83	1105.27
539.18	1104.90
539.54	1104.66
539.89	1106.93
540.25	1105.51
540.60	1108.06
540.96	1105.44
541.31	1106.72
541.67	1104.03
542.02	1104.99
542.38	1104.48
542.73	1105.60
543.09	1101.76
543.44	1098.67
543.80	1097.64
544.15	1098.65
544.51	1097.03
544.86	1099.02
545.22	1101.46
545.57	1100.85
545.93	1099.54
546.28	1099.37
546.64	1099.33
546.99	1096.17
547.35	1092.80
547.70	1093.57
548.05	1094.18
548.41	1093.52
548.76	1094.69
549.12	1093.73
549.47	1093.26
549.83	1092.77
550.18	1090.55
550.53	1090.67
550.89	1092.87
551.24	1088.37
551.60	1089.07
551.95	1088.63
552.30	1086.52
552.66	1087.25
553.01	1088.54
553.37	1086.06
553.72	1085.68
554.07	1087.76
554.43	1086.73
554.78	1087.09
555.13	1088.28
555.49	1084.77
555.84	1083.53
556.19	1084.35
556.55	1081.75
556.90	1082.47
557.26	1090.20
557.61	1091.23
557.96	1089.89
558.32	1091.04
558.67	1090.08
559.02	1084.21
559.37	1083.36
559.73	1084.44
560.08	1083.67
560.43	1082.92
560.79	1084.60
561.14	1083.76
561.49	1082.52
561.85	1083.60
562.20	1084.86
562.55	1085.03
562.90	1085.66
563.26	1083.88
563.61	1081.94
563.96	1079.55
564.32	1079.95
564.67	1078.59
565.02	1078.80
565.37	1078.40
565.73	1077.61
566.08	1076.81
566.43	1076.90
566.78	1077.65
567.14	1080.84
567.49	1083.41
567.84	1083.53
568.19	1083.13
568.54	1083.11
568.90	1082.66
569.25	1081.37
569.60	1082.33
569.95	1081.61
570.31	1079.90
570.66	1078.96
571.01	1080.39
571.36	1078.00
571.71	1080.58
572.06	1083.64
572.42	1082.38
572.77	1079.67
573.12	1080.53
573.47	1078.78
573.82	1075.57
574.18	1078.12
574.53	1078.85
574.88	1080.95
575.23	1080.86
575.58	1080.46
575.93	1076.81
576.28	1074.56
576.64	1071.52
576.99	1072.74
577.34	1073.70
577.69	1074.91
578.04	1078.21
578.39	1076.39
578.74	1076.65
579.09	1077.40
579.44	1077.09
579.80	1074.31
580.15	1077.56
580.50	1076.62
580.85	1078.80
581.20	1081.54
581.55	1082.26
581.90	1084.11
582.25	1083.55
582.60	1080.88
582.95	1077.51
583.30	1077.82
583.65	1072.43
584.00	1073.74
584.35	1072.78
584.71	1074.52
585.06	1075.34
585.41	1078.87
585.76	1077.82
586.11	1077.89
586.46	1078.89
586.81	1080.84
587.16	1081.28
587.51	1081.28
587.86	1083.32
588.21	1082.85
588.56	1082.50
588.91	1080.67
589.26	1082.71
589.61	1082.83
589.96	1081.75
590.31	1081.58
590.66	1086.69
591.01	1085.38
591.36	1088.96
591.71	1089.78
592.06	1088.14
592.41	1083.25
592.76	1082.26
593.10	1080.51
593.45	1082.45
593.80	1082.47
594.15	1083.79
594.50	1082.87
594.85	1079.57
595.20	1076.83
595.55	1078.10
595.90	1078.50
596.25	1079.41
596.60	1078.75
596.95	1077.16
597.30	1075.31
597.64	1083.04
597.99	1084.21
598.34	1084.42
598.69	1087.60
599.04	1089.75
599.39	1082.26
599.74	1081.23
600.09	1079.24
600.44	1077.35
600.78	1075.87
601.13	1074.24
601.48	1075.57
601.83	1081.12
602.18	1078.00
602.53	1076.76
602.88	1079.24
603.22	1078.94
603.57	1077.68
603.92	1080.95
604.27	1083.34
604.62	1079.71
604.97	1078.33
605.31	1078.71
605.66	1081.40
606.01	1081.56
606.36	1081.68
606.71	1082.10
607.05	1082.10
607.40	1080.74
607.75	1079.83
608.10	1081.12
608.44	1083.11
608.79	1081.33
609.14	1081.98
609.49	1082.22
609.84	1080.77
610.18	1078.21
610.53	1080.88
610.88	1081.28
611.23	1081.02
611.57	1084.25
611.92	1084.60
612.27	1081.68
612.62	1079.17
612.96	1077.61
613.31	1076.20
613.66	1075.66
614.00	1074.03
614.35	1072.53
614.70	1073.28
615.05	1074.35
615.39	1076.37
615.74	1078.07
616.09	1080.20
616.43	1080.48
616.78	1081.09
617.13	1078.19
617.47	1077.40
617.82	1076.13
618.17	1077.58
618.51	1076.81
618.86	1077.70
619.21	1077.79
619.55	1078.80
619.90	1078.92
620.25	1076.65
620.59	1077.42
620.94	1077.35
621.29	1077.65
621.63	1073.79
621.98	1075.57
622.32	1073.67
622.67	1072.90
623.02	1071.57
623.36	1075.66
623.71	1075.20
624.05	1078.14
624.40	1080.04
624.75	1083.11
625.09	1081.21
625.44	1078.05
625.78	1077.25
626.13	1080.02
626.48	1079.67
626.82	1079.43
627.17	1082.26
627.51	1083.04
627.86	1082.01
628.20	1076.83
628.55	1075.87
628.89	1073.74
629.24	1070.28
629.58	1069.70
629.93	1074.05
630.28	1074.33
630.62	1074.38
630.97	1078.75
631.31	1077.21
631.66	1077.18
632.00	1078.45
632.35	1079.83
632.69	1079.34
633.04	1079.22
633.38	1077.63
633.73	1075.29
634.07	1076.48
634.42	1073.32
634.76	1071.61
635.11	1071.54
635.45	1072.67
635.79	1070.82
636.14	1072.13
636.48	1073.77
636.83	1075.10
637.17	1075.64
637.52	1077.96
637.86	1077.49
638.21	1079.20
638.55	1075.43
638.89	1074.49
639.24	1073.49
639.58	1074.03
639.93	1071.94
640.27	1075.48
640.61	1076.93
640.96	1075.90
641.30	1077.23
641.65	1078.92
641.99	1078.54
642.33	1077.54
642.68	1075.83
643.02	1077.00
643.37	1075.36
643.71	1074.68
644.05	1073.18
644.40	1075.78
644.74	1071.29
645.08	1073.32
645.43	1073.16
645.77	1076.95
646.11	1074.40
646.46	1075.59
646.80	1076.41
647.14	1077.28
647.49	1076.62
647.83	1079.62
648.17	1080.72
648.52	1079.27
648.86	1076.95
649.20	1077.58
649.55	1076.48
649.89	1076.72
650.23	1074.87
650.57	1078.26
650.92	1075.48
651.26	1077.21
651.60	1074.45
651.95	1073.58
652.29	1068.31
652.63	1068.17
652.97	1066.91
653.32	1067.12
653.66	1068.48
654.00	1072.25
654.34	1072.32
654.69	1071.47
655.03	1076.39
655.37	1077.68
655.71	1075.73
656.05	1078.12
656.40	1078.89
656.74	1076.06
657.08	1075.29
657.42	1078.40
657.76	1077.54
658.11	1076.69
658.45	1075.57
658.79	1079.57
659.13	1079.24
659.47	1079.95
659.82	1082.12
660.16	1081.40
660.50	1076.93
660.84	1074.73
661.18	1073.77
661.52	1071.31
661.87	1071.90
662.21	1071.22
662.55	1071.68
662.89	1074.31
663.23	1075.27
663.57	1075.97
663.91	1078.89
664.25	1079.48
664.60	1073.77
664.94	1075.43
665.28	1076.32
665.62	1073.67
665.96	1070.70
666.30	1070.49
666.64	1070.82
666.98	1068.97
667.32	1070.98
667.66	1075.36
668.01	1080.48
668.35	1078.17
668.69	1079.92
669.03	1077.82
669.37	1076.30
669.71	1073.46
670.05	1075.45
670.39	1076.81
670.73	1077.40
671.07	1079.06
671.41	1083.95
671.75	1080.25
672.09	1078.28
672.43	1079.85
672.77	1078.57
673.11	1075.52
673.45	1078.03
673.79	1078.96
674.13	1080.20
674.47	1077.16
674.81	1074.87
675.15	1074.56
675.49	1071.99
675.83	1068.15
676.17	1072.48
676.51	1074.17
676.85	1073.37
677.19	1074.05
677.53	1075.76
677.87	1074.98
678.21	1075.48
678.55	1076.25
678.89	1075.90
679.23	1073.88
679.57	1071.87
679.90	1068.71
680.24	1069.60
680.58	1069.81
680.92	1068.74
681.26	1071.99
681.60	1073.42
681.94	1071.45
682.28	1071.61
682.62	1075.55
682.96	1075.85
683.29	1077.00
683.63	1078.47
683.97	1077.54
684.31	1076.30
684.65	1077.14
684.99	1076.13
685.33	1074.61
685.67	1076.86
686.00	1076.37
686.34	1074.31
686.68	1072.76
687.02	1073.04
687.36	1071.99
687.70	1073.00
688.03	1072.50
688.37	1075.55
688.71	1076.83
689.05	1077.91
689.39	1078.43
689.72	1077.77
690.06	1076.23
690.40	1075.57
690.74	1072.92
691.08	1071.59
691.41	1071.43
691.75	1072.69
692.09	1069.84
692.43	1072.32
692.76	1074.07
693.10	1075.24
693.44	1074.47
693.78	1076.69
694.11	1075.36
694.45	1073.53
694.79	1072.41
695.13	1073.65
695.46	1073.86
695.80	1072.85
696.14	1073.25
696.48	1075.73
696.81	1075.24
697.15	1073.35
697.49	1076.32
697.82	1071.82
698.16	1068.52
698.50	1069.09
698.83	1074.00
699.17	1073.81
699.51	1079.55
699.84	1081.02
700.18	1078.05
700.52	1075.55
700.85	1077.33
701.19	1074.05
701.53	1072.41
701.86	1074.94
702.20	1074.63
702.54	1071.26
702.87	1073.91
703.21	1076.06
703.55	1072.25
703.88	1075.69
704.22	1076.25
704.55	1072.81
704.89	1069.44
705.23	1071.01
705.56	1068.95
705.90	1070.96
706.23	1074.61
706.57	1078.43
706.91	1079.60
707.24	1079.38
707.58	1077.04
707.91	1078.78
708.25	1077.79
708.58	1077.37
708.92	1078.43
709.26	1078.59
709.59	1076.76
709.93	1075.45
710.26	1075.97
710.60	1076.72
710.93	1079.97
711.27	1076.53
711.60	1080.27
711.94	1079.97
712.27	1078.05
712.61	1076.76
712.94	1077.96
713.28	1076.32
713.61	1076.48
713.95	1074.56
714.28	1074.42
714.62	1075.43
714.95	1075.31
715.29	1073.32
715.62	1074.77
715.96	1073.81
716.29	1075.24
716.63	1071.08
716.96	1071.66
717.29	1067.64
717.63	1067.40
717.96	1064.45
718.30	1070.37
718.63	1072.41
718.97	1076.81
719.30	1075.78
719.63	1078.14
719.97	1070.35
720.30	1070.28
720.64	1072.97
720.97	1072.74
721.30	1073.88
721.64	1078.87
721.97	1077.42
722.31	1072.15
722.64	1075.94
722.97	1076.15
723.31	1074.80
723.64	1075.20
723.97	1076.65
724.31	1074.59
724.64	1073.23
724.98	1076.08
725.31	1073.67
725.64	1075.31
725.98	1074.07
726.31	1072.39
726.64	1072.43
726.97	1073.02
727.31	1068.52
727.64	1068.95
727.97	1069.41
728.31	1065.46
728.64	1068.92
728.97	1074.70
729.31	1073.67
729.64	1076.23
729.97	1081.33
730.30	1079.92
730.64	1076.08
730.97	1077.28
731.30	1076.69
731.63	1075.01
731.97	1073.49
732.30	1073.14
732.63	1074.66
732.96	1072.97
733.30	1074.47
733.63	1076.46
733.96	1075.05
734.29	1074.49
734.63	1074.68
734.96	1069.41
735.29	1068.95
735.62	1072.25
735.95	1070.00
736.29	1069.13
736.62	1074.87
736.95	1075.69
737.28	1076.51
737.61	1080.02
737.94	1079.76
738.28	1076.15
738.61	1075.69
738.94	1071.17
739.27	1069.88
739.60	1072.62
739.93	1075.10
740.27	1072.76
740.60	1077.79
740.93	1077.04
741.26	1077.93
741.59	1075.08
741.92	1078.10
742.25	1073.74
742.58	1076.25
742.91	1074.28
743.25	1075.08
743.58	1077.00
743.91	1080.63
744.24	1077.70
744.57	1074.21
744.90	1075.78
745.23	1075.13
745.56	1075.62
745.89	1077.93
746.22	1082.71
746.55	1082.59
746.88	1081.19
747.21	1079.55
747.54	1076.69
747.87	1073.81
748.20	1071.26
748.53	1070.58
748.87	1071.22
749.20	1073.14
749.53	1072.83
749.86	1074.61
750.19	1075.43
750.52	1076.55
750.85	1078.87
751.18	1080.02
751.51	1077.14
751.84	1074.82
752.16	1070.68
752.49	1068.13
752.82	1065.08
753.15	1068.83
753.48	1070.89
753.81	1073.79
754.14	1073.32
754.47	1078.71
754.80	1076.60
755.13	1076.01
755.46	1073.98
755.79	1077.11
756.12	1078.47
756.45	1079.43
756.78	1080.06
757.11	1077.93
757.43	1072.15
757.76	1067.75
758.09	1067.21
758.42	1064.99
758.75	1070.12
759.08	1071.94
759.41	1072.90
759.74	1071.54
760.07	1074.10
760.39	1073.14
760.72	1074.42
761.05	1074.77
761.38	1079.01
761.71	1077.82
762.04	1075.90
762.36	1076.79
762.69	1076.08
763.02	1071.64
763.35	1072.69
763.68	1076.37
764.01	1074.94
764.33	1074.70
764.66	1077.42
764.99	1080.30
765.32	1080.88
765.65	1081.30
765.97	1080.34
766.30	1081.21
