SpectraSuite Data File
++++++++++++++++++++++++++++++++++++
Date: Mon Aug 26 10:22:32 PDT 2019
User: corrico
Dark Spectrum Present: No
Reference Spectrum Present: No
Number of Sampled Component Spectra: 1
Spectrometers: USB2+H06089
Integration Time (usec): 2000 (USB2+H06089)
Spectra Averaged: 20 (USB2+H06089)
Boxcar Smoothing: 2 (USB2+H06089)
Correct for Electrical Dark: No (USB2+H06089)
Strobe/Lamp Enabled: No (USB2+H06089)
Correct for Detector Non-linearity: No (USB2+H06089)
Correct for Stray Light: No (USB2+H06089)
Number of Pixels in Processed Spectrum: 2048
>>>>>Begin Processed Spectral Data<<<<<
339.70	1025.74
340.07	1025.74
340.45	993.86
340.82	975.72
341.19	952.60
341.57	926.36
341.94	913.39
342.31	903.77
342.69	896.68
343.06	895.98
343.43	896.19
343.81	900.90
344.18	905.04
344.55	907.14
344.93	909.84
345.30	914.10
345.67	918.00
346.04	925.28
346.42	936.92
346.79	947.12
347.16	959.03
347.54	968.28
347.91	978.62
348.28	982.93
348.65	992.69
349.03	1001.21
349.40	1011.46
349.77	1018.44
350.14	1027.87
350.52	1035.20
350.89	1044.63
351.26	1049.10
351.63	1055.30
352.01	1061.04
352.38	1064.22
352.75	1066.42
353.12	1069.60
353.50	1072.11
353.87	1075.94
354.24	1077.35
354.61	1078.57
354.98	1083.55
355.36	1083.08
355.73	1083.39
356.10	1082.64
356.47	1085.07
356.84	1082.59
357.22	1083.43
357.59	1082.22
357.96	1087.46
358.33	1083.43
358.70	1085.19
359.08	1083.69
359.45	1081.49
359.82	1079.22
360.19	1079.03
360.56	1076.34
360.94	1080.67
361.31	1081.94
361.68	1078.24
362.05	1078.36
362.42	1078.00
362.79	1075.80
363.16	1075.94
363.54	1076.67
363.91	1077.96
364.28	1078.40
364.65	1079.88
365.02	1079.71
365.39	1083.64
365.76	1080.30
366.14	1079.08
366.51	1075.66
366.88	1075.94
367.25	1070.61
367.62	1071.97
367.99	1071.66
368.36	1071.50
368.73	1069.72
369.10	1072.36
369.48	1073.74
369.85	1074.00
370.22	1075.22
370.59	1074.19
370.96	1072.71
371.33	1072.69
371.70	1073.16
372.07	1073.53
372.44	1078.68
372.81	1078.24
373.18	1077.02
373.55	1078.03
373.93	1074.94
374.30	1075.22
374.67	1078.24
375.04	1078.54
375.41	1078.52
375.78	1080.91
376.15	1080.60
376.52	1080.13
376.89	1082.43
377.26	1082.78
377.63	1081.35
378.00	1080.81
378.37	1082.87
378.74	1081.58
379.11	1079.78
379.48	1083.83
379.85	1083.18
380.22	1081.02
380.59	1082.36
380.96	1085.75
381.33	1085.47
381.70	1085.28
382.07	1082.85
382.44	1080.41
382.81	1078.50
383.18	1076.39
383.55	1076.08
383.92	1076.37
384.29	1077.21
384.66	1078.50
385.03	1079.85
385.40	1078.07
385.77	1080.58
386.14	1082.50
386.51	1083.46
386.88	1082.92
387.25	1083.79
387.62	1082.12
387.99	1080.65
388.36	1078.43
388.73	1077.07
389.10	1078.38
389.46	1077.21
389.83	1078.36
390.20	1080.95
390.57	1085.40
390.94	1083.15
391.31	1085.61
391.68	1086.01
392.05	1086.15
392.42	1082.92
392.79	1086.27
393.16	1086.38
393.53	1085.91
393.89	1081.58
394.26	1083.74
394.63	1081.89
395.00	1083.13
395.37	1084.98
395.74	1089.38
396.11	1087.44
396.48	1089.54
396.84	1090.32
397.21	1090.13
397.58	1088.35
397.95	1093.69
398.32	1090.95
398.69	1092.94
399.06	1092.35
399.42	1096.47
399.79	1093.62
400.16	1096.75
400.53	1093.22
400.90	1092.82
401.27	1090.24
401.64	1091.13
402.00	1091.70
402.37	1094.43
402.74	1094.20
403.11	1093.10
403.48	1090.67
403.84	1090.57
404.21	1087.90
404.58	1088.23
404.95	1090.78
405.32	1091.56
405.68	1092.61
406.05	1092.56
406.42	1092.96
406.79	1092.45
407.16	1094.27
407.52	1096.35
407.89	1097.01
408.26	1096.52
408.63	1095.79
408.99	1097.36
409.36	1091.95
409.73	1092.98
410.10	1094.72
410.47	1097.99
410.83	1096.73
411.20	1098.83
411.57	1099.75
411.94	1099.07
412.30	1095.98
412.67	1093.43
413.04	1096.31
413.40	1095.84
413.77	1098.27
414.14	1102.67
414.51	1105.95
414.87	1104.29
415.24	1106.39
415.61	1106.39
415.97	1104.76
416.34	1103.80
416.71	1105.27
417.08	1106.44
417.44	1105.88
417.81	1109.39
418.18	1111.22
418.54	1111.61
418.91	1109.34
419.28	1110.09
419.64	1108.50
420.01	1109.55
420.38	1111.87
420.74	1115.34
421.11	1119.53
421.48	1120.20
421.84	1125.56
422.21	1126.43
422.58	1126.73
422.94	1130.64
423.31	1134.53
423.68	1133.05
424.04	1138.67
424.41	1142.02
424.77	1140.07
425.14	1142.65
425.51	1147.14
425.87	1148.36
426.24	1151.50
426.61	1154.09
426.97	1162.66
427.34	1168.51
427.70	1174.27
428.07	1180.61
428.44	1193.77
428.80	1197.04
429.17	1205.68
429.53	1217.50
429.90	1228.27
430.27	1233.13
430.63	1242.80
431.00	1252.96
431.36	1257.83
431.73	1267.33
432.09	1282.12
432.46	1295.09
432.83	1307.84
433.19	1326.85
433.56	1348.66
433.92	1369.26
434.29	1389.44
434.65	1415.53
435.02	1439.17
435.38	1465.48
435.75	1490.08
436.11	1518.26
436.48	1545.17
436.84	1579.00
437.21	1612.14
437.57	1651.18
437.94	1695.20
438.30	1741.08
438.67	1787.89
439.03	1837.77
439.40	1892.77
439.76	1949.55
440.13	2012.09
440.49	2078.07
440.86	2141.89
441.22	2206.00
441.59	2278.96
441.95	2356.03
442.32	2436.45
442.68	2529.98
443.05	2628.30
443.41	2724.43
443.78	2824.16
444.14	2929.95
444.51	3038.16
444.87	3175.22
445.24	3318.27
445.60	3467.81
445.96	3623.29
446.33	3796.21
446.69	3954.48
447.06	4130.81
447.42	4302.54
447.79	4492.94
448.15	4712.20
448.51	4941.99
448.88	5194.66
449.24	5440.65
449.61	5712.78
449.97	5977.49
450.33	6259.76
450.70	6519.61
451.06	6844.36
451.43	7150.66
451.79	7515.55
452.15	7897.22
452.52	8337.06
452.88	8794.68
453.24	9318.77
453.61	9883.92
453.97	10447.54
454.34	10990.76
454.70	11634.90
455.06	12278.31
455.43	12898.22
455.79	13496.14
456.15	14209.25
456.52	14860.72
456.88	15615.77
457.24	16324.72
457.61	17152.83
457.97	17900.21
458.33	18664.84
458.70	19416.43
459.06	20179.61
459.42	21006.26
459.79	21779.36
460.15	22673.68
460.51	23529.69
460.88	24449.54
461.24	25243.31
461.60	26195.81
461.96	27068.55
462.33	27894.65
462.69	28650.76
463.05	29490.38
463.42	30187.71
463.78	30790.47
464.14	31314.52
464.50	31899.07
464.87	32357.70
465.23	32726.07
465.59	33099.65
465.95	33420.35
466.32	33674.53
466.68	33869.99
467.04	33991.60
467.40	34102.52
467.77	34216.24
468.13	34197.33
468.49	34135.33
468.85	34061.23
469.22	33909.56
469.58	33595.84
469.94	33345.80
470.30	33020.98
470.66	32591.07
471.03	32005.05
471.39	31613.83
471.75	30983.94
472.11	30369.57
472.47	30017.79
472.84	29683.38
473.20	29197.57
473.56	28930.78
473.92	28523.64
474.28	28011.32
474.65	27516.55
475.01	27027.34
475.37	26454.21
475.73	25994.72
476.09	25461.96
476.45	24946.46
476.81	24427.47
477.18	23897.60
477.54	23472.23
477.90	23140.78
478.26	22745.40
478.62	22437.22
478.98	22168.62
479.34	21843.40
479.71	21428.70
480.07	21079.87
480.43	20721.39
480.79	20332.09
481.15	19988.83
481.51	19676.91
481.87	19445.83
482.23	19169.20
482.59	18926.51
482.96	18640.40
483.32	18353.94
483.68	17980.51
484.04	17644.32
484.40	17267.23
484.76	16907.28
485.12	16551.29
485.48	16242.43
485.84	15910.45
486.20	15577.51
486.56	15224.37
486.92	14918.22
487.28	14574.00
487.64	14213.77
488.00	13881.30
488.37	13562.28
488.73	13201.21
489.09	12847.67
489.45	12531.02
489.81	12226.23
490.17	11942.28
490.53	11677.19
490.89	11388.91
491.25	11096.18
491.61	10791.88
491.97	10478.95
492.33	10153.17
492.69	9857.10
493.05	9558.86
493.41	9278.82
493.77	9003.39
494.13	8743.91
494.49	8496.80
494.85	8280.28
495.21	8058.75
495.57	7852.22
495.93	7656.22
496.29	7466.85
496.64	7274.36
497.00	7091.24
497.36	6892.15
497.72	6704.86
498.08	6515.91
498.44	6335.29
498.80	6165.46
499.16	6016.58
499.52	5868.68
499.88	5745.94
500.24	5638.28
500.60	5524.69
500.96	5410.57
501.32	5295.91
501.68	5175.86
502.03	5037.32
502.39	4906.25
502.75	4766.97
503.11	4642.48
503.47	4522.97
503.83	4407.60
504.19	4295.16
504.55	4197.38
504.91	4101.79
505.26	4005.99
505.62	3919.11
505.98	3830.92
506.34	3741.65
506.70	3654.82
507.06	3567.68
507.42	3489.18
507.78	3416.83
508.13	3343.08
508.49	3270.97
508.85	3205.90
509.21	3132.62
509.57	3059.88
509.93	2997.03
510.28	2926.35
510.64	2858.31
511.00	2792.42
511.36	2737.19
511.72	2680.03
512.07	2633.01
512.43	2584.14
512.79	2535.57
513.15	2486.82
513.51	2438.37
513.86	2391.63
514.22	2351.56
514.58	2316.45
514.94	2282.51
515.30	2251.76
515.65	2219.37
516.01	2188.07
516.37	2157.74
516.73	2126.92
517.08	2100.07
517.44	2071.30
517.80	2043.19
518.16	2013.98
518.51	1984.00
518.87	1952.85
519.23	1924.34
519.59	1898.29
519.94	1872.19
520.30	1850.61
520.66	1824.80
521.01	1804.13
521.37	1782.58
521.73	1762.68
522.09	1740.45
522.44	1721.79
522.80	1700.63
523.16	1683.36
523.51	1660.82
523.87	1642.68
524.23	1630.18
524.58	1612.84
524.94	1592.45
525.30	1574.03
525.65	1554.00
526.01	1533.57
526.37	1517.63
526.72	1505.25
527.08	1497.57
527.44	1489.38
527.79	1478.52
528.15	1469.67
528.51	1457.83
528.86	1443.88
529.22	1430.82
529.58	1419.44
529.93	1403.74
530.29	1389.13
530.65	1381.17
531.00	1372.02
531.36	1363.69
531.71	1360.02
532.07	1352.36
532.43	1342.13
532.78	1334.92
533.14	1328.18
533.49	1321.77
533.85	1320.65
534.21	1314.19
534.56	1311.38
534.92	1305.55
535.27	1298.93
535.63	1291.86
535.98	1287.29
536.34	1278.42
536.69	1272.78
537.05	1263.28
537.41	1255.00
537.76	1249.28
538.12	1243.69
538.47	1240.13
538.83	1239.31
539.18	1235.78
539.54	1231.94
539.89	1229.30
540.25	1223.42
540.60	1216.45
540.96	1212.30
541.31	1209.61
541.67	1205.89
542.02	1203.08
542.38	1201.77
542.73	1199.24
543.09	1194.02
543.44	1191.47
543.80	1187.21
544.15	1185.83
544.51	1183.42
544.86	1182.42
545.22	1178.74
545.57	1179.00
545.93	1174.20
546.28	1171.95
546.64	1166.78
546.99	1165.19
547.35	1161.94
547.70	1162.01
548.05	1158.82
548.41	1158.75
548.76	1157.93
549.12	1155.62
549.47	1154.82
549.83	1156.76
550.18	1155.92
550.53	1153.81
550.89	1149.39
551.24	1146.21
551.60	1140.43
551.95	1141.20
552.30	1140.05
552.66	1140.99
553.01	1137.38
553.37	1136.89
553.72	1133.69
554.07	1133.80
554.43	1129.92
554.78	1128.68
555.13	1129.17
555.49	1126.34
555.84	1121.82
556.19	1121.58
556.55	1122.59
556.90	1120.51
557.26	1122.08
557.61	1122.40
557.96	1122.50
558.32	1121.28
558.67	1121.28
559.02	1120.60
559.37	1119.03
559.73	1117.68
560.08	1117.00
560.43	1117.09
560.79	1114.84
561.14	1116.11
561.49	1117.37
561.85	1118.38
562.20	1115.05
562.55	1112.60
562.90	1111.54
563.26	1110.47
563.61	1106.37
563.96	1105.51
564.32	1105.32
564.67	1103.75
565.02	1100.68
565.37	1103.31
565.73	1103.56
566.08	1105.34
566.43	1104.52
566.78	1102.25
567.14	1101.48
567.49	1101.92
567.84	1102.09
568.19	1100.05
568.54	1103.52
568.90	1103.38
569.25	1102.63
569.60	1100.82
569.95	1104.97
570.31	1103.89
570.66	1101.83
571.01	1103.66
571.36	1101.53
571.71	1100.29
572.06	1103.05
572.42	1103.35
572.77	1100.59
573.12	1102.65
573.47	1100.17
573.82	1096.26
574.18	1095.53
574.53	1096.45
574.88	1098.46
575.23	1095.67
575.58	1095.72
575.93	1094.13
576.28	1093.40
576.64	1086.38
576.99	1088.86
577.34	1089.43
577.69	1091.49
578.04	1093.22
578.39	1096.61
578.74	1098.67
579.09	1097.10
579.44	1097.17
579.80	1094.34
580.15	1097.17
580.50	1095.67
580.85	1096.87
581.20	1095.82
581.55	1095.07
581.90	1088.63
582.25	1086.10
582.60	1084.58
582.95	1082.90
583.30	1083.06
583.65	1087.93
584.00	1091.37
584.35	1092.70
584.71	1095.07
585.06	1092.61
585.41	1088.89
585.76	1083.32
586.11	1083.04
586.46	1082.76
586.81	1083.86
587.16	1086.01
587.51	1091.44
587.86	1089.89
588.21	1089.14
588.56	1092.91
588.91	1094.27
589.26	1090.64
589.61	1093.01
589.96	1092.66
590.31	1089.78
590.66	1085.05
591.01	1083.62
591.36	1080.30
591.71	1079.34
592.06	1079.71
592.41	1083.57
592.76	1086.73
593.10	1091.74
593.45	1093.01
593.80	1092.35
594.15	1091.98
594.50	1091.49
594.85	1087.25
595.20	1087.25
595.55	1089.75
595.90	1087.55
596.25	1087.23
596.60	1090.22
596.95	1093.36
597.30	1088.70
597.64	1099.00
597.99	1098.93
598.34	1095.63
598.69	1091.34
599.04	1092.56
599.39	1084.77
599.74	1084.56
600.09	1082.78
600.44	1084.49
600.78	1081.77
601.13	1078.33
601.48	1077.02
601.83	1079.24
602.18	1080.56
602.53	1084.63
602.88	1086.90
603.22	1090.01
603.57	1092.21
603.92	1089.59
604.27	1091.13
604.62	1091.32
604.97	1088.44
605.31	1086.55
605.66	1086.87
606.01	1081.12
606.36	1081.33
606.71	1082.59
607.05	1084.67
607.40	1085.80
607.75	1089.87
608.10	1087.30
608.44	1089.54
608.79	1085.33
609.14	1084.11
609.49	1085.12
609.84	1084.56
610.18	1083.83
610.53	1085.17
610.88	1085.07
611.23	1084.89
611.57	1086.29
611.92	1084.56
612.27	1085.12
612.62	1088.51
612.96	1089.24
613.31	1087.88
613.66	1088.49
614.00	1086.99
614.35	1082.10
614.70	1081.00
615.05	1083.13
615.39	1082.43
615.74	1084.98
616.09	1087.06
616.43	1086.29
616.78	1085.61
617.13	1085.75
617.47	1084.74
617.82	1083.20
618.17	1083.13
618.51	1082.94
618.86	1085.63
619.21	1085.75
619.55	1088.65
619.90	1088.72
620.25	1087.65
620.59	1084.44
620.94	1083.97
621.29	1082.15
621.63	1082.50
621.98	1084.25
622.32	1085.42
622.67	1085.07
623.02	1082.59
623.36	1080.44
623.71	1080.70
624.05	1081.21
624.40	1082.83
624.75	1085.40
625.09	1085.19
625.44	1085.75
625.78	1085.07
626.13	1083.95
626.48	1081.30
626.82	1081.98
627.17	1080.67
627.51	1083.64
627.86	1081.94
628.20	1084.00
628.55	1084.86
628.89	1084.04
629.24	1080.88
629.58	1083.50
629.93	1084.25
630.28	1083.39
630.62	1086.06
630.97	1081.87
631.31	1081.23
631.66	1078.59
632.00	1080.65
632.35	1080.41
632.69	1085.28
633.04	1084.84
633.38	1088.63
633.73	1087.04
634.07	1087.90
634.42	1086.80
634.76	1087.02
635.11	1085.96
635.45	1087.48
635.79	1086.52
636.14	1086.97
636.48	1085.10
636.83	1083.39
637.17	1081.73
637.52	1080.91
637.86	1079.48
638.21	1079.06
638.55	1077.98
638.89	1077.40
639.24	1076.60
639.58	1077.07
639.93	1081.51
640.27	1083.69
640.61	1084.86
640.96	1083.79
641.30	1087.39
641.65	1086.29
641.99	1084.28
642.33	1084.93
642.68	1088.91
643.02	1084.79
643.37	1085.68
643.71	1085.21
644.05	1083.64
644.40	1081.56
644.74	1081.37
645.08	1078.87
645.43	1079.74
645.77	1078.00
646.11	1077.51
646.46	1076.20
646.80	1076.34
647.14	1078.80
647.49	1080.41
647.83	1083.08
648.17	1086.71
648.52	1087.93
648.86	1087.95
649.20	1088.91
649.55	1085.59
649.89	1088.37
650.23	1089.59
650.57	1086.57
650.92	1086.45
651.26	1087.86
651.60	1083.13
651.95	1081.87
652.29	1082.50
652.63	1085.84
652.97	1084.79
653.32	1088.21
653.66	1086.59
654.00	1086.62
654.34	1079.62
654.69	1080.77
655.03	1076.48
655.37	1079.15
655.71	1081.98
656.05	1084.16
656.40	1084.02
656.74	1084.14
657.08	1082.31
657.42	1079.95
657.76	1082.36
658.11	1081.54
658.45	1082.05
658.79	1079.67
659.13	1080.16
659.47	1081.23
659.82	1081.80
660.16	1082.57
660.50	1083.50
660.84	1083.83
661.18	1083.06
661.52	1084.56
661.87	1084.39
662.21	1085.77
662.55	1085.70
662.89	1085.56
663.23	1085.35
663.57	1084.81
663.91	1084.02
664.25	1084.98
664.60	1081.07
664.94	1078.17
665.28	1078.78
665.62	1080.56
665.96	1080.27
666.30	1082.50
666.64	1087.44
666.98	1085.87
667.32	1085.99
667.66	1083.57
668.01	1084.74
668.35	1079.50
668.69	1080.81
669.03	1080.30
669.37	1084.72
669.71	1083.25
670.05	1087.34
670.39	1085.84
670.73	1087.04
671.07	1084.65
671.41	1086.55
671.75	1086.87
672.09	1086.55
672.43	1084.32
672.77	1081.33
673.11	1081.56
673.45	1081.37
673.79	1083.32
674.13	1083.74
674.47	1087.18
674.81	1087.76
675.15	1084.81
675.49	1085.00
675.83	1085.75
676.17	1084.44
676.51	1082.97
676.85	1084.51
677.19	1082.33
677.53	1083.13
677.87	1083.48
678.21	1081.00
678.55	1081.91
678.89	1083.79
679.23	1082.22
679.57	1084.56
679.90	1085.61
680.24	1084.35
680.58	1085.49
680.92	1084.18
681.26	1084.11
681.60	1085.59
681.94	1086.85
682.28	1088.44
682.62	1089.40
682.96	1087.60
683.29	1085.89
683.63	1084.35
683.97	1080.11
684.31	1081.30
684.65	1080.93
684.99	1081.66
685.33	1082.15
685.67	1086.17
686.00	1086.55
686.34	1086.17
686.68	1085.54
687.02	1084.81
687.36	1082.52
687.70	1082.22
688.03	1082.10
688.37	1082.92
688.71	1080.48
689.05	1081.37
689.39	1077.18
689.72	1078.07
690.06	1079.60
690.40	1081.42
690.74	1078.68
691.08	1081.37
691.41	1080.95
691.75	1080.98
692.09	1081.75
692.43	1084.35
692.76	1082.92
693.10	1083.01
693.44	1081.26
693.78	1080.91
694.11	1081.70
694.45	1081.98
694.79	1081.58
695.13	1079.85
695.46	1079.74
695.80	1079.13
696.14	1081.00
696.48	1080.93
696.81	1081.58
697.15	1083.53
697.49	1080.81
697.82	1082.71
698.16	1084.81
698.50	1084.77
698.83	1084.07
699.17	1087.30
699.51	1086.52
699.84	1083.53
700.18	1084.37
700.52	1081.66
700.85	1079.69
701.19	1078.47
701.53	1077.93
701.86	1079.34
702.20	1081.94
702.54	1084.07
702.87	1082.78
703.21	1081.40
703.55	1079.15
703.88	1079.36
704.22	1079.29
704.55	1081.35
704.89	1082.85
705.23	1084.65
705.56	1083.11
705.90	1083.57
706.23	1081.63
706.57	1084.77
706.91	1081.75
707.24	1080.79
707.58	1077.18
707.91	1076.81
708.25	1074.84
708.58	1076.41
708.92	1075.59
709.26	1078.96
709.59	1080.39
709.93	1079.36
710.26	1080.09
710.60	1080.37
710.93	1079.88
711.27	1077.16
711.60	1075.73
711.94	1073.91
712.27	1074.82
712.61	1073.16
712.94	1074.68
713.28	1078.87
713.61	1081.33
713.95	1083.36
714.28	1083.29
714.62	1082.40
714.95	1081.35
715.29	1079.53
715.62	1078.61
715.96	1080.20
716.29	1081.80
716.63	1084.16
716.96	1088.02
717.29	1085.91
717.63	1083.74
717.96	1082.43
718.30	1080.37
718.63	1077.75
718.97	1077.30
719.30	1075.52
719.63	1079.10
719.97	1081.26
720.30	1082.45
720.64	1088.98
720.97	1092.14
721.30	1092.91
721.64	1087.04
721.97	1087.48
722.31	1082.61
722.64	1083.95
722.97	1080.39
723.31	1081.75
723.64	1083.22
723.97	1083.62
724.31	1079.43
724.64	1081.47
724.98	1081.05
725.31	1077.93
725.64	1080.30
725.98	1080.02
726.31	1079.81
726.64	1081.26
726.97	1081.33
727.31	1080.48
727.64	1082.15
727.97	1083.22
728.31	1084.93
728.64	1087.60
728.97	1087.34
729.31	1088.26
729.64	1083.97
729.97	1081.30
730.30	1076.97
730.64	1073.18
730.97	1075.05
731.30	1078.31
731.63	1082.24
731.97	1084.46
732.30	1088.09
732.63	1088.47
732.96	1087.48
733.30	1085.12
733.63	1084.04
733.96	1081.84
734.29	1075.55
734.63	1077.72
734.96	1075.90
735.29	1074.82
735.62	1077.07
735.95	1079.76
736.29	1079.57
736.62	1079.01
736.95	1080.02
737.28	1082.33
737.61	1081.80
737.94	1077.09
738.28	1080.09
738.61	1080.13
738.94	1076.93
739.27	1077.18
739.60	1078.47
739.93	1078.36
740.27	1079.71
740.60	1076.95
740.93	1079.95
741.26	1082.26
741.59	1082.47
741.92	1080.51
742.25	1083.88
742.58	1081.82
742.91	1082.52
743.25	1082.47
743.58	1082.38
743.91	1084.25
744.24	1084.93
744.57	1084.02
744.90	1081.42
745.23	1083.62
745.56	1078.87
745.89	1075.41
746.22	1076.86
746.55	1079.38
746.88	1080.58
747.21	1081.63
747.54	1089.05
747.87	1088.35
748.20	1086.34
748.53	1086.15
748.87	1087.16
749.20	1083.01
749.53	1083.48
749.86	1086.59
750.19	1086.29
750.52	1088.07
750.85	1087.65
751.18	1085.47
751.51	1084.53
751.84	1085.70
752.16	1083.88
752.49	1085.61
752.82	1090.48
753.15	1090.08
753.48	1088.65
753.81	1088.98
754.14	1087.90
754.47	1084.44
754.80	1082.36
755.13	1080.04
755.46	1079.74
755.79	1080.11
756.12	1080.86
756.45	1082.59
756.78	1084.00
757.11	1086.90
757.43	1084.77
757.76	1082.52
758.09	1079.24
758.42	1077.89
758.75	1073.77
759.08	1076.93
759.41	1079.38
759.74	1081.54
760.07	1082.45
760.39	1085.66
760.72	1084.86
761.05	1081.84
761.38	1080.51
761.71	1079.55
762.04	1075.73
762.36	1072.78
762.69	1074.87
763.02	1074.91
763.35	1073.63
763.68	1075.59
764.01	1073.88
