SpectraSuite Data File
++++++++++++++++++++++++++++++++++++
Date: Mon Aug 26 10:21:54 PDT 2019
User: corrico
Dark Spectrum Present: No
Reference Spectrum Present: No
Number of Sampled Component Spectra: 1
Spectrometers: USB2+H06089
Integration Time (usec): 2000 (USB2+H06089)
Spectra Averaged: 20 (USB2+H06089)
Boxcar Smoothing: 2 (USB2+H06089)
Correct for Electrical Dark: No (USB2+H06089)
Strobe/Lamp Enabled: No (USB2+H06089)
Correct for Detector Non-linearity: No (USB2+H06089)
Correct for Stray Light: No (USB2+H06089)
Number of Pixels in Processed Spectrum: 2048
>>>>>Begin Processed Spectral Data<<<<<
339.70	1028.43
340.07	1028.43
340.45	986.93
340.82	961.73
341.19	936.66
341.57	910.94
341.94	901.95
342.31	895.47
342.69	892.91
343.06	889.61
343.43	890.88
343.81	892.24
344.18	897.71
344.55	901.41
344.93	907.87
345.30	911.38
345.67	917.70
346.04	923.32
346.42	933.34
346.79	943.45
347.16	953.28
347.54	963.27
347.91	973.64
348.28	981.69
348.65	989.46
349.03	995.66
349.40	1004.89
349.77	1012.52
350.14	1019.00
350.52	1024.05
350.89	1031.05
351.26	1037.70
351.63	1044.18
352.01	1050.22
352.38	1055.16
352.75	1061.15
353.12	1062.81
353.50	1068.15
353.87	1072.39
354.24	1072.64
354.61	1074.68
354.98	1078.75
355.36	1077.82
355.73	1078.89
356.10	1085.42
356.47	1085.77
356.84	1084.53
357.22	1084.89
357.59	1083.88
357.96	1084.14
358.33	1084.35
358.70	1082.78
359.08	1080.91
359.45	1081.07
359.82	1078.82
360.19	1077.91
360.56	1080.32
360.94	1081.87
361.31	1080.18
361.68	1079.06
362.05	1076.81
362.42	1075.80
362.79	1072.55
363.16	1074.47
363.54	1074.40
363.91	1073.81
364.28	1069.27
364.65	1071.36
365.02	1069.91
365.39	1067.17
365.76	1070.70
366.14	1070.28
366.51	1067.42
366.88	1066.68
367.25	1068.90
367.62	1062.74
367.99	1067.52
368.36	1066.47
368.73	1063.31
369.10	1061.71
369.48	1064.45
369.85	1062.49
370.22	1062.84
370.59	1064.69
370.96	1062.28
371.33	1062.58
371.70	1060.96
372.07	1060.12
372.44	1061.67
372.81	1064.19
373.18	1061.95
373.55	1066.04
373.93	1069.88
374.30	1069.60
374.67	1071.12
375.04	1074.89
375.41	1074.56
375.78	1077.72
376.15	1079.69
376.52	1080.53
376.89	1082.38
377.26	1081.42
377.63	1076.95
378.00	1076.11
378.37	1073.49
378.74	1070.72
379.11	1069.79
379.48	1071.66
379.85	1069.62
380.22	1070.68
380.59	1073.44
380.96	1072.78
381.33	1072.13
381.70	1072.46
382.07	1070.89
382.44	1069.91
382.81	1070.89
383.18	1071.40
383.55	1070.87
383.92	1069.70
384.29	1069.13
384.66	1068.81
385.03	1069.79
385.40	1070.77
385.77	1072.92
386.14	1072.78
386.51	1073.23
386.88	1071.43
387.25	1070.19
387.62	1072.57
387.99	1068.41
388.36	1067.03
388.73	1068.81
389.10	1068.99
389.46	1068.78
389.83	1073.51
390.20	1075.85
390.57	1073.65
390.94	1071.73
391.31	1068.97
391.68	1069.65
392.05	1066.96
392.42	1069.91
392.79	1075.41
393.16	1077.93
393.53	1081.14
393.89	1083.25
394.26	1080.09
394.63	1075.62
395.00	1073.84
395.37	1070.37
395.74	1069.41
396.11	1072.18
396.48	1073.74
396.84	1074.84
397.21	1071.01
397.58	1074.05
397.95	1074.84
398.32	1078.10
398.69	1080.20
399.06	1086.15
399.42	1084.77
399.79	1082.90
400.16	1080.13
400.53	1079.17
400.90	1077.23
401.27	1076.18
401.64	1077.00
402.00	1076.76
402.37	1074.26
402.74	1074.73
403.11	1075.48
403.48	1078.36
403.84	1082.92
404.21	1088.02
404.58	1086.90
404.95	1089.52
405.32	1086.43
405.68	1086.10
406.05	1083.60
406.42	1083.11
406.79	1079.55
407.16	1081.82
407.52	1079.29
407.89	1081.07
408.26	1081.02
408.63	1080.91
408.99	1076.18
409.36	1074.94
409.73	1077.23
410.10	1080.11
410.47	1083.86
410.83	1088.21
411.20	1089.50
411.57	1087.09
411.94	1087.86
412.30	1088.02
412.67	1089.36
413.04	1086.66
413.40	1084.86
413.77	1082.85
414.14	1082.54
414.51	1079.55
414.87	1084.21
415.24	1085.49
415.61	1086.92
415.97	1085.56
416.34	1086.43
416.71	1087.44
417.08	1086.17
417.44	1087.32
417.81	1089.22
418.18	1091.27
418.54	1088.47
418.91	1090.78
419.28	1090.15
419.64	1086.20
420.01	1087.11
420.38	1090.71
420.74	1088.96
421.11	1089.85
421.48	1094.97
421.84	1096.52
422.21	1095.18
422.58	1096.99
422.94	1099.33
423.31	1100.26
423.68	1101.85
424.04	1105.25
424.41	1109.69
424.77	1111.05
425.14	1110.82
425.51	1109.18
425.87	1110.02
426.24	1108.74
426.61	1107.94
426.97	1113.79
427.34	1116.69
427.70	1118.99
428.07	1120.60
428.44	1127.08
428.80	1128.40
429.17	1132.40
429.53	1137.24
429.90	1146.07
430.27	1148.66
430.63	1152.04
431.00	1155.50
431.36	1157.47
431.73	1160.65
432.09	1166.92
432.46	1173.40
432.83	1182.32
433.19	1193.60
433.56	1200.34
433.92	1208.23
434.29	1218.32
434.65	1229.06
435.02	1235.85
435.38	1250.99
435.75	1261.29
436.11	1277.30
436.48	1289.45
436.84	1309.97
437.21	1323.64
437.57	1338.20
437.94	1351.54
438.30	1369.17
438.67	1384.75
439.03	1407.48
439.40	1436.11
439.76	1464.87
440.13	1492.61
440.49	1520.13
440.86	1550.82
441.22	1582.83
441.59	1613.73
441.95	1651.06
442.32	1691.04
442.68	1726.45
443.05	1766.73
443.41	1811.34
443.78	1854.92
444.14	1902.90
444.51	1950.88
444.87	2008.11
445.24	2066.48
445.60	2130.71
445.96	2190.44
446.33	2264.40
446.69	2332.41
447.06	2402.09
447.42	2478.67
447.79	2556.82
448.15	2646.61
448.51	2741.68
448.88	2849.98
449.24	2947.67
449.61	3064.39
449.97	3177.68
450.33	3307.29
450.70	3429.68
451.06	3572.45
451.43	3713.40
451.79	3884.00
452.15	4050.30
452.52	4231.50
452.88	4412.94
453.24	4614.95
453.61	4824.94
453.97	5040.60
454.34	5260.85
454.70	5529.70
455.06	5790.11
455.43	6042.91
455.79	6280.94
456.15	6552.05
456.52	6795.49
456.88	7104.67
457.24	7406.88
457.61	7770.32
457.97	8114.78
458.33	8478.40
458.70	8847.76
459.06	9196.55
459.42	9557.25
459.79	9902.97
460.15	10283.26
460.51	10634.95
460.88	11014.26
461.24	11362.90
461.60	11751.39
461.96	12104.48
462.33	12433.07
462.69	12785.29
463.05	13145.01
463.42	13488.46
463.78	13840.01
464.14	14153.36
464.50	14445.53
464.87	14649.76
465.23	14812.41
465.59	15007.42
465.95	15212.15
466.32	15369.53
466.68	15566.55
467.04	15696.24
467.40	15708.74
467.77	15670.07
468.13	15603.09
468.49	15516.14
468.85	15434.10
469.22	15389.02
469.58	15347.06
469.94	15321.52
470.30	15215.52
470.66	15069.68
471.03	14876.02
471.39	14710.62
471.75	14442.35
472.11	14204.50
472.47	14014.92
472.84	13819.60
473.20	13572.28
473.56	13426.30
473.92	13249.77
474.28	13102.20
474.65	12909.81
475.01	12714.00
475.37	12491.74
475.73	12295.79
476.09	12087.53
476.45	11908.01
476.81	11740.31
477.18	11567.33
477.54	11388.41
477.90	11199.28
478.26	11014.23
478.62	10862.12
478.98	10690.65
479.34	10559.44
479.71	10405.76
480.07	10250.94
480.43	10100.37
480.79	9970.59
481.15	9813.61
481.51	9684.36
481.87	9573.56
482.23	9410.15
482.59	9254.53
482.96	9128.25
483.32	9004.58
483.68	8871.45
484.04	8757.44
484.40	8607.93
484.76	8456.38
485.12	8304.97
485.48	8139.47
485.84	7955.13
486.20	7798.36
486.56	7643.09
486.92	7497.39
487.28	7360.31
487.64	7234.53
488.00	7097.70
488.37	6957.27
488.73	6791.32
489.09	6623.48
489.45	6482.18
489.81	6342.62
490.17	6202.49
490.53	6083.01
490.89	5962.87
491.25	5820.35
491.61	5695.11
491.97	5561.16
492.33	5403.78
492.69	5254.57
493.05	5125.52
493.41	4998.33
493.77	4870.02
494.13	4758.10
494.49	4651.09
494.85	4537.99
495.21	4434.66
495.57	4338.58
495.93	4248.05
496.29	4156.35
496.64	4071.48
497.00	3977.51
497.36	3886.51
497.72	3798.95
498.08	3720.96
498.44	3645.67
498.80	3564.31
499.16	3484.24
499.52	3402.98
499.88	3326.95
500.24	3258.03
500.60	3193.38
500.96	3134.52
501.32	3078.90
501.68	3005.93
502.03	2934.28
502.39	2877.52
502.75	2819.53
503.11	2764.06
503.47	2725.81
503.83	2686.89
504.19	2643.19
504.55	2605.20
504.91	2560.22
505.26	2513.31
505.62	2466.53
505.98	2423.79
506.34	2374.71
506.70	2334.85
507.06	2292.70
507.42	2254.61
507.78	2217.00
508.13	2180.44
508.49	2142.62
508.85	2111.72
509.21	2078.23
509.57	2041.13
509.93	2007.52
510.28	1981.15
510.64	1950.95
511.00	1918.61
511.36	1887.38
511.72	1860.63
512.07	1829.78
512.43	1807.10
512.79	1780.82
513.15	1761.93
513.51	1741.19
513.86	1723.45
514.22	1700.77
514.58	1680.67
514.94	1662.46
515.30	1640.29
515.65	1621.90
516.01	1606.26
516.37	1590.00
516.73	1575.81
517.08	1568.04
517.44	1553.72
517.80	1537.47
518.16	1524.16
518.51	1507.52
518.87	1489.66
519.23	1474.02
519.59	1463.91
519.94	1455.95
520.30	1448.25
520.66	1441.51
521.01	1435.08
521.37	1424.92
521.73	1411.67
522.09	1395.22
522.44	1381.83
522.80	1369.80
523.16	1357.91
523.51	1348.01
523.87	1342.27
524.23	1334.62
524.58	1325.61
524.94	1318.10
525.30	1310.98
525.65	1304.38
526.01	1298.55
526.37	1295.04
526.72	1290.69
527.08	1288.56
527.44	1282.38
527.79	1275.03
528.15	1266.89
528.51	1262.98
528.86	1255.70
529.22	1252.14
529.58	1245.35
529.93	1240.44
530.29	1229.11
530.65	1223.21
531.00	1217.80
531.36	1215.93
531.71	1214.15
532.07	1215.84
532.43	1212.33
532.78	1206.85
533.14	1201.91
533.49	1197.58
533.85	1190.28
534.21	1187.07
534.56	1182.63
534.92	1181.08
535.27	1178.09
535.63	1176.49
535.98	1172.56
536.34	1170.64
536.69	1166.52
537.05	1161.28
537.41	1158.57
537.76	1157.09
538.12	1154.02
538.47	1151.82
538.83	1150.63
539.18	1149.67
539.54	1145.25
539.89	1143.56
540.25	1141.99
540.60	1141.03
540.96	1137.99
541.31	1138.34
541.67	1138.46
542.02	1136.77
542.38	1132.23
542.73	1130.53
543.09	1130.01
543.44	1126.34
543.80	1124.77
544.15	1123.69
544.51	1125.26
544.86	1122.85
545.22	1125.70
545.57	1124.96
545.93	1128.72
546.28	1125.98
546.64	1124.44
546.99	1122.08
547.35	1119.76
547.70	1117.84
548.05	1115.55
548.41	1116.04
548.76	1114.96
549.12	1112.57
549.47	1109.51
549.83	1108.48
550.18	1105.34
550.53	1103.89
550.89	1107.03
551.24	1106.54
551.60	1106.44
551.95	1107.92
552.30	1108.22
552.66	1107.49
553.01	1106.16
553.37	1105.32
553.72	1103.91
554.07	1102.06
554.43	1099.61
554.78	1098.39
555.13	1096.92
555.49	1097.55
555.84	1097.43
556.19	1097.41
556.55	1097.92
556.90	1098.79
557.26	1097.78
557.61	1098.30
557.96	1098.76
558.32	1099.77
558.67	1101.88
559.02	1098.81
559.37	1097.20
559.73	1095.28
560.08	1092.80
560.43	1089.99
560.79	1087.09
561.14	1087.60
561.49	1088.30
561.85	1091.42
562.20	1091.37
562.55	1096.12
562.90	1094.48
563.26	1095.14
563.61	1092.30
563.96	1090.17
564.32	1089.66
564.67	1091.70
565.02	1090.50
565.37	1089.85
565.73	1091.95
566.08	1091.84
566.43	1089.43
566.78	1092.80
567.14	1095.96
567.49	1096.94
567.84	1096.61
568.19	1095.79
568.54	1093.26
568.90	1088.72
569.25	1086.08
569.60	1085.84
569.95	1085.35
570.31	1082.80
570.66	1083.55
571.01	1084.37
571.36	1083.69
571.71	1081.56
572.06	1082.36
572.42	1083.15
572.77	1082.69
573.12	1083.60
573.47	1087.02
573.82	1084.56
574.18	1083.67
574.53	1084.11
574.88	1080.13
575.23	1078.78
575.58	1081.26
575.93	1081.07
576.28	1079.64
576.64	1081.70
576.99	1082.36
577.34	1080.67
577.69	1080.18
578.04	1080.86
578.39	1081.28
578.74	1081.05
579.09	1081.94
579.44	1082.78
579.80	1083.67
580.15	1083.43
580.50	1082.80
580.85	1084.65
581.20	1085.80
581.55	1084.14
581.90	1084.11
582.25	1085.19
582.60	1082.57
582.95	1081.49
583.30	1082.31
583.65	1082.92
584.00	1082.05
584.35	1086.06
584.71	1084.00
585.06	1083.25
585.41	1082.57
585.76	1083.43
586.11	1081.33
586.46	1081.49
586.81	1083.11
587.16	1083.18
587.51	1082.52
587.86	1084.53
588.21	1087.97
588.56	1084.21
588.91	1083.01
589.26	1082.71
589.61	1078.78
589.96	1075.01
590.31	1078.75
590.66	1082.10
591.01	1081.98
591.36	1082.01
591.71	1084.02
592.06	1081.09
592.41	1080.53
592.76	1080.39
593.10	1077.35
593.45	1076.58
593.80	1077.09
594.15	1075.05
594.50	1074.38
594.85	1079.29
595.20	1077.70
595.55	1079.88
595.90	1080.09
596.25	1078.82
596.60	1080.06
596.95	1081.37
597.30	1082.87
597.64	1095.25
597.99	1098.62
598.34	1099.14
598.69	1096.54
599.04	1093.38
599.39	1082.01
599.74	1078.75
600.09	1077.84
600.44	1080.86
600.78	1079.10
601.13	1079.64
601.48	1082.26
601.83	1078.78
602.18	1078.71
602.53	1081.30
602.88	1081.07
603.22	1080.11
603.57	1081.61
603.92	1079.97
604.27	1079.97
604.62	1077.84
604.97	1079.24
605.31	1077.98
605.66	1078.03
606.01	1077.00
606.36	1078.45
606.71	1075.85
607.05	1075.10
607.40	1074.94
607.75	1079.78
608.10	1079.34
608.44	1077.65
608.79	1078.24
609.14	1079.81
609.49	1076.72
609.84	1078.03
610.18	1081.33
610.53	1082.76
610.88	1083.53
611.23	1080.48
611.57	1077.82
611.92	1076.74
612.27	1075.59
612.62	1074.94
612.96	1076.20
613.31	1079.62
613.66	1081.63
614.00	1085.12
614.35	1085.73
614.70	1086.29
615.05	1083.81
615.39	1083.29
615.74	1080.48
616.09	1079.08
616.43	1075.29
616.78	1075.80
617.13	1078.17
617.47	1078.73
617.82	1079.27
618.17	1082.10
618.51	1083.18
618.86	1081.70
619.21	1080.77
619.55	1078.45
619.90	1078.68
620.25	1072.74
620.59	1073.28
620.94	1073.18
621.29	1075.41
621.63	1074.87
621.98	1081.47
622.32	1079.27
622.67	1080.53
623.02	1081.84
623.36	1083.18
623.71	1080.34
624.05	1078.96
624.40	1079.90
624.75	1078.54
625.09	1078.24
625.44	1080.86
625.78	1079.78
626.13	1077.40
626.48	1074.42
626.82	1075.29
627.17	1071.75
627.51	1076.37
627.86	1078.10
628.20	1081.94
628.55	1079.90
628.89	1081.40
629.24	1082.92
629.58	1081.05
629.93	1079.85
630.28	1079.78
630.62	1083.57
630.97	1079.95
631.31	1078.54
631.66	1078.03
632.00	1083.53
632.35	1083.46
632.69	1083.46
633.04	1087.62
633.38	1085.12
633.73	1081.61
634.07	1076.69
634.42	1074.21
634.76	1068.43
635.11	1071.66
635.45	1069.98
635.79	1067.42
636.14	1070.98
636.48	1075.78
636.83	1071.36
637.17	1071.17
637.52	1075.15
637.86	1073.91
638.21	1073.86
638.55	1079.15
638.89	1081.80
639.24	1081.00
639.58	1082.01
639.93	1081.02
640.27	1080.44
640.61	1079.60
640.96	1082.66
641.30	1084.70
641.65	1084.58
641.99	1083.79
642.33	1084.39
642.68	1082.90
643.02	1077.35
643.37	1080.30
643.71	1078.96
644.05	1077.84
644.40	1078.17
644.74	1081.12
645.08	1081.09
645.43	1081.84
645.77	1081.19
646.11	1082.73
646.46	1080.84
646.80	1078.78
647.14	1079.13
647.49	1082.69
647.83	1078.85
648.17	1081.05
648.52	1082.73
648.86	1082.12
649.20	1078.19
649.55	1077.84
649.89	1076.58
650.23	1072.85
650.57	1072.25
650.92	1072.64
651.26	1074.52
651.60	1071.54
651.95	1072.13
652.29	1073.39
652.63	1072.13
652.97	1073.11
653.32	1075.99
653.66	1074.82
654.00	1073.86
654.34	1077.44
654.69	1073.81
655.03	1074.10
655.37	1076.15
655.71	1079.34
656.05	1078.75
656.40	1079.85
656.74	1082.52
657.08	1080.91
657.42	1079.48
657.76	1076.51
658.11	1077.56
658.45	1075.64
658.79	1075.15
659.13	1075.43
659.47	1077.33
659.82	1078.21
660.16	1078.66
660.50	1081.54
660.84	1080.48
661.18	1080.88
661.52	1077.00
661.87	1075.22
662.21	1076.18
662.55	1079.10
662.89	1079.64
663.23	1081.26
663.57	1081.56
663.91	1081.58
664.25	1079.34
664.60	1078.82
664.94	1081.40
665.28	1084.21
665.62	1081.21
665.96	1079.29
666.30	1078.73
666.64	1078.38
666.98	1075.80
667.32	1075.97
667.66	1076.58
668.01	1076.55
668.35	1078.31
668.69	1079.20
669.03	1080.48
669.37	1081.94
669.71	1080.41
670.05	1080.81
670.39	1079.88
670.73	1080.18
671.07	1077.28
671.41	1079.17
671.75	1074.38
672.09	1070.77
672.43	1068.38
672.77	1071.59
673.11	1068.52
673.45	1069.79
673.79	1070.37
674.13	1072.11
674.47	1069.74
674.81	1072.95
675.15	1072.78
675.49	1075.92
675.83	1074.75
676.17	1076.30
676.51	1075.03
676.85	1073.53
677.19	1071.92
677.53	1073.09
677.87	1074.45
678.21	1075.55
678.55	1080.65
678.89	1081.30
679.23	1081.21
679.57	1075.66
679.90	1076.04
680.24	1071.36
680.58	1073.98
680.92	1069.58
681.26	1072.01
681.60	1068.97
681.94	1070.77
682.28	1069.86
682.62	1073.23
682.96	1074.28
683.29	1076.18
683.63	1073.32
683.97	1073.95
684.31	1076.23
684.65	1075.22
684.99	1073.32
685.33	1077.37
685.67	1077.21
686.00	1074.59
686.34	1076.32
686.68	1082.26
687.02	1082.12
687.36	1083.15
687.70	1081.84
688.03	1081.77
688.37	1074.21
688.71	1073.65
689.05	1074.10
689.39	1078.07
689.72	1076.39
690.06	1076.32
690.40	1076.53
690.74	1074.77
691.08	1072.60
691.41	1074.54
691.75	1079.20
692.09	1077.14
692.43	1077.77
692.76	1077.75
693.10	1079.38
693.44	1078.12
693.78	1077.70
694.11	1077.30
694.45	1075.87
694.79	1072.62
695.13	1075.29
695.46	1077.58
695.80	1075.17
696.14	1076.44
696.48	1077.65
696.81	1077.35
697.15	1076.23
697.49	1077.35
697.82	1077.40
698.16	1075.83
698.50	1075.13
698.83	1075.52
699.17	1074.63
699.51	1073.39
699.84	1075.73
700.18	1076.93
700.52	1077.30
700.85	1079.38
701.19	1082.76
701.53	1081.94
701.86	1084.00
702.20	1086.48
702.54	1085.24
702.87	1083.81
703.21	1084.60
703.55	1081.02
703.88	1077.16
704.22	1076.39
704.55	1077.98
704.89	1076.20
705.23	1073.63
705.56	1076.90
705.90	1078.31
706.23	1079.36
706.57	1080.27
706.91	1080.81
707.24	1078.82
707.58	1080.63
707.91	1078.54
708.25	1079.99
708.58	1080.74
708.92	1079.64
709.26	1078.33
709.59	1080.48
709.93	1081.02
710.26	1078.96
710.60	1080.56
710.93	1078.87
711.27	1074.84
711.60	1074.26
711.94	1079.36
712.27	1080.88
712.61	1080.02
712.94	1081.35
713.28	1079.01
713.61	1078.12
713.95	1075.52
714.28	1077.33
714.62	1079.20
714.95	1080.63
715.29	1077.75
715.62	1076.93
715.96	1076.48
716.29	1074.96
716.63	1077.42
716.96	1082.12
717.29	1080.91
717.63	1083.18
717.96	1084.42
718.30	1084.04
718.63	1079.03
718.97	1083.79
719.30	1084.21
719.63	1081.02
719.97	1077.42
720.30	1079.36
720.64	1076.18
720.97	1074.56
721.30	1074.91
721.64	1077.00
721.97	1076.37
722.31	1075.22
722.64	1075.34
722.97	1076.86
723.31	1077.35
723.64	1075.97
723.97	1078.43
724.31	1076.97
724.64	1075.78
724.98	1073.67
725.31	1074.24
725.64	1074.31
725.98	1072.92
726.31	1070.68
726.64	1070.63
726.97	1071.92
727.31	1074.68
727.64	1078.40
727.97	1080.84
728.31	1082.26
728.64	1083.22
728.97	1081.35
729.31	1079.31
729.64	1081.37
729.97	1079.55
730.30	1076.41
730.64	1075.27
730.97	1074.77
731.30	1072.92
731.63	1071.75
731.97	1074.19
732.30	1073.44
732.63	1070.91
732.96	1071.52
733.30	1074.42
733.63	1074.40
733.96	1073.30
734.29	1076.48
734.63	1077.09
734.96	1077.61
735.29	1078.26
735.62	1081.12
735.95	1082.99
736.29	1081.30
736.62	1080.34
736.95	1078.33
737.28	1077.54
737.61	1074.54
737.94	1076.06
738.28	1076.95
738.61	1076.48
738.94	1077.86
739.27	1077.09
739.60	1074.98
739.93	1074.66
740.27	1076.69
740.60	1073.53
740.93	1074.77
741.26	1076.18
741.59	1072.62
741.92	1071.78
742.25	1071.73
742.58	1073.49
742.91	1075.97
743.25	1079.76
743.58	1081.73
743.91	1082.85
744.24	1080.60
744.57	1076.30
744.90	1075.52
745.23	1071.29
745.56	1072.85
745.89	1076.72
746.22	1077.75
746.55	1077.16
746.88	1080.41
747.21	1078.89
747.54	1075.94
747.87	1075.05
748.20	1073.49
748.53	1070.80
748.87	1072.71
749.20	1074.89
749.53	1074.38
749.86	1074.26
750.19	1076.74
750.52	1076.67
750.85	1076.08
751.18	1076.08
751.51	1080.56
751.84	1080.02
752.16	1077.11
752.49	1076.32
752.82	1079.13
753.15	1078.31
753.48	1077.54
753.81	1077.56
754.14	1078.71
754.47	1076.93
754.80	1074.84
755.13	1074.38
755.46	1075.92
755.79	1071.24
756.12	1071.54
756.45	1073.77
756.78	1075.83
757.11	1074.47
757.43	1075.71
757.76	1078.59
758.09	1076.58
758.42	1078.17
758.75	1080.51
759.08	1083.69
759.41	1082.05
759.74	1080.23
760.07	1074.94
760.39	1074.98
760.72	1072.46
761.05	1070.68
761.38	1072.50
761.71	1074.52
762.04	1072.50
762.36	1071.08
762.69	1071.99
763.02	1071.01
763.35	1070.80
763.68	1072.83
764.01	1076.20
764.33	1076.88
764.66	1076.53
764.99	1076.86
