SpectraSuite Data File
++++++++++++++++++++++++++++++++++++
Date: Mon Aug 26 10:22:18 PDT 2019
User: corrico
Dark Spectrum Present: No
Reference Spectrum Present: No
Number of Sampled Component Spectra: 1
Spectrometers: USB2+H06089
Integration Time (usec): 2000 (USB2+H06089)
Spectra Averaged: 20 (USB2+H06089)
Boxcar Smoothing: 2 (USB2+H06089)
Correct for Electrical Dark: No (USB2+H06089)
Strobe/Lamp Enabled: No (USB2+H06089)
Correct for Detector Non-linearity: No (USB2+H06089)
Correct for Stray Light: No (USB2+H06089)
Number of Pixels in Processed Spectrum: 2048
>>>>>Begin Processed Spectral Data<<<<<
339.70	1029.72
340.07	1029.72
340.45	998.29
340.82	976.07
341.19	952.32
341.57	924.42
341.94	908.62
342.31	901.32
342.69	895.84
343.06	891.88
343.43	891.63
343.81	893.36
344.18	895.82
344.55	901.34
344.93	906.19
345.30	913.35
345.67	923.48
346.04	927.81
346.42	934.93
346.79	946.44
347.16	955.29
347.54	960.95
347.91	974.11
348.28	984.03
348.65	990.21
349.03	1000.16
349.40	1009.94
349.77	1018.74
350.14	1025.88
350.52	1032.60
350.89	1040.32
351.26	1045.40
351.63	1050.50
352.01	1053.97
352.38	1059.12
352.75	1062.44
353.12	1065.74
353.50	1069.18
353.87	1072.74
354.24	1074.75
354.61	1075.38
354.98	1077.16
355.36	1075.76
355.73	1077.18
356.10	1076.34
356.47	1077.79
356.84	1080.37
357.22	1080.09
357.59	1078.96
357.96	1083.27
358.33	1080.46
358.70	1078.00
359.08	1077.89
359.45	1078.71
359.82	1079.69
360.19	1082.22
360.56	1083.76
360.94	1085.03
361.31	1082.31
361.68	1078.59
362.05	1076.13
362.42	1072.71
362.79	1071.73
363.16	1076.37
363.54	1076.06
363.91	1076.18
364.28	1077.42
364.65	1077.28
365.02	1075.17
365.39	1074.61
365.76	1075.29
366.14	1071.90
366.51	1072.41
366.88	1068.36
367.25	1067.54
367.62	1068.29
367.99	1071.82
368.36	1069.60
368.73	1070.58
369.10	1072.76
369.48	1072.74
369.85	1069.37
370.22	1073.56
370.59	1075.71
370.96	1072.53
371.33	1074.05
371.70	1077.79
372.07	1076.08
372.44	1074.19
372.81	1079.83
373.18	1079.76
373.55	1079.27
373.93	1076.86
374.30	1078.17
374.67	1073.46
375.04	1072.29
375.41	1072.53
375.78	1073.65
376.15	1073.63
376.52	1075.57
376.89	1072.22
377.26	1070.87
377.63	1072.60
378.00	1074.98
378.37	1073.53
378.74	1076.67
379.11	1075.99
379.48	1076.81
379.85	1075.29
380.22	1078.03
380.59	1074.24
380.96	1076.27
381.33	1075.80
381.70	1073.84
382.07	1072.67
382.44	1073.49
382.81	1074.26
383.18	1074.12
383.55	1076.65
383.92	1076.32
384.29	1080.53
384.66	1078.66
385.03	1077.84
385.40	1079.97
385.77	1079.57
386.14	1080.13
386.51	1082.10
386.88	1085.05
387.25	1081.00
387.62	1081.82
387.99	1080.51
388.36	1081.61
388.73	1079.43
389.10	1080.09
389.46	1078.43
389.83	1078.80
390.20	1075.87
390.57	1075.34
390.94	1077.68
391.31	1082.05
391.68	1083.41
392.05	1083.74
392.42	1085.42
392.79	1085.73
393.16	1081.58
393.53	1079.53
393.89	1084.51
394.26	1085.21
394.63	1082.22
395.00	1085.59
395.37	1086.59
395.74	1083.20
396.11	1082.80
396.48	1084.67
396.84	1085.56
397.21	1088.49
397.58	1089.38
397.95	1090.43
398.32	1091.77
398.69	1090.29
399.06	1089.73
399.42	1088.61
399.79	1089.17
400.16	1089.71
400.53	1091.25
400.90	1089.45
401.27	1091.74
401.64	1089.36
402.00	1090.03
402.37	1088.75
402.74	1089.03
403.11	1086.24
403.48	1085.05
403.84	1086.76
404.21	1086.85
404.58	1085.42
404.95	1090.64
405.32	1095.35
405.68	1092.61
406.05	1094.69
406.42	1096.56
406.79	1094.43
407.16	1093.50
407.52	1093.19
407.89	1093.08
408.26	1094.29
408.63	1094.62
408.99	1094.95
409.36	1096.66
409.73	1096.66
410.10	1096.17
410.47	1095.89
410.83	1096.00
411.20	1099.02
411.57	1100.15
411.94	1100.45
412.30	1102.06
412.67	1101.83
413.04	1098.81
413.40	1095.37
413.77	1100.43
414.14	1103.23
414.51	1107.10
414.87	1107.80
415.24	1109.60
415.61	1107.21
415.97	1102.84
416.34	1102.88
416.71	1104.90
417.08	1106.96
417.44	1107.61
417.81	1109.53
418.18	1109.27
418.54	1110.94
418.91	1112.97
419.28	1113.37
419.64	1116.11
420.01	1114.19
420.38	1112.32
420.74	1109.98
421.11	1109.09
421.48	1107.33
421.84	1111.47
422.21	1115.57
422.58	1119.41
422.94	1126.13
423.31	1132.56
423.68	1133.08
424.04	1135.37
424.41	1137.13
424.77	1137.03
425.14	1139.40
425.51	1146.00
425.87	1151.38
426.24	1158.31
426.61	1161.61
426.97	1166.85
427.34	1172.42
427.70	1177.71
428.07	1184.94
428.44	1192.76
428.80	1199.57
429.17	1205.52
429.53	1211.65
429.90	1219.63
430.27	1231.82
430.63	1244.79
431.00	1257.03
431.36	1271.82
431.73	1281.23
432.09	1290.13
432.46	1302.23
432.83	1316.88
433.19	1331.20
433.56	1354.14
433.92	1376.42
434.29	1392.13
434.65	1414.27
435.02	1441.09
435.38	1467.12
435.75	1496.94
436.11	1535.46
436.48	1571.60
436.84	1607.48
437.21	1643.08
437.57	1680.04
437.94	1717.81
438.30	1763.55
438.67	1807.76
439.03	1858.13
439.40	1914.37
439.76	1972.44
440.13	2026.30
440.49	2094.99
440.86	2163.99
441.22	2235.63
441.59	2310.72
441.95	2400.66
442.32	2482.11
442.68	2583.74
443.05	2679.98
443.41	2780.09
443.78	2876.59
444.14	2983.25
444.51	3088.97
444.87	3226.31
445.24	3370.28
445.60	3525.88
445.96	3690.95
446.33	3869.63
446.69	4038.52
447.06	4221.25
447.42	4408.91
447.79	4602.97
448.15	4819.33
448.51	5052.30
448.88	5313.81
449.24	5560.08
449.61	5838.26
449.97	6131.85
450.33	6417.61
450.70	6686.26
451.06	7012.53
451.43	7323.14
451.79	7677.43
452.15	8092.87
452.52	8551.22
452.88	9039.92
453.24	9597.34
453.61	10198.30
453.97	10779.41
454.34	11342.52
454.70	11995.43
455.06	12626.79
455.43	13254.97
455.79	13842.16
456.15	14546.05
456.52	15208.52
456.88	15999.93
457.24	16710.21
457.61	17581.40
457.97	18379.50
458.33	19180.41
458.70	19968.94
459.06	20769.94
459.42	21624.63
459.79	22428.16
460.15	23359.34
460.51	24240.44
460.88	25177.89
461.24	25991.77
461.60	26975.59
461.96	27862.91
462.33	28725.65
462.69	29540.04
463.05	30420.08
463.42	31163.93
463.78	31844.53
464.14	32397.53
464.50	33021.17
464.87	33493.89
465.23	33823.62
465.59	34171.31
465.95	34490.39
466.32	34727.51
466.68	34970.86
467.04	35137.01
467.40	35267.33
467.77	35444.30
468.13	35458.16
468.49	35367.86
468.85	35281.47
469.22	35100.87
469.58	34719.83
469.94	34450.60
470.30	34140.90
470.66	33732.88
471.03	33144.12
471.39	32785.73
471.75	32178.71
472.11	31569.15
472.47	31214.41
472.84	30921.96
473.20	30409.76
473.56	30118.79
473.92	29688.67
474.28	29170.47
474.65	28682.42
475.01	28214.41
475.37	27657.06
475.73	27213.97
476.09	26700.08
476.45	26175.54
476.81	25677.20
477.18	25127.64
477.54	24634.04
477.90	24250.15
478.26	23804.42
478.62	23433.89
478.98	23108.25
479.34	22785.98
479.71	22356.00
480.07	21990.01
480.43	21591.04
480.79	21192.03
481.15	20821.99
481.51	20487.08
481.87	20213.57
482.23	19923.30
482.59	19678.36
482.96	19400.98
483.32	19116.14
483.68	18737.93
484.04	18408.34
484.40	18021.26
484.76	17637.39
485.12	17250.50
485.48	16917.16
485.84	16548.29
486.20	16186.82
486.56	15816.10
486.92	15502.89
487.28	15171.52
487.64	14814.84
488.00	14489.79
488.37	14166.05
488.73	13790.34
489.09	13411.50
489.45	13089.87
489.81	12759.76
490.17	12442.92
490.53	12152.60
490.89	11853.88
491.25	11525.45
491.61	11205.03
491.97	10877.41
492.33	10542.76
492.69	10230.46
493.05	9928.67
493.41	9640.39
493.77	9373.45
494.13	9120.58
494.49	8868.43
494.85	8632.41
495.21	8395.81
495.57	8163.39
495.93	7937.41
496.29	7726.39
496.64	7533.97
497.00	7337.84
497.36	7153.78
497.72	6974.05
498.08	6791.70
498.44	6605.23
498.80	6428.45
499.16	6246.21
499.52	6081.74
499.88	5939.41
500.24	5813.45
500.60	5689.14
500.96	5574.69
501.32	5450.38
501.68	5331.46
502.03	5195.29
502.39	5070.02
502.75	4934.15
503.11	4808.23
503.47	4679.34
503.83	4557.89
504.19	4426.63
504.55	4310.63
504.91	4214.63
505.26	4118.83
505.62	4027.34
505.98	3938.98
506.34	3852.10
506.70	3753.73
507.06	3662.61
507.42	3577.37
507.78	3505.33
508.13	3425.63
508.49	3345.75
508.85	3273.85
509.21	3198.25
509.57	3124.71
509.93	3059.90
510.28	2998.58
510.64	2931.24
511.00	2875.14
511.36	2812.29
511.72	2760.64
512.07	2711.28
512.43	2663.88
512.79	2609.09
513.15	2563.17
513.51	2506.25
513.86	2453.58
514.22	2409.30
514.58	2367.52
514.94	2333.16
515.30	2304.51
515.65	2268.35
516.01	2235.33
516.37	2205.51
516.73	2171.92
517.08	2139.27
517.44	2108.14
517.80	2078.49
518.16	2048.30
518.51	2019.32
518.87	1989.97
519.23	1964.51
519.59	1936.00
519.94	1908.87
520.30	1884.51
520.66	1860.23
521.01	1836.67
521.37	1814.92
521.73	1793.67
522.09	1772.93
522.44	1753.41
522.80	1733.24
523.16	1711.33
523.51	1689.89
523.87	1670.25
524.23	1651.90
524.58	1634.86
524.94	1615.60
525.30	1600.72
525.65	1581.43
526.01	1562.45
526.37	1545.41
526.72	1531.93
527.08	1516.01
527.44	1500.59
527.79	1487.55
528.15	1473.46
528.51	1460.66
528.86	1447.79
529.22	1436.76
529.58	1424.78
529.93	1415.81
530.29	1408.04
530.65	1399.83
531.00	1393.98
531.36	1383.75
531.71	1373.92
532.07	1366.40
532.43	1355.59
532.78	1343.77
533.14	1338.08
533.49	1329.45
533.85	1320.41
534.21	1317.65
534.56	1307.31
534.92	1299.37
535.27	1293.40
535.63	1286.22
535.98	1276.88
536.34	1277.11
536.69	1272.34
537.05	1267.35
537.41	1264.47
537.76	1260.89
538.12	1254.08
538.47	1246.69
538.83	1243.06
539.18	1238.00
539.54	1234.30
539.89	1228.80
540.25	1227.31
540.60	1222.74
540.96	1217.01
541.31	1214.83
541.67	1216.38
542.02	1212.26
542.38	1210.03
542.73	1204.91
543.09	1199.50
543.44	1194.38
543.80	1188.55
544.15	1186.44
544.51	1186.02
544.86	1183.28
545.22	1178.25
545.57	1180.07
545.93	1177.66
546.28	1177.50
546.64	1174.83
546.99	1173.33
547.35	1170.92
547.70	1166.36
548.05	1161.56
548.41	1160.16
548.76	1159.97
549.12	1156.93
549.47	1151.78
549.83	1152.88
550.18	1150.49
550.53	1147.75
550.89	1146.68
551.24	1147.31
551.60	1143.05
551.95	1141.90
552.30	1140.17
552.66	1137.36
553.01	1140.38
553.37	1139.44
553.72	1135.18
554.07	1133.17
554.43	1134.15
554.78	1131.67
555.13	1128.65
555.49	1130.90
555.84	1131.23
556.19	1129.17
556.55	1128.11
556.90	1130.27
557.26	1124.72
557.61	1123.50
557.96	1122.85
558.32	1122.31
558.67	1122.57
559.02	1122.45
559.37	1122.26
559.73	1121.21
560.08	1118.59
560.43	1114.21
560.79	1115.92
561.14	1114.61
561.49	1115.52
561.85	1113.58
562.20	1114.59
562.55	1112.34
562.90	1110.44
563.26	1109.60
563.61	1108.57
563.96	1107.33
564.32	1107.73
564.67	1108.24
565.02	1107.47
565.37	1108.99
565.73	1104.45
566.08	1104.57
566.43	1102.11
566.78	1101.69
567.14	1098.32
567.49	1099.37
567.84	1096.31
568.19	1095.98
568.54	1095.04
568.90	1096.92
569.25	1095.32
569.60	1096.73
569.95	1095.46
570.31	1092.82
570.66	1094.06
571.01	1097.92
571.36	1098.04
571.71	1101.29
572.06	1102.49
572.42	1101.18
572.77	1100.00
573.12	1096.49
573.47	1094.62
573.82	1094.90
574.18	1092.84
574.53	1088.63
574.88	1090.78
575.23	1092.23
575.58	1090.83
575.93	1092.05
576.28	1097.43
576.64	1097.85
576.99	1094.72
577.34	1093.03
577.69	1094.43
578.04	1095.04
578.39	1092.94
578.74	1094.50
579.09	1096.59
579.44	1090.88
579.80	1090.81
580.15	1093.85
580.50	1091.72
580.85	1090.62
581.20	1094.41
581.55	1089.10
581.90	1089.45
582.25	1091.39
582.60	1092.12
582.95	1092.61
583.30	1096.35
583.65	1093.08
584.00	1093.33
584.35	1092.54
584.71	1092.56
585.06	1092.70
585.41	1095.25
585.76	1093.90
586.11	1093.94
586.46	1092.54
586.81	1088.30
587.16	1089.71
587.51	1091.11
587.86	1090.69
588.21	1089.40
588.56	1090.95
588.91	1091.16
589.26	1090.90
589.61	1090.78
589.96	1091.65
590.31	1090.64
590.66	1087.65
591.01	1086.03
591.36	1086.17
591.71	1087.37
592.06	1087.95
592.41	1090.53
592.76	1088.51
593.10	1087.90
593.45	1085.33
593.80	1084.21
594.15	1083.67
594.50	1086.27
594.85	1085.75
595.20	1087.93
595.55	1091.49
595.90	1089.52
596.25	1088.23
596.60	1089.94
596.95	1086.59
597.30	1086.17
597.64	1094.20
597.99	1094.46
598.34	1095.46
598.69	1098.72
599.04	1100.03
599.39	1092.63
599.74	1092.80
600.09	1090.50
600.44	1087.90
600.78	1084.63
601.13	1079.74
601.48	1076.39
601.83	1076.51
602.18	1076.39
602.53	1076.39
602.88	1078.59
603.22	1080.79
603.57	1080.74
603.92	1081.61
604.27	1081.96
604.62	1082.19
604.97	1082.17
605.31	1082.24
605.66	1083.22
606.01	1084.84
606.36	1087.30
606.71	1084.63
607.05	1085.68
607.40	1084.98
607.75	1085.00
608.10	1082.69
608.44	1086.94
608.79	1085.49
609.14	1086.31
609.49	1082.43
609.84	1081.66
610.18	1080.74
610.53	1080.09
610.88	1078.19
611.23	1081.77
611.57	1085.70
611.92	1087.90
612.27	1088.51
612.62	1084.72
612.96	1085.73
613.31	1081.09
613.66	1079.46
614.00	1079.10
614.35	1082.10
614.70	1075.13
615.05	1079.31
615.39	1078.80
615.74	1083.57
616.09	1083.69
616.43	1088.49
616.78	1087.48
617.13	1089.29
617.47	1085.03
617.82	1086.90
618.17	1087.25
618.51	1086.08
618.86	1087.27
619.21	1086.10
619.55	1086.64
619.90	1086.24
620.25	1086.08
620.59	1085.49
620.94	1086.03
621.29	1085.89
621.63	1084.89
621.98	1082.29
622.32	1079.78
622.67	1080.30
623.02	1080.70
623.36	1082.61
623.71	1084.84
624.05	1085.82
624.40	1087.74
624.75	1081.63
625.09	1078.99
625.44	1079.99
625.78	1079.85
626.13	1077.65
626.48	1083.29
626.82	1080.88
627.17	1078.92
627.51	1076.83
627.86	1077.49
628.20	1077.63
628.55	1082.69
628.89	1084.30
629.24	1085.03
629.58	1081.00
629.93	1081.49
630.28	1077.98
630.62	1078.40
630.97	1079.81
631.31	1080.51
631.66	1076.76
632.00	1080.18
632.35	1075.45
632.69	1072.29
633.04	1075.10
633.38	1078.00
633.73	1074.33
634.07	1079.15
634.42	1079.69
634.76	1076.72
635.11	1074.73
635.45	1077.09
635.79	1073.79
636.14	1077.82
636.48	1085.03
636.83	1088.02
637.17	1087.20
637.52	1088.23
637.86	1086.69
638.21	1079.38
638.55	1077.14
638.89	1077.79
639.24	1080.16
639.58	1080.16
639.93	1084.91
640.27	1084.89
640.61	1084.16
640.96	1083.67
641.30	1084.35
641.65	1085.07
641.99	1085.42
642.33	1086.20
642.68	1085.77
643.02	1082.33
643.37	1082.19
643.71	1083.43
644.05	1082.19
644.40	1077.47
644.74	1075.73
645.08	1074.61
645.43	1072.81
645.77	1075.57
646.11	1080.60
646.46	1084.35
646.80	1086.13
647.14	1085.35
647.49	1082.05
647.83	1081.49
648.17	1083.13
648.52	1081.35
648.86	1079.74
649.20	1081.19
649.55	1081.35
649.89	1079.43
650.23	1078.31
650.57	1080.67
650.92	1080.41
651.26	1082.47
651.60	1084.30
651.95	1084.70
652.29	1085.35
652.63	1085.45
652.97	1083.01
653.32	1078.96
653.66	1078.54
654.00	1074.33
654.34	1074.66
654.69	1073.60
655.03	1077.21
655.37	1077.44
655.71	1081.87
656.05	1080.67
656.40	1083.39
656.74	1083.25
657.08	1083.74
657.42	1082.57
657.76	1081.21
658.11	1079.46
658.45	1078.03
658.79	1078.66
659.13	1079.10
659.47	1079.55
659.82	1079.85
660.16	1078.03
660.50	1077.18
660.84	1076.90
661.18	1079.24
661.52	1079.55
661.87	1081.82
662.21	1080.27
662.55	1080.48
662.89	1080.53
663.23	1080.20
663.57	1078.26
663.91	1080.02
664.25	1081.96
664.60	1081.47
664.94	1078.40
665.28	1081.63
665.62	1081.70
665.96	1078.66
666.30	1077.65
666.64	1081.77
666.98	1080.06
667.32	1080.77
667.66	1082.15
668.01	1083.15
668.35	1083.53
668.69	1085.66
669.03	1085.63
669.37	1084.91
669.71	1084.16
670.05	1081.35
670.39	1079.64
670.73	1077.37
671.07	1079.03
671.41	1080.39
671.75	1081.89
672.09	1081.07
672.43	1083.39
672.77	1081.49
673.11	1080.20
673.45	1078.75
673.79	1077.96
674.13	1077.58
674.47	1081.23
674.81	1080.93
675.15	1085.28
675.49	1089.22
675.83	1086.08
676.17	1084.16
676.51	1087.83
676.85	1082.64
677.19	1084.04
677.53	1085.35
677.87	1082.92
678.21	1080.02
678.55	1083.76
678.89	1077.56
679.23	1078.28
679.57	1081.16
679.90	1081.30
680.24	1078.50
680.58	1078.99
680.92	1076.81
681.26	1075.36
681.60	1075.92
681.94	1074.98
682.28	1076.11
682.62	1079.95
682.96	1080.60
683.29	1082.85
683.63	1083.93
683.97	1083.55
684.31	1080.74
684.65	1081.33
684.99	1076.88
685.33	1078.66
685.67	1078.40
686.00	1078.66
686.34	1076.74
686.68	1079.08
687.02	1077.61
687.36	1079.88
687.70	1080.53
688.03	1082.90
688.37	1081.33
688.71	1078.66
689.05	1078.52
689.39	1079.53
689.72	1080.23
690.06	1082.05
690.40	1086.01
690.74	1083.60
691.08	1083.34
691.41	1080.51
691.75	1075.36
692.09	1073.67
692.43	1076.13
692.76	1073.14
693.10	1073.16
693.44	1076.67
693.78	1078.54
694.11	1077.96
694.45	1079.20
694.79	1079.48
695.13	1079.81
695.46	1079.27
695.80	1079.22
696.14	1080.56
696.48	1081.73
696.81	1081.63
697.15	1080.25
697.49	1079.85
697.82	1078.64
698.16	1078.38
698.50	1076.97
698.83	1079.08
699.17	1077.37
699.51	1079.06
699.84	1080.70
700.18	1083.62
700.52	1080.23
700.85	1080.25
701.19	1073.51
701.53	1069.09
701.86	1068.15
702.20	1070.84
702.54	1073.79
702.87	1077.37
703.21	1080.32
703.55	1080.77
703.88	1080.13
704.22	1076.97
704.55	1077.65
704.89	1076.86
705.23	1077.56
705.56	1074.91
705.90	1077.04
706.23	1079.81
706.57	1078.80
706.91	1079.78
707.24	1083.01
707.58	1085.28
707.91	1082.47
708.25	1082.54
708.58	1079.64
708.92	1077.51
709.26	1073.81
709.59	1073.42
709.93	1072.18
710.26	1073.25
710.60	1072.25
710.93	1073.39
711.27	1076.11
711.60	1078.99
711.94	1076.86
712.27	1077.68
712.61	1079.97
712.94	1079.34
713.28	1076.27
713.61	1078.89
713.95	1080.65
714.28	1076.23
714.62	1074.52
714.95	1078.89
715.29	1076.90
715.62	1078.24
715.96	1080.04
716.29	1079.43
716.63	1078.07
716.96	1079.57
717.29	1080.48
717.63	1081.91
717.96	1083.93
718.30	1082.64
718.63	1083.60
718.97	1083.55
719.30	1080.93
719.63	1081.16
719.97	1082.24
720.30	1084.07
720.64	1080.51
720.97	1081.70
721.30	1082.87
721.64	1081.56
721.97	1074.47
722.31	1078.45
722.64	1077.44
722.97	1071.80
723.31	1071.31
723.64	1078.24
723.97	1078.21
724.31	1077.28
724.64	1079.41
724.98	1081.63
725.31	1077.89
725.64	1074.68
725.98	1074.96
726.31	1074.40
726.64	1073.42
726.97	1075.08
727.31	1073.37
727.64	1074.21
727.97	1076.25
728.31	1076.76
728.64	1075.15
728.97	1076.34
729.31	1077.61
729.64	1077.86
729.97	1077.02
730.30	1076.74
730.64	1076.53
730.97	1075.73
731.30	1075.90
731.63	1075.31
731.97	1073.67
732.30	1072.20
732.63	1073.16
732.96	1071.75
733.30	1073.93
733.63	1075.62
733.96	1077.00
734.29	1076.72
734.63	1077.70
734.96	1075.59
735.29	1074.96
735.62	1077.84
735.95	1079.64
736.29	1079.67
736.62	1080.70
736.95	1081.54
737.28	1080.16
737.61	1076.60
737.94	1078.33
738.28	1078.99
738.61	1081.66
738.94	1081.12
739.27	1083.79
739.60	1082.22
739.93	1080.60
740.27	1079.29
740.60	1079.41
740.93	1079.88
741.26	1082.19
741.59	1080.72
741.92	1079.81
742.25	1078.47
742.58	1078.45
742.91	1075.90
743.25	1081.61
743.58	1081.47
743.91	1082.15
744.24	1080.72
744.57	1080.81
744.90	1075.83
745.23	1074.77
745.56	1074.96
745.89	1075.76
746.22	1072.27
746.55	1076.81
746.88	1077.54
747.21	1078.33
747.54	1075.80
747.87	1082.01
748.20	1079.36
748.53	1078.64
748.87	1081.61
749.20	1083.43
749.53	1081.77
749.86	1081.98
750.19	1084.60
750.52	1082.69
750.85	1082.52
751.18	1081.16
751.51	1081.21
751.84	1080.09
752.16	1080.13
752.49	1081.87
752.82	1082.69
753.15	1081.98
753.48	1082.43
753.81	1082.45
754.14	1081.66
754.47	1080.23
754.80	1078.89
755.13	1076.11
755.46	1076.79
755.79	1076.86
756.12	1077.35
756.45	1077.75
756.78	1078.80
757.11	1078.68
757.43	1076.62
757.76	1075.83
758.09	1076.74
758.42	1078.94
758.75	1079.17
759.08	1081.09
759.41	1081.26
759.74	1084.30
760.07	1083.46
760.39	1083.55
760.72	1079.60
761.05	1079.88
761.38	1075.45
761.71	1075.85
762.04	1075.59
762.36	1080.93
762.69	1081.42
763.02	1080.27
763.35	1079.62
763.68	1076.86
764.01	1075.94
