SpectraSuite Data File
++++++++++++++++++++++++++++++++++++
Date: Mon Aug 26 10:22:12 PDT 2019
User: corrico
Dark Spectrum Present: No
Reference Spectrum Present: No
Number of Sampled Component Spectra: 1
Spectrometers: USB2+H06089
Integration Time (usec): 2000 (USB2+H06089)
Spectra Averaged: 20 (USB2+H06089)
Boxcar Smoothing: 2 (USB2+H06089)
Correct for Electrical Dark: No (USB2+H06089)
Strobe/Lamp Enabled: No (USB2+H06089)
Correct for Detector Non-linearity: No (USB2+H06089)
Correct for Stray Light: No (USB2+H06089)
Number of Pixels in Processed Spectrum: 2048
>>>>>Begin Processed Spectral Data<<<<<
339.70	1016.49
340.07	1016.49
340.45	988.53
340.82	968.58
341.19	948.17
341.57	923.88
341.94	912.79
342.31	908.01
342.69	903.80
343.06	899.80
343.43	900.85
343.81	899.40
344.18	899.07
344.55	902.74
344.93	909.74
345.30	917.84
345.67	926.59
346.04	934.27
346.42	941.81
346.79	949.67
347.16	957.33
347.54	962.71
347.91	969.15
348.28	979.75
348.65	989.13
349.03	996.88
349.40	1007.98
349.77	1020.61
350.14	1027.28
350.52	1031.78
350.89	1035.97
351.26	1042.80
351.63	1047.41
352.01	1052.66
352.38	1060.08
352.75	1068.24
353.12	1069.34
353.50	1071.19
353.87	1073.91
354.24	1073.49
354.61	1073.70
354.98	1077.28
355.36	1080.58
355.73	1077.61
356.10	1079.46
356.47	1083.46
356.84	1082.54
357.22	1082.80
357.59	1086.62
357.96	1087.83
358.33	1085.03
358.70	1086.34
359.08	1085.35
359.45	1083.76
359.82	1082.92
360.19	1081.56
360.56	1081.77
360.94	1081.84
361.31	1080.86
361.68	1080.09
362.05	1079.50
362.42	1076.65
362.79	1074.38
363.16	1076.90
363.54	1075.69
363.91	1075.92
364.28	1077.40
364.65	1078.85
365.02	1075.87
365.39	1075.29
365.76	1073.18
366.14	1072.62
366.51	1069.53
366.88	1070.96
367.25	1073.04
367.62	1074.31
367.99	1072.34
368.36	1075.43
368.73	1076.11
369.10	1077.02
369.48	1077.72
369.85	1078.75
370.22	1076.60
370.59	1075.36
370.96	1074.12
371.33	1074.54
371.70	1077.02
372.07	1077.44
372.44	1078.45
372.81	1075.59
373.18	1075.50
373.55	1075.71
373.93	1074.84
374.30	1073.42
374.67	1076.67
375.04	1077.42
375.41	1076.25
375.78	1078.05
376.15	1079.81
376.52	1080.74
376.89	1080.06
377.26	1080.32
377.63	1081.16
378.00	1082.78
378.37	1081.82
378.74	1082.22
379.11	1081.26
379.48	1082.29
379.85	1082.22
380.22	1081.30
380.59	1082.38
380.96	1082.29
381.33	1079.01
381.70	1080.16
382.07	1080.72
382.44	1076.20
382.81	1074.38
383.18	1075.29
383.55	1074.59
383.92	1076.32
384.29	1079.43
384.66	1080.81
385.03	1082.03
385.40	1081.87
385.77	1077.75
386.14	1079.57
386.51	1081.09
386.88	1080.77
387.25	1081.05
387.62	1083.86
387.99	1082.94
388.36	1081.12
388.73	1084.72
389.10	1082.50
389.46	1081.75
389.83	1080.67
390.20	1084.39
390.57	1085.35
390.94	1088.07
391.31	1092.14
391.68	1093.57
392.05	1091.84
392.42	1087.11
392.79	1087.11
393.16	1085.14
393.53	1087.93
393.89	1090.53
394.26	1095.75
394.63	1095.18
395.00	1094.57
395.37	1092.96
395.74	1090.85
396.11	1087.79
396.48	1087.53
396.84	1085.91
397.21	1088.70
397.58	1089.43
397.95	1090.06
398.32	1090.34
398.69	1090.67
399.06	1088.47
399.42	1087.20
399.79	1086.62
400.16	1089.07
400.53	1091.25
400.90	1092.56
401.27	1093.99
401.64	1095.39
402.00	1092.84
402.37	1092.42
402.74	1091.58
403.11	1096.54
403.48	1094.48
403.84	1096.03
404.21	1096.66
404.58	1095.09
404.95	1091.72
405.32	1092.47
405.68	1092.87
406.05	1092.75
406.42	1089.22
406.79	1091.04
407.16	1092.02
407.52	1090.55
407.89	1089.47
408.26	1095.23
408.63	1091.86
408.99	1090.99
409.36	1092.56
409.73	1094.25
410.10	1090.32
410.47	1090.43
410.83	1092.87
411.20	1090.29
411.57	1089.64
411.94	1091.13
412.30	1093.52
412.67	1091.46
413.04	1094.69
413.40	1096.59
413.77	1099.51
414.14	1101.29
414.51	1104.41
414.87	1103.35
415.24	1101.08
415.61	1103.12
415.97	1102.53
416.34	1107.54
416.71	1108.66
417.08	1111.54
417.44	1112.99
417.81	1114.07
418.18	1109.09
418.54	1109.60
418.91	1113.02
419.28	1109.91
419.64	1110.87
420.01	1111.57
420.38	1113.56
420.74	1112.13
421.11	1117.42
421.48	1119.38
421.84	1127.79
422.21	1131.44
422.58	1134.93
422.94	1137.08
423.31	1138.39
423.68	1137.59
424.04	1141.90
424.41	1145.83
424.77	1150.68
425.14	1153.21
425.51	1155.12
425.87	1157.32
426.24	1160.70
426.61	1163.11
426.97	1174.36
427.34	1183.14
427.70	1194.40
428.07	1201.75
428.44	1214.15
428.80	1218.16
429.17	1228.34
429.53	1237.72
429.90	1254.41
430.27	1263.49
430.63	1278.14
431.00	1293.33
431.36	1305.34
431.73	1319.92
432.09	1338.22
432.46	1354.26
432.83	1370.66
433.19	1391.17
433.56	1412.40
433.92	1440.53
434.29	1469.25
434.65	1496.19
435.02	1528.18
435.38	1562.78
435.75	1588.52
436.11	1626.65
436.48	1667.63
436.84	1710.42
437.21	1752.90
437.57	1800.60
437.94	1850.12
438.30	1905.08
438.67	1960.15
439.03	2022.81
439.40	2088.27
439.76	2155.31
440.13	2223.70
440.49	2300.91
440.86	2377.89
441.22	2468.61
441.59	2561.08
441.95	2666.36
442.32	2776.25
442.68	2898.31
443.05	3014.75
443.41	3141.91
443.78	3270.06
444.14	3401.99
444.51	3531.45
444.87	3699.33
445.24	3861.28
445.60	4044.63
445.96	4231.03
446.33	4443.09
446.69	4640.46
447.06	4860.43
447.42	5078.80
447.79	5311.40
448.15	5577.38
448.51	5853.12
448.88	6173.94
449.24	6468.96
449.61	6819.50
449.97	7165.11
450.33	7542.80
450.70	7893.39
451.06	8321.99
451.43	8718.17
451.79	9179.58
452.15	9659.39
452.52	10198.42
452.88	10744.09
453.24	11378.91
453.61	12085.15
453.97	12787.75
454.34	13471.14
454.70	14280.12
455.06	15065.49
455.43	15805.31
455.79	16479.50
456.15	17286.61
456.52	18027.25
456.88	18930.98
457.24	19821.29
457.61	20960.25
457.97	22009.02
458.33	23101.81
458.70	24174.36
459.06	25181.57
459.42	26175.24
459.79	27094.14
460.15	28146.14
460.51	29122.05
460.88	30196.02
461.24	31156.09
461.60	32304.12
461.96	33336.37
462.33	34340.97
462.69	35355.90
463.05	36444.55
463.42	37417.49
463.78	38319.86
464.14	39058.09
464.50	39784.87
464.87	40340.44
465.23	40718.02
465.59	41119.63
465.95	41467.04
466.32	41718.64
466.68	41950.12
467.04	42080.05
467.40	42104.76
467.77	42185.98
468.13	42103.12
468.49	41949.56
468.85	41832.37
469.22	41680.35
469.58	41425.47
469.94	41268.89
470.30	41025.10
470.66	40684.48
471.03	40225.34
471.39	39863.89
471.75	39154.94
472.11	38453.97
472.47	37955.39
472.84	37430.43
473.20	36726.52
473.56	36314.49
473.92	35757.53
474.28	35114.52
474.65	34456.83
475.01	33780.76
475.37	32976.23
475.73	32311.87
476.09	31616.54
476.45	30968.21
476.81	30441.36
477.18	29903.41
477.54	29421.17
477.90	28970.92
478.26	28409.96
478.62	27872.69
478.98	27421.97
479.34	26979.43
479.71	26440.91
480.07	26019.43
480.43	25568.90
480.79	25111.49
481.15	24653.17
481.51	24284.06
481.87	23960.84
482.23	23617.81
482.59	23294.21
482.96	22977.06
483.32	22651.68
483.68	22264.14
484.04	21914.67
484.40	21502.48
484.76	21061.15
485.12	20619.56
485.48	20172.12
485.84	19677.45
486.20	19248.14
486.56	18835.81
486.92	18462.33
487.28	18086.21
487.64	17690.59
488.00	17313.81
488.37	16932.61
488.73	16514.16
489.09	16059.66
489.45	15665.70
489.81	15222.82
490.17	14794.85
490.53	14388.54
490.89	13994.55
491.25	13577.80
491.61	13179.37
491.97	12772.70
492.33	12378.09
492.69	12013.24
493.05	11673.75
493.41	11346.21
493.77	11031.11
494.13	10725.41
494.49	10437.76
494.85	10150.76
495.21	9889.14
495.57	9631.33
495.93	9370.83
496.29	9117.56
496.64	8900.03
497.00	8652.00
497.36	8406.83
497.72	8167.21
498.08	7948.69
498.44	7718.24
498.80	7511.46
499.16	7310.12
499.52	7118.74
499.88	6936.76
500.24	6766.79
500.60	6602.49
500.96	6443.26
501.32	6288.76
501.68	6116.73
502.03	5939.86
502.39	5777.14
502.75	5613.54
503.11	5464.03
503.47	5326.92
503.83	5204.93
504.19	5081.98
504.55	4958.10
504.91	4837.91
505.26	4723.25
505.62	4601.70
505.98	4488.40
506.34	4382.19
506.70	4262.05
507.06	4150.43
507.42	4046.36
507.78	3948.37
508.13	3855.96
508.49	3789.35
508.85	3714.64
509.21	3633.61
509.57	3553.71
509.93	3471.44
510.28	3375.17
510.64	3295.97
511.00	3226.92
511.36	3155.35
511.72	3094.94
512.07	3035.35
512.43	2973.53
512.79	2910.20
513.15	2843.42
513.51	2774.21
513.86	2718.58
514.22	2662.50
514.58	2610.45
514.94	2567.50
515.30	2525.77
515.65	2477.50
516.01	2435.73
516.37	2394.65
516.73	2359.40
517.08	2326.47
517.44	2290.05
517.80	2255.50
518.16	2222.03
518.51	2185.97
518.87	2148.10
519.23	2119.31
519.59	2092.25
519.94	2058.62
520.30	2030.37
520.66	2002.54
521.01	1971.55
521.37	1939.06
521.73	1914.91
522.09	1890.54
522.44	1864.52
522.80	1844.20
523.16	1825.38
523.51	1803.36
523.87	1777.94
524.23	1762.68
524.58	1740.89
524.94	1718.87
525.30	1697.73
525.65	1678.89
526.01	1657.24
526.37	1638.77
526.72	1620.54
527.08	1602.14
527.44	1581.22
527.79	1565.84
528.15	1550.23
528.51	1531.74
528.86	1521.96
529.22	1514.63
529.58	1499.84
529.93	1487.32
530.29	1476.41
530.65	1460.89
531.00	1445.68
531.36	1435.08
531.71	1425.04
532.07	1415.30
532.43	1404.51
532.78	1393.55
533.14	1383.82
533.49	1374.60
533.85	1370.78
534.21	1365.35
534.56	1358.28
534.92	1348.99
535.27	1339.30
535.63	1328.51
535.98	1320.18
536.34	1311.10
536.69	1305.13
537.05	1298.27
537.41	1290.06
537.76	1283.57
538.12	1279.29
538.47	1271.50
538.83	1267.19
539.18	1260.47
539.54	1257.97
539.89	1251.95
540.25	1250.41
540.60	1248.32
540.96	1248.35
541.31	1240.06
541.67	1236.74
542.02	1231.29
542.38	1224.59
542.73	1217.41
543.09	1217.10
543.44	1217.76
543.80	1213.76
544.15	1211.79
544.51	1210.10
544.86	1204.44
545.22	1198.59
545.57	1197.91
545.93	1195.66
546.28	1193.16
546.64	1191.52
546.99	1187.70
547.35	1182.81
547.70	1179.19
548.05	1179.58
548.41	1177.38
548.76	1175.51
549.12	1175.72
549.47	1174.46
549.83	1168.09
550.18	1164.28
550.53	1164.00
550.89	1160.74
551.24	1154.52
551.60	1152.81
551.95	1150.68
552.30	1147.92
552.66	1148.95
553.01	1151.36
553.37	1150.63
553.72	1149.46
554.07	1144.15
554.43	1141.64
554.78	1137.45
555.13	1136.61
555.49	1133.99
555.84	1133.29
556.19	1132.54
556.55	1132.70
556.90	1129.71
557.26	1131.98
557.61	1132.19
557.96	1128.54
558.32	1128.82
558.67	1132.70
559.02	1127.67
559.37	1127.53
559.73	1127.23
560.08	1124.11
560.43	1117.86
560.79	1118.35
561.14	1118.87
561.49	1121.23
561.85	1124.42
562.20	1125.12
562.55	1123.18
562.90	1121.80
563.26	1115.59
563.61	1112.55
563.96	1113.91
564.32	1112.90
564.67	1112.41
565.02	1111.40
565.37	1111.68
565.73	1108.95
566.08	1112.20
566.43	1110.37
566.78	1109.95
567.14	1106.49
567.49	1108.45
567.84	1106.46
568.19	1106.68
568.54	1107.49
568.90	1110.72
569.25	1107.52
569.60	1105.97
569.95	1101.69
570.31	1104.29
570.66	1099.37
571.01	1099.28
571.36	1099.12
571.71	1102.72
572.06	1098.69
572.42	1097.95
572.77	1097.31
573.12	1096.40
573.47	1092.37
573.82	1094.08
574.18	1096.82
574.53	1096.85
574.88	1097.97
575.23	1100.00
575.58	1097.38
575.93	1092.54
576.28	1093.15
576.64	1092.52
576.99	1093.66
577.34	1095.32
577.69	1097.80
578.04	1095.86
578.39	1095.00
578.74	1092.87
579.09	1091.02
579.44	1091.79
579.80	1090.41
580.15	1088.65
580.50	1085.68
580.85	1087.39
581.20	1088.02
581.55	1089.33
581.90	1087.67
582.25	1088.89
582.60	1084.63
582.95	1083.22
583.30	1081.82
583.65	1085.87
584.00	1088.79
584.35	1093.76
584.71	1093.73
585.06	1094.20
585.41	1092.91
585.76	1092.98
586.11	1090.48
586.46	1090.01
586.81	1089.31
587.16	1087.13
587.51	1086.13
587.86	1084.84
588.21	1085.73
588.56	1088.12
588.91	1089.75
589.26	1086.66
589.61	1088.37
589.96	1089.00
590.31	1086.94
590.66	1088.21
591.01	1090.55
591.36	1090.74
591.71	1086.64
592.06	1087.53
592.41	1088.56
592.76	1089.96
593.10	1089.54
593.45	1090.27
593.80	1088.42
594.15	1086.43
594.50	1084.67
594.85	1085.99
595.20	1089.38
595.55	1088.54
595.90	1084.93
596.25	1083.32
596.60	1081.37
596.95	1078.28
597.30	1082.33
597.64	1097.62
597.99	1097.66
598.34	1094.34
598.69	1093.73
599.04	1089.99
599.39	1079.43
599.74	1079.17
600.09	1084.56
600.44	1085.28
600.78	1086.17
601.13	1083.93
601.48	1082.87
601.83	1080.65
602.18	1082.40
602.53	1081.49
602.88	1080.58
603.22	1081.56
603.57	1084.14
603.92	1081.87
604.27	1083.81
604.62	1084.84
604.97	1085.05
605.31	1083.18
605.66	1084.56
606.01	1083.90
606.36	1083.69
606.71	1085.66
607.05	1085.70
607.40	1085.84
607.75	1083.06
608.10	1083.29
608.44	1083.81
608.79	1081.05
609.14	1080.63
609.49	1082.01
609.84	1083.01
610.18	1082.76
610.53	1082.01
610.88	1079.22
611.23	1080.79
611.57	1079.22
611.92	1079.74
612.27	1079.81
612.62	1084.44
612.96	1082.47
613.31	1084.67
613.66	1083.71
614.00	1087.81
614.35	1086.48
614.70	1088.12
615.05	1086.43
615.39	1086.38
615.74	1085.99
616.09	1086.87
616.43	1089.14
616.78	1088.82
617.13	1088.16
617.47	1084.67
617.82	1083.41
618.17	1078.14
618.51	1079.06
618.86	1079.99
619.21	1082.61
619.55	1083.93
619.90	1087.06
620.25	1088.75
620.59	1087.79
620.94	1088.93
621.29	1087.11
621.63	1085.63
621.98	1085.96
622.32	1085.03
622.67	1082.47
623.02	1080.09
623.36	1080.27
623.71	1075.92
624.05	1076.06
624.40	1077.72
624.75	1082.61
625.09	1082.92
625.44	1086.57
625.78	1085.89
626.13	1082.90
626.48	1078.68
626.82	1078.12
627.17	1073.39
627.51	1075.90
627.86	1077.28
628.20	1078.40
628.55	1080.39
628.89	1085.63
629.24	1083.60
629.58	1085.87
629.93	1084.51
630.28	1082.03
630.62	1080.23
630.97	1079.57
631.31	1077.63
631.66	1079.27
632.00	1080.39
632.35	1079.90
632.69	1087.23
633.04	1087.55
633.38	1087.02
633.73	1085.91
634.07	1085.99
634.42	1082.15
634.76	1082.87
635.11	1084.09
635.45	1087.16
635.79	1088.93
636.14	1082.85
636.48	1079.62
636.83	1078.31
637.17	1076.01
637.52	1075.36
637.86	1079.69
638.21	1081.66
638.55	1081.77
638.89	1079.38
639.24	1077.11
639.58	1073.58
639.93	1072.43
640.27	1073.67
640.61	1078.45
640.96	1078.19
641.30	1081.37
641.65	1083.62
641.99	1085.03
642.33	1083.50
642.68	1085.56
643.02	1085.49
643.37	1088.61
643.71	1084.67
644.05	1083.67
644.40	1083.50
644.74	1079.78
645.08	1077.30
645.43	1078.89
645.77	1077.61
646.11	1076.06
646.46	1080.88
646.80	1079.95
647.14	1079.85
647.49	1080.91
647.83	1082.43
648.17	1083.93
648.52	1083.50
648.86	1081.91
649.20	1081.73
649.55	1079.41
649.89	1076.69
650.23	1077.11
650.57	1077.82
650.92	1079.03
651.26	1079.95
651.60	1082.15
651.95	1082.52
652.29	1081.68
652.63	1082.17
652.97	1086.03
653.32	1084.81
653.66	1084.04
654.00	1085.87
654.34	1082.97
654.69	1079.97
655.03	1079.36
655.37	1081.30
655.71	1081.47
656.05	1085.28
656.40	1082.31
656.74	1082.33
657.08	1081.26
657.42	1080.02
657.76	1075.80
658.11	1080.56
658.45	1079.17
658.79	1075.64
659.13	1077.37
659.47	1080.41
659.82	1078.21
660.16	1078.38
660.50	1083.69
660.84	1080.16
661.18	1079.95
661.52	1078.87
661.87	1081.02
662.21	1079.15
662.55	1080.70
662.89	1080.39
663.23	1080.13
663.57	1079.17
663.91	1080.86
664.25	1083.04
664.60	1082.99
664.94	1084.37
665.28	1084.46
665.62	1081.82
665.96	1083.50
666.30	1083.46
666.64	1081.89
666.98	1081.40
667.32	1082.40
667.66	1083.06
668.01	1082.52
668.35	1083.11
668.69	1082.87
669.03	1079.85
669.37	1077.14
669.71	1078.99
670.05	1080.86
670.39	1086.48
670.73	1089.85
671.07	1085.70
671.41	1082.94
671.75	1083.22
672.09	1078.26
672.43	1077.11
672.77	1079.62
673.11	1080.91
673.45	1078.73
673.79	1080.79
674.13	1082.26
674.47	1082.43
674.81	1082.59
675.15	1083.20
675.49	1082.38
675.83	1084.09
676.17	1083.39
676.51	1084.46
676.85	1082.40
677.19	1083.88
677.53	1080.77
677.87	1079.85
678.21	1077.68
678.55	1083.20
678.89	1077.98
679.23	1079.27
679.57	1080.81
679.90	1081.77
680.24	1079.55
680.58	1078.99
680.92	1077.65
681.26	1080.18
681.60	1079.31
681.94	1079.46
682.28	1081.37
682.62	1082.03
682.96	1081.96
683.29	1083.62
683.63	1083.15
683.97	1083.95
684.31	1080.81
684.65	1081.23
684.99	1080.93
685.33	1077.61
685.67	1078.24
686.00	1082.26
686.34	1079.97
686.68	1078.43
687.02	1081.70
687.36	1084.77
687.70	1082.69
688.03	1081.89
688.37	1085.82
688.71	1082.43
689.05	1076.88
689.39	1077.35
689.72	1078.05
690.06	1073.11
690.40	1077.61
690.74	1079.90
691.08	1078.14
691.41	1079.99
691.75	1085.31
692.09	1086.29
692.43	1084.04
692.76	1084.51
693.10	1079.99
693.44	1075.24
693.78	1073.23
694.11	1074.84
694.45	1075.90
694.79	1078.61
695.13	1078.85
695.46	1079.41
695.80	1080.02
696.14	1079.27
696.48	1078.10
696.81	1079.36
697.15	1078.54
697.49	1075.03
697.82	1073.67
698.16	1076.41
698.50	1077.42
698.83	1076.62
699.17	1079.22
699.51	1081.09
699.84	1078.96
700.18	1079.90
700.52	1079.92
700.85	1080.53
701.19	1079.46
701.53	1081.96
701.86	1078.64
702.20	1077.77
702.54	1076.76
702.87	1076.11
703.21	1074.07
703.55	1077.07
703.88	1076.62
704.22	1076.65
704.55	1077.44
704.89	1078.61
705.23	1077.28
705.56	1080.46
705.90	1082.92
706.23	1083.69
706.57	1080.56
706.91	1079.20
707.24	1075.59
707.58	1072.60
707.91	1072.39
708.25	1074.94
708.58	1076.90
708.92	1078.03
709.26	1077.58
709.59	1078.17
709.93	1078.14
710.26	1078.78
710.60	1078.21
710.93	1079.01
711.27	1079.43
711.60	1079.88
711.94	1081.80
712.27	1083.83
712.61	1084.28
712.94	1080.91
713.28	1082.17
713.61	1077.96
713.95	1076.13
714.28	1076.97
714.62	1077.09
714.95	1077.79
715.29	1074.87
715.62	1076.67
715.96	1075.97
716.29	1078.52
716.63	1074.80
716.96	1078.50
717.29	1078.47
717.63	1079.43
717.96	1081.44
718.30	1082.61
718.63	1082.38
718.97	1083.62
719.30	1084.14
719.63	1080.95
719.97	1080.44
720.30	1079.78
720.64	1076.76
720.97	1076.25
721.30	1079.97
721.64	1080.98
721.97	1082.87
722.31	1085.87
722.64	1083.43
722.97	1081.58
723.31	1083.08
723.64	1083.29
723.97	1082.31
724.31	1083.76
724.64	1084.91
724.98	1084.25
725.31	1082.12
725.64	1080.65
725.98	1079.17
726.31	1077.70
726.64	1075.41
726.97	1075.01
727.31	1077.98
727.64	1077.84
727.97	1076.08
728.31	1077.75
728.64	1078.43
728.97	1079.76
729.31	1081.44
729.64	1084.74
729.97	1081.68
730.30	1081.77
730.64	1078.92
730.97	1077.98
731.30	1076.86
731.63	1078.38
731.97	1078.17
732.30	1077.82
732.63	1083.15
732.96	1083.79
733.30	1082.47
733.63	1084.35
733.96	1083.08
734.29	1080.06
734.63	1078.94
734.96	1080.72
735.29	1081.28
735.62	1081.23
735.95	1077.07
736.29	1072.46
736.62	1072.57
736.95	1073.70
737.28	1072.18
737.61	1074.56
737.94	1078.66
738.28	1078.78
738.61	1072.92
738.94	1073.44
739.27	1074.75
739.60	1074.05
739.93	1073.28
740.27	1076.74
740.60	1078.57
740.93	1078.40
741.26	1080.41
741.59	1079.69
741.92	1080.81
742.25	1078.33
742.58	1078.89
742.91	1078.52
743.25	1080.16
743.58	1077.14
743.91	1079.36
744.24	1079.01
744.57	1078.89
744.90	1078.40
745.23	1079.31
745.56	1079.74
745.89	1076.74
746.22	1075.71
746.55	1077.11
746.88	1077.18
747.21	1076.08
747.54	1079.31
747.87	1082.05
748.20	1078.75
748.53	1078.19
748.87	1081.89
749.20	1079.53
749.53	1076.13
749.86	1079.62
750.19	1081.66
750.52	1079.20
750.85	1082.47
751.18	1084.49
751.51	1082.76
751.84	1081.49
752.16	1080.72
752.49	1079.36
752.82	1077.93
753.15	1076.76
753.48	1076.93
753.81	1078.07
754.14	1077.91
754.47	1077.63
754.80	1080.72
755.13	1078.82
755.46	1076.79
755.79	1074.94
756.12	1074.68
756.45	1074.14
756.78	1071.31
757.11	1070.40
757.43	1069.18
757.76	1071.29
758.09	1070.51
758.42	1074.68
758.75	1075.27
759.08	1079.41
759.41	1080.16
759.74	1079.06
760.07	1079.46
760.39	1079.29
760.72	1077.49
761.05	1076.48
761.38	1078.26
761.71	1079.38
762.04	1077.37
762.36	1075.52
762.69	1073.18
763.02	1071.10
763.35	1073.09
763.68	1078.61
764.01	1080.95
