SpectraSuite Data File
++++++++++++++++++++++++++++++++++++
Date: Mon Aug 26 10:22:10 PDT 2019
User: corrico
Dark Spectrum Present: No
Reference Spectrum Present: No
Number of Sampled Component Spectra: 1
Spectrometers: USB2+H06089
Integration Time (usec): 2000 (USB2+H06089)
Spectra Averaged: 20 (USB2+H06089)
Boxcar Smoothing: 2 (USB2+H06089)
Correct for Electrical Dark: No (USB2+H06089)
Strobe/Lamp Enabled: No (USB2+H06089)
Correct for Detector Non-linearity: No (USB2+H06089)
Correct for Stray Light: No (USB2+H06089)
Number of Pixels in Processed Spectrum: 2048
>>>>>Begin Processed Spectral Data<<<<<
339.70	1020.82
340.07	1020.82
340.45	989.23
340.82	971.37
341.19	948.20
341.57	924.28
341.94	911.19
342.31	904.41
342.69	895.70
343.06	890.18
343.43	889.90
343.81	895.82
344.18	898.20
344.55	905.81
344.93	915.66
345.30	921.12
345.67	924.56
346.04	930.53
346.42	931.46
346.79	937.83
347.16	946.56
347.54	955.57
347.91	967.27
348.28	985.20
348.65	995.87
349.03	1004.32
349.40	1013.03
349.77	1021.18
350.14	1025.04
350.52	1030.26
350.89	1037.11
351.26	1041.61
351.63	1047.02
352.01	1050.95
352.38	1056.21
352.75	1058.79
353.12	1063.70
353.50	1065.41
353.87	1068.17
354.24	1069.27
354.61	1072.27
354.98	1073.04
355.36	1078.19
355.73	1080.81
356.10	1084.04
356.47	1087.60
356.84	1087.30
357.22	1085.12
357.59	1084.07
357.96	1085.10
358.33	1082.47
358.70	1081.98
359.08	1083.11
359.45	1084.25
359.82	1080.25
360.19	1080.91
360.56	1083.11
360.94	1082.31
361.31	1080.63
361.68	1082.19
362.05	1081.02
362.42	1078.75
362.79	1074.82
363.16	1075.66
363.54	1074.42
363.91	1073.32
364.28	1072.13
364.65	1072.11
365.02	1069.51
365.39	1067.85
365.76	1068.92
366.14	1070.23
366.51	1070.21
366.88	1070.49
367.25	1070.98
367.62	1070.40
367.99	1069.72
368.36	1070.12
368.73	1072.36
369.10	1075.20
369.48	1075.52
369.85	1075.01
370.22	1074.91
370.59	1073.98
370.96	1072.97
371.33	1073.00
371.70	1076.34
372.07	1077.16
372.44	1076.95
372.81	1077.56
373.18	1078.66
373.55	1078.85
373.93	1077.07
374.30	1077.54
374.67	1077.28
375.04	1077.58
375.41	1075.29
375.78	1077.82
376.15	1075.62
376.52	1074.91
376.89	1075.05
377.26	1074.98
377.63	1075.08
378.00	1078.31
378.37	1079.27
378.74	1076.62
379.11	1076.08
379.48	1076.20
379.85	1077.98
380.22	1079.27
380.59	1084.02
380.96	1084.91
381.33	1084.65
381.70	1085.31
382.07	1082.87
382.44	1078.75
382.81	1081.77
383.18	1080.32
383.55	1076.20
383.92	1077.77
384.29	1081.09
384.66	1080.56
385.03	1083.36
385.40	1086.55
385.77	1085.84
386.14	1085.26
386.51	1082.33
386.88	1082.57
387.25	1080.58
387.62	1083.32
387.99	1080.30
388.36	1082.61
388.73	1080.79
389.10	1083.83
389.46	1081.42
389.83	1084.14
390.20	1083.57
390.57	1087.51
390.94	1085.12
391.31	1085.68
391.68	1086.90
392.05	1086.66
392.42	1083.86
392.79	1085.40
393.16	1087.27
393.53	1086.31
393.89	1083.95
394.26	1084.84
394.63	1082.26
395.00	1082.66
395.37	1084.79
395.74	1088.70
396.11	1089.89
396.48	1089.87
396.84	1088.84
397.21	1086.80
397.58	1085.87
397.95	1083.79
398.32	1086.66
398.69	1086.27
399.06	1085.07
399.42	1084.63
399.79	1085.49
400.16	1080.86
400.53	1080.44
400.90	1081.80
401.27	1085.96
401.64	1086.24
402.00	1086.31
402.37	1086.01
402.74	1087.55
403.11	1086.66
403.48	1085.73
403.84	1090.53
404.21	1091.46
404.58	1090.48
404.95	1088.65
405.32	1091.11
405.68	1091.81
406.05	1091.86
406.42	1094.62
406.79	1095.09
407.16	1094.32
407.52	1091.84
407.89	1092.63
408.26	1089.24
408.63	1092.07
408.99	1093.90
409.36	1095.02
409.73	1094.43
410.10	1095.77
410.47	1094.36
410.83	1094.08
411.20	1096.82
411.57	1100.52
411.94	1098.37
412.30	1095.98
412.67	1096.78
413.04	1096.82
413.40	1097.41
413.77	1101.53
414.14	1105.25
414.51	1106.32
414.87	1108.50
415.24	1106.42
415.61	1106.54
415.97	1108.62
416.34	1108.52
416.71	1108.15
417.08	1109.69
417.44	1111.19
417.81	1109.95
418.18	1110.23
418.54	1109.88
418.91	1111.12
419.28	1110.82
419.64	1110.63
420.01	1112.06
420.38	1112.55
420.74	1114.77
421.11	1116.46
421.48	1119.85
421.84	1123.41
422.21	1127.08
422.58	1129.10
422.94	1134.15
423.31	1137.24
423.68	1139.75
424.04	1141.22
424.41	1145.58
424.77	1149.30
425.14	1151.73
425.51	1155.85
425.87	1163.83
426.24	1168.23
426.61	1173.22
426.97	1183.37
427.34	1191.57
427.70	1194.45
428.07	1202.29
428.44	1209.59
428.80	1216.17
429.17	1224.03
429.53	1234.49
429.90	1247.62
430.27	1257.71
430.63	1270.72
431.00	1284.02
431.36	1301.06
431.73	1312.76
432.09	1328.18
432.46	1342.58
432.83	1362.52
433.19	1382.72
433.56	1406.40
433.92	1436.18
434.29	1466.86
434.65	1496.28
435.02	1522.71
435.38	1555.08
435.75	1584.45
436.11	1620.26
436.48	1656.14
436.84	1701.87
437.21	1748.59
437.57	1800.01
437.94	1853.49
438.30	1907.47
438.67	1964.48
439.03	2027.49
439.40	2093.33
439.76	2161.91
440.13	2237.79
440.49	2322.93
440.86	2395.00
441.22	2479.91
441.59	2569.60
441.95	2670.39
442.32	2772.67
442.68	2897.96
443.05	3020.88
443.41	3149.14
443.78	3283.56
444.14	3423.83
444.51	3558.76
444.87	3720.21
445.24	3890.25
445.60	4069.42
445.96	4251.84
446.33	4469.86
446.69	4677.68
447.06	4897.31
447.42	5119.10
447.79	5351.35
448.15	5613.70
448.51	5885.37
448.88	6191.16
449.24	6491.01
449.61	6850.23
449.97	7201.10
450.33	7578.63
450.70	7945.16
451.06	8380.01
451.43	8774.53
451.79	9239.24
452.15	9724.88
452.52	10265.85
452.88	10817.79
453.24	11445.50
453.61	12135.86
453.97	12838.28
454.34	13537.82
454.70	14351.44
455.06	15161.78
455.43	15926.34
455.79	16624.78
456.15	17436.76
456.52	18182.19
456.88	19088.96
457.24	19976.78
457.61	21097.50
457.97	22158.16
458.33	23261.98
458.70	24323.15
459.06	25337.82
459.42	26352.23
459.79	27274.12
460.15	28321.61
460.51	29301.03
460.88	30386.38
461.24	31360.60
461.60	32511.23
461.96	33556.96
462.33	34583.08
462.69	35643.74
463.05	36756.19
463.42	37757.52
463.78	38676.56
464.14	39466.35
464.50	40193.08
464.87	40728.01
465.23	41106.88
465.59	41523.77
465.95	41823.90
466.32	42039.39
466.68	42294.77
467.04	42409.69
467.40	42405.10
467.77	42523.32
468.13	42466.45
468.49	42296.64
468.85	42187.10
469.22	42062.66
469.58	41798.13
469.94	41636.42
470.30	41415.50
470.66	41057.05
471.03	40582.22
471.39	40214.38
471.75	39509.32
472.11	38798.29
472.47	38322.08
472.84	37787.67
473.20	37077.81
473.56	36680.34
473.92	36123.59
474.28	35476.81
474.65	34817.27
475.01	34136.53
475.37	33315.40
475.73	32627.07
476.09	31945.64
476.45	31292.00
476.81	30744.46
477.18	30182.45
477.54	29697.79
477.90	29225.29
478.26	28655.34
478.62	28142.46
478.98	27693.92
479.34	27254.06
479.71	26687.42
480.07	26258.14
480.43	25802.42
480.79	25329.84
481.15	24871.91
481.51	24515.15
481.87	24215.14
482.23	23861.67
482.59	23553.04
482.96	23216.12
483.32	22906.64
483.68	22506.80
484.04	22153.01
484.40	21742.64
484.76	21316.69
485.12	20861.78
485.48	20425.04
485.84	19923.55
486.20	19467.87
486.56	19028.60
486.92	18641.20
487.28	18229.87
487.64	17851.85
488.00	17476.55
488.37	17102.86
488.73	16670.63
489.09	16232.57
489.45	15786.68
489.81	15334.28
490.17	14895.43
490.53	14487.19
490.89	14059.04
491.25	13659.46
491.61	13264.66
491.97	12856.91
492.33	12445.89
492.69	12101.83
493.05	11770.60
493.41	11452.24
493.77	11129.90
494.13	10832.56
494.49	10536.27
494.85	10244.90
495.21	9961.20
495.57	9708.07
495.93	9454.95
496.29	9210.85
496.64	8982.95
497.00	8741.36
497.36	8485.38
497.72	8236.04
498.08	8001.89
498.44	7765.13
498.80	7556.79
499.16	7368.54
499.52	7177.58
499.88	7002.32
500.24	6829.31
500.60	6661.14
500.96	6502.64
501.32	6340.14
501.68	6160.64
502.03	5991.33
502.39	5820.21
502.75	5642.26
503.11	5491.88
503.47	5354.94
503.83	5228.20
504.19	5105.53
504.55	4998.03
504.91	4877.70
505.26	4760.02
505.62	4642.62
505.98	4530.29
506.34	4409.29
506.70	4295.91
507.06	4193.30
507.42	4091.02
507.78	3992.28
508.13	3899.05
508.49	3824.13
508.85	3744.23
509.21	3660.67
509.57	3578.98
509.93	3496.81
510.28	3400.87
510.64	3313.89
511.00	3233.45
511.36	3163.42
511.72	3097.25
512.07	3043.35
512.43	2983.86
512.79	2924.12
513.15	2859.08
513.51	2802.09
513.86	2734.17
514.22	2678.63
514.58	2623.44
514.94	2576.63
515.30	2528.25
515.65	2489.84
516.01	2452.09
516.37	2412.13
516.73	2374.26
517.08	2336.14
517.44	2292.98
517.80	2252.39
518.16	2217.73
518.51	2184.56
518.87	2152.10
519.23	2125.14
519.59	2094.05
519.94	2063.79
520.30	2028.40
520.66	1999.68
521.01	1968.91
521.37	1942.79
521.73	1913.76
522.09	1892.63
522.44	1868.73
522.80	1842.45
523.16	1816.30
523.51	1798.75
523.87	1780.12
524.23	1757.46
524.58	1736.86
524.94	1716.60
525.30	1696.91
525.65	1674.42
526.01	1658.13
526.37	1646.10
526.72	1628.50
527.08	1610.90
527.44	1596.92
527.79	1578.04
528.15	1560.95
528.51	1548.99
528.86	1533.99
529.22	1518.35
529.58	1507.05
529.93	1492.70
530.29	1480.65
530.65	1467.94
531.00	1454.97
531.36	1437.81
531.71	1428.19
532.07	1416.75
532.43	1405.30
532.78	1392.74
533.14	1383.82
533.49	1371.67
533.85	1364.51
534.21	1355.12
534.56	1352.85
534.92	1352.74
535.27	1347.40
535.63	1339.86
535.98	1334.95
536.34	1323.55
536.69	1310.33
537.05	1302.48
537.41	1293.71
537.76	1284.30
538.12	1278.59
538.47	1272.90
538.83	1266.42
539.18	1262.91
539.54	1260.36
539.89	1258.88
540.25	1257.71
540.60	1253.66
540.96	1247.95
541.31	1245.24
541.67	1241.86
542.02	1238.38
542.38	1235.10
542.73	1232.20
543.09	1228.73
543.44	1221.76
543.80	1217.57
544.15	1214.04
544.51	1209.82
544.86	1205.94
545.22	1203.46
545.57	1197.00
545.93	1195.71
546.28	1193.02
546.64	1187.94
546.99	1186.79
547.35	1188.78
547.70	1185.46
548.05	1182.84
548.41	1181.62
548.76	1178.41
549.12	1172.37
549.47	1168.56
549.83	1165.94
550.18	1164.77
550.53	1161.68
550.89	1161.65
551.24	1161.68
551.60	1159.43
551.95	1156.01
552.30	1153.49
552.66	1150.47
553.01	1147.82
553.37	1148.41
553.72	1150.02
554.07	1150.00
554.43	1151.92
554.78	1151.87
555.13	1150.96
555.49	1145.83
555.84	1145.25
556.19	1140.47
556.55	1138.13
556.90	1136.92
557.26	1135.23
557.61	1131.46
557.96	1134.86
558.32	1134.32
558.67	1127.86
559.02	1125.84
559.37	1123.01
559.73	1118.10
560.08	1118.54
560.43	1118.19
560.79	1117.86
561.14	1118.14
561.49	1118.66
561.85	1113.37
562.20	1114.02
562.55	1112.48
562.90	1116.04
563.26	1113.39
563.61	1114.12
563.96	1116.04
564.32	1118.52
564.67	1114.00
565.02	1111.33
565.37	1110.75
565.73	1109.74
566.08	1109.81
566.43	1108.57
566.78	1111.97
567.14	1111.50
567.49	1108.34
567.84	1105.13
568.19	1103.73
568.54	1100.73
568.90	1101.41
569.25	1100.24
569.60	1103.42
569.95	1104.78
570.31	1107.40
570.66	1104.29
571.01	1102.37
571.36	1098.72
571.71	1100.68
572.06	1099.00
572.42	1101.90
572.77	1104.97
573.12	1103.68
573.47	1101.48
573.82	1099.86
574.18	1097.78
574.53	1098.44
574.88	1099.19
575.23	1095.82
575.58	1093.33
575.93	1089.31
576.28	1088.65
576.64	1085.99
576.99	1089.38
577.34	1091.06
577.69	1095.32
578.04	1095.07
578.39	1096.07
578.74	1091.23
579.09	1091.93
579.44	1088.91
579.80	1086.94
580.15	1087.58
580.50	1094.04
580.85	1093.17
581.20	1094.11
581.55	1093.43
581.90	1092.63
582.25	1088.16
582.60	1089.85
582.95	1091.95
583.30	1095.70
583.65	1096.99
584.00	1098.48
584.35	1098.06
584.71	1097.45
585.06	1094.41
585.41	1093.01
585.76	1091.70
586.11	1089.12
586.46	1087.97
586.81	1089.75
587.16	1090.48
587.51	1089.43
587.86	1090.69
588.21	1092.68
588.56	1091.49
588.91	1090.76
589.26	1092.56
589.61	1092.12
589.96	1090.64
590.31	1089.94
590.66	1089.10
591.01	1090.60
591.36	1088.04
591.71	1088.07
592.06	1087.90
592.41	1087.13
592.76	1084.91
593.10	1084.39
593.45	1080.67
593.80	1082.31
594.15	1082.36
594.50	1080.63
594.85	1084.18
595.20	1085.45
595.55	1082.47
595.90	1081.33
596.25	1080.86
596.60	1080.25
596.95	1083.71
597.30	1087.41
597.64	1099.82
597.99	1101.46
598.34	1101.60
598.69	1097.22
599.04	1093.15
599.39	1082.87
599.74	1083.88
600.09	1085.52
600.44	1089.14
600.78	1087.90
601.13	1088.63
601.48	1088.82
601.83	1083.74
602.18	1081.98
602.53	1083.90
602.88	1083.64
603.22	1085.26
603.57	1088.12
603.92	1089.64
604.27	1092.47
604.62	1090.99
604.97	1086.55
605.31	1086.43
605.66	1084.65
606.01	1084.16
606.36	1085.45
606.71	1085.94
607.05	1084.77
607.40	1083.50
607.75	1081.94
608.10	1081.61
608.44	1084.09
608.79	1087.41
609.14	1086.55
609.49	1084.53
609.84	1083.69
610.18	1085.87
610.53	1086.06
610.88	1088.40
611.23	1089.36
611.57	1088.14
611.92	1084.89
612.27	1078.24
612.62	1077.89
612.96	1078.03
613.31	1076.53
613.66	1076.46
614.00	1080.34
614.35	1080.56
614.70	1079.03
615.05	1081.58
615.39	1081.23
615.74	1081.68
616.09	1081.35
616.43	1083.13
616.78	1082.29
617.13	1082.78
617.47	1081.68
617.82	1079.60
618.17	1082.83
618.51	1085.21
618.86	1083.43
619.21	1084.53
619.55	1088.84
619.90	1085.73
620.25	1085.84
620.59	1089.43
620.94	1087.95
621.29	1086.85
621.63	1082.26
621.98	1079.92
622.32	1077.44
622.67	1077.65
623.02	1078.26
623.36	1084.23
623.71	1084.30
624.05	1084.46
624.40	1086.13
624.75	1083.60
625.09	1083.22
625.44	1083.62
625.78	1084.70
626.13	1085.96
626.48	1088.07
626.82	1086.99
627.17	1085.70
627.51	1081.61
627.86	1081.21
628.20	1081.94
628.55	1083.57
628.89	1084.96
629.24	1087.93
629.58	1083.06
629.93	1082.31
630.28	1082.36
630.62	1082.52
630.97	1083.01
631.31	1090.01
631.66	1088.28
632.00	1086.38
632.35	1086.10
632.69	1086.31
633.04	1080.25
633.38	1081.77
633.73	1080.88
634.07	1084.16
634.42	1084.49
634.76	1085.03
635.11	1081.54
635.45	1082.78
635.79	1082.01
636.14	1080.77
636.48	1081.94
636.83	1082.97
637.17	1082.10
637.52	1080.70
637.86	1080.32
638.21	1079.53
638.55	1080.86
638.89	1083.88
639.24	1084.49
639.58	1083.25
639.93	1083.15
640.27	1085.63
640.61	1083.13
640.96	1082.57
641.30	1084.18
641.65	1083.79
641.99	1081.73
642.33	1081.28
642.68	1078.80
643.02	1079.20
643.37	1080.79
643.71	1084.70
644.05	1086.97
644.40	1088.68
644.74	1087.83
645.08	1086.76
645.43	1082.85
645.77	1081.61
646.11	1083.25
646.46	1081.91
646.80	1079.78
647.14	1078.14
647.49	1077.37
647.83	1074.52
648.17	1076.25
648.52	1080.95
648.86	1082.54
649.20	1082.52
649.55	1081.61
649.89	1079.99
650.23	1076.39
650.57	1075.66
650.92	1076.44
651.26	1079.08
651.60	1081.61
651.95	1080.77
652.29	1080.13
652.63	1081.19
652.97	1080.02
653.32	1079.15
653.66	1079.97
654.00	1079.99
654.34	1075.43
654.69	1076.55
655.03	1077.56
655.37	1080.51
655.71	1080.86
656.05	1082.50
656.40	1080.53
656.74	1079.41
657.08	1077.33
657.42	1076.48
657.76	1076.67
658.11	1074.33
658.45	1073.37
658.79	1073.84
659.13	1072.55
659.47	1069.39
659.82	1071.08
660.16	1074.52
660.50	1075.27
660.84	1076.44
661.18	1080.74
661.52	1083.64
661.87	1082.31
662.21	1081.19
662.55	1083.29
662.89	1083.62
663.23	1085.31
663.57	1082.66
663.91	1083.83
664.25	1083.22
664.60	1085.03
664.94	1083.15
665.28	1084.98
665.62	1085.42
665.96	1085.33
666.30	1083.50
666.64	1085.49
666.98	1089.82
667.32	1089.57
667.66	1088.33
668.01	1087.95
668.35	1084.81
668.69	1080.51
669.03	1077.07
669.37	1077.33
669.71	1077.86
670.05	1078.82
670.39	1078.19
670.73	1080.74
671.07	1081.14
671.41	1079.01
671.75	1078.80
672.09	1078.17
672.43	1077.82
672.77	1078.89
673.11	1080.56
673.45	1080.53
673.79	1082.36
674.13	1085.12
674.47	1084.65
674.81	1085.45
675.15	1088.30
675.49	1087.81
675.83	1083.32
676.17	1082.85
676.51	1082.33
676.85	1079.64
677.19	1077.84
677.53	1082.36
677.87	1083.57
678.21	1083.48
678.55	1084.37
678.89	1085.24
679.23	1082.45
679.57	1083.34
679.90	1081.51
680.24	1078.45
680.58	1079.60
680.92	1078.54
681.26	1077.07
681.60	1080.06
681.94	1081.84
682.28	1080.86
682.62	1084.32
682.96	1083.39
683.29	1082.92
683.63	1084.74
683.97	1084.96
684.31	1082.54
684.65	1083.39
684.99	1080.77
685.33	1081.89
685.67	1081.80
686.00	1082.08
686.34	1080.09
686.68	1079.01
687.02	1079.41
687.36	1079.22
687.70	1079.71
688.03	1083.74
688.37	1085.52
688.71	1081.87
689.05	1081.40
689.39	1081.44
689.72	1078.75
690.06	1078.36
690.40	1079.57
690.74	1082.12
691.08	1080.37
691.41	1080.16
691.75	1082.05
692.09	1080.20
692.43	1076.32
692.76	1077.44
693.10	1078.99
693.44	1078.75
693.78	1081.33
694.11	1083.93
694.45	1084.74
694.79	1082.50
695.13	1080.11
695.46	1082.17
695.80	1081.66
696.14	1082.01
696.48	1085.28
696.81	1087.60
697.15	1084.81
697.49	1083.86
697.82	1082.66
698.16	1081.05
698.50	1081.35
698.83	1080.20
699.17	1080.72
699.51	1081.75
699.84	1080.70
700.18	1080.79
700.52	1080.32
700.85	1079.20
701.19	1078.54
701.53	1076.72
701.86	1075.59
702.20	1075.87
702.54	1075.17
702.87	1075.97
703.21	1076.06
703.55	1073.25
703.88	1072.34
704.22	1077.18
704.55	1075.36
704.89	1079.06
705.23	1080.84
705.56	1084.67
705.90	1078.80
706.23	1077.91
706.57	1074.52
706.91	1073.70
707.24	1069.37
707.58	1071.78
707.91	1073.30
708.25	1073.37
708.58	1072.04
708.92	1073.86
709.26	1073.51
709.59	1072.85
709.93	1073.42
710.26	1077.75
710.60	1078.36
710.93	1079.69
711.27	1082.50
711.60	1081.75
711.94	1079.78
712.27	1081.40
712.61	1083.69
712.94	1081.44
713.28	1081.70
713.61	1081.02
713.95	1078.17
714.28	1079.97
714.62	1079.34
714.95	1081.30
715.29	1082.71
715.62	1082.40
715.96	1079.78
716.29	1081.44
716.63	1080.98
716.96	1077.54
717.29	1076.30
717.63	1071.03
717.96	1068.67
718.30	1068.90
718.63	1072.41
718.97	1070.00
719.30	1073.65
719.63	1075.45
719.97	1072.55
720.30	1072.43
720.64	1076.69
720.97	1074.19
721.30	1073.44
721.64	1077.35
721.97	1080.23
722.31	1081.61
722.64	1084.07
722.97	1084.49
723.31	1087.41
723.64	1082.22
723.97	1080.44
724.31	1079.34
724.64	1077.82
724.98	1074.59
725.31	1075.52
725.64	1073.91
725.98	1073.11
726.31	1078.14
726.64	1075.43
726.97	1077.02
727.31	1081.00
727.64	1080.60
727.97	1074.94
728.31	1077.42
728.64	1078.68
728.97	1077.44
729.31	1079.74
729.64	1083.08
729.97	1079.83
730.30	1076.67
730.64	1076.27
730.97	1075.87
731.30	1072.83
731.63	1075.92
731.97	1079.92
732.30	1078.12
732.63	1078.50
732.96	1081.33
733.30	1080.63
733.63	1078.00
733.96	1078.36
734.29	1078.54
734.63	1077.37
734.96	1076.34
735.29	1076.41
735.62	1079.36
735.95	1077.82
736.29	1078.73
736.62	1083.76
736.95	1083.41
737.28	1081.42
737.61	1084.49
737.94	1086.87
738.28	1084.63
738.61	1086.20
738.94	1085.24
739.27	1082.22
739.60	1080.58
739.93	1080.91
740.27	1079.20
740.60	1080.95
740.93	1082.31
741.26	1081.80
741.59	1079.99
741.92	1082.85
742.25	1081.94
742.58	1079.92
742.91	1079.90
743.25	1081.82
743.58	1082.31
743.91	1084.63
744.24	1087.53
744.57	1085.40
744.90	1082.45
745.23	1079.60
745.56	1078.71
745.89	1078.68
746.22	1079.06
746.55	1079.38
746.88	1076.44
747.21	1074.80
747.54	1075.05
747.87	1076.88
748.20	1077.96
748.53	1082.78
748.87	1084.02
749.20	1082.45
749.53	1081.63
749.86	1079.64
750.19	1077.49
750.52	1076.58
750.85	1076.53
751.18	1077.84
751.51	1078.99
751.84	1081.09
752.16	1083.69
752.49	1082.73
752.82	1079.64
753.15	1081.00
753.48	1077.63
753.81	1074.12
754.14	1071.75
754.47	1076.25
754.80	1074.98
755.13	1076.30
755.46	1081.28
755.79	1085.19
756.12	1082.83
756.45	1083.04
756.78	1084.30
757.11	1080.72
757.43	1082.38
757.76	1081.94
758.09	1080.60
758.42	1078.75
758.75	1078.31
759.08	1075.62
759.41	1075.31
759.74	1079.17
760.07	1078.45
760.39	1077.91
760.72	1077.72
761.05	1076.51
761.38	1074.75
761.71	1076.88
762.04	1079.27
762.36	1078.38
762.69	1077.93
763.02	1077.35
763.35	1075.55
763.68	1072.39
