SpectraSuite Data File
++++++++++++++++++++++++++++++++++++
Date: Mon Aug 26 10:22:23 PDT 2019
User: corrico
Dark Spectrum Present: No
Reference Spectrum Present: No
Number of Sampled Component Spectra: 1
Spectrometers: USB2+H06089
Integration Time (usec): 2000 (USB2+H06089)
Spectra Averaged: 20 (USB2+H06089)
Boxcar Smoothing: 2 (USB2+H06089)
Correct for Electrical Dark: No (USB2+H06089)
Strobe/Lamp Enabled: No (USB2+H06089)
Correct for Detector Non-linearity: No (USB2+H06089)
Correct for Stray Light: No (USB2+H06089)
Number of Pixels in Processed Spectrum: 2048
>>>>>Begin Processed Spectral Data<<<<<
339.70	1021.88
340.07	1021.88
340.45	988.38
340.82	967.16
341.19	943.77
341.57	918.12
341.94	908.57
342.31	902.07
342.69	897.10
343.06	893.99
343.43	898.58
343.81	897.10
344.18	900.24
344.55	903.10
344.93	910.00
345.30	913.00
345.67	922.10
346.04	930.69
346.42	940.80
346.79	951.52
347.16	958.29
347.54	967.76
347.91	972.94
348.28	982.98
348.65	990.40
349.03	1002.66
349.40	1012.21
349.77	1024.45
350.14	1029.51
350.52	1036.11
350.89	1041.42
351.26	1045.99
351.63	1051.42
352.01	1055.51
352.38	1061.53
352.75	1064.45
353.12	1069.55
353.50	1073.04
353.87	1081.44
354.24	1083.18
354.61	1088.02
354.98	1091.04
355.36	1091.30
355.73	1086.48
356.10	1082.87
356.47	1082.85
356.84	1079.97
357.22	1080.06
357.59	1082.57
357.96	1084.14
358.33	1081.68
358.70	1078.10
359.08	1082.03
359.45	1081.33
359.82	1081.66
360.19	1081.12
360.56	1083.06
360.94	1081.35
361.31	1080.63
361.68	1081.73
362.05	1080.46
362.42	1080.63
362.79	1078.59
363.16	1080.39
363.54	1076.79
363.91	1077.93
364.28	1077.58
364.65	1074.98
365.02	1072.90
365.39	1075.01
365.76	1077.09
366.14	1078.50
366.51	1080.86
366.88	1082.24
367.25	1084.25
367.62	1079.90
367.99	1078.00
368.36	1075.92
368.73	1074.49
369.10	1072.97
369.48	1075.20
369.85	1075.05
370.22	1072.55
370.59	1074.45
370.96	1073.86
371.33	1075.59
371.70	1077.89
372.07	1081.19
372.44	1080.41
372.81	1083.13
373.18	1078.52
373.55	1073.63
373.93	1073.60
374.30	1072.69
374.67	1069.34
375.04	1071.31
375.41	1073.02
375.78	1075.55
376.15	1077.18
376.52	1077.93
376.89	1077.82
377.26	1081.33
377.63	1081.77
378.00	1079.85
378.37	1078.38
378.74	1078.17
379.11	1075.87
379.48	1071.24
379.85	1073.88
380.22	1074.12
380.59	1075.83
380.96	1079.31
381.33	1078.28
381.70	1074.89
382.07	1074.89
382.44	1072.67
382.81	1068.69
383.18	1071.12
383.55	1074.33
383.92	1077.75
384.29	1081.42
384.66	1084.37
385.03	1087.27
385.40	1084.67
385.77	1087.81
386.14	1086.29
386.51	1086.71
386.88	1085.03
387.25	1087.51
387.62	1084.72
387.99	1084.56
388.36	1083.71
388.73	1081.87
389.10	1081.12
389.46	1080.93
389.83	1085.33
390.20	1085.73
390.57	1088.19
390.94	1088.68
391.31	1087.65
391.68	1086.52
392.05	1085.05
392.42	1084.02
392.79	1082.22
393.16	1082.73
393.53	1080.63
393.89	1083.57
394.26	1083.01
394.63	1085.38
395.00	1084.28
395.37	1084.98
395.74	1083.62
396.11	1088.21
396.48	1091.63
396.84	1091.65
397.21	1093.66
397.58	1092.09
397.95	1091.16
398.32	1087.95
398.69	1091.37
399.06	1089.31
399.42	1089.57
399.79	1089.71
400.16	1090.62
400.53	1086.50
400.90	1086.22
401.27	1090.17
401.64	1089.47
402.00	1092.23
402.37	1093.59
402.74	1097.59
403.11	1099.07
403.48	1096.82
403.84	1093.22
404.21	1094.62
404.58	1090.39
404.95	1088.04
405.32	1088.82
405.68	1088.56
406.05	1089.12
406.42	1090.85
406.79	1090.50
407.16	1092.68
407.52	1093.55
407.89	1095.14
408.26	1095.02
408.63	1096.21
408.99	1098.58
409.36	1097.95
409.73	1098.55
410.10	1097.59
410.47	1095.82
410.83	1094.34
411.20	1095.51
411.57	1091.63
411.94	1091.72
412.30	1089.94
412.67	1088.26
413.04	1088.86
413.40	1091.23
413.77	1091.88
414.14	1092.02
414.51	1092.26
414.87	1093.80
415.24	1093.29
415.61	1095.09
415.97	1100.68
416.34	1103.70
416.71	1105.11
417.08	1107.47
417.44	1110.47
417.81	1108.74
418.18	1107.80
418.54	1107.14
418.91	1110.63
419.28	1109.27
419.64	1110.89
420.01	1112.67
420.38	1111.57
420.74	1111.64
421.11	1111.82
421.48	1114.17
421.84	1114.38
422.21	1118.45
422.58	1116.90
422.94	1118.42
423.31	1120.25
423.68	1125.05
424.04	1125.91
424.41	1129.92
424.77	1136.94
425.14	1140.71
425.51	1144.26
425.87	1150.09
426.24	1155.94
426.61	1158.96
426.97	1164.56
427.34	1169.85
427.70	1176.19
428.07	1182.58
428.44	1188.20
428.80	1195.01
429.17	1203.50
429.53	1213.33
429.90	1223.75
430.27	1234.61
430.63	1245.02
431.00	1254.74
431.36	1262.95
431.73	1272.85
432.09	1287.22
432.46	1299.61
432.83	1316.86
433.19	1333.94
433.56	1350.33
433.92	1368.60
434.29	1389.44
434.65	1411.74
435.02	1439.73
435.38	1466.88
435.75	1494.01
436.11	1527.11
436.48	1555.15
436.84	1588.45
437.21	1625.50
437.57	1661.99
437.94	1702.53
438.30	1752.80
438.67	1799.52
439.03	1853.84
439.40	1913.90
439.76	1965.77
440.13	2020.98
440.49	2085.35
440.86	2143.63
441.22	2212.27
441.59	2289.09
441.95	2374.87
442.32	2454.17
442.68	2551.37
443.05	2649.86
443.41	2749.68
443.78	2846.02
444.14	2958.53
444.51	3069.71
444.87	3202.37
445.24	3344.25
445.60	3499.87
445.96	3658.40
446.33	3836.40
446.69	4001.24
447.06	4181.62
447.42	4364.94
447.79	4556.72
448.15	4769.57
448.51	5000.72
448.88	5267.77
449.24	5510.65
449.61	5800.01
449.97	6086.28
450.33	6376.86
450.70	6629.24
451.06	6958.81
451.43	7257.46
451.79	7616.52
452.15	8022.63
452.52	8492.70
452.88	8966.94
453.24	9508.73
453.61	10084.69
453.97	10648.08
454.34	11192.54
454.70	11838.31
455.06	12477.12
455.43	13114.14
455.79	13717.95
456.15	14434.36
456.52	15099.94
456.88	15874.75
457.24	16592.67
457.61	17450.07
457.97	18235.21
458.33	19007.51
458.70	19778.49
459.06	20557.44
459.42	21381.87
459.79	22161.67
460.15	23074.87
460.51	23949.79
460.88	24888.06
461.24	25686.47
461.60	26637.45
461.96	27520.96
462.33	28372.77
462.69	29159.19
463.05	30026.92
463.42	30742.77
463.78	31382.77
464.14	31903.12
464.50	32490.33
464.87	32959.26
465.23	33318.39
465.59	33680.87
465.95	34023.31
466.32	34286.53
466.68	34511.06
467.04	34664.50
467.40	34809.76
467.77	34961.45
468.13	34943.71
468.49	34859.19
468.85	34784.01
469.22	34616.99
469.58	34278.90
469.94	34040.42
470.30	33733.93
470.66	33324.76
471.03	32711.28
471.39	32321.09
471.75	31685.49
472.11	31086.34
472.47	30720.30
472.84	30434.81
473.20	29940.48
473.56	29682.72
473.92	29270.74
474.28	28751.68
474.65	28253.66
475.01	27766.57
475.37	27185.77
475.73	26704.86
476.09	26179.57
476.45	25654.54
476.81	25149.24
477.18	24601.32
477.54	24146.07
477.90	23776.85
478.26	23342.98
478.62	22977.04
478.98	22672.23
479.34	22360.35
479.71	21935.13
480.07	21583.16
480.43	21227.40
480.79	20847.78
481.15	20487.13
481.51	20190.12
481.87	19951.80
482.23	19657.32
482.59	19414.56
482.96	19124.59
483.32	18828.23
483.68	18441.34
484.04	18092.93
484.40	17710.23
484.76	17333.00
485.12	16957.58
485.48	16639.24
485.84	16283.79
486.20	15923.72
486.56	15553.59
486.92	15228.77
487.28	14872.35
487.64	14516.87
488.00	14186.29
488.37	13862.71
488.73	13513.39
489.09	13158.87
489.45	12856.42
489.81	12542.21
490.17	12258.37
490.53	11971.02
490.89	11667.41
491.25	11352.02
491.61	11039.14
491.97	10707.23
492.33	10381.02
492.69	10086.14
493.05	9783.56
493.41	9501.36
493.77	9221.94
494.13	8964.77
494.49	8709.23
494.85	8477.37
495.21	8249.99
495.57	8041.52
495.93	7819.80
496.29	7616.03
496.64	7420.20
497.00	7217.74
497.36	7028.11
497.72	6846.44
498.08	6659.57
498.44	6484.36
498.80	6315.07
499.16	6147.46
499.52	5990.84
499.88	5858.64
500.24	5730.19
500.60	5605.98
500.96	5482.54
501.32	5363.15
501.68	5244.04
502.03	5114.21
502.39	4988.71
502.75	4855.37
503.11	4728.05
503.47	4606.95
503.83	4487.02
504.19	4367.14
504.55	4261.95
504.91	4170.06
505.26	4071.01
505.62	3984.01
505.98	3901.72
506.34	3814.02
506.70	3719.79
507.06	3627.90
507.42	3542.14
507.78	3455.99
508.13	3372.59
508.49	3294.51
508.85	3229.56
509.21	3159.68
509.57	3093.53
509.93	3029.50
510.28	2959.07
510.64	2889.51
511.00	2826.06
511.36	2767.61
511.72	2712.47
512.07	2672.24
512.43	2623.30
512.79	2570.77
513.15	2521.79
513.51	2474.72
513.86	2424.44
514.22	2384.56
514.58	2344.98
514.94	2304.00
515.30	2267.28
515.65	2230.13
516.01	2199.59
516.37	2173.14
516.73	2147.09
517.08	2118.84
517.44	2090.24
517.80	2057.05
518.16	2026.25
518.51	1994.51
518.87	1966.99
519.23	1938.99
519.59	1915.61
519.94	1884.72
520.30	1862.32
520.66	1836.76
521.01	1815.44
521.37	1790.37
521.73	1772.70
522.09	1751.87
522.44	1734.97
522.80	1718.02
523.16	1697.80
523.51	1674.54
523.87	1656.49
524.23	1637.56
524.58	1614.67
524.94	1597.93
525.30	1585.10
525.65	1570.92
526.01	1550.68
526.37	1537.94
526.72	1524.65
527.08	1511.73
527.44	1495.58
527.79	1484.58
528.15	1471.31
528.51	1459.25
528.86	1445.98
529.22	1432.97
529.58	1422.02
529.93	1410.10
530.29	1397.37
530.65	1387.56
531.00	1378.67
531.36	1372.96
531.71	1366.15
532.07	1358.42
532.43	1351.61
532.78	1345.64
533.14	1333.29
533.49	1325.84
533.85	1321.16
534.21	1310.42
534.56	1305.86
534.92	1302.55
535.27	1294.20
535.63	1286.01
535.98	1279.97
536.34	1271.68
536.69	1266.65
537.05	1262.18
537.41	1255.60
537.76	1250.81
538.12	1244.02
538.47	1237.89
538.83	1232.67
539.18	1235.12
539.54	1233.84
539.89	1231.07
540.25	1225.18
540.60	1221.03
540.96	1212.30
541.31	1206.99
541.67	1205.66
542.02	1203.36
542.38	1202.66
542.73	1197.75
543.09	1196.20
543.44	1189.74
543.80	1188.69
544.15	1186.28
544.51	1185.57
544.86	1179.47
545.22	1180.03
545.57	1175.14
545.93	1168.68
546.28	1166.08
546.64	1167.67
546.99	1161.84
547.35	1161.96
547.70	1165.49
548.05	1164.32
548.41	1161.87
548.76	1164.11
549.12	1162.36
549.47	1156.46
549.83	1152.95
550.18	1150.79
550.53	1145.50
550.89	1143.45
551.24	1146.32
551.60	1145.25
551.95	1142.56
552.30	1142.74
552.66	1142.02
553.01	1135.51
553.37	1132.49
553.72	1134.53
554.07	1135.21
554.43	1131.72
554.78	1130.36
555.13	1129.21
555.49	1129.24
555.84	1127.58
556.19	1124.46
556.55	1123.04
556.90	1120.44
557.26	1117.35
557.61	1114.94
557.96	1117.51
558.32	1115.45
558.67	1117.54
559.02	1111.66
559.37	1109.53
559.73	1109.55
560.08	1112.32
560.43	1110.12
560.79	1113.51
561.14	1117.11
561.49	1117.86
561.85	1114.96
562.20	1114.28
562.55	1113.91
562.90	1111.08
563.26	1107.24
563.61	1106.25
563.96	1103.63
564.32	1102.44
564.67	1102.70
565.02	1106.09
565.37	1109.16
565.73	1115.48
566.08	1117.28
566.43	1113.53
566.78	1110.49
567.14	1108.01
567.49	1100.99
567.84	1097.66
568.19	1099.72
568.54	1100.61
568.90	1101.74
569.25	1106.02
569.60	1104.17
569.95	1103.42
570.31	1101.11
570.66	1096.70
571.01	1095.67
571.36	1096.87
571.71	1096.85
572.06	1097.62
572.42	1100.68
572.77	1098.90
573.12	1098.11
573.47	1096.52
573.82	1094.83
574.18	1092.40
574.53	1093.40
574.88	1095.93
575.23	1095.00
575.58	1095.14
575.93	1097.85
576.28	1097.45
576.64	1094.39
576.99	1095.37
577.34	1096.07
577.69	1093.83
578.04	1096.00
578.39	1098.16
578.74	1094.25
579.09	1091.42
579.44	1093.55
579.80	1090.88
580.15	1090.83
580.50	1097.41
580.85	1095.37
581.20	1095.23
581.55	1093.69
581.90	1094.69
582.25	1092.66
582.60	1098.74
582.95	1096.17
583.30	1096.78
583.65	1092.68
584.00	1092.82
584.35	1090.17
584.71	1088.91
585.06	1090.81
585.41	1089.78
585.76	1089.33
586.11	1089.19
586.46	1090.95
586.81	1089.38
587.16	1093.17
587.51	1091.51
587.86	1093.90
588.21	1092.77
588.56	1093.26
588.91	1089.26
589.26	1089.50
589.61	1083.48
589.96	1084.56
590.31	1083.62
590.66	1085.87
591.01	1086.34
591.36	1088.72
591.71	1084.56
592.06	1085.45
592.41	1084.70
592.76	1084.84
593.10	1083.83
593.45	1087.62
593.80	1087.83
594.15	1087.74
594.50	1088.68
594.85	1091.67
595.20	1089.66
595.55	1089.17
595.90	1091.67
596.25	1088.42
596.60	1085.26
596.95	1087.76
597.30	1085.12
597.64	1093.01
597.99	1093.92
598.34	1095.44
598.69	1093.24
599.04	1092.37
599.39	1081.47
599.74	1079.08
600.09	1079.36
600.44	1080.77
600.78	1083.06
601.13	1082.31
601.48	1087.97
601.83	1087.53
602.18	1086.59
602.53	1085.12
602.88	1085.03
603.22	1080.86
603.57	1080.18
603.92	1080.11
604.27	1080.98
604.62	1083.60
604.97	1082.31
605.31	1083.62
605.66	1084.04
606.01	1084.42
606.36	1084.84
606.71	1086.99
607.05	1085.66
607.40	1084.32
607.75	1084.11
608.10	1082.31
608.44	1085.31
608.79	1087.69
609.14	1086.94
609.49	1086.87
609.84	1086.45
610.18	1082.83
610.53	1079.69
610.88	1082.87
611.23	1082.76
611.57	1080.63
611.92	1082.03
612.27	1081.94
612.62	1081.40
612.96	1079.57
613.31	1082.24
613.66	1081.33
614.00	1082.36
614.35	1079.34
614.70	1081.35
615.05	1080.53
615.39	1080.74
615.74	1078.66
616.09	1079.50
616.43	1081.73
616.78	1084.86
617.13	1086.15
617.47	1085.94
617.82	1088.42
618.17	1085.61
618.51	1085.05
618.86	1087.18
619.21	1090.27
619.55	1087.20
619.90	1088.86
620.25	1087.02
620.59	1081.96
620.94	1079.78
621.29	1084.18
621.63	1084.16
621.98	1082.85
622.32	1082.61
622.67	1084.74
623.02	1080.02
623.36	1079.43
623.71	1082.99
624.05	1084.79
624.40	1082.43
624.75	1083.34
625.09	1083.34
625.44	1080.27
625.78	1079.57
626.13	1079.55
626.48	1080.63
626.82	1079.53
627.17	1078.94
627.51	1079.13
627.86	1079.71
628.20	1079.10
628.55	1079.22
628.89	1080.20
629.24	1084.91
629.58	1085.99
629.93	1086.15
630.28	1087.58
630.62	1088.47
630.97	1085.26
631.31	1086.13
631.66	1091.60
632.00	1092.63
632.35	1093.76
632.69	1095.84
633.04	1093.66
633.38	1088.44
633.73	1087.25
634.07	1088.16
634.42	1083.48
634.76	1085.77
635.11	1086.52
635.45	1087.53
635.79	1084.21
636.14	1088.09
636.48	1085.03
636.83	1083.06
637.17	1080.18
637.52	1082.52
637.86	1080.27
638.21	1084.51
638.55	1084.98
638.89	1086.15
639.24	1085.59
639.58	1086.06
639.93	1081.30
640.27	1082.64
640.61	1082.57
640.96	1080.53
641.30	1078.24
641.65	1080.06
641.99	1078.87
642.33	1078.52
642.68	1076.76
643.02	1076.37
643.37	1076.83
643.71	1077.79
644.05	1078.31
644.40	1080.04
644.74	1082.90
645.08	1083.81
645.43	1084.56
645.77	1083.36
646.11	1085.05
646.46	1085.26
646.80	1086.27
647.14	1085.47
647.49	1085.63
647.83	1085.54
648.17	1082.22
648.52	1081.70
648.86	1082.45
649.20	1082.66
649.55	1082.57
649.89	1085.84
650.23	1083.76
650.57	1083.64
650.92	1085.10
651.26	1084.79
651.60	1083.18
651.95	1083.55
652.29	1081.40
652.63	1080.48
652.97	1083.43
653.32	1084.53
653.66	1083.20
654.00	1087.25
654.34	1087.51
654.69	1083.22
655.03	1083.34
655.37	1085.91
655.71	1084.84
656.05	1084.35
656.40	1086.76
656.74	1083.50
657.08	1082.43
657.42	1080.84
657.76	1081.35
658.11	1079.67
658.45	1081.23
658.79	1077.98
659.13	1078.96
659.47	1076.41
659.82	1079.01
660.16	1079.41
660.50	1083.18
660.84	1082.15
661.18	1082.52
661.52	1080.39
661.87	1082.29
662.21	1079.64
662.55	1079.60
662.89	1082.05
663.23	1080.98
663.57	1080.67
663.91	1084.56
664.25	1082.57
664.60	1078.21
664.94	1076.95
665.28	1075.97
665.62	1076.48
665.96	1077.49
666.30	1081.84
666.64	1080.09
666.98	1080.86
667.32	1079.13
667.66	1081.61
668.01	1081.19
668.35	1084.74
668.69	1085.40
669.03	1084.25
669.37	1084.00
669.71	1083.88
670.05	1083.88
670.39	1082.40
670.73	1079.97
671.07	1075.22
671.41	1072.92
671.75	1072.11
672.09	1072.97
672.43	1078.12
672.77	1081.12
673.11	1084.91
673.45	1085.59
673.79	1083.22
674.13	1083.20
674.47	1083.81
674.81	1081.07
675.15	1079.78
675.49	1079.92
675.83	1079.57
676.17	1077.93
676.51	1078.80
676.85	1079.22
677.19	1078.54
677.53	1076.23
677.87	1076.79
678.21	1076.20
678.55	1076.69
678.89	1077.42
679.23	1080.32
679.57	1082.08
679.90	1082.22
680.24	1082.24
680.58	1083.39
680.92	1081.19
681.26	1081.54
681.60	1080.25
681.94	1082.10
682.28	1084.16
682.62	1084.63
682.96	1085.59
683.29	1083.46
683.63	1083.60
683.97	1081.98
684.31	1081.21
684.65	1077.86
684.99	1081.26
685.33	1080.27
685.67	1078.52
686.00	1079.60
686.34	1080.91
686.68	1079.50
687.02	1077.23
687.36	1077.98
687.70	1077.18
688.03	1076.04
688.37	1076.62
688.71	1075.71
689.05	1077.91
689.39	1077.00
689.72	1077.89
690.06	1079.15
690.40	1082.15
690.74	1079.74
691.08	1082.80
691.41	1083.60
691.75	1082.83
692.09	1081.58
692.43	1083.93
692.76	1080.84
693.10	1080.95
693.44	1084.37
693.78	1085.68
694.11	1085.26
694.45	1088.07
694.79	1086.50
695.13	1084.14
695.46	1085.26
695.80	1085.35
696.14	1083.20
696.48	1084.00
696.81	1082.47
697.15	1080.16
697.49	1080.63
697.82	1076.83
698.16	1075.36
698.50	1076.65
698.83	1077.58
699.17	1077.28
699.51	1080.25
699.84	1077.49
700.18	1078.07
700.52	1074.47
700.85	1075.13
701.19	1076.20
701.53	1080.86
701.86	1080.41
702.20	1082.19
702.54	1082.19
702.87	1083.13
703.21	1082.38
703.55	1080.72
703.88	1085.52
704.22	1086.36
704.55	1085.73
704.89	1086.43
705.23	1085.75
705.56	1079.76
705.90	1080.37
706.23	1078.52
706.57	1079.38
706.91	1080.65
707.24	1083.20
707.58	1078.33
707.91	1081.35
708.25	1081.82
708.58	1081.56
708.92	1078.87
709.26	1080.30
709.59	1076.48
709.93	1073.53
710.26	1075.36
710.60	1079.55
710.93	1080.58
711.27	1082.99
711.60	1086.38
711.94	1086.06
712.27	1085.42
712.61	1082.85
712.94	1080.16
713.28	1077.82
713.61	1075.80
713.95	1076.18
714.28	1078.52
714.62	1082.36
714.95	1081.75
715.29	1083.22
715.62	1079.17
715.96	1079.06
716.29	1078.03
716.63	1074.66
716.96	1075.22
717.29	1078.10
717.63	1079.78
717.96	1079.67
718.30	1086.80
718.63	1084.51
718.97	1085.14
719.30	1084.09
719.63	1083.18
719.97	1080.18
720.30	1080.27
720.64	1078.36
720.97	1076.72
721.30	1074.21
721.64	1074.03
721.97	1075.29
722.31	1075.38
722.64	1075.92
722.97	1081.66
723.31	1076.86
723.64	1076.37
723.97	1074.45
724.31	1072.78
724.64	1067.87
724.98	1072.85
725.31	1075.38
725.64	1078.43
725.98	1077.89
726.31	1081.63
726.64	1082.50
726.97	1077.54
727.31	1078.87
727.64	1078.73
727.97	1076.69
728.31	1074.21
728.64	1073.58
728.97	1072.27
729.31	1073.56
729.64	1072.76
729.97	1073.53
730.30	1077.00
730.64	1076.48
730.97	1078.19
731.30	1077.82
731.63	1079.74
731.97	1078.92
732.30	1081.14
732.63	1077.49
732.96	1078.89
733.30	1076.39
733.63	1078.17
733.96	1074.63
734.29	1076.32
734.63	1075.97
734.96	1076.37
735.29	1074.61
735.62	1076.79
735.95	1077.25
736.29	1073.81
736.62	1076.46
736.95	1076.79
737.28	1076.06
737.61	1076.65
737.94	1081.33
738.28	1078.33
738.61	1076.83
738.94	1077.89
739.27	1080.09
739.60	1079.99
739.93	1081.87
740.27	1083.32
740.60	1083.53
740.93	1079.53
741.26	1079.24
741.59	1079.95
741.92	1078.68
742.25	1077.30
742.58	1082.66
742.91	1083.11
743.25	1081.66
743.58	1082.19
743.91	1083.74
744.24	1080.37
744.57	1080.51
744.90	1081.73
745.23	1081.58
745.56	1079.50
745.89	1077.82
746.22	1079.15
746.55	1078.26
746.88	1081.49
747.21	1081.21
747.54	1082.50
747.87	1078.26
748.20	1079.43
748.53	1075.05
748.87	1075.78
749.20	1073.00
749.53	1077.33
749.86	1077.75
750.19	1080.77
750.52	1080.32
750.85	1079.85
751.18	1075.76
751.51	1072.41
751.84	1070.77
752.16	1068.55
752.49	1073.23
752.82	1072.11
753.15	1070.44
753.48	1071.47
753.81	1075.22
754.14	1075.34
754.47	1078.00
754.80	1080.13
755.13	1080.46
755.46	1080.02
755.79	1077.72
756.12	1076.41
756.45	1078.66
756.78	1078.07
757.11	1078.89
757.43	1078.87
757.76	1080.02
758.09	1080.09
758.42	1080.37
758.75	1080.27
759.08	1080.95
759.41	1082.85
759.74	1082.69
760.07	1082.24
760.39	1081.75
760.72	1081.84
761.05	1080.60
761.38	1078.57
761.71	1078.66
762.04	1078.78
762.36	1079.27
762.69	1080.06
763.02	1083.93
763.35	1085.82
763.68	1085.21
764.01	1086.06
