SpectraSuite Data File
++++++++++++++++++++++++++++++++++++
Date: Mon Aug 26 10:22:34 PDT 2019
User: corrico
Dark Spectrum Present: No
Reference Spectrum Present: No
Number of Sampled Component Spectra: 1
Spectrometers: USB2+H06089
Integration Time (usec): 2000 (USB2+H06089)
Spectra Averaged: 20 (USB2+H06089)
Boxcar Smoothing: 2 (USB2+H06089)
Correct for Electrical Dark: No (USB2+H06089)
Strobe/Lamp Enabled: No (USB2+H06089)
Correct for Detector Non-linearity: No (USB2+H06089)
Correct for Stray Light: No (USB2+H06089)
Number of Pixels in Processed Spectrum: 2048
>>>>>Begin Processed Spectral Data<<<<<
339.70	1023.28
340.07	1023.28
340.45	990.47
340.82	969.47
341.19	947.00
341.57	921.84
341.94	910.07
342.31	903.77
342.69	896.92
343.06	896.26
343.43	896.89
343.81	897.81
344.18	899.00
344.55	905.20
344.93	905.58
345.30	908.78
345.67	914.94
346.04	925.33
346.42	933.41
346.79	945.97
347.16	958.85
347.54	968.65
347.91	976.96
348.28	987.14
348.65	997.04
349.03	1004.93
349.40	1014.43
349.77	1023.09
350.14	1030.12
350.52	1035.27
350.89	1042.92
351.26	1047.34
351.63	1050.67
352.01	1053.50
352.38	1057.50
352.75	1060.10
353.12	1065.44
353.50	1070.61
353.87	1074.89
354.24	1078.73
354.61	1080.84
354.98	1078.57
355.36	1079.55
355.73	1082.99
356.10	1083.76
356.47	1084.44
356.84	1087.79
357.22	1089.68
357.59	1088.19
357.96	1087.27
358.33	1085.84
358.70	1087.25
359.08	1085.75
359.45	1083.57
359.82	1084.02
360.19	1086.31
360.56	1083.93
360.94	1082.05
361.31	1080.79
361.68	1078.52
362.05	1076.23
362.42	1075.66
362.79	1075.99
363.16	1076.37
363.54	1078.33
363.91	1077.98
364.28	1077.18
364.65	1074.54
365.02	1075.55
365.39	1071.26
365.76	1071.29
366.14	1070.07
366.51	1071.05
366.88	1071.85
367.25	1074.96
367.62	1072.04
367.99	1073.84
368.36	1072.81
368.73	1071.94
369.10	1069.84
369.48	1071.36
369.85	1068.71
370.22	1075.34
370.59	1075.55
370.96	1076.25
371.33	1076.83
371.70	1076.62
372.07	1074.17
372.44	1069.84
372.81	1070.14
373.18	1072.69
373.55	1076.79
373.93	1075.17
374.30	1079.31
374.67	1080.46
375.04	1079.92
375.41	1078.45
375.78	1079.48
376.15	1079.74
376.52	1078.43
376.89	1074.42
377.26	1076.11
377.63	1075.83
378.00	1074.75
378.37	1075.48
378.74	1076.27
379.11	1076.08
379.48	1077.14
379.85	1078.75
380.22	1078.00
380.59	1080.23
380.96	1080.11
381.33	1078.66
381.70	1079.62
382.07	1079.76
382.44	1080.32
382.81	1080.39
383.18	1084.65
383.55	1083.46
383.92	1088.61
384.29	1089.73
384.66	1089.80
385.03	1085.10
385.40	1086.20
385.77	1081.84
386.14	1080.70
386.51	1079.38
386.88	1077.51
387.25	1074.66
387.62	1074.24
387.99	1075.52
388.36	1074.80
388.73	1079.76
389.10	1082.08
389.46	1082.78
389.83	1083.83
390.20	1089.17
390.57	1088.14
390.94	1088.82
391.31	1091.25
391.68	1090.67
392.05	1086.80
392.42	1085.77
392.79	1087.51
393.16	1086.64
393.53	1085.99
393.89	1086.83
394.26	1085.07
394.63	1083.71
395.00	1084.18
395.37	1086.08
395.74	1086.24
396.11	1087.83
396.48	1087.53
396.84	1086.62
397.21	1082.78
397.58	1078.61
397.95	1079.24
398.32	1078.54
398.69	1078.64
399.06	1077.21
399.42	1084.07
399.79	1084.58
400.16	1086.41
400.53	1087.65
400.90	1090.83
401.27	1086.50
401.64	1088.70
402.00	1088.26
402.37	1087.18
402.74	1086.78
403.11	1088.98
403.48	1087.58
403.84	1092.00
404.21	1093.40
404.58	1095.93
404.95	1097.22
405.32	1099.30
405.68	1095.07
406.05	1093.22
406.42	1090.48
406.79	1088.09
407.16	1086.48
407.52	1086.31
407.89	1088.14
408.26	1088.21
408.63	1091.39
408.99	1091.86
409.36	1093.47
409.73	1095.30
410.10	1100.43
410.47	1098.81
410.83	1097.45
411.20	1097.78
411.57	1096.47
411.94	1092.75
412.30	1095.35
412.67	1095.67
413.04	1094.97
413.40	1095.07
413.77	1095.39
414.14	1093.43
414.51	1095.49
414.87	1096.54
415.24	1095.79
415.61	1096.00
415.97	1097.97
416.34	1100.96
416.71	1101.29
417.08	1102.58
417.44	1106.72
417.81	1108.57
418.18	1104.64
418.54	1104.05
418.91	1104.76
419.28	1105.55
419.64	1103.16
420.01	1106.32
420.38	1109.84
420.74	1112.39
421.11	1111.80
421.48	1117.18
421.84	1120.63
422.21	1121.35
422.58	1122.68
422.94	1125.80
423.31	1128.75
423.68	1129.45
424.04	1132.73
424.41	1136.80
424.77	1138.25
425.14	1144.08
425.51	1147.99
425.87	1152.76
426.24	1154.77
426.61	1159.95
426.97	1162.19
427.34	1168.79
427.70	1172.49
428.07	1181.24
428.44	1189.51
428.80	1194.35
429.17	1202.97
429.53	1214.88
429.90	1220.94
430.27	1226.79
430.63	1237.39
431.00	1247.08
431.36	1252.09
431.73	1265.36
432.09	1283.34
432.46	1297.57
432.83	1308.45
433.19	1326.87
433.56	1345.11
433.92	1363.03
434.29	1388.20
434.65	1412.47
435.02	1437.16
435.38	1466.58
435.75	1495.09
436.11	1518.94
436.48	1550.42
436.84	1586.51
437.21	1618.88
437.57	1653.49
437.94	1693.99
438.30	1737.57
438.67	1781.52
439.03	1833.08
439.40	1890.24
439.76	1943.63
440.13	2007.45
440.49	2070.67
440.86	2135.43
441.22	2210.05
441.59	2290.07
441.95	2374.03
442.32	2462.76
442.68	2555.98
443.05	2643.28
443.41	2744.32
443.78	2838.63
444.14	2942.47
444.51	3055.05
444.87	3195.84
445.24	3331.66
445.60	3480.00
445.96	3633.26
446.33	3801.12
446.69	3961.19
447.06	4132.64
447.42	4320.37
447.79	4515.17
448.15	4737.67
448.51	4965.77
448.88	5231.21
449.24	5473.79
449.61	5754.14
449.97	6028.99
450.33	6316.83
450.70	6571.26
451.06	6883.00
451.43	7186.61
451.79	7546.96
452.15	7938.21
452.52	8394.75
452.88	8870.09
453.24	9402.70
453.61	9972.04
453.97	10550.55
454.34	11099.87
454.70	11741.88
455.06	12382.30
455.43	12997.95
455.79	13582.32
456.15	14300.84
456.52	14958.79
456.88	15726.08
457.24	16465.72
457.61	17318.28
457.97	18067.60
458.33	18832.00
458.70	19590.99
459.06	20350.61
459.42	21180.05
459.79	21966.16
460.15	22896.43
460.51	23761.68
460.88	24690.31
461.24	25470.51
461.60	26435.79
461.96	27293.74
462.33	28116.72
462.69	28871.00
463.05	29705.33
463.42	30410.09
463.78	31049.03
464.14	31621.43
464.50	32228.12
464.87	32717.04
465.23	33066.39
465.59	33409.91
465.95	33702.24
466.32	33964.80
466.68	34192.77
467.04	34345.21
467.40	34488.03
467.77	34633.59
468.13	34608.87
468.49	34506.19
468.85	34429.80
469.22	34232.14
469.58	33879.30
469.94	33612.74
470.30	33317.83
470.66	32880.90
471.03	32284.39
471.39	31887.18
471.75	31235.57
472.11	30606.44
472.47	30228.95
472.84	29921.43
473.20	29430.97
473.56	29195.49
473.92	28782.11
474.28	28281.28
474.65	27818.16
475.01	27353.23
475.37	26769.34
475.73	26297.86
476.09	25755.58
476.45	25217.33
476.81	24691.46
477.18	24159.69
477.54	23715.62
477.90	23375.89
478.26	22960.30
478.62	22646.46
478.98	22370.61
479.34	22075.37
479.71	21671.56
480.07	21327.22
480.43	20954.35
480.79	20575.51
481.15	20213.38
481.51	19902.35
481.87	19664.32
482.23	19374.74
482.59	19124.10
482.96	18840.05
483.32	18552.84
483.68	18182.45
484.04	17860.46
484.40	17499.23
484.76	17135.95
485.12	16763.69
485.48	16453.54
485.84	16108.74
486.20	15749.56
486.56	15391.99
486.92	15085.43
487.28	14734.33
487.64	14369.91
488.00	14052.23
488.37	13731.95
488.73	13375.62
489.09	13014.90
489.45	12715.43
489.81	12381.69
490.17	12065.84
490.53	11768.49
490.89	11460.50
491.25	11141.70
491.61	10849.30
491.97	10550.01
492.33	10228.73
492.69	9953.81
493.05	9661.59
493.41	9360.81
493.77	9091.55
494.13	8857.69
494.49	8601.23
494.85	8359.13
495.21	8131.14
495.57	7913.47
495.93	7687.56
496.29	7482.01
496.64	7310.36
497.00	7133.25
497.36	6940.48
497.72	6758.79
498.08	6588.68
498.44	6404.64
498.80	6237.79
499.16	6075.31
499.52	5922.05
499.88	5783.89
500.24	5653.92
500.60	5525.70
500.96	5412.35
501.32	5304.40
501.68	5187.10
502.03	5062.91
502.39	4943.35
502.75	4813.24
503.11	4683.76
503.47	4563.34
503.83	4442.27
504.19	4315.85
504.55	4208.19
504.91	4114.33
505.26	4016.27
505.62	3925.99
505.98	3839.60
506.34	3750.45
506.70	3653.08
507.06	3563.91
507.42	3483.26
507.78	3413.25
508.13	3338.38
508.49	3264.35
508.85	3195.23
509.21	3128.62
509.57	3059.36
509.93	2991.77
510.28	2929.06
510.64	2865.35
511.00	2800.22
511.36	2741.45
511.72	2688.90
512.07	2643.61
512.43	2594.11
512.79	2547.49
513.15	2497.56
513.51	2450.33
513.86	2402.44
514.22	2364.53
514.58	2323.89
514.94	2292.51
515.30	2256.18
515.65	2220.00
516.01	2186.39
516.37	2155.49
516.73	2118.14
517.08	2089.40
517.44	2058.69
517.80	2025.08
518.16	1995.33
518.51	1974.08
518.87	1946.46
519.23	1922.63
519.59	1903.18
519.94	1875.99
520.30	1845.37
520.66	1820.96
521.01	1801.23
521.37	1776.79
521.73	1762.31
522.09	1744.92
522.44	1729.28
522.80	1707.89
523.16	1690.29
523.51	1668.26
523.87	1649.26
524.23	1631.49
524.58	1613.07
524.94	1591.05
525.30	1570.66
525.65	1556.36
526.01	1536.00
526.37	1517.23
526.72	1508.38
527.08	1497.10
527.44	1482.50
527.79	1469.97
528.15	1457.40
528.51	1445.91
528.86	1437.58
529.22	1426.86
529.58	1416.73
529.93	1410.45
530.29	1399.20
530.65	1386.44
531.00	1376.89
531.36	1369.52
531.71	1357.74
532.07	1350.61
532.43	1344.50
532.78	1335.84
533.14	1330.62
533.49	1327.60
533.85	1317.98
534.21	1314.40
534.56	1306.35
534.92	1296.98
535.27	1289.56
535.63	1283.69
535.98	1273.58
536.34	1273.30
536.69	1269.06
537.05	1260.68
537.41	1255.79
537.76	1249.07
538.12	1243.41
538.47	1238.89
538.83	1238.26
539.18	1234.28
539.54	1232.39
539.89	1226.49
540.25	1223.89
540.60	1221.41
540.96	1215.70
541.31	1212.75
541.67	1209.89
542.02	1203.76
542.38	1198.42
542.73	1195.38
543.09	1192.81
543.44	1190.98
543.80	1190.37
544.15	1189.76
544.51	1188.24
544.86	1186.70
545.22	1180.05
545.57	1177.24
545.93	1173.03
546.28	1169.61
546.64	1163.76
546.99	1162.50
547.35	1160.53
547.70	1158.85
548.05	1157.07
548.41	1156.08
548.76	1155.41
549.12	1153.95
549.47	1150.40
549.83	1149.32
550.18	1145.67
550.53	1142.51
550.89	1139.84
551.24	1139.63
551.60	1140.96
551.95	1139.77
552.30	1138.51
552.66	1137.15
553.01	1134.60
553.37	1130.62
553.72	1132.35
554.07	1134.43
554.43	1131.09
554.78	1127.69
555.13	1128.89
555.49	1127.20
555.84	1125.28
556.19	1127.25
556.55	1130.90
556.90	1128.54
557.26	1125.77
557.61	1123.43
557.96	1123.67
558.32	1117.68
558.67	1116.44
559.02	1115.76
559.37	1116.55
559.73	1111.73
560.08	1115.55
560.43	1115.34
560.79	1115.55
561.14	1113.58
561.49	1112.74
561.85	1108.15
562.20	1107.52
562.55	1108.55
562.90	1104.99
563.26	1105.44
563.61	1106.44
563.96	1106.18
564.32	1103.47
564.67	1105.11
565.02	1106.65
565.37	1107.45
565.73	1106.30
566.08	1109.46
566.43	1111.10
566.78	1109.62
567.14	1110.19
567.49	1108.74
567.84	1107.21
568.19	1104.99
568.54	1103.73
568.90	1100.38
569.25	1099.49
569.60	1097.76
569.95	1097.36
570.31	1098.06
570.66	1098.86
571.01	1099.91
571.36	1099.84
571.71	1099.14
572.06	1099.72
572.42	1099.05
572.77	1101.69
573.12	1100.05
573.47	1099.61
573.82	1095.51
574.18	1096.68
574.53	1091.09
574.88	1090.17
575.23	1090.62
575.58	1093.12
575.93	1092.33
576.28	1093.03
576.64	1096.33
576.99	1095.18
577.34	1095.58
577.69	1095.67
578.04	1096.73
578.39	1095.07
578.74	1096.49
579.09	1095.67
579.44	1096.17
579.80	1093.78
580.15	1093.03
580.50	1089.82
580.85	1089.10
581.20	1087.18
581.55	1088.09
581.90	1089.43
582.25	1089.24
582.60	1088.28
582.95	1089.47
583.30	1090.13
583.65	1087.58
584.00	1087.58
584.35	1086.97
584.71	1085.70
585.06	1085.05
585.41	1086.71
585.76	1087.60
586.11	1089.26
586.46	1090.76
586.81	1091.02
587.16	1090.24
587.51	1092.84
587.86	1093.29
588.21	1091.95
588.56	1091.30
588.91	1088.96
589.26	1087.93
589.61	1086.69
589.96	1083.01
590.31	1081.07
590.66	1082.64
591.01	1081.77
591.36	1083.95
591.71	1087.93
592.06	1089.78
592.41	1092.59
592.76	1094.41
593.10	1092.47
593.45	1090.71
593.80	1091.86
594.15	1087.83
594.50	1084.86
594.85	1082.66
595.20	1083.04
595.55	1080.18
595.90	1082.83
596.25	1081.23
596.60	1083.43
596.95	1081.35
597.30	1081.09
597.64	1089.50
597.99	1093.73
598.34	1092.77
598.69	1092.30
599.04	1093.78
599.39	1083.11
599.74	1082.33
600.09	1082.31
600.44	1086.38
600.78	1085.63
601.13	1089.87
601.48	1087.83
601.83	1088.65
602.18	1082.73
602.53	1082.85
602.88	1080.95
603.22	1081.87
603.57	1081.51
603.92	1088.19
604.27	1085.96
604.62	1085.49
604.97	1086.62
605.31	1086.69
605.66	1085.12
606.01	1088.30
606.36	1087.18
606.71	1086.36
607.05	1085.63
607.40	1082.54
607.75	1081.14
608.10	1079.62
608.44	1079.03
608.79	1079.31
609.14	1082.22
609.49	1083.60
609.84	1086.87
610.18	1088.42
610.53	1089.57
610.88	1089.57
611.23	1087.13
611.57	1086.27
611.92	1085.07
612.27	1083.13
612.62	1079.74
612.96	1082.03
613.31	1079.57
613.66	1079.29
614.00	1078.87
614.35	1083.22
614.70	1084.32
615.05	1084.46
615.39	1085.70
615.74	1086.71
616.09	1083.41
616.43	1083.22
616.78	1082.61
617.13	1082.78
617.47	1082.71
617.82	1082.15
618.17	1078.94
618.51	1079.71
618.86	1077.33
619.21	1078.07
619.55	1080.44
619.90	1084.46
620.25	1085.07
620.59	1083.81
620.94	1082.85
621.29	1085.19
621.63	1082.99
621.98	1081.00
622.32	1083.81
622.67	1085.35
623.02	1080.16
623.36	1077.91
623.71	1081.91
624.05	1082.69
624.40	1082.52
624.75	1084.53
625.09	1086.97
625.44	1086.59
625.78	1090.55
626.13	1090.39
626.48	1089.26
626.82	1089.71
627.17	1085.45
627.51	1080.70
627.86	1081.19
628.20	1084.46
628.55	1085.52
628.89	1088.75
629.24	1089.50
629.58	1089.52
629.93	1087.79
630.28	1084.77
630.62	1086.34
630.97	1083.95
631.31	1081.66
631.66	1083.01
632.00	1082.80
632.35	1081.96
632.69	1085.28
633.04	1084.77
633.38	1082.90
633.73	1084.96
634.07	1082.54
634.42	1081.84
634.76	1084.30
635.11	1082.87
635.45	1085.59
635.79	1085.63
636.14	1082.15
636.48	1079.76
636.83	1082.52
637.17	1080.13
637.52	1079.71
637.86	1080.63
638.21	1082.94
638.55	1080.98
638.89	1081.91
639.24	1084.77
639.58	1085.99
639.93	1084.81
640.27	1084.65
640.61	1083.69
640.96	1081.21
641.30	1081.63
641.65	1083.22
641.99	1085.31
642.33	1083.90
642.68	1086.76
643.02	1087.06
643.37	1084.04
643.71	1084.89
644.05	1084.93
644.40	1083.41
644.74	1083.06
645.08	1086.41
645.43	1085.77
645.77	1086.94
646.11	1085.45
646.46	1085.96
646.80	1081.82
647.14	1081.68
647.49	1078.43
647.83	1076.67
648.17	1075.73
648.52	1077.51
648.86	1077.40
649.20	1079.88
649.55	1084.79
649.89	1083.20
650.23	1083.64
650.57	1084.04
650.92	1086.55
651.26	1084.93
651.60	1085.24
651.95	1087.39
652.29	1085.38
652.63	1084.70
652.97	1084.25
653.32	1084.53
653.66	1084.39
654.00	1088.47
654.34	1087.88
654.69	1090.13
655.03	1088.47
655.37	1085.87
655.71	1081.40
656.05	1083.57
656.40	1080.81
656.74	1085.10
657.08	1081.33
657.42	1082.45
657.76	1078.03
658.11	1078.99
658.45	1075.34
658.79	1078.21
659.13	1076.58
659.47	1077.75
659.82	1076.15
660.16	1078.61
660.50	1080.70
660.84	1081.19
661.18	1080.91
661.52	1081.94
661.87	1080.58
662.21	1080.93
662.55	1084.02
662.89	1083.88
663.23	1083.43
663.57	1084.63
663.91	1081.61
664.25	1080.63
664.60	1080.60
664.94	1079.41
665.28	1078.59
665.62	1077.70
665.96	1076.88
666.30	1076.27
666.64	1078.96
666.98	1080.23
667.32	1084.37
667.66	1082.03
668.01	1083.36
668.35	1081.96
668.69	1079.97
669.03	1080.74
669.37	1081.14
669.71	1081.91
670.05	1081.58
670.39	1079.55
670.73	1074.87
671.07	1077.23
671.41	1074.54
671.75	1073.00
672.09	1073.72
672.43	1074.54
672.77	1070.42
673.11	1073.25
673.45	1077.33
673.79	1079.99
674.13	1082.99
674.47	1084.93
674.81	1084.21
675.15	1083.55
675.49	1081.33
675.83	1080.81
676.17	1082.66
676.51	1083.95
676.85	1078.24
677.19	1082.31
677.53	1080.58
677.87	1081.44
678.21	1079.81
678.55	1084.09
678.89	1079.20
679.23	1080.25
679.57	1080.09
679.90	1081.00
680.24	1079.95
680.58	1080.46
680.92	1082.10
681.26	1080.72
681.60	1077.61
681.94	1079.90
682.28	1084.28
682.62	1083.13
682.96	1083.11
683.29	1087.18
683.63	1087.79
683.97	1082.61
684.31	1080.27
684.65	1079.15
684.99	1074.28
685.33	1070.51
685.67	1075.13
686.00	1076.58
686.34	1078.21
686.68	1082.29
687.02	1082.61
687.36	1079.34
687.70	1079.85
688.03	1080.53
688.37	1078.89
688.71	1080.23
689.05	1079.99
689.39	1079.55
689.72	1077.70
690.06	1077.54
690.40	1076.15
690.74	1076.37
691.08	1075.43
691.41	1076.11
691.75	1075.24
692.09	1076.55
692.43	1079.83
692.76	1078.85
693.10	1080.16
693.44	1081.49
693.78	1082.36
694.11	1082.52
694.45	1083.20
694.79	1083.36
695.13	1083.71
695.46	1084.39
695.80	1084.25
696.14	1085.19
696.48	1083.25
696.81	1081.58
697.15	1077.37
697.49	1077.65
697.82	1076.41
698.16	1073.53
698.50	1075.57
698.83	1079.78
699.17	1077.09
699.51	1078.03
699.84	1082.24
700.18	1078.59
700.52	1077.49
700.85	1081.30
701.19	1082.05
701.53	1079.53
701.86	1084.96
702.20	1084.51
702.54	1079.67
702.87	1079.62
703.21	1082.94
703.55	1080.88
703.88	1082.47
704.22	1084.18
704.55	1086.55
704.89	1083.46
705.23	1082.45
705.56	1081.89
705.90	1079.76
706.23	1076.27
706.57	1077.28
706.91	1077.11
707.24	1078.31
707.58	1080.91
707.91	1078.33
708.25	1081.02
708.58	1081.96
708.92	1080.32
709.26	1078.64
709.59	1080.53
709.93	1077.00
710.26	1074.77
710.60	1075.85
710.93	1076.95
711.27	1077.09
711.60	1077.82
711.94	1080.72
712.27	1079.38
712.61	1079.01
712.94	1081.47
713.28	1080.65
713.61	1080.48
713.95	1080.09
714.28	1082.12
714.62	1079.17
714.95	1078.52
715.29	1078.43
715.62	1079.97
715.96	1079.62
716.29	1082.71
716.63	1082.73
716.96	1085.14
717.29	1081.98
717.63	1081.96
717.96	1077.77
718.30	1079.24
718.63	1076.11
718.97	1079.43
719.30	1077.58
719.63	1079.31
719.97	1080.60
720.30	1080.93
720.64	1078.57
720.97	1081.84
721.30	1084.63
721.64	1083.22
721.97	1085.05
722.31	1088.28
722.64	1085.66
722.97	1085.17
723.31	1083.81
723.64	1081.68
723.97	1078.54
724.31	1075.52
724.64	1074.54
724.98	1077.16
725.31	1076.04
725.64	1077.49
725.98	1078.61
726.31	1077.96
726.64	1078.40
726.97	1081.42
727.31	1078.92
727.64	1082.73
727.97	1085.35
728.31	1082.57
728.64	1081.23
728.97	1081.98
729.31	1079.01
729.64	1076.13
729.97	1078.03
730.30	1077.42
730.64	1081.12
730.97	1085.40
731.30	1085.14
731.63	1085.73
731.97	1084.81
732.30	1085.12
732.63	1082.78
732.96	1080.18
733.30	1078.94
733.63	1078.57
733.96	1074.35
734.29	1076.15
734.63	1077.40
734.96	1076.79
735.29	1077.96
735.62	1078.87
735.95	1077.02
736.29	1079.13
736.62	1081.07
736.95	1079.20
737.28	1080.86
737.61	1078.07
737.94	1078.31
738.28	1076.90
738.61	1077.91
738.94	1077.44
739.27	1076.37
739.60	1074.77
739.93	1074.68
740.27	1075.71
740.60	1074.94
740.93	1075.34
741.26	1078.59
741.59	1080.11
741.92	1079.62
742.25	1079.97
742.58	1082.71
742.91	1080.32
743.25	1078.10
743.58	1077.56
743.91	1076.46
744.24	1076.34
744.57	1078.89
744.90	1080.18
745.23	1080.06
745.56	1080.09
745.89	1079.74
746.22	1078.52
746.55	1078.57
746.88	1079.78
747.21	1082.12
747.54	1080.88
747.87	1080.13
748.20	1080.70
748.53	1078.59
748.87	1078.50
749.20	1079.53
749.53	1078.54
749.86	1075.94
750.19	1075.87
750.52	1073.56
750.85	1071.22
751.18	1071.40
751.51	1076.30
751.84	1077.72
752.16	1077.68
752.49	1079.24
752.82	1078.05
753.15	1077.68
753.48	1080.88
753.81	1080.91
754.14	1084.44
754.47	1087.30
754.80	1083.43
755.13	1082.38
755.46	1082.33
755.79	1078.33
756.12	1077.40
756.45	1078.80
756.78	1078.87
757.11	1077.63
757.43	1078.82
757.76	1077.37
758.09	1078.14
758.42	1076.30
758.75	1079.01
759.08	1080.46
759.41	1083.08
759.74	1080.67
760.07	1081.47
760.39	1080.58
760.72	1077.75
761.05	1075.99
761.38	1078.10
761.71	1075.29
762.04	1075.57
762.36	1079.85
762.69	1082.94
763.02	1080.81
763.35	1084.77
763.68	1084.37
764.01	1083.69
