SpectraSuite Data File
++++++++++++++++++++++++++++++++++++
Date: Mon Aug 26 10:22:10 PDT 2019
User: corrico
Dark Spectrum Present: No
Reference Spectrum Present: No
Number of Sampled Component Spectra: 1
Spectrometers: USB2+H06089
Integration Time (usec): 2000 (USB2+H06089)
Spectra Averaged: 20 (USB2+H06089)
Boxcar Smoothing: 2 (USB2+H06089)
Correct for Electrical Dark: No (USB2+H06089)
Strobe/Lamp Enabled: No (USB2+H06089)
Correct for Detector Non-linearity: No (USB2+H06089)
Correct for Stray Light: No (USB2+H06089)
Number of Pixels in Processed Spectrum: 2048
>>>>>Begin Processed Spectral Data<<<<<
339.70	1024.22
340.07	1024.22
340.45	991.76
340.82	969.82
341.19	948.53
341.57	925.61
341.94	915.50
342.31	911.12
342.69	907.66
343.06	905.93
343.43	904.34
343.81	902.51
344.18	900.94
344.55	905.74
344.93	906.70
345.30	910.61
345.67	920.44
346.04	929.01
346.42	936.26
346.79	946.77
347.16	956.69
347.54	962.78
347.91	974.81
348.28	980.85
348.65	992.41
349.03	1001.73
349.40	1011.28
349.77	1016.03
350.14	1027.57
350.52	1031.71
350.89	1037.61
351.26	1045.03
351.63	1054.08
352.01	1057.88
352.38	1058.65
352.75	1061.97
353.12	1063.89
353.50	1065.44
353.87	1071.10
354.24	1076.93
354.61	1079.71
354.98	1081.33
355.36	1080.13
355.73	1077.28
356.10	1079.08
356.47	1083.62
356.84	1084.63
357.22	1088.89
357.59	1087.83
357.96	1093.40
358.33	1092.23
358.70	1091.16
359.08	1088.70
359.45	1089.03
359.82	1083.15
360.19	1082.59
360.56	1083.88
360.94	1081.40
361.31	1083.74
361.68	1080.58
362.05	1080.16
362.42	1078.73
362.79	1081.94
363.16	1079.88
363.54	1080.93
363.91	1076.74
364.28	1074.91
364.65	1071.73
365.02	1073.72
365.39	1073.04
365.76	1073.09
366.14	1073.93
366.51	1076.58
366.88	1073.67
367.25	1075.13
367.62	1077.79
367.99	1076.65
368.36	1075.92
368.73	1079.50
369.10	1078.75
369.48	1078.21
369.85	1078.43
370.22	1076.08
370.59	1074.47
370.96	1076.06
371.33	1075.20
371.70	1075.64
372.07	1076.79
372.44	1079.22
372.81	1077.63
373.18	1077.72
373.55	1079.20
373.93	1079.92
374.30	1078.28
374.67	1080.88
375.04	1080.41
375.41	1079.55
375.78	1081.16
376.15	1082.54
376.52	1082.12
376.89	1084.23
377.26	1084.11
377.63	1084.42
378.00	1083.71
378.37	1081.40
378.74	1079.97
379.11	1081.98
379.48	1079.99
379.85	1077.33
380.22	1077.04
380.59	1074.73
380.96	1074.21
381.33	1074.00
381.70	1070.56
382.07	1075.87
382.44	1082.66
382.81	1080.98
383.18	1082.54
383.55	1088.61
383.92	1082.76
384.29	1078.10
384.66	1078.40
385.03	1079.92
385.40	1078.17
385.77	1081.98
386.14	1083.69
386.51	1085.59
386.88	1081.84
387.25	1082.83
387.62	1080.70
387.99	1082.33
388.36	1083.25
388.73	1086.62
389.10	1086.90
389.46	1088.16
389.83	1085.49
390.20	1084.72
390.57	1083.93
390.94	1083.97
391.31	1084.51
391.68	1086.34
392.05	1085.94
392.42	1085.49
392.79	1087.04
393.16	1087.95
393.53	1088.68
393.89	1088.72
394.26	1089.61
394.63	1089.12
395.00	1087.51
395.37	1088.04
395.74	1088.93
396.11	1089.29
396.48	1087.81
396.84	1087.74
397.21	1088.56
397.58	1089.87
397.95	1088.96
398.32	1090.69
398.69	1093.83
399.06	1092.56
399.42	1092.59
399.79	1095.23
400.16	1094.69
400.53	1093.94
400.90	1095.16
401.27	1095.86
401.64	1094.50
402.00	1093.57
402.37	1094.67
402.74	1094.27
403.11	1097.62
403.48	1097.52
403.84	1099.63
404.21	1097.22
404.58	1096.35
404.95	1090.78
405.32	1089.45
405.68	1088.26
406.05	1091.32
406.42	1091.30
406.79	1094.04
407.16	1095.70
407.52	1096.05
407.89	1092.77
408.26	1092.91
408.63	1092.09
408.99	1093.45
409.36	1095.37
409.73	1098.27
410.10	1098.51
410.47	1099.35
410.83	1098.32
411.20	1095.91
411.57	1092.12
411.94	1093.12
412.30	1092.87
412.67	1098.58
413.04	1098.09
413.40	1101.08
413.77	1100.96
414.14	1104.41
414.51	1101.50
414.87	1104.15
415.24	1105.08
415.61	1108.90
415.97	1105.18
416.34	1107.21
416.71	1109.30
417.08	1110.14
417.44	1107.92
417.81	1110.65
418.18	1110.07
418.54	1111.57
418.91	1111.10
419.28	1112.39
419.64	1113.23
420.01	1114.52
420.38	1114.31
420.74	1119.57
421.11	1124.49
421.48	1127.88
421.84	1129.07
422.21	1134.81
422.58	1135.98
422.94	1135.14
423.31	1137.71
423.68	1141.22
424.04	1139.70
424.41	1142.46
424.77	1150.65
425.14	1153.95
425.51	1156.39
425.87	1165.84
426.24	1172.66
426.61	1175.02
426.97	1180.19
427.34	1188.71
427.70	1192.64
428.07	1197.75
428.44	1206.87
428.80	1217.38
429.17	1226.77
429.53	1236.41
429.90	1251.37
430.27	1263.44
430.63	1277.35
431.00	1289.47
431.36	1308.57
431.73	1323.64
432.09	1337.92
432.46	1355.83
432.83	1376.40
433.19	1392.78
433.56	1412.72
433.92	1440.62
434.29	1467.59
434.65	1494.29
435.02	1525.58
435.38	1559.62
435.75	1591.12
436.11	1628.22
436.48	1670.81
436.84	1714.02
437.21	1754.49
437.57	1802.31
437.94	1852.30
438.30	1902.67
438.67	1963.76
439.03	2027.91
439.40	2098.64
439.76	2168.79
440.13	2247.78
440.49	2321.53
440.86	2403.80
441.22	2486.84
441.59	2575.15
441.95	2668.47
442.32	2771.97
442.68	2887.33
443.05	3005.81
443.41	3132.74
443.78	3266.19
444.14	3407.21
444.51	3547.06
444.87	3709.26
445.24	3874.97
445.60	4054.81
445.96	4242.15
446.33	4456.94
446.69	4661.53
447.06	4879.69
447.42	5105.67
447.79	5339.21
448.15	5599.15
448.51	5866.37
448.88	6180.35
449.24	6483.87
449.61	6839.44
449.97	7187.01
450.33	7576.48
450.70	7938.63
451.06	8369.55
451.43	8768.96
451.79	9225.10
452.15	9713.41
452.52	10254.05
452.88	10801.24
453.24	11419.80
453.61	12130.95
453.97	12830.54
454.34	13520.83
454.70	14334.54
455.06	15142.77
455.43	15890.39
455.79	16573.36
456.15	17366.75
456.52	18112.40
456.88	19032.16
457.24	19935.02
457.61	21049.44
457.97	22116.94
458.33	23205.19
458.70	24243.92
459.06	25246.17
459.42	26267.25
459.79	27189.82
460.15	28230.02
460.51	29212.32
460.88	30295.24
461.24	31267.80
461.60	32417.85
461.96	33457.61
462.33	34484.05
462.69	35522.54
463.05	36622.43
463.42	37605.88
463.78	38547.43
464.14	39308.38
464.50	40036.03
464.87	40568.55
465.23	40914.62
465.59	41316.17
465.95	41640.99
466.32	41879.56
466.68	42136.08
467.04	42309.42
467.40	42319.09
467.77	42414.39
468.13	42328.38
468.49	42137.90
468.85	42015.19
469.22	41868.35
469.58	41622.43
469.94	41482.88
470.30	41290.26
470.66	40946.17
471.03	40459.93
471.39	40093.66
471.75	39371.32
472.11	38642.17
472.47	38143.94
472.84	37617.84
473.20	36891.24
473.56	36491.08
473.92	35918.77
474.28	35274.07
474.65	34609.71
475.01	33928.20
475.37	33105.22
475.73	32418.85
476.09	31710.26
476.45	31086.69
476.81	30535.64
477.18	29997.71
477.54	29537.19
477.90	29104.51
478.26	28534.85
478.62	28023.14
478.98	27569.19
479.34	27143.17
479.71	26581.67
480.07	26157.10
480.43	25708.37
480.79	25232.92
481.15	24747.49
481.51	24384.71
481.87	24072.95
482.23	23738.30
482.59	23408.31
482.96	23099.75
483.32	22782.61
483.68	22373.09
484.04	22012.20
484.40	21618.85
484.76	21186.60
485.12	20738.95
485.48	20300.61
485.84	19811.04
486.20	19367.39
486.56	18935.26
486.92	18550.62
487.28	18163.10
487.64	17757.71
488.00	17373.66
488.37	16999.12
488.73	16572.56
489.09	16119.18
489.45	15705.67
489.81	15257.93
490.17	14806.65
490.53	14401.08
490.89	13996.31
491.25	13584.40
491.61	13202.56
491.97	12807.76
492.33	12395.62
492.69	12031.64
493.05	11697.18
493.41	11371.82
493.77	11061.32
494.13	10764.10
494.49	10465.87
494.85	10177.16
495.21	9905.01
495.57	9653.80
495.93	9398.94
496.29	9154.87
496.64	8937.55
497.00	8685.56
497.36	8428.64
497.72	8185.84
498.08	7962.15
498.44	7727.26
498.80	7515.58
499.16	7313.64
499.52	7118.39
499.88	6936.95
500.24	6767.03
500.60	6610.16
500.96	6457.00
501.32	6307.23
501.68	6143.56
502.03	5967.43
502.39	5805.68
502.75	5635.75
503.11	5476.32
503.47	5336.37
503.83	5208.25
504.19	5072.74
504.55	4956.69
504.91	4843.74
505.26	4730.55
505.62	4614.02
505.98	4506.30
506.34	4388.86
506.70	4272.55
507.06	4165.43
507.42	4065.44
507.78	3975.70
508.13	3895.12
508.49	3815.71
508.85	3736.62
509.21	3650.79
509.57	3560.47
509.93	3467.36
510.28	3379.97
510.64	3295.99
511.00	3223.88
511.36	3147.01
511.72	3083.14
512.07	3022.87
512.43	2961.01
512.79	2898.75
513.15	2843.54
513.51	2782.97
513.86	2724.71
514.22	2672.12
514.58	2620.56
514.94	2571.85
515.30	2526.89
515.65	2482.54
516.01	2439.54
516.37	2402.04
516.73	2364.88
517.08	2328.53
517.44	2289.56
517.80	2250.96
518.16	2209.84
518.51	2175.72
518.87	2140.37
519.23	2112.80
519.59	2082.77
519.94	2054.12
520.30	2025.85
520.66	1996.10
521.01	1965.44
521.37	1940.30
521.73	1913.20
522.09	1883.41
522.44	1859.65
522.80	1838.14
523.16	1814.69
523.51	1792.15
523.87	1773.63
524.23	1751.70
524.58	1729.80
524.94	1711.68
525.30	1693.92
525.65	1675.05
526.01	1658.92
526.37	1644.86
526.72	1623.47
527.08	1603.85
527.44	1586.58
527.79	1574.67
528.15	1555.33
528.51	1539.77
528.86	1531.06
529.22	1517.14
529.58	1496.73
529.93	1483.97
530.29	1475.64
530.65	1460.96
531.00	1449.96
531.36	1441.33
531.71	1427.70
532.07	1414.99
532.43	1407.34
532.78	1396.83
533.14	1390.51
533.49	1379.86
533.85	1370.15
534.21	1353.88
534.56	1347.00
534.92	1337.29
535.27	1332.98
535.63	1326.71
535.98	1323.60
536.34	1316.41
536.69	1307.35
537.05	1300.19
537.41	1290.36
537.76	1283.11
538.12	1270.33
538.47	1266.09
538.83	1263.12
539.18	1262.16
539.54	1260.17
539.89	1261.17
540.25	1259.04
540.60	1253.38
540.96	1247.18
541.31	1240.16
541.67	1234.23
542.02	1227.03
542.38	1221.83
542.73	1217.13
543.09	1214.86
543.44	1212.35
543.80	1212.02
544.15	1208.84
544.51	1207.95
544.86	1204.84
545.22	1203.20
545.57	1198.21
545.93	1196.01
546.28	1191.99
546.64	1190.84
546.99	1185.76
547.35	1180.85
547.70	1180.38
548.05	1177.80
548.41	1175.60
548.76	1173.24
549.12	1173.40
549.47	1169.50
549.83	1170.36
550.18	1170.41
550.53	1168.68
550.89	1166.22
551.24	1164.14
551.60	1161.14
551.95	1155.90
552.30	1153.56
552.66	1149.74
553.01	1146.68
553.37	1143.40
553.72	1140.75
554.07	1143.38
554.43	1147.52
554.78	1148.24
555.13	1147.56
555.49	1147.47
555.84	1143.87
556.19	1138.58
556.55	1135.37
556.90	1130.46
557.26	1127.48
557.61	1124.58
557.96	1124.32
558.32	1122.87
558.67	1123.93
559.02	1124.96
559.37	1123.20
559.73	1119.83
560.08	1120.32
560.43	1121.21
560.79	1118.17
561.14	1121.47
561.49	1122.71
561.85	1122.66
562.20	1120.93
562.55	1121.42
562.90	1120.30
563.26	1118.26
563.61	1115.36
563.96	1112.83
564.32	1114.21
564.67	1106.51
565.02	1106.49
565.37	1109.20
565.73	1112.01
566.08	1110.79
566.43	1114.73
566.78	1112.83
567.14	1108.24
567.49	1104.52
567.84	1102.72
568.19	1101.57
568.54	1103.56
568.90	1107.24
569.25	1106.96
569.60	1104.45
569.95	1104.64
570.31	1102.70
570.66	1099.05
571.01	1099.05
571.36	1102.53
571.71	1100.43
572.06	1101.15
572.42	1102.28
572.77	1101.90
573.12	1096.75
573.47	1101.22
573.82	1097.22
574.18	1096.66
574.53	1097.17
574.88	1098.76
575.23	1096.45
575.58	1097.92
575.93	1095.72
576.28	1093.19
576.64	1092.82
576.99	1091.84
577.34	1092.47
577.69	1091.79
578.04	1093.62
578.39	1094.15
578.74	1091.86
579.09	1094.46
579.44	1097.24
579.80	1094.34
580.15	1095.30
580.50	1096.73
580.85	1091.88
581.20	1089.64
581.55	1093.24
581.90	1090.53
582.25	1091.11
582.60	1091.44
582.95	1092.59
583.30	1089.66
583.65	1089.47
584.00	1091.06
584.35	1093.43
584.71	1093.52
585.06	1094.43
585.41	1095.32
585.76	1091.56
586.11	1088.42
586.46	1089.38
586.81	1093.69
587.16	1096.68
587.51	1097.24
587.86	1101.78
588.21	1103.12
588.56	1096.33
588.91	1092.21
589.26	1093.71
589.61	1091.79
589.96	1088.72
590.31	1090.57
590.66	1093.83
591.01	1093.36
591.36	1092.52
591.71	1090.20
592.06	1090.74
592.41	1088.58
592.76	1088.28
593.10	1090.17
593.45	1088.93
593.80	1089.24
594.15	1088.40
594.50	1086.92
594.85	1084.70
595.20	1087.55
595.55	1086.34
595.90	1088.00
596.25	1087.37
596.60	1087.60
596.95	1086.94
597.30	1087.39
597.64	1095.25
597.99	1096.24
598.34	1096.47
598.69	1097.24
599.04	1100.66
599.39	1089.57
599.74	1089.26
600.09	1090.20
600.44	1092.00
600.78	1086.80
601.13	1086.29
601.48	1088.61
601.83	1086.90
602.18	1082.66
602.53	1081.47
602.88	1083.20
603.22	1079.78
603.57	1078.80
603.92	1080.06
604.27	1083.01
604.62	1084.58
604.97	1084.09
605.31	1082.83
605.66	1084.11
606.01	1084.86
606.36	1081.66
606.71	1085.19
607.05	1089.40
607.40	1088.40
607.75	1088.14
608.10	1091.65
608.44	1091.77
608.79	1088.37
609.14	1089.40
609.49	1089.07
609.84	1088.07
610.18	1086.64
610.53	1091.30
610.88	1090.01
611.23	1088.91
611.57	1087.32
611.92	1085.75
612.27	1086.38
612.62	1085.73
612.96	1084.84
613.31	1086.57
613.66	1086.94
614.00	1082.71
614.35	1081.91
614.70	1082.52
615.05	1083.57
615.39	1083.32
615.74	1084.11
616.09	1085.31
616.43	1086.55
616.78	1083.86
617.13	1081.49
617.47	1081.09
617.82	1079.57
618.17	1077.21
618.51	1078.61
618.86	1080.23
619.21	1080.56
619.55	1083.22
619.90	1085.00
620.25	1085.07
620.59	1088.65
620.94	1091.79
621.29	1093.99
621.63	1096.24
621.98	1093.97
622.32	1091.95
622.67	1088.21
623.02	1088.04
623.36	1087.76
623.71	1090.92
624.05	1093.80
624.40	1094.22
624.75	1090.48
625.09	1088.35
625.44	1086.76
625.78	1083.53
626.13	1082.69
626.48	1085.24
626.82	1083.36
627.17	1083.71
627.51	1082.78
627.86	1081.56
628.20	1082.59
628.55	1084.11
628.89	1083.08
629.24	1084.14
629.58	1085.21
629.93	1081.28
630.28	1079.24
630.62	1077.65
630.97	1074.52
631.31	1074.75
631.66	1075.22
632.00	1077.49
632.35	1077.63
632.69	1080.39
633.04	1081.14
633.38	1080.32
633.73	1083.97
634.07	1085.38
634.42	1087.48
634.76	1085.91
635.11	1090.10
635.45	1084.89
635.79	1086.01
636.14	1087.37
636.48	1087.37
636.83	1085.21
637.17	1087.13
637.52	1086.57
637.86	1082.24
638.21	1084.79
638.55	1086.45
638.89	1086.99
639.24	1086.94
639.58	1087.16
639.93	1089.00
640.27	1088.00
640.61	1086.50
640.96	1086.15
641.30	1087.69
641.65	1083.57
641.99	1082.08
642.33	1082.94
642.68	1084.25
643.02	1083.15
643.37	1086.20
643.71	1086.22
644.05	1083.69
644.40	1080.91
644.74	1081.19
645.08	1078.57
645.43	1077.58
645.77	1080.60
646.11	1081.91
646.46	1082.26
646.80	1082.08
647.14	1081.33
647.49	1078.64
647.83	1077.58
648.17	1077.79
648.52	1076.25
648.86	1079.20
649.20	1083.76
649.55	1084.28
649.89	1083.97
650.23	1086.06
650.57	1085.21
650.92	1083.41
651.26	1085.07
651.60	1085.84
651.95	1083.93
652.29	1083.08
652.63	1082.43
652.97	1079.48
653.32	1078.07
653.66	1076.93
654.00	1077.72
654.34	1079.55
654.69	1083.41
655.03	1081.61
655.37	1082.40
655.71	1081.40
656.05	1078.80
656.40	1076.41
656.74	1080.27
657.08	1083.20
657.42	1082.76
657.76	1081.80
658.11	1080.25
658.45	1080.18
658.79	1081.07
659.13	1082.66
659.47	1086.08
659.82	1086.55
660.16	1086.62
660.50	1083.18
660.84	1082.38
661.18	1078.80
661.52	1078.24
661.87	1075.57
662.21	1079.34
662.55	1078.12
662.89	1077.72
663.23	1082.08
663.57	1081.70
663.91	1080.46
664.25	1081.37
664.60	1082.87
664.94	1080.13
665.28	1079.62
665.62	1075.48
665.96	1075.85
666.30	1077.00
666.64	1076.69
666.98	1079.15
667.32	1081.44
667.66	1078.03
668.01	1077.16
668.35	1075.78
668.69	1074.68
669.03	1076.18
669.37	1080.37
669.71	1081.09
670.05	1083.22
670.39	1082.38
670.73	1079.97
671.07	1080.04
671.41	1080.95
671.75	1080.53
672.09	1080.63
672.43	1082.10
672.77	1082.40
673.11	1080.39
673.45	1082.43
673.79	1084.56
674.13	1084.18
674.47	1082.19
674.81	1084.81
675.15	1083.27
675.49	1082.78
675.83	1086.92
676.17	1088.07
676.51	1084.25
676.85	1083.22
677.19	1082.78
677.53	1079.76
677.87	1081.21
678.21	1083.86
678.55	1083.48
678.89	1085.19
679.23	1086.57
679.57	1085.12
679.90	1085.66
680.24	1087.55
680.58	1088.40
680.92	1087.48
681.26	1090.15
681.60	1090.03
681.94	1086.99
682.28	1086.45
682.62	1085.77
682.96	1082.08
683.29	1080.81
683.63	1081.40
683.97	1078.94
684.31	1077.09
684.65	1076.95
684.99	1077.79
685.33	1081.63
685.67	1080.06
686.00	1081.75
686.34	1082.01
686.68	1081.94
687.02	1078.71
687.36	1083.01
687.70	1082.87
688.03	1081.33
688.37	1079.71
688.71	1080.27
689.05	1077.18
689.39	1077.65
689.72	1079.81
690.06	1079.41
690.40	1077.47
690.74	1079.60
691.08	1077.49
691.41	1076.48
691.75	1076.30
692.09	1076.58
692.43	1074.96
692.76	1075.76
693.10	1075.90
693.44	1077.54
693.78	1079.60
694.11	1078.00
694.45	1077.54
694.79	1078.50
695.13	1078.85
695.46	1078.64
695.80	1081.37
696.14	1081.44
696.48	1081.37
696.81	1081.66
697.15	1083.43
697.49	1078.54
697.82	1076.32
698.16	1073.56
698.50	1074.21
698.83	1072.06
699.17	1077.86
699.51	1081.37
699.84	1086.78
700.18	1084.63
700.52	1086.34
700.85	1082.38
701.19	1080.63
701.53	1080.67
701.86	1079.92
702.20	1081.56
702.54	1084.23
702.87	1083.81
703.21	1078.31
703.55	1080.32
703.88	1076.01
704.22	1076.27
704.55	1074.98
704.89	1077.18
705.23	1073.35
705.56	1073.53
705.90	1072.46
706.23	1078.26
706.57	1077.35
706.91	1080.65
707.24	1080.58
707.58	1080.77
707.91	1077.18
708.25	1076.62
708.58	1076.55
708.92	1080.65
709.26	1080.77
709.59	1079.48
709.93	1081.84
710.26	1079.64
710.60	1078.36
710.93	1078.43
711.27	1081.70
711.60	1080.37
711.94	1081.02
712.27	1077.98
712.61	1076.39
712.94	1076.20
713.28	1076.08
713.61	1076.44
713.95	1076.65
714.28	1077.98
714.62	1077.11
714.95	1079.27
715.29	1079.53
715.62	1079.69
715.96	1076.93
716.29	1077.23
716.63	1072.90
716.96	1073.60
717.29	1076.86
717.63	1080.84
717.96	1083.97
718.30	1087.23
718.63	1088.63
718.97	1084.58
719.30	1082.52
719.63	1080.11
719.97	1079.83
720.30	1080.51
720.64	1082.22
720.97	1082.31
721.30	1081.96
721.64	1082.12
721.97	1078.73
722.31	1077.63
722.64	1079.10
722.97	1079.01
723.31	1078.54
723.64	1078.89
723.97	1082.03
724.31	1082.22
724.64	1081.28
724.98	1082.24
725.31	1085.63
725.64	1083.69
725.98	1083.01
726.31	1081.19
726.64	1079.81
726.97	1077.70
727.31	1079.38
727.64	1076.97
727.97	1080.79
728.31	1081.14
728.64	1080.72
728.97	1076.34
729.31	1077.61
729.64	1074.84
729.97	1074.38
730.30	1074.38
730.64	1077.44
730.97	1077.72
731.30	1079.03
731.63	1080.41
731.97	1081.80
732.30	1080.93
732.63	1081.80
732.96	1080.74
733.30	1082.64
733.63	1079.88
733.96	1078.54
734.29	1076.30
734.63	1076.44
734.96	1073.60
735.29	1073.88
735.62	1078.59
735.95	1078.21
736.29	1078.40
736.62	1079.43
736.95	1081.12
737.28	1079.83
737.61	1082.47
737.94	1081.44
738.28	1081.77
738.61	1081.40
738.94	1077.77
739.27	1079.13
739.60	1076.79
739.93	1078.66
740.27	1078.99
740.60	1080.93
740.93	1079.36
741.26	1083.25
741.59	1080.91
741.92	1080.11
742.25	1081.02
742.58	1079.57
742.91	1080.58
743.25	1081.42
743.58	1081.26
743.91	1077.86
744.24	1078.85
744.57	1077.23
744.90	1076.13
745.23	1077.77
745.56	1079.15
745.89	1078.45
746.22	1079.71
746.55	1080.13
746.88	1078.45
747.21	1080.41
747.54	1079.10
747.87	1078.05
748.20	1076.41
748.53	1076.13
748.87	1073.46
749.20	1075.59
749.53	1074.45
749.86	1078.73
750.19	1082.03
750.52	1084.30
750.85	1083.88
751.18	1087.27
751.51	1083.36
751.84	1079.38
752.16	1081.02
752.49	1082.08
752.82	1080.65
753.15	1078.64
753.48	1080.88
753.81	1077.14
754.14	1078.28
754.47	1078.26
754.80	1080.93
755.13	1082.97
755.46	1084.49
755.79	1084.00
756.12	1082.78
756.45	1079.69
756.78	1076.67
757.11	1076.95
757.43	1076.51
757.76	1076.37
758.09	1076.90
758.42	1074.94
758.75	1075.52
759.08	1075.69
759.41	1078.24
759.74	1081.56
760.07	1085.28
760.39	1082.78
760.72	1081.87
761.05	1078.33
761.38	1075.27
761.71	1072.13
762.04	1073.18
762.36	1074.70
762.69	1076.65
763.02	1078.28
763.35	1077.86
763.68	1079.24
