SpectraSuite Data File
++++++++++++++++++++++++++++++++++++
Date: Mon Aug 26 10:21:57 PDT 2019
User: corrico
Dark Spectrum Present: No
Reference Spectrum Present: No
Number of Sampled Component Spectra: 1
Spectrometers: USB2+H06089
Integration Time (usec): 2000 (USB2+H06089)
Spectra Averaged: 20 (USB2+H06089)
Boxcar Smoothing: 2 (USB2+H06089)
Correct for Electrical Dark: No (USB2+H06089)
Strobe/Lamp Enabled: No (USB2+H06089)
Correct for Detector Non-linearity: No (USB2+H06089)
Correct for Stray Light: No (USB2+H06089)
Number of Pixels in Processed Spectrum: 2048
>>>>>Begin Processed Spectral Data<<<<<
339.70	1033.93
340.07	1033.93
340.45	994.73
340.82	972.98
341.19	944.27
341.57	917.68
341.94	906.26
342.31	899.44
342.69	895.58
343.06	897.62
343.43	895.18
343.81	896.64
344.18	898.41
344.55	900.85
344.93	905.44
345.30	913.58
345.67	921.26
346.04	929.47
346.42	936.87
346.79	944.57
347.16	955.27
347.54	965.24
347.91	976.73
348.28	984.69
348.65	995.34
349.03	1004.23
349.40	1010.27
349.77	1015.72
350.14	1023.47
350.52	1028.97
350.89	1034.59
351.26	1040.70
351.63	1046.08
352.01	1052.66
352.38	1056.14
352.75	1058.48
353.12	1062.86
353.50	1066.09
353.87	1068.06
354.24	1070.35
354.61	1072.55
354.98	1073.25
355.36	1075.45
355.73	1074.21
356.10	1076.53
356.47	1076.60
356.84	1077.82
357.22	1077.96
357.59	1077.25
357.96	1077.16
358.33	1080.53
358.70	1081.77
359.08	1079.53
359.45	1082.50
359.82	1083.55
360.19	1080.72
360.56	1080.51
360.94	1079.17
361.31	1074.40
361.68	1071.47
362.05	1066.86
362.42	1066.02
362.79	1065.20
363.16	1066.21
363.54	1067.24
363.91	1069.88
364.28	1067.66
364.65	1066.84
365.02	1066.82
365.39	1063.82
365.76	1062.46
366.14	1065.62
366.51	1072.20
366.88	1071.85
367.25	1071.82
367.62	1071.36
367.99	1067.42
368.36	1062.25
368.73	1062.44
369.10	1063.66
369.48	1063.14
369.85	1063.75
370.22	1066.42
370.59	1065.72
370.96	1067.26
371.33	1067.49
371.70	1068.43
372.07	1063.61
372.44	1065.88
372.81	1061.85
373.18	1065.53
373.55	1065.22
373.93	1068.52
374.30	1068.10
374.67	1067.54
375.04	1066.61
375.41	1068.69
375.78	1070.58
376.15	1069.04
376.52	1071.33
376.89	1073.02
377.26	1073.07
377.63	1069.20
378.00	1069.72
378.37	1071.43
378.74	1072.06
379.11	1071.43
379.48	1073.09
379.85	1077.21
380.22	1074.70
380.59	1071.61
380.96	1072.08
381.33	1072.36
381.70	1071.64
382.07	1073.11
382.44	1074.59
382.81	1073.37
383.18	1075.20
383.55	1074.52
383.92	1073.07
384.29	1074.87
384.66	1075.43
385.03	1075.01
385.40	1072.48
385.77	1075.03
386.14	1071.73
386.51	1074.00
386.88	1073.44
387.25	1072.92
387.62	1069.70
387.99	1070.26
388.36	1068.85
388.73	1071.12
389.10	1071.22
389.46	1074.75
389.83	1075.83
390.20	1075.87
390.57	1069.60
390.94	1072.15
391.31	1073.30
391.68	1075.76
392.05	1071.68
392.42	1077.44
392.79	1076.58
393.16	1073.28
393.53	1067.99
393.89	1071.36
394.26	1070.28
394.63	1072.92
395.00	1075.29
395.37	1077.49
395.74	1081.05
396.11	1078.94
396.48	1076.69
396.84	1075.83
397.21	1076.81
397.58	1070.54
397.95	1070.23
398.32	1071.10
398.69	1071.52
399.06	1073.14
399.42	1075.22
399.79	1074.54
400.16	1073.35
400.53	1073.25
400.90	1072.90
401.27	1073.16
401.64	1075.62
402.00	1076.01
402.37	1076.65
402.74	1074.19
403.11	1073.09
403.48	1073.25
403.84	1074.75
404.21	1075.43
404.58	1075.36
404.95	1077.00
405.32	1077.37
405.68	1075.10
406.05	1074.14
406.42	1075.76
406.79	1079.06
407.16	1082.38
407.52	1086.31
407.89	1089.92
408.26	1090.41
408.63	1088.61
408.99	1085.87
409.36	1084.16
409.73	1082.52
410.10	1081.66
410.47	1081.35
410.83	1084.42
411.20	1085.80
411.57	1083.83
411.94	1085.03
412.30	1085.59
412.67	1081.40
413.04	1079.76
413.40	1079.62
413.77	1078.03
414.14	1076.51
414.51	1078.66
414.87	1077.44
415.24	1082.12
415.61	1084.35
415.97	1084.11
416.34	1083.69
416.71	1087.86
417.08	1083.25
417.44	1082.43
417.81	1080.88
418.18	1082.19
418.54	1081.61
418.91	1083.86
419.28	1085.24
419.64	1087.58
420.01	1087.09
420.38	1086.80
420.74	1086.59
421.11	1084.32
421.48	1085.42
421.84	1084.30
422.21	1085.63
422.58	1087.60
422.94	1088.98
423.31	1091.20
423.68	1096.73
424.04	1095.14
424.41	1094.43
424.77	1094.11
425.14	1094.88
425.51	1093.97
425.87	1095.21
426.24	1096.52
426.61	1098.32
426.97	1104.48
427.34	1106.58
427.70	1111.10
428.07	1114.68
428.44	1119.41
428.80	1117.02
429.17	1118.78
429.53	1120.48
429.90	1125.77
430.27	1129.68
430.63	1133.15
431.00	1139.00
431.36	1141.06
431.73	1143.02
432.09	1148.52
432.46	1151.71
432.83	1155.38
433.19	1163.08
433.56	1171.23
433.92	1175.39
434.29	1186.14
434.65	1193.37
435.02	1202.54
435.38	1210.24
435.75	1220.71
436.11	1231.36
436.48	1243.50
436.84	1253.17
437.21	1263.61
437.57	1275.43
437.94	1287.67
438.30	1300.07
438.67	1316.39
439.03	1333.26
439.40	1352.99
439.76	1372.65
440.13	1394.80
440.49	1417.15
440.86	1439.41
441.22	1462.93
441.59	1488.58
441.95	1520.41
442.32	1546.88
442.68	1576.89
443.05	1611.13
443.41	1640.67
443.78	1671.59
444.14	1709.08
444.51	1745.03
444.87	1787.23
445.24	1833.74
445.60	1879.57
445.96	1929.56
446.33	1986.81
446.69	2040.60
447.06	2101.82
447.42	2161.44
447.79	2221.66
448.15	2293.87
448.51	2366.54
448.88	2445.34
449.24	2524.76
449.61	2620.46
449.97	2712.17
450.33	2806.30
450.70	2900.63
451.06	3006.56
451.43	3114.95
451.79	3236.52
452.15	3360.14
452.52	3493.65
452.88	3635.62
453.24	3780.25
453.61	3945.04
453.97	4119.27
454.34	4292.47
454.70	4487.39
455.06	4683.11
455.43	4870.89
455.79	5050.29
456.15	5253.94
456.52	5444.67
456.88	5677.32
457.24	5901.08
457.61	6179.97
457.97	6444.03
458.33	6725.46
458.70	6990.45
459.06	7255.92
459.42	7533.37
459.79	7793.28
460.15	8084.94
460.51	8365.05
460.88	8657.92
461.24	8903.14
461.60	9188.59
461.96	9437.27
462.33	9686.42
462.69	9956.99
463.05	10253.58
463.42	10529.79
463.78	10813.16
464.14	11066.17
464.50	11293.27
464.87	11446.90
465.23	11555.60
465.59	11664.08
465.95	11778.09
466.32	11885.76
466.68	11999.20
467.04	12096.87
467.40	12138.21
467.77	12138.88
468.13	12090.53
468.49	12041.05
468.85	11992.48
469.22	11958.36
469.58	11921.03
469.94	11907.03
470.30	11840.93
470.66	11729.64
471.03	11569.10
471.39	11453.90
471.75	11260.20
472.11	11085.53
472.47	10949.38
472.84	10806.25
473.20	10615.29
473.56	10501.47
473.92	10369.63
474.28	10252.25
474.65	10127.85
475.01	9994.72
475.37	9824.49
475.73	9656.61
476.09	9470.84
476.45	9301.03
476.81	9149.48
477.18	9005.61
477.54	8876.53
477.90	8763.53
478.26	8647.90
478.62	8523.93
478.98	8389.11
479.34	8283.46
479.71	8158.57
480.07	8053.27
480.43	7964.73
480.79	7887.79
481.15	7772.19
481.51	7674.41
481.87	7575.24
482.23	7452.50
482.59	7317.01
482.96	7225.26
483.32	7127.02
483.68	7029.17
484.04	6929.48
484.40	6833.50
484.76	6725.69
485.12	6610.73
485.48	6490.82
485.84	6362.18
486.20	6233.92
486.56	6109.29
486.92	5995.12
487.28	5886.26
487.64	5774.94
488.00	5675.96
488.37	5563.80
488.73	5453.31
489.09	5323.24
489.45	5233.16
489.81	5131.04
490.17	5031.78
490.53	4931.95
490.89	4836.60
491.25	4729.97
491.61	4622.30
491.97	4520.35
492.33	4414.60
492.69	4314.50
493.05	4209.73
493.41	4106.00
493.77	4005.12
494.13	3910.52
494.49	3827.22
494.85	3746.00
495.21	3678.22
495.57	3613.97
495.93	3543.55
496.29	3465.35
496.64	3403.77
497.00	3332.43
497.36	3251.78
497.72	3185.02
498.08	3135.92
498.44	3072.51
498.80	3011.71
499.16	2955.86
499.52	2892.29
499.88	2828.56
500.24	2774.59
500.60	2723.56
500.96	2681.04
501.32	2638.56
501.68	2587.77
502.03	2536.02
502.39	2490.42
502.75	2442.19
503.11	2403.64
503.47	2367.87
503.83	2333.09
504.19	2300.84
504.55	2267.25
504.91	2232.03
505.26	2193.18
505.62	2154.39
505.98	2113.04
506.34	2076.76
506.70	2043.26
507.06	2014.99
507.42	1985.52
507.78	1960.81
508.13	1936.93
508.49	1908.36
508.85	1884.39
509.21	1860.49
509.57	1832.50
509.93	1802.84
510.28	1777.15
510.64	1750.35
511.00	1723.17
511.36	1703.02
511.72	1683.31
512.07	1666.91
512.43	1650.57
512.79	1635.73
513.15	1619.56
513.51	1602.54
513.86	1582.37
514.22	1565.68
514.58	1550.98
514.94	1536.44
515.30	1522.68
515.65	1510.02
516.01	1493.47
516.37	1479.29
516.73	1465.08
517.08	1453.80
517.44	1441.30
517.80	1427.98
518.16	1418.13
518.51	1407.53
518.87	1395.29
519.23	1386.67
519.59	1381.13
519.94	1368.25
520.30	1360.60
520.66	1352.38
521.01	1342.34
521.37	1335.02
521.73	1331.93
522.09	1321.42
522.44	1314.73
522.80	1308.76
523.16	1301.08
523.51	1290.99
523.87	1287.27
524.23	1282.54
524.58	1277.77
524.94	1274.26
525.30	1268.92
525.65	1260.66
526.01	1253.17
526.37	1246.62
526.72	1237.49
527.08	1230.19
527.44	1225.25
527.79	1221.27
528.15	1218.81
528.51	1216.59
528.86	1219.00
529.22	1214.78
529.58	1212.21
529.93	1205.61
530.29	1201.54
530.65	1194.98
531.00	1192.88
531.36	1188.57
531.71	1186.53
532.07	1183.63
532.43	1179.02
532.78	1174.50
533.14	1169.85
533.49	1167.97
533.85	1165.12
534.21	1161.56
534.56	1159.67
534.92	1159.97
535.27	1157.25
535.63	1150.14
535.98	1148.52
536.34	1146.98
536.69	1143.80
537.05	1142.56
537.41	1143.80
537.76	1141.78
538.12	1139.91
538.47	1135.00
538.83	1133.10
539.18	1131.16
539.54	1129.75
539.89	1127.48
540.25	1129.82
540.60	1123.22
540.96	1122.97
541.31	1125.40
541.67	1127.74
542.02	1126.06
542.38	1130.03
542.73	1128.54
543.09	1122.03
543.44	1119.76
543.80	1118.85
544.15	1116.13
544.51	1114.56
544.86	1114.54
545.22	1111.31
545.57	1108.03
545.93	1106.14
546.28	1105.20
546.64	1105.97
546.99	1105.15
547.35	1105.06
547.70	1107.33
548.05	1107.73
548.41	1107.94
548.76	1105.20
549.12	1104.85
549.47	1102.56
549.83	1100.85
550.18	1099.86
550.53	1102.23
550.89	1103.47
551.24	1101.13
551.60	1100.29
551.95	1100.64
552.30	1100.50
552.66	1098.32
553.01	1102.77
553.37	1105.41
553.72	1103.05
554.07	1106.75
554.43	1108.08
554.78	1105.44
555.13	1102.67
555.49	1102.91
555.84	1098.30
556.19	1095.60
556.55	1094.50
556.90	1094.41
557.26	1092.40
557.61	1090.27
557.96	1088.79
558.32	1089.99
558.67	1087.55
559.02	1088.37
559.37	1088.16
559.73	1088.40
560.08	1086.83
560.43	1089.43
560.79	1087.93
561.14	1087.74
561.49	1087.95
561.85	1087.30
562.20	1091.77
562.55	1091.74
562.90	1088.98
563.26	1090.62
563.61	1088.07
563.96	1083.93
564.32	1085.89
564.67	1088.42
565.02	1086.94
565.37	1087.02
565.73	1088.82
566.08	1088.40
566.43	1089.07
566.78	1088.61
567.14	1087.25
567.49	1081.09
567.84	1079.34
568.19	1081.61
568.54	1080.48
568.90	1082.52
569.25	1081.61
569.60	1080.56
569.95	1077.33
570.31	1076.46
570.66	1077.00
571.01	1080.86
571.36	1083.25
571.71	1086.13
572.06	1086.66
572.42	1085.07
572.77	1082.64
573.12	1082.01
573.47	1078.36
573.82	1079.20
574.18	1081.02
574.53	1084.79
574.88	1083.46
575.23	1085.80
575.58	1084.16
575.93	1079.95
576.28	1078.33
576.64	1080.04
576.99	1076.86
577.34	1078.45
577.69	1083.18
578.04	1083.57
578.39	1082.31
578.74	1084.84
579.09	1085.56
579.44	1086.06
579.80	1084.86
580.15	1084.60
580.50	1084.65
580.85	1086.43
581.20	1084.89
581.55	1085.68
581.90	1085.66
582.25	1081.56
582.60	1078.00
582.95	1076.13
583.30	1074.26
583.65	1077.70
584.00	1080.81
584.35	1080.56
584.71	1081.91
585.06	1082.33
585.41	1081.94
585.76	1082.12
586.11	1083.81
586.46	1086.24
586.81	1083.22
587.16	1080.51
587.51	1076.41
587.86	1076.69
588.21	1070.23
588.56	1071.15
588.91	1071.78
589.26	1076.62
589.61	1076.81
589.96	1079.27
590.31	1082.71
590.66	1080.95
591.01	1079.57
591.36	1078.75
591.71	1081.30
592.06	1079.22
592.41	1079.99
592.76	1079.43
593.10	1075.94
593.45	1073.70
593.80	1073.65
594.15	1072.74
594.50	1073.49
594.85	1078.00
595.20	1078.87
595.55	1077.72
595.90	1076.51
596.25	1073.79
596.60	1074.82
596.95	1075.22
597.30	1076.83
597.64	1092.49
597.99	1094.29
598.34	1093.36
598.69	1094.08
599.04	1094.74
599.39	1080.58
599.74	1082.29
600.09	1082.03
600.44	1079.34
600.78	1078.24
601.13	1077.61
601.48	1073.53
601.83	1074.00
602.18	1078.12
602.53	1079.10
602.88	1080.77
603.22	1082.97
603.57	1082.73
603.92	1079.24
604.27	1077.51
604.62	1077.96
604.97	1079.97
605.31	1078.94
605.66	1079.64
606.01	1080.06
606.36	1080.11
606.71	1077.35
607.05	1074.70
607.40	1073.49
607.75	1073.72
608.10	1072.04
608.44	1076.58
608.79	1077.98
609.14	1080.70
609.49	1080.91
609.84	1080.74
610.18	1077.63
610.53	1077.82
610.88	1073.56
611.23	1072.39
611.57	1072.81
611.92	1072.97
612.27	1072.53
612.62	1079.92
612.96	1082.43
613.31	1081.89
613.66	1082.83
614.00	1085.21
614.35	1077.82
614.70	1075.85
615.05	1075.90
615.39	1073.09
615.74	1071.92
616.09	1074.21
616.43	1076.60
616.78	1077.51
617.13	1079.48
617.47	1078.50
617.82	1081.56
618.17	1081.40
618.51	1081.82
618.86	1083.48
619.21	1085.14
619.55	1084.93
619.90	1084.98
620.25	1084.86
620.59	1083.86
620.94	1082.01
621.29	1081.63
621.63	1078.78
621.98	1077.86
622.32	1073.60
622.67	1073.81
623.02	1071.75
623.36	1073.32
623.71	1073.72
624.05	1075.92
624.40	1076.18
624.75	1075.34
625.09	1076.97
625.44	1079.13
625.78	1078.50
626.13	1079.22
626.48	1079.53
626.82	1078.80
627.17	1075.59
627.51	1075.55
627.86	1076.27
628.20	1077.56
628.55	1077.16
628.89	1080.44
629.24	1081.40
629.58	1078.12
629.93	1076.88
630.28	1074.45
630.62	1072.92
630.97	1072.88
631.31	1075.71
631.66	1074.35
632.00	1075.83
632.35	1075.78
632.69	1073.53
633.04	1073.74
633.38	1072.60
633.73	1071.52
634.07	1071.50
634.42	1074.94
634.76	1071.50
635.11	1075.92
635.45	1078.40
635.79	1078.05
636.14	1079.48
636.48	1081.98
636.83	1080.32
637.17	1077.70
637.52	1076.15
637.86	1075.36
638.21	1079.08
638.55	1079.10
638.89	1081.51
639.24	1080.06
639.58	1079.64
639.93	1073.84
640.27	1072.57
640.61	1069.04
640.96	1073.11
641.30	1073.14
641.65	1074.40
641.99	1076.53
642.33	1077.75
642.68	1075.45
643.02	1070.94
643.37	1071.87
643.71	1068.52
644.05	1069.95
644.40	1072.08
644.74	1078.80
645.08	1081.58
645.43	1086.41
645.77	1084.93
646.11	1083.57
646.46	1081.28
646.80	1079.38
647.14	1078.47
647.49	1081.98
647.83	1083.04
648.17	1081.30
648.52	1082.03
648.86	1082.31
649.20	1079.43
649.55	1078.85
649.89	1083.06
650.23	1081.77
650.57	1079.64
650.92	1080.37
651.26	1080.56
651.60	1077.09
651.95	1075.66
652.29	1074.54
652.63	1072.76
652.97	1073.30
653.32	1072.18
653.66	1074.14
654.00	1075.03
654.34	1075.90
654.69	1074.21
655.03	1075.99
655.37	1075.24
655.71	1076.34
656.05	1074.42
656.40	1073.63
656.74	1072.71
657.08	1075.41
657.42	1075.10
657.76	1076.41
658.11	1078.87
658.45	1079.24
658.79	1076.60
659.13	1076.08
659.47	1077.65
659.82	1075.43
660.16	1074.42
660.50	1071.66
660.84	1071.40
661.18	1072.64
661.52	1072.71
661.87	1073.07
662.21	1072.20
662.55	1073.18
662.89	1072.95
663.23	1069.74
663.57	1069.48
663.91	1074.12
664.25	1072.85
664.60	1070.96
664.94	1073.63
665.28	1072.97
665.62	1070.75
665.96	1071.94
666.30	1073.51
666.64	1073.30
666.98	1074.12
667.32	1074.80
667.66	1072.55
668.01	1073.35
668.35	1074.05
668.69	1078.00
669.03	1077.63
669.37	1078.12
669.71	1078.66
670.05	1079.83
670.39	1076.48
670.73	1076.04
671.07	1078.71
671.41	1076.95
671.75	1075.03
672.09	1076.08
672.43	1078.61
672.77	1077.54
673.11	1077.44
673.45	1079.50
673.79	1078.82
674.13	1080.04
674.47	1080.88
674.81	1080.77
675.15	1079.06
675.49	1079.53
675.83	1076.34
676.17	1076.69
676.51	1078.21
676.85	1079.99
677.19	1080.48
677.53	1080.65
677.87	1079.22
678.21	1075.80
678.55	1073.98
678.89	1073.63
679.23	1074.28
679.57	1075.90
679.90	1079.41
680.24	1082.38
680.58	1082.08
680.92	1080.74
681.26	1078.21
681.60	1079.41
681.94	1077.42
682.28	1076.41
682.62	1075.85
682.96	1076.37
683.29	1071.75
683.63	1070.56
683.97	1070.35
684.31	1068.59
684.65	1068.06
684.99	1069.39
685.33	1071.10
685.67	1072.85
686.00	1076.15
686.34	1078.87
686.68	1082.92
687.02	1083.69
687.36	1080.70
687.70	1079.67
688.03	1077.98
688.37	1076.32
688.71	1075.78
689.05	1078.96
689.39	1078.75
689.72	1079.27
690.06	1075.24
690.40	1071.03
690.74	1070.94
691.08	1073.98
691.41	1073.53
691.75	1076.72
692.09	1080.23
692.43	1078.94
692.76	1077.49
693.10	1077.68
693.44	1077.93
693.78	1078.05
694.11	1079.17
694.45	1078.47
694.79	1078.54
695.13	1076.97
695.46	1077.51
695.80	1078.36
696.14	1080.27
696.48	1080.02
696.81	1079.38
697.15	1078.40
697.49	1076.76
697.82	1074.19
698.16	1072.55
698.50	1073.37
698.83	1073.74
699.17	1073.88
699.51	1075.87
699.84	1074.73
700.18	1075.92
700.52	1074.77
700.85	1076.15
701.19	1073.23
701.53	1073.81
701.86	1073.95
702.20	1072.27
702.54	1072.20
702.87	1072.39
703.21	1073.70
703.55	1073.77
703.88	1078.54
704.22	1075.52
704.55	1077.49
704.89	1079.69
705.23	1079.62
705.56	1077.54
705.90	1079.34
706.23	1080.60
706.57	1078.38
706.91	1076.46
707.24	1078.52
707.58	1080.65
707.91	1078.96
708.25	1080.65
708.58	1079.64
708.92	1079.50
709.26	1077.00
709.59	1076.32
709.93	1074.12
710.26	1073.14
710.60	1070.96
710.93	1070.30
711.27	1068.06
711.60	1067.66
711.94	1068.24
712.27	1069.81
712.61	1072.78
712.94	1074.59
713.28	1077.96
713.61	1077.49
713.95	1075.92
714.28	1074.68
714.62	1076.32
714.95	1075.45
715.29	1076.76
715.62	1075.22
715.96	1071.43
716.29	1070.70
716.63	1069.72
716.96	1071.26
717.29	1071.40
717.63	1076.01
717.96	1076.69
718.30	1076.13
718.63	1073.86
718.97	1076.81
719.30	1076.74
719.63	1074.42
719.97	1075.50
720.30	1075.55
720.64	1075.83
720.97	1073.72
721.30	1076.04
721.64	1074.73
721.97	1078.00
722.31	1078.24
722.64	1078.03
722.97	1078.52
723.31	1081.47
723.64	1078.50
723.97	1076.72
724.31	1074.94
724.64	1075.52
724.98	1072.88
725.31	1073.84
725.64	1072.78
725.98	1074.47
726.31	1073.04
726.64	1072.95
726.97	1075.57
727.31	1076.06
727.64	1075.41
727.97	1077.49
728.31	1081.07
728.64	1078.31
728.97	1079.76
729.31	1077.89
729.64	1075.15
729.97	1073.65
730.30	1073.86
730.64	1072.43
730.97	1074.89
731.30	1075.62
731.63	1073.32
731.97	1074.61
732.30	1075.78
732.63	1078.89
732.96	1079.15
733.30	1078.87
733.63	1077.84
733.96	1079.41
734.29	1076.25
734.63	1075.10
734.96	1077.89
735.29	1077.25
735.62	1074.75
735.95	1074.38
736.29	1077.28
736.62	1073.91
736.95	1074.61
737.28	1075.85
737.61	1074.70
737.94	1074.07
738.28	1075.52
738.61	1075.22
738.94	1073.51
739.27	1076.79
739.60	1074.68
739.93	1076.97
740.27	1078.24
740.60	1078.68
740.93	1080.48
741.26	1084.28
741.59	1085.70
741.92	1083.20
742.25	1082.73
742.58	1076.67
742.91	1071.19
743.25	1068.24
743.58	1070.33
743.91	1068.69
744.24	1071.57
744.57	1076.44
744.90	1074.05
745.23	1074.61
745.56	1079.50
745.89	1080.88
746.22	1076.39
746.55	1080.53
746.88	1079.95
747.21	1078.59
747.54	1077.33
747.87	1077.77
748.20	1072.62
748.53	1072.32
748.87	1071.71
749.20	1074.45
749.53	1076.06
749.86	1081.75
750.19	1080.23
750.52	1081.14
750.85	1081.30
751.18	1080.53
751.51	1079.46
751.84	1082.57
752.16	1082.43
752.49	1079.92
752.82	1080.86
753.15	1079.22
753.48	1075.27
753.81	1073.32
754.14	1072.22
754.47	1073.93
754.80	1073.23
755.13	1076.18
755.46	1077.98
755.79	1077.51
756.12	1074.91
756.45	1074.47
756.78	1072.01
757.11	1070.05
757.43	1073.51
757.76	1074.89
758.09	1078.36
758.42	1079.20
758.75	1080.30
759.08	1076.51
759.41	1077.63
759.74	1076.18
760.07	1077.40
760.39	1076.81
760.72	1078.47
761.05	1078.31
761.38	1076.34
761.71	1072.55
762.04	1073.95
762.36	1072.74
762.69	1071.73
763.02	1071.80
763.35	1076.32
763.68	1074.68
764.01	1073.79
764.33	1070.47
764.66	1070.72
764.99	1069.23
765.32	1071.22
765.65	1072.15
