SpectraSuite Data File
++++++++++++++++++++++++++++++++++++
Date: Mon Aug 26 10:22:23 PDT 2019
User: corrico
Dark Spectrum Present: No
Reference Spectrum Present: No
Number of Sampled Component Spectra: 1
Spectrometers: USB2+H06089
Integration Time (usec): 2000 (USB2+H06089)
Spectra Averaged: 20 (USB2+H06089)
Boxcar Smoothing: 2 (USB2+H06089)
Correct for Electrical Dark: No (USB2+H06089)
Strobe/Lamp Enabled: No (USB2+H06089)
Correct for Detector Non-linearity: No (USB2+H06089)
Correct for Stray Light: No (USB2+H06089)
Number of Pixels in Processed Spectrum: 2048
>>>>>Begin Processed Spectral Data<<<<<
339.70	1023.87
340.07	1023.87
340.45	992.11
340.82	973.73
341.19	949.41
341.57	924.82
341.94	913.02
342.31	904.57
342.69	895.09
343.06	894.93
343.43	897.62
343.81	902.98
344.18	904.94
344.55	911.66
344.93	916.55
345.30	917.14
345.67	920.42
346.04	928.02
346.42	934.34
346.79	941.64
347.16	952.53
347.54	961.70
347.91	972.54
348.28	986.25
348.65	995.52
349.03	1008.33
349.40	1015.61
349.77	1022.14
350.14	1027.10
350.52	1035.08
350.89	1040.41
351.26	1052.07
351.63	1057.52
352.01	1065.51
352.38	1067.42
352.75	1070.98
353.12	1070.51
353.50	1073.95
353.87	1072.11
354.24	1078.85
354.61	1077.11
354.98	1077.18
355.36	1078.28
355.73	1081.56
356.10	1080.65
356.47	1083.15
356.84	1084.77
357.22	1089.22
357.59	1088.79
357.96	1086.76
358.33	1085.28
358.70	1085.21
359.08	1081.82
359.45	1081.58
359.82	1085.59
360.19	1085.96
360.56	1085.54
360.94	1083.41
361.31	1081.16
361.68	1077.91
362.05	1079.74
362.42	1081.19
362.79	1083.13
363.16	1083.90
363.54	1083.29
363.91	1080.34
364.28	1077.51
364.65	1075.80
365.02	1076.55
365.39	1075.17
365.76	1076.88
366.14	1080.77
366.51	1084.49
366.88	1086.62
367.25	1088.68
367.62	1088.77
367.99	1083.67
368.36	1075.43
368.73	1070.05
369.10	1067.59
369.48	1066.30
369.85	1068.95
370.22	1075.55
370.59	1074.52
370.96	1076.62
371.33	1075.76
371.70	1074.84
372.07	1072.39
372.44	1075.69
372.81	1071.15
373.18	1070.16
373.55	1072.43
373.93	1073.44
374.30	1071.43
374.67	1073.49
375.04	1077.33
375.41	1073.35
375.78	1069.70
376.15	1077.02
376.52	1079.38
376.89	1078.50
377.26	1083.13
377.63	1085.54
378.00	1082.08
378.37	1081.35
378.74	1085.56
379.11	1082.80
379.48	1082.99
379.85	1081.07
380.22	1079.31
380.59	1072.92
380.96	1071.05
381.33	1072.69
381.70	1074.21
382.07	1076.04
382.44	1077.23
382.81	1077.51
383.18	1078.85
383.55	1078.61
383.92	1081.84
384.29	1084.04
384.66	1087.06
385.03	1082.99
385.40	1084.16
385.77	1085.19
386.14	1084.74
386.51	1086.15
386.88	1089.54
387.25	1088.89
387.62	1087.18
387.99	1087.27
388.36	1089.07
388.73	1089.73
389.10	1090.34
389.46	1091.16
389.83	1091.44
390.20	1088.65
390.57	1087.67
390.94	1087.67
391.31	1086.15
391.68	1085.35
392.05	1084.04
392.42	1082.66
392.79	1079.43
393.16	1080.34
393.53	1077.72
393.89	1081.68
394.26	1081.12
394.63	1082.59
395.00	1080.65
395.37	1084.16
395.74	1080.46
396.11	1081.89
396.48	1083.22
396.84	1084.67
397.21	1082.83
397.58	1084.37
397.95	1084.51
398.32	1084.11
398.69	1086.20
399.06	1087.51
399.42	1089.29
399.79	1091.95
400.16	1092.47
400.53	1090.36
400.90	1091.25
401.27	1091.58
401.64	1090.53
402.00	1090.55
402.37	1088.93
402.74	1089.10
403.11	1087.37
403.48	1085.42
403.84	1086.27
404.21	1089.68
404.58	1091.81
404.95	1093.31
405.32	1097.15
405.68	1098.44
406.05	1097.08
406.42	1095.65
406.79	1096.87
407.16	1095.79
407.52	1095.39
407.89	1096.99
408.26	1096.03
408.63	1093.78
408.99	1095.30
409.36	1095.93
409.73	1095.72
410.10	1097.88
410.47	1097.43
410.83	1096.26
411.20	1094.22
411.57	1095.16
411.94	1092.82
412.30	1096.03
412.67	1096.54
413.04	1098.41
413.40	1100.33
413.77	1103.75
414.14	1100.80
414.51	1101.57
414.87	1103.66
415.24	1098.39
415.61	1098.09
415.97	1099.33
416.34	1100.19
416.71	1101.41
417.08	1107.26
417.44	1109.20
417.81	1111.45
418.18	1111.75
418.54	1110.84
418.91	1111.47
419.28	1110.89
419.64	1111.97
420.01	1116.83
420.38	1119.22
420.74	1120.41
421.11	1122.90
421.48	1124.63
421.84	1122.83
422.21	1122.10
422.58	1123.08
422.94	1124.56
423.31	1126.90
423.68	1129.31
424.04	1133.52
424.41	1138.83
424.77	1140.52
425.14	1142.28
425.51	1143.45
425.87	1147.52
426.24	1146.96
426.61	1152.88
426.97	1155.48
427.34	1163.15
427.70	1170.71
428.07	1179.54
428.44	1188.80
428.80	1200.74
429.17	1209.71
429.53	1215.91
429.90	1227.75
430.27	1236.74
430.63	1243.95
431.00	1254.69
431.36	1266.35
431.73	1272.64
432.09	1282.52
432.46	1299.28
432.83	1313.30
433.19	1332.65
433.56	1353.51
433.92	1372.56
434.29	1397.28
434.65	1421.29
435.02	1443.76
435.38	1471.52
435.75	1498.93
436.11	1526.59
436.48	1555.66
436.84	1588.97
437.21	1624.28
437.57	1663.84
437.94	1704.40
438.30	1751.73
438.67	1802.94
439.03	1853.45
439.40	1908.12
439.76	1960.64
440.13	2016.07
440.49	2075.31
440.86	2136.93
441.22	2205.53
441.59	2282.07
441.95	2365.74
442.32	2446.47
442.68	2540.89
443.05	2636.24
443.41	2732.67
443.78	2829.71
444.14	2942.45
444.51	3052.69
444.87	3194.22
445.24	3340.76
445.60	3495.75
445.96	3646.51
446.33	3821.70
446.69	3982.47
447.06	4157.80
447.42	4335.19
447.79	4527.11
448.15	4750.47
448.51	4981.53
448.88	5238.89
449.24	5486.08
449.61	5765.56
449.97	6030.72
450.33	6304.42
450.70	6566.91
451.06	6899.45
451.43	7208.05
451.79	7579.01
452.15	7993.56
452.52	8447.32
452.88	8909.09
453.24	9444.53
453.61	10007.33
453.97	10557.50
454.34	11101.51
454.70	11741.60
455.06	12377.85
455.43	13012.63
455.79	13615.32
456.15	14333.84
456.52	14993.19
456.88	15755.27
457.24	16482.47
457.61	17345.31
457.97	18110.55
458.33	18893.97
458.70	19669.28
459.06	20429.90
459.42	21250.40
459.79	22036.87
460.15	22947.38
460.51	23809.85
460.88	24742.15
461.24	25534.33
461.60	26496.60
461.96	27366.15
462.33	28198.94
462.69	28999.64
463.05	29858.59
463.42	30568.73
463.78	31216.94
464.14	31752.99
464.50	32337.82
464.87	32809.56
465.23	33149.31
465.59	33492.27
465.95	33822.38
466.32	34067.27
466.68	34290.11
467.04	34445.38
467.40	34594.90
467.77	34757.91
468.13	34747.55
468.49	34671.55
468.85	34599.84
469.22	34434.15
469.58	34081.15
469.94	33842.16
470.30	33544.53
470.66	33103.18
471.03	32511.98
471.39	32123.24
471.75	31484.89
472.11	30873.23
472.47	30543.69
472.84	30253.48
473.20	29777.86
473.56	29515.16
473.92	29086.02
474.28	28555.89
474.65	28036.88
475.01	27551.45
475.37	26977.90
475.73	26525.62
476.09	26015.57
476.45	25481.15
476.81	24950.91
477.18	24411.44
477.54	23961.70
477.90	23594.85
478.26	23188.58
478.62	22862.80
478.98	22569.18
479.34	22230.48
479.71	21821.33
480.07	21464.37
480.43	21099.48
480.79	20715.92
481.15	20362.54
481.51	20039.15
481.87	19790.19
482.23	19508.48
482.59	19249.69
482.96	18970.98
483.32	18677.76
483.68	18315.39
484.04	17981.26
484.40	17616.16
484.76	17257.57
485.12	16897.87
485.48	16564.04
485.84	16198.75
486.20	15845.10
486.56	15475.48
486.92	15165.01
487.28	14818.84
487.64	14461.09
488.00	14134.14
488.37	13808.79
488.73	13445.77
489.09	13099.72
489.45	12798.82
489.81	12480.74
490.17	12193.00
490.53	11909.37
490.89	11606.01
491.25	11297.41
491.61	10993.31
491.97	10666.92
492.33	10353.76
492.69	10060.42
493.05	9766.82
493.41	9472.15
493.77	9198.09
494.13	8938.60
494.49	8687.44
494.85	8444.65
495.21	8223.68
495.57	8011.30
495.93	7783.73
496.29	7577.48
496.64	7385.33
497.00	7190.43
497.36	6985.84
497.72	6808.92
498.08	6627.60
498.44	6445.11
498.80	6280.85
499.16	6119.33
499.52	5964.39
499.88	5833.01
500.24	5716.08
500.60	5592.34
500.96	5483.71
501.32	5366.29
501.68	5241.00
502.03	5109.60
502.39	4977.92
502.75	4842.38
503.11	4709.98
503.47	4588.74
503.83	4460.29
504.19	4342.16
504.55	4237.82
504.91	4151.27
505.26	4058.35
505.62	3982.33
505.98	3888.38
506.34	3792.46
506.70	3695.78
507.06	3604.21
507.42	3515.79
507.78	3447.70
508.13	3375.17
508.49	3299.50
508.85	3229.28
509.21	3159.96
509.57	3089.93
509.93	3023.71
510.28	2955.72
510.64	2895.69
511.00	2825.89
511.36	2760.47
511.72	2701.84
512.07	2659.34
512.43	2610.89
512.79	2561.32
513.15	2516.40
513.51	2467.77
513.86	2415.55
514.22	2368.04
514.58	2331.90
514.94	2293.33
515.30	2258.06
515.65	2222.60
516.01	2191.26
516.37	2160.95
516.73	2130.92
517.08	2103.18
517.44	2074.32
517.80	2042.73
518.16	2010.80
518.51	1988.38
518.87	1955.63
519.23	1929.89
519.59	1906.04
519.94	1880.95
520.30	1854.64
520.66	1835.71
521.01	1812.32
521.37	1792.55
521.73	1775.51
522.09	1749.64
522.44	1729.42
522.80	1711.84
523.16	1691.15
523.51	1669.64
523.87	1652.68
524.23	1633.86
524.58	1614.78
524.94	1595.59
525.30	1580.38
525.65	1564.93
526.01	1551.47
526.37	1532.77
526.72	1524.79
527.08	1512.10
527.44	1498.04
527.79	1487.60
528.15	1477.74
528.51	1458.62
528.86	1446.47
529.22	1437.32
529.58	1422.79
529.93	1410.34
530.29	1403.13
530.65	1390.96
531.00	1378.44
531.36	1370.92
531.71	1363.53
532.07	1352.57
532.43	1347.82
532.78	1343.16
533.14	1333.43
533.49	1329.61
533.85	1323.81
534.21	1315.12
534.56	1306.84
534.92	1300.07
535.27	1290.85
535.63	1285.49
535.98	1276.57
536.34	1271.17
536.69	1267.45
537.05	1264.03
537.41	1258.27
537.76	1254.55
538.12	1248.84
538.47	1241.91
538.83	1235.99
539.18	1229.97
539.54	1227.03
539.89	1225.11
540.25	1222.37
540.60	1219.35
540.96	1216.89
541.31	1214.04
541.67	1210.03
542.02	1209.80
542.38	1205.59
542.73	1202.68
543.09	1198.99
543.44	1192.83
543.80	1185.53
544.15	1183.89
544.51	1182.23
544.86	1179.35
545.22	1176.07
545.57	1171.32
545.93	1165.59
546.28	1158.59
546.64	1156.86
546.99	1160.79
547.35	1162.38
547.70	1162.43
548.05	1163.48
548.41	1162.19
548.76	1156.13
549.12	1154.33
549.47	1152.25
549.83	1151.47
550.18	1147.99
550.53	1147.42
550.89	1145.93
551.24	1142.02
551.60	1139.49
551.95	1137.31
552.30	1133.66
552.66	1132.70
553.01	1133.94
553.37	1132.77
553.72	1133.94
554.07	1137.03
554.43	1136.63
554.78	1134.60
555.13	1131.81
555.49	1129.50
555.84	1125.10
556.19	1123.18
556.55	1122.12
556.90	1121.96
557.26	1119.95
557.61	1118.24
557.96	1120.88
558.32	1120.60
558.67	1118.64
559.02	1118.40
559.37	1115.71
559.73	1111.31
560.08	1110.65
560.43	1112.15
560.79	1112.97
561.14	1117.98
561.49	1116.79
561.85	1118.78
562.20	1116.55
562.55	1113.93
562.90	1112.32
563.26	1113.21
563.61	1109.62
563.96	1110.84
564.32	1111.17
564.67	1111.24
565.02	1105.60
565.37	1103.21
565.73	1102.37
566.08	1101.90
566.43	1097.97
566.78	1100.24
567.14	1099.33
567.49	1095.39
567.84	1094.08
568.19	1095.75
568.54	1095.70
568.90	1102.25
569.25	1106.70
569.60	1107.89
569.95	1110.09
570.31	1109.48
570.66	1105.74
571.01	1102.35
571.36	1102.11
571.71	1097.97
572.06	1098.11
572.42	1098.93
572.77	1101.67
573.12	1101.29
573.47	1099.58
573.82	1097.48
574.18	1095.63
574.53	1095.18
574.88	1094.62
575.23	1093.71
575.58	1097.64
575.93	1097.69
576.28	1097.78
576.64	1097.92
576.99	1098.13
577.34	1094.41
577.69	1095.32
578.04	1095.04
578.39	1093.69
578.74	1095.89
579.09	1098.46
579.44	1096.82
579.80	1094.36
580.15	1094.60
580.50	1093.50
580.85	1092.61
581.20	1092.59
581.55	1094.01
581.90	1093.80
582.25	1095.39
582.60	1094.11
582.95	1093.94
583.30	1092.54
583.65	1094.20
584.00	1093.59
584.35	1094.32
584.71	1093.57
585.06	1094.43
585.41	1092.87
585.76	1092.73
586.11	1092.68
586.46	1091.34
586.81	1091.95
587.16	1089.85
587.51	1089.85
587.86	1089.31
588.21	1090.53
588.56	1088.02
588.91	1090.48
589.26	1088.42
589.61	1088.75
589.96	1087.39
590.31	1087.79
590.66	1088.47
591.01	1086.97
591.36	1087.06
591.71	1088.00
592.06	1088.44
592.41	1085.82
592.76	1089.10
593.10	1089.31
593.45	1088.70
593.80	1090.57
594.15	1092.23
594.50	1091.81
594.85	1092.52
595.20	1092.07
595.55	1086.78
595.90	1084.25
596.25	1083.62
596.60	1080.37
596.95	1082.45
597.30	1086.34
597.64	1096.00
597.99	1097.64
598.34	1096.96
598.69	1098.16
599.04	1096.14
599.39	1085.31
599.74	1083.86
600.09	1088.35
600.44	1086.99
600.78	1084.79
601.13	1089.19
601.48	1085.89
601.83	1084.07
602.18	1083.06
602.53	1088.09
602.88	1086.64
603.22	1090.60
603.57	1089.31
603.92	1088.30
604.27	1086.29
604.62	1083.53
604.97	1081.09
605.31	1080.46
605.66	1082.66
606.01	1083.18
606.36	1088.09
606.71	1089.89
607.05	1089.33
607.40	1089.71
607.75	1090.22
608.10	1089.52
608.44	1089.89
608.79	1092.42
609.14	1093.38
609.49	1090.78
609.84	1091.86
610.18	1092.00
610.53	1092.16
610.88	1089.47
611.23	1091.84
611.57	1087.18
611.92	1087.79
612.27	1085.28
612.62	1085.38
612.96	1084.72
613.31	1086.99
613.66	1083.93
614.00	1084.23
614.35	1084.63
614.70	1087.46
615.05	1086.34
615.39	1086.17
615.74	1089.29
616.09	1087.72
616.43	1082.57
616.78	1080.74
617.13	1081.87
617.47	1076.88
617.82	1075.17
618.17	1078.05
618.51	1080.13
618.86	1081.28
619.21	1085.35
619.55	1087.32
619.90	1085.47
620.25	1086.90
620.59	1086.34
620.94	1085.47
621.29	1088.02
621.63	1088.02
621.98	1084.44
622.32	1081.42
622.67	1080.34
623.02	1079.01
623.36	1082.36
623.71	1082.78
624.05	1086.24
624.40	1087.46
624.75	1087.27
625.09	1082.80
625.44	1087.41
625.78	1090.36
626.13	1089.80
626.48	1089.19
626.82	1093.47
627.17	1089.82
627.51	1087.53
627.86	1088.33
628.20	1088.40
628.55	1085.59
628.89	1084.25
629.24	1083.01
629.58	1084.63
629.93	1082.38
630.28	1082.71
630.62	1085.96
630.97	1087.18
631.31	1083.88
631.66	1085.26
632.00	1087.25
632.35	1087.39
632.69	1088.16
633.04	1089.07
633.38	1091.34
633.73	1087.74
634.07	1083.39
634.42	1082.61
634.76	1081.28
635.11	1079.20
635.45	1081.61
635.79	1085.24
636.14	1084.28
636.48	1087.51
636.83	1087.30
637.17	1087.72
637.52	1087.72
637.86	1086.55
638.21	1085.28
638.55	1084.51
638.89	1083.48
639.24	1079.64
639.58	1079.46
639.93	1079.90
640.27	1080.13
640.61	1079.95
640.96	1081.23
641.30	1081.58
641.65	1079.78
641.99	1080.27
642.33	1083.27
642.68	1085.12
643.02	1085.24
643.37	1084.16
643.71	1083.32
644.05	1077.16
644.40	1076.46
644.74	1081.00
645.08	1081.96
645.43	1085.89
645.77	1087.67
646.11	1090.71
646.46	1084.74
646.80	1086.24
647.14	1084.51
647.49	1085.28
647.83	1081.54
648.17	1082.64
648.52	1081.51
648.86	1081.84
649.20	1083.46
649.55	1082.71
649.89	1081.00
650.23	1082.38
650.57	1083.27
650.92	1084.16
651.26	1084.53
651.60	1086.57
651.95	1083.74
652.29	1080.04
652.63	1075.80
652.97	1075.73
653.32	1077.02
653.66	1076.97
654.00	1079.53
654.34	1083.11
654.69	1081.96
655.03	1081.00
655.37	1082.97
655.71	1082.26
656.05	1079.71
656.40	1078.64
656.74	1078.57
657.08	1078.07
657.42	1078.21
657.76	1080.51
658.11	1084.72
658.45	1085.21
658.79	1084.79
659.13	1084.49
659.47	1084.25
659.82	1079.85
660.16	1079.50
660.50	1081.23
660.84	1081.94
661.18	1080.91
661.52	1084.70
661.87	1084.18
662.21	1084.21
662.55	1082.97
662.89	1080.86
663.23	1079.81
663.57	1077.30
663.91	1075.57
664.25	1077.84
664.60	1079.27
664.94	1077.65
665.28	1080.51
665.62	1080.53
665.96	1079.41
666.30	1079.74
666.64	1082.83
666.98	1082.12
667.32	1079.81
667.66	1078.19
668.01	1078.99
668.35	1077.54
668.69	1077.82
669.03	1082.99
669.37	1086.78
669.71	1088.04
670.05	1086.94
670.39	1087.93
670.73	1084.44
671.07	1081.02
671.41	1080.70
671.75	1081.66
672.09	1081.14
672.43	1081.68
672.77	1080.11
673.11	1076.65
673.45	1078.50
673.79	1077.35
674.13	1076.13
674.47	1078.10
674.81	1081.09
675.15	1080.11
675.49	1083.57
675.83	1086.43
676.17	1086.78
676.51	1085.59
676.85	1085.52
677.19	1080.84
677.53	1080.86
677.87	1082.12
678.21	1083.41
678.55	1083.83
678.89	1086.20
679.23	1086.78
679.57	1087.04
679.90	1086.76
680.24	1088.44
680.58	1089.22
680.92	1084.07
681.26	1082.80
681.60	1084.49
681.94	1084.74
682.28	1081.30
682.62	1086.48
682.96	1087.02
683.29	1083.93
683.63	1078.28
683.97	1079.55
684.31	1078.68
684.65	1078.85
684.99	1081.44
685.33	1084.98
685.67	1082.17
686.00	1081.00
686.34	1081.75
686.68	1080.27
687.02	1080.93
687.36	1085.45
687.70	1084.21
688.03	1081.19
688.37	1080.88
688.71	1080.09
689.05	1079.50
689.39	1078.75
689.72	1079.20
690.06	1077.82
690.40	1076.46
690.74	1075.27
691.08	1077.49
691.41	1077.91
691.75	1078.54
692.09	1078.94
692.43	1080.27
692.76	1081.89
693.10	1082.92
693.44	1085.28
693.78	1086.90
694.11	1086.57
694.45	1086.17
694.79	1086.99
695.13	1088.23
695.46	1088.65
695.80	1088.02
696.14	1084.89
696.48	1082.87
696.81	1075.92
697.15	1073.77
697.49	1073.25
697.82	1072.85
698.16	1073.46
698.50	1077.25
698.83	1078.07
699.17	1080.65
699.51	1083.29
699.84	1081.63
700.18	1079.50
700.52	1079.43
700.85	1078.43
701.19	1079.20
701.53	1081.07
701.86	1084.02
702.20	1084.60
702.54	1083.83
702.87	1082.64
703.21	1083.83
703.55	1083.34
703.88	1083.67
704.22	1082.17
704.55	1085.10
704.89	1084.84
705.23	1086.73
705.56	1084.23
705.90	1086.36
706.23	1085.17
706.57	1079.08
706.91	1077.11
707.24	1077.37
707.58	1078.14
707.91	1077.07
708.25	1080.18
708.58	1081.30
708.92	1079.48
709.26	1079.17
709.59	1082.40
709.93	1083.15
710.26	1081.49
710.60	1084.58
710.93	1082.52
711.27	1079.78
711.60	1079.78
711.94	1081.26
712.27	1081.77
712.61	1083.62
712.94	1084.32
713.28	1084.35
713.61	1081.82
713.95	1079.08
714.28	1079.48
714.62	1077.93
714.95	1078.68
715.29	1079.06
715.62	1080.23
715.96	1075.80
716.29	1076.67
716.63	1076.25
716.96	1075.85
717.29	1077.09
717.63	1079.99
717.96	1082.61
718.30	1083.67
718.63	1086.78
718.97	1085.21
719.30	1085.91
719.63	1081.87
719.97	1079.83
720.30	1079.34
720.64	1079.06
720.97	1077.58
721.30	1078.21
721.64	1082.24
721.97	1079.53
722.31	1079.81
722.64	1080.32
722.97	1081.30
723.31	1079.76
723.64	1081.80
723.97	1082.97
724.31	1084.89
724.64	1083.48
724.98	1082.15
725.31	1081.07
725.64	1078.28
725.98	1074.70
726.31	1072.78
726.64	1072.97
726.97	1072.06
727.31	1074.24
727.64	1077.11
727.97	1077.49
728.31	1079.62
728.64	1083.93
728.97	1085.14
729.31	1083.76
729.64	1088.77
729.97	1087.41
730.30	1084.72
730.64	1084.35
730.97	1087.32
731.30	1085.68
731.63	1087.41
731.97	1086.15
732.30	1087.37
732.63	1083.25
732.96	1081.40
733.30	1079.06
733.63	1082.57
733.96	1083.60
734.29	1088.16
734.63	1088.82
734.96	1090.50
735.29	1087.30
735.62	1085.73
735.95	1082.66
736.29	1081.00
736.62	1077.51
736.95	1078.21
737.28	1074.77
737.61	1072.95
737.94	1072.18
738.28	1071.64
738.61	1071.05
738.94	1072.71
739.27	1076.39
739.60	1077.75
739.93	1081.21
740.27	1083.43
740.60	1084.09
740.93	1082.01
741.26	1083.60
741.59	1080.70
741.92	1077.84
742.25	1079.53
742.58	1079.97
742.91	1077.98
743.25	1080.18
743.58	1080.16
743.91	1077.93
744.24	1079.29
744.57	1076.62
744.90	1074.94
745.23	1073.46
745.56	1075.13
745.89	1075.55
746.22	1078.92
746.55	1078.19
746.88	1080.18
747.21	1078.68
747.54	1077.65
747.87	1078.73
748.20	1082.99
748.53	1082.80
748.87	1082.78
749.20	1081.51
749.53	1080.16
749.86	1077.70
750.19	1078.17
750.52	1078.24
750.85	1077.86
751.18	1078.71
751.51	1079.10
751.84	1080.91
752.16	1080.67
752.49	1079.97
752.82	1078.07
753.15	1078.10
753.48	1073.93
753.81	1076.13
754.14	1080.77
754.47	1083.06
754.80	1081.44
755.13	1084.46
755.46	1082.87
755.79	1080.51
756.12	1079.97
756.45	1081.77
756.78	1080.20
757.11	1078.31
757.43	1080.53
757.76	1082.73
758.09	1080.98
758.42	1083.57
758.75	1087.76
759.08	1085.89
759.41	1085.07
759.74	1087.27
760.07	1087.06
760.39	1086.94
760.72	1086.52
761.05	1085.12
761.38	1082.12
761.71	1079.46
762.04	1079.88
762.36	1080.48
762.69	1077.84
763.02	1080.41
763.35	1080.65
763.68	1076.08
764.01	1072.60
