SpectraSuite Data File
++++++++++++++++++++++++++++++++++++
Date: Mon Aug 26 10:22:24 PDT 2019
User: corrico
Dark Spectrum Present: No
Reference Spectrum Present: No
Number of Sampled Component Spectra: 1
Spectrometers: USB2+H06089
Integration Time (usec): 2000 (USB2+H06089)
Spectra Averaged: 20 (USB2+H06089)
Boxcar Smoothing: 2 (USB2+H06089)
Correct for Electrical Dark: No (USB2+H06089)
Strobe/Lamp Enabled: No (USB2+H06089)
Correct for Detector Non-linearity: No (USB2+H06089)
Correct for Stray Light: No (USB2+H06089)
Number of Pixels in Processed Spectrum: 2048
>>>>>Begin Processed Spectral Data<<<<<
339.70	1035.10
340.07	1035.10
340.45	998.99
340.82	975.16
341.19	950.84
341.57	922.38
341.94	916.41
342.31	906.16
342.69	904.94
343.06	903.07
343.43	904.52
343.81	900.97
344.18	901.83
344.55	905.55
344.93	908.08
345.30	914.17
345.67	920.32
346.04	930.29
346.42	934.67
346.79	942.30
347.16	951.50
347.54	961.42
347.91	971.18
348.28	981.48
348.65	992.22
349.03	999.64
349.40	1007.41
349.77	1017.85
350.14	1025.44
350.52	1033.42
350.89	1042.54
351.26	1049.26
351.63	1053.03
352.01	1054.74
352.38	1058.74
352.75	1061.74
353.12	1066.75
353.50	1068.67
353.87	1075.01
354.24	1077.75
354.61	1077.91
354.98	1079.71
355.36	1081.02
355.73	1080.23
356.10	1081.02
356.47	1083.86
356.84	1083.55
357.22	1081.66
357.59	1081.94
357.96	1080.11
358.33	1077.70
358.70	1079.57
359.08	1079.83
359.45	1079.38
359.82	1081.19
360.19	1082.99
360.56	1081.89
360.94	1085.33
361.31	1087.11
361.68	1085.14
362.05	1083.76
362.42	1081.61
362.79	1077.82
363.16	1078.87
363.54	1080.44
363.91	1076.79
364.28	1076.37
364.65	1075.99
365.02	1073.49
365.39	1071.12
365.76	1075.10
366.14	1073.42
366.51	1072.48
366.88	1072.85
367.25	1073.53
367.62	1073.35
367.99	1077.30
368.36	1078.31
368.73	1078.19
369.10	1076.76
369.48	1072.97
369.85	1073.09
370.22	1072.60
370.59	1073.21
370.96	1077.09
371.33	1077.51
371.70	1073.18
372.07	1075.69
372.44	1071.80
372.81	1070.28
373.18	1071.05
373.55	1073.65
373.93	1072.60
374.30	1077.07
374.67	1070.28
375.04	1075.17
375.41	1075.36
375.78	1075.45
376.15	1073.86
376.52	1079.27
376.89	1074.56
377.26	1072.20
377.63	1070.72
378.00	1074.45
378.37	1077.47
378.74	1081.40
379.11	1084.07
379.48	1085.96
379.85	1081.94
380.22	1080.25
380.59	1078.52
380.96	1081.42
381.33	1079.06
381.70	1081.63
382.07	1083.48
382.44	1082.10
382.81	1081.21
383.18	1088.33
383.55	1087.93
383.92	1086.24
384.29	1088.79
384.66	1088.40
385.03	1083.86
385.40	1081.80
385.77	1083.53
386.14	1083.29
386.51	1080.98
386.88	1081.14
387.25	1084.37
387.62	1084.84
387.99	1084.53
388.36	1084.16
388.73	1084.14
389.10	1082.24
389.46	1079.85
389.83	1081.12
390.20	1087.20
390.57	1089.40
390.94	1088.63
391.31	1090.76
391.68	1090.01
392.05	1085.89
392.42	1084.53
392.79	1082.78
393.16	1084.35
393.53	1085.21
393.89	1086.22
394.26	1085.21
394.63	1087.51
395.00	1085.03
395.37	1085.56
395.74	1085.80
396.11	1086.03
396.48	1086.15
396.84	1088.30
397.21	1090.27
397.58	1089.54
397.95	1090.83
398.32	1093.62
398.69	1088.93
399.06	1089.24
399.42	1091.51
399.79	1090.85
400.16	1090.17
400.53	1093.12
400.90	1089.31
401.27	1084.93
401.64	1086.41
402.00	1085.40
402.37	1085.82
402.74	1086.90
403.11	1090.48
403.48	1090.78
403.84	1090.15
404.21	1089.68
404.58	1089.82
404.95	1091.65
405.32	1089.87
405.68	1091.77
406.05	1092.40
406.42	1093.87
406.79	1093.50
407.16	1093.94
407.52	1092.98
407.89	1090.41
408.26	1087.79
408.63	1085.68
408.99	1089.17
409.36	1092.59
409.73	1098.86
410.10	1103.89
410.47	1104.17
410.83	1101.03
411.20	1098.90
411.57	1095.75
411.94	1094.86
412.30	1096.87
412.67	1095.51
413.04	1096.66
413.40	1096.66
413.77	1094.50
414.14	1095.93
414.51	1098.11
414.87	1099.96
415.24	1103.45
415.61	1104.33
415.97	1100.66
416.34	1103.05
416.71	1105.67
417.08	1105.74
417.44	1108.34
417.81	1108.69
418.18	1106.46
418.54	1103.16
418.91	1103.45
419.28	1101.90
419.64	1104.52
420.01	1109.37
420.38	1112.18
420.74	1112.41
421.11	1114.33
421.48	1115.83
421.84	1114.42
422.21	1115.69
422.58	1118.03
422.94	1121.16
423.31	1123.71
423.68	1128.23
424.04	1132.16
424.41	1135.11
424.77	1138.67
425.14	1143.68
425.51	1148.64
425.87	1151.36
426.24	1154.89
426.61	1158.89
426.97	1164.74
427.34	1169.12
427.70	1174.62
428.07	1184.76
428.44	1191.80
428.80	1198.45
429.17	1205.98
429.53	1217.20
429.90	1224.92
430.27	1232.13
430.63	1241.42
431.00	1253.26
431.36	1263.63
431.73	1273.04
432.09	1289.12
432.46	1302.55
432.83	1319.64
433.19	1333.50
433.56	1354.44
433.92	1375.30
434.29	1399.38
434.65	1421.83
435.02	1447.83
435.38	1471.61
435.75	1497.29
436.11	1528.67
436.48	1560.11
436.84	1594.26
437.21	1634.51
437.57	1675.10
437.94	1712.24
438.30	1755.94
438.67	1802.31
439.03	1847.50
439.40	1897.92
439.76	1959.40
440.13	2021.85
440.49	2088.46
440.86	2153.95
441.22	2225.22
441.59	2294.05
441.95	2374.82
442.32	2459.58
442.68	2560.15
443.05	2664.21
443.41	2763.66
443.78	2863.01
444.14	2971.38
444.51	3080.89
444.87	3215.40
445.24	3360.35
445.60	3519.07
445.96	3673.45
446.33	3848.68
446.69	4014.09
447.06	4192.88
447.42	4369.43
447.79	4568.35
448.15	4793.02
448.51	5019.98
448.88	5283.99
449.24	5538.29
449.61	5817.24
449.97	6089.04
450.33	6374.94
450.70	6635.54
451.06	6955.35
451.43	7265.23
451.79	7622.59
452.15	8031.20
452.52	8481.91
452.88	8965.09
453.24	9504.21
453.61	10094.43
453.97	10652.27
454.34	11207.54
454.70	11857.29
455.06	12496.78
455.43	13123.36
455.79	13734.97
456.15	14467.30
456.52	15121.62
456.88	15902.79
457.24	16626.84
457.61	17479.71
457.97	18241.57
458.33	19009.76
458.70	19776.97
459.06	20547.05
459.42	21380.75
459.79	22167.24
460.15	23092.29
460.51	23953.79
460.88	24898.92
461.24	25700.49
461.60	26677.89
461.96	27557.87
462.33	28394.49
462.69	29186.95
463.05	30057.91
463.42	30763.14
463.78	31418.79
464.14	31964.98
464.50	32558.68
464.87	33007.40
465.23	33365.65
465.59	33723.05
465.95	34067.48
466.32	34320.63
466.68	34564.82
467.04	34712.44
467.40	34852.10
467.77	34998.76
468.13	34986.16
468.49	34890.97
468.85	34816.83
469.22	34623.59
469.58	34266.05
469.94	34009.06
470.30	33710.64
470.66	33291.50
471.03	32701.94
471.39	32319.73
471.75	31698.23
472.11	31097.79
472.47	30746.40
472.84	30451.49
473.20	29977.70
473.56	29691.61
473.92	29264.07
474.28	28739.44
474.65	28237.74
475.01	27743.33
475.37	27177.27
475.73	26709.68
476.09	26171.26
476.45	25641.97
476.81	25117.74
477.18	24571.95
477.54	24115.87
477.90	23766.10
478.26	23357.33
478.62	23009.90
478.98	22715.30
479.34	22401.06
479.71	21973.82
480.07	21619.67
480.43	21257.49
480.79	20862.67
481.15	20493.19
481.51	20172.70
481.87	19915.38
482.23	19618.44
482.59	19380.03
482.96	19101.79
483.32	18823.15
483.68	18435.04
484.04	18101.45
484.40	17742.41
484.76	17372.93
485.12	16985.67
485.48	16674.82
485.84	16320.32
486.20	15944.20
486.56	15574.91
486.92	15277.89
487.28	14922.90
487.64	14569.53
488.00	14245.46
488.37	13908.98
488.73	13539.98
489.09	13184.54
489.45	12865.39
489.81	12558.54
490.17	12263.40
490.53	11984.85
490.89	11674.48
491.25	11370.44
491.61	11040.00
491.97	10719.96
492.33	10377.94
492.69	10085.23
493.05	9783.04
493.41	9492.16
493.77	9215.88
494.13	8968.37
494.49	8714.24
494.85	8475.55
495.21	8252.21
495.57	8044.75
495.93	7834.80
496.29	7635.58
496.64	7445.67
497.00	7248.10
497.36	7049.46
497.72	6847.96
498.08	6658.75
498.44	6474.90
498.80	6310.22
499.16	6148.14
499.52	5995.07
499.88	5865.62
500.24	5735.30
500.60	5609.59
500.96	5485.14
501.32	5369.70
501.68	5241.54
502.03	5118.78
502.39	4994.42
502.75	4860.05
503.11	4729.61
503.47	4613.13
503.83	4487.51
504.19	4365.36
504.55	4260.97
504.91	4170.48
505.26	4076.53
505.62	3999.44
505.98	3910.54
506.34	3814.75
506.70	3714.76
507.06	3622.94
507.42	3528.31
507.78	3452.59
508.13	3381.49
508.49	3310.85
508.85	3240.07
509.21	3172.97
509.57	3104.91
509.93	3037.71
510.28	2966.68
510.64	2901.68
511.00	2836.68
511.36	2772.11
511.72	2716.52
512.07	2668.47
512.43	2616.86
512.79	2566.30
513.15	2519.63
513.51	2472.75
513.86	2431.96
514.22	2390.25
514.58	2348.73
514.94	2315.12
515.30	2283.26
515.65	2242.35
516.01	2208.69
516.37	2179.13
516.73	2146.36
517.08	2111.96
517.44	2079.99
517.80	2050.92
518.16	2024.59
518.51	1993.83
518.87	1962.16
519.23	1936.09
519.59	1906.69
519.94	1878.77
520.30	1852.37
520.66	1828.15
521.01	1804.32
521.37	1784.28
521.73	1763.76
522.09	1744.05
522.44	1724.09
522.80	1704.78
523.16	1686.08
523.51	1666.84
523.87	1653.31
524.23	1639.17
524.58	1619.11
524.94	1602.21
525.30	1584.71
525.65	1560.76
526.01	1545.76
526.37	1536.94
526.72	1520.37
527.08	1507.49
527.44	1502.39
527.79	1492.07
528.15	1479.50
528.51	1468.62
528.86	1457.66
529.22	1443.01
529.58	1426.84
529.93	1414.18
530.29	1402.75
530.65	1390.47
531.00	1380.99
531.36	1372.07
531.71	1363.57
532.07	1354.40
532.43	1347.12
532.78	1338.62
533.14	1332.05
533.49	1327.11
533.85	1323.81
534.21	1314.21
534.56	1309.16
534.92	1302.58
535.27	1291.04
535.63	1283.29
535.98	1278.24
536.34	1270.68
536.69	1265.36
537.05	1263.96
537.41	1260.40
537.76	1256.98
538.12	1252.05
538.47	1248.72
538.83	1242.43
539.18	1235.73
539.54	1230.96
539.89	1228.15
540.25	1221.29
540.60	1217.97
540.96	1215.28
541.31	1213.64
541.67	1212.42
542.02	1210.43
542.38	1208.35
542.73	1202.17
543.09	1197.00
543.44	1192.74
543.80	1188.73
544.15	1183.02
544.51	1182.65
544.86	1180.80
545.22	1178.48
545.57	1179.23
545.93	1178.51
546.28	1177.83
546.64	1173.69
546.99	1172.35
547.35	1167.34
547.70	1166.99
548.05	1164.23
548.41	1165.14
548.76	1161.12
549.12	1157.89
549.47	1152.29
549.83	1148.10
550.18	1147.21
550.53	1144.15
550.89	1141.78
551.24	1141.34
551.60	1142.58
551.95	1139.09
552.30	1140.15
552.66	1144.29
553.01	1142.65
553.37	1140.19
553.72	1141.43
554.07	1136.99
554.43	1133.43
554.78	1132.54
555.13	1133.38
555.49	1129.43
555.84	1130.39
556.19	1128.14
556.55	1128.75
556.90	1127.08
557.26	1128.04
557.61	1128.91
557.96	1130.01
558.32	1129.75
558.67	1127.25
559.02	1122.40
559.37	1118.21
559.73	1114.52
560.08	1112.60
560.43	1112.11
560.79	1115.05
561.14	1113.74
561.49	1112.85
561.85	1111.38
562.20	1110.63
562.55	1109.23
562.90	1112.53
563.26	1116.51
563.61	1117.28
563.96	1120.63
564.32	1120.70
564.67	1117.96
565.02	1114.33
565.37	1114.52
565.73	1111.10
566.08	1109.88
566.43	1107.45
566.78	1106.86
567.14	1105.34
567.49	1102.91
567.84	1100.87
568.19	1102.06
568.54	1100.17
568.90	1101.11
569.25	1102.42
569.60	1102.39
569.95	1102.65
570.31	1104.19
570.66	1101.57
571.01	1101.39
571.36	1102.42
571.71	1105.01
572.06	1105.81
572.42	1104.69
572.77	1101.25
573.12	1100.80
573.47	1096.80
573.82	1095.14
574.18	1097.27
574.53	1097.66
574.88	1095.75
575.23	1095.67
575.58	1098.58
575.93	1097.90
576.28	1098.23
576.64	1099.82
576.99	1096.73
577.34	1093.80
577.69	1089.89
578.04	1089.57
578.39	1089.52
578.74	1089.00
579.09	1086.76
579.44	1092.28
579.80	1091.09
580.15	1091.63
580.50	1092.91
580.85	1094.93
581.20	1094.22
581.55	1096.99
581.90	1096.05
582.25	1094.34
582.60	1090.99
582.95	1088.40
583.30	1087.37
583.65	1085.42
584.00	1089.40
584.35	1089.94
584.71	1089.03
585.06	1089.29
585.41	1091.09
585.76	1089.52
586.11	1088.42
586.46	1085.77
586.81	1086.50
587.16	1086.01
587.51	1086.57
587.86	1089.29
588.21	1091.79
588.56	1088.86
588.91	1091.30
589.26	1091.04
589.61	1093.43
589.96	1094.97
590.31	1096.17
590.66	1090.92
591.01	1092.21
591.36	1088.70
591.71	1087.55
592.06	1086.62
592.41	1090.60
592.76	1088.49
593.10	1088.44
593.45	1090.99
593.80	1093.03
594.15	1093.52
594.50	1093.62
594.85	1096.26
595.20	1093.05
595.55	1089.96
595.90	1087.86
596.25	1088.23
596.60	1087.86
596.95	1089.47
597.30	1090.55
597.64	1100.75
597.99	1100.92
598.34	1099.33
598.69	1103.23
599.04	1105.81
599.39	1093.73
599.74	1093.15
600.09	1094.46
600.44	1090.34
600.78	1088.40
601.13	1088.63
601.48	1087.06
601.83	1086.38
602.18	1086.15
602.53	1085.82
602.88	1085.75
603.22	1088.91
603.57	1086.92
603.92	1086.48
604.27	1086.29
604.62	1088.33
604.97	1087.09
605.31	1091.81
605.66	1090.57
606.01	1090.08
606.36	1088.02
606.71	1088.42
607.05	1086.52
607.40	1084.21
607.75	1085.99
608.10	1085.31
608.44	1085.49
608.79	1083.43
609.14	1086.15
609.49	1086.01
609.84	1085.61
610.18	1083.53
610.53	1082.76
610.88	1082.26
611.23	1082.22
611.57	1085.94
611.92	1088.65
612.27	1090.90
612.62	1092.80
612.96	1093.40
613.31	1091.46
613.66	1090.46
614.00	1091.32
614.35	1089.43
614.70	1088.82
615.05	1087.72
615.39	1088.07
615.74	1085.28
616.09	1087.76
616.43	1089.31
616.78	1096.61
617.13	1096.94
617.47	1097.38
617.82	1097.52
618.17	1093.87
618.51	1087.53
618.86	1087.13
619.21	1085.66
619.55	1082.59
619.90	1084.32
620.25	1083.67
620.59	1081.82
620.94	1081.23
621.29	1083.86
621.63	1083.43
621.98	1082.66
622.32	1084.81
622.67	1087.16
623.02	1084.32
623.36	1083.08
623.71	1082.29
624.05	1081.19
624.40	1081.28
624.75	1081.98
625.09	1084.14
625.44	1083.57
625.78	1082.64
626.13	1081.05
626.48	1081.33
626.82	1077.89
627.17	1079.88
627.51	1082.24
627.86	1082.92
628.20	1084.98
628.55	1086.03
628.89	1086.85
629.24	1085.42
629.58	1089.31
629.93	1086.92
630.28	1088.07
630.62	1085.05
630.97	1082.15
631.31	1080.74
631.66	1084.79
632.00	1084.25
632.35	1089.00
632.69	1092.09
633.04	1091.34
633.38	1086.66
633.73	1087.65
634.07	1087.09
634.42	1087.02
634.76	1083.18
635.11	1085.89
635.45	1085.68
635.79	1083.64
636.14	1081.40
636.48	1083.18
636.83	1082.36
637.17	1084.16
637.52	1086.15
637.86	1090.78
638.21	1093.01
638.55	1092.45
638.89	1090.69
639.24	1090.50
639.58	1084.00
639.93	1082.64
640.27	1080.86
640.61	1080.91
640.96	1079.13
641.30	1081.28
641.65	1080.56
641.99	1083.74
642.33	1082.78
642.68	1084.77
643.02	1087.44
643.37	1086.69
643.71	1083.22
644.05	1081.73
644.40	1079.17
644.74	1079.90
645.08	1081.66
645.43	1082.31
645.77	1082.83
646.11	1084.11
646.46	1082.94
646.80	1083.06
647.14	1084.30
647.49	1085.66
647.83	1084.09
648.17	1083.50
648.52	1082.80
648.86	1083.06
649.20	1081.14
649.55	1083.06
649.89	1085.00
650.23	1082.87
650.57	1083.01
650.92	1084.60
651.26	1084.02
651.60	1081.66
651.95	1083.88
652.29	1085.77
652.63	1086.52
652.97	1088.51
653.32	1088.44
653.66	1087.37
654.00	1086.13
654.34	1084.23
654.69	1082.97
655.03	1082.54
655.37	1085.19
655.71	1083.71
656.05	1085.59
656.40	1084.35
656.74	1087.69
657.08	1084.81
657.42	1084.98
657.76	1086.13
658.11	1086.06
658.45	1080.70
658.79	1080.60
659.13	1081.12
659.47	1075.62
659.82	1077.42
660.16	1082.05
660.50	1081.21
660.84	1078.80
661.18	1084.98
661.52	1084.53
661.87	1079.69
662.21	1082.97
662.55	1085.24
662.89	1081.84
663.23	1080.93
663.57	1081.58
663.91	1080.70
664.25	1081.30
664.60	1080.95
664.94	1081.80
665.28	1080.88
665.62	1080.48
665.96	1080.20
666.30	1080.65
666.64	1080.44
666.98	1086.52
667.32	1086.31
667.66	1085.40
668.01	1087.95
668.35	1086.83
668.69	1084.53
669.03	1086.41
669.37	1086.43
669.71	1082.45
670.05	1083.53
670.39	1080.65
670.73	1080.60
671.07	1082.05
671.41	1086.24
671.75	1087.88
672.09	1090.60
672.43	1089.78
672.77	1087.20
673.11	1083.32
673.45	1081.12
673.79	1082.64
674.13	1082.97
674.47	1083.11
674.81	1082.52
675.15	1085.03
675.49	1083.76
675.83	1083.64
676.17	1084.32
676.51	1087.74
676.85	1084.42
677.19	1083.39
677.53	1081.75
677.87	1084.93
678.21	1086.52
678.55	1088.70
678.89	1088.40
679.23	1087.02
679.57	1085.31
679.90	1084.72
680.24	1084.00
680.58	1082.26
680.92	1083.62
681.26	1082.76
681.60	1082.17
681.94	1083.39
682.28	1084.70
682.62	1084.35
682.96	1082.31
683.29	1080.81
683.63	1079.99
683.97	1080.81
684.31	1082.90
684.65	1086.45
684.99	1087.16
685.33	1082.64
685.67	1081.19
686.00	1080.93
686.34	1079.38
686.68	1077.14
687.02	1081.33
687.36	1080.44
687.70	1078.78
688.03	1077.89
688.37	1079.46
688.71	1079.01
689.05	1080.11
689.39	1077.98
689.72	1080.16
690.06	1081.35
690.40	1081.42
690.74	1078.10
691.08	1079.74
691.41	1077.65
691.75	1076.32
692.09	1076.76
692.43	1082.24
692.76	1084.14
693.10	1087.27
693.44	1086.57
693.78	1085.77
694.11	1085.52
694.45	1083.79
694.79	1082.47
695.13	1082.73
695.46	1081.44
695.80	1080.79
696.14	1078.64
696.48	1077.21
696.81	1074.59
697.15	1074.91
697.49	1074.52
697.82	1078.21
698.16	1078.14
698.50	1080.88
698.83	1082.12
699.17	1082.12
699.51	1082.78
699.84	1081.56
700.18	1082.33
700.52	1080.84
700.85	1082.29
701.19	1080.67
701.53	1080.46
701.86	1080.11
702.20	1080.84
702.54	1081.05
702.87	1081.28
703.21	1079.88
703.55	1078.59
703.88	1080.48
704.22	1077.37
704.55	1075.10
704.89	1076.90
705.23	1077.91
705.56	1079.78
705.90	1081.26
706.23	1083.13
706.57	1083.29
706.91	1080.44
707.24	1076.51
707.58	1076.11
707.91	1077.21
708.25	1077.56
708.58	1078.52
708.92	1080.46
709.26	1080.16
709.59	1079.10
709.93	1081.84
710.26	1084.74
710.60	1082.76
710.93	1084.53
711.27	1085.28
711.60	1081.51
711.94	1080.53
712.27	1080.74
712.61	1081.96
712.94	1080.20
713.28	1080.98
713.61	1081.70
713.95	1079.90
714.28	1075.50
714.62	1074.98
714.95	1079.06
715.29	1078.19
715.62	1080.84
715.96	1082.24
716.29	1083.53
716.63	1082.03
716.96	1079.55
717.29	1075.10
717.63	1076.60
717.96	1075.94
718.30	1072.08
718.63	1076.72
718.97	1081.00
719.30	1079.27
719.63	1081.75
719.97	1080.23
720.30	1079.22
720.64	1080.44
720.97	1080.04
721.30	1079.95
721.64	1084.23
721.97	1085.49
722.31	1082.87
722.64	1085.28
722.97	1083.53
723.31	1082.69
723.64	1083.06
723.97	1084.16
724.31	1084.42
724.64	1085.10
724.98	1087.90
725.31	1087.88
725.64	1089.71
725.98	1088.91
726.31	1086.92
726.64	1083.76
726.97	1081.42
727.31	1081.14
727.64	1079.60
727.97	1081.49
728.31	1081.84
728.64	1083.76
728.97	1083.15
729.31	1081.30
729.64	1079.24
729.97	1077.89
730.30	1076.46
730.64	1076.34
730.97	1078.78
731.30	1081.07
731.63	1083.15
731.97	1084.60
732.30	1083.20
732.63	1082.61
732.96	1081.49
733.30	1080.72
733.63	1078.96
733.96	1080.11
734.29	1082.59
734.63	1080.44
734.96	1081.89
735.29	1081.94
735.62	1081.75
735.95	1080.23
736.29	1083.43
736.62	1082.64
736.95	1082.19
737.28	1080.63
737.61	1082.52
737.94	1082.78
738.28	1080.70
738.61	1077.96
738.94	1077.91
739.27	1074.70
739.60	1073.39
739.93	1076.11
740.27	1081.94
740.60	1081.58
740.93	1082.03
741.26	1080.70
741.59	1079.78
741.92	1076.95
742.25	1078.59
742.58	1081.16
742.91	1084.16
743.25	1083.55
743.58	1084.63
743.91	1086.29
744.24	1083.69
744.57	1083.27
744.90	1086.83
745.23	1087.44
745.56	1088.65
745.89	1089.19
746.22	1089.54
746.55	1088.70
746.88	1087.13
747.21	1084.09
747.54	1085.99
747.87	1082.64
748.20	1077.49
748.53	1076.88
748.87	1075.27
749.20	1075.10
749.53	1076.53
749.86	1076.53
750.19	1079.27
750.52	1081.14
750.85	1080.98
751.18	1083.43
751.51	1084.56
751.84	1084.86
752.16	1088.21
752.49	1085.00
752.82	1082.87
753.15	1084.51
753.48	1084.51
753.81	1080.32
754.14	1084.30
754.47	1083.46
754.80	1085.31
755.13	1081.89
755.46	1079.85
755.79	1074.28
756.12	1075.38
756.45	1074.21
756.78	1073.09
757.11	1074.33
757.43	1078.99
757.76	1079.85
758.09	1076.13
758.42	1077.96
758.75	1076.90
759.08	1077.63
759.41	1078.36
759.74	1079.22
760.07	1076.60
760.39	1079.38
760.72	1079.06
761.05	1079.10
761.38	1081.02
761.71	1083.46
762.04	1081.37
762.36	1079.29
762.69	1077.37
763.02	1076.88
763.35	1077.65
763.68	1081.05
764.01	1079.46
