SpectraSuite Data File
++++++++++++++++++++++++++++++++++++
Date: Mon Aug 26 10:22:28 PDT 2019
User: corrico
Dark Spectrum Present: No
Reference Spectrum Present: No
Number of Sampled Component Spectra: 1
Spectrometers: USB2+H06089
Integration Time (usec): 2000 (USB2+H06089)
Spectra Averaged: 20 (USB2+H06089)
Boxcar Smoothing: 2 (USB2+H06089)
Correct for Electrical Dark: No (USB2+H06089)
Strobe/Lamp Enabled: No (USB2+H06089)
Correct for Detector Non-linearity: No (USB2+H06089)
Correct for Stray Light: No (USB2+H06089)
Number of Pixels in Processed Spectrum: 2048
>>>>>Begin Processed Spectral Data<<<<<
339.70	1036.39
340.07	1036.39
340.45	996.13
340.82	973.38
341.19	948.22
341.57	920.09
341.94	912.04
342.31	905.27
342.69	901.50
343.06	898.70
343.43	898.74
343.81	898.51
344.18	902.93
344.55	904.52
344.93	910.82
345.30	917.98
345.67	926.76
346.04	929.80
346.42	939.19
346.79	943.94
347.16	950.94
347.54	957.12
347.91	968.65
348.28	975.82
348.65	991.52
349.03	1003.15
349.40	1016.82
349.77	1021.41
350.14	1030.98
350.52	1033.53
350.89	1040.46
351.26	1044.72
351.63	1053.85
352.01	1058.62
352.38	1063.21
352.75	1066.09
353.12	1068.06
353.50	1072.43
353.87	1073.02
354.24	1074.47
354.61	1073.70
354.98	1075.78
355.36	1077.58
355.73	1082.71
356.10	1086.03
356.47	1090.81
356.84	1091.81
357.22	1091.42
357.59	1091.63
357.96	1091.51
358.33	1088.89
358.70	1087.93
359.08	1084.51
359.45	1080.91
359.82	1076.93
360.19	1075.71
360.56	1074.52
360.94	1076.06
361.31	1079.88
361.68	1080.74
362.05	1079.78
362.42	1080.27
362.79	1078.54
363.16	1074.73
363.54	1074.75
363.91	1075.64
364.28	1074.33
364.65	1074.63
365.02	1075.52
365.39	1073.30
365.76	1075.71
366.14	1077.63
366.51	1079.85
366.88	1080.67
367.25	1082.66
367.62	1079.78
367.99	1080.77
368.36	1077.65
368.73	1074.45
369.10	1075.71
369.48	1076.62
369.85	1071.97
370.22	1068.92
370.59	1072.08
370.96	1071.75
371.33	1073.25
371.70	1075.97
372.07	1082.24
372.44	1082.15
372.81	1079.41
373.18	1079.34
373.55	1080.84
373.93	1076.65
374.30	1074.49
374.67	1081.02
375.04	1077.00
375.41	1076.83
375.78	1078.68
376.15	1080.32
376.52	1074.33
376.89	1076.13
377.26	1072.88
377.63	1073.25
378.00	1071.29
378.37	1071.75
378.74	1071.71
379.11	1073.28
379.48	1072.50
379.85	1072.92
380.22	1077.37
380.59	1076.20
380.96	1075.55
381.33	1077.72
381.70	1077.23
382.07	1076.06
382.44	1078.28
382.81	1078.80
383.18	1079.34
383.55	1080.88
383.92	1080.44
384.29	1081.30
384.66	1081.40
385.03	1081.28
385.40	1078.85
385.77	1076.55
386.14	1077.77
386.51	1076.72
386.88	1075.73
387.25	1082.78
387.62	1086.41
387.99	1082.85
388.36	1084.67
388.73	1083.62
389.10	1081.94
389.46	1082.66
389.83	1086.80
390.20	1088.19
390.57	1091.95
390.94	1087.86
391.31	1084.98
391.68	1081.33
392.05	1080.44
392.42	1080.37
392.79	1084.37
393.16	1084.65
393.53	1087.76
393.89	1089.10
394.26	1084.79
394.63	1082.97
395.00	1084.51
395.37	1081.89
395.74	1083.90
396.11	1088.21
396.48	1087.72
396.84	1086.34
397.21	1087.81
397.58	1082.36
397.95	1078.17
398.32	1079.78
398.69	1080.93
399.06	1081.33
399.42	1083.32
399.79	1086.52
400.16	1088.09
400.53	1089.19
400.90	1092.61
401.27	1097.27
401.64	1093.71
402.00	1091.13
402.37	1089.73
402.74	1088.14
403.11	1087.67
403.48	1090.03
403.84	1092.40
404.21	1092.30
404.58	1092.30
404.95	1093.33
405.32	1093.64
405.68	1092.09
406.05	1096.10
406.42	1095.93
406.79	1095.14
407.16	1096.85
407.52	1100.36
407.89	1097.83
408.26	1100.24
408.63	1097.27
408.99	1095.46
409.36	1095.35
409.73	1094.57
410.10	1094.67
410.47	1096.54
410.83	1099.40
411.20	1102.84
411.57	1102.53
411.94	1103.33
412.30	1103.05
412.67	1106.07
413.04	1101.06
413.40	1105.08
413.77	1103.02
414.14	1106.23
414.51	1106.79
414.87	1106.96
415.24	1105.27
415.61	1104.62
415.97	1104.76
416.34	1099.07
416.71	1102.49
417.08	1105.29
417.44	1107.49
417.81	1105.55
418.18	1108.06
418.54	1109.62
418.91	1112.08
419.28	1112.99
419.64	1115.85
420.01	1117.51
420.38	1114.66
420.74	1113.21
421.11	1113.21
421.48	1113.58
421.84	1115.78
422.21	1119.15
422.58	1125.19
422.94	1131.13
423.31	1133.43
423.68	1138.76
424.04	1142.35
424.41	1138.79
424.77	1139.61
425.14	1145.01
425.51	1146.77
425.87	1149.04
426.24	1156.22
426.61	1158.96
426.97	1163.50
427.34	1168.72
427.70	1179.72
428.07	1184.12
428.44	1194.47
428.80	1200.58
429.17	1207.25
429.53	1211.32
429.90	1222.79
430.27	1230.14
430.63	1242.10
431.00	1255.91
431.36	1267.31
431.73	1277.60
432.09	1292.16
432.46	1303.56
432.83	1318.61
433.19	1335.98
433.56	1357.32
433.92	1379.32
434.29	1402.19
434.65	1426.51
435.02	1452.42
435.38	1478.10
435.75	1501.41
436.11	1530.01
436.48	1558.07
436.84	1592.69
437.21	1627.77
437.57	1669.76
437.94	1714.68
438.30	1763.45
438.67	1807.15
439.03	1861.80
439.40	1911.19
439.76	1965.68
440.13	2024.17
440.49	2094.90
440.86	2159.14
441.22	2231.54
441.59	2308.45
441.95	2393.20
442.32	2475.80
442.68	2570.87
443.05	2671.67
443.41	2767.33
443.78	2864.68
444.14	2970.40
444.51	3082.16
444.87	3222.89
445.24	3372.41
445.60	3526.44
445.96	3684.42
446.33	3855.78
446.69	4012.10
447.06	4185.67
447.42	4372.78
447.79	4568.12
448.15	4797.33
448.51	5036.01
448.88	5300.38
449.24	5552.41
449.61	5841.13
449.97	6112.12
450.33	6399.56
450.70	6664.63
451.06	6988.21
451.43	7287.45
451.79	7654.09
452.15	8065.77
452.52	8528.91
452.88	9003.39
453.24	9547.21
453.61	10137.87
453.97	10707.30
454.34	11263.36
454.70	11923.91
455.06	12581.67
455.43	13212.77
455.79	13806.14
456.15	14534.54
456.52	15195.86
456.88	15957.35
457.24	16694.39
457.61	17574.26
457.97	18362.13
458.33	19151.88
458.70	19946.28
459.06	20731.27
459.42	21558.86
459.79	22334.68
460.15	23252.47
460.51	24131.02
460.88	25062.25
461.24	25883.19
461.60	26875.79
461.96	27767.83
462.33	28600.62
462.69	29389.29
463.05	30231.69
463.42	30934.51
463.78	31571.56
464.14	32123.20
464.50	32724.76
464.87	33200.66
465.23	33548.51
465.59	33903.97
465.95	34209.04
466.32	34465.07
466.68	34707.20
467.04	34851.26
467.40	34991.92
467.77	35149.79
468.13	35120.09
468.49	35023.94
468.85	34934.84
469.22	34759.90
469.58	34422.70
469.94	34171.31
470.30	33851.96
470.66	33445.23
471.03	32841.53
471.39	32432.03
471.75	31792.36
472.11	31201.54
472.47	30831.99
472.84	30520.52
473.20	30043.07
473.56	29772.83
473.92	29327.01
474.28	28823.09
474.65	28337.38
475.01	27848.63
475.37	27282.92
475.73	26827.67
476.09	26274.88
476.45	25733.07
476.81	25205.63
477.18	24658.60
477.54	24188.22
477.90	23834.00
478.26	23414.74
478.62	23082.13
478.98	22795.88
479.34	22488.71
479.71	22057.04
480.07	21706.22
480.43	21335.79
480.79	20937.52
481.15	20571.20
481.51	20272.34
481.87	20015.98
482.23	19734.67
482.59	19488.70
482.96	19213.25
483.32	18923.51
483.68	18551.09
484.04	18194.41
484.40	17811.97
484.76	17427.89
485.12	17050.57
485.48	16714.37
485.84	16356.79
486.20	15990.87
486.56	15621.34
486.92	15310.85
487.28	14963.58
487.64	14604.40
488.00	14280.64
488.37	13959.12
488.73	13582.62
489.09	13224.24
489.45	12914.00
489.81	12590.58
490.17	12290.71
490.53	11988.15
490.89	11683.25
491.25	11370.74
491.61	11053.86
491.97	10722.58
492.33	10398.91
492.69	10101.28
493.05	9799.12
493.41	9509.81
493.77	9241.77
494.13	8994.30
494.49	8738.51
494.85	8499.61
495.21	8274.24
495.57	8046.29
495.93	7827.31
496.29	7623.97
496.64	7437.26
497.00	7237.97
497.36	7046.53
497.72	6863.64
498.08	6681.57
498.44	6495.29
498.80	6324.64
499.16	6158.32
499.52	5995.75
499.88	5857.26
500.24	5734.36
500.60	5617.10
500.96	5506.81
501.32	5401.21
501.68	5286.47
502.03	5157.04
502.39	5035.24
502.75	4892.42
503.11	4765.21
503.47	4642.57
503.83	4521.75
504.19	4396.77
504.55	4292.38
504.91	4183.78
505.26	4081.24
505.62	3994.38
505.98	3904.34
506.34	3809.92
506.70	3718.10
507.06	3628.93
507.42	3541.96
507.78	3459.66
508.13	3381.72
508.49	3306.71
508.85	3239.61
509.21	3165.95
509.57	3099.88
509.93	3038.97
510.28	2975.83
510.64	2913.15
511.00	2851.83
511.36	2795.98
511.72	2738.40
512.07	2687.26
512.43	2632.75
512.79	2581.17
513.15	2532.44
513.51	2483.43
513.86	2435.68
514.22	2391.79
514.58	2351.54
514.94	2311.30
515.30	2277.04
515.65	2239.35
516.01	2209.98
516.37	2180.58
516.73	2147.51
517.08	2116.57
517.44	2085.86
517.80	2050.68
518.16	2025.31
518.51	2002.14
518.87	1973.96
519.23	1950.79
519.59	1925.18
519.94	1894.08
520.30	1871.38
520.66	1848.06
521.01	1825.62
521.37	1801.84
521.73	1784.47
522.09	1760.76
522.44	1741.22
522.80	1721.37
523.16	1707.65
523.51	1685.70
523.87	1664.50
524.23	1648.63
524.58	1627.75
524.94	1607.20
525.30	1588.36
525.65	1574.67
526.01	1554.14
526.37	1541.59
526.72	1532.75
527.08	1520.44
527.44	1503.56
527.79	1492.04
528.15	1477.18
528.51	1460.03
528.86	1445.96
529.22	1436.83
529.58	1424.26
529.93	1412.63
530.29	1399.13
530.65	1390.91
531.00	1378.06
531.36	1367.06
531.71	1361.51
532.07	1359.43
532.43	1352.27
532.78	1345.74
533.14	1341.76
533.49	1332.47
533.85	1322.38
534.21	1316.74
534.56	1309.18
534.92	1302.67
535.27	1294.50
535.63	1287.13
535.98	1276.50
536.34	1272.08
536.69	1266.00
537.05	1264.12
537.41	1258.48
537.76	1256.00
538.12	1251.04
538.47	1246.64
538.83	1241.94
539.18	1238.49
539.54	1231.80
539.89	1227.52
540.25	1222.77
540.60	1217.38
540.96	1213.52
541.31	1210.27
541.67	1207.46
542.02	1204.35
542.38	1199.48
542.73	1200.06
543.09	1199.78
543.44	1193.28
543.80	1189.30
544.15	1189.27
544.51	1182.39
544.86	1179.28
545.22	1178.02
545.57	1176.00
545.93	1170.76
546.28	1168.33
546.64	1165.56
546.99	1165.28
547.35	1164.51
547.70	1164.42
548.05	1162.12
548.41	1158.92
548.76	1155.17
549.12	1153.39
549.47	1150.33
549.83	1149.20
550.18	1145.65
550.53	1144.62
550.89	1143.40
551.24	1142.32
551.60	1141.78
551.95	1144.97
552.30	1145.97
552.66	1142.63
553.01	1142.63
553.37	1141.27
553.72	1136.05
554.07	1128.09
554.43	1130.53
554.78	1127.86
555.13	1125.63
555.49	1129.92
555.84	1131.65
556.19	1127.11
556.55	1125.75
556.90	1122.26
557.26	1117.18
557.61	1118.52
557.96	1115.38
558.32	1116.93
558.67	1119.20
559.02	1118.35
559.37	1114.91
559.73	1115.50
560.08	1113.46
560.43	1110.91
560.79	1112.34
561.14	1112.67
561.49	1113.30
561.85	1112.76
562.20	1116.83
562.55	1114.42
562.90	1115.55
563.26	1114.47
563.61	1112.99
563.96	1109.44
564.32	1110.09
564.67	1108.52
565.02	1105.36
565.37	1105.34
565.73	1106.30
566.08	1107.07
566.43	1105.06
566.78	1106.02
567.14	1106.42
567.49	1103.87
567.84	1098.90
568.19	1099.89
568.54	1102.23
568.90	1100.40
569.25	1100.94
569.60	1102.58
569.95	1104.29
570.31	1100.85
570.66	1101.08
571.01	1100.96
571.36	1101.36
571.71	1096.89
572.06	1096.45
572.42	1093.38
572.77	1092.14
573.12	1091.58
573.47	1095.21
573.82	1097.45
574.18	1101.39
574.53	1102.88
574.88	1101.36
575.23	1099.16
575.58	1096.54
575.93	1095.46
576.28	1096.10
576.64	1093.97
576.99	1096.63
577.34	1096.63
577.69	1095.75
578.04	1092.42
578.39	1094.69
578.74	1092.96
579.09	1094.04
579.44	1094.50
579.80	1092.42
580.15	1091.51
580.50	1089.64
580.85	1088.14
581.20	1086.06
581.55	1087.46
581.90	1086.29
582.25	1084.84
582.60	1087.32
582.95	1088.96
583.30	1087.67
583.65	1090.08
584.00	1092.68
584.35	1088.12
584.71	1086.13
585.06	1090.03
585.41	1090.81
585.76	1088.28
586.11	1092.49
586.46	1092.52
586.81	1091.13
587.16	1086.66
587.51	1086.48
587.86	1085.38
588.21	1086.83
588.56	1085.45
588.91	1087.09
589.26	1088.51
589.61	1087.95
589.96	1088.56
590.31	1088.61
590.66	1090.99
591.01	1091.60
591.36	1091.49
591.71	1090.69
592.06	1091.67
592.41	1088.42
592.76	1085.77
593.10	1087.65
593.45	1087.41
593.80	1086.15
594.15	1087.30
594.50	1089.94
594.85	1085.75
595.20	1083.62
595.55	1081.91
595.90	1081.05
596.25	1080.48
596.60	1083.27
596.95	1084.42
597.30	1086.50
597.64	1099.37
597.99	1103.33
598.34	1105.86
598.69	1109.27
599.04	1111.03
599.39	1099.51
599.74	1094.48
600.09	1092.12
600.44	1089.26
600.78	1085.49
601.13	1082.24
601.48	1081.66
601.83	1081.63
602.18	1080.70
602.53	1082.01
602.88	1087.81
603.22	1089.40
603.57	1088.30
603.92	1088.58
604.27	1087.74
604.62	1084.07
604.97	1085.73
605.31	1087.23
605.66	1086.08
606.01	1085.42
606.36	1086.57
606.71	1081.89
607.05	1082.26
607.40	1083.76
607.75	1086.15
608.10	1083.20
608.44	1085.61
608.79	1086.38
609.14	1088.58
609.49	1088.40
609.84	1088.23
610.18	1087.41
610.53	1084.51
610.88	1080.23
611.23	1079.71
611.57	1080.39
611.92	1080.06
612.27	1081.19
612.62	1084.81
612.96	1084.51
613.31	1086.66
613.66	1088.16
614.00	1085.73
614.35	1083.11
614.70	1084.51
615.05	1085.59
615.39	1085.21
615.74	1088.26
616.09	1087.74
616.43	1086.94
616.78	1083.86
617.13	1082.99
617.47	1080.77
617.82	1082.26
618.17	1081.49
618.51	1085.03
618.86	1084.81
619.21	1087.13
619.55	1088.00
619.90	1088.75
620.25	1086.62
620.59	1087.86
620.94	1087.67
621.29	1085.31
621.63	1084.81
621.98	1082.54
622.32	1082.33
622.67	1078.92
623.02	1077.23
623.36	1078.54
623.71	1081.58
624.05	1081.82
624.40	1082.50
624.75	1086.73
625.09	1083.46
625.44	1080.95
625.78	1080.04
626.13	1081.09
626.48	1077.61
626.82	1078.96
627.17	1078.99
627.51	1080.44
627.86	1081.82
628.20	1082.87
628.55	1083.15
628.89	1082.90
629.24	1081.26
629.58	1079.22
629.93	1081.19
630.28	1080.27
630.62	1081.84
630.97	1080.81
631.31	1082.08
631.66	1082.33
632.00	1081.70
632.35	1081.56
632.69	1080.95
633.04	1079.62
633.38	1078.82
633.73	1079.92
634.07	1079.62
634.42	1080.84
634.76	1082.01
635.11	1080.63
635.45	1078.68
635.79	1079.69
636.14	1081.33
636.48	1079.95
636.83	1081.61
637.17	1086.80
637.52	1089.50
637.86	1089.43
638.21	1090.76
638.55	1090.32
638.89	1085.59
639.24	1082.80
639.58	1079.76
639.93	1079.22
640.27	1081.66
640.61	1084.46
640.96	1085.05
641.30	1087.13
641.65	1085.49
641.99	1084.51
642.33	1082.31
642.68	1080.48
643.02	1082.59
643.37	1082.43
643.71	1078.26
644.05	1077.30
644.40	1079.38
644.74	1078.66
645.08	1078.17
645.43	1078.59
645.77	1078.89
646.11	1077.65
646.46	1075.85
646.80	1077.68
647.14	1078.05
647.49	1082.36
647.83	1081.09
648.17	1083.41
648.52	1081.75
648.86	1083.79
649.20	1081.44
649.55	1080.65
649.89	1078.10
650.23	1077.93
650.57	1074.28
650.92	1076.55
651.26	1080.84
651.60	1080.23
651.95	1082.76
652.29	1083.43
652.63	1078.80
652.97	1076.90
653.32	1079.17
653.66	1080.58
654.00	1082.05
654.34	1082.83
654.69	1081.42
655.03	1080.70
655.37	1079.10
655.71	1077.44
656.05	1078.66
656.40	1079.95
656.74	1080.13
657.08	1080.72
657.42	1084.42
657.76	1083.76
658.11	1083.67
658.45	1081.91
658.79	1080.63
659.13	1077.72
659.47	1077.68
659.82	1076.93
660.16	1077.75
660.50	1077.54
660.84	1078.43
661.18	1077.56
661.52	1077.86
661.87	1076.95
662.21	1079.15
662.55	1082.08
662.89	1084.04
663.23	1083.18
663.57	1086.59
663.91	1083.50
664.25	1080.86
664.60	1082.38
664.94	1083.83
665.28	1083.88
665.62	1086.10
665.96	1086.17
666.30	1085.84
666.64	1086.27
666.98	1084.28
667.32	1084.42
667.66	1085.26
668.01	1084.39
668.35	1081.49
668.69	1079.78
669.03	1079.43
669.37	1079.22
669.71	1078.07
670.05	1076.46
670.39	1076.76
670.73	1075.48
671.07	1074.98
671.41	1074.54
671.75	1079.20
672.09	1081.21
672.43	1083.29
672.77	1084.96
673.11	1086.97
673.45	1082.71
673.79	1084.32
674.13	1081.33
674.47	1082.40
674.81	1079.69
675.15	1085.17
675.49	1085.77
675.83	1088.30
676.17	1083.36
676.51	1084.25
676.85	1083.06
677.19	1078.33
677.53	1076.86
677.87	1077.42
678.21	1078.89
678.55	1076.67
678.89	1081.23
679.23	1081.84
679.57	1082.24
679.90	1080.30
680.24	1080.27
680.58	1078.57
680.92	1077.02
681.26	1079.53
681.60	1082.31
681.94	1084.35
682.28	1079.88
682.62	1079.85
682.96	1078.68
683.29	1075.29
683.63	1073.07
683.97	1076.48
684.31	1078.43
684.65	1079.78
684.99	1083.20
685.33	1084.65
685.67	1084.30
686.00	1084.96
686.34	1081.84
686.68	1080.27
687.02	1078.31
687.36	1078.59
687.70	1077.16
688.03	1080.20
688.37	1079.57
688.71	1082.01
689.05	1079.90
689.39	1081.28
689.72	1080.32
690.06	1081.75
690.40	1080.93
690.74	1081.61
691.08	1083.93
691.41	1083.88
691.75	1083.25
692.09	1080.67
692.43	1080.72
692.76	1077.47
693.10	1076.60
693.44	1077.35
693.78	1082.47
694.11	1084.14
694.45	1082.99
694.79	1083.64
695.13	1081.42
695.46	1080.32
695.80	1078.57
696.14	1078.73
696.48	1078.73
696.81	1079.69
697.15	1078.33
697.49	1082.01
697.82	1081.91
698.16	1081.80
698.50	1083.20
698.83	1083.74
699.17	1079.43
699.51	1078.64
699.84	1077.07
700.18	1075.80
700.52	1073.58
700.85	1074.98
701.19	1078.66
701.53	1079.41
701.86	1080.70
702.20	1083.06
702.54	1084.79
702.87	1083.53
703.21	1085.12
703.55	1082.78
703.88	1080.04
704.22	1080.41
704.55	1075.94
704.89	1076.41
705.23	1076.74
705.56	1075.45
705.90	1072.69
706.23	1075.90
706.57	1076.18
706.91	1078.73
707.24	1080.51
707.58	1083.11
707.91	1084.53
708.25	1081.56
708.58	1077.96
708.92	1081.40
709.26	1084.35
709.59	1082.24
709.93	1080.27
710.26	1083.06
710.60	1078.99
710.93	1076.51
711.27	1078.33
711.60	1082.54
711.94	1081.61
712.27	1082.29
712.61	1081.58
712.94	1082.90
713.28	1081.56
713.61	1084.84
713.95	1087.53
714.28	1085.75
714.62	1083.08
714.95	1082.05
715.29	1076.86
715.62	1077.33
715.96	1078.21
716.29	1080.51
716.63	1084.39
716.96	1086.45
717.29	1084.02
717.63	1082.54
717.96	1083.25
718.30	1080.13
718.63	1078.45
718.97	1081.84
719.30	1083.71
719.63	1080.02
719.97	1082.08
720.30	1083.50
720.64	1081.70
720.97	1078.50
721.30	1077.00
721.64	1075.38
721.97	1074.80
722.31	1075.85
722.64	1078.94
722.97	1085.45
723.31	1089.24
723.64	1091.09
723.97	1086.94
724.31	1084.11
724.64	1081.33
724.98	1077.86
725.31	1076.79
725.64	1080.06
725.98	1083.39
726.31	1082.45
726.64	1080.95
726.97	1079.99
727.31	1076.65
727.64	1073.72
727.97	1072.48
728.31	1073.09
728.64	1075.24
728.97	1078.38
729.31	1080.72
729.64	1083.22
729.97	1082.54
730.30	1081.35
730.64	1079.20
730.97	1077.61
731.30	1075.55
731.63	1076.20
731.97	1077.91
732.30	1077.47
732.63	1079.31
732.96	1080.84
733.30	1082.71
733.63	1080.41
733.96	1080.48
734.29	1082.36
734.63	1083.50
734.96	1081.61
735.29	1081.73
735.62	1083.50
735.95	1081.87
736.29	1080.48
736.62	1080.60
736.95	1079.46
737.28	1078.66
737.61	1075.36
737.94	1074.35
738.28	1075.27
738.61	1074.14
738.94	1072.04
739.27	1076.32
739.60	1076.58
739.93	1076.69
740.27	1079.55
740.60	1081.40
740.93	1078.26
741.26	1076.88
741.59	1076.01
741.92	1074.63
742.25	1075.17
742.58	1076.39
742.91	1079.27
743.25	1082.76
743.58	1083.04
743.91	1087.23
744.24	1087.79
744.57	1085.56
744.90	1083.97
745.23	1087.41
745.56	1084.21
745.89	1081.75
746.22	1082.94
746.55	1078.99
746.88	1076.86
747.21	1074.73
747.54	1074.24
747.87	1073.60
748.20	1077.54
748.53	1076.13
748.87	1080.63
749.20	1081.00
749.53	1078.52
749.86	1076.41
750.19	1078.85
750.52	1078.57
750.85	1080.18
751.18	1084.77
751.51	1087.88
751.84	1086.94
752.16	1084.56
752.49	1087.69
752.82	1082.36
753.15	1077.91
753.48	1078.24
753.81	1076.27
754.14	1072.43
754.47	1076.74
754.80	1078.71
755.13	1076.32
755.46	1077.68
755.79	1078.96
756.12	1080.98
756.45	1084.14
756.78	1083.88
757.11	1084.04
757.43	1085.77
757.76	1082.52
758.09	1077.07
758.42	1077.51
758.75	1074.91
759.08	1072.27
759.41	1074.54
759.74	1077.30
760.07	1077.35
760.39	1081.33
760.72	1082.71
761.05	1082.71
761.38	1083.29
761.71	1085.24
762.04	1080.88
762.36	1081.96
762.69	1080.88
763.02	1079.13
763.35	1079.74
763.68	1079.99
764.01	1075.27
