SpectraSuite Data File
++++++++++++++++++++++++++++++++++++
Date: Mon Aug 26 10:22:12 PDT 2019
User: corrico
Dark Spectrum Present: No
Reference Spectrum Present: No
Number of Sampled Component Spectra: 1
Spectrometers: USB2+H06089
Integration Time (usec): 2000 (USB2+H06089)
Spectra Averaged: 20 (USB2+H06089)
Boxcar Smoothing: 2 (USB2+H06089)
Correct for Electrical Dark: No (USB2+H06089)
Strobe/Lamp Enabled: No (USB2+H06089)
Correct for Detector Non-linearity: No (USB2+H06089)
Correct for Stray Light: No (USB2+H06089)
Number of Pixels in Processed Spectrum: 2048
>>>>>Begin Processed Spectral Data<<<<<
339.70	1035.92
340.07	1035.92
340.45	1000.58
340.82	977.13
341.19	950.63
341.57	923.79
341.94	910.63
342.31	902.53
342.69	897.46
343.06	894.08
343.43	893.22
343.81	897.83
344.18	899.56
344.55	904.87
344.93	912.83
345.30	923.32
345.67	926.62
346.04	935.77
346.42	946.23
346.79	954.28
347.16	958.10
347.54	967.13
347.91	976.35
348.28	984.99
348.65	997.19
349.03	1010.27
349.40	1019.47
349.77	1025.32
350.14	1028.03
350.52	1032.74
350.89	1037.33
351.26	1044.00
351.63	1050.69
352.01	1057.85
352.38	1062.51
352.75	1064.57
353.12	1068.20
353.50	1072.06
353.87	1077.75
354.24	1080.13
354.61	1083.95
354.98	1086.52
355.36	1087.48
355.73	1086.52
356.10	1088.40
356.47	1088.63
356.84	1090.24
357.22	1093.01
357.59	1091.91
357.96	1090.39
358.33	1087.41
358.70	1084.23
359.08	1081.84
359.45	1081.49
359.82	1081.80
360.19	1080.74
360.56	1078.61
360.94	1078.52
361.31	1078.78
361.68	1077.84
362.05	1083.11
362.42	1084.91
362.79	1085.28
363.16	1086.85
363.54	1086.08
363.91	1085.24
364.28	1085.35
364.65	1082.66
365.02	1080.98
365.39	1079.85
365.76	1075.36
366.14	1073.53
366.51	1072.57
366.88	1071.85
367.25	1072.81
367.62	1072.57
367.99	1076.60
368.36	1078.19
368.73	1078.12
369.10	1079.62
369.48	1077.28
369.85	1072.55
370.22	1070.98
370.59	1071.19
370.96	1069.81
371.33	1071.71
371.70	1073.95
372.07	1074.98
372.44	1073.51
372.81	1075.55
373.18	1075.31
373.55	1076.08
373.93	1075.24
374.30	1075.94
374.67	1072.04
375.04	1073.93
375.41	1074.80
375.78	1075.50
376.15	1077.23
376.52	1077.14
376.89	1080.06
377.26	1079.78
377.63	1081.66
378.00	1081.21
378.37	1080.46
378.74	1077.40
379.11	1077.00
379.48	1075.94
379.85	1077.07
380.22	1081.16
380.59	1086.45
380.96	1087.48
381.33	1089.57
381.70	1086.50
382.07	1086.15
382.44	1083.15
382.81	1084.21
383.18	1084.02
383.55	1084.49
383.92	1082.85
384.29	1082.54
384.66	1079.27
385.03	1077.86
385.40	1082.64
385.77	1083.13
386.14	1083.60
386.51	1085.54
386.88	1087.37
387.25	1083.57
387.62	1085.54
387.99	1085.05
388.36	1081.37
388.73	1080.20
389.10	1083.83
389.46	1081.26
389.83	1080.30
390.20	1083.93
390.57	1084.93
390.94	1082.94
391.31	1086.20
391.68	1086.87
392.05	1088.86
392.42	1089.87
392.79	1090.50
393.16	1088.82
393.53	1089.89
393.89	1087.65
394.26	1086.73
394.63	1086.29
395.00	1083.88
395.37	1085.19
395.74	1085.38
396.11	1088.56
396.48	1090.99
396.84	1094.11
397.21	1091.63
397.58	1093.40
397.95	1092.26
398.32	1090.34
398.69	1087.37
399.06	1087.81
399.42	1087.81
399.79	1085.75
400.16	1085.99
400.53	1089.92
400.90	1090.01
401.27	1088.75
401.64	1090.81
402.00	1091.11
402.37	1094.11
402.74	1096.35
403.11	1095.16
403.48	1094.13
403.84	1094.53
404.21	1091.04
404.58	1090.08
404.95	1090.88
405.32	1091.34
405.68	1089.87
406.05	1091.72
406.42	1093.12
406.79	1093.85
407.16	1093.12
407.52	1092.68
407.89	1092.56
408.26	1094.43
408.63	1100.05
408.99	1101.13
409.36	1104.15
409.73	1104.87
410.10	1104.76
410.47	1100.08
410.83	1098.90
411.20	1097.15
411.57	1097.66
411.94	1097.38
412.30	1098.39
412.67	1101.34
413.04	1104.43
413.40	1105.32
413.77	1104.36
414.14	1101.85
414.51	1101.11
414.87	1102.84
415.24	1102.86
415.61	1104.78
415.97	1107.31
416.34	1108.48
416.71	1106.89
417.08	1106.23
417.44	1106.02
417.81	1108.15
418.18	1109.84
418.54	1110.94
418.91	1112.67
419.28	1113.70
419.64	1117.04
420.01	1120.04
420.38	1123.48
420.74	1122.94
421.11	1126.38
421.48	1122.68
421.84	1123.46
422.21	1124.65
422.58	1131.34
422.94	1131.74
423.31	1138.18
423.68	1138.02
424.04	1142.98
424.41	1146.00
424.77	1152.48
425.14	1156.32
425.51	1161.21
425.87	1163.90
426.24	1167.46
426.61	1173.64
426.97	1179.68
427.34	1188.45
427.70	1193.11
428.07	1199.55
428.44	1208.75
428.80	1219.82
429.17	1229.46
429.53	1242.47
429.90	1253.15
430.27	1261.64
430.63	1274.63
431.00	1289.66
431.36	1304.38
431.73	1319.17
432.09	1336.75
432.46	1353.70
432.83	1368.18
433.19	1388.20
433.56	1410.97
433.92	1434.28
434.29	1455.06
434.65	1486.15
435.02	1512.62
435.38	1544.50
435.75	1575.84
436.11	1618.43
436.48	1657.40
436.84	1704.94
437.21	1749.43
437.57	1799.03
437.94	1847.81
438.30	1901.64
438.67	1958.70
439.03	2019.86
439.40	2088.55
439.76	2157.20
440.13	2229.90
440.49	2309.78
440.86	2391.47
441.22	2476.10
441.59	2566.44
441.95	2667.25
442.32	2770.61
442.68	2889.74
443.05	3010.21
443.41	3134.75
443.78	3266.01
444.14	3397.10
444.51	3537.06
444.87	3698.68
445.24	3865.16
445.60	4037.38
445.96	4227.64
446.33	4430.00
446.69	4629.49
447.06	4849.52
447.42	5078.61
447.79	5312.62
448.15	5574.03
448.51	5842.49
448.88	6151.37
449.24	6451.12
449.61	6802.56
449.97	7162.46
450.33	7549.82
450.70	7906.49
451.06	8332.82
451.43	8727.93
451.79	9176.54
452.15	9662.29
452.52	10201.86
452.88	10740.88
453.24	11372.17
453.61	12073.82
453.97	12768.89
454.34	13457.24
454.70	14274.20
455.06	15072.02
455.43	15811.86
455.79	16481.63
456.15	17277.13
456.52	18017.70
456.88	18912.02
457.24	19813.10
457.61	20950.04
457.97	22029.73
458.33	23117.56
458.70	24177.94
459.06	25190.72
459.42	26203.63
459.79	27099.82
460.15	28149.79
460.51	29121.06
460.88	30202.81
461.24	31153.42
461.60	32307.84
461.96	33345.17
462.33	34373.04
462.69	35368.42
463.05	36474.93
463.42	37477.80
463.78	38388.09
464.14	39126.22
464.50	39878.68
464.87	40413.96
465.23	40761.11
465.59	41186.95
465.95	41547.18
466.32	41784.16
466.68	42034.31
467.04	42167.23
467.40	42193.19
467.77	42270.68
468.13	42193.80
468.49	42033.49
468.85	41933.46
469.22	41770.35
469.58	41517.78
469.94	41354.48
470.30	41122.23
470.66	40747.07
471.03	40250.31
471.39	39865.34
471.75	39152.41
472.11	38458.63
472.47	37971.63
472.84	37444.71
473.20	36755.61
473.56	36368.72
473.92	35785.04
474.28	35156.58
474.65	34498.26
475.01	33817.18
475.37	32982.69
475.73	32314.79
476.09	31625.20
476.45	30991.50
476.81	30447.82
477.18	29918.11
477.54	29443.33
477.90	28978.71
478.26	28429.55
478.62	27913.30
478.98	27470.66
479.34	27025.30
479.71	26472.54
480.07	26042.93
480.43	25592.54
480.79	25114.63
481.15	24668.83
481.51	24312.83
481.87	23989.98
482.23	23637.73
482.59	23339.59
482.96	23009.08
483.32	22699.94
483.68	22305.02
484.04	21965.30
484.40	21543.48
484.76	21106.18
485.12	20653.80
485.48	20214.46
485.84	19715.15
486.20	19284.47
486.56	18862.52
486.92	18473.75
487.28	18092.15
487.64	17699.97
488.00	17312.50
488.37	16938.48
488.73	16522.54
489.09	16065.37
489.45	15659.64
489.81	15205.45
490.17	14762.86
490.53	14361.34
490.89	13971.87
491.25	13553.86
491.61	13173.38
491.97	12779.44
492.33	12375.72
492.69	12009.99
493.05	11672.51
493.41	11352.09
493.77	11037.22
494.13	10734.87
494.49	10440.64
494.85	10167.01
495.21	9899.23
495.57	9642.70
495.93	9391.31
496.29	9150.44
496.64	8918.49
497.00	8656.87
497.36	8397.80
497.72	8149.37
498.08	7918.41
498.44	7680.96
498.80	7487.94
499.16	7291.63
499.52	7101.49
499.88	6927.78
500.24	6770.54
500.60	6598.70
500.96	6450.84
501.32	6295.90
501.68	6130.94
502.03	5946.18
502.39	5794.79
502.75	5626.86
503.11	5477.79
503.47	5337.08
503.83	5220.42
504.19	5081.44
504.55	4960.32
504.91	4843.20
505.26	4718.36
505.62	4592.93
505.98	4486.64
506.34	4371.82
506.70	4259.78
507.06	4154.99
507.42	4057.53
507.78	3960.91
508.13	3874.05
508.49	3787.50
508.85	3714.78
509.21	3631.50
509.57	3547.34
509.93	3461.35
510.28	3373.06
510.64	3290.37
511.00	3218.31
511.36	3144.44
511.72	3079.30
512.07	3027.58
512.43	2963.40
512.79	2901.00
513.15	2843.28
513.51	2784.25
513.86	2720.38
514.22	2668.05
514.58	2613.84
514.94	2567.17
515.30	2521.74
515.65	2478.77
516.01	2441.32
516.37	2400.76
516.73	2362.98
517.08	2326.26
517.44	2288.41
517.80	2244.13
518.16	2210.73
518.51	2175.01
518.87	2142.01
519.23	2109.62
519.59	2082.07
519.94	2052.13
520.30	2024.21
520.66	1995.47
521.01	1968.53
521.37	1941.12
521.73	1916.57
522.09	1890.92
522.44	1866.74
522.80	1844.53
523.16	1818.39
523.51	1793.08
523.87	1775.16
524.23	1754.33
524.58	1728.86
524.94	1713.39
525.30	1692.58
525.65	1669.27
526.01	1651.32
526.37	1636.32
526.72	1618.36
527.08	1605.47
527.44	1590.51
527.79	1571.69
528.15	1555.94
528.51	1539.74
528.86	1524.04
529.22	1504.64
529.58	1491.72
529.93	1479.05
530.29	1468.10
530.65	1459.37
531.00	1454.67
531.36	1445.16
531.71	1433.81
532.07	1424.89
532.43	1408.37
532.78	1396.39
533.14	1386.30
533.49	1378.11
533.85	1368.84
534.21	1361.14
534.56	1349.83
534.92	1342.74
535.27	1338.15
535.63	1330.36
535.98	1324.95
536.34	1323.22
536.69	1313.91
537.05	1306.86
537.41	1298.37
537.76	1293.36
538.12	1282.03
538.47	1276.62
538.83	1266.65
539.18	1261.46
539.54	1257.55
539.89	1256.56
540.25	1250.64
540.60	1244.77
540.96	1241.40
541.31	1234.28
541.67	1230.19
542.02	1227.89
542.38	1229.46
542.73	1223.89
543.09	1221.22
543.44	1217.06
543.80	1212.19
544.15	1209.35
544.51	1204.53
544.86	1200.46
545.22	1196.53
545.57	1195.90
545.93	1189.13
546.28	1188.76
546.64	1185.50
546.99	1185.01
547.35	1181.36
547.70	1179.65
548.05	1178.25
548.41	1173.59
548.76	1169.03
549.12	1166.62
549.47	1163.18
549.83	1160.60
550.18	1162.12
550.53	1162.03
550.89	1160.20
551.24	1159.83
551.60	1161.23
551.95	1159.38
552.30	1158.05
552.66	1158.52
553.01	1158.89
553.37	1155.62
553.72	1152.76
554.07	1151.15
554.43	1149.25
554.78	1144.92
555.13	1143.33
555.49	1143.87
555.84	1139.89
556.19	1135.07
556.55	1139.86
556.90	1138.69
557.26	1137.64
557.61	1137.69
557.96	1136.63
558.32	1133.26
558.67	1130.57
559.02	1127.41
559.37	1124.96
559.73	1125.80
560.08	1121.12
560.43	1121.37
560.79	1125.52
561.14	1125.77
561.49	1124.30
561.85	1125.94
562.20	1123.13
562.55	1118.54
562.90	1114.56
563.26	1115.36
563.61	1112.97
563.96	1114.91
564.32	1111.38
564.67	1115.64
565.02	1113.02
565.37	1110.05
565.73	1104.05
566.08	1105.11
566.43	1104.99
566.78	1107.47
567.14	1109.27
567.49	1110.19
567.84	1108.81
568.19	1105.95
568.54	1107.00
568.90	1105.06
569.25	1102.56
569.60	1103.09
569.95	1101.71
570.31	1096.40
570.66	1098.55
571.01	1103.07
571.36	1102.72
571.71	1101.57
572.06	1102.21
572.42	1100.57
572.77	1100.00
573.12	1100.89
573.47	1100.64
573.82	1101.15
574.18	1102.23
574.53	1099.68
574.88	1097.03
575.23	1096.42
575.58	1097.13
575.93	1095.53
576.28	1097.01
576.64	1097.38
576.99	1099.54
577.34	1097.27
577.69	1096.66
578.04	1095.16
578.39	1097.13
578.74	1097.31
579.09	1096.21
579.44	1095.93
579.80	1095.58
580.15	1096.82
580.50	1095.32
580.85	1095.91
581.20	1094.01
581.55	1095.60
581.90	1092.37
582.25	1093.50
582.60	1095.79
582.95	1099.05
583.30	1098.37
583.65	1099.35
584.00	1097.38
584.35	1094.86
584.71	1094.43
585.06	1093.80
585.41	1090.08
585.76	1088.42
586.11	1088.98
586.46	1085.33
586.81	1086.10
587.16	1086.76
587.51	1090.92
587.86	1087.88
588.21	1090.97
588.56	1093.50
588.91	1095.70
589.26	1092.09
589.61	1093.45
589.96	1092.05
590.31	1088.04
590.66	1087.18
591.01	1086.87
591.36	1089.71
591.71	1088.84
592.06	1088.72
592.41	1088.33
592.76	1089.78
593.10	1086.31
593.45	1085.54
593.80	1086.27
594.15	1087.65
594.50	1087.88
594.85	1089.33
595.20	1090.74
595.55	1093.36
595.90	1093.12
596.25	1093.33
596.60	1092.82
596.95	1090.06
597.30	1083.39
597.64	1091.37
597.99	1090.85
598.34	1092.09
598.69	1093.55
599.04	1094.88
599.39	1085.68
599.74	1084.72
600.09	1085.38
600.44	1085.91
600.78	1088.70
601.13	1091.51
601.48	1091.16
601.83	1091.30
602.18	1093.94
602.53	1092.84
602.88	1092.07
603.22	1092.07
603.57	1086.97
603.92	1083.04
604.27	1083.95
604.62	1080.93
604.97	1081.26
605.31	1082.99
605.66	1085.61
606.01	1085.40
606.36	1086.97
606.71	1088.44
607.05	1089.87
607.40	1087.41
607.75	1084.11
608.10	1085.91
608.44	1082.47
608.79	1082.87
609.14	1086.43
609.49	1092.14
609.84	1090.08
610.18	1091.39
610.53	1090.08
610.88	1092.52
611.23	1090.67
611.57	1090.69
611.92	1090.41
612.27	1091.30
612.62	1086.41
612.96	1086.52
613.31	1084.81
613.66	1088.12
614.00	1087.72
614.35	1087.97
614.70	1084.07
615.05	1086.57
615.39	1087.86
615.74	1087.69
616.09	1088.84
616.43	1091.79
616.78	1092.26
617.13	1087.04
617.47	1089.03
617.82	1088.09
618.17	1086.34
618.51	1082.26
618.86	1084.09
619.21	1081.09
619.55	1082.19
619.90	1080.13
620.25	1080.98
620.59	1080.56
620.94	1083.04
621.29	1083.25
621.63	1087.20
621.98	1086.64
622.32	1089.64
622.67	1088.00
623.02	1086.41
623.36	1083.20
623.71	1086.94
624.05	1081.44
624.40	1080.70
624.75	1083.67
625.09	1083.46
625.44	1080.95
625.78	1084.51
626.13	1084.23
626.48	1081.02
626.82	1081.51
627.17	1080.23
627.51	1075.92
627.86	1077.35
628.20	1075.99
628.55	1076.58
628.89	1081.12
629.24	1084.02
629.58	1084.35
629.93	1086.76
630.28	1086.71
630.62	1084.07
630.97	1084.93
631.31	1082.92
631.66	1081.37
632.00	1084.11
632.35	1081.87
632.69	1080.32
633.04	1082.52
633.38	1081.19
633.73	1076.62
634.07	1076.27
634.42	1079.74
634.76	1077.00
635.11	1075.90
635.45	1077.63
635.79	1080.23
636.14	1078.75
636.48	1079.71
636.83	1081.00
637.17	1081.61
637.52	1080.53
637.86	1076.46
638.21	1077.91
638.55	1075.76
638.89	1075.43
639.24	1074.49
639.58	1074.98
639.93	1074.54
640.27	1080.23
640.61	1081.16
640.96	1083.25
641.30	1085.40
641.65	1084.42
641.99	1084.02
642.33	1084.70
642.68	1083.39
643.02	1085.03
643.37	1085.42
643.71	1083.41
644.05	1083.79
644.40	1086.36
644.74	1083.27
645.08	1086.62
645.43	1088.47
645.77	1087.81
646.11	1086.62
646.46	1089.17
646.80	1087.11
647.14	1084.44
647.49	1084.84
647.83	1084.81
648.17	1081.30
648.52	1082.78
648.86	1083.57
649.20	1084.02
649.55	1085.07
649.89	1088.75
650.23	1085.03
650.57	1088.28
650.92	1087.20
651.26	1084.44
651.60	1083.79
651.95	1083.95
652.29	1080.44
652.63	1080.13
652.97	1081.47
653.32	1082.66
653.66	1083.64
654.00	1083.41
654.34	1084.02
654.69	1084.58
655.03	1083.27
655.37	1083.18
655.71	1083.55
656.05	1082.08
656.40	1081.75
656.74	1080.56
657.08	1079.69
657.42	1079.64
657.76	1077.54
658.11	1075.94
658.45	1074.87
658.79	1075.41
659.13	1074.66
659.47	1075.83
659.82	1074.35
660.16	1076.20
660.50	1077.37
660.84	1076.72
661.18	1076.90
661.52	1079.67
661.87	1079.31
662.21	1080.09
662.55	1081.51
662.89	1084.25
663.23	1085.00
663.57	1083.27
663.91	1081.30
664.25	1080.91
664.60	1079.17
664.94	1079.06
665.28	1082.10
665.62	1082.80
665.96	1082.54
666.30	1084.58
666.64	1081.09
666.98	1079.15
667.32	1077.75
667.66	1077.54
668.01	1078.57
668.35	1082.36
668.69	1086.57
669.03	1089.47
669.37	1090.83
669.71	1088.96
670.05	1087.81
670.39	1085.45
670.73	1084.09
671.07	1084.16
671.41	1083.83
671.75	1083.15
672.09	1082.83
672.43	1082.10
672.77	1081.98
673.11	1082.94
673.45	1084.25
673.79	1083.53
674.13	1081.66
674.47	1080.09
674.81	1077.47
675.15	1076.44
675.49	1077.70
675.83	1079.85
676.17	1083.20
676.51	1083.25
676.85	1083.86
677.19	1083.15
677.53	1083.46
677.87	1078.61
678.21	1082.83
678.55	1082.83
678.89	1083.04
679.23	1081.87
679.57	1082.61
679.90	1083.11
680.24	1084.11
680.58	1082.05
680.92	1082.52
681.26	1084.02
681.60	1078.40
681.94	1075.66
682.28	1075.20
682.62	1073.53
682.96	1072.62
683.29	1076.15
683.63	1074.87
683.97	1074.61
684.31	1075.55
684.65	1077.25
684.99	1073.30
685.33	1079.74
685.67	1083.20
686.00	1079.71
686.34	1078.17
686.68	1082.64
687.02	1077.93
687.36	1076.97
687.70	1081.75
688.03	1082.54
688.37	1081.58
688.71	1082.64
689.05	1081.66
689.39	1078.54
689.72	1079.90
690.06	1078.94
690.40	1080.27
690.74	1080.72
691.08	1082.83
691.41	1084.21
691.75	1085.05
692.09	1082.15
692.43	1080.46
692.76	1084.37
693.10	1082.33
693.44	1079.76
693.78	1079.55
694.11	1084.09
694.45	1078.68
694.79	1080.58
695.13	1081.16
695.46	1081.42
695.80	1079.15
696.14	1082.22
696.48	1076.72
696.81	1076.48
697.15	1079.46
697.49	1076.81
697.82	1075.73
698.16	1079.43
698.50	1081.35
698.83	1081.33
699.17	1083.64
699.51	1084.35
699.84	1084.77
700.18	1084.58
700.52	1083.13
700.85	1085.45
701.19	1086.45
701.53	1086.45
701.86	1086.06
702.20	1085.75
702.54	1085.24
702.87	1083.36
703.21	1082.87
703.55	1082.24
703.88	1080.74
704.22	1076.46
704.55	1075.78
704.89	1074.87
705.23	1075.83
705.56	1078.19
705.90	1079.67
706.23	1079.69
706.57	1080.48
706.91	1078.28
707.24	1075.48
707.58	1075.71
707.91	1078.50
708.25	1075.66
708.58	1079.34
708.92	1082.26
709.26	1081.51
709.59	1081.37
709.93	1085.14
710.26	1080.91
710.60	1082.97
710.93	1086.41
711.27	1083.79
711.60	1081.42
711.94	1079.22
712.27	1076.20
712.61	1075.13
712.94	1074.26
713.28	1076.58
713.61	1081.02
713.95	1080.63
714.28	1081.33
714.62	1082.17
714.95	1080.60
715.29	1082.26
715.62	1083.32
715.96	1081.75
716.29	1082.10
716.63	1083.25
716.96	1080.63
717.29	1079.71
717.63	1081.63
717.96	1083.57
718.30	1084.49
718.63	1084.93
718.97	1083.71
719.30	1082.40
719.63	1081.91
719.97	1081.16
720.30	1081.91
720.64	1081.26
720.97	1082.52
721.30	1083.04
721.64	1081.58
721.97	1083.06
722.31	1084.25
722.64	1080.53
722.97	1079.88
723.31	1080.51
723.64	1078.80
723.97	1077.96
724.31	1077.89
724.64	1076.06
724.98	1074.87
725.31	1072.55
725.64	1072.64
725.98	1075.66
726.31	1076.95
726.64	1077.40
726.97	1077.72
727.31	1080.63
727.64	1077.65
727.97	1077.47
728.31	1080.44
728.64	1082.08
728.97	1080.34
729.31	1083.86
729.64	1082.05
729.97	1079.31
730.30	1080.67
730.64	1082.31
730.97	1082.33
731.30	1084.72
731.63	1087.76
731.97	1086.36
732.30	1085.63
732.63	1082.85
732.96	1083.93
733.30	1081.66
733.63	1080.09
733.96	1079.69
734.29	1078.57
734.63	1075.80
734.96	1076.44
735.29	1080.11
735.62	1081.37
735.95	1082.76
736.29	1084.53
736.62	1082.73
736.95	1079.17
737.28	1079.10
737.61	1079.08
737.94	1074.96
738.28	1077.77
738.61	1078.73
738.94	1075.83
739.27	1074.89
739.60	1079.85
739.93	1078.12
740.27	1080.04
740.60	1080.20
740.93	1080.86
741.26	1077.21
741.59	1077.40
741.92	1076.30
742.25	1076.88
742.58	1076.60
742.91	1080.58
743.25	1079.08
743.58	1078.57
743.91	1078.36
744.24	1079.64
744.57	1079.69
744.90	1079.97
745.23	1082.33
745.56	1082.03
745.89	1083.08
746.22	1079.01
746.55	1081.30
746.88	1077.14
747.21	1076.53
747.54	1075.92
747.87	1077.04
748.20	1075.08
748.53	1077.44
748.87	1079.06
749.20	1078.73
749.53	1081.09
749.86	1082.03
750.19	1083.79
750.52	1086.01
750.85	1086.13
751.18	1084.49
751.51	1085.73
751.84	1080.06
752.16	1076.04
752.49	1076.93
752.82	1077.75
753.15	1079.24
753.48	1082.92
753.81	1084.11
754.14	1081.05
754.47	1080.30
754.80	1077.93
755.13	1076.81
755.46	1077.37
755.79	1076.32
756.12	1077.33
756.45	1076.37
756.78	1074.80
757.11	1073.58
757.43	1075.78
757.76	1074.77
758.09	1073.49
758.42	1079.38
758.75	1082.47
759.08	1081.30
759.41	1081.28
759.74	1082.50
760.07	1078.64
760.39	1075.43
760.72	1077.42
761.05	1077.72
761.38	1079.78
761.71	1081.63
762.04	1082.29
762.36	1082.71
762.69	1080.63
763.02	1075.99
763.35	1075.43
763.68	1077.40
