SpectraSuite Data File
++++++++++++++++++++++++++++++++++++
Date: Mon Aug 26 10:22:21 PDT 2019
User: corrico
Dark Spectrum Present: No
Reference Spectrum Present: No
Number of Sampled Component Spectra: 1
Spectrometers: USB2+H06089
Integration Time (usec): 2000 (USB2+H06089)
Spectra Averaged: 20 (USB2+H06089)
Boxcar Smoothing: 2 (USB2+H06089)
Correct for Electrical Dark: No (USB2+H06089)
Strobe/Lamp Enabled: No (USB2+H06089)
Correct for Detector Non-linearity: No (USB2+H06089)
Correct for Stray Light: No (USB2+H06089)
Number of Pixels in Processed Spectrum: 2048
>>>>>Begin Processed Spectral Data<<<<<
339.70	1031.71
340.07	1031.71
340.45	995.94
340.82	976.28
341.19	950.51
341.57	922.01
341.94	912.25
342.31	904.57
342.69	897.81
343.06	898.37
343.43	900.22
343.81	900.54
344.18	900.33
344.55	903.42
344.93	905.13
345.30	909.72
345.67	917.40
346.04	928.23
346.42	936.24
346.79	943.68
347.16	953.63
347.54	961.42
347.91	969.96
348.28	978.67
348.65	993.84
349.03	1001.35
349.40	1011.32
349.77	1016.78
350.14	1026.23
350.52	1029.55
350.89	1038.99
351.26	1044.07
351.63	1053.76
352.01	1057.06
352.38	1064.08
352.75	1066.28
353.12	1070.35
353.50	1071.43
353.87	1073.72
354.24	1076.58
354.61	1080.41
354.98	1083.32
355.36	1083.93
355.73	1087.74
356.10	1085.38
356.47	1085.89
356.84	1084.51
357.22	1087.09
357.59	1085.68
357.96	1086.99
358.33	1087.93
358.70	1087.06
359.08	1088.70
359.45	1084.96
359.82	1084.44
360.19	1079.99
360.56	1081.63
360.94	1078.05
361.31	1082.03
361.68	1080.65
362.05	1081.30
362.42	1079.41
362.79	1078.50
363.16	1076.51
363.54	1074.12
363.91	1073.67
364.28	1076.37
364.65	1077.30
365.02	1076.41
365.39	1078.28
365.76	1078.73
366.14	1074.73
366.51	1071.40
366.88	1073.14
367.25	1073.42
367.62	1072.08
367.99	1073.93
368.36	1074.75
368.73	1073.35
369.10	1071.50
369.48	1072.81
369.85	1072.71
370.22	1073.42
370.59	1074.24
370.96	1075.24
371.33	1077.96
371.70	1076.58
372.07	1078.00
372.44	1077.25
372.81	1072.88
373.18	1070.65
373.55	1072.08
373.93	1072.20
374.30	1069.23
374.67	1072.48
375.04	1074.56
375.41	1071.40
375.78	1071.36
376.15	1077.77
376.52	1078.12
376.89	1075.73
377.26	1077.23
377.63	1076.25
378.00	1074.28
378.37	1077.07
378.74	1076.04
379.11	1076.11
379.48	1078.05
379.85	1077.65
380.22	1076.13
380.59	1076.11
380.96	1077.61
381.33	1079.10
381.70	1076.69
382.07	1079.24
382.44	1081.98
382.81	1082.33
383.18	1080.79
383.55	1084.04
383.92	1081.58
384.29	1080.13
384.66	1079.88
385.03	1079.10
385.40	1077.25
385.77	1081.05
386.14	1082.08
386.51	1085.89
386.88	1089.26
387.25	1089.45
387.62	1085.24
387.99	1084.91
388.36	1079.60
388.73	1077.14
389.10	1079.27
389.46	1080.58
389.83	1081.56
390.20	1084.07
390.57	1081.51
390.94	1082.01
391.31	1082.97
391.68	1080.70
392.05	1078.75
392.42	1081.44
392.79	1080.44
393.16	1081.16
393.53	1084.02
393.89	1083.55
394.26	1084.60
394.63	1087.04
395.00	1089.10
395.37	1086.94
395.74	1088.91
396.11	1087.23
396.48	1085.61
396.84	1083.62
397.21	1087.51
397.58	1088.16
397.95	1089.47
398.32	1087.32
398.69	1087.18
399.06	1085.70
399.42	1089.47
399.79	1089.19
400.16	1092.42
400.53	1091.34
400.90	1091.93
401.27	1088.33
401.64	1092.19
402.00	1091.72
402.37	1093.87
402.74	1093.87
403.11	1094.25
403.48	1091.88
403.84	1090.29
404.21	1087.04
404.58	1089.17
404.95	1091.06
405.32	1091.18
405.68	1092.09
406.05	1094.93
406.42	1095.39
406.79	1092.96
407.16	1097.52
407.52	1100.38
407.89	1101.11
408.26	1099.21
408.63	1101.22
408.99	1094.48
409.36	1092.14
409.73	1092.77
410.10	1091.74
410.47	1092.14
410.83	1096.47
411.20	1100.05
411.57	1099.86
411.94	1101.46
412.30	1103.07
412.67	1101.25
413.04	1097.01
413.40	1099.63
413.77	1097.20
414.14	1095.21
414.51	1093.03
414.87	1096.94
415.24	1094.34
415.61	1095.93
415.97	1098.18
416.34	1099.44
416.71	1098.90
417.08	1100.10
417.44	1101.76
417.81	1099.44
418.18	1102.28
418.54	1105.83
418.91	1107.40
419.28	1106.86
419.64	1110.28
420.01	1109.13
420.38	1106.44
420.74	1107.14
421.11	1109.30
421.48	1107.92
421.84	1112.15
422.21	1115.05
422.58	1116.74
422.94	1119.81
423.31	1123.25
423.68	1127.44
424.04	1129.38
424.41	1131.34
424.77	1132.77
425.14	1139.26
425.51	1145.32
425.87	1147.63
426.24	1155.41
426.61	1161.65
426.97	1166.01
427.34	1166.41
427.70	1174.48
428.07	1178.44
428.44	1189.44
428.80	1195.57
429.17	1203.60
429.53	1213.85
429.90	1224.92
430.27	1232.78
430.63	1242.87
431.00	1255.65
431.36	1264.87
431.73	1274.28
432.09	1284.23
432.46	1300.19
432.83	1314.94
433.19	1334.71
433.56	1352.95
433.92	1374.88
434.29	1395.87
434.65	1419.30
435.02	1443.34
435.38	1471.26
435.75	1495.37
436.11	1524.46
436.48	1554.51
436.84	1586.44
437.21	1623.35
437.57	1662.81
437.94	1702.34
438.30	1747.89
438.67	1790.91
439.03	1837.48
439.40	1894.94
439.76	1953.25
440.13	2012.23
440.49	2081.86
440.86	2146.72
441.22	2217.24
441.59	2290.35
441.95	2370.80
442.32	2458.29
442.68	2557.22
443.05	2653.82
443.41	2754.88
443.78	2860.23
444.14	2962.32
444.51	3073.64
444.87	3210.82
445.24	3347.25
445.60	3496.11
445.96	3645.69
446.33	3815.00
446.69	3974.93
447.06	4157.63
447.42	4333.55
447.79	4533.80
448.15	4760.37
448.51	4989.91
448.88	5247.90
449.24	5503.51
449.61	5781.33
449.97	6046.10
450.33	6334.22
450.70	6593.01
451.06	6917.90
451.43	7224.34
451.79	7592.93
452.15	7980.20
452.52	8433.58
452.88	8906.30
453.24	9443.38
453.61	10025.01
453.97	10594.43
454.34	11145.65
454.70	11775.14
455.06	12420.59
455.43	13034.70
455.79	13639.78
456.15	14354.88
456.52	15020.13
456.88	15788.39
457.24	16515.43
457.61	17360.90
457.97	18120.83
458.33	18920.80
458.70	19679.27
459.06	20450.13
459.42	21287.66
459.79	22083.07
460.15	22958.08
460.51	23820.47
460.88	24739.70
461.24	25539.62
461.60	26503.36
461.96	27383.99
462.33	28237.65
462.69	29046.77
463.05	29927.00
463.42	30669.70
463.78	31334.86
464.14	31846.83
464.50	32426.13
464.87	32887.87
465.23	33201.46
465.59	33553.29
465.95	33915.60
466.32	34182.07
466.68	34383.20
467.04	34541.27
467.40	34683.93
467.77	34809.55
468.13	34780.62
468.49	34695.49
468.85	34607.56
469.22	34425.49
469.58	34091.45
469.94	33846.91
470.30	33555.14
470.66	33154.91
471.03	32583.93
471.39	32218.22
471.75	31606.52
472.11	31017.81
472.47	30666.42
472.84	30354.01
473.20	29855.31
473.56	29588.16
473.92	29144.91
474.28	28624.56
474.65	28110.04
475.01	27636.37
475.37	27060.08
475.73	26600.21
476.09	26094.23
476.45	25596.29
476.81	25089.04
477.18	24560.18
477.54	24114.56
477.90	23743.87
478.26	23316.23
478.62	22971.23
478.98	22668.04
479.34	22339.66
479.71	21920.10
480.07	21568.93
480.43	21193.39
480.79	20817.38
481.15	20453.73
481.51	20136.87
481.87	19875.27
482.23	19587.15
482.59	19336.64
482.96	19062.05
483.32	18766.09
483.68	18404.24
484.04	18075.26
484.40	17697.63
484.76	17338.69
485.12	16979.51
485.48	16654.15
485.84	16284.04
486.20	15924.93
486.56	15563.65
486.92	15256.74
487.28	14914.60
487.64	14573.28
488.00	14254.99
488.37	13933.49
488.73	13562.44
489.09	13192.06
489.45	12869.30
489.81	12553.91
490.17	12253.55
490.53	11977.13
490.89	11688.21
491.25	11380.48
491.61	11048.85
491.97	10721.92
492.33	10384.30
492.69	10080.36
493.05	9781.24
493.41	9490.73
493.77	9222.95
494.13	8958.17
494.49	8704.10
494.85	8468.57
495.21	8249.94
495.57	8023.78
495.93	7824.90
496.29	7622.28
496.64	7422.12
497.00	7234.69
497.36	7042.67
497.72	6844.10
498.08	6661.98
498.44	6482.51
498.80	6295.20
499.16	6123.31
499.52	5972.58
499.88	5843.31
500.24	5722.68
500.60	5604.37
500.96	5492.44
501.32	5368.49
501.68	5242.96
502.03	5116.79
502.39	4990.54
502.75	4854.69
503.11	4734.25
503.47	4615.89
503.83	4491.53
504.19	4375.70
504.55	4269.51
504.91	4172.94
505.26	4069.33
505.62	3984.90
505.98	3895.56
506.34	3806.79
506.70	3711.72
507.06	3623.22
507.42	3538.59
507.78	3465.02
508.13	3386.85
508.49	3307.01
508.85	3241.74
509.21	3170.12
509.57	3100.04
509.93	3036.75
510.28	2974.26
510.64	2907.37
511.00	2844.36
511.36	2782.64
511.72	2722.70
512.07	2671.93
512.43	2617.07
512.79	2566.47
513.15	2522.82
513.51	2475.02
513.86	2427.70
514.22	2389.34
514.58	2352.05
514.94	2307.07
515.30	2272.05
515.65	2235.56
516.01	2205.72
516.37	2168.81
516.73	2141.29
517.08	2111.21
517.44	2078.02
517.80	2046.07
518.16	2024.28
518.51	1998.09
518.87	1970.01
519.23	1945.83
519.59	1917.88
519.94	1888.58
520.30	1862.13
520.66	1836.81
521.01	1815.02
521.37	1790.51
521.73	1769.91
522.09	1751.38
522.44	1735.04
522.80	1714.86
523.16	1698.41
523.51	1675.07
523.87	1649.45
524.23	1629.01
524.58	1612.49
524.94	1596.29
525.30	1579.51
525.65	1568.30
526.01	1553.18
526.37	1539.46
526.72	1523.90
527.08	1510.51
527.44	1496.63
527.79	1487.39
528.15	1473.93
528.51	1458.83
528.86	1448.37
529.22	1435.01
529.58	1420.78
529.93	1408.14
530.29	1400.25
530.65	1387.52
531.00	1383.28
531.36	1373.66
531.71	1366.76
532.07	1357.67
532.43	1349.86
532.78	1338.27
533.14	1334.18
533.49	1324.79
533.85	1319.48
534.21	1313.95
534.56	1309.81
534.92	1296.75
535.27	1293.78
535.63	1286.36
535.98	1283.13
536.34	1276.13
536.69	1271.59
537.05	1262.81
537.41	1258.04
537.76	1249.05
538.12	1244.25
538.47	1240.98
538.83	1237.82
539.18	1234.80
539.54	1233.04
539.89	1226.60
540.25	1222.23
540.60	1220.38
540.96	1216.87
541.31	1213.17
541.67	1210.81
542.02	1209.00
542.38	1205.26
542.73	1203.29
543.09	1201.47
543.44	1198.28
543.80	1194.84
544.15	1191.52
544.51	1187.14
544.86	1184.47
545.22	1185.15
545.57	1180.61
545.93	1177.59
546.28	1176.24
546.64	1176.70
546.99	1169.33
547.35	1167.11
547.70	1163.64
548.05	1156.51
548.41	1147.68
548.76	1149.86
549.12	1151.66
549.47	1153.09
549.83	1156.79
550.18	1157.35
550.53	1153.42
550.89	1150.89
551.24	1148.27
551.60	1143.35
551.95	1142.13
552.30	1138.65
552.66	1138.74
553.01	1135.21
553.37	1135.09
553.72	1132.40
554.07	1131.93
554.43	1130.10
554.78	1132.82
555.13	1128.91
555.49	1128.86
555.84	1131.27
556.19	1128.33
556.55	1123.71
556.90	1125.73
557.26	1123.78
557.61	1118.47
557.96	1118.00
558.32	1117.02
558.67	1117.49
559.02	1117.82
559.37	1116.72
559.73	1114.84
560.08	1115.71
560.43	1112.29
560.79	1111.33
561.14	1111.05
561.49	1113.70
561.85	1111.94
562.20	1110.37
562.55	1106.44
562.90	1106.46
563.26	1103.45
563.61	1103.14
563.96	1103.87
564.32	1105.97
564.67	1106.35
565.02	1108.99
565.37	1109.79
565.73	1110.07
566.08	1112.13
566.43	1113.07
566.78	1106.44
567.14	1105.18
567.49	1103.38
567.84	1101.06
568.19	1098.04
568.54	1101.46
568.90	1098.76
569.25	1098.51
569.60	1097.43
569.95	1098.27
570.31	1095.67
570.66	1095.79
571.01	1097.10
571.36	1095.77
571.71	1099.82
572.06	1102.09
572.42	1104.71
572.77	1103.47
573.12	1104.99
573.47	1099.30
573.82	1099.84
574.18	1095.75
574.53	1096.14
574.88	1093.76
575.23	1094.97
575.58	1095.25
575.93	1096.94
576.28	1095.42
576.64	1095.65
576.99	1094.34
577.34	1092.00
577.69	1092.49
578.04	1095.46
578.39	1093.90
578.74	1095.39
579.09	1089.94
579.44	1089.50
579.80	1085.35
580.15	1088.19
580.50	1085.89
580.85	1090.36
581.20	1091.56
581.55	1088.70
581.90	1085.99
582.25	1087.16
582.60	1088.14
582.95	1087.25
583.30	1091.60
583.65	1095.11
584.00	1096.07
584.35	1092.75
584.71	1089.66
585.06	1090.34
585.41	1088.63
585.76	1085.94
586.11	1087.39
586.46	1091.81
586.81	1089.38
587.16	1093.01
587.51	1091.27
587.86	1090.53
588.21	1085.66
588.56	1086.43
588.91	1083.55
589.26	1087.46
589.61	1087.88
589.96	1085.26
590.31	1084.46
590.66	1084.32
591.01	1080.60
591.36	1079.83
591.71	1082.92
592.06	1080.98
592.41	1078.47
592.76	1080.53
593.10	1080.58
593.45	1079.62
593.80	1083.83
594.15	1086.52
594.50	1087.62
594.85	1091.25
595.20	1094.76
595.55	1092.56
595.90	1093.59
596.25	1092.14
596.60	1089.94
596.95	1086.41
597.30	1084.32
597.64	1091.06
597.99	1090.57
598.34	1089.31
598.69	1089.31
599.04	1093.29
599.39	1081.44
599.74	1083.06
600.09	1081.07
600.44	1082.40
600.78	1080.56
601.13	1083.88
601.48	1086.01
601.83	1091.32
602.18	1090.81
602.53	1090.55
602.88	1086.83
603.22	1083.46
603.57	1079.67
603.92	1079.53
604.27	1077.33
604.62	1079.69
604.97	1080.72
605.31	1080.91
605.66	1081.54
606.01	1085.00
606.36	1083.20
606.71	1082.45
607.05	1079.55
607.40	1077.82
607.75	1078.54
608.10	1078.47
608.44	1079.85
608.79	1082.29
609.14	1084.70
609.49	1081.96
609.84	1083.55
610.18	1083.48
610.53	1084.11
610.88	1083.18
611.23	1085.19
611.57	1086.36
611.92	1086.55
612.27	1087.58
612.62	1088.14
612.96	1087.09
613.31	1088.77
613.66	1084.21
614.00	1081.21
614.35	1080.56
614.70	1080.20
615.05	1078.12
615.39	1082.01
615.74	1085.56
616.09	1086.66
616.43	1085.54
616.78	1086.31
617.13	1085.77
617.47	1084.81
617.82	1082.78
618.17	1084.25
618.51	1084.89
618.86	1086.57
619.21	1083.76
619.55	1084.14
619.90	1083.43
620.25	1080.65
620.59	1078.75
620.94	1080.44
621.29	1082.26
621.63	1079.29
621.98	1082.80
622.32	1083.36
622.67	1085.40
623.02	1086.64
623.36	1090.08
623.71	1088.14
624.05	1086.22
624.40	1085.40
624.75	1081.49
625.09	1082.40
625.44	1081.68
625.78	1080.98
626.13	1082.61
626.48	1081.98
626.82	1078.36
627.17	1076.37
627.51	1077.86
627.86	1073.81
628.20	1075.03
628.55	1078.61
628.89	1081.28
629.24	1080.48
629.58	1083.34
629.93	1082.52
630.28	1082.43
630.62	1080.41
630.97	1082.50
631.31	1082.50
631.66	1082.69
632.00	1081.77
632.35	1082.38
632.69	1078.43
633.04	1076.53
633.38	1076.48
633.73	1076.83
634.07	1079.53
634.42	1080.91
634.76	1079.81
635.11	1081.82
635.45	1079.57
635.79	1076.23
636.14	1075.55
636.48	1075.20
636.83	1077.54
637.17	1077.25
637.52	1078.40
637.86	1081.82
638.21	1082.87
638.55	1082.99
638.89	1084.49
639.24	1084.14
639.58	1082.24
639.93	1086.08
640.27	1085.70
640.61	1088.65
640.96	1089.29
641.30	1089.54
641.65	1085.73
641.99	1085.12
642.33	1082.99
642.68	1081.58
643.02	1081.82
643.37	1083.39
643.71	1081.91
644.05	1083.57
644.40	1083.25
644.74	1079.48
645.08	1078.87
645.43	1077.72
645.77	1073.18
646.11	1073.77
646.46	1077.18
646.80	1076.39
647.14	1076.44
647.49	1078.43
647.83	1079.03
648.17	1078.26
648.52	1077.96
648.86	1081.63
649.20	1082.76
649.55	1085.77
649.89	1088.47
650.23	1089.61
650.57	1088.35
650.92	1088.00
651.26	1086.10
651.60	1084.93
651.95	1083.11
652.29	1080.74
652.63	1080.02
652.97	1078.82
653.32	1079.15
653.66	1080.41
654.00	1079.46
654.34	1079.62
654.69	1077.63
655.03	1077.98
655.37	1078.99
655.71	1077.86
656.05	1076.79
656.40	1072.95
656.74	1072.06
657.08	1075.69
657.42	1078.80
657.76	1077.75
658.11	1083.53
658.45	1085.10
658.79	1080.18
659.13	1081.21
659.47	1080.79
659.82	1081.75
660.16	1080.27
660.50	1085.54
660.84	1086.55
661.18	1090.22
661.52	1090.36
661.87	1087.51
662.21	1079.41
662.55	1078.54
662.89	1077.79
663.23	1076.13
663.57	1075.64
663.91	1079.41
664.25	1077.58
664.60	1078.31
664.94	1080.67
665.28	1082.87
665.62	1082.59
665.96	1082.12
666.30	1080.41
666.64	1076.20
666.98	1074.45
667.32	1074.80
667.66	1079.27
668.01	1083.08
668.35	1086.48
668.69	1088.82
669.03	1089.64
669.37	1085.82
669.71	1083.79
670.05	1082.76
670.39	1079.92
670.73	1079.41
671.07	1078.52
671.41	1078.07
671.75	1079.31
672.09	1082.92
672.43	1084.96
672.77	1085.56
673.11	1082.01
673.45	1080.53
673.79	1077.70
674.13	1076.32
674.47	1079.36
674.81	1082.08
675.15	1081.94
675.49	1084.00
675.83	1080.63
676.17	1080.27
676.51	1081.02
676.85	1082.92
677.19	1080.81
677.53	1079.92
677.87	1075.45
678.21	1077.58
678.55	1075.43
678.89	1078.31
679.23	1080.30
679.57	1080.46
679.90	1078.82
680.24	1077.07
680.58	1076.08
680.92	1075.43
681.26	1077.07
681.60	1077.84
681.94	1079.95
682.28	1081.09
682.62	1085.54
682.96	1084.60
683.29	1081.63
683.63	1083.48
683.97	1081.09
684.31	1075.29
684.65	1076.46
684.99	1076.60
685.33	1076.08
685.67	1076.08
686.00	1079.78
686.34	1078.26
686.68	1079.24
687.02	1078.75
687.36	1074.84
687.70	1076.30
688.03	1076.88
688.37	1077.35
688.71	1076.55
689.05	1080.11
689.39	1079.03
689.72	1079.62
690.06	1081.42
690.40	1080.95
690.74	1081.49
691.08	1077.98
691.41	1079.27
691.75	1077.42
692.09	1079.46
692.43	1081.75
692.76	1085.03
693.10	1084.11
693.44	1081.87
693.78	1081.77
694.11	1081.80
694.45	1080.09
694.79	1080.04
695.13	1079.83
695.46	1077.70
695.80	1076.18
696.14	1074.80
696.48	1074.35
696.81	1078.61
697.15	1080.27
697.49	1081.56
697.82	1084.25
698.16	1086.08
698.50	1085.33
698.83	1086.34
699.17	1085.07
699.51	1083.97
699.84	1081.00
700.18	1076.34
700.52	1077.14
700.85	1076.13
701.19	1075.78
701.53	1077.96
701.86	1084.25
702.20	1083.01
702.54	1082.61
702.87	1083.15
703.21	1082.80
703.55	1081.09
703.88	1078.24
704.22	1082.29
704.55	1081.80
704.89	1082.97
705.23	1079.88
705.56	1080.27
705.90	1076.67
706.23	1075.59
706.57	1074.70
706.91	1076.15
707.24	1076.41
707.58	1074.45
707.91	1076.13
708.25	1069.98
708.58	1068.88
708.92	1067.71
709.26	1068.85
709.59	1067.31
709.93	1072.76
710.26	1077.33
710.60	1078.80
710.93	1079.15
711.27	1082.78
711.60	1080.91
711.94	1077.42
712.27	1077.56
712.61	1079.97
712.94	1078.68
713.28	1080.77
713.61	1084.11
713.95	1082.97
714.28	1084.09
714.62	1083.46
714.95	1082.38
715.29	1081.82
715.62	1086.64
715.96	1085.24
716.29	1085.68
716.63	1087.20
716.96	1081.82
717.29	1075.99
717.63	1077.91
717.96	1080.41
718.30	1081.07
718.63	1085.61
718.97	1087.32
719.30	1084.53
719.63	1081.75
719.97	1080.84
720.30	1078.33
720.64	1079.17
720.97	1081.23
721.30	1083.39
721.64	1083.46
721.97	1082.17
722.31	1081.30
722.64	1075.13
722.97	1072.88
723.31	1075.45
723.64	1076.79
723.97	1079.06
724.31	1081.63
724.64	1082.90
724.98	1079.57
725.31	1079.97
725.64	1077.77
725.98	1079.53
726.31	1078.10
726.64	1075.43
726.97	1077.47
727.31	1077.75
727.64	1079.31
727.97	1079.13
728.31	1080.48
728.64	1081.19
728.97	1079.17
729.31	1076.30
729.64	1079.13
729.97	1079.27
730.30	1077.09
730.64	1078.87
730.97	1079.85
731.30	1079.48
731.63	1082.90
731.97	1080.79
732.30	1083.93
732.63	1086.41
732.96	1085.21
733.30	1080.93
733.63	1081.35
733.96	1078.17
734.29	1075.87
734.63	1075.48
734.96	1078.57
735.29	1078.17
735.62	1080.16
735.95	1081.23
736.29	1079.78
736.62	1081.14
736.95	1080.51
737.28	1081.14
737.61	1081.40
737.94	1083.64
738.28	1083.11
738.61	1087.18
738.94	1086.55
739.27	1085.40
739.60	1087.13
739.93	1085.99
740.27	1085.21
740.60	1082.43
740.93	1081.56
741.26	1078.71
741.59	1080.53
741.92	1080.70
742.25	1082.78
742.58	1081.87
742.91	1084.04
743.25	1081.21
743.58	1080.84
743.91	1079.46
744.24	1080.81
744.57	1078.10
744.90	1080.30
745.23	1078.87
745.56	1078.89
745.89	1079.08
746.22	1078.05
746.55	1077.51
746.88	1076.81
747.21	1078.80
747.54	1078.36
747.87	1079.46
748.20	1079.24
748.53	1081.02
748.87	1080.77
749.20	1082.26
749.53	1081.35
749.86	1079.27
750.19	1077.11
750.52	1073.84
750.85	1071.99
751.18	1071.52
751.51	1071.90
751.84	1071.92
752.16	1073.44
752.49	1073.23
752.82	1075.83
753.15	1077.00
753.48	1077.98
753.81	1082.33
754.14	1083.22
754.47	1084.79
754.80	1081.98
755.13	1081.47
755.46	1079.55
755.79	1085.00
756.12	1081.80
756.45	1083.90
756.78	1085.42
757.11	1082.73
757.43	1073.84
757.76	1072.92
758.09	1071.54
758.42	1071.59
758.75	1071.24
759.08	1073.84
759.41	1077.09
759.74	1081.37
760.07	1084.21
760.39	1085.10
760.72	1086.99
761.05	1082.36
761.38	1082.19
761.71	1079.67
762.04	1080.65
762.36	1078.47
762.69	1083.69
763.02	1079.67
763.35	1079.24
763.68	1080.23
764.01	1081.77
