SpectraSuite Data File
++++++++++++++++++++++++++++++++++++
Date: Mon Aug 26 10:22:14 PDT 2019
User: corrico
Dark Spectrum Present: No
Reference Spectrum Present: No
Number of Sampled Component Spectra: 1
Spectrometers: USB2+H06089
Integration Time (usec): 2000 (USB2+H06089)
Spectra Averaged: 20 (USB2+H06089)
Boxcar Smoothing: 2 (USB2+H06089)
Correct for Electrical Dark: No (USB2+H06089)
Strobe/Lamp Enabled: No (USB2+H06089)
Correct for Detector Non-linearity: No (USB2+H06089)
Correct for Stray Light: No (USB2+H06089)
Number of Pixels in Processed Spectrum: 2048
>>>>>Begin Processed Spectral Data<<<<<
339.70	1029.95
340.07	1029.95
340.45	996.20
340.82	976.75
341.19	955.78
341.57	932.35
341.94	922.69
342.31	914.14
342.69	907.59
343.06	901.90
343.43	900.94
343.81	899.94
344.18	901.81
344.55	904.83
344.93	910.19
345.30	914.70
345.67	923.25
346.04	934.25
346.42	942.77
346.79	952.22
347.16	961.38
347.54	967.44
347.91	971.46
348.28	980.80
348.65	987.59
349.03	998.12
349.40	1010.06
349.77	1021.20
350.14	1026.02
350.52	1035.43
350.89	1039.67
351.26	1044.49
351.63	1052.87
352.01	1059.72
352.38	1064.12
352.75	1068.41
353.12	1073.70
353.50	1074.35
353.87	1074.75
354.24	1074.59
354.61	1075.17
354.98	1076.76
355.36	1076.93
355.73	1080.25
356.10	1082.59
356.47	1084.14
356.84	1081.70
357.22	1081.28
357.59	1084.77
357.96	1084.04
358.33	1082.92
358.70	1081.28
359.08	1082.92
359.45	1080.41
359.82	1084.18
360.19	1085.40
360.56	1087.81
360.94	1087.44
361.31	1086.08
361.68	1081.56
362.05	1083.81
362.42	1083.97
362.79	1081.80
363.16	1082.40
363.54	1082.36
363.91	1079.55
364.28	1080.16
364.65	1079.71
365.02	1077.44
365.39	1077.25
365.76	1073.95
366.14	1072.27
366.51	1074.40
366.88	1074.63
367.25	1074.82
367.62	1079.06
367.99	1079.99
368.36	1076.53
368.73	1077.02
369.10	1077.86
369.48	1074.17
369.85	1074.42
370.22	1076.15
370.59	1074.96
370.96	1074.91
371.33	1080.88
371.70	1082.31
372.07	1086.73
372.44	1089.26
372.81	1089.73
373.18	1087.55
373.55	1082.36
373.93	1078.24
374.30	1078.14
374.67	1077.68
375.04	1076.46
375.41	1079.34
375.78	1076.97
376.15	1077.04
376.52	1074.14
376.89	1075.99
377.26	1078.14
377.63	1081.37
378.00	1081.89
378.37	1085.68
378.74	1085.03
379.11	1080.32
379.48	1078.59
379.85	1080.51
380.22	1079.85
380.59	1076.13
380.96	1077.51
381.33	1077.18
381.70	1074.52
382.07	1071.52
382.44	1076.93
382.81	1078.92
383.18	1079.85
383.55	1079.62
383.92	1086.55
384.29	1088.07
384.66	1086.01
385.03	1088.93
385.40	1090.92
385.77	1087.04
386.14	1082.64
386.51	1082.05
386.88	1082.43
387.25	1079.83
387.62	1078.36
387.99	1076.18
388.36	1078.45
388.73	1077.72
389.10	1077.54
389.46	1080.95
389.83	1084.65
390.20	1090.10
390.57	1091.13
390.94	1093.62
391.31	1091.70
391.68	1089.80
392.05	1086.97
392.42	1090.10
392.79	1090.39
393.16	1093.08
393.53	1094.34
393.89	1091.16
394.26	1084.98
394.63	1085.21
395.00	1083.67
395.37	1084.77
395.74	1086.97
396.11	1091.09
396.48	1090.43
396.84	1090.74
397.21	1090.27
397.58	1091.23
397.95	1086.45
398.32	1087.46
398.69	1086.83
399.06	1088.14
399.42	1089.52
399.79	1088.23
400.16	1088.40
400.53	1089.24
400.90	1089.61
401.27	1086.83
401.64	1090.92
402.00	1089.61
402.37	1090.83
402.74	1092.09
403.11	1092.52
403.48	1092.42
403.84	1096.59
404.21	1099.54
404.58	1096.56
404.95	1096.47
405.32	1095.07
405.68	1096.14
406.05	1090.78
406.42	1092.56
406.79	1092.26
407.16	1093.36
407.52	1092.52
407.89	1094.81
408.26	1092.23
408.63	1089.71
408.99	1091.95
409.36	1088.82
409.73	1088.49
410.10	1089.71
410.47	1095.14
410.83	1094.18
411.20	1095.42
411.57	1098.41
411.94	1099.26
412.30	1100.38
412.67	1102.93
413.04	1104.92
413.40	1101.53
413.77	1104.97
414.14	1102.60
414.51	1100.59
414.87	1098.74
415.24	1102.56
415.61	1101.90
415.97	1108.50
416.34	1112.18
416.71	1114.12
417.08	1112.67
417.44	1114.14
417.81	1111.03
418.18	1110.75
418.54	1111.57
418.91	1117.65
419.28	1122.19
419.64	1124.81
420.01	1127.65
420.38	1128.86
420.74	1125.68
421.11	1122.57
421.48	1122.43
421.84	1122.85
422.21	1124.60
422.58	1128.91
422.94	1132.70
423.31	1134.76
423.68	1137.15
424.04	1140.89
424.41	1142.60
424.77	1145.08
425.14	1146.93
425.51	1153.98
425.87	1158.40
426.24	1166.41
426.61	1175.53
426.97	1182.63
427.34	1186.28
427.70	1193.06
428.07	1201.56
428.44	1207.55
428.80	1219.77
429.17	1232.95
429.53	1246.43
429.90	1260.59
430.27	1273.51
430.63	1287.51
431.00	1299.58
431.36	1311.94
431.73	1325.35
432.09	1342.41
432.46	1357.51
432.83	1378.74
433.19	1400.13
433.56	1424.96
433.92	1447.29
434.29	1475.05
434.65	1502.11
435.02	1531.62
435.38	1560.32
435.75	1599.83
436.11	1639.66
436.48	1681.91
436.84	1727.34
437.21	1771.22
437.57	1814.57
437.94	1866.93
438.30	1918.82
438.67	1975.74
439.03	2042.75
439.40	2116.01
439.76	2184.59
440.13	2259.79
440.49	2345.03
440.86	2420.11
441.22	2502.29
441.59	2595.82
441.95	2696.25
442.32	2792.70
442.68	2915.07
443.05	3035.60
443.41	3165.69
443.78	3296.60
444.14	3441.52
444.51	3579.64
444.87	3753.10
445.24	3916.14
445.60	4099.17
445.96	4290.76
446.33	4510.38
446.69	4707.92
447.06	4931.34
447.42	5163.57
447.79	5397.46
448.15	5660.26
448.51	5943.39
448.88	6270.22
449.24	6581.82
449.61	6951.09
449.97	7308.60
450.33	7692.40
450.70	8055.07
451.06	8489.85
451.43	8902.98
451.79	9370.05
452.15	9877.11
452.52	10422.97
452.88	10973.39
453.24	11606.93
453.61	12308.55
453.97	13017.01
454.34	13715.94
454.70	14553.10
455.06	15348.72
455.43	16105.27
455.79	16795.82
456.15	17604.64
456.52	18340.06
456.88	19274.41
457.24	20225.41
457.61	21360.69
457.97	22471.67
458.33	23581.34
458.70	24660.26
459.06	25650.56
459.42	26673.17
459.79	27571.39
460.15	28630.21
460.51	29596.99
460.88	30705.91
461.24	31691.30
461.60	32844.76
461.96	33898.96
462.33	34946.14
462.69	35959.43
463.05	37089.53
463.42	38128.94
463.78	39105.09
464.14	39907.09
464.50	40695.39
464.87	41228.63
465.23	41584.25
465.59	41995.09
465.95	42328.21
466.32	42601.28
466.68	42928.02
467.04	43149.86
467.40	43207.83
467.77	43334.13
468.13	43249.68
468.49	43035.76
468.85	42881.21
469.22	42693.83
469.58	42402.62
469.94	42236.44
470.30	42015.05
470.66	41658.75
471.03	41172.67
471.39	40802.61
471.75	40072.41
472.11	39345.01
472.47	38827.43
472.84	38283.09
473.20	37538.19
473.56	37127.89
473.92	36531.13
474.28	35883.64
474.65	35209.31
475.01	34562.92
475.37	33747.90
475.73	33081.62
476.09	32379.46
476.45	31736.03
476.81	31156.20
477.18	30583.01
477.54	30086.58
477.90	29609.93
478.26	28997.41
478.62	28443.55
478.98	27985.48
479.34	27546.86
479.71	26994.17
480.07	26596.05
480.43	26172.27
480.79	25693.02
481.15	25223.02
481.51	24819.27
481.87	24460.03
482.23	24044.65
482.59	23689.22
482.96	23337.15
483.32	23016.78
483.68	22631.65
484.04	22312.96
484.40	21910.78
484.76	21490.94
485.12	21045.30
485.48	20625.50
485.84	20142.16
486.20	19710.28
486.56	19268.65
486.92	18880.61
487.28	18447.61
487.64	18012.06
488.00	17605.35
488.37	17212.39
488.73	16772.16
489.09	16324.30
489.45	15899.21
489.81	15442.11
490.17	14977.65
490.53	14570.28
490.89	14156.50
491.25	13741.33
491.61	13342.65
491.97	12952.13
492.33	12546.25
492.69	12194.26
493.05	11870.89
493.41	11553.19
493.77	11242.51
494.13	10936.41
494.49	10629.96
494.85	10338.92
495.21	10063.32
495.57	9797.30
495.93	9534.36
496.29	9281.77
496.64	9047.27
497.00	8797.35
497.36	8530.46
497.72	8274.19
498.08	8045.64
498.44	7808.57
498.80	7597.31
499.16	7402.55
499.52	7213.53
499.88	7024.51
500.24	6860.65
500.60	6694.87
500.96	6538.61
501.32	6381.63
501.68	6216.58
502.03	6037.04
502.39	5869.64
502.75	5696.16
503.11	5539.67
503.47	5397.72
503.83	5265.46
504.19	5135.70
504.55	5023.07
504.91	4913.28
505.26	4795.71
505.62	4670.52
505.98	4550.54
506.34	4434.61
506.70	4310.71
507.06	4201.73
507.42	4106.47
507.78	4017.11
508.13	3925.13
508.49	3845.94
508.85	3769.76
509.21	3688.82
509.57	3605.97
509.93	3517.03
510.28	3426.94
510.64	3337.88
511.00	3253.77
511.36	3179.95
511.72	3114.76
512.07	3056.01
512.43	2994.83
512.79	2934.38
513.15	2871.70
513.51	2810.59
513.86	2750.22
514.22	2699.22
514.58	2651.66
514.94	2601.29
515.30	2556.59
515.65	2509.94
516.01	2470.83
516.37	2429.43
516.73	2392.68
517.08	2355.37
517.44	2315.28
517.80	2276.24
518.16	2237.41
518.51	2199.52
518.87	2162.23
519.23	2134.94
519.59	2102.29
519.94	2071.68
520.30	2042.40
520.66	2014.12
521.01	1983.11
521.37	1956.43
521.73	1932.16
522.09	1908.52
522.44	1885.61
522.80	1865.17
523.16	1836.45
523.51	1812.96
523.87	1793.44
524.23	1768.44
524.58	1745.83
524.94	1731.48
525.30	1711.31
525.65	1688.84
526.01	1673.23
526.37	1653.82
526.72	1635.50
527.08	1615.93
527.44	1601.46
527.79	1585.85
528.15	1570.08
528.51	1552.55
528.86	1543.30
529.22	1527.25
529.58	1512.29
529.93	1498.93
530.29	1486.76
530.65	1470.18
531.00	1457.59
531.36	1445.68
531.71	1435.36
532.07	1423.02
532.43	1416.47
532.78	1408.58
533.14	1399.76
533.49	1390.79
533.85	1383.96
534.21	1371.48
534.56	1365.21
534.92	1357.21
535.27	1351.28
535.63	1343.37
535.98	1336.73
536.34	1329.00
536.69	1319.27
537.05	1311.00
537.41	1300.40
537.76	1294.74
538.12	1284.02
538.47	1279.88
538.83	1272.76
539.18	1269.25
539.54	1260.40
539.89	1256.19
540.25	1254.81
540.60	1252.02
540.96	1247.74
541.31	1242.78
541.67	1237.84
542.02	1230.00
542.38	1224.50
542.73	1223.28
543.09	1223.84
543.44	1221.03
543.80	1219.26
544.15	1216.98
544.51	1212.65
544.86	1205.68
545.22	1204.11
545.57	1203.46
545.93	1197.30
546.28	1194.26
546.64	1195.10
546.99	1190.65
547.35	1185.06
547.70	1184.80
548.05	1178.88
548.41	1176.80
548.76	1176.96
549.12	1172.58
549.47	1170.20
549.83	1171.74
550.18	1169.50
550.53	1165.73
550.89	1166.71
551.24	1161.58
551.60	1157.42
551.95	1155.71
552.30	1155.17
552.66	1152.29
553.01	1152.95
553.37	1152.18
553.72	1146.86
554.07	1147.75
554.43	1148.41
554.78	1146.61
555.13	1145.79
555.49	1145.65
555.84	1141.43
556.19	1139.91
556.55	1136.66
556.90	1135.70
557.26	1136.31
557.61	1136.89
557.96	1134.83
558.32	1137.22
558.67	1134.32
559.02	1130.41
559.37	1123.57
559.73	1119.88
560.08	1116.58
560.43	1118.21
560.79	1117.98
561.14	1118.45
561.49	1119.81
561.85	1118.96
562.20	1115.59
562.55	1117.58
562.90	1121.14
563.26	1118.61
563.61	1117.56
563.96	1117.14
564.32	1114.21
564.67	1112.04
565.02	1113.32
565.37	1114.77
565.73	1116.01
566.08	1114.19
566.43	1113.84
566.78	1112.97
567.14	1113.95
567.49	1113.14
567.84	1112.25
568.19	1110.77
568.54	1112.20
568.90	1108.59
569.25	1103.87
569.60	1104.36
569.95	1106.56
570.31	1104.10
570.66	1104.94
571.01	1110.77
571.36	1111.61
571.71	1107.12
572.06	1104.66
572.42	1103.35
572.77	1100.73
573.12	1099.37
573.47	1098.16
573.82	1099.84
574.18	1098.88
574.53	1099.00
574.88	1097.99
575.23	1100.96
575.58	1098.88
575.93	1100.17
576.28	1096.68
576.64	1094.79
576.99	1092.05
577.34	1093.33
577.69	1094.06
578.04	1096.24
578.39	1096.63
578.74	1096.89
579.09	1095.60
579.44	1094.04
579.80	1088.89
580.15	1089.40
580.50	1089.22
580.85	1089.71
581.20	1086.24
581.55	1088.37
581.90	1088.23
582.25	1090.06
582.60	1089.26
582.95	1094.50
583.30	1099.09
583.65	1100.08
584.00	1097.99
584.35	1096.14
584.71	1094.39
585.06	1092.00
585.41	1091.58
585.76	1089.22
586.11	1089.33
586.46	1089.89
586.81	1089.96
587.16	1090.78
587.51	1092.30
587.86	1094.43
588.21	1093.38
588.56	1094.46
588.91	1094.11
589.26	1094.06
589.61	1096.82
589.96	1094.90
590.31	1094.34
590.66	1092.23
591.01	1090.34
591.36	1083.64
591.71	1085.75
592.06	1084.96
592.41	1085.28
592.76	1086.17
593.10	1089.12
593.45	1087.58
593.80	1085.68
594.15	1086.94
594.50	1088.68
594.85	1089.87
595.20	1090.99
595.55	1091.93
595.90	1090.76
596.25	1090.22
596.60	1088.44
596.95	1087.48
597.30	1090.27
597.64	1101.46
597.99	1103.98
598.34	1102.37
598.69	1100.68
599.04	1095.72
599.39	1084.42
599.74	1080.23
600.09	1082.15
600.44	1083.53
600.78	1088.12
601.13	1087.95
601.48	1089.12
601.83	1089.07
602.18	1090.85
602.53	1087.51
602.88	1088.21
603.22	1088.47
603.57	1087.46
603.92	1083.67
604.27	1083.97
604.62	1083.08
604.97	1083.22
605.31	1084.72
605.66	1089.73
606.01	1090.03
606.36	1093.19
606.71	1095.77
607.05	1094.39
607.40	1089.57
607.75	1088.93
608.10	1087.74
608.44	1083.97
608.79	1084.23
609.14	1087.16
609.49	1089.24
609.84	1084.63
610.18	1086.01
610.53	1086.17
610.88	1086.57
611.23	1086.01
611.57	1089.54
611.92	1089.40
612.27	1089.36
612.62	1087.51
612.96	1089.99
613.31	1089.52
613.66	1091.25
614.00	1090.90
614.35	1089.19
614.70	1083.86
615.05	1082.87
615.39	1079.31
615.74	1082.52
616.09	1084.60
616.43	1088.30
616.78	1090.74
617.13	1091.46
617.47	1090.88
617.82	1094.67
618.17	1093.38
618.51	1088.86
618.86	1090.88
619.21	1090.62
619.55	1084.53
619.90	1082.76
620.25	1084.63
620.59	1082.61
620.94	1077.09
621.29	1079.78
621.63	1080.25
621.98	1082.99
622.32	1084.58
622.67	1087.44
623.02	1084.60
623.36	1082.80
623.71	1079.85
624.05	1078.99
624.40	1080.11
624.75	1082.52
625.09	1085.12
625.44	1085.77
625.78	1084.51
626.13	1084.53
626.48	1083.81
626.82	1082.61
627.17	1084.86
627.51	1085.35
627.86	1087.88
628.20	1084.98
628.55	1087.83
628.89	1084.42
629.24	1082.03
629.58	1077.98
629.93	1081.91
630.28	1079.38
630.62	1081.96
630.97	1084.28
631.31	1085.12
631.66	1082.90
632.00	1081.77
632.35	1081.30
632.69	1079.60
633.04	1080.51
633.38	1083.27
633.73	1084.86
634.07	1087.30
634.42	1090.48
634.76	1086.64
635.11	1086.94
635.45	1084.91
635.79	1079.88
636.14	1078.78
636.48	1079.62
636.83	1078.78
637.17	1077.58
637.52	1075.94
637.86	1078.59
638.21	1083.04
638.55	1081.14
638.89	1082.99
639.24	1088.33
639.58	1088.14
639.93	1085.56
640.27	1086.83
640.61	1088.09
640.96	1088.51
641.30	1082.47
641.65	1083.18
641.99	1085.21
642.33	1085.12
642.68	1083.76
643.02	1084.84
643.37	1085.56
643.71	1083.74
644.05	1084.89
644.40	1084.56
644.74	1086.01
645.08	1084.96
645.43	1083.29
645.77	1082.78
646.11	1080.84
646.46	1077.96
646.80	1077.58
647.14	1080.86
647.49	1081.54
647.83	1082.24
648.17	1083.36
648.52	1082.90
648.86	1081.26
649.20	1078.64
649.55	1079.99
649.89	1082.50
650.23	1084.02
650.57	1083.04
650.92	1082.85
651.26	1080.20
651.60	1082.17
651.95	1081.68
652.29	1080.88
652.63	1082.66
652.97	1083.67
653.32	1082.87
653.66	1084.96
654.00	1086.92
654.34	1087.32
654.69	1089.61
655.03	1087.67
655.37	1082.64
655.71	1081.02
656.05	1079.81
656.40	1079.15
656.74	1078.33
657.08	1078.28
657.42	1081.80
657.76	1084.32
658.11	1085.77
658.45	1084.63
658.79	1086.50
659.13	1081.00
659.47	1077.77
659.82	1075.05
660.16	1078.40
660.50	1080.23
660.84	1081.96
661.18	1081.96
661.52	1084.44
661.87	1081.66
662.21	1080.93
662.55	1082.45
662.89	1084.18
663.23	1083.20
663.57	1083.25
663.91	1085.31
664.25	1085.19
664.60	1085.49
664.94	1084.65
665.28	1087.86
665.62	1083.18
665.96	1081.75
666.30	1080.34
666.64	1078.61
666.98	1077.65
667.32	1080.51
667.66	1081.70
668.01	1080.32
668.35	1081.87
668.69	1083.11
669.03	1079.95
669.37	1081.09
669.71	1080.16
670.05	1080.11
670.39	1082.17
670.73	1083.57
671.07	1079.83
671.41	1082.36
671.75	1084.14
672.09	1080.34
672.43	1081.40
672.77	1079.76
673.11	1078.87
673.45	1078.52
673.79	1077.47
674.13	1075.45
674.47	1079.88
674.81	1079.43
675.15	1078.82
675.49	1079.64
675.83	1082.38
676.17	1081.84
676.51	1082.64
676.85	1081.40
677.19	1083.01
677.53	1081.30
677.87	1081.82
678.21	1081.87
678.55	1082.10
678.89	1079.71
679.23	1078.50
679.57	1078.82
679.90	1076.83
680.24	1076.51
680.58	1078.36
680.92	1079.46
681.26	1079.17
681.60	1084.07
681.94	1082.40
682.28	1083.34
682.62	1085.54
682.96	1088.58
683.29	1087.04
683.63	1088.70
683.97	1086.69
684.31	1084.35
684.65	1081.28
684.99	1080.93
685.33	1079.76
685.67	1078.71
686.00	1077.37
686.34	1075.41
686.68	1074.61
687.02	1075.59
687.36	1078.45
687.70	1077.72
688.03	1078.47
688.37	1079.36
688.71	1081.58
689.05	1081.12
689.39	1081.42
689.72	1082.15
690.06	1081.33
690.40	1078.36
690.74	1075.05
691.08	1077.14
691.41	1074.77
691.75	1074.21
692.09	1074.40
692.43	1077.14
692.76	1076.13
693.10	1079.03
693.44	1078.21
693.78	1076.79
694.11	1076.30
694.45	1078.17
694.79	1078.50
695.13	1078.82
695.46	1081.89
695.80	1079.78
696.14	1078.03
696.48	1078.45
696.81	1080.30
697.15	1080.60
697.49	1086.50
697.82	1087.76
698.16	1085.56
698.50	1085.80
698.83	1085.96
699.17	1082.43
699.51	1083.36
699.84	1085.91
700.18	1085.12
700.52	1083.57
700.85	1082.47
701.19	1084.07
701.53	1082.76
701.86	1083.20
702.20	1083.88
702.54	1084.51
702.87	1081.77
703.21	1078.80
703.55	1079.90
703.88	1078.94
704.22	1079.29
704.55	1081.66
704.89	1083.81
705.23	1080.27
705.56	1082.92
705.90	1082.94
706.23	1084.18
706.57	1088.14
706.91	1089.19
707.24	1088.14
707.58	1082.90
707.91	1078.68
708.25	1074.87
708.58	1074.33
708.92	1073.93
709.26	1076.37
709.59	1077.44
709.93	1081.68
710.26	1079.43
710.60	1079.01
710.93	1082.26
711.27	1083.15
711.60	1081.07
711.94	1086.31
712.27	1084.14
712.61	1085.12
712.94	1085.17
713.28	1084.60
713.61	1086.41
713.95	1089.99
714.28	1086.10
714.62	1085.87
714.95	1084.60
715.29	1080.39
715.62	1079.24
715.96	1081.05
716.29	1075.73
716.63	1074.54
716.96	1076.01
717.29	1073.81
717.63	1073.67
717.96	1074.89
718.30	1073.77
718.63	1072.85
718.97	1075.43
719.30	1074.47
719.63	1078.38
719.97	1081.58
720.30	1082.12
720.64	1078.54
720.97	1081.14
721.30	1078.94
721.64	1081.73
721.97	1083.39
722.31	1086.97
722.64	1086.52
722.97	1088.89
723.31	1086.78
723.64	1085.96
723.97	1084.51
724.31	1085.10
724.64	1084.79
724.98	1082.87
725.31	1082.59
725.64	1083.18
725.98	1080.98
726.31	1079.92
726.64	1080.37
726.97	1076.72
727.31	1073.91
727.64	1075.76
727.97	1074.84
728.31	1075.71
728.64	1076.48
728.97	1078.80
729.31	1078.99
729.64	1081.82
729.97	1080.27
730.30	1085.63
730.64	1085.59
730.97	1083.69
731.30	1081.12
731.63	1084.56
731.97	1081.63
732.30	1083.76
732.63	1081.42
732.96	1080.63
733.30	1076.44
733.63	1071.52
733.96	1068.52
734.29	1070.47
734.63	1073.14
734.96	1073.49
735.29	1078.14
735.62	1078.50
735.95	1078.33
736.29	1078.03
736.62	1078.28
736.95	1078.89
737.28	1081.07
737.61	1083.25
737.94	1083.69
738.28	1086.62
738.61	1083.95
738.94	1085.63
739.27	1088.16
739.60	1085.70
739.93	1081.05
740.27	1083.20
740.60	1079.08
740.93	1076.93
741.26	1080.18
741.59	1081.63
741.92	1081.58
742.25	1082.66
742.58	1080.74
742.91	1077.77
743.25	1079.06
743.58	1079.15
743.91	1081.26
744.24	1081.96
744.57	1084.74
744.90	1084.18
745.23	1081.05
745.56	1078.40
745.89	1077.35
746.22	1076.39
746.55	1075.97
746.88	1080.46
747.21	1078.64
747.54	1079.43
747.87	1078.59
748.20	1077.40
748.53	1076.79
748.87	1079.90
749.20	1078.96
749.53	1077.65
749.86	1078.92
750.19	1075.92
750.52	1075.43
750.85	1077.82
751.18	1080.23
751.51	1081.30
751.84	1085.73
752.16	1087.62
752.49	1084.74
752.82	1084.53
753.15	1084.07
753.48	1082.01
753.81	1079.24
754.14	1081.66
754.47	1079.15
754.80	1077.30
755.13	1077.18
755.46	1077.40
755.79	1077.02
756.12	1081.30
756.45	1085.17
756.78	1085.07
757.11	1087.51
757.43	1089.43
757.76	1086.43
758.09	1086.15
758.42	1086.71
758.75	1083.95
759.08	1079.85
759.41	1079.97
759.74	1078.45
760.07	1078.82
760.39	1078.05
760.72	1080.63
761.05	1081.47
761.38	1081.80
761.71	1080.60
762.04	1082.40
762.36	1082.40
762.69	1080.98
763.02	1079.85
763.35	1081.05
763.68	1080.72
