SpectraSuite Data File
++++++++++++++++++++++++++++++++++++
Date: Mon Aug 26 10:21:57 PDT 2019
User: corrico
Dark Spectrum Present: No
Reference Spectrum Present: No
Number of Sampled Component Spectra: 1
Spectrometers: USB2+H06089
Integration Time (usec): 2000 (USB2+H06089)
Spectra Averaged: 20 (USB2+H06089)
Boxcar Smoothing: 2 (USB2+H06089)
Correct for Electrical Dark: No (USB2+H06089)
Strobe/Lamp Enabled: No (USB2+H06089)
Correct for Detector Non-linearity: No (USB2+H06089)
Correct for Stray Light: No (USB2+H06089)
Number of Pixels in Processed Spectrum: 2048
>>>>>Begin Processed Spectral Data<<<<<
339.70	1009.71
340.07	1009.71
340.45	981.06
340.82	962.59
341.19	942.00
341.57	920.02
341.94	911.71
342.31	904.03
342.69	892.73
343.06	889.24
343.43	888.05
343.81	884.70
344.18	885.96
344.55	894.62
344.93	901.46
345.30	908.90
345.67	915.10
346.04	924.28
346.42	932.84
346.79	941.64
347.16	949.25
347.54	962.22
347.91	966.62
348.28	976.33
348.65	982.11
349.03	991.12
349.40	1000.09
349.77	1012.31
350.14	1018.41
350.52	1026.47
350.89	1030.26
351.26	1033.86
351.63	1036.90
352.01	1043.95
352.38	1047.65
352.75	1054.60
353.12	1057.36
353.50	1060.50
353.87	1061.46
354.24	1063.91
354.61	1065.06
354.98	1067.17
355.36	1072.69
355.73	1076.79
356.10	1077.61
356.47	1077.04
356.84	1079.69
357.22	1076.72
357.59	1069.91
357.96	1069.72
358.33	1069.65
358.70	1065.58
359.08	1069.67
359.45	1074.45
359.82	1075.20
360.19	1074.19
360.56	1074.56
360.94	1071.90
361.31	1073.16
361.68	1073.60
362.05	1074.03
362.42	1072.57
362.79	1069.95
363.16	1069.67
363.54	1067.28
363.91	1068.17
364.28	1065.55
364.65	1064.05
365.02	1061.39
365.39	1061.46
365.76	1056.45
366.14	1062.16
366.51	1063.61
366.88	1061.78
367.25	1062.88
367.62	1065.93
367.99	1063.94
368.36	1064.45
368.73	1064.76
369.10	1061.04
369.48	1059.44
369.85	1055.11
370.22	1055.68
370.59	1057.08
370.96	1061.01
371.33	1062.23
371.70	1065.74
372.07	1064.87
372.44	1064.73
372.81	1061.67
373.18	1063.68
373.55	1062.67
373.93	1062.93
374.30	1063.16
374.67	1066.25
375.04	1062.81
375.41	1063.28
375.78	1062.51
376.15	1061.53
376.52	1064.22
376.89	1066.68
377.26	1067.89
377.63	1068.74
378.00	1070.05
378.37	1065.79
378.74	1068.31
379.11	1068.85
379.48	1069.51
379.85	1066.61
380.22	1066.93
380.59	1063.49
380.96	1063.98
381.33	1060.64
381.70	1064.76
382.07	1066.44
382.44	1065.62
382.81	1062.88
383.18	1064.57
383.55	1064.19
383.92	1062.25
384.29	1064.24
384.66	1065.29
385.03	1067.59
385.40	1070.56
385.77	1071.31
386.14	1071.73
386.51	1072.36
386.88	1073.18
387.25	1068.71
387.62	1067.38
387.99	1069.25
388.36	1069.46
388.73	1065.20
389.10	1066.04
389.46	1066.56
389.83	1066.32
390.20	1067.12
390.57	1068.78
390.94	1069.23
391.31	1071.38
391.68	1070.19
392.05	1067.40
392.42	1067.24
392.79	1065.79
393.16	1064.94
393.53	1062.53
393.89	1063.38
394.26	1065.34
394.63	1066.82
395.00	1065.44
395.37	1066.79
395.74	1070.72
396.11	1070.44
396.48	1071.64
396.84	1069.60
397.21	1069.93
397.58	1068.34
397.95	1068.74
398.32	1064.08
398.69	1066.51
399.06	1066.21
399.42	1064.15
399.79	1062.74
400.16	1063.45
400.53	1063.70
400.90	1064.26
401.27	1065.65
401.64	1066.16
402.00	1066.70
402.37	1066.37
402.74	1065.97
403.11	1063.82
403.48	1065.69
403.84	1065.04
404.21	1066.63
404.58	1067.07
404.95	1068.10
405.32	1068.03
405.68	1071.45
406.05	1070.61
406.42	1070.28
406.79	1070.51
407.16	1069.79
407.52	1066.61
407.89	1066.21
408.26	1062.81
408.63	1065.37
408.99	1063.49
409.36	1065.27
409.73	1065.97
410.10	1073.04
410.47	1071.85
410.83	1072.11
411.20	1072.71
411.57	1075.22
411.94	1072.64
412.30	1071.64
412.67	1071.57
413.04	1069.48
413.40	1067.10
413.77	1066.09
414.14	1067.71
414.51	1066.63
414.87	1069.62
415.24	1068.50
415.61	1065.81
415.97	1065.79
416.34	1065.67
416.71	1064.19
417.08	1066.09
417.44	1067.31
417.81	1066.11
418.18	1068.17
418.54	1065.60
418.91	1062.84
419.28	1065.86
419.64	1066.79
420.01	1069.13
420.38	1074.42
420.74	1077.75
421.11	1078.14
421.48	1079.67
421.84	1078.19
422.21	1075.99
422.58	1072.48
422.94	1069.60
423.31	1069.98
423.68	1067.17
424.04	1068.85
424.41	1069.65
424.77	1073.72
425.14	1072.57
425.51	1074.03
425.87	1071.22
426.24	1072.39
426.61	1068.52
426.97	1067.31
427.34	1068.64
427.70	1069.67
428.07	1066.16
428.44	1066.89
428.80	1067.71
429.17	1071.47
429.53	1076.37
429.90	1082.73
430.27	1083.97
430.63	1083.93
431.00	1081.68
431.36	1078.17
431.73	1075.94
432.09	1077.86
432.46	1079.90
432.83	1078.54
433.19	1079.15
433.56	1084.21
433.92	1083.11
434.29	1084.14
434.65	1086.27
435.02	1087.41
435.38	1084.53
435.75	1087.04
436.11	1090.78
436.48	1093.15
436.84	1096.59
437.21	1101.06
437.57	1104.01
437.94	1101.48
438.30	1105.04
438.67	1107.17
439.03	1109.69
439.40	1111.54
439.76	1116.04
440.13	1118.73
440.49	1120.32
440.86	1124.07
441.22	1127.58
441.59	1134.20
441.95	1135.72
442.32	1138.46
442.68	1140.29
443.05	1142.98
443.41	1146.42
443.78	1150.02
444.14	1155.78
444.51	1160.04
444.87	1168.58
445.24	1171.72
445.60	1179.63
445.96	1187.59
446.33	1193.23
446.69	1197.91
447.06	1204.88
447.42	1207.32
447.79	1212.77
448.15	1223.94
448.51	1232.13
448.88	1243.39
449.24	1258.32
449.61	1268.55
449.97	1274.89
450.33	1284.86
450.70	1295.88
451.06	1306.18
451.43	1318.28
451.79	1337.48
452.15	1358.87
452.52	1375.21
452.88	1394.19
453.24	1413.24
453.61	1431.21
453.97	1447.18
454.34	1466.93
454.70	1486.66
455.06	1509.41
455.43	1531.72
455.79	1551.21
456.15	1575.11
456.52	1595.75
456.88	1623.02
457.24	1650.71
457.61	1683.22
457.97	1709.78
458.33	1742.72
458.70	1772.32
459.06	1801.39
459.42	1830.51
459.79	1857.57
460.15	1887.71
460.51	1918.98
460.88	1948.82
461.24	1977.96
461.60	2015.90
461.96	2048.81
462.33	2071.16
462.69	2098.88
463.05	2128.30
463.42	2156.29
463.78	2179.30
464.14	2208.08
464.50	2231.42
464.87	2252.44
465.23	2258.83
465.59	2277.22
465.95	2290.99
466.32	2302.83
466.68	2308.63
467.04	2322.91
467.40	2322.98
467.77	2320.62
468.13	2315.61
468.49	2310.65
468.85	2303.98
469.22	2303.77
469.58	2301.73
469.94	2302.17
470.30	2297.17
470.66	2293.09
471.03	2276.62
471.39	2265.69
471.75	2242.87
472.11	2220.84
472.47	2198.56
472.84	2173.23
473.20	2146.97
473.56	2128.65
473.92	2114.23
474.28	2095.62
474.65	2085.72
475.01	2072.29
475.37	2057.12
475.73	2041.72
476.09	2025.64
476.45	2013.07
476.81	1999.61
477.18	1985.03
477.54	1972.74
477.90	1961.63
478.26	1941.59
478.62	1926.05
478.98	1914.46
479.34	1906.46
479.71	1895.60
480.07	1890.29
480.43	1879.45
480.79	1869.53
481.15	1851.36
481.51	1840.46
481.87	1828.57
482.23	1819.23
482.59	1807.95
482.96	1795.92
483.32	1777.82
483.68	1762.99
484.04	1749.13
484.40	1731.62
484.76	1723.57
485.12	1717.18
485.48	1710.11
485.84	1697.75
486.20	1690.80
486.56	1677.11
486.92	1665.01
487.28	1648.63
487.64	1637.58
488.00	1625.27
488.37	1612.82
488.73	1596.62
489.09	1581.50
489.45	1565.91
489.81	1551.85
490.17	1537.40
490.53	1528.98
490.89	1516.74
491.25	1505.74
491.61	1492.56
491.97	1482.80
492.33	1468.26
492.69	1461.31
493.05	1450.71
493.41	1441.40
493.77	1430.23
494.13	1422.44
494.49	1413.99
494.85	1401.58
495.21	1391.45
495.57	1383.02
495.93	1373.94
496.29	1363.85
496.64	1358.77
497.00	1352.06
497.36	1343.00
497.72	1333.59
498.08	1326.17
498.44	1320.93
498.80	1313.63
499.16	1303.87
499.52	1297.41
499.88	1292.14
500.24	1285.96
500.60	1283.20
500.96	1283.71
501.32	1283.74
501.68	1277.91
502.03	1272.88
502.39	1265.69
502.75	1257.73
503.11	1250.13
503.47	1243.39
503.83	1241.33
504.19	1232.67
504.55	1229.48
504.91	1223.44
505.26	1217.31
505.62	1206.01
505.98	1201.70
506.34	1196.58
506.70	1191.47
507.06	1188.59
507.42	1188.78
507.78	1187.96
508.13	1184.15
508.49	1179.07
508.85	1175.35
509.21	1170.60
509.57	1167.51
509.93	1161.82
510.28	1162.36
510.64	1160.39
511.00	1156.83
511.36	1150.68
511.72	1148.43
512.07	1145.41
512.43	1142.18
512.79	1140.38
513.15	1140.92
513.51	1140.33
513.86	1138.83
514.22	1138.25
514.58	1136.63
514.94	1135.44
515.30	1133.69
515.65	1131.63
516.01	1126.92
516.37	1124.53
516.73	1122.78
517.08	1121.63
517.44	1116.65
517.80	1116.25
518.16	1116.04
518.51	1113.21
518.87	1114.07
519.23	1115.99
519.59	1117.84
519.94	1118.00
520.30	1119.57
520.66	1119.34
521.01	1113.53
521.37	1110.05
521.73	1107.78
522.09	1106.46
522.44	1105.15
522.80	1107.14
523.16	1108.01
523.51	1108.36
523.87	1107.96
524.23	1104.55
524.58	1103.47
524.94	1100.24
525.30	1096.33
525.65	1095.77
526.01	1095.82
526.37	1097.36
526.72	1099.23
527.08	1101.18
527.44	1098.60
527.79	1097.55
528.15	1097.36
528.51	1092.37
528.86	1092.30
529.22	1090.53
529.58	1090.78
529.93	1089.31
530.29	1092.21
530.65	1088.26
531.00	1089.68
531.36	1087.65
531.71	1083.46
532.07	1084.44
532.43	1085.14
532.78	1083.27
533.14	1081.56
533.49	1083.64
533.85	1082.76
534.21	1083.88
534.56	1087.20
534.92	1087.76
535.27	1088.98
535.63	1088.30
535.98	1087.81
536.34	1085.49
536.69	1085.68
537.05	1084.67
537.41	1086.13
537.76	1087.37
538.12	1083.50
538.47	1084.49
538.83	1084.84
539.18	1083.06
539.54	1080.63
539.89	1080.23
540.25	1080.25
540.60	1080.77
540.96	1078.40
541.31	1078.36
541.67	1081.42
542.02	1079.20
542.38	1077.89
542.73	1078.57
543.09	1077.79
543.44	1077.84
543.80	1077.98
544.15	1076.23
544.51	1078.75
544.86	1079.92
545.22	1081.49
545.57	1084.09
545.93	1084.11
546.28	1082.40
546.64	1080.84
546.99	1078.40
547.35	1074.33
547.70	1073.44
548.05	1074.49
548.41	1076.34
548.76	1077.58
549.12	1081.16
549.47	1082.08
549.83	1080.18
550.18	1078.17
550.53	1076.60
550.89	1071.80
551.24	1070.35
551.60	1071.26
551.95	1071.94
552.30	1070.65
552.66	1071.33
553.01	1072.90
553.37	1071.01
553.72	1071.57
554.07	1073.49
554.43	1075.87
554.78	1076.46
555.13	1077.40
555.49	1077.72
555.84	1079.20
556.19	1077.68
556.55	1075.10
556.90	1078.10
557.26	1075.92
557.61	1073.77
557.96	1076.58
558.32	1078.66
558.67	1075.97
559.02	1075.99
559.37	1076.53
559.73	1073.67
560.08	1073.72
560.43	1075.38
560.79	1077.28
561.14	1078.33
561.49	1080.84
561.85	1081.09
562.20	1080.88
562.55	1080.79
562.90	1079.50
563.26	1079.71
563.61	1079.60
563.96	1077.93
564.32	1076.76
564.67	1076.62
565.02	1075.80
565.37	1078.40
565.73	1077.65
566.08	1078.24
566.43	1078.64
566.78	1078.61
567.14	1075.80
567.49	1075.27
567.84	1074.94
568.19	1076.11
568.54	1075.64
568.90	1077.98
569.25	1078.59
569.60	1081.00
569.95	1076.90
570.31	1078.19
570.66	1076.13
571.01	1076.37
571.36	1071.59
571.71	1072.48
572.06	1072.46
572.42	1071.59
572.77	1074.38
573.12	1075.78
573.47	1079.62
573.82	1079.71
574.18	1079.10
574.53	1073.35
574.88	1073.49
575.23	1070.61
575.58	1067.38
575.93	1071.22
576.28	1075.66
576.64	1078.03
576.99	1079.41
577.34	1082.38
577.69	1079.95
578.04	1076.74
578.39	1077.49
578.74	1077.72
579.09	1076.15
579.44	1078.71
579.80	1080.95
580.15	1080.41
580.50	1079.20
580.85	1079.08
581.20	1078.96
581.55	1076.48
581.90	1073.72
582.25	1070.61
582.60	1070.84
582.95	1067.68
583.30	1070.12
583.65	1072.41
584.00	1077.47
584.35	1075.97
584.71	1076.95
585.06	1078.78
585.41	1076.72
585.76	1073.39
586.11	1077.18
586.46	1078.24
586.81	1075.29
587.16	1075.64
587.51	1077.58
587.86	1076.44
588.21	1073.49
588.56	1074.17
588.91	1075.48
589.26	1074.42
589.61	1074.19
589.96	1075.45
590.31	1074.87
590.66	1073.72
591.01	1074.12
591.36	1074.61
591.71	1073.18
592.06	1075.71
592.41	1073.67
592.76	1074.45
593.10	1072.76
593.45	1074.17
593.80	1072.04
594.15	1075.31
594.50	1072.90
594.85	1074.00
595.20	1074.70
595.55	1077.37
595.90	1077.09
596.25	1079.48
596.60	1078.68
596.95	1078.96
597.30	1076.76
597.64	1087.34
597.99	1086.57
598.34	1085.82
598.69	1083.15
599.04	1082.80
599.39	1074.26
599.74	1076.30
600.09	1077.96
600.44	1080.56
600.78	1081.12
601.13	1076.79
601.48	1076.39
601.83	1074.66
602.18	1071.87
602.53	1071.05
602.88	1072.90
603.22	1070.72
603.57	1068.83
603.92	1071.22
604.27	1072.46
604.62	1069.39
604.97	1071.73
605.31	1073.67
605.66	1074.31
606.01	1073.42
606.36	1076.18
606.71	1074.24
607.05	1073.91
607.40	1075.13
607.75	1072.18
608.10	1073.81
608.44	1074.10
608.79	1074.56
609.14	1074.24
609.49	1075.48
609.84	1072.53
610.18	1074.66
610.53	1075.62
610.88	1075.85
611.23	1075.97
611.57	1077.02
611.92	1076.04
612.27	1075.80
612.62	1076.79
612.96	1076.83
613.31	1078.31
613.66	1076.67
614.00	1074.28
614.35	1071.08
614.70	1076.76
615.05	1073.84
615.39	1075.76
615.74	1077.37
616.09	1078.17
616.43	1073.84
616.78	1074.98
617.13	1076.13
617.47	1077.07
617.82	1077.33
618.17	1077.65
618.51	1076.79
618.86	1073.46
619.21	1070.91
619.55	1066.89
619.90	1068.55
620.25	1067.59
620.59	1069.20
620.94	1072.22
621.29	1078.50
621.63	1079.48
621.98	1082.50
622.32	1079.99
622.67	1080.77
623.02	1077.37
623.36	1074.17
623.71	1074.63
624.05	1077.51
624.40	1073.93
624.75	1073.74
625.09	1073.21
625.44	1073.02
625.78	1072.25
626.13	1073.30
626.48	1072.15
626.82	1072.88
627.17	1072.62
627.51	1074.10
627.86	1074.35
628.20	1074.63
628.55	1072.27
628.89	1074.03
629.24	1071.15
629.58	1070.35
629.93	1073.23
630.28	1078.00
630.62	1073.46
630.97	1073.88
631.31	1074.82
631.66	1074.77
632.00	1070.14
632.35	1071.36
632.69	1071.80
633.04	1071.90
633.38	1068.55
633.73	1070.89
634.07	1071.33
634.42	1071.45
634.76	1072.04
635.11	1072.50
635.45	1072.64
635.79	1074.03
636.14	1073.44
636.48	1072.27
636.83	1072.34
637.17	1072.50
637.52	1070.02
637.86	1071.45
638.21	1070.94
638.55	1073.51
638.89	1071.52
639.24	1073.07
639.58	1070.68
639.93	1070.21
640.27	1065.29
640.61	1069.39
640.96	1071.66
641.30	1074.54
641.65	1073.67
641.99	1078.19
642.33	1074.49
642.68	1072.15
643.02	1071.59
643.37	1071.87
643.71	1071.64
644.05	1075.59
644.40	1075.64
644.74	1071.71
645.08	1074.38
645.43	1074.33
645.77	1071.80
646.11	1071.90
646.46	1072.74
646.80	1073.39
647.14	1072.88
647.49	1072.32
647.83	1071.73
648.17	1075.78
648.52	1074.89
648.86	1074.10
649.20	1076.08
649.55	1079.90
649.89	1080.63
650.23	1076.39
650.57	1076.60
650.92	1075.13
651.26	1071.52
651.60	1070.26
651.95	1072.57
652.29	1072.81
652.63	1072.71
652.97	1075.31
653.32	1074.21
653.66	1074.28
654.00	1073.32
654.34	1072.60
654.69	1067.52
655.03	1065.97
655.37	1068.57
655.71	1068.24
656.05	1068.95
656.40	1072.06
656.74	1074.59
657.08	1071.31
657.42	1069.44
657.76	1067.12
658.11	1068.13
658.45	1067.03
658.79	1067.75
659.13	1071.36
659.47	1075.45
659.82	1075.13
660.16	1076.76
660.50	1078.31
660.84	1077.70
661.18	1075.94
661.52	1076.06
661.87	1075.50
662.21	1075.59
662.55	1074.77
662.89	1073.95
663.23	1073.70
663.57	1073.04
663.91	1071.15
664.25	1071.80
664.60	1073.09
664.94	1073.25
665.28	1071.80
665.62	1075.08
665.96	1077.28
666.30	1081.58
666.64	1080.11
666.98	1079.92
667.32	1077.72
667.66	1077.25
668.01	1072.62
668.35	1072.76
668.69	1075.62
669.03	1075.97
669.37	1075.10
669.71	1073.63
670.05	1073.91
670.39	1074.21
670.73	1075.73
671.07	1076.74
671.41	1078.87
671.75	1077.00
672.09	1075.29
672.43	1076.01
672.77	1073.84
673.11	1070.91
673.45	1072.39
673.79	1070.82
674.13	1068.01
674.47	1070.42
674.81	1072.11
675.15	1074.96
675.49	1075.13
675.83	1076.04
676.17	1075.64
676.51	1077.70
676.85	1074.24
677.19	1073.72
677.53	1072.88
677.87	1070.87
678.21	1069.72
678.55	1070.82
678.89	1071.54
679.23	1074.14
679.57	1075.52
679.90	1074.96
680.24	1072.06
680.58	1073.14
680.92	1070.00
681.26	1067.07
681.60	1067.12
681.94	1069.86
682.28	1072.29
682.62	1074.66
682.96	1078.26
683.29	1079.74
683.63	1081.30
683.97	1079.41
684.31	1079.99
684.65	1078.05
684.99	1074.35
685.33	1069.51
685.67	1068.15
686.00	1064.69
686.34	1062.30
686.68	1064.34
687.02	1068.13
687.36	1067.96
687.70	1072.53
688.03	1076.55
688.37	1074.77
688.71	1074.17
689.05	1075.17
689.39	1072.55
689.72	1070.19
690.06	1071.54
690.40	1074.73
690.74	1077.98
691.08	1078.52
691.41	1080.16
691.75	1079.88
692.09	1077.02
692.43	1075.85
692.76	1077.42
693.10	1076.18
693.44	1077.28
693.78	1073.72
694.11	1070.94
694.45	1069.11
694.79	1069.72
695.13	1068.24
695.46	1074.07
695.80	1075.13
696.14	1074.66
696.48	1074.03
696.81	1076.01
697.15	1075.45
697.49	1073.42
697.82	1073.09
698.16	1076.13
698.50	1074.10
698.83	1070.98
699.17	1070.47
699.51	1072.85
699.84	1069.16
700.18	1070.82
700.52	1071.47
700.85	1073.35
701.19	1072.08
701.53	1073.51
701.86	1073.30
702.20	1073.23
702.54	1073.32
702.87	1075.27
703.21	1074.84
703.55	1075.13
703.88	1078.14
704.22	1077.61
704.55	1072.74
704.89	1069.37
705.23	1072.67
705.56	1070.47
705.90	1074.14
706.23	1076.51
706.57	1079.76
706.91	1072.88
707.24	1074.00
707.58	1070.09
707.91	1069.02
708.25	1068.62
708.58	1070.33
708.92	1066.44
709.26	1067.78
709.59	1068.97
709.93	1069.62
710.26	1068.95
710.60	1071.50
710.93	1071.15
711.27	1070.30
711.60	1070.65
711.94	1071.19
712.27	1070.51
712.61	1071.22
712.94	1073.67
713.28	1072.78
713.61	1076.30
713.95	1075.17
714.28	1074.82
714.62	1073.63
714.95	1076.53
715.29	1072.22
715.62	1075.36
715.96	1072.53
716.29	1071.10
716.63	1070.09
716.96	1073.02
717.29	1069.79
717.63	1068.71
717.96	1070.47
718.30	1070.77
718.63	1074.28
718.97	1078.36
719.30	1081.87
719.63	1081.47
719.97	1079.74
720.30	1076.81
720.64	1075.34
720.97	1077.02
721.30	1076.41
721.64	1074.80
721.97	1074.47
722.31	1075.94
722.64	1076.34
722.97	1074.42
723.31	1073.60
723.64	1072.83
723.97	1073.28
724.31	1071.40
724.64	1075.50
724.98	1078.14
725.31	1075.66
725.64	1077.54
725.98	1076.30
726.31	1073.46
726.64	1075.94
726.97	1080.02
727.31	1076.44
727.64	1079.64
727.97	1081.44
728.31	1080.95
728.64	1078.31
728.97	1076.83
729.31	1072.74
729.64	1069.91
729.97	1066.58
730.30	1068.62
730.64	1069.20
730.97	1069.84
731.30	1072.25
731.63	1073.16
731.97	1070.94
732.30	1069.51
732.63	1068.88
732.96	1069.32
733.30	1069.18
733.63	1067.14
733.96	1067.89
734.29	1071.33
734.63	1067.12
734.96	1066.51
735.29	1072.50
735.62	1074.10
735.95	1071.87
736.29	1074.80
736.62	1077.02
736.95	1077.49
737.28	1076.93
737.61	1077.63
737.94	1079.27
738.28	1079.85
738.61	1077.84
738.94	1079.22
739.27	1080.56
739.60	1080.30
739.93	1081.61
740.27	1083.95
740.60	1081.80
740.93	1081.09
741.26	1080.67
741.59	1079.57
741.92	1076.86
742.25	1076.08
742.58	1075.03
742.91	1073.60
743.25	1074.87
743.58	1073.86
743.91	1077.61
744.24	1079.13
744.57	1079.55
744.90	1079.10
745.23	1080.20
745.56	1076.79
745.89	1075.34
746.22	1075.31
746.55	1070.63
746.88	1070.47
747.21	1070.02
747.54	1073.02
747.87	1074.05
748.20	1075.73
748.53	1074.40
748.87	1074.63
749.20	1070.96
749.53	1069.06
749.86	1072.06
750.19	1070.37
750.52	1070.94
750.85	1073.25
751.18	1073.49
751.51	1069.39
751.84	1070.91
752.16	1071.29
752.49	1072.48
752.82	1073.79
753.15	1073.84
753.48	1073.63
753.81	1071.64
754.14	1067.49
754.47	1067.64
754.80	1068.99
755.13	1069.20
755.46	1071.80
755.79	1074.54
756.12	1078.14
756.45	1080.34
756.78	1083.41
757.11	1082.52
757.43	1082.40
757.76	1076.69
758.09	1073.44
758.42	1072.74
758.75	1072.39
759.08	1070.87
759.41	1070.40
759.74	1070.16
760.07	1068.55
760.39	1070.44
760.72	1070.80
761.05	1074.63
761.38	1076.11
761.71	1073.53
762.04	1070.75
762.36	1070.26
762.69	1069.20
763.02	1069.39
763.35	1072.60
763.68	1073.14
764.01	1072.39
764.33	1070.23
764.66	1068.59
764.99	1069.86
765.32	1067.49
765.65	1069.16
765.97	1071.64
766.30	1072.06
