SpectraSuite Data File
++++++++++++++++++++++++++++++++++++
Date: Mon Aug 26 10:22:36 PDT 2019
User: corrico
Dark Spectrum Present: No
Reference Spectrum Present: No
Number of Sampled Component Spectra: 1
Spectrometers: USB2+H06089
Integration Time (usec): 2000 (USB2+H06089)
Spectra Averaged: 20 (USB2+H06089)
Boxcar Smoothing: 2 (USB2+H06089)
Correct for Electrical Dark: No (USB2+H06089)
Strobe/Lamp Enabled: No (USB2+H06089)
Correct for Detector Non-linearity: No (USB2+H06089)
Correct for Stray Light: No (USB2+H06089)
Number of Pixels in Processed Spectrum: 2048
>>>>>Begin Processed Spectral Data<<<<<
339.70	1022.11
340.07	1022.11
340.45	990.30
340.82	973.50
341.19	948.36
341.57	923.65
341.94	914.92
342.31	903.54
342.69	895.35
343.06	895.14
343.43	897.81
343.81	898.65
344.18	906.86
344.55	911.47
344.93	917.44
345.30	918.99
345.67	924.98
346.04	930.25
346.42	934.72
346.79	940.85
347.16	950.33
347.54	960.65
347.91	966.06
348.28	980.26
348.65	991.43
349.03	1001.49
349.40	1007.67
349.77	1019.96
350.14	1025.04
350.52	1031.45
350.89	1039.95
351.26	1051.98
351.63	1056.94
352.01	1060.96
352.38	1067.31
352.75	1068.50
353.12	1070.75
353.50	1073.35
353.87	1078.17
354.24	1078.82
354.61	1082.36
354.98	1085.96
355.36	1087.37
355.73	1086.76
356.10	1087.62
356.47	1086.57
356.84	1081.80
357.22	1082.92
357.59	1084.35
357.96	1086.80
358.33	1089.61
358.70	1088.68
359.08	1085.33
359.45	1083.71
359.82	1078.03
360.19	1074.40
360.56	1074.40
360.94	1073.44
361.31	1072.46
361.68	1073.09
362.05	1075.24
362.42	1074.66
362.79	1077.33
363.16	1078.36
363.54	1078.14
363.91	1076.81
364.28	1079.06
364.65	1076.90
365.02	1077.70
365.39	1078.57
365.76	1076.18
366.14	1072.13
366.51	1072.90
366.88	1071.33
367.25	1069.79
367.62	1072.41
367.99	1072.13
368.36	1071.78
368.73	1071.57
369.10	1073.16
369.48	1071.29
369.85	1072.76
370.22	1072.60
370.59	1073.56
370.96	1073.42
371.33	1073.72
371.70	1071.82
372.07	1072.67
372.44	1072.22
372.81	1073.58
373.18	1073.25
373.55	1075.71
373.93	1074.82
374.30	1078.36
374.67	1076.30
375.04	1078.52
375.41	1076.39
375.78	1077.63
376.15	1072.15
376.52	1074.33
376.89	1071.36
377.26	1072.39
377.63	1073.32
378.00	1073.39
378.37	1069.58
378.74	1071.80
379.11	1075.80
379.48	1077.47
379.85	1078.85
380.22	1081.51
380.59	1083.76
380.96	1078.66
381.33	1079.36
381.70	1078.78
382.07	1077.75
382.44	1075.15
382.81	1080.04
383.18	1077.96
383.55	1079.13
383.92	1081.30
384.29	1080.18
384.66	1079.88
385.03	1079.01
385.40	1082.24
385.77	1081.89
386.14	1083.57
386.51	1082.36
386.88	1083.74
387.25	1082.69
387.62	1081.77
387.99	1082.76
388.36	1084.00
388.73	1081.82
389.10	1077.91
389.46	1079.74
389.83	1080.06
390.20	1080.30
390.57	1080.13
390.94	1081.89
391.31	1080.53
391.68	1080.11
392.05	1078.31
392.42	1081.63
392.79	1084.00
393.16	1086.62
393.53	1090.36
393.89	1090.95
394.26	1088.77
394.63	1089.59
395.00	1087.32
395.37	1084.51
395.74	1086.10
396.11	1086.85
396.48	1085.03
396.84	1084.25
397.21	1081.42
397.58	1081.56
397.95	1084.30
398.32	1085.47
398.69	1088.65
399.06	1091.11
399.42	1088.14
399.79	1086.48
400.16	1084.79
400.53	1084.84
400.90	1083.93
401.27	1085.89
401.64	1084.39
402.00	1083.60
402.37	1083.90
402.74	1085.52
403.11	1085.45
403.48	1089.68
403.84	1091.58
404.21	1094.22
404.58	1094.95
404.95	1094.60
405.32	1092.84
405.68	1093.73
406.05	1091.88
406.42	1090.57
406.79	1090.81
407.16	1090.71
407.52	1092.73
407.89	1090.22
408.26	1090.13
408.63	1090.62
408.99	1090.88
409.36	1088.56
409.73	1089.71
410.10	1090.13
410.47	1090.64
410.83	1093.31
411.20	1093.43
411.57	1094.90
411.94	1098.23
412.30	1101.55
412.67	1099.12
413.04	1100.26
413.40	1100.38
413.77	1100.22
414.14	1098.39
414.51	1098.60
414.87	1101.83
415.24	1101.34
415.61	1099.79
415.97	1103.33
416.34	1104.87
416.71	1101.46
417.08	1100.40
417.44	1103.16
417.81	1099.79
418.18	1097.48
418.54	1096.89
418.91	1101.95
419.28	1099.82
419.64	1101.11
420.01	1102.39
420.38	1103.80
420.74	1105.20
421.11	1109.88
421.48	1110.51
421.84	1114.02
422.21	1118.73
422.58	1120.13
422.94	1120.20
423.31	1122.22
423.68	1124.65
424.04	1124.18
424.41	1127.37
424.77	1131.95
425.14	1138.60
425.51	1142.86
425.87	1146.46
426.24	1146.14
426.61	1148.24
426.97	1153.23
427.34	1155.73
427.70	1163.34
428.07	1172.16
428.44	1181.13
428.80	1186.23
429.17	1195.43
429.53	1208.23
429.90	1216.70
430.27	1226.02
430.63	1234.16
431.00	1246.08
431.36	1254.74
431.73	1268.15
432.09	1280.90
432.46	1295.28
432.83	1311.00
433.19	1329.94
433.56	1346.70
433.92	1363.83
434.29	1385.60
434.65	1407.18
435.02	1425.83
435.38	1450.85
435.75	1479.92
436.11	1510.11
436.48	1538.64
436.84	1568.30
437.21	1599.55
437.57	1632.87
437.94	1673.79
438.30	1720.15
438.67	1772.91
439.03	1824.80
439.40	1883.10
439.76	1931.04
440.13	1987.07
440.49	2049.56
440.86	2115.33
441.22	2177.03
441.59	2249.35
441.95	2328.67
442.32	2406.12
442.68	2496.46
443.05	2591.53
443.41	2685.32
443.78	2776.88
444.14	2875.72
444.51	2985.14
444.87	3111.84
445.24	3254.16
445.60	3402.67
445.96	3560.63
446.33	3722.76
446.69	3891.21
447.06	4065.44
447.42	4245.66
447.79	4425.95
448.15	4642.80
448.51	4865.72
448.88	5116.41
449.24	5354.26
449.61	5628.92
449.97	5884.53
450.33	6157.36
450.70	6411.08
451.06	6707.06
451.43	6998.46
451.79	7349.63
452.15	7727.21
452.52	8153.70
452.88	8627.80
453.24	9143.91
453.61	9701.45
453.97	10243.52
454.34	10787.67
454.70	11399.88
455.06	12020.64
455.43	12627.33
455.79	13214.66
456.15	13894.66
456.52	14539.24
456.88	15291.12
457.24	15993.84
457.61	16809.49
457.97	17555.75
458.33	18292.67
458.70	19027.03
459.06	19766.13
459.42	20592.64
459.79	21356.43
460.15	22255.59
460.51	23090.88
460.88	23994.94
461.24	24751.47
461.60	25688.08
461.96	26522.65
462.33	27324.75
462.69	28069.79
463.05	28867.58
463.42	29539.04
463.78	30138.87
464.14	30652.33
464.50	31233.28
464.87	31717.79
465.23	32063.79
465.59	32414.90
465.95	32721.58
466.32	32973.63
466.68	33190.32
467.04	33303.18
467.40	33438.02
467.77	33595.39
468.13	33580.39
468.49	33484.50
468.85	33430.64
469.22	33274.88
469.58	32947.91
469.94	32684.39
470.30	32388.85
470.66	31954.30
471.03	31354.57
471.39	30949.98
471.75	30315.13
472.11	29691.83
472.47	29334.47
472.84	29029.41
473.20	28545.99
473.56	28283.29
473.92	27871.61
474.28	27384.71
474.65	26913.59
475.01	26473.82
475.37	25922.04
475.73	25470.41
476.09	24951.75
476.45	24417.71
476.81	23900.94
477.18	23403.60
477.54	22992.93
477.90	22665.30
478.26	22302.52
478.62	21984.04
478.98	21694.78
479.34	21380.58
479.71	20994.32
480.07	20648.65
480.43	20308.99
480.79	19941.15
481.15	19613.81
481.51	19320.84
481.87	19101.63
482.23	18820.06
482.59	18586.50
482.96	18308.40
483.32	18012.93
483.68	17627.67
484.04	17299.41
484.40	16930.10
484.76	16572.44
485.12	16213.45
485.48	15919.50
485.84	15579.57
486.20	15239.84
486.56	14888.69
486.92	14584.16
487.28	14232.66
487.64	13890.52
488.00	13584.05
488.37	13276.92
488.73	12928.09
489.09	12584.92
489.45	12290.15
489.81	11985.79
490.17	11698.44
490.53	11426.05
490.89	11141.39
491.25	10849.72
491.61	10545.54
491.97	10240.50
492.33	9922.40
492.69	9634.79
493.05	9343.93
493.41	9071.71
493.77	8806.13
494.13	8572.33
494.49	8333.34
494.85	8097.06
495.21	7875.55
495.57	7662.05
495.93	7452.13
496.29	7264.60
496.64	7094.14
497.00	6911.51
497.36	6741.75
497.72	6569.02
498.08	6393.90
498.44	6219.15
498.80	6065.26
499.16	5902.32
499.52	5753.25
499.88	5633.20
500.24	5509.74
500.60	5384.78
500.96	5271.07
501.32	5158.80
501.68	5036.83
502.03	4913.72
502.39	4799.55
502.75	4674.63
503.11	4556.04
503.47	4439.15
503.83	4325.24
504.19	4205.24
504.55	4105.63
504.91	4008.47
505.26	3919.34
505.62	3839.74
505.98	3760.21
506.34	3670.01
506.70	3582.24
507.06	3498.21
507.42	3414.09
507.78	3339.55
508.13	3270.20
508.49	3204.10
508.85	3132.39
509.21	3065.80
509.57	2997.97
509.93	2931.08
510.28	2867.13
510.64	2808.53
511.00	2746.78
511.36	2686.70
511.72	2634.06
512.07	2584.61
512.43	2539.32
512.79	2493.56
513.15	2451.15
513.51	2410.96
513.86	2366.33
514.22	2322.19
514.58	2281.79
514.94	2250.28
515.30	2210.43
515.65	2176.37
516.01	2145.24
516.37	2117.13
516.73	2084.27
517.08	2061.61
517.44	2035.14
517.80	2007.95
518.16	1983.25
518.51	1954.86
518.87	1927.52
519.23	1899.86
519.59	1872.48
519.94	1846.14
520.30	1828.75
520.66	1803.20
521.01	1780.56
521.37	1761.42
521.73	1742.25
522.09	1717.41
522.44	1698.99
522.80	1682.12
523.16	1661.41
523.51	1640.83
523.87	1622.20
524.23	1600.74
524.58	1585.74
524.94	1569.59
525.30	1554.19
525.65	1540.52
526.01	1528.81
526.37	1509.34
526.72	1498.60
527.08	1485.66
527.44	1471.47
527.79	1457.12
528.15	1445.56
528.51	1429.76
528.86	1419.46
529.22	1410.15
529.58	1401.26
529.93	1395.40
530.29	1388.80
530.65	1380.49
531.00	1370.76
531.36	1362.54
531.71	1351.89
532.07	1342.11
532.43	1332.84
532.78	1326.94
533.14	1324.60
533.49	1321.72
533.85	1314.70
534.21	1311.43
534.56	1301.95
534.92	1291.51
535.27	1279.52
535.63	1276.69
535.98	1269.09
536.34	1265.50
536.69	1262.67
537.05	1262.32
537.41	1252.33
537.76	1246.36
538.12	1241.33
538.47	1232.36
538.83	1227.66
539.18	1225.93
539.54	1221.78
539.89	1219.30
540.25	1218.39
540.60	1211.74
540.96	1206.22
541.31	1204.39
541.67	1200.32
542.02	1198.47
542.38	1199.22
542.73	1202.12
543.09	1195.83
543.44	1189.93
543.80	1183.05
544.15	1174.93
544.51	1170.67
544.86	1170.06
545.22	1170.67
545.57	1170.55
545.93	1170.60
546.28	1167.55
546.64	1170.22
546.99	1166.50
547.35	1162.68
547.70	1158.85
548.05	1159.62
548.41	1153.79
548.76	1151.85
549.12	1149.55
549.47	1151.85
549.83	1144.66
550.18	1146.23
550.53	1145.27
550.89	1144.90
551.24	1144.31
551.60	1145.06
551.95	1138.46
552.30	1139.72
552.66	1135.35
553.01	1131.34
553.37	1131.74
553.72	1134.20
554.07	1129.68
554.43	1129.36
554.78	1128.51
555.13	1128.49
555.49	1122.83
555.84	1123.86
556.19	1127.20
556.55	1127.93
556.90	1123.69
557.26	1126.41
557.61	1124.86
557.96	1121.82
558.32	1116.15
558.67	1114.38
559.02	1112.15
559.37	1111.89
559.73	1110.89
560.08	1113.46
560.43	1112.95
560.79	1112.48
561.14	1112.46
561.49	1113.98
561.85	1115.29
562.20	1114.54
562.55	1112.41
562.90	1112.39
563.26	1110.84
563.61	1106.28
563.96	1106.51
564.32	1107.56
564.67	1103.63
565.02	1101.03
565.37	1102.81
565.73	1099.44
566.08	1098.79
566.43	1098.46
566.78	1097.06
567.14	1096.42
567.49	1099.58
567.84	1098.46
568.19	1101.83
568.54	1105.41
568.90	1107.66
569.25	1105.97
569.60	1106.82
569.95	1107.61
570.31	1105.01
570.66	1104.45
571.01	1102.49
571.36	1100.59
571.71	1097.43
572.06	1096.99
572.42	1090.90
572.77	1092.56
573.12	1093.97
573.47	1096.03
573.82	1098.02
574.18	1099.51
574.53	1101.36
574.88	1098.06
575.23	1096.42
575.58	1093.15
575.93	1093.52
576.28	1088.72
576.64	1088.23
576.99	1087.93
577.34	1089.43
577.69	1089.12
578.04	1091.32
578.39	1092.59
578.74	1088.63
579.09	1086.78
579.44	1083.76
579.80	1084.11
580.15	1081.28
580.50	1084.53
580.85	1086.73
581.20	1089.75
581.55	1088.47
581.90	1092.91
582.25	1091.02
582.60	1091.02
582.95	1090.99
583.30	1091.72
583.65	1092.52
584.00	1092.82
584.35	1091.25
584.71	1090.36
585.06	1091.39
585.41	1090.50
585.76	1088.35
586.11	1085.80
586.46	1087.02
586.81	1086.27
587.16	1086.27
587.51	1089.75
587.86	1093.45
588.21	1091.79
588.56	1091.02
588.91	1090.81
589.26	1091.34
589.61	1088.19
589.96	1088.93
590.31	1090.01
590.66	1089.38
591.01	1087.83
591.36	1088.21
591.71	1085.31
592.06	1085.14
592.41	1084.58
592.76	1086.36
593.10	1090.92
593.45	1091.70
593.80	1091.67
594.15	1091.39
594.50	1088.19
594.85	1083.88
595.20	1085.75
595.55	1085.89
595.90	1085.28
596.25	1085.24
596.60	1085.31
596.95	1086.52
597.30	1085.38
597.64	1095.82
597.99	1095.02
598.34	1095.18
598.69	1094.15
599.04	1094.74
599.39	1084.77
599.74	1084.42
600.09	1079.76
600.44	1079.67
600.78	1077.89
601.13	1073.56
601.48	1075.94
601.83	1083.48
602.18	1083.64
602.53	1087.53
602.88	1090.27
603.22	1090.50
603.57	1089.38
603.92	1090.57
604.27	1088.40
604.62	1085.40
604.97	1085.84
605.31	1088.02
605.66	1086.01
606.01	1083.62
606.36	1088.33
606.71	1088.58
607.05	1085.52
607.40	1086.50
607.75	1087.97
608.10	1086.43
608.44	1084.79
608.79	1086.24
609.14	1085.35
609.49	1083.74
609.84	1084.23
610.18	1084.58
610.53	1081.42
610.88	1080.79
611.23	1083.67
611.57	1083.36
611.92	1082.17
612.27	1084.93
612.62	1084.89
612.96	1087.27
613.31	1087.79
613.66	1090.60
614.00	1090.88
614.35	1091.51
614.70	1087.20
615.05	1087.58
615.39	1085.94
615.74	1083.27
616.09	1082.22
616.43	1084.46
616.78	1083.64
617.13	1080.60
617.47	1082.45
617.82	1083.83
618.17	1080.86
618.51	1082.19
618.86	1085.19
619.21	1081.70
619.55	1080.39
619.90	1080.56
620.25	1078.78
620.59	1077.47
620.94	1079.50
621.29	1081.23
621.63	1082.47
621.98	1082.15
622.32	1081.30
622.67	1081.51
623.02	1078.75
623.36	1079.48
623.71	1080.41
624.05	1082.59
624.40	1083.29
624.75	1082.73
625.09	1079.95
625.44	1079.48
625.78	1076.72
626.13	1076.53
626.48	1078.80
626.82	1079.46
627.17	1080.39
627.51	1080.48
627.86	1081.66
628.20	1080.34
628.55	1079.74
628.89	1081.70
629.24	1082.61
629.58	1080.86
629.93	1082.78
630.28	1083.60
630.62	1081.94
630.97	1082.97
631.31	1084.04
631.66	1082.52
632.00	1080.39
632.35	1079.81
632.69	1080.65
633.04	1080.04
633.38	1081.82
633.73	1084.74
634.07	1084.44
634.42	1082.17
634.76	1081.09
635.11	1083.81
635.45	1082.54
635.79	1082.85
636.14	1084.11
636.48	1082.22
636.83	1077.70
637.17	1079.88
637.52	1078.43
637.86	1076.97
638.21	1080.77
638.55	1084.00
638.89	1080.02
639.24	1080.77
639.58	1083.81
639.93	1082.19
640.27	1076.72
640.61	1079.99
640.96	1079.50
641.30	1076.06
641.65	1074.80
641.99	1076.74
642.33	1073.11
642.68	1075.24
643.02	1075.87
643.37	1077.79
643.71	1078.38
644.05	1082.15
644.40	1084.02
644.74	1086.06
645.08	1087.90
645.43	1090.62
645.77	1088.63
646.11	1082.87
646.46	1079.95
646.80	1079.90
647.14	1075.57
647.49	1077.63
647.83	1078.26
648.17	1080.98
648.52	1078.40
648.86	1082.59
649.20	1081.91
649.55	1083.79
649.89	1081.37
650.23	1080.46
650.57	1077.14
650.92	1077.86
651.26	1077.44
651.60	1080.93
651.95	1084.44
652.29	1085.59
652.63	1084.28
652.97	1083.41
653.32	1083.36
653.66	1078.75
654.00	1076.06
654.34	1075.50
654.69	1077.30
655.03	1074.17
655.37	1075.17
655.71	1075.36
656.05	1079.53
656.40	1077.44
656.74	1078.68
657.08	1082.43
657.42	1083.22
657.76	1081.73
658.11	1081.35
658.45	1080.53
658.79	1078.28
659.13	1079.27
659.47	1079.27
659.82	1081.47
660.16	1084.39
660.50	1085.03
660.84	1085.68
661.18	1082.43
661.52	1082.40
661.87	1080.74
662.21	1080.48
662.55	1080.84
662.89	1081.80
663.23	1082.80
663.57	1080.39
663.91	1079.60
664.25	1078.73
664.60	1078.12
664.94	1077.33
665.28	1080.06
665.62	1080.27
665.96	1077.79
666.30	1079.88
666.64	1081.16
666.98	1080.58
667.32	1081.28
667.66	1083.22
668.01	1080.30
668.35	1076.74
668.69	1076.65
669.03	1076.46
669.37	1078.43
669.71	1081.05
670.05	1082.85
670.39	1082.31
670.73	1081.75
671.07	1080.93
671.41	1081.87
671.75	1080.72
672.09	1082.43
672.43	1085.89
672.77	1082.24
673.11	1078.57
673.45	1079.17
673.79	1079.71
674.13	1077.33
674.47	1082.31
674.81	1085.07
675.15	1084.42
675.49	1083.22
675.83	1083.74
676.17	1080.34
676.51	1077.28
676.85	1078.75
677.19	1076.08
677.53	1073.63
677.87	1071.90
678.21	1075.24
678.55	1075.08
678.89	1075.03
679.23	1076.39
679.57	1079.53
679.90	1077.75
680.24	1077.89
680.58	1081.49
680.92	1079.90
681.26	1076.97
681.60	1076.25
681.94	1074.80
682.28	1074.14
682.62	1075.34
682.96	1079.53
683.29	1081.30
683.63	1080.74
683.97	1079.29
684.31	1077.77
684.65	1074.24
684.99	1073.93
685.33	1077.18
685.67	1075.57
686.00	1078.85
686.34	1081.56
686.68	1083.20
687.02	1081.35
687.36	1082.85
687.70	1079.13
688.03	1081.26
688.37	1078.64
688.71	1078.43
689.05	1078.73
689.39	1078.52
689.72	1076.79
690.06	1078.64
690.40	1077.04
690.74	1075.78
691.08	1076.01
691.41	1075.34
691.75	1071.15
692.09	1073.00
692.43	1074.17
692.76	1074.21
693.10	1070.37
693.44	1072.36
693.78	1073.93
694.11	1078.78
694.45	1078.61
694.79	1080.23
695.13	1079.99
695.46	1077.68
695.80	1072.57
696.14	1072.95
696.48	1075.62
696.81	1079.01
697.15	1078.14
697.49	1077.77
697.82	1078.40
698.16	1077.49
698.50	1074.73
698.83	1076.11
699.17	1077.79
699.51	1080.16
699.84	1081.82
700.18	1082.61
700.52	1082.08
700.85	1081.96
701.19	1079.74
701.53	1076.62
701.86	1077.33
702.20	1078.10
702.54	1079.74
702.87	1080.58
703.21	1082.87
703.55	1081.09
703.88	1080.56
704.22	1077.61
704.55	1078.87
704.89	1075.55
705.23	1075.94
705.56	1075.29
705.90	1074.05
706.23	1073.14
706.57	1074.94
706.91	1074.75
707.24	1076.97
707.58	1080.23
707.91	1078.28
708.25	1079.88
708.58	1082.47
708.92	1083.18
709.26	1083.79
709.59	1086.87
709.93	1087.44
710.26	1086.17
710.60	1080.70
710.93	1076.79
711.27	1074.17
711.60	1074.12
711.94	1073.84
712.27	1079.22
712.61	1082.97
712.94	1083.60
713.28	1080.63
713.61	1080.44
713.95	1079.38
714.28	1079.69
714.62	1081.23
714.95	1082.38
715.29	1081.12
715.62	1079.34
715.96	1076.93
716.29	1074.87
716.63	1076.83
716.96	1077.07
717.29	1078.21
717.63	1076.74
717.96	1075.76
718.30	1073.56
718.63	1074.47
718.97	1076.27
719.30	1079.78
719.63	1081.77
719.97	1083.25
720.30	1085.05
720.64	1083.32
720.97	1084.44
721.30	1084.79
721.64	1085.07
721.97	1083.34
722.31	1082.40
722.64	1080.53
722.97	1080.18
723.31	1078.89
723.64	1078.66
723.97	1077.91
724.31	1074.59
724.64	1076.13
724.98	1074.35
725.31	1072.74
725.64	1073.51
725.98	1076.69
726.31	1076.27
726.64	1079.10
726.97	1080.72
727.31	1081.42
727.64	1081.09
727.97	1081.66
728.31	1082.90
728.64	1084.11
728.97	1082.71
729.31	1081.66
729.64	1080.27
729.97	1080.48
730.30	1077.35
730.64	1079.43
730.97	1081.40
731.30	1081.42
731.63	1079.92
731.97	1078.85
732.30	1079.24
732.63	1077.70
732.96	1075.01
733.30	1075.08
733.63	1076.01
733.96	1073.93
734.29	1074.68
734.63	1078.03
734.96	1075.41
735.29	1078.19
735.62	1080.41
735.95	1080.37
736.29	1078.52
736.62	1079.85
736.95	1078.47
737.28	1076.81
737.61	1077.63
737.94	1079.69
738.28	1079.24
738.61	1079.85
738.94	1082.01
739.27	1082.17
739.60	1078.99
739.93	1081.00
740.27	1080.70
740.60	1077.40
740.93	1075.24
741.26	1076.46
741.59	1074.77
741.92	1075.87
742.25	1078.24
742.58	1078.10
742.91	1079.01
743.25	1082.69
743.58	1082.40
743.91	1083.20
744.24	1082.52
744.57	1082.83
744.90	1082.80
745.23	1081.87
745.56	1081.21
745.89	1081.87
746.22	1081.89
746.55	1078.28
746.88	1077.02
747.21	1075.78
747.54	1077.58
747.87	1075.27
748.20	1075.97
748.53	1076.69
748.87	1075.43
749.20	1073.91
749.53	1076.30
749.86	1074.54
750.19	1074.10
750.52	1075.85
750.85	1075.41
751.18	1073.93
751.51	1075.34
751.84	1077.16
752.16	1078.92
752.49	1081.26
752.82	1083.18
753.15	1086.22
753.48	1089.19
753.81	1086.27
754.14	1081.28
754.47	1080.23
754.80	1078.89
755.13	1079.01
755.46	1080.23
755.79	1081.89
756.12	1085.52
756.45	1083.64
756.78	1080.56
757.11	1079.31
757.43	1078.89
757.76	1075.55
758.09	1075.34
758.42	1072.92
758.75	1075.97
759.08	1078.45
759.41	1079.20
759.74	1081.51
760.07	1082.54
760.39	1081.63
760.72	1083.76
761.05	1080.58
761.38	1079.90
761.71	1082.33
762.04	1080.34
762.36	1076.65
762.69	1079.27
763.02	1080.53
763.35	1079.67
763.68	1079.88
764.01	1079.53
