SpectraSuite Data File
++++++++++++++++++++++++++++++++++++
Date: Mon Aug 26 10:21:49 PDT 2019
User: corrico
Dark Spectrum Present: No
Reference Spectrum Present: No
Number of Sampled Component Spectra: 1
Spectrometers: USB2+H06089
Integration Time (usec): 2000 (USB2+H06089)
Spectra Averaged: 20 (USB2+H06089)
Boxcar Smoothing: 2 (USB2+H06089)
Correct for Electrical Dark: No (USB2+H06089)
Strobe/Lamp Enabled: No (USB2+H06089)
Correct for Detector Non-linearity: No (USB2+H06089)
Correct for Stray Light: No (USB2+H06089)
Number of Pixels in Processed Spectrum: 2048
>>>>>Begin Processed Spectral Data<<<<<
339.70	1025.74
340.07	1025.74
340.45	991.05
340.82	969.24
341.19	946.68
341.57	922.92
341.94	910.40
342.31	905.60
342.69	897.29
343.06	893.24
343.43	891.23
343.81	892.24
344.18	890.53
344.55	896.61
344.93	903.31
345.30	909.84
345.67	918.29
346.04	927.25
346.42	935.61
346.79	943.84
347.16	955.43
347.54	966.92
347.91	976.80
348.28	988.46
348.65	996.41
349.03	999.97
349.40	1005.61
349.77	1014.34
350.14	1022.74
350.52	1031.78
350.89	1040.09
351.26	1047.11
351.63	1051.74
352.01	1054.67
352.38	1057.95
352.75	1061.04
353.12	1065.15
353.50	1069.81
353.87	1075.97
354.24	1079.08
354.61	1083.81
354.98	1082.45
355.36	1081.40
355.73	1078.40
356.10	1077.40
356.47	1074.61
356.84	1076.32
357.22	1079.55
357.59	1077.49
357.96	1078.38
358.33	1078.89
358.70	1079.20
359.08	1075.13
359.45	1078.26
359.82	1077.51
360.19	1079.08
360.56	1079.46
360.94	1082.10
361.31	1079.69
361.68	1080.27
362.05	1078.99
362.42	1076.81
362.79	1074.52
363.16	1074.89
363.54	1070.72
363.91	1068.64
364.28	1069.37
364.65	1069.88
365.02	1069.25
365.39	1068.50
365.76	1070.84
366.14	1071.90
366.51	1073.23
366.88	1072.06
367.25	1077.11
367.62	1076.15
367.99	1076.83
368.36	1076.86
368.73	1079.60
369.10	1074.07
369.48	1076.95
369.85	1075.59
370.22	1073.93
370.59	1073.58
370.96	1075.03
371.33	1070.14
371.70	1072.55
372.07	1069.65
372.44	1067.80
372.81	1066.56
373.18	1069.02
373.55	1065.97
373.93	1068.01
374.30	1066.77
374.67	1070.98
375.04	1069.88
375.41	1068.78
375.78	1066.89
376.15	1069.06
376.52	1067.96
376.89	1066.98
377.26	1066.37
377.63	1068.92
378.00	1071.57
378.37	1070.61
378.74	1072.18
379.11	1074.70
379.48	1076.32
379.85	1076.34
380.22	1077.42
380.59	1078.73
380.96	1076.81
381.33	1074.52
381.70	1070.47
382.07	1073.93
382.44	1072.46
382.81	1075.83
383.18	1076.51
383.55	1080.23
383.92	1075.78
384.29	1076.30
384.66	1073.74
385.03	1073.46
385.40	1072.41
385.77	1073.32
386.14	1071.47
386.51	1070.26
386.88	1071.57
387.25	1069.32
387.62	1070.33
387.99	1071.38
388.36	1071.36
388.73	1071.24
389.10	1074.17
389.46	1069.58
389.83	1072.71
390.20	1072.13
390.57	1071.87
390.94	1069.84
391.31	1072.34
391.68	1071.68
392.05	1074.26
392.42	1077.72
392.79	1077.77
393.16	1079.20
393.53	1078.75
393.89	1077.93
394.26	1077.47
394.63	1080.13
395.00	1084.63
395.37	1083.20
395.74	1085.05
396.11	1084.21
396.48	1080.02
396.84	1076.51
397.21	1079.97
397.58	1079.24
397.95	1079.55
398.32	1083.57
398.69	1083.13
399.06	1077.49
399.42	1076.41
399.79	1075.22
400.16	1076.46
400.53	1076.95
400.90	1082.22
401.27	1084.70
401.64	1085.10
402.00	1085.84
402.37	1088.16
402.74	1087.76
403.11	1088.26
403.48	1085.38
403.84	1082.85
404.21	1080.04
404.58	1080.74
404.95	1083.06
405.32	1085.12
405.68	1084.28
406.05	1086.59
406.42	1084.91
406.79	1081.19
407.16	1080.91
407.52	1083.64
407.89	1083.95
408.26	1085.35
408.63	1085.87
408.99	1088.82
409.36	1087.62
409.73	1087.11
410.10	1088.42
410.47	1091.13
410.83	1088.49
411.20	1089.66
411.57	1093.22
411.94	1090.95
412.30	1089.26
412.67	1089.89
413.04	1089.12
413.40	1086.59
413.77	1084.86
414.14	1083.67
414.51	1086.38
414.87	1088.65
415.24	1090.36
415.61	1094.01
415.97	1096.94
416.34	1094.83
416.71	1094.48
417.08	1091.95
417.44	1091.53
417.81	1087.46
418.18	1087.41
418.54	1085.84
418.91	1088.09
419.28	1086.66
419.64	1092.87
420.01	1097.13
420.38	1099.98
420.74	1096.61
421.11	1102.23
421.48	1102.11
421.84	1099.40
422.21	1099.72
422.58	1105.60
422.94	1106.02
423.31	1110.12
423.68	1113.09
424.04	1114.24
424.41	1117.56
424.77	1120.55
425.14	1121.02
425.51	1124.91
425.87	1128.65
426.24	1129.61
426.61	1129.78
426.97	1134.20
427.34	1136.89
427.70	1139.51
428.07	1141.90
428.44	1149.04
428.80	1150.28
429.17	1157.61
429.53	1163.48
429.90	1170.83
430.27	1174.64
430.63	1184.47
431.00	1188.31
431.36	1197.37
431.73	1206.87
432.09	1217.13
432.46	1224.87
432.83	1235.10
433.19	1245.61
433.56	1260.07
433.92	1275.71
434.29	1291.06
434.65	1305.74
435.02	1320.90
435.38	1334.53
435.75	1349.23
436.11	1369.38
436.48	1393.37
436.84	1420.31
437.21	1444.56
437.57	1471.00
437.94	1501.92
438.30	1533.64
438.67	1565.63
439.03	1600.46
439.40	1638.00
439.76	1668.03
440.13	1702.69
440.49	1741.45
440.86	1783.09
441.22	1832.08
441.59	1885.86
441.95	1941.94
442.32	1998.86
442.68	2059.51
443.05	2116.17
443.41	2178.20
443.78	2248.39
444.14	2322.23
444.51	2399.59
444.87	2493.96
445.24	2589.59
445.60	2688.53
445.96	2788.19
446.33	2905.73
446.69	3011.05
447.06	3129.11
447.42	3253.11
447.79	3378.68
448.15	3512.58
448.51	3651.82
448.88	3804.14
449.24	3945.11
449.61	4121.12
449.97	4299.84
450.33	4491.30
450.70	4671.36
451.06	4899.93
451.43	5110.04
451.79	5363.38
452.15	5647.55
452.52	5958.82
452.88	6259.72
453.24	6588.77
453.61	6920.26
453.97	7250.07
454.34	7572.90
454.70	7962.20
455.06	8373.01
455.43	8796.67
455.79	9192.06
456.15	9674.42
456.52	10117.29
456.88	10624.30
457.24	11114.71
457.61	11684.19
457.97	12210.83
458.33	12759.22
458.70	13288.41
459.06	13771.60
459.42	14309.29
459.79	14819.27
460.15	15396.96
460.51	15914.12
460.88	16505.88
461.24	17010.50
461.60	17589.99
461.96	18085.67
462.33	18599.14
462.69	19097.81
463.05	19638.83
463.42	20121.19
463.78	20566.45
464.14	20991.45
464.50	21453.58
464.87	21839.35
465.23	22090.63
465.59	22372.24
465.95	22579.94
466.32	22703.69
466.68	22781.70
467.04	22854.14
467.40	22944.01
467.77	23057.02
468.13	23056.24
468.49	23011.66
468.85	22971.87
469.22	22890.30
469.58	22685.20
469.94	22514.36
470.30	22279.11
470.66	21957.43
471.03	21497.35
471.39	21128.65
471.75	20666.58
472.11	20295.84
472.47	20105.06
472.84	19908.90
473.20	19634.15
473.56	19500.29
473.92	19218.16
474.28	18821.51
474.65	18447.89
475.01	18120.40
475.37	17678.23
475.73	17299.98
476.09	16900.59
476.45	16516.25
476.81	16098.25
477.18	15711.10
477.54	15395.46
477.90	15154.22
478.26	14885.55
478.62	14646.21
478.98	14467.02
479.34	14299.53
479.71	14088.69
480.07	13899.51
480.43	13734.87
480.79	13521.25
481.15	13312.43
481.51	13115.12
481.87	12920.97
482.23	12683.67
482.59	12488.37
482.96	12252.94
483.32	12025.37
483.68	11797.82
484.04	11613.81
484.40	11395.30
484.76	11213.48
485.12	10996.96
485.48	10811.40
485.84	10600.66
486.20	10382.59
486.56	10139.15
486.92	9953.39
487.28	9733.21
487.64	9512.34
488.00	9329.73
488.37	9135.67
488.73	8907.05
489.09	8679.15
489.45	8473.51
489.81	8237.89
490.17	8027.19
490.53	7833.07
490.89	7636.72
491.25	7441.27
491.61	7258.14
491.97	7078.04
492.33	6907.27
492.69	6731.66
493.05	6560.12
493.41	6386.34
493.77	6203.05
494.13	6024.61
494.49	5871.54
494.85	5719.82
495.21	5574.29
495.57	5421.22
495.93	5261.55
496.29	5102.95
496.64	4957.72
497.00	4819.42
497.36	4697.29
497.72	4595.74
498.08	4505.51
498.44	4405.52
498.80	4306.38
499.16	4211.54
499.52	4114.19
499.88	4031.97
500.24	3953.66
500.60	3872.74
500.96	3799.60
501.32	3725.69
501.68	3650.02
502.03	3572.20
502.39	3501.82
502.75	3426.85
503.11	3353.75
503.47	3278.32
503.83	3206.44
504.19	3132.88
504.55	3060.98
504.91	2996.96
505.26	2929.46
505.62	2872.82
505.98	2824.56
506.34	2774.78
506.70	2721.72
507.06	2666.97
507.42	2608.48
507.78	2550.43
508.13	2495.55
508.49	2443.14
508.85	2399.12
509.21	2359.17
509.57	2318.44
509.93	2280.69
510.28	2241.55
510.64	2201.48
511.00	2158.33
511.36	2118.68
511.72	2082.07
512.07	2051.83
512.43	2022.04
512.79	1993.39
513.15	1966.35
513.51	1941.73
513.86	1911.77
514.22	1886.61
514.58	1859.02
514.94	1830.39
515.30	1804.67
515.65	1780.52
516.01	1758.44
516.37	1741.57
516.73	1722.42
517.08	1700.19
517.44	1681.98
517.80	1663.42
518.16	1646.19
518.51	1631.54
518.87	1619.91
519.23	1604.69
519.59	1589.08
519.94	1571.53
520.30	1557.93
520.66	1544.31
521.01	1527.81
521.37	1511.59
521.73	1500.00
522.09	1484.72
522.44	1467.91
522.80	1459.28
523.16	1448.93
523.51	1434.33
523.87	1423.63
524.23	1414.08
524.58	1400.37
524.94	1388.73
525.30	1382.51
525.65	1371.79
526.01	1365.77
526.37	1355.08
526.72	1345.46
527.08	1333.12
527.44	1322.99
527.79	1312.60
528.15	1306.30
528.51	1300.80
528.86	1295.74
529.22	1294.43
529.58	1285.40
529.93	1280.48
530.29	1273.27
530.65	1266.58
531.00	1257.85
531.36	1252.87
531.71	1245.73
532.07	1241.86
532.43	1238.35
532.78	1233.39
533.14	1228.24
533.49	1225.27
533.85	1223.70
534.21	1219.51
534.56	1215.79
534.92	1213.66
535.27	1210.64
535.63	1206.38
535.98	1199.99
536.34	1192.99
536.69	1189.23
537.05	1183.61
537.41	1181.41
537.76	1178.55
538.12	1180.07
538.47	1175.49
538.83	1170.48
539.18	1163.67
539.54	1163.18
539.89	1160.70
540.25	1161.21
540.60	1160.46
540.96	1159.17
541.31	1158.73
541.67	1156.58
542.02	1152.18
542.38	1152.41
542.73	1149.53
543.09	1145.46
543.44	1141.17
543.80	1137.85
544.15	1139.56
544.51	1135.96
544.86	1134.62
545.22	1132.73
545.57	1135.04
545.93	1129.87
546.28	1129.89
546.64	1130.64
546.99	1128.56
547.35	1124.58
547.70	1122.99
548.05	1123.43
548.41	1118.66
548.76	1122.24
549.12	1123.86
549.47	1122.66
549.83	1120.93
550.18	1119.71
550.53	1115.15
550.89	1113.11
551.24	1111.80
551.60	1110.72
551.95	1110.61
552.30	1113.30
552.66	1115.29
553.01	1115.80
553.37	1117.47
553.72	1118.03
554.07	1113.42
554.43	1109.53
554.78	1108.52
555.13	1106.68
555.49	1104.55
555.84	1104.85
556.19	1103.26
556.55	1103.33
556.90	1104.55
557.26	1107.28
557.61	1106.04
557.96	1107.45
558.32	1107.59
558.67	1104.43
559.02	1101.27
559.37	1101.67
559.73	1099.30
560.08	1097.52
560.43	1098.16
560.79	1098.95
561.14	1095.46
561.49	1096.96
561.85	1097.80
562.20	1095.75
562.55	1094.20
562.90	1098.41
563.26	1096.07
563.61	1094.36
563.96	1098.25
564.32	1097.29
564.67	1096.54
565.02	1097.83
565.37	1095.53
565.73	1088.40
566.08	1091.77
566.43	1090.43
566.78	1088.04
567.14	1088.00
567.49	1090.92
567.84	1085.66
568.19	1085.07
568.54	1085.96
568.90	1089.00
569.25	1088.40
569.60	1087.27
569.95	1085.31
570.31	1086.06
570.66	1083.83
571.01	1081.47
571.36	1086.69
571.71	1089.68
572.06	1091.74
572.42	1093.52
572.77	1096.26
573.12	1095.28
573.47	1096.17
573.82	1096.49
574.18	1094.53
574.53	1094.01
574.88	1091.72
575.23	1090.69
575.58	1085.31
575.93	1087.04
576.28	1085.21
576.64	1087.39
576.99	1084.07
577.34	1086.20
577.69	1080.46
578.04	1082.26
578.39	1079.99
578.74	1082.80
579.09	1084.44
579.44	1089.05
579.80	1089.80
580.15	1090.22
580.50	1089.43
580.85	1089.40
581.20	1091.79
581.55	1091.93
581.90	1091.39
582.25	1091.91
582.60	1090.74
582.95	1086.36
583.30	1084.11
583.65	1084.28
584.00	1083.95
584.35	1083.29
584.71	1081.63
585.06	1081.19
585.41	1081.35
585.76	1080.88
586.11	1081.35
586.46	1085.21
586.81	1084.72
587.16	1084.77
587.51	1084.53
587.86	1085.91
588.21	1084.02
588.56	1085.61
588.91	1086.85
589.26	1088.37
589.61	1085.17
589.96	1086.76
590.31	1085.19
590.66	1083.81
591.01	1078.96
591.36	1080.84
591.71	1078.10
592.06	1077.42
592.41	1077.93
592.76	1080.44
593.10	1083.53
593.45	1084.77
593.80	1085.38
594.15	1086.15
594.50	1088.47
594.85	1084.56
595.20	1085.38
595.55	1086.99
595.90	1083.74
596.25	1083.48
596.60	1084.89
596.95	1085.14
597.30	1086.59
597.64	1099.86
597.99	1098.02
598.34	1098.76
598.69	1097.90
599.04	1094.95
599.39	1081.96
599.74	1081.54
600.09	1078.82
600.44	1074.91
600.78	1078.26
601.13	1078.05
601.48	1076.65
601.83	1075.05
602.18	1081.54
602.53	1081.51
602.88	1083.41
603.22	1086.55
603.57	1087.37
603.92	1082.52
604.27	1083.11
604.62	1083.36
604.97	1083.53
605.31	1084.79
605.66	1088.40
606.01	1085.42
606.36	1081.21
606.71	1078.59
607.05	1075.50
607.40	1072.46
607.75	1072.92
608.10	1076.67
608.44	1077.72
608.79	1079.06
609.14	1082.12
609.49	1082.66
609.84	1081.21
610.18	1077.16
610.53	1080.46
610.88	1081.23
611.23	1080.91
611.57	1083.04
611.92	1087.79
612.27	1084.07
612.62	1080.32
612.96	1079.64
613.31	1077.91
613.66	1078.85
614.00	1078.26
614.35	1079.92
614.70	1079.15
615.05	1077.63
615.39	1076.18
615.74	1077.91
616.09	1079.10
616.43	1078.40
616.78	1080.20
617.13	1080.72
617.47	1077.18
617.82	1074.17
618.17	1076.08
618.51	1076.69
618.86	1076.27
619.21	1076.81
619.55	1077.89
619.90	1075.03
620.25	1075.27
620.59	1073.18
620.94	1076.93
621.29	1076.76
621.63	1076.72
621.98	1074.24
622.32	1074.26
622.67	1074.03
623.02	1073.93
623.36	1077.00
623.71	1080.53
624.05	1082.10
624.40	1081.23
624.75	1080.84
625.09	1080.20
625.44	1079.15
625.78	1079.71
626.13	1082.47
626.48	1082.43
626.82	1080.86
627.17	1079.13
627.51	1078.89
627.86	1077.37
628.20	1078.54
628.55	1079.95
628.89	1079.20
629.24	1081.61
629.58	1083.62
629.93	1082.26
630.28	1084.16
630.62	1085.24
630.97	1085.14
631.31	1082.59
631.66	1084.39
632.00	1083.57
632.35	1083.69
632.69	1082.92
633.04	1085.75
633.38	1085.35
633.73	1083.48
634.07	1083.97
634.42	1084.21
634.76	1081.96
635.11	1080.95
635.45	1083.60
635.79	1084.51
636.14	1083.74
636.48	1082.71
636.83	1082.92
637.17	1080.20
637.52	1078.45
637.86	1077.51
638.21	1077.96
638.55	1079.01
638.89	1081.47
639.24	1082.12
639.58	1081.42
639.93	1080.79
640.27	1079.85
640.61	1078.64
640.96	1077.28
641.30	1076.51
641.65	1076.37
641.99	1075.13
642.33	1073.65
642.68	1077.63
643.02	1081.94
643.37	1082.40
643.71	1082.38
644.05	1085.00
644.40	1084.28
644.74	1080.84
645.08	1080.48
645.43	1083.79
645.77	1081.68
646.11	1079.97
646.46	1077.86
646.80	1079.43
647.14	1076.48
647.49	1077.82
647.83	1079.78
648.17	1081.35
648.52	1080.02
648.86	1078.54
649.20	1080.58
649.55	1078.61
649.89	1079.15
650.23	1077.47
650.57	1078.54
650.92	1075.22
651.26	1075.36
651.60	1073.07
651.95	1074.80
652.29	1078.80
652.63	1081.49
652.97	1085.49
653.32	1086.85
653.66	1086.45
654.00	1081.82
654.34	1079.64
654.69	1076.23
655.03	1076.01
655.37	1074.42
655.71	1075.97
656.05	1074.07
656.40	1073.60
656.74	1075.38
657.08	1077.93
657.42	1076.44
657.76	1076.74
658.11	1076.76
658.45	1076.06
658.79	1074.56
659.13	1077.79
659.47	1080.23
659.82	1080.23
660.16	1077.04
660.50	1078.75
660.84	1076.18
661.18	1074.28
661.52	1073.42
661.87	1075.36
662.21	1075.01
662.55	1077.25
662.89	1078.66
663.23	1080.46
663.57	1082.17
663.91	1081.54
664.25	1080.32
664.60	1081.96
664.94	1081.28
665.28	1080.98
665.62	1081.00
665.96	1078.82
666.30	1075.52
666.64	1074.07
666.98	1074.56
667.32	1073.95
667.66	1075.62
668.01	1077.91
668.35	1077.37
668.69	1076.04
669.03	1078.75
669.37	1080.32
669.71	1078.82
670.05	1079.95
670.39	1079.64
670.73	1076.30
671.07	1070.16
671.41	1072.64
671.75	1072.13
672.09	1072.46
672.43	1073.51
672.77	1080.81
673.11	1080.58
673.45	1079.64
673.79	1079.60
674.13	1083.55
674.47	1082.10
674.81	1082.54
675.15	1081.77
675.49	1082.52
675.83	1077.98
676.17	1077.84
676.51	1075.90
676.85	1079.10
677.19	1080.11
677.53	1079.81
677.87	1081.14
678.21	1081.54
678.55	1078.03
678.89	1075.48
679.23	1075.92
679.57	1074.05
679.90	1074.54
680.24	1077.84
680.58	1077.93
680.92	1076.08
681.26	1076.27
681.60	1074.66
681.94	1071.40
682.28	1073.49
682.62	1075.43
682.96	1074.12
683.29	1075.87
683.63	1075.71
683.97	1075.69
684.31	1074.42
684.65	1075.43
684.99	1073.77
685.33	1079.38
685.67	1081.75
686.00	1086.13
686.34	1087.18
686.68	1088.68
687.02	1084.86
687.36	1081.23
687.70	1077.84
688.03	1076.88
688.37	1073.42
688.71	1072.97
689.05	1071.15
689.39	1074.05
689.72	1075.03
690.06	1077.86
690.40	1077.89
690.74	1080.34
691.08	1078.64
691.41	1076.48
691.75	1075.80
692.09	1075.52
692.43	1075.71
692.76	1075.66
693.10	1077.58
693.44	1076.20
693.78	1076.46
694.11	1078.33
694.45	1078.31
694.79	1078.87
695.13	1082.22
695.46	1082.52
695.80	1078.68
696.14	1078.80
696.48	1077.86
696.81	1076.11
697.15	1075.80
697.49	1075.90
697.82	1076.18
698.16	1077.07
698.50	1077.35
698.83	1076.20
699.17	1078.33
699.51	1076.23
699.84	1077.37
700.18	1078.28
700.52	1083.69
700.85	1080.13
701.19	1082.43
701.53	1077.11
701.86	1075.78
702.20	1071.59
702.54	1074.19
702.87	1072.67
703.21	1073.49
703.55	1075.50
703.88	1076.86
704.22	1078.99
704.55	1079.17
704.89	1083.22
705.23	1080.70
705.56	1081.42
705.90	1081.73
706.23	1079.34
706.57	1075.48
706.91	1076.90
707.24	1076.69
707.58	1074.61
707.91	1078.64
708.25	1082.92
708.58	1083.50
708.92	1083.86
709.26	1086.55
709.59	1085.40
709.93	1083.43
710.26	1082.73
710.60	1081.21
710.93	1081.23
711.27	1079.01
711.60	1076.69
711.94	1076.13
712.27	1076.83
712.61	1072.04
712.94	1073.25
713.28	1074.68
713.61	1072.53
713.95	1073.74
714.28	1074.56
714.62	1077.79
714.95	1077.93
715.29	1078.26
715.62	1077.58
715.96	1077.04
716.29	1073.95
716.63	1072.34
716.96	1076.06
717.29	1076.20
717.63	1077.72
717.96	1079.17
718.30	1079.78
718.63	1077.25
718.97	1079.31
719.30	1081.37
719.63	1077.98
719.97	1078.10
720.30	1077.70
720.64	1076.65
720.97	1077.58
721.30	1079.31
721.64	1083.25
721.97	1087.25
722.31	1086.08
722.64	1083.81
722.97	1085.66
723.31	1082.83
723.64	1077.86
723.97	1077.18
724.31	1077.49
724.64	1076.34
724.98	1078.87
725.31	1080.74
725.64	1081.66
725.98	1082.54
726.31	1081.56
726.64	1077.21
726.97	1075.45
727.31	1075.71
727.64	1072.04
727.97	1073.30
728.31	1073.09
728.64	1071.90
728.97	1071.87
729.31	1076.23
729.64	1074.00
729.97	1077.21
730.30	1081.14
730.64	1084.07
730.97	1080.44
731.30	1080.11
731.63	1080.25
731.97	1078.31
732.30	1074.24
732.63	1075.48
732.96	1079.76
733.30	1075.92
733.63	1076.25
733.96	1079.53
734.29	1079.90
734.63	1079.24
734.96	1083.71
735.29	1085.10
735.62	1082.26
735.95	1083.81
736.29	1083.34
736.62	1082.50
736.95	1082.24
737.28	1082.69
737.61	1083.01
737.94	1081.63
738.28	1080.70
738.61	1081.19
738.94	1081.19
739.27	1080.11
739.60	1082.24
739.93	1082.94
740.27	1081.16
740.60	1079.69
740.93	1077.11
741.26	1075.50
741.59	1073.98
741.92	1072.78
742.25	1076.83
742.58	1076.65
742.91	1079.97
743.25	1079.06
743.58	1080.81
743.91	1078.99
744.24	1083.25
744.57	1078.78
744.90	1079.31
745.23	1081.96
745.56	1079.71
745.89	1074.17
746.22	1072.50
746.55	1077.28
746.88	1078.03
747.21	1081.19
747.54	1085.49
747.87	1089.14
748.20	1085.26
748.53	1080.70
748.87	1079.31
749.20	1079.71
749.53	1079.27
749.86	1075.31
750.19	1076.01
750.52	1071.31
750.85	1067.14
751.18	1067.61
751.51	1071.94
751.84	1072.36
752.16	1073.81
752.49	1077.02
752.82	1077.07
753.15	1075.73
753.48	1078.50
753.81	1081.75
754.14	1079.24
754.47	1078.19
754.80	1079.74
755.13	1077.65
755.46	1076.08
755.79	1080.27
756.12	1079.88
756.45	1080.25
756.78	1078.99
757.11	1080.95
757.43	1078.50
757.76	1080.13
758.09	1080.84
758.42	1080.98
758.75	1076.97
759.08	1076.67
759.41	1074.26
759.74	1071.71
760.07	1073.98
760.39	1075.48
760.72	1075.20
761.05	1078.03
761.38	1077.91
761.71	1075.76
762.04	1076.20
762.36	1077.18
762.69	1075.87
763.02	1076.18
763.35	1078.31
763.68	1079.20
764.01	1076.62
764.33	1074.66
764.66	1076.20
