SpectraSuite Data File
++++++++++++++++++++++++++++++++++++
Date: Mon Aug 26 10:22:30 PDT 2019
User: corrico
Dark Spectrum Present: No
Reference Spectrum Present: No
Number of Sampled Component Spectra: 1
Spectrometers: USB2+H06089
Integration Time (usec): 2000 (USB2+H06089)
Spectra Averaged: 20 (USB2+H06089)
Boxcar Smoothing: 2 (USB2+H06089)
Correct for Electrical Dark: No (USB2+H06089)
Strobe/Lamp Enabled: No (USB2+H06089)
Correct for Detector Non-linearity: No (USB2+H06089)
Correct for Stray Light: No (USB2+H06089)
Number of Pixels in Processed Spectrum: 2048
>>>>>Begin Processed Spectral Data<<<<<
339.70	1036.27
340.07	1036.27
340.45	998.22
340.82	973.76
341.19	948.29
341.57	918.85
341.94	905.74
342.31	899.00
342.69	892.45
343.06	889.52
343.43	891.00
343.81	894.79
344.18	899.51
344.55	904.20
344.93	910.61
345.30	918.29
345.67	921.00
346.04	928.54
346.42	939.61
346.79	947.50
347.16	953.74
347.54	963.27
347.91	971.93
348.28	982.14
348.65	989.70
349.03	1000.30
349.40	1011.44
349.77	1019.28
350.14	1023.09
350.52	1031.24
350.89	1036.58
351.26	1042.73
351.63	1048.42
352.01	1052.47
352.38	1058.48
352.75	1066.93
353.12	1068.67
353.50	1074.89
353.87	1077.25
354.24	1077.91
354.61	1075.94
354.98	1077.61
355.36	1077.54
355.73	1083.57
356.10	1085.84
356.47	1087.65
356.84	1088.00
357.22	1086.29
357.59	1086.59
357.96	1083.08
358.33	1080.02
358.70	1080.56
359.08	1076.79
359.45	1073.16
359.82	1075.83
360.19	1076.46
360.56	1076.25
360.94	1075.99
361.31	1074.33
361.68	1075.05
362.05	1077.00
362.42	1075.83
362.79	1075.52
363.16	1076.11
363.54	1074.63
363.91	1073.98
364.28	1075.48
364.65	1080.09
365.02	1081.26
365.39	1077.58
365.76	1073.51
366.14	1070.84
366.51	1067.75
366.88	1069.02
367.25	1071.64
367.62	1074.00
367.99	1073.74
368.36	1076.90
368.73	1073.28
369.10	1075.50
369.48	1075.38
369.85	1078.10
370.22	1074.26
370.59	1076.88
370.96	1074.17
371.33	1075.90
371.70	1073.58
372.07	1076.95
372.44	1074.96
372.81	1075.08
373.18	1073.63
373.55	1077.82
373.93	1075.71
374.30	1078.96
374.67	1080.93
375.04	1078.82
375.41	1073.86
375.78	1074.35
376.15	1074.24
376.52	1072.85
376.89	1078.19
377.26	1082.01
377.63	1087.04
378.00	1083.50
378.37	1084.39
378.74	1081.96
379.11	1078.52
379.48	1072.55
379.85	1073.04
380.22	1071.43
380.59	1071.94
380.96	1074.42
381.33	1075.55
381.70	1078.99
382.07	1080.13
382.44	1079.13
382.81	1079.53
383.18	1081.21
383.55	1082.24
383.92	1084.07
384.29	1086.43
384.66	1087.06
385.03	1086.99
385.40	1085.82
385.77	1083.64
386.14	1081.23
386.51	1083.20
386.88	1082.71
387.25	1085.91
387.62	1086.83
387.99	1088.19
388.36	1087.04
388.73	1085.00
389.10	1080.27
389.46	1081.02
389.83	1082.12
390.20	1084.23
390.57	1087.58
390.94	1088.63
391.31	1090.29
391.68	1091.06
392.05	1089.19
392.42	1090.13
392.79	1089.80
393.16	1090.06
393.53	1088.86
393.89	1088.14
394.26	1085.68
394.63	1085.33
395.00	1082.61
395.37	1081.89
395.74	1081.05
396.11	1081.44
396.48	1083.01
396.84	1087.39
397.21	1089.33
397.58	1090.78
397.95	1091.42
398.32	1089.26
398.69	1085.68
399.06	1086.31
399.42	1086.38
399.79	1086.15
400.16	1089.75
400.53	1092.94
400.90	1092.09
401.27	1089.36
401.64	1092.59
402.00	1092.09
402.37	1091.37
402.74	1088.16
403.11	1089.92
403.48	1086.20
403.84	1085.73
404.21	1086.62
404.58	1091.70
404.95	1093.59
405.32	1095.44
405.68	1095.51
406.05	1092.00
406.42	1090.22
406.79	1088.68
407.16	1087.93
407.52	1087.30
407.89	1086.52
408.26	1087.32
408.63	1091.20
408.99	1090.13
409.36	1093.71
409.73	1095.82
410.10	1098.81
410.47	1098.74
410.83	1100.45
411.20	1098.11
411.57	1098.62
411.94	1096.68
412.30	1095.77
412.67	1097.01
413.04	1099.68
413.40	1100.12
413.77	1098.55
414.14	1096.66
414.51	1097.15
414.87	1097.97
415.24	1099.51
415.61	1099.65
415.97	1104.76
416.34	1104.64
416.71	1104.73
417.08	1108.20
417.44	1110.79
417.81	1109.18
418.18	1108.83
418.54	1108.29
418.91	1104.29
419.28	1102.95
419.64	1103.23
420.01	1107.31
420.38	1106.72
420.74	1114.05
421.11	1118.73
421.48	1121.61
421.84	1124.37
422.21	1128.93
422.58	1126.90
422.94	1128.98
423.31	1132.23
423.68	1135.07
424.04	1135.98
424.41	1140.15
424.77	1144.45
425.14	1145.50
425.51	1144.55
425.87	1150.40
426.24	1152.18
426.61	1152.71
426.97	1157.21
427.34	1167.81
427.70	1174.29
428.07	1182.16
428.44	1189.60
428.80	1198.59
429.17	1202.80
429.53	1210.67
429.90	1220.71
430.27	1229.55
430.63	1239.71
431.00	1251.98
431.36	1265.04
431.73	1278.33
432.09	1294.36
432.46	1305.43
432.83	1317.51
433.19	1329.94
433.56	1345.81
433.92	1364.56
434.29	1389.83
434.65	1418.13
435.02	1445.30
435.38	1474.61
435.75	1502.88
436.11	1534.83
436.48	1564.55
436.84	1598.56
437.21	1634.82
437.57	1676.17
437.94	1711.89
438.30	1754.49
438.67	1802.12
439.03	1850.97
439.40	1900.75
439.76	1958.54
440.13	2020.94
440.49	2084.43
440.86	2145.94
441.22	2216.18
441.59	2291.88
441.95	2372.74
442.32	2455.81
442.68	2551.28
443.05	2649.65
443.41	2748.75
443.78	2847.40
444.14	2952.38
444.51	3060.37
444.87	3201.17
445.24	3340.13
445.60	3494.54
445.96	3653.86
446.33	3833.03
446.69	3986.80
447.06	4163.02
447.42	4344.20
447.79	4535.72
448.15	4753.35
448.51	4987.82
448.88	5251.72
449.24	5499.14
449.61	5781.22
449.97	6049.77
450.33	6325.60
450.70	6589.19
451.06	6904.21
451.43	7210.39
451.79	7576.31
452.15	7982.35
452.52	8425.30
452.88	8895.18
453.24	9417.22
453.61	9992.00
453.97	10559.02
454.34	11110.85
454.70	11761.94
455.06	12413.50
455.43	13044.18
455.79	13635.02
456.15	14343.27
456.52	14986.17
456.88	15758.27
457.24	16456.17
457.61	17310.23
457.97	18074.44
458.33	18860.43
458.70	19615.56
459.06	20392.85
459.42	21225.45
459.79	22010.26
460.15	22915.81
460.51	23777.74
460.88	24723.45
461.24	25525.34
461.60	26499.26
461.96	27369.64
462.33	28197.51
462.69	28974.64
463.05	29808.27
463.42	30502.38
463.78	31135.96
464.14	31697.97
464.50	32275.38
464.87	32750.51
465.23	33109.80
465.59	33477.34
465.95	33777.93
466.32	34050.42
466.68	34277.80
467.04	34399.39
467.40	34523.32
467.77	34657.08
468.13	34621.88
468.49	34531.07
468.85	34480.54
469.22	34309.12
469.58	33967.66
469.94	33708.77
470.30	33400.43
470.66	32970.12
471.03	32389.76
471.39	32004.81
471.75	31353.11
472.11	30714.05
472.47	30351.41
472.84	30028.04
473.20	29539.13
473.56	29296.86
473.92	28884.41
474.28	28361.70
474.65	27875.45
475.01	27401.78
475.37	26819.05
475.73	26370.61
476.09	25831.46
476.45	25293.12
476.81	24760.93
477.18	24220.57
477.54	23757.96
477.90	23421.60
478.26	22999.11
478.62	22659.80
478.98	22394.08
479.34	22081.57
479.71	21665.05
480.07	21340.72
480.43	20985.43
480.79	20595.68
481.15	20250.20
481.51	19941.69
481.87	19692.47
482.23	19417.34
482.59	19167.89
482.96	18892.66
483.32	18591.04
483.68	18209.09
484.04	17868.70
484.40	17497.73
484.76	17125.75
485.12	16773.61
485.48	16452.73
485.84	16112.83
486.20	15765.08
486.56	15397.85
486.92	15090.32
487.28	14742.00
487.64	14375.92
488.00	14044.74
488.37	13731.74
488.73	13366.38
489.09	13019.91
489.45	12723.22
489.81	12405.03
490.17	12108.81
490.53	11819.14
490.89	11521.50
491.25	11221.35
491.61	10920.14
491.97	10598.02
492.33	10283.56
492.69	9982.53
493.05	9666.06
493.41	9378.18
493.77	9110.00
494.13	8856.89
494.49	8605.99
494.85	8377.13
495.21	8150.66
495.57	7934.63
495.93	7717.14
496.29	7518.53
496.64	7333.98
497.00	7146.85
497.36	6958.93
497.72	6781.59
498.08	6603.63
498.44	6420.77
498.80	6250.96
499.16	6087.85
499.52	5929.00
499.88	5800.25
500.24	5682.42
500.60	5563.62
500.96	5448.95
501.32	5337.29
501.68	5220.42
502.03	5086.05
502.39	4958.50
502.75	4819.51
503.11	4692.89
503.47	4565.40
503.83	4447.79
504.19	4322.92
504.55	4222.79
504.91	4122.83
505.26	4027.15
505.62	3944.04
505.98	3865.23
506.34	3774.91
506.70	3682.18
507.06	3593.40
507.42	3505.07
507.78	3424.98
508.13	3347.50
508.49	3281.67
508.85	3213.16
509.21	3145.84
509.57	3076.26
509.93	3007.54
510.28	2936.83
510.64	2874.74
511.00	2815.27
511.36	2760.22
511.72	2709.12
512.07	2659.93
512.43	2608.92
512.79	2557.04
513.15	2508.54
513.51	2458.92
513.86	2413.21
514.22	2375.41
514.58	2333.49
514.94	2293.75
515.30	2258.64
515.65	2222.39
516.01	2188.10
516.37	2159.17
516.73	2129.42
517.08	2103.21
517.44	2072.57
517.80	2043.01
518.16	2014.15
518.51	1987.68
518.87	1953.50
519.23	1928.34
519.59	1899.09
519.94	1872.10
520.30	1848.13
520.66	1829.85
521.01	1807.71
521.37	1791.91
521.73	1770.78
522.09	1749.83
522.44	1729.70
522.80	1712.90
523.16	1690.80
523.51	1673.25
523.87	1653.14
524.23	1630.98
524.58	1611.88
524.94	1590.82
525.30	1572.61
525.65	1558.75
526.01	1547.56
526.37	1530.62
526.72	1522.42
527.08	1509.69
527.44	1497.62
527.79	1482.14
528.15	1468.48
528.51	1452.68
528.86	1443.10
529.22	1427.68
529.58	1418.48
529.93	1412.19
530.29	1400.37
530.65	1386.30
531.00	1378.13
531.36	1369.63
531.71	1358.75
532.07	1354.19
532.43	1348.05
532.78	1340.73
533.14	1334.74
533.49	1327.67
533.85	1317.23
534.21	1309.79
534.56	1305.83
534.92	1296.63
535.27	1290.76
535.63	1287.11
535.98	1284.51
536.34	1275.01
536.69	1270.07
537.05	1265.97
537.41	1258.97
537.76	1250.27
538.12	1248.44
538.47	1243.11
538.83	1238.07
539.18	1236.01
539.54	1233.11
539.89	1229.09
540.25	1227.47
540.60	1224.71
540.96	1219.63
541.31	1218.58
541.67	1212.80
542.02	1207.62
542.38	1203.81
542.73	1201.47
543.09	1194.19
543.44	1190.02
543.80	1186.30
544.15	1183.40
544.51	1180.22
544.86	1180.17
545.22	1178.72
545.57	1178.18
545.93	1174.83
546.28	1172.80
546.64	1170.64
546.99	1172.42
547.35	1168.79
547.70	1168.25
548.05	1165.47
548.41	1161.28
548.76	1157.00
549.12	1157.61
549.47	1153.44
549.83	1151.52
550.18	1149.76
550.53	1148.95
550.89	1144.62
551.24	1141.46
551.60	1138.60
551.95	1138.93
552.30	1134.13
552.66	1133.08
553.01	1133.90
553.37	1133.94
553.72	1133.22
554.07	1134.79
554.43	1134.11
554.78	1134.81
555.13	1132.33
555.49	1131.06
555.84	1128.82
556.19	1125.91
556.55	1121.42
556.90	1121.56
557.26	1118.89
557.61	1119.53
557.96	1120.58
558.32	1120.34
558.67	1122.03
559.02	1124.09
559.37	1122.40
559.73	1117.84
560.08	1118.59
560.43	1115.85
560.79	1111.50
561.14	1111.52
561.49	1114.33
561.85	1112.53
562.20	1115.57
562.55	1116.22
562.90	1116.27
563.26	1114.91
563.61	1115.12
563.96	1111.97
564.32	1112.11
564.67	1108.36
565.02	1109.11
565.37	1108.29
565.73	1107.94
566.08	1107.66
566.43	1106.93
566.78	1102.30
567.14	1102.11
567.49	1100.12
567.84	1098.37
568.19	1098.86
568.54	1099.33
568.90	1098.09
569.25	1095.11
569.60	1097.66
569.95	1094.74
570.31	1098.51
570.66	1100.03
571.01	1102.28
571.36	1098.93
571.71	1102.67
572.06	1097.64
572.42	1096.45
572.77	1093.47
573.12	1093.29
573.47	1091.51
573.82	1094.25
574.18	1090.81
574.53	1092.33
574.88	1093.31
575.23	1091.20
575.58	1090.53
575.93	1090.53
576.28	1092.33
576.64	1091.23
576.99	1093.03
577.34	1091.09
577.69	1092.84
578.04	1092.02
578.39	1091.25
578.74	1090.99
579.09	1089.31
579.44	1086.85
579.80	1087.09
580.15	1084.28
580.50	1083.76
580.85	1086.90
581.20	1090.50
581.55	1090.95
581.90	1094.04
582.25	1092.28
582.60	1091.95
582.95	1091.72
583.30	1089.03
583.65	1088.19
584.00	1091.77
584.35	1091.27
584.71	1090.20
585.06	1094.15
585.41	1095.07
585.76	1093.19
586.11	1094.27
586.46	1093.99
586.81	1089.07
587.16	1087.62
587.51	1087.60
587.86	1086.10
588.21	1085.84
588.56	1090.88
588.91	1093.78
589.26	1092.80
589.61	1092.54
589.96	1090.92
590.31	1087.74
590.66	1088.42
591.01	1088.09
591.36	1088.49
591.71	1089.45
592.06	1089.82
592.41	1086.31
592.76	1088.12
593.10	1090.69
593.45	1089.05
593.80	1088.77
594.15	1088.96
594.50	1086.36
594.85	1082.17
595.20	1084.32
595.55	1083.81
595.90	1084.96
596.25	1084.70
596.60	1087.72
596.95	1090.64
597.30	1090.15
597.64	1099.02
597.99	1101.13
598.34	1100.38
598.69	1099.16
599.04	1097.22
599.39	1087.86
599.74	1086.27
600.09	1084.23
600.44	1083.36
600.78	1084.42
601.13	1083.06
601.48	1081.26
601.83	1085.05
602.18	1084.02
602.53	1085.73
602.88	1087.32
603.22	1090.85
603.57	1087.25
603.92	1086.34
604.27	1084.28
604.62	1083.27
604.97	1081.75
605.31	1083.97
605.66	1083.36
606.01	1083.53
606.36	1083.08
606.71	1085.84
607.05	1084.65
607.40	1084.07
607.75	1086.76
608.10	1089.57
608.44	1088.86
608.79	1088.65
609.14	1088.51
609.49	1086.43
609.84	1084.16
610.18	1082.19
610.53	1083.29
610.88	1086.10
611.23	1085.21
611.57	1087.32
611.92	1089.43
612.27	1089.24
612.62	1089.33
612.96	1090.90
613.31	1089.33
613.66	1088.56
614.00	1089.47
614.35	1089.75
614.70	1090.90
615.05	1089.64
615.39	1089.71
615.74	1089.24
616.09	1086.36
616.43	1083.06
616.78	1085.38
617.13	1085.03
617.47	1084.84
617.82	1087.46
618.17	1087.32
618.51	1083.36
618.86	1083.67
619.21	1082.92
619.55	1083.71
619.90	1085.94
620.25	1089.59
620.59	1086.76
620.94	1087.25
621.29	1085.56
621.63	1084.98
621.98	1083.27
622.32	1085.63
622.67	1084.72
623.02	1081.19
623.36	1079.57
623.71	1080.77
624.05	1081.94
624.40	1084.60
624.75	1087.02
625.09	1087.76
625.44	1088.19
625.78	1085.10
626.13	1083.67
626.48	1085.82
626.82	1087.48
627.17	1087.69
627.51	1087.11
627.86	1084.51
628.20	1082.69
628.55	1080.65
628.89	1076.41
629.24	1077.58
629.58	1079.95
629.93	1081.26
630.28	1081.12
630.62	1086.01
630.97	1084.53
631.31	1083.39
631.66	1083.15
632.00	1084.35
632.35	1081.73
632.69	1080.37
633.04	1077.61
633.38	1074.87
633.73	1075.94
634.07	1074.31
634.42	1078.36
634.76	1081.56
635.11	1083.36
635.45	1080.95
635.79	1082.78
636.14	1084.11
636.48	1084.67
636.83	1087.23
637.17	1089.10
637.52	1087.44
637.86	1085.05
638.21	1081.26
638.55	1079.01
638.89	1077.42
639.24	1082.73
639.58	1084.93
639.93	1086.08
640.27	1085.77
640.61	1085.56
640.96	1083.83
641.30	1081.94
641.65	1081.26
641.99	1079.01
642.33	1077.63
642.68	1073.04
643.02	1073.00
643.37	1077.35
643.71	1080.88
644.05	1086.06
644.40	1088.54
644.74	1089.26
645.08	1088.21
645.43	1089.19
645.77	1089.57
646.11	1089.54
646.46	1087.97
646.80	1088.07
647.14	1084.81
647.49	1081.37
647.83	1081.30
648.17	1082.80
648.52	1081.02
648.86	1078.73
649.20	1079.95
649.55	1081.66
649.89	1080.86
650.23	1082.99
650.57	1087.13
650.92	1084.32
651.26	1082.57
651.60	1082.31
651.95	1083.83
652.29	1082.33
652.63	1083.90
652.97	1084.81
653.32	1085.45
653.66	1082.12
654.00	1084.07
654.34	1085.56
654.69	1083.83
655.03	1082.73
655.37	1082.73
655.71	1081.84
656.05	1082.17
656.40	1084.98
656.74	1084.09
657.08	1083.08
657.42	1082.54
657.76	1081.33
658.11	1077.68
658.45	1080.67
658.79	1081.91
659.13	1081.37
659.47	1081.66
659.82	1081.12
660.16	1079.46
660.50	1079.83
660.84	1082.38
661.18	1079.57
661.52	1082.73
661.87	1083.13
662.21	1082.05
662.55	1080.46
662.89	1084.28
663.23	1084.93
663.57	1085.63
663.91	1087.53
664.25	1084.51
664.60	1083.15
664.94	1080.16
665.28	1078.54
665.62	1077.72
665.96	1082.61
666.30	1082.10
666.64	1083.90
666.98	1085.00
667.32	1082.85
667.66	1080.51
668.01	1077.63
668.35	1077.58
668.69	1076.25
669.03	1075.69
669.37	1075.71
669.71	1079.85
670.05	1079.90
670.39	1081.14
670.73	1082.99
671.07	1081.66
671.41	1083.83
671.75	1083.46
672.09	1083.57
672.43	1082.92
672.77	1082.90
673.11	1080.58
673.45	1080.88
673.79	1080.30
674.13	1081.66
674.47	1085.33
674.81	1085.19
675.15	1084.42
675.49	1083.69
675.83	1082.94
676.17	1079.85
676.51	1080.81
676.85	1085.26
677.19	1083.76
677.53	1080.79
677.87	1078.99
678.21	1078.36
678.55	1075.48
678.89	1077.79
679.23	1080.58
679.57	1084.46
679.90	1083.79
680.24	1082.76
680.58	1080.74
680.92	1084.39
681.26	1085.70
681.60	1083.97
681.94	1085.99
682.28	1087.32
682.62	1083.97
682.96	1081.63
683.29	1084.51
683.63	1080.20
683.97	1078.75
684.31	1079.85
684.65	1075.62
684.99	1072.88
685.33	1077.77
685.67	1079.50
686.00	1075.64
686.34	1080.13
686.68	1082.94
687.02	1081.19
687.36	1079.95
687.70	1081.66
688.03	1081.56
688.37	1078.43
688.71	1080.13
689.05	1082.38
689.39	1082.71
689.72	1080.04
690.06	1082.22
690.40	1079.10
690.74	1080.53
691.08	1081.47
691.41	1085.40
691.75	1085.59
692.09	1085.73
692.43	1082.71
692.76	1083.93
693.10	1079.13
693.44	1077.09
693.78	1080.16
694.11	1078.78
694.45	1076.95
694.79	1079.01
695.13	1081.87
695.46	1078.73
695.80	1081.68
696.14	1080.58
696.48	1079.83
696.81	1081.63
697.15	1079.99
697.49	1079.83
697.82	1082.97
698.16	1085.24
698.50	1079.24
698.83	1080.02
699.17	1079.55
699.51	1078.57
699.84	1077.77
700.18	1080.88
700.52	1079.90
700.85	1078.14
701.19	1076.48
701.53	1078.57
701.86	1079.38
702.20	1082.19
702.54	1083.55
702.87	1087.55
703.21	1084.23
703.55	1083.83
703.88	1085.40
704.22	1083.97
704.55	1079.97
704.89	1080.60
705.23	1078.03
705.56	1076.37
705.90	1078.75
706.23	1079.29
706.57	1081.89
706.91	1084.91
707.24	1086.71
707.58	1086.20
707.91	1087.60
708.25	1085.73
708.58	1081.91
708.92	1081.16
709.26	1081.66
709.59	1080.72
709.93	1080.39
710.26	1080.74
710.60	1079.41
710.93	1078.96
711.27	1078.40
711.60	1078.52
711.94	1079.74
712.27	1079.57
712.61	1081.07
712.94	1079.85
713.28	1079.29
713.61	1079.13
713.95	1077.86
714.28	1076.27
714.62	1077.09
714.95	1079.31
715.29	1078.38
715.62	1080.63
715.96	1080.91
716.29	1082.36
716.63	1078.87
716.96	1080.06
717.29	1077.02
717.63	1077.28
717.96	1076.81
718.30	1079.08
718.63	1075.59
718.97	1077.02
719.30	1074.24
719.63	1074.52
719.97	1075.59
720.30	1080.98
720.64	1082.01
720.97	1086.20
721.30	1082.43
721.64	1078.71
721.97	1073.63
722.31	1073.67
722.64	1073.37
722.97	1076.67
723.31	1080.18
723.64	1084.44
723.97	1085.66
724.31	1084.23
724.64	1084.56
724.98	1083.57
725.31	1081.73
725.64	1079.57
725.98	1080.11
726.31	1080.34
726.64	1080.48
726.97	1082.43
727.31	1082.24
727.64	1079.71
727.97	1078.33
728.31	1079.57
728.64	1077.00
728.97	1076.30
729.31	1078.52
729.64	1078.71
729.97	1076.60
730.30	1080.09
730.64	1079.36
730.97	1077.84
731.30	1076.88
731.63	1076.69
731.97	1075.83
732.30	1077.07
732.63	1076.30
732.96	1077.65
733.30	1077.37
733.63	1078.59
733.96	1080.30
734.29	1079.22
734.63	1080.81
734.96	1081.87
735.29	1080.79
735.62	1080.13
735.95	1080.91
736.29	1077.86
736.62	1077.37
736.95	1075.57
737.28	1077.40
737.61	1081.68
737.94	1083.83
738.28	1085.17
738.61	1086.62
738.94	1085.80
739.27	1081.35
739.60	1081.49
739.93	1080.11
740.27	1078.85
740.60	1077.35
740.93	1080.60
741.26	1081.58
741.59	1078.89
741.92	1078.28
742.25	1074.07
742.58	1069.77
742.91	1066.61
743.25	1072.43
743.58	1073.14
743.91	1077.56
744.24	1080.79
744.57	1079.95
744.90	1075.87
745.23	1078.21
745.56	1076.86
745.89	1076.74
746.22	1079.88
746.55	1081.42
746.88	1080.91
747.21	1081.23
747.54	1081.07
747.87	1078.64
748.20	1077.49
748.53	1077.98
748.87	1083.93
749.20	1084.91
749.53	1084.30
749.86	1083.53
750.19	1082.40
750.52	1079.81
750.85	1077.25
751.18	1078.59
751.51	1082.33
751.84	1084.11
752.16	1082.01
752.49	1083.46
752.82	1083.83
753.15	1083.27
753.48	1079.27
753.81	1079.27
754.14	1080.06
754.47	1080.30
754.80	1076.20
755.13	1081.42
755.46	1079.22
755.79	1077.54
756.12	1077.82
756.45	1082.73
756.78	1079.85
757.11	1084.51
757.43	1087.18
757.76	1086.22
758.09	1084.16
758.42	1081.47
758.75	1079.29
759.08	1080.46
759.41	1080.56
759.74	1081.07
760.07	1080.58
760.39	1078.82
760.72	1076.60
761.05	1078.07
761.38	1076.48
761.71	1080.95
762.04	1082.99
762.36	1081.84
762.69	1081.14
763.02	1080.44
763.35	1078.28
763.68	1075.97
764.01	1075.52
