SpectraSuite Data File
++++++++++++++++++++++++++++++++++++
Date: Mon Aug 26 10:22:11 PDT 2019
User: corrico
Dark Spectrum Present: No
Reference Spectrum Present: No
Number of Sampled Component Spectra: 1
Spectrometers: USB2+H06089
Integration Time (usec): 2000 (USB2+H06089)
Spectra Averaged: 20 (USB2+H06089)
Boxcar Smoothing: 2 (USB2+H06089)
Correct for Electrical Dark: No (USB2+H06089)
Strobe/Lamp Enabled: No (USB2+H06089)
Correct for Detector Non-linearity: No (USB2+H06089)
Correct for Stray Light: No (USB2+H06089)
Number of Pixels in Processed Spectrum: 2048
>>>>>Begin Processed Spectral Data<<<<<
339.70	1028.08
340.07	1028.08
340.45	991.61
340.82	969.99
341.19	946.44
341.57	923.04
341.94	913.96
342.31	908.17
342.69	903.21
343.06	898.70
343.43	898.30
343.81	898.30
344.18	897.22
344.55	901.79
344.93	908.43
345.30	915.22
345.67	921.42
346.04	930.48
346.42	938.23
346.79	946.56
347.16	954.07
347.54	963.60
347.91	972.56
348.28	981.32
348.65	990.82
349.03	1000.02
349.40	1012.05
349.77	1019.75
350.14	1027.19
350.52	1036.53
350.89	1040.11
351.26	1048.33
351.63	1056.45
352.01	1061.62
352.38	1064.59
352.75	1068.45
353.12	1063.47
353.50	1065.39
353.87	1066.58
354.24	1070.56
354.61	1072.81
354.98	1078.59
355.36	1079.92
355.73	1082.33
356.10	1079.08
356.47	1079.97
356.84	1082.38
357.22	1081.75
357.59	1084.39
357.96	1083.95
358.33	1083.55
358.70	1083.90
359.08	1084.49
359.45	1079.69
359.82	1081.61
360.19	1082.59
360.56	1080.56
360.94	1081.26
361.31	1084.96
361.68	1084.77
362.05	1082.80
362.42	1078.71
362.79	1078.64
363.16	1075.20
363.54	1071.99
363.91	1071.01
364.28	1072.08
364.65	1070.96
365.02	1070.84
365.39	1072.71
365.76	1073.91
366.14	1077.56
366.51	1078.52
366.88	1079.20
367.25	1081.84
367.62	1083.11
367.99	1078.71
368.36	1078.05
368.73	1078.21
369.10	1074.70
369.48	1071.54
369.85	1071.38
370.22	1066.82
370.59	1065.55
370.96	1066.63
371.33	1070.58
371.70	1072.15
372.07	1074.28
372.44	1074.21
372.81	1073.88
373.18	1072.62
373.55	1071.85
373.93	1073.16
374.30	1075.62
374.67	1076.27
375.04	1073.72
375.41	1076.30
375.78	1077.58
376.15	1076.25
376.52	1077.98
376.89	1078.19
377.26	1079.53
377.63	1078.61
378.00	1081.91
378.37	1082.94
378.74	1085.42
379.11	1084.14
379.48	1083.34
379.85	1080.58
380.22	1077.42
380.59	1078.40
380.96	1079.20
381.33	1080.86
381.70	1084.32
382.07	1084.91
382.44	1084.39
382.81	1080.18
383.18	1081.51
383.55	1081.07
383.92	1081.00
384.29	1082.47
384.66	1085.89
385.03	1082.52
385.40	1081.09
385.77	1080.70
386.14	1081.82
386.51	1083.74
386.88	1085.00
387.25	1084.56
387.62	1082.76
387.99	1080.25
388.36	1080.86
388.73	1083.25
389.10	1084.32
389.46	1087.16
389.83	1088.09
390.20	1088.49
390.57	1088.51
390.94	1087.18
391.31	1088.09
391.68	1086.94
392.05	1086.50
392.42	1090.43
392.79	1090.22
393.16	1089.54
393.53	1091.20
393.89	1088.23
394.26	1082.31
394.63	1082.45
395.00	1081.49
395.37	1080.20
395.74	1084.04
396.11	1087.79
396.48	1091.32
396.84	1093.87
397.21	1096.28
397.58	1098.67
397.95	1098.27
398.32	1097.66
398.69	1098.39
399.06	1098.81
399.42	1094.29
399.79	1092.80
400.16	1091.27
400.53	1092.89
400.90	1091.65
401.27	1091.09
401.64	1092.02
402.00	1093.55
402.37	1090.01
402.74	1091.11
403.11	1093.62
403.48	1094.76
403.84	1096.59
404.21	1097.97
404.58	1099.30
404.95	1096.68
405.32	1094.39
405.68	1089.87
406.05	1091.30
406.42	1091.34
406.79	1093.43
407.16	1095.58
407.52	1095.53
407.89	1092.61
408.26	1091.60
408.63	1090.08
408.99	1088.77
409.36	1089.24
409.73	1089.99
410.10	1089.78
410.47	1091.42
410.83	1090.20
411.20	1091.27
411.57	1095.11
411.94	1093.94
412.30	1096.47
412.67	1100.50
413.04	1102.56
413.40	1103.28
413.77	1106.11
414.14	1106.25
414.51	1107.17
414.87	1107.21
415.24	1104.83
415.61	1103.45
415.97	1102.25
416.34	1102.53
416.71	1104.48
417.08	1107.38
417.44	1109.93
417.81	1114.12
418.18	1115.94
418.54	1115.01
418.91	1113.56
419.28	1110.89
419.64	1108.34
420.01	1106.30
420.38	1110.44
420.74	1114.12
421.11	1121.09
421.48	1123.71
421.84	1128.11
422.21	1129.26
422.58	1129.89
422.94	1134.55
423.31	1137.83
423.68	1139.09
424.04	1145.01
424.41	1149.44
424.77	1152.85
425.14	1158.54
425.51	1161.91
425.87	1162.15
426.24	1166.73
426.61	1172.66
426.97	1177.90
427.34	1183.94
427.70	1193.46
428.07	1203.20
428.44	1209.07
428.80	1218.32
429.17	1232.13
429.53	1242.08
429.90	1254.11
430.27	1260.99
430.63	1272.76
431.00	1284.13
431.36	1299.68
431.73	1315.64
432.09	1337.50
432.46	1354.09
432.83	1376.38
433.19	1395.50
433.56	1420.54
433.92	1443.41
434.29	1473.51
434.65	1498.90
435.02	1528.84
435.38	1554.47
435.75	1587.47
436.11	1623.63
436.48	1667.19
436.84	1712.36
437.21	1762.24
437.57	1807.78
437.94	1855.65
438.30	1907.96
438.67	1961.28
439.03	2023.91
439.40	2097.19
439.76	2163.12
440.13	2234.93
440.49	2317.95
440.86	2390.83
441.22	2475.26
441.59	2568.53
441.95	2667.41
442.32	2766.28
442.68	2886.68
443.05	3006.28
443.41	3132.90
443.78	3266.73
444.14	3407.68
444.51	3543.95
444.87	3709.82
445.24	3876.11
445.60	4054.46
445.96	4242.69
446.33	4458.14
446.69	4653.62
447.06	4872.34
447.42	5095.30
447.79	5318.73
448.15	5575.62
448.51	5851.06
448.88	6171.81
449.24	6477.67
449.61	6835.11
449.97	7191.76
450.33	7573.60
450.70	7933.15
451.06	8368.28
451.43	8775.09
451.79	9237.81
452.15	9729.02
452.52	10261.38
452.88	10796.33
453.24	11419.64
453.61	12118.08
453.97	12822.48
454.34	13507.42
454.70	14334.05
455.06	15145.65
455.43	15886.92
455.79	16565.96
456.15	17378.48
456.52	18103.67
456.88	19005.48
457.24	19894.39
457.61	21012.77
457.97	22069.22
458.33	23162.13
458.70	24208.56
459.06	25215.39
459.42	26226.17
459.79	27148.30
460.15	28196.15
460.51	29177.68
460.88	30276.28
461.24	31241.45
461.60	32383.07
461.96	33424.07
462.33	34453.72
462.69	35465.86
463.05	36554.67
463.42	37542.12
463.78	38458.02
464.14	39210.13
464.50	39951.59
464.87	40489.77
465.23	40842.51
465.59	41260.67
465.95	41578.87
466.32	41824.32
466.68	42071.86
467.04	42212.50
467.40	42221.35
467.77	42327.04
468.13	42230.73
468.49	42060.83
468.85	41954.03
469.22	41803.23
469.58	41544.53
469.94	41413.13
470.30	41214.05
470.66	40863.88
471.03	40376.63
471.39	39989.22
471.75	39247.06
472.11	38523.53
472.47	38031.93
472.84	37520.07
473.20	36814.78
473.56	36433.48
473.92	35879.99
474.28	35236.67
474.65	34596.32
475.01	33927.73
475.37	33121.32
475.73	32415.95
476.09	31711.19
476.45	31046.64
476.81	30496.13
477.18	29936.36
477.54	29486.12
477.90	29057.26
478.26	28509.74
478.62	28000.91
478.98	27543.87
479.34	27085.45
479.71	26515.44
480.07	26059.71
480.43	25610.98
480.79	25149.92
481.15	24692.89
481.51	24330.88
481.87	24034.42
482.23	23675.36
482.59	23355.22
482.96	23048.89
483.32	22747.95
483.68	22342.29
484.04	21995.49
484.40	21574.75
484.76	21132.49
485.12	20676.50
485.48	20233.88
485.84	19742.00
486.20	19315.43
486.56	18891.28
486.92	18508.39
487.28	18121.69
487.64	17735.20
488.00	17352.29
488.37	16968.37
488.73	16536.38
489.09	16095.47
489.45	15673.40
489.81	15229.47
490.17	14793.12
490.53	14393.24
490.89	13983.13
491.25	13570.24
491.61	13188.66
491.97	12801.14
492.33	12397.07
492.69	12039.60
493.05	11703.40
493.41	11368.54
493.77	11035.60
494.13	10739.85
494.49	10450.23
494.85	10180.18
495.21	9912.17
495.57	9662.71
495.93	9406.14
496.29	9158.47
496.64	8929.49
497.00	8680.74
497.36	8424.08
497.72	8184.43
498.08	7962.29
498.44	7732.22
498.80	7520.87
499.16	7326.11
499.52	7136.32
499.88	6949.28
500.24	6778.36
500.60	6631.46
500.96	6476.10
501.32	6313.27
501.68	6146.79
502.03	5967.92
502.39	5798.44
502.75	5637.25
503.11	5486.68
503.47	5349.58
503.83	5226.04
504.19	5093.82
504.55	4974.76
504.91	4859.61
505.26	4738.41
505.62	4616.05
505.98	4507.94
506.34	4386.94
506.70	4259.89
507.06	4151.10
507.42	4052.31
507.78	3950.75
508.13	3861.56
508.49	3792.49
508.85	3718.64
509.21	3636.14
509.57	3553.96
509.93	3474.17
510.28	3383.29
510.64	3297.93
511.00	3219.17
511.36	3145.21
511.72	3077.87
512.07	3022.59
512.43	2966.39
512.79	2906.50
513.15	2846.37
513.51	2790.08
513.86	2728.36
514.22	2677.39
514.58	2624.00
514.94	2576.53
515.30	2528.60
515.65	2485.20
516.01	2437.18
516.37	2403.12
516.73	2368.06
517.08	2330.73
517.44	2292.44
517.80	2254.12
518.16	2210.19
518.51	2170.57
518.87	2139.53
519.23	2107.56
519.59	2078.14
519.94	2053.00
520.30	2029.46
520.66	1998.89
521.01	1966.28
521.37	1938.81
521.73	1913.88
522.09	1886.21
522.44	1863.44
522.80	1845.35
523.16	1819.20
523.51	1795.12
523.87	1772.07
524.23	1748.80
524.58	1722.26
524.94	1708.03
525.30	1689.45
525.65	1668.61
526.01	1650.69
526.37	1638.59
526.72	1622.90
527.08	1605.89
527.44	1592.43
527.79	1575.23
528.15	1558.75
528.51	1538.93
528.86	1526.15
529.22	1515.01
529.58	1500.99
529.93	1490.66
530.29	1483.55
530.65	1467.68
531.00	1455.30
531.36	1446.83
531.71	1431.31
532.07	1417.69
532.43	1405.98
532.78	1396.13
533.14	1383.87
533.49	1378.08
533.85	1368.60
534.21	1363.97
534.56	1357.16
534.92	1349.79
535.27	1339.82
535.63	1332.21
535.98	1321.51
536.34	1311.80
536.69	1306.98
537.05	1301.64
537.41	1293.64
537.76	1288.51
538.12	1282.57
538.47	1274.68
538.83	1270.54
539.18	1266.70
539.54	1261.36
539.89	1255.14
540.25	1251.32
540.60	1246.94
540.96	1244.53
541.31	1243.36
541.67	1237.98
542.02	1233.84
542.38	1228.22
542.73	1221.06
543.09	1213.61
543.44	1215.21
543.80	1214.43
544.15	1213.61
544.51	1213.52
544.86	1214.27
545.22	1206.45
545.57	1199.03
545.93	1194.02
546.28	1188.01
546.64	1184.26
546.99	1183.00
547.35	1184.99
547.70	1182.81
548.05	1184.31
548.41	1182.23
548.76	1183.98
549.12	1181.62
549.47	1177.22
549.83	1172.16
550.18	1169.71
550.53	1164.39
550.89	1157.93
551.24	1156.39
551.60	1155.97
551.95	1155.03
552.30	1155.38
552.66	1154.09
553.01	1154.00
553.37	1151.89
553.72	1149.62
554.07	1145.81
554.43	1146.14
554.78	1143.33
555.13	1143.66
555.49	1140.45
555.84	1140.59
556.19	1136.96
556.55	1135.96
556.90	1130.29
557.26	1129.82
557.61	1127.51
557.96	1125.38
558.32	1126.20
558.67	1125.94
559.02	1123.69
559.37	1118.75
559.73	1120.37
560.08	1118.14
560.43	1118.68
560.79	1120.37
561.14	1122.87
561.49	1121.87
561.85	1119.57
562.20	1120.04
562.55	1117.37
562.90	1117.35
563.26	1117.07
563.61	1117.91
563.96	1113.95
564.32	1112.48
564.67	1111.75
565.02	1108.97
565.37	1105.53
565.73	1106.63
566.08	1109.06
566.43	1106.68
566.78	1108.90
567.14	1110.63
567.49	1110.35
567.84	1107.54
568.19	1110.07
568.54	1108.45
568.90	1106.21
569.25	1111.08
569.60	1112.29
569.95	1110.19
570.31	1110.09
570.66	1112.88
571.01	1107.45
571.36	1106.02
571.71	1107.54
572.06	1102.81
572.42	1097.69
572.77	1096.70
573.12	1094.39
573.47	1091.49
573.82	1096.28
574.18	1095.28
574.53	1093.29
574.88	1095.60
575.23	1094.11
575.58	1095.02
575.93	1099.26
576.28	1102.11
576.64	1101.15
576.99	1100.52
577.34	1097.38
577.69	1093.94
578.04	1089.78
578.39	1088.98
578.74	1088.70
579.09	1090.95
579.44	1093.69
579.80	1093.69
580.15	1093.73
580.50	1095.77
580.85	1095.35
581.20	1092.12
581.55	1093.36
581.90	1092.61
582.25	1089.17
582.60	1087.62
582.95	1090.99
583.30	1092.49
583.65	1093.57
584.00	1096.75
584.35	1092.84
584.71	1089.71
585.06	1089.78
585.41	1091.98
585.76	1088.58
586.11	1089.45
586.46	1091.63
586.81	1090.76
587.16	1088.42
587.51	1091.04
587.86	1092.05
588.21	1089.38
588.56	1088.65
588.91	1087.11
589.26	1087.18
589.61	1088.68
589.96	1088.65
590.31	1090.36
590.66	1090.13
591.01	1088.70
591.36	1091.42
591.71	1089.82
592.06	1086.71
592.41	1088.58
592.76	1086.64
593.10	1083.04
593.45	1085.91
593.80	1083.41
594.15	1085.31
594.50	1086.15
594.85	1083.90
595.20	1085.66
595.55	1089.54
595.90	1081.12
596.25	1081.33
596.60	1082.52
596.95	1077.30
597.30	1076.58
597.64	1092.47
597.99	1093.40
598.34	1089.99
598.69	1091.91
599.04	1092.49
599.39	1079.48
599.74	1080.95
600.09	1085.61
600.44	1087.09
600.78	1088.44
601.13	1087.74
601.48	1087.06
601.83	1086.08
602.18	1085.19
602.53	1081.84
602.88	1083.39
603.22	1083.60
603.57	1082.61
603.92	1081.58
604.27	1085.07
604.62	1089.57
604.97	1090.85
605.31	1092.52
605.66	1092.91
606.01	1091.84
606.36	1091.65
606.71	1088.00
607.05	1084.63
607.40	1085.38
607.75	1084.72
608.10	1081.91
608.44	1084.42
608.79	1089.61
609.14	1089.52
609.49	1090.03
609.84	1089.75
610.18	1091.51
610.53	1089.14
610.88	1087.30
611.23	1084.63
611.57	1086.41
611.92	1084.98
612.27	1083.39
612.62	1086.03
612.96	1090.39
613.31	1087.41
613.66	1084.86
614.00	1086.69
614.35	1086.73
614.70	1085.38
615.05	1087.67
615.39	1087.20
615.74	1087.27
616.09	1087.06
616.43	1085.21
616.78	1081.70
617.13	1080.93
617.47	1080.53
617.82	1083.34
618.17	1084.21
618.51	1086.78
618.86	1085.42
619.21	1082.47
619.55	1078.19
619.90	1073.93
620.25	1071.12
620.59	1073.56
620.94	1076.25
621.29	1076.23
621.63	1080.72
621.98	1080.39
622.32	1084.11
622.67	1085.24
623.02	1084.96
623.36	1082.59
623.71	1083.36
624.05	1078.87
624.40	1077.18
624.75	1077.56
625.09	1077.44
625.44	1081.19
625.78	1082.03
626.13	1081.16
626.48	1080.95
626.82	1080.79
627.17	1079.24
627.51	1080.86
627.86	1084.35
628.20	1083.39
628.55	1083.15
628.89	1083.11
629.24	1081.58
629.58	1078.75
629.93	1080.41
630.28	1082.90
630.62	1083.34
630.97	1082.10
631.31	1082.50
631.66	1084.02
632.00	1087.46
632.35	1086.90
632.69	1088.89
633.04	1087.30
633.38	1084.46
633.73	1081.66
634.07	1079.24
634.42	1080.16
634.76	1082.38
635.11	1082.31
635.45	1077.79
635.79	1080.79
636.14	1080.86
636.48	1079.46
636.83	1079.64
637.17	1083.22
637.52	1083.43
637.86	1082.19
638.21	1085.70
638.55	1088.86
638.89	1088.58
639.24	1088.91
639.58	1084.70
639.93	1080.74
640.27	1078.36
640.61	1077.89
640.96	1075.97
641.30	1081.94
641.65	1085.12
641.99	1084.96
642.33	1086.45
642.68	1086.45
643.02	1084.67
643.37	1083.62
643.71	1083.08
644.05	1081.12
644.40	1080.79
644.74	1078.00
645.08	1078.03
645.43	1078.92
645.77	1081.16
646.11	1081.30
646.46	1082.80
646.80	1080.27
647.14	1083.01
647.49	1082.19
647.83	1080.32
648.17	1084.00
648.52	1086.90
648.86	1081.68
649.20	1078.43
649.55	1084.91
649.89	1086.03
650.23	1087.27
650.57	1087.48
650.92	1088.00
651.26	1083.74
651.60	1080.65
651.95	1079.17
652.29	1080.91
652.63	1082.08
652.97	1081.12
653.32	1081.47
653.66	1082.19
654.00	1081.61
654.34	1082.97
654.69	1081.84
655.03	1082.64
655.37	1082.47
655.71	1083.15
656.05	1084.35
656.40	1083.90
656.74	1084.28
657.08	1081.87
657.42	1081.26
657.76	1080.74
658.11	1082.99
658.45	1079.41
658.79	1080.37
659.13	1080.98
659.47	1079.74
659.82	1082.15
660.16	1085.61
660.50	1088.16
660.84	1089.24
661.18	1090.39
661.52	1088.09
661.87	1088.58
662.21	1083.34
662.55	1081.09
662.89	1081.07
663.23	1079.71
663.57	1076.13
663.91	1080.72
664.25	1083.60
664.60	1081.42
664.94	1080.51
665.28	1081.96
665.62	1078.96
665.96	1076.83
666.30	1074.70
666.64	1073.46
666.98	1072.11
667.32	1072.55
667.66	1072.34
668.01	1073.09
668.35	1074.45
668.69	1074.35
669.03	1074.03
669.37	1075.31
669.71	1075.13
670.05	1075.52
670.39	1071.75
670.73	1072.60
671.07	1075.85
671.41	1077.11
671.75	1079.53
672.09	1085.05
672.43	1085.40
672.77	1079.90
673.11	1078.64
673.45	1076.48
673.79	1075.01
674.13	1073.79
674.47	1075.31
674.81	1074.24
675.15	1075.24
675.49	1077.16
675.83	1077.28
676.17	1077.04
676.51	1077.18
676.85	1075.97
677.19	1075.99
677.53	1077.30
677.87	1076.48
678.21	1082.71
678.55	1085.77
678.89	1082.97
679.23	1083.43
679.57	1083.90
679.90	1080.79
680.24	1076.46
680.58	1076.23
680.92	1072.85
681.26	1073.77
681.60	1073.65
681.94	1077.07
682.28	1079.03
682.62	1081.44
682.96	1080.46
683.29	1080.06
683.63	1076.69
683.97	1074.91
684.31	1073.58
684.65	1074.24
684.99	1075.62
685.33	1077.47
685.67	1079.99
686.00	1081.49
686.34	1081.66
686.68	1082.10
687.02	1085.42
687.36	1082.97
687.70	1082.99
688.03	1079.46
688.37	1077.75
688.71	1076.65
689.05	1077.89
689.39	1080.11
689.72	1080.60
690.06	1080.63
690.40	1080.41
690.74	1079.76
691.08	1077.25
691.41	1079.83
691.75	1082.73
692.09	1080.91
692.43	1084.11
692.76	1085.26
693.10	1086.41
693.44	1086.55
693.78	1087.27
694.11	1086.48
694.45	1085.07
694.79	1084.14
695.13	1081.94
695.46	1085.28
695.80	1084.74
696.14	1084.32
696.48	1086.22
696.81	1084.51
697.15	1083.22
697.49	1080.34
697.82	1082.12
698.16	1078.57
698.50	1082.61
698.83	1079.85
699.17	1080.79
699.51	1079.62
699.84	1082.05
700.18	1077.35
700.52	1078.96
700.85	1077.82
701.19	1075.85
701.53	1075.27
701.86	1076.01
702.20	1074.52
702.54	1076.69
702.87	1078.52
703.21	1076.51
703.55	1075.87
703.88	1074.82
704.22	1074.12
704.55	1073.44
704.89	1076.39
705.23	1079.57
705.56	1083.97
705.90	1084.67
706.23	1085.14
706.57	1084.09
706.91	1082.83
707.24	1080.86
707.58	1080.95
707.91	1078.64
708.25	1079.27
708.58	1078.36
708.92	1076.53
709.26	1074.59
709.59	1079.22
709.93	1077.00
710.26	1078.61
710.60	1078.80
710.93	1081.30
711.27	1080.39
711.60	1082.94
711.94	1081.51
712.27	1085.26
712.61	1086.08
712.94	1088.37
713.28	1085.03
713.61	1083.69
713.95	1082.38
714.28	1079.34
714.62	1076.95
714.95	1079.29
715.29	1080.13
715.62	1078.00
715.96	1079.69
716.29	1078.71
716.63	1078.50
716.96	1080.79
717.29	1079.01
717.63	1077.37
717.96	1080.13
718.30	1079.95
718.63	1079.88
718.97	1080.13
719.30	1082.22
719.63	1079.27
719.97	1079.99
720.30	1077.82
720.64	1078.26
720.97	1078.38
721.30	1077.23
721.64	1076.13
721.97	1078.28
722.31	1081.12
722.64	1080.25
722.97	1079.92
723.31	1079.88
723.64	1078.59
723.97	1075.99
724.31	1076.53
724.64	1075.78
724.98	1076.65
725.31	1075.83
725.64	1079.81
725.98	1078.64
726.31	1080.27
726.64	1081.98
726.97	1084.02
727.31	1081.28
727.64	1082.76
727.97	1082.43
728.31	1079.27
728.64	1076.06
728.97	1075.85
729.31	1075.36
729.64	1074.45
729.97	1079.17
730.30	1082.54
730.64	1083.97
730.97	1082.05
731.30	1085.45
731.63	1084.58
731.97	1081.94
732.30	1079.34
732.63	1081.09
732.96	1080.70
733.30	1082.78
733.63	1082.31
733.96	1083.90
734.29	1084.42
734.63	1083.06
734.96	1079.57
735.29	1080.74
735.62	1079.64
735.95	1076.93
736.29	1078.00
736.62	1079.74
736.95	1080.06
737.28	1078.78
737.61	1081.47
737.94	1079.27
738.28	1075.52
738.61	1075.80
738.94	1080.06
739.27	1081.73
739.60	1082.71
739.93	1084.63
740.27	1086.62
740.60	1085.42
740.93	1081.19
741.26	1083.71
741.59	1081.75
741.92	1079.71
742.25	1076.30
742.58	1078.00
742.91	1070.84
743.25	1070.94
743.58	1070.05
743.91	1071.52
744.24	1070.89
744.57	1073.02
744.90	1076.41
745.23	1076.51
745.56	1077.79
745.89	1079.15
746.22	1078.61
746.55	1075.38
746.88	1075.45
747.21	1074.82
747.54	1074.98
747.87	1078.68
748.20	1081.14
748.53	1080.74
748.87	1078.99
749.20	1076.69
749.53	1074.82
749.86	1070.63
750.19	1070.84
750.52	1071.29
750.85	1070.91
751.18	1071.47
751.51	1070.37
751.84	1072.01
752.16	1074.68
752.49	1077.72
752.82	1077.68
753.15	1082.85
753.48	1079.95
753.81	1078.21
754.14	1077.93
754.47	1078.99
754.80	1078.80
755.13	1082.31
755.46	1083.32
755.79	1081.49
756.12	1079.78
756.45	1078.71
756.78	1078.12
757.11	1077.25
757.43	1077.79
757.76	1079.46
758.09	1078.03
758.42	1075.41
758.75	1073.95
759.08	1071.43
759.41	1072.62
759.74	1074.10
760.07	1076.13
760.39	1080.41
760.72	1084.63
761.05	1084.60
761.38	1087.06
761.71	1087.74
762.04	1086.87
762.36	1082.94
762.69	1083.69
763.02	1082.83
763.35	1082.19
763.68	1081.51
