SpectraSuite Data File
++++++++++++++++++++++++++++++++++++
Date: Mon Aug 26 10:22:06 PDT 2019
User: corrico
Dark Spectrum Present: No
Reference Spectrum Present: No
Number of Sampled Component Spectra: 1
Spectrometers: USB2+H06089
Integration Time (usec): 2000 (USB2+H06089)
Spectra Averaged: 20 (USB2+H06089)
Boxcar Smoothing: 2 (USB2+H06089)
Correct for Electrical Dark: No (USB2+H06089)
Strobe/Lamp Enabled: No (USB2+H06089)
Correct for Detector Non-linearity: No (USB2+H06089)
Correct for Stray Light: No (USB2+H06089)
Number of Pixels in Processed Spectrum: 2048
>>>>>Begin Processed Spectral Data<<<<<
339.70	1028.55
340.07	1028.55
340.45	990.37
340.82	970.11
341.19	946.51
341.57	920.60
341.94	909.34
342.31	901.41
342.69	894.86
343.06	890.62
343.43	890.20
343.81	894.67
344.18	896.19
344.55	897.69
344.93	904.50
345.30	909.32
345.67	914.82
346.04	925.24
346.42	934.83
346.79	943.03
347.16	952.25
347.54	961.42
347.91	973.19
348.28	983.66
348.65	992.69
349.03	1000.86
349.40	1014.51
349.77	1021.01
350.14	1027.61
350.52	1036.23
350.89	1047.16
351.26	1048.77
351.63	1051.84
352.01	1055.46
352.38	1056.59
352.75	1057.97
353.12	1065.20
353.50	1068.83
353.87	1072.11
354.24	1075.45
354.61	1078.07
354.98	1079.27
355.36	1081.19
355.73	1082.36
356.10	1084.79
356.47	1083.76
356.84	1082.15
357.22	1081.70
357.59	1084.77
357.96	1087.83
358.33	1090.81
358.70	1088.19
359.08	1088.68
359.45	1089.03
359.82	1080.84
360.19	1076.65
360.56	1073.79
360.94	1073.02
361.31	1072.76
361.68	1079.76
362.05	1080.53
362.42	1081.94
362.79	1080.25
363.16	1076.97
363.54	1072.67
363.91	1072.97
364.28	1074.12
364.65	1075.31
365.02	1076.74
365.39	1077.25
365.76	1077.91
366.14	1079.15
366.51	1081.02
366.88	1075.29
367.25	1077.02
367.62	1074.52
367.99	1073.51
368.36	1072.60
368.73	1075.03
369.10	1077.00
369.48	1079.76
369.85	1076.95
370.22	1077.07
370.59	1079.74
370.96	1075.62
371.33	1075.13
371.70	1078.00
372.07	1077.89
372.44	1080.18
372.81	1080.98
373.18	1080.70
373.55	1082.83
373.93	1083.50
374.30	1080.98
374.67	1078.59
375.04	1075.90
375.41	1073.35
375.78	1071.12
376.15	1071.57
376.52	1073.28
376.89	1074.98
377.26	1074.42
377.63	1074.52
378.00	1072.78
378.37	1072.95
378.74	1073.67
379.11	1075.85
379.48	1076.79
379.85	1080.95
380.22	1078.80
380.59	1077.04
380.96	1076.86
381.33	1076.34
381.70	1074.77
382.07	1078.66
382.44	1082.43
382.81	1082.80
383.18	1084.65
383.55	1083.04
383.92	1084.39
384.29	1084.16
384.66	1082.45
385.03	1085.61
385.40	1086.48
385.77	1087.30
386.14	1086.73
386.51	1087.06
386.88	1085.49
387.25	1087.37
387.62	1084.25
387.99	1083.76
388.36	1086.13
388.73	1080.13
389.10	1079.38
389.46	1078.45
389.83	1079.38
390.20	1081.51
390.57	1088.37
390.94	1086.50
391.31	1089.92
391.68	1089.57
392.05	1086.59
392.42	1086.38
392.79	1090.64
393.16	1090.99
393.53	1092.12
393.89	1094.46
394.26	1093.85
394.63	1091.34
395.00	1088.54
395.37	1091.30
395.74	1091.06
396.11	1093.87
396.48	1095.32
396.84	1096.17
397.21	1091.72
397.58	1092.96
397.95	1088.07
398.32	1088.12
398.69	1086.36
399.06	1090.74
399.42	1089.07
399.79	1091.70
400.16	1092.59
400.53	1094.08
400.90	1093.05
401.27	1093.03
401.64	1091.93
402.00	1090.97
402.37	1091.06
402.74	1091.63
403.11	1089.85
403.48	1090.20
403.84	1090.13
404.21	1090.06
404.58	1088.93
404.95	1092.07
405.32	1090.50
405.68	1091.44
406.05	1092.19
406.42	1091.27
406.79	1090.74
407.16	1093.55
407.52	1092.73
407.89	1094.13
408.26	1095.75
408.63	1097.10
408.99	1098.51
409.36	1098.58
409.73	1101.22
410.10	1101.27
410.47	1101.69
410.83	1099.89
411.20	1100.57
411.57	1096.14
411.94	1096.12
412.30	1097.69
412.67	1098.32
413.04	1101.50
413.40	1105.46
413.77	1108.97
414.14	1105.74
414.51	1107.54
414.87	1104.36
415.24	1105.90
415.61	1105.34
415.97	1106.51
416.34	1104.92
416.71	1106.72
417.08	1105.95
417.44	1105.62
417.81	1108.43
418.18	1110.75
418.54	1110.79
418.91	1110.21
419.28	1110.49
419.64	1111.73
420.01	1113.60
420.38	1117.35
420.74	1119.55
421.11	1121.87
421.48	1121.44
421.84	1122.94
422.21	1124.39
422.58	1125.68
422.94	1130.03
423.31	1135.16
423.68	1136.66
424.04	1139.07
424.41	1144.43
424.77	1146.79
425.14	1149.41
425.51	1156.62
425.87	1164.02
426.24	1165.07
426.61	1171.53
426.97	1178.95
427.34	1184.83
427.70	1190.37
428.07	1203.74
428.44	1214.08
428.80	1224.24
429.17	1236.20
429.53	1244.09
429.90	1255.53
430.27	1265.34
430.63	1276.72
431.00	1286.50
431.36	1306.39
431.73	1318.24
432.09	1335.06
432.46	1352.69
432.83	1369.52
433.19	1386.58
433.56	1414.06
433.92	1438.40
434.29	1462.91
434.65	1497.31
435.02	1528.37
435.38	1559.01
435.75	1591.03
436.11	1630.79
436.48	1669.29
436.84	1714.14
437.21	1757.95
437.57	1808.27
437.94	1861.57
438.30	1914.53
438.67	1968.58
439.03	2030.65
439.40	2098.22
439.76	2164.95
440.13	2239.64
440.49	2319.33
440.86	2398.09
441.22	2481.37
441.59	2571.10
441.95	2674.46
442.32	2780.39
442.68	2901.23
443.05	3026.13
443.41	3155.39
443.78	3285.57
444.14	3424.02
444.51	3562.37
444.87	3733.20
445.24	3894.77
445.60	4075.88
445.96	4262.42
446.33	4476.32
446.69	4669.30
447.06	4896.56
447.42	5115.17
447.79	5350.93
448.15	5617.66
448.51	5905.52
448.88	6228.19
449.24	6543.15
449.61	6895.55
449.97	7248.08
450.33	7619.36
450.70	7978.21
451.06	8416.52
451.43	8821.88
451.79	9292.37
452.15	9785.76
452.52	10320.19
452.88	10861.56
453.24	11497.34
453.61	12186.63
453.97	12897.10
454.34	13599.45
454.70	14422.45
455.06	15242.39
455.43	16004.98
455.79	16689.10
456.15	17504.33
456.52	18250.37
456.88	19160.28
457.24	20079.03
457.61	21191.66
457.97	22244.05
458.33	23350.71
458.70	24374.25
459.06	25362.96
459.42	26365.08
459.79	27281.33
460.15	28341.08
460.51	29352.26
460.88	30447.23
461.24	31470.14
461.60	32634.98
461.96	33678.58
462.33	34722.83
462.69	35781.97
463.05	36908.40
463.42	37945.65
463.78	38897.64
464.14	39665.78
464.50	40394.35
464.87	40883.49
465.23	41198.67
465.59	41558.46
465.95	41873.99
466.32	42140.15
466.68	42438.97
467.04	42638.31
467.40	42693.88
467.77	42794.03
468.13	42688.68
468.49	42509.75
468.85	42392.51
469.22	42246.67
469.58	42004.71
469.94	41877.19
470.30	41666.03
470.66	41269.96
471.03	40761.76
471.39	40394.86
471.75	39660.00
472.11	38940.19
472.47	38475.22
472.84	37946.85
473.20	37235.68
473.56	36840.52
473.92	36285.33
474.28	35640.04
474.65	34985.86
475.01	34303.34
475.37	33468.56
475.73	32784.28
476.09	32095.30
476.45	31474.63
476.81	30917.66
477.18	30371.87
477.54	29899.13
477.90	29445.46
478.26	28868.14
478.62	28355.40
478.98	27922.45
479.34	27477.66
479.71	26932.64
480.07	26513.33
480.43	26075.63
480.79	25615.10
481.15	25120.45
481.51	24711.82
481.87	24367.39
482.23	23993.25
482.59	23653.66
482.96	23334.39
483.32	23035.93
483.68	22640.10
484.04	22299.17
484.40	21882.37
484.76	21454.26
485.12	21006.00
485.48	20585.90
485.84	20090.92
486.20	19661.67
486.56	19232.63
486.92	18847.56
487.28	18441.15
487.64	18031.02
488.00	17635.77
488.37	17241.98
488.73	16792.50
489.09	16309.27
489.45	15875.50
489.81	15411.54
490.17	14962.16
490.53	14560.80
490.89	14164.08
491.25	13749.97
491.61	13352.99
491.97	12960.53
492.33	12550.37
492.69	12213.43
493.05	11886.93
493.41	11569.29
493.77	11252.17
494.13	10961.22
494.49	10653.00
494.85	10353.38
495.21	10065.45
495.57	9789.06
495.93	9499.98
496.29	9233.30
496.64	9004.35
497.00	8757.00
497.36	8502.96
497.72	8269.91
498.08	8048.70
498.44	7820.34
498.80	7607.49
499.16	7414.86
499.52	7210.21
499.88	7029.47
500.24	6859.36
500.60	6698.52
500.96	6540.81
501.32	6387.18
501.68	6215.27
502.03	6043.03
502.39	5876.10
502.75	5699.06
503.11	5547.70
503.47	5405.72
503.83	5270.54
504.19	5137.76
504.55	5031.24
504.91	4916.69
505.26	4799.01
505.62	4677.96
505.98	4571.35
506.34	4442.92
506.70	4320.82
507.06	4212.85
507.42	4104.67
507.78	4002.50
508.13	3921.47
508.49	3840.66
508.85	3754.29
509.21	3675.95
509.57	3595.39
509.93	3501.21
510.28	3411.40
510.64	3330.89
511.00	3245.97
511.36	3167.54
511.72	3109.57
512.07	3051.36
512.43	2989.66
512.79	2937.37
513.15	2875.42
513.51	2806.89
513.86	2748.58
514.22	2695.85
514.58	2642.89
514.94	2595.37
515.30	2549.19
515.65	2504.68
516.01	2462.97
516.37	2422.01
516.73	2385.36
517.08	2346.50
517.44	2304.49
517.80	2264.02
518.16	2224.30
518.51	2189.59
518.87	2162.77
519.23	2132.65
519.59	2103.23
519.94	2072.78
520.30	2042.56
520.66	2006.73
521.01	1975.34
521.37	1946.58
521.73	1922.33
522.09	1896.49
522.44	1873.18
522.80	1853.77
523.16	1830.35
523.51	1806.66
523.87	1780.42
524.23	1763.97
524.58	1743.91
524.94	1727.13
525.30	1709.46
525.65	1695.46
526.01	1677.16
526.37	1657.43
526.72	1640.50
527.08	1623.26
527.44	1603.41
527.79	1586.25
528.15	1571.58
528.51	1550.39
528.86	1532.37
529.22	1522.17
529.58	1507.33
529.93	1495.06
530.29	1492.26
530.65	1479.83
531.00	1466.06
531.36	1452.07
531.71	1440.20
532.07	1419.53
532.43	1410.48
532.78	1398.70
533.14	1390.79
533.49	1378.88
533.85	1373.17
534.21	1362.00
534.56	1353.60
534.92	1343.42
535.27	1338.44
535.63	1331.98
535.98	1328.09
536.34	1324.95
536.69	1316.83
537.05	1305.93
537.41	1295.51
537.76	1285.38
538.12	1278.21
538.47	1275.05
538.83	1269.74
539.18	1262.56
539.54	1259.04
539.89	1249.99
540.25	1247.25
540.60	1247.74
540.96	1249.78
541.31	1246.43
541.67	1244.42
542.02	1238.00
542.38	1229.48
542.73	1221.99
543.09	1218.58
543.44	1214.53
543.80	1210.03
544.15	1206.20
544.51	1204.79
544.86	1200.65
545.22	1198.42
545.57	1198.66
545.93	1195.55
546.28	1191.92
546.64	1187.70
546.99	1184.59
547.35	1178.20
547.70	1175.98
548.05	1173.71
548.41	1174.93
548.76	1171.18
549.12	1168.86
549.47	1167.48
549.83	1165.63
550.18	1159.60
550.53	1159.08
550.89	1158.12
551.24	1157.56
551.60	1154.45
551.95	1155.10
552.30	1152.67
552.66	1151.19
553.01	1149.86
553.37	1149.18
553.72	1145.65
554.07	1147.52
554.43	1147.73
554.78	1144.22
555.13	1142.91
555.49	1145.11
555.84	1138.97
556.19	1136.03
556.55	1138.46
556.90	1139.93
557.26	1137.55
557.61	1136.56
557.96	1133.97
558.32	1128.07
558.67	1120.30
559.02	1118.52
559.37	1119.45
559.73	1120.11
560.08	1122.87
560.43	1126.36
560.79	1125.94
561.14	1124.51
561.49	1123.15
561.85	1119.08
562.20	1118.17
562.55	1116.81
562.90	1117.96
563.26	1117.02
563.61	1114.17
563.96	1114.21
564.32	1114.33
564.67	1108.74
565.02	1109.18
565.37	1112.41
565.73	1110.07
566.08	1108.55
566.43	1107.71
566.78	1105.95
567.14	1105.58
567.49	1105.36
567.84	1103.42
568.19	1109.37
568.54	1110.19
568.90	1109.46
569.25	1107.38
569.60	1107.07
569.95	1105.90
570.31	1105.22
570.66	1103.77
571.01	1104.48
571.36	1104.83
571.71	1100.19
572.06	1096.78
572.42	1094.25
572.77	1097.06
573.12	1097.80
573.47	1095.96
573.82	1097.03
574.18	1100.94
574.53	1099.23
574.88	1095.60
575.23	1097.95
575.58	1098.65
575.93	1096.42
576.28	1097.10
576.64	1100.31
576.99	1100.00
577.34	1100.66
577.69	1103.68
578.04	1102.63
578.39	1101.34
578.74	1101.11
579.09	1099.63
579.44	1097.45
579.80	1097.59
580.15	1095.65
580.50	1093.62
580.85	1096.00
581.20	1091.37
581.55	1088.91
581.90	1090.60
582.25	1092.59
582.60	1092.40
582.95	1096.12
583.30	1098.27
583.65	1096.94
584.00	1094.43
584.35	1091.72
584.71	1093.71
585.06	1092.28
585.41	1092.73
585.76	1092.68
586.11	1093.83
586.46	1092.00
586.81	1089.87
587.16	1090.41
587.51	1092.94
587.86	1091.95
588.21	1086.85
588.56	1089.00
588.91	1089.64
589.26	1087.74
589.61	1085.45
589.96	1086.55
590.31	1084.14
590.66	1080.34
591.01	1079.24
591.36	1080.46
591.71	1084.93
592.06	1086.69
592.41	1090.22
592.76	1091.37
593.10	1090.74
593.45	1085.26
593.80	1083.25
594.15	1080.65
594.50	1082.19
594.85	1084.63
595.20	1089.75
595.55	1091.39
595.90	1092.45
596.25	1089.31
596.60	1087.60
596.95	1083.48
597.30	1082.12
597.64	1091.74
597.99	1092.80
598.34	1094.06
598.69	1096.19
599.04	1094.36
599.39	1080.84
599.74	1082.52
600.09	1083.76
600.44	1083.04
600.78	1086.15
601.13	1087.83
601.48	1086.36
601.83	1084.77
602.18	1083.15
602.53	1083.11
602.88	1089.19
603.22	1089.00
603.57	1088.21
603.92	1086.64
604.27	1087.06
604.62	1085.28
604.97	1088.47
605.31	1088.56
605.66	1095.28
606.01	1093.52
606.36	1092.26
606.71	1088.82
607.05	1086.20
607.40	1082.87
607.75	1084.18
608.10	1079.24
608.44	1079.60
608.79	1082.05
609.14	1080.91
609.49	1081.80
609.84	1085.54
610.18	1085.33
610.53	1084.72
610.88	1087.86
611.23	1087.93
611.57	1089.07
611.92	1088.61
612.27	1086.99
612.62	1086.45
612.96	1087.11
613.31	1083.88
613.66	1088.14
614.00	1090.36
614.35	1087.39
614.70	1083.86
615.05	1090.60
615.39	1086.71
615.74	1083.88
616.09	1085.19
616.43	1085.19
616.78	1077.33
617.13	1075.62
617.47	1078.96
617.82	1077.54
618.17	1080.98
618.51	1085.66
618.86	1088.51
619.21	1087.81
619.55	1089.19
619.90	1085.42
620.25	1083.04
620.59	1084.81
620.94	1083.48
621.29	1084.42
621.63	1087.44
621.98	1088.77
622.32	1088.23
622.67	1088.28
623.02	1090.74
623.36	1086.13
623.71	1085.45
624.05	1082.66
624.40	1080.48
624.75	1076.90
625.09	1080.67
625.44	1081.84
625.78	1081.28
626.13	1083.46
626.48	1083.27
626.82	1083.55
627.17	1081.37
627.51	1082.59
627.86	1082.10
628.20	1081.98
628.55	1081.58
628.89	1080.41
629.24	1080.88
629.58	1081.21
629.93	1081.89
630.28	1083.15
630.62	1085.63
630.97	1083.08
631.31	1085.42
631.66	1087.55
632.00	1084.39
632.35	1082.01
632.69	1083.08
633.04	1079.88
633.38	1076.79
633.73	1082.31
634.07	1082.29
634.42	1081.84
634.76	1085.19
635.11	1085.54
635.45	1080.23
635.79	1083.76
636.14	1084.79
636.48	1081.91
636.83	1080.98
637.17	1080.32
637.52	1078.89
637.86	1079.55
638.21	1080.98
638.55	1082.15
638.89	1081.42
639.24	1080.77
639.58	1077.33
639.93	1076.06
640.27	1075.94
640.61	1076.58
640.96	1075.48
641.30	1077.14
641.65	1077.07
641.99	1077.18
642.33	1079.81
642.68	1082.80
643.02	1084.74
643.37	1088.26
643.71	1086.87
644.05	1085.80
644.40	1086.73
644.74	1084.28
645.08	1081.61
645.43	1081.56
645.77	1083.71
646.11	1080.02
646.46	1079.10
646.80	1079.62
647.14	1083.01
647.49	1082.71
647.83	1084.81
648.17	1087.37
648.52	1085.40
648.86	1085.03
649.20	1083.88
649.55	1082.38
649.89	1082.52
650.23	1085.68
650.57	1082.03
650.92	1079.71
651.26	1079.48
651.60	1079.22
651.95	1078.12
652.29	1081.07
652.63	1082.50
652.97	1083.06
653.32	1083.95
653.66	1084.74
654.00	1082.54
654.34	1080.58
654.69	1079.83
655.03	1081.21
655.37	1078.07
655.71	1078.00
656.05	1082.01
656.40	1082.36
656.74	1080.37
657.08	1083.48
657.42	1086.78
657.76	1082.17
658.11	1081.02
658.45	1082.03
658.79	1081.61
659.13	1079.78
659.47	1086.36
659.82	1088.30
660.16	1088.07
660.50	1089.22
660.84	1087.20
661.18	1084.02
661.52	1084.30
661.87	1084.79
662.21	1083.93
662.55	1086.20
662.89	1087.55
663.23	1086.57
663.57	1082.92
663.91	1080.46
664.25	1080.32
664.60	1078.73
664.94	1080.48
665.28	1084.51
665.62	1084.04
665.96	1085.66
666.30	1083.74
666.64	1082.24
666.98	1081.30
667.32	1079.55
667.66	1074.17
668.01	1075.69
668.35	1077.89
668.69	1076.34
669.03	1079.74
669.37	1083.81
669.71	1082.92
670.05	1080.60
670.39	1081.94
670.73	1082.05
671.07	1084.28
671.41	1087.72
671.75	1088.49
672.09	1087.93
672.43	1084.63
672.77	1080.25
673.11	1072.50
673.45	1070.00
673.79	1069.02
674.13	1070.98
674.47	1071.68
674.81	1078.52
675.15	1078.52
675.49	1077.84
675.83	1079.97
676.17	1082.24
676.51	1081.42
676.85	1083.55
677.19	1083.15
677.53	1082.52
677.87	1080.27
678.21	1080.79
678.55	1082.31
678.89	1084.86
679.23	1083.79
679.57	1085.99
679.90	1083.88
680.24	1080.46
680.58	1081.19
680.92	1084.18
681.26	1086.69
681.60	1084.39
681.94	1085.21
682.28	1083.97
682.62	1081.40
682.96	1077.86
683.29	1081.56
683.63	1086.27
683.97	1088.33
684.31	1088.93
684.65	1089.17
684.99	1086.27
685.33	1083.41
685.67	1082.66
686.00	1081.40
686.34	1077.89
686.68	1079.88
687.02	1079.74
687.36	1079.10
687.70	1080.67
688.03	1084.51
688.37	1083.53
688.71	1080.74
689.05	1081.23
689.39	1081.12
689.72	1082.29
690.06	1083.27
690.40	1085.12
690.74	1083.71
691.08	1084.42
691.41	1083.53
691.75	1083.25
692.09	1081.98
692.43	1083.67
692.76	1080.84
693.10	1079.31
693.44	1082.03
693.78	1083.36
694.11	1082.29
694.45	1084.16
694.79	1080.63
695.13	1077.23
695.46	1074.77
695.80	1074.26
696.14	1076.30
696.48	1078.99
696.81	1077.58
697.15	1077.21
697.49	1077.07
697.82	1075.76
698.16	1074.12
698.50	1076.72
698.83	1081.56
699.17	1085.84
699.51	1085.91
699.84	1089.47
700.18	1087.55
700.52	1086.22
700.85	1082.61
701.19	1083.50
701.53	1085.63
701.86	1088.49
702.20	1089.47
702.54	1089.82
702.87	1090.64
703.21	1088.98
703.55	1086.20
703.88	1087.46
704.22	1087.95
704.55	1083.95
704.89	1083.60
705.23	1087.34
705.56	1082.05
705.90	1080.32
706.23	1080.86
706.57	1081.14
706.91	1079.50
707.24	1081.00
707.58	1079.55
707.91	1081.61
708.25	1081.51
708.58	1081.35
708.92	1082.59
709.26	1081.56
709.59	1079.03
709.93	1079.24
710.26	1078.33
710.60	1075.38
710.93	1078.40
711.27	1080.04
711.60	1079.20
711.94	1078.80
712.27	1079.31
712.61	1075.69
712.94	1076.15
713.28	1076.60
713.61	1078.07
713.95	1081.35
714.28	1085.89
714.62	1083.53
714.95	1082.40
715.29	1081.66
715.62	1080.74
715.96	1079.76
716.29	1081.40
716.63	1082.36
716.96	1083.43
717.29	1083.25
717.63	1081.35
717.96	1079.29
718.30	1078.80
718.63	1079.67
718.97	1077.82
719.30	1077.96
719.63	1079.85
719.97	1080.51
720.30	1079.71
720.64	1078.57
720.97	1080.81
721.30	1083.71
721.64	1084.04
721.97	1084.23
722.31	1089.24
722.64	1088.75
722.97	1083.62
723.31	1084.42
723.64	1081.75
723.97	1078.87
724.31	1079.13
724.64	1076.46
724.98	1076.60
725.31	1078.54
725.64	1080.84
725.98	1080.56
726.31	1085.07
726.64	1082.24
726.97	1081.54
727.31	1081.21
727.64	1079.43
727.97	1080.20
728.31	1079.15
728.64	1076.48
728.97	1075.05
729.31	1079.92
729.64	1077.79
729.97	1077.91
730.30	1082.64
730.64	1083.57
730.97	1080.37
731.30	1082.26
731.63	1086.73
731.97	1087.13
732.30	1086.36
732.63	1086.52
732.96	1086.57
733.30	1083.27
733.63	1082.38
733.96	1085.59
734.29	1085.80
734.63	1084.37
734.96	1085.24
735.29	1086.87
735.62	1085.00
735.95	1085.77
736.29	1086.29
736.62	1085.89
736.95	1083.06
737.28	1082.40
737.61	1080.63
737.94	1080.77
738.28	1079.76
738.61	1079.01
738.94	1075.52
739.27	1076.65
739.60	1077.68
739.93	1078.17
740.27	1077.42
740.60	1078.80
740.93	1077.33
741.26	1077.49
741.59	1076.11
741.92	1075.48
742.25	1075.57
742.58	1073.28
742.91	1069.95
743.25	1067.89
743.58	1067.85
743.91	1071.59
744.24	1073.00
744.57	1072.29
744.90	1076.60
745.23	1079.67
745.56	1076.27
745.89	1077.51
746.22	1079.29
746.55	1081.12
746.88	1081.21
747.21	1084.14
747.54	1083.83
747.87	1087.41
748.20	1082.15
748.53	1080.39
748.87	1079.36
749.20	1078.03
749.53	1076.83
749.86	1081.47
750.19	1082.73
750.52	1080.95
750.85	1082.22
751.18	1082.29
751.51	1079.01
751.84	1077.49
752.16	1076.53
752.49	1079.10
752.82	1078.14
753.15	1079.78
753.48	1078.12
753.81	1079.41
754.14	1079.31
754.47	1076.93
754.80	1076.30
755.13	1079.08
755.46	1081.14
755.79	1077.44
756.12	1081.14
756.45	1082.59
756.78	1081.89
757.11	1080.25
757.43	1080.46
757.76	1077.84
758.09	1075.78
758.42	1077.68
758.75	1074.87
759.08	1075.38
759.41	1075.13
759.74	1075.83
760.07	1074.14
760.39	1077.42
760.72	1078.89
761.05	1081.77
761.38	1083.27
761.71	1084.49
762.04	1082.99
762.36	1084.63
762.69	1084.28
763.02	1083.22
763.35	1082.83
763.68	1080.37
