SpectraSuite Data File
++++++++++++++++++++++++++++++++++++
Date: Mon Aug 26 10:21:57 PDT 2019
User: corrico
Dark Spectrum Present: No
Reference Spectrum Present: No
Number of Sampled Component Spectra: 1
Spectrometers: USB2+H06089
Integration Time (usec): 2000 (USB2+H06089)
Spectra Averaged: 20 (USB2+H06089)
Boxcar Smoothing: 2 (USB2+H06089)
Correct for Electrical Dark: No (USB2+H06089)
Strobe/Lamp Enabled: No (USB2+H06089)
Correct for Detector Non-linearity: No (USB2+H06089)
Correct for Stray Light: No (USB2+H06089)
Number of Pixels in Processed Spectrum: 2048
>>>>>Begin Processed Spectral Data<<<<<
339.70	1014.74
340.07	1014.74
340.45	988.64
340.82	970.41
341.19	950.63
341.57	926.29
341.94	916.27
342.31	904.62
342.69	897.95
343.06	892.45
343.43	894.01
343.81	894.04
344.18	899.58
344.55	903.10
344.93	911.45
345.30	914.54
345.67	918.54
346.04	923.86
346.42	933.29
346.79	940.01
347.16	949.02
347.54	958.50
347.91	968.02
348.28	975.04
348.65	981.78
349.03	990.73
349.40	998.78
349.77	1007.41
350.14	1017.92
350.52	1027.54
350.89	1036.20
351.26	1041.77
351.63	1047.39
352.01	1050.60
352.38	1055.37
352.75	1057.71
353.12	1064.29
353.50	1066.11
353.87	1068.24
354.24	1068.36
354.61	1068.01
354.98	1067.68
355.36	1067.82
355.73	1068.67
356.10	1071.52
356.47	1075.24
356.84	1074.89
357.22	1076.72
357.59	1075.64
357.96	1073.77
358.33	1072.57
358.70	1073.28
359.08	1074.94
359.45	1075.36
359.82	1073.91
360.19	1075.34
360.56	1072.83
360.94	1071.57
361.31	1070.07
361.68	1068.55
362.05	1068.67
362.42	1068.99
362.79	1066.72
363.16	1068.01
363.54	1069.30
363.91	1065.01
364.28	1065.41
364.65	1060.38
365.02	1060.94
365.39	1058.55
365.76	1059.56
366.14	1057.22
366.51	1060.22
366.88	1059.47
367.25	1059.79
367.62	1057.43
367.99	1060.12
368.36	1061.27
368.73	1060.94
369.10	1060.15
369.48	1059.12
369.85	1053.97
370.22	1053.92
370.59	1052.54
370.96	1056.14
371.33	1058.58
371.70	1063.80
372.07	1063.31
372.44	1063.00
372.81	1059.68
373.18	1061.57
373.55	1062.09
373.93	1060.89
374.30	1061.48
374.67	1067.24
375.04	1065.13
375.41	1063.82
375.78	1065.18
376.15	1067.92
376.52	1062.79
376.89	1062.79
377.26	1062.84
377.63	1060.78
378.00	1057.64
378.37	1059.30
378.74	1062.65
379.11	1062.25
379.48	1068.36
379.85	1069.37
380.22	1070.75
380.59	1069.60
380.96	1070.58
381.33	1066.82
381.70	1067.92
382.07	1065.06
382.44	1063.80
382.81	1062.21
383.18	1062.46
383.55	1061.50
383.92	1063.21
384.29	1060.78
384.66	1062.46
385.03	1062.65
385.40	1064.43
385.77	1064.55
386.14	1067.33
386.51	1067.21
386.88	1068.55
387.25	1066.54
387.62	1064.15
387.99	1066.18
388.36	1066.47
388.73	1064.71
389.10	1068.38
389.46	1068.85
389.83	1066.00
390.20	1065.62
390.57	1068.69
390.94	1065.06
391.31	1065.48
391.68	1065.58
392.05	1065.29
392.42	1061.85
392.79	1062.14
393.16	1062.95
393.53	1063.84
393.89	1068.38
394.26	1068.22
394.63	1068.48
395.00	1070.21
395.37	1070.33
395.74	1068.78
396.11	1067.00
396.48	1070.28
396.84	1069.72
397.21	1067.19
397.58	1067.17
397.95	1068.48
398.32	1062.09
398.69	1060.94
399.06	1061.90
399.42	1062.06
399.79	1063.89
400.16	1068.95
400.53	1069.86
400.90	1074.12
401.27	1073.72
401.64	1075.31
402.00	1074.56
402.37	1075.57
402.74	1075.52
403.11	1075.29
403.48	1075.27
403.84	1075.80
404.21	1076.20
404.58	1077.14
404.95	1076.55
405.32	1073.74
405.68	1071.59
406.05	1069.13
406.42	1067.75
406.79	1067.24
407.16	1067.33
407.52	1066.39
407.89	1068.34
408.26	1067.33
408.63	1065.79
408.99	1068.38
409.36	1070.65
409.73	1068.67
410.10	1069.30
410.47	1073.39
410.83	1072.08
411.20	1070.58
411.57	1075.01
411.94	1074.49
412.30	1072.32
412.67	1072.15
413.04	1073.63
413.40	1070.37
413.77	1070.37
414.14	1070.14
414.51	1071.12
414.87	1068.57
415.24	1069.25
415.61	1068.50
415.97	1069.34
416.34	1069.79
416.71	1072.48
417.08	1069.06
417.44	1067.21
417.81	1066.00
418.18	1064.83
418.54	1065.29
418.91	1068.50
419.28	1074.03
419.64	1076.25
420.01	1077.58
420.38	1077.40
420.74	1076.53
421.11	1072.46
421.48	1071.19
421.84	1070.72
422.21	1071.71
422.58	1072.85
422.94	1074.52
423.31	1073.88
423.68	1073.70
424.04	1073.07
424.41	1073.77
424.77	1075.01
425.14	1072.92
425.51	1071.24
425.87	1071.66
426.24	1070.14
426.61	1067.26
426.97	1070.82
427.34	1074.28
427.70	1075.43
428.07	1075.78
428.44	1077.33
428.80	1077.58
429.17	1075.20
429.53	1073.42
429.90	1073.56
430.27	1072.71
430.63	1071.45
431.00	1072.83
431.36	1073.32
431.73	1074.24
432.09	1079.36
432.46	1082.33
432.83	1083.15
433.19	1080.74
433.56	1081.66
433.92	1076.62
434.29	1073.86
434.65	1069.93
435.02	1073.65
435.38	1073.32
435.75	1074.94
436.11	1075.71
436.48	1079.27
436.84	1081.26
437.21	1081.84
437.57	1083.01
437.94	1082.83
438.30	1080.04
438.67	1079.43
439.03	1077.30
439.40	1074.49
439.76	1073.56
440.13	1078.07
440.49	1077.25
440.86	1078.24
441.22	1082.36
441.59	1085.17
441.95	1087.88
442.32	1092.28
442.68	1091.77
443.05	1092.07
443.41	1093.90
443.78	1092.35
444.14	1089.73
444.51	1097.97
444.87	1098.86
445.24	1100.19
445.60	1102.35
445.96	1103.31
446.33	1104.31
446.69	1106.32
447.06	1110.91
447.42	1108.78
447.79	1112.20
448.15	1110.33
448.51	1114.33
448.88	1115.20
449.24	1119.38
449.61	1121.98
449.97	1125.10
450.33	1124.16
450.70	1125.87
451.06	1131.88
451.43	1136.80
451.79	1141.67
452.15	1150.21
452.52	1155.38
452.88	1156.86
453.24	1159.43
453.61	1164.79
453.97	1166.62
454.34	1170.99
454.70	1178.53
455.06	1184.24
455.43	1187.28
455.79	1193.67
456.15	1198.64
456.52	1205.87
456.88	1210.53
457.24	1218.51
457.61	1225.88
457.97	1232.76
458.33	1240.62
458.70	1250.20
459.06	1261.55
459.42	1271.31
459.79	1281.70
460.15	1292.26
460.51	1301.81
460.88	1309.72
461.24	1312.17
461.60	1316.11
461.96	1320.16
462.33	1321.84
462.69	1328.44
463.05	1338.20
463.42	1348.08
463.78	1354.33
464.14	1365.09
464.50	1371.11
464.87	1377.10
465.23	1384.19
465.59	1385.43
465.95	1389.81
466.32	1390.61
466.68	1396.76
467.04	1396.78
467.40	1398.35
467.77	1398.73
468.13	1400.46
468.49	1394.89
468.85	1390.28
469.22	1392.22
469.58	1387.33
469.94	1381.78
470.30	1380.40
470.66	1380.94
471.03	1375.32
471.39	1375.09
471.75	1369.45
472.11	1364.30
472.47	1358.03
472.84	1355.05
473.20	1350.65
473.56	1351.52
473.92	1350.77
474.28	1345.69
474.65	1340.66
475.01	1332.63
475.37	1323.48
475.73	1315.73
476.09	1311.38
476.45	1308.10
476.81	1304.12
477.18	1300.78
477.54	1294.92
477.90	1291.60
478.26	1287.72
478.62	1288.00
478.98	1282.12
479.34	1279.27
479.71	1277.18
480.07	1271.59
480.43	1265.93
480.79	1267.59
481.15	1266.37
481.51	1260.94
481.87	1258.83
482.23	1254.85
482.59	1250.74
482.96	1249.45
483.32	1250.22
483.68	1247.04
484.04	1245.31
484.40	1242.71
484.76	1237.98
485.12	1234.09
485.48	1232.85
485.84	1229.41
486.20	1227.80
486.56	1225.88
486.92	1221.22
487.28	1218.09
487.64	1214.81
488.00	1210.78
488.37	1205.49
488.73	1206.15
489.09	1201.37
489.45	1199.57
489.81	1197.04
490.17	1196.27
490.53	1191.61
490.89	1190.63
491.25	1188.59
491.61	1185.67
491.97	1182.18
492.33	1179.19
492.69	1175.02
493.05	1172.07
493.41	1169.73
493.77	1166.62
494.13	1162.97
494.49	1162.66
494.85	1158.49
495.21	1157.00
495.57	1155.52
495.93	1154.73
496.29	1152.18
496.64	1150.05
497.00	1146.07
497.36	1145.39
497.72	1143.63
498.08	1139.05
498.44	1138.97
498.80	1137.59
499.16	1133.40
499.52	1130.81
499.88	1130.03
500.24	1124.32
500.60	1124.81
500.96	1123.69
501.32	1122.24
501.68	1120.91
502.03	1121.35
502.39	1114.68
502.75	1114.89
503.11	1111.43
503.47	1111.99
503.83	1108.83
504.19	1106.35
504.55	1104.10
504.91	1102.84
505.26	1101.55
505.62	1105.04
505.98	1106.70
506.34	1105.93
506.70	1106.30
507.06	1103.23
507.42	1100.66
507.78	1104.36
508.13	1102.67
508.49	1103.00
508.85	1102.49
509.21	1105.15
509.57	1102.49
509.93	1100.24
510.28	1098.76
510.64	1102.11
511.00	1100.15
511.36	1095.28
511.72	1096.59
512.07	1095.51
512.43	1092.14
512.79	1090.99
513.15	1088.51
513.51	1085.10
513.86	1088.14
514.22	1086.36
514.58	1081.82
514.94	1086.31
515.30	1086.97
515.65	1081.87
516.01	1081.35
516.37	1081.94
516.73	1080.02
517.08	1081.40
517.44	1084.37
517.80	1082.26
518.16	1087.02
518.51	1088.72
518.87	1090.20
519.23	1086.41
519.59	1089.14
519.94	1085.56
520.30	1084.77
520.66	1083.95
521.01	1084.53
521.37	1085.87
521.73	1083.67
522.09	1081.94
522.44	1082.22
522.80	1081.19
523.16	1078.52
523.51	1081.66
523.87	1082.94
524.23	1079.76
524.58	1079.43
524.94	1078.66
525.30	1077.28
525.65	1075.99
526.01	1077.61
526.37	1078.24
526.72	1081.91
527.08	1082.45
527.44	1082.22
527.79	1080.20
528.15	1079.48
528.51	1074.21
528.86	1074.00
529.22	1076.11
529.58	1075.38
529.93	1077.51
530.29	1076.74
530.65	1077.86
531.00	1076.06
531.36	1075.20
531.71	1073.88
532.07	1078.85
532.43	1075.99
532.78	1074.84
533.14	1078.10
533.49	1078.75
533.85	1077.37
534.21	1077.82
534.56	1080.32
534.92	1079.97
535.27	1080.58
535.63	1080.04
535.98	1082.15
536.34	1079.92
536.69	1079.03
537.05	1077.02
537.41	1074.61
537.76	1071.29
538.12	1074.14
538.47	1073.65
538.83	1075.43
539.18	1076.53
539.54	1074.24
539.89	1070.84
540.25	1071.54
540.60	1071.57
540.96	1072.55
541.31	1075.80
541.67	1075.80
542.02	1077.23
542.38	1075.62
542.73	1075.03
543.09	1076.41
543.44	1076.23
543.80	1074.28
544.15	1075.24
544.51	1075.92
544.86	1073.32
545.22	1076.62
545.57	1077.61
545.93	1077.30
546.28	1077.28
546.64	1076.76
546.99	1074.91
547.35	1073.28
547.70	1073.72
548.05	1075.73
548.41	1078.00
548.76	1078.89
549.12	1079.64
549.47	1078.12
549.83	1074.21
550.18	1074.40
550.53	1072.97
550.89	1070.61
551.24	1070.35
551.60	1069.60
551.95	1068.76
552.30	1069.06
552.66	1071.50
553.01	1071.71
553.37	1072.06
553.72	1072.55
554.07	1074.24
554.43	1073.07
554.78	1073.30
555.13	1074.45
555.49	1072.32
555.84	1069.25
556.19	1070.91
556.55	1071.71
556.90	1071.73
557.26	1072.32
557.61	1073.72
557.96	1072.78
558.32	1073.09
558.67	1074.49
559.02	1073.09
559.37	1073.67
559.73	1076.23
560.08	1075.90
560.43	1075.62
560.79	1077.54
561.14	1078.96
561.49	1079.20
561.85	1079.03
562.20	1076.65
562.55	1072.78
562.90	1071.92
563.26	1067.96
563.61	1068.15
563.96	1066.82
564.32	1072.85
564.67	1069.62
565.02	1073.11
565.37	1074.82
565.73	1079.10
566.08	1076.46
566.43	1078.54
566.78	1075.71
567.14	1073.77
567.49	1071.73
567.84	1071.97
568.19	1073.88
568.54	1074.19
568.90	1072.78
569.25	1073.60
569.60	1075.57
569.95	1073.72
570.31	1075.85
570.66	1077.61
571.01	1075.73
571.36	1075.38
571.71	1075.66
572.06	1072.27
572.42	1076.27
572.77	1079.34
573.12	1078.03
573.47	1077.54
573.82	1080.27
574.18	1074.38
574.53	1070.51
574.88	1069.93
575.23	1072.85
575.58	1071.99
575.93	1073.63
576.28	1077.70
576.64	1079.17
576.99	1074.38
577.34	1074.47
577.69	1073.63
578.04	1072.88
578.39	1074.21
578.74	1074.40
579.09	1074.77
579.44	1075.50
579.80	1072.62
580.15	1069.16
580.50	1071.54
580.85	1071.59
581.20	1071.43
581.55	1074.19
581.90	1075.31
582.25	1072.81
582.60	1071.05
582.95	1072.71
583.30	1072.88
583.65	1072.62
584.00	1075.29
584.35	1076.48
584.71	1073.95
585.06	1071.64
585.41	1072.92
585.76	1072.27
586.11	1075.08
586.46	1076.32
586.81	1078.24
587.16	1077.33
587.51	1075.99
587.86	1072.36
588.21	1071.99
588.56	1069.20
588.91	1068.76
589.26	1072.22
589.61	1072.64
589.96	1074.17
590.31	1072.95
590.66	1074.73
591.01	1068.83
591.36	1069.98
591.71	1066.11
592.06	1072.04
592.41	1072.69
592.76	1075.69
593.10	1074.96
593.45	1077.51
593.80	1076.51
594.15	1076.55
594.50	1077.68
594.85	1078.24
595.20	1078.78
595.55	1078.94
595.90	1078.14
596.25	1075.94
596.60	1075.43
596.95	1072.69
597.30	1071.61
597.64	1080.06
597.99	1078.92
598.34	1080.98
598.69	1082.05
599.04	1081.58
599.39	1072.88
599.74	1075.24
600.09	1072.97
600.44	1075.78
600.78	1079.36
601.13	1079.83
601.48	1080.60
601.83	1079.85
602.18	1076.86
602.53	1072.32
602.88	1069.20
603.22	1066.56
603.57	1070.98
603.92	1069.46
604.27	1068.55
604.62	1071.22
604.97	1072.36
605.31	1069.93
605.66	1072.48
606.01	1072.81
606.36	1074.42
606.71	1076.32
607.05	1073.79
607.40	1073.35
607.75	1071.50
608.10	1070.70
608.44	1072.01
608.79	1074.17
609.14	1074.38
609.49	1075.52
609.84	1074.47
610.18	1071.47
610.53	1070.21
610.88	1073.35
611.23	1074.96
611.57	1073.67
611.92	1074.47
612.27	1074.19
612.62	1071.31
612.96	1073.30
613.31	1074.31
613.66	1070.98
614.00	1071.71
614.35	1072.25
614.70	1071.10
615.05	1073.74
615.39	1078.10
615.74	1075.52
616.09	1074.82
616.43	1072.95
616.78	1067.40
617.13	1068.10
617.47	1072.88
617.82	1074.77
618.17	1077.02
618.51	1076.08
618.86	1078.94
619.21	1073.44
619.55	1069.77
619.90	1068.31
620.25	1072.53
620.59	1069.39
620.94	1071.36
621.29	1076.06
621.63	1076.65
621.98	1075.69
622.32	1075.62
622.67	1076.06
623.02	1070.96
623.36	1071.10
623.71	1070.65
624.05	1069.06
624.40	1072.55
624.75	1073.95
625.09	1075.36
625.44	1076.18
625.78	1076.48
626.13	1073.32
626.48	1075.05
626.82	1072.97
627.17	1074.12
627.51	1074.45
627.86	1075.48
628.20	1071.43
628.55	1070.56
628.89	1072.76
629.24	1072.88
629.58	1074.21
629.93	1079.92
630.28	1079.62
630.62	1076.48
630.97	1076.01
631.31	1075.50
631.66	1074.33
632.00	1076.72
632.35	1074.68
632.69	1073.84
633.04	1070.87
633.38	1069.88
633.73	1071.43
634.07	1071.97
634.42	1071.66
634.76	1074.24
635.11	1076.69
635.45	1075.34
635.79	1078.10
636.14	1078.38
636.48	1079.27
636.83	1078.38
637.17	1080.18
637.52	1077.47
637.86	1077.35
638.21	1076.58
638.55	1076.76
638.89	1072.20
639.24	1074.00
639.58	1074.42
639.93	1073.23
640.27	1069.48
640.61	1071.90
640.96	1069.86
641.30	1072.11
641.65	1072.36
641.99	1074.54
642.33	1072.97
642.68	1074.12
643.02	1071.54
643.37	1075.94
643.71	1075.03
644.05	1075.17
644.40	1073.98
644.74	1074.33
645.08	1070.84
645.43	1069.46
645.77	1070.77
646.11	1073.09
646.46	1072.48
646.80	1071.24
647.14	1071.47
647.49	1070.77
647.83	1069.51
648.17	1067.12
648.52	1067.59
648.86	1067.73
649.20	1071.33
649.55	1071.57
649.89	1076.55
650.23	1074.59
650.57	1076.67
650.92	1074.75
651.26	1072.53
651.60	1070.30
651.95	1068.97
652.29	1069.39
652.63	1066.63
652.97	1069.18
653.32	1071.64
653.66	1076.04
654.00	1075.99
654.34	1077.37
654.69	1078.38
655.03	1077.65
655.37	1076.67
655.71	1074.42
656.05	1073.46
656.40	1073.56
656.74	1069.39
657.08	1068.22
657.42	1068.74
657.76	1070.02
658.11	1065.48
658.45	1067.33
658.79	1067.07
659.13	1067.26
659.47	1066.58
659.82	1070.75
660.16	1073.46
660.50	1074.87
660.84	1078.45
661.18	1078.68
661.52	1076.86
661.87	1076.62
662.21	1074.77
662.55	1072.76
662.89	1073.28
663.23	1073.49
663.57	1072.95
663.91	1074.77
664.25	1074.98
664.60	1073.86
664.94	1072.43
665.28	1072.36
665.62	1071.68
665.96	1068.99
666.30	1069.09
666.64	1070.80
666.98	1070.33
667.32	1070.12
667.66	1070.89
668.01	1072.13
668.35	1070.98
668.69	1072.34
669.03	1073.37
669.37	1078.33
669.71	1080.58
670.05	1081.80
670.39	1077.72
670.73	1077.30
671.07	1072.81
671.41	1069.13
671.75	1070.51
672.09	1073.88
672.43	1073.91
672.77	1075.52
673.11	1077.00
673.45	1073.60
673.79	1075.29
674.13	1074.47
674.47	1073.42
674.81	1072.20
675.15	1076.04
675.49	1074.24
675.83	1074.52
676.17	1075.55
676.51	1077.28
676.85	1078.28
677.19	1079.50
677.53	1080.09
677.87	1076.83
678.21	1075.78
678.55	1072.41
678.89	1070.49
679.23	1071.43
679.57	1074.17
679.90	1076.20
680.24	1076.93
680.58	1076.86
680.92	1076.20
681.26	1074.98
681.60	1074.40
681.94	1075.24
682.28	1077.49
682.62	1076.32
682.96	1076.67
683.29	1076.48
683.63	1075.52
683.97	1070.80
684.31	1073.09
684.65	1076.55
684.99	1075.66
685.33	1075.01
685.67	1079.13
686.00	1078.28
686.34	1072.50
686.68	1071.87
687.02	1073.88
687.36	1073.09
687.70	1071.71
688.03	1075.05
688.37	1074.75
688.71	1071.08
689.05	1070.33
689.39	1074.52
689.72	1076.48
690.06	1077.33
690.40	1077.58
690.74	1077.82
691.08	1075.24
691.41	1071.61
691.75	1070.61
692.09	1071.78
692.43	1075.76
692.76	1076.39
693.10	1077.96
693.44	1078.82
693.78	1083.55
694.11	1082.43
694.45	1081.28
694.79	1081.70
695.13	1082.12
695.46	1077.02
695.80	1075.41
696.14	1075.10
696.48	1075.43
696.81	1074.21
697.15	1077.82
697.49	1077.25
697.82	1078.47
698.16	1079.81
698.50	1082.15
698.83	1078.57
699.17	1077.44
699.51	1075.27
699.84	1071.22
700.18	1069.84
700.52	1070.37
700.85	1073.07
701.19	1074.54
701.53	1072.22
701.86	1073.16
702.20	1076.46
702.54	1075.55
702.87	1078.52
703.21	1080.95
703.55	1078.61
703.88	1075.31
704.22	1075.59
704.55	1075.20
704.89	1076.97
705.23	1078.75
705.56	1077.91
705.90	1076.34
706.23	1072.50
706.57	1073.30
706.91	1072.06
707.24	1074.91
707.58	1074.54
707.91	1075.92
708.25	1078.33
708.58	1077.93
708.92	1078.00
709.26	1074.87
709.59	1075.94
709.93	1074.61
710.26	1075.78
710.60	1073.46
710.93	1077.93
711.27	1074.17
711.60	1070.65
711.94	1071.33
712.27	1071.22
712.61	1068.95
712.94	1071.54
713.28	1071.66
713.61	1073.53
713.95	1074.75
714.28	1075.62
714.62	1075.17
714.95	1074.59
715.29	1071.99
715.62	1069.70
715.96	1069.23
716.29	1070.42
716.63	1072.55
716.96	1072.13
717.29	1075.01
717.63	1074.35
717.96	1075.45
718.30	1076.62
718.63	1077.37
718.97	1079.41
719.30	1081.89
719.63	1079.50
719.97	1078.71
720.30	1079.24
720.64	1075.94
720.97	1077.63
721.30	1077.63
721.64	1079.74
721.97	1078.75
722.31	1081.84
722.64	1079.41
722.97	1080.32
723.31	1076.08
723.64	1074.61
723.97	1073.42
724.31	1070.19
724.64	1068.48
724.98	1068.34
725.31	1070.19
725.64	1071.66
725.98	1074.66
726.31	1075.45
726.64	1077.35
726.97	1078.07
727.31	1078.57
727.64	1082.50
727.97	1083.36
728.31	1086.27
728.64	1085.10
728.97	1082.47
729.31	1076.30
729.64	1074.24
729.97	1070.75
730.30	1069.27
730.64	1068.62
730.97	1070.05
731.30	1069.09
731.63	1072.67
731.97	1073.51
732.30	1073.70
732.63	1074.80
732.96	1077.72
733.30	1071.36
733.63	1071.73
733.96	1073.51
734.29	1074.00
734.63	1072.39
734.96	1074.00
735.29	1074.38
735.62	1069.44
735.95	1071.12
736.29	1071.82
736.62	1074.66
736.95	1073.93
737.28	1077.68
737.61	1071.80
737.94	1072.27
738.28	1070.70
738.61	1071.24
738.94	1072.55
739.27	1071.99
739.60	1071.78
739.93	1071.03
740.27	1070.05
740.60	1066.21
740.93	1069.77
741.26	1071.75
741.59	1071.75
741.92	1072.83
742.25	1074.28
742.58	1078.96
742.91	1078.78
743.25	1081.42
743.58	1084.02
743.91	1083.74
744.24	1079.48
744.57	1078.92
744.90	1073.72
745.23	1069.18
745.56	1066.91
745.89	1066.61
746.22	1065.01
746.55	1068.85
746.88	1072.08
747.21	1077.61
747.54	1076.67
747.87	1075.99
748.20	1072.20
748.53	1070.49
748.87	1066.23
749.20	1067.31
749.53	1067.71
749.86	1069.02
750.19	1070.09
750.52	1071.24
750.85	1068.74
751.18	1069.23
751.51	1070.75
751.84	1070.54
752.16	1069.95
752.49	1075.45
752.82	1075.99
753.15	1078.26
753.48	1076.97
753.81	1078.38
754.14	1073.79
754.47	1071.90
754.80	1068.59
755.13	1067.78
755.46	1067.38
755.79	1069.84
756.12	1072.41
756.45	1076.01
756.78	1076.86
757.11	1077.79
757.43	1075.94
757.76	1073.63
758.09	1069.53
758.42	1069.88
758.75	1069.25
759.08	1068.41
759.41	1071.47
759.74	1072.62
760.07	1072.69
760.39	1073.65
760.72	1075.36
761.05	1073.91
761.38	1074.07
761.71	1072.43
762.04	1070.65
762.36	1070.80
762.69	1070.54
763.02	1069.16
763.35	1072.20
763.68	1075.62
764.01	1076.69
764.33	1075.15
764.66	1076.18
764.99	1074.56
765.32	1073.32
765.65	1073.23
765.97	1074.91
766.30	1077.07
