SpectraSuite Data File
++++++++++++++++++++++++++++++++++++
Date: Mon Aug 26 10:22:07 PDT 2019
User: corrico
Dark Spectrum Present: No
Reference Spectrum Present: No
Number of Sampled Component Spectra: 1
Spectrometers: USB2+H06089
Integration Time (usec): 2000 (USB2+H06089)
Spectra Averaged: 20 (USB2+H06089)
Boxcar Smoothing: 2 (USB2+H06089)
Correct for Electrical Dark: No (USB2+H06089)
Strobe/Lamp Enabled: No (USB2+H06089)
Correct for Detector Non-linearity: No (USB2+H06089)
Correct for Stray Light: No (USB2+H06089)
Number of Pixels in Processed Spectrum: 2048
>>>>>Begin Processed Spectral Data<<<<<
339.70	1030.77
340.07	1030.77
340.45	994.84
340.82	972.42
341.19	946.09
341.57	920.02
341.94	908.50
342.31	901.90
342.69	900.36
343.06	899.42
343.43	900.50
343.81	903.21
344.18	902.21
344.55	904.76
344.93	909.39
345.30	913.53
345.67	920.09
346.04	929.52
346.42	936.40
346.79	943.10
347.16	951.17
347.54	960.37
347.91	970.55
348.28	980.29
348.65	993.14
349.03	1003.29
349.40	1012.54
349.77	1021.53
350.14	1027.21
350.52	1033.67
350.89	1039.76
351.26	1044.77
351.63	1052.21
352.01	1060.24
352.38	1066.51
352.75	1071.31
353.12	1076.69
353.50	1077.42
353.87	1079.60
354.24	1079.17
354.61	1081.66
354.98	1080.84
355.36	1080.91
355.73	1079.95
356.10	1080.60
356.47	1081.37
356.84	1082.12
357.22	1082.12
357.59	1083.86
357.96	1084.86
358.33	1086.34
358.70	1085.80
359.08	1087.09
359.45	1087.72
359.82	1087.48
360.19	1085.54
360.56	1085.56
360.94	1083.43
361.31	1080.70
361.68	1079.83
362.05	1078.26
362.42	1078.80
362.79	1078.00
363.16	1077.47
363.54	1077.25
363.91	1078.26
364.28	1075.55
364.65	1079.97
365.02	1078.43
365.39	1077.93
365.76	1076.32
366.14	1078.75
366.51	1074.03
366.88	1076.01
367.25	1078.03
367.62	1077.93
367.99	1077.47
368.36	1079.78
368.73	1080.91
369.10	1078.12
369.48	1077.40
369.85	1076.11
370.22	1075.29
370.59	1071.43
370.96	1070.21
371.33	1069.60
371.70	1070.51
372.07	1071.50
372.44	1075.64
372.81	1076.55
373.18	1079.08
373.55	1076.11
373.93	1074.66
374.30	1075.29
374.67	1078.07
375.04	1077.07
375.41	1080.60
375.78	1081.77
376.15	1079.81
376.52	1079.24
376.89	1080.88
377.26	1081.16
377.63	1081.42
378.00	1080.39
378.37	1081.47
378.74	1081.44
379.11	1083.06
379.48	1084.02
379.85	1085.63
380.22	1084.58
380.59	1083.01
380.96	1080.41
381.33	1082.03
381.70	1083.01
382.07	1083.15
382.44	1085.07
382.81	1087.93
383.18	1086.59
383.55	1083.93
383.92	1085.00
384.29	1082.57
384.66	1083.13
385.03	1080.79
385.40	1083.34
385.77	1081.63
386.14	1085.21
386.51	1081.63
386.88	1084.67
387.25	1083.46
387.62	1083.67
387.99	1082.83
388.36	1084.16
388.73	1083.71
389.10	1083.88
389.46	1083.06
389.83	1083.95
390.20	1082.66
390.57	1082.26
390.94	1082.10
391.31	1083.90
391.68	1080.51
392.05	1079.53
392.42	1078.05
392.79	1077.77
393.16	1076.51
393.53	1078.19
393.89	1085.26
394.26	1085.68
394.63	1087.09
395.00	1089.94
395.37	1089.96
395.74	1085.96
396.11	1086.78
396.48	1088.54
396.84	1089.10
397.21	1089.75
397.58	1092.02
397.95	1095.23
398.32	1094.13
398.69	1094.74
399.06	1093.62
399.42	1089.17
399.79	1086.48
400.16	1083.83
400.53	1084.93
400.90	1087.23
401.27	1090.99
401.64	1093.64
402.00	1100.47
402.37	1098.06
402.74	1100.99
403.11	1101.95
403.48	1101.90
403.84	1097.34
404.21	1098.79
404.58	1096.73
404.95	1092.00
405.32	1089.85
405.68	1090.78
406.05	1089.94
406.42	1090.69
406.79	1095.21
407.16	1095.89
407.52	1096.87
407.89	1096.92
408.26	1095.14
408.63	1096.10
408.99	1096.05
409.36	1094.67
409.73	1094.62
410.10	1097.55
410.47	1097.78
410.83	1099.16
411.20	1102.67
411.57	1101.62
411.94	1100.17
412.30	1102.32
412.67	1104.31
413.04	1105.51
413.40	1105.88
413.77	1104.94
414.14	1105.90
414.51	1106.51
414.87	1107.71
415.24	1110.23
415.61	1110.72
415.97	1110.49
416.34	1110.05
416.71	1110.84
417.08	1114.35
417.44	1114.07
417.81	1109.13
418.18	1108.66
418.54	1106.82
418.91	1104.52
419.28	1109.13
419.64	1115.01
420.01	1116.86
420.38	1117.56
420.74	1119.06
421.11	1121.23
421.48	1124.53
421.84	1129.00
422.21	1130.17
422.58	1136.17
422.94	1138.86
423.31	1141.08
423.68	1143.80
424.04	1148.20
424.41	1150.19
424.77	1154.35
425.14	1158.17
425.51	1158.80
425.87	1163.76
426.24	1165.80
426.61	1172.40
426.97	1179.44
427.34	1187.21
427.70	1195.64
428.07	1209.26
428.44	1221.67
428.80	1228.43
429.17	1240.02
429.53	1249.94
429.90	1261.08
430.27	1269.46
430.63	1284.46
431.00	1297.59
431.36	1311.89
431.73	1326.19
432.09	1341.92
432.46	1358.19
432.83	1376.87
433.19	1395.38
433.56	1414.95
433.92	1436.71
434.29	1461.83
434.65	1492.35
435.02	1519.34
435.38	1549.34
435.75	1586.02
436.11	1625.29
436.48	1666.88
436.84	1720.57
437.21	1770.31
437.57	1818.99
437.94	1865.31
438.30	1917.46
438.67	1970.10
439.03	2031.35
439.40	2098.17
439.76	2172.27
440.13	2248.22
440.49	2331.17
440.86	2410.96
441.22	2499.58
441.59	2591.65
441.95	2696.62
442.32	2802.23
442.68	2923.05
443.05	3042.04
443.41	3171.03
443.78	3298.42
444.14	3433.17
444.51	3570.58
444.87	3741.18
445.24	3905.82
445.60	4085.43
445.96	4271.88
446.33	4486.67
446.69	4688.21
447.06	4912.11
447.42	5144.05
447.79	5388.36
448.15	5657.22
448.51	5937.35
448.88	6256.88
449.24	6556.31
449.61	6909.59
449.97	7262.40
450.33	7637.85
450.70	7994.15
451.06	8438.94
451.43	8843.13
451.79	9307.68
452.15	9803.59
452.52	10344.51
452.88	10884.83
453.24	11522.76
453.61	12230.33
453.97	12937.80
454.34	13650.57
454.70	14483.07
455.06	15288.29
455.43	16048.54
455.79	16753.25
456.15	17565.28
456.52	18316.52
456.88	19251.28
457.24	20161.42
457.61	21275.26
457.97	22337.42
458.33	23428.43
458.70	24474.14
459.06	25472.03
459.42	26510.76
459.79	27439.72
460.15	28521.02
460.51	29522.14
460.88	30647.47
461.24	31629.06
461.60	32807.29
461.96	33847.10
462.33	34885.73
462.69	35943.77
463.05	37071.51
463.42	38108.09
463.78	39072.18
464.14	39848.39
464.50	40574.47
464.87	41088.57
465.23	41400.89
465.59	41775.68
465.95	42086.58
466.32	42324.07
466.68	42619.05
467.04	42797.02
467.40	42835.85
467.77	42952.60
468.13	42867.33
468.49	42680.49
468.85	42575.12
469.22	42445.43
469.58	42202.39
469.94	42071.57
470.30	41881.01
470.66	41524.08
471.03	41014.12
471.39	40618.17
471.75	39879.73
472.11	39150.09
472.47	38623.89
472.84	38067.74
473.20	37361.71
473.56	36970.54
473.92	36388.05
474.28	35762.94
474.65	35117.84
475.01	34428.16
475.37	33596.66
475.73	32898.45
476.09	32194.23
476.45	31568.61
476.81	31009.71
477.18	30443.37
477.54	29961.34
477.90	29500.88
478.26	28906.90
478.62	28388.40
478.98	27965.05
479.34	27538.02
479.71	26978.75
480.07	26570.98
480.43	26136.04
480.79	25648.13
481.15	25165.02
481.51	24781.38
481.87	24436.06
482.23	24076.51
482.59	23738.70
482.96	23407.04
483.32	23108.81
483.68	22706.01
484.04	22337.49
484.40	21933.60
484.76	21508.70
485.12	21051.83
485.48	20632.90
485.84	20151.31
486.20	19713.49
486.56	19277.73
486.92	18887.28
487.28	18479.42
487.64	18075.42
488.00	17683.10
488.37	17287.78
488.73	16831.61
489.09	16351.24
489.45	15913.19
489.81	15455.17
490.17	14999.84
490.53	14595.18
490.89	14193.80
491.25	13777.75
491.61	13375.95
491.97	12978.60
492.33	12572.59
492.69	12220.50
493.05	11890.34
493.41	11568.96
493.77	11255.33
494.13	10960.28
494.49	10656.08
494.85	10360.69
495.21	10088.06
495.57	9817.92
495.93	9542.25
496.29	9280.25
496.64	9051.98
497.00	8788.69
497.36	8535.91
497.72	8289.78
498.08	8076.23
498.44	7832.51
498.80	7622.73
499.16	7422.63
499.52	7233.03
499.88	7042.63
500.24	6865.35
500.60	6698.59
500.96	6544.28
501.32	6381.77
501.68	6214.89
502.03	6046.66
502.39	5882.61
502.75	5708.40
503.11	5552.80
503.47	5403.97
503.83	5274.14
504.19	5142.74
504.55	5029.88
504.91	4918.99
505.26	4807.18
505.62	4690.88
505.98	4580.66
506.34	4460.83
506.70	4338.58
507.06	4229.91
507.42	4117.19
507.78	4019.64
508.13	3921.40
508.49	3839.39
508.85	3754.36
509.21	3676.86
509.57	3589.31
509.93	3505.12
510.28	3415.71
510.64	3338.98
511.00	3257.67
511.36	3189.85
511.72	3127.35
512.07	3068.44
512.43	3001.01
512.79	2942.52
513.15	2873.94
513.51	2815.01
513.86	2757.39
514.22	2706.48
514.58	2656.53
514.94	2610.38
515.30	2561.76
515.65	2514.72
516.01	2469.83
516.37	2425.92
516.73	2387.16
517.08	2348.73
517.44	2312.12
517.80	2274.72
518.16	2238.56
518.51	2205.91
518.87	2171.43
519.23	2139.04
519.59	2106.65
519.94	2075.28
520.30	2042.35
520.66	2011.11
521.01	1984.66
521.37	1956.83
521.73	1931.18
522.09	1905.57
522.44	1883.05
522.80	1856.21
523.16	1833.88
523.51	1808.77
523.87	1787.33
524.23	1761.14
524.58	1736.77
524.94	1716.81
525.30	1700.52
525.65	1679.43
526.01	1662.25
526.37	1646.26
526.72	1628.78
527.08	1611.01
527.44	1597.13
527.79	1583.63
528.15	1569.56
528.51	1555.64
528.86	1540.63
529.22	1525.16
529.58	1511.96
529.93	1498.97
530.29	1486.33
530.65	1473.93
531.00	1462.93
531.36	1446.40
531.71	1432.52
532.07	1419.35
532.43	1407.18
532.78	1393.77
533.14	1388.90
533.49	1377.36
533.85	1369.70
534.21	1363.34
534.56	1355.26
534.92	1344.87
535.27	1344.90
535.63	1339.89
535.98	1328.82
536.34	1320.13
536.69	1315.99
537.05	1307.14
537.41	1299.49
537.76	1293.94
538.12	1288.89
538.47	1281.05
538.83	1270.47
539.18	1265.13
539.54	1262.77
539.89	1258.95
540.25	1253.71
540.60	1249.12
540.96	1244.49
541.31	1239.62
541.67	1235.59
542.02	1233.20
542.38	1234.12
542.73	1229.27
543.09	1225.88
543.44	1222.81
543.80	1215.11
544.15	1209.07
544.51	1207.04
544.86	1205.31
545.22	1202.01
545.57	1203.57
545.93	1201.54
546.28	1197.07
546.64	1190.65
546.99	1187.14
547.35	1186.98
547.70	1184.97
548.05	1184.78
548.41	1183.82
548.76	1182.70
549.12	1177.64
549.47	1176.94
549.83	1171.81
550.18	1169.92
550.53	1167.90
550.89	1165.12
551.24	1159.10
551.60	1156.83
551.95	1156.60
552.30	1151.10
552.66	1148.88
553.01	1147.31
553.37	1142.95
553.72	1139.61
554.07	1140.07
554.43	1138.51
554.78	1138.34
555.13	1140.50
555.49	1137.50
555.84	1136.42
556.19	1136.35
556.55	1136.17
556.90	1134.34
557.26	1135.58
557.61	1136.99
557.96	1134.81
558.32	1132.84
558.67	1132.70
559.02	1130.78
559.37	1127.46
559.73	1128.16
560.08	1127.48
560.43	1127.34
560.79	1126.85
561.14	1128.75
561.49	1126.55
561.85	1124.44
562.20	1125.07
562.55	1125.14
562.90	1122.29
563.26	1122.17
563.61	1121.80
563.96	1118.10
564.32	1114.40
564.67	1111.08
565.02	1110.98
565.37	1110.16
565.73	1105.34
566.08	1105.04
566.43	1106.63
566.78	1102.32
567.14	1103.54
567.49	1107.96
567.84	1107.24
568.19	1105.97
568.54	1109.23
568.90	1109.93
569.25	1109.30
569.60	1108.20
569.95	1108.90
570.31	1105.86
570.66	1101.64
571.01	1097.71
571.36	1098.60
571.71	1096.73
572.06	1097.22
572.42	1099.86
572.77	1103.28
573.12	1103.40
573.47	1103.47
573.82	1101.43
574.18	1097.34
574.53	1095.70
574.88	1096.87
575.23	1098.88
575.58	1100.40
575.93	1103.33
576.28	1101.99
576.64	1101.13
576.99	1098.11
577.34	1098.86
577.69	1096.17
578.04	1097.73
578.39	1098.23
578.74	1101.55
579.09	1099.91
579.44	1101.67
579.80	1100.96
580.15	1099.21
580.50	1095.77
580.85	1093.31
581.20	1094.06
581.55	1093.05
581.90	1092.77
582.25	1090.74
582.60	1093.22
582.95	1088.82
583.30	1087.41
583.65	1085.87
584.00	1089.57
584.35	1089.22
584.71	1088.96
585.06	1090.01
585.41	1090.24
585.76	1087.88
586.11	1087.51
586.46	1090.39
586.81	1086.64
587.16	1086.38
587.51	1085.17
587.86	1084.09
588.21	1081.75
588.56	1085.19
588.91	1089.36
589.26	1090.41
589.61	1091.98
589.96	1093.08
590.31	1093.40
590.66	1091.27
591.01	1088.09
591.36	1090.39
591.71	1090.41
592.06	1093.57
592.41	1088.58
592.76	1091.20
593.10	1087.20
593.45	1088.82
593.80	1083.69
594.15	1084.07
594.50	1086.97
594.85	1087.23
595.20	1086.59
595.55	1087.04
595.90	1091.65
596.25	1091.88
596.60	1091.49
596.95	1090.67
597.30	1093.15
597.64	1103.61
597.99	1103.19
598.34	1106.96
598.69	1107.61
599.04	1103.49
599.39	1090.41
599.74	1085.96
600.09	1082.45
600.44	1079.62
600.78	1080.06
601.13	1082.57
601.48	1087.81
601.83	1086.80
602.18	1089.10
602.53	1091.30
602.88	1092.54
603.22	1090.76
603.57	1090.15
603.92	1088.82
604.27	1088.40
604.62	1085.87
604.97	1085.28
605.31	1088.21
605.66	1090.22
606.01	1088.93
606.36	1086.97
606.71	1085.45
607.05	1084.02
607.40	1084.91
607.75	1086.99
608.10	1083.74
608.44	1084.84
608.79	1085.63
609.14	1083.41
609.49	1083.04
609.84	1087.37
610.18	1085.63
610.53	1086.08
610.88	1086.01
611.23	1088.65
611.57	1087.95
611.92	1089.92
612.27	1092.42
612.62	1092.59
612.96	1089.14
613.31	1087.18
613.66	1085.63
614.00	1078.54
614.35	1074.40
614.70	1073.11
615.05	1073.72
615.39	1072.88
615.74	1076.88
616.09	1084.67
616.43	1087.53
616.78	1088.30
617.13	1088.56
617.47	1087.53
617.82	1083.48
618.17	1083.93
618.51	1086.99
618.86	1088.40
619.21	1090.85
619.55	1092.82
619.90	1093.05
620.25	1089.29
620.59	1089.33
620.94	1087.65
621.29	1083.74
621.63	1083.04
621.98	1083.36
622.32	1082.87
622.67	1083.43
623.02	1086.38
623.36	1086.80
623.71	1087.86
624.05	1087.27
624.40	1086.76
624.75	1085.52
625.09	1084.91
625.44	1087.18
625.78	1089.57
626.13	1090.55
626.48	1092.89
626.82	1091.32
627.17	1088.26
627.51	1089.59
627.86	1088.82
628.20	1087.97
628.55	1087.20
628.89	1088.35
629.24	1084.30
629.58	1083.88
629.93	1081.33
630.28	1083.27
630.62	1082.47
630.97	1084.35
631.31	1085.28
631.66	1085.94
632.00	1086.34
632.35	1087.51
632.69	1085.61
633.04	1085.75
633.38	1086.22
633.73	1085.61
634.07	1081.49
634.42	1081.33
634.76	1079.01
635.11	1079.69
635.45	1078.54
635.79	1082.66
636.14	1087.46
636.48	1088.42
636.83	1085.91
637.17	1087.95
637.52	1085.47
637.86	1081.94
638.21	1084.21
638.55	1088.02
638.89	1088.54
639.24	1088.19
639.58	1087.48
639.93	1084.49
640.27	1084.86
640.61	1082.33
640.96	1084.44
641.30	1085.89
641.65	1086.45
641.99	1083.62
642.33	1082.45
642.68	1082.38
643.02	1079.53
643.37	1079.15
643.71	1080.11
644.05	1082.92
644.40	1082.29
644.74	1082.69
645.08	1083.86
645.43	1083.79
645.77	1080.98
646.11	1080.79
646.46	1084.39
646.80	1084.14
647.14	1081.77
647.49	1085.40
647.83	1086.41
648.17	1085.70
648.52	1084.56
648.86	1089.12
649.20	1087.55
649.55	1084.49
649.89	1084.02
650.23	1086.10
650.57	1082.73
650.92	1083.71
651.26	1085.91
651.60	1084.07
651.95	1083.83
652.29	1081.75
652.63	1079.57
652.97	1081.16
653.32	1083.71
653.66	1083.39
654.00	1085.38
654.34	1085.52
654.69	1083.22
655.03	1081.05
655.37	1079.36
655.71	1079.57
656.05	1078.54
656.40	1078.82
656.74	1077.72
657.08	1075.85
657.42	1074.70
657.76	1074.49
658.11	1075.38
658.45	1075.03
658.79	1078.75
659.13	1079.46
659.47	1083.15
659.82	1080.65
660.16	1083.18
660.50	1080.79
660.84	1080.70
661.18	1079.31
661.52	1081.91
661.87	1081.66
662.21	1085.68
662.55	1086.90
662.89	1085.28
663.23	1084.35
663.57	1085.77
663.91	1084.07
664.25	1081.73
664.60	1080.20
664.94	1082.54
665.28	1081.05
665.62	1082.26
665.96	1083.93
666.30	1085.59
666.64	1086.13
666.98	1083.81
667.32	1081.33
667.66	1079.88
668.01	1081.51
668.35	1081.05
668.69	1084.84
669.03	1085.38
669.37	1084.58
669.71	1082.33
670.05	1078.92
670.39	1075.85
670.73	1073.07
671.07	1075.20
671.41	1078.19
671.75	1080.39
672.09	1081.84
672.43	1082.71
672.77	1083.83
673.11	1081.12
673.45	1080.27
673.79	1081.61
674.13	1084.32
674.47	1083.55
674.81	1085.38
675.15	1089.14
675.49	1089.40
675.83	1088.42
676.17	1088.68
676.51	1087.62
676.85	1082.66
677.19	1079.74
677.53	1082.94
677.87	1080.46
678.21	1080.91
678.55	1080.86
678.89	1080.91
679.23	1074.91
679.57	1079.46
679.90	1079.76
680.24	1080.53
680.58	1079.67
680.92	1081.47
681.26	1081.37
681.60	1081.98
681.94	1082.19
682.28	1087.65
682.62	1088.63
682.96	1084.04
683.29	1081.63
683.63	1082.92
683.97	1079.01
684.31	1077.96
684.65	1080.13
684.99	1081.56
685.33	1079.24
685.67	1081.05
686.00	1082.69
686.34	1084.77
686.68	1081.21
687.02	1082.40
687.36	1080.41
687.70	1079.67
688.03	1078.03
688.37	1083.27
688.71	1082.76
689.05	1084.35
689.39	1084.58
689.72	1087.16
690.06	1084.51
690.40	1084.91
690.74	1084.79
691.08	1082.71
691.41	1080.93
691.75	1082.92
692.09	1084.21
692.43	1085.94
692.76	1089.64
693.10	1090.27
693.44	1087.37
693.78	1087.04
694.11	1083.18
694.45	1083.08
694.79	1083.67
695.13	1083.43
695.46	1082.29
695.80	1086.06
696.14	1083.41
696.48	1079.99
696.81	1080.56
697.15	1079.71
697.49	1075.05
697.82	1076.41
698.16	1075.41
698.50	1076.97
698.83	1080.04
699.17	1082.36
699.51	1082.94
699.84	1081.16
700.18	1080.09
700.52	1078.10
700.85	1075.57
701.19	1073.46
701.53	1076.32
701.86	1076.95
702.20	1075.48
702.54	1078.12
702.87	1078.94
703.21	1079.92
703.55	1079.29
703.88	1079.99
704.22	1078.82
704.55	1078.59
704.89	1077.84
705.23	1076.67
705.56	1076.06
705.90	1075.50
706.23	1076.23
706.57	1076.48
706.91	1079.27
707.24	1080.60
707.58	1081.63
707.91	1081.02
708.25	1080.74
708.58	1076.53
708.92	1076.69
709.26	1078.36
709.59	1079.22
709.93	1080.16
710.26	1085.45
710.60	1084.21
710.93	1084.70
711.27	1084.63
711.60	1083.81
711.94	1080.23
712.27	1080.32
712.61	1075.57
712.94	1074.33
713.28	1075.94
713.61	1077.93
713.95	1076.04
714.28	1078.10
714.62	1080.98
714.95	1078.03
715.29	1078.57
715.62	1081.07
715.96	1083.62
716.29	1081.44
716.63	1084.60
716.96	1084.93
717.29	1082.43
717.63	1080.95
717.96	1079.57
718.30	1078.94
718.63	1078.31
718.97	1080.09
719.30	1079.38
719.63	1080.27
719.97	1077.98
720.30	1076.90
720.64	1078.12
720.97	1079.99
721.30	1081.91
721.64	1083.86
721.97	1086.87
722.31	1088.79
722.64	1086.29
722.97	1084.25
723.31	1085.19
723.64	1082.71
723.97	1081.89
724.31	1082.92
724.64	1080.63
724.98	1078.87
725.31	1081.54
725.64	1078.12
725.98	1077.82
726.31	1079.10
726.64	1080.93
726.97	1079.69
727.31	1081.91
727.64	1079.15
727.97	1080.58
728.31	1081.49
728.64	1079.92
728.97	1079.17
729.31	1083.06
729.64	1082.38
729.97	1081.82
730.30	1079.90
730.64	1080.63
730.97	1081.47
731.30	1080.65
731.63	1077.70
731.97	1081.12
732.30	1082.24
732.63	1082.10
732.96	1083.20
733.30	1080.86
733.63	1080.84
733.96	1082.10
734.29	1079.92
734.63	1080.72
734.96	1082.99
735.29	1079.67
735.62	1076.90
735.95	1076.15
736.29	1072.83
736.62	1073.67
736.95	1074.52
737.28	1073.91
737.61	1076.88
737.94	1079.50
738.28	1080.18
738.61	1081.14
738.94	1082.76
739.27	1081.14
739.60	1080.18
739.93	1082.29
740.27	1086.55
740.60	1085.91
740.93	1084.79
741.26	1087.74
741.59	1086.90
741.92	1082.73
742.25	1081.98
742.58	1083.34
742.91	1082.85
743.25	1084.77
743.58	1087.04
743.91	1089.66
744.24	1088.28
744.57	1085.80
744.90	1081.30
745.23	1083.11
745.56	1081.40
745.89	1081.77
746.22	1081.07
746.55	1083.71
746.88	1080.86
747.21	1080.39
747.54	1082.69
747.87	1085.56
748.20	1083.32
748.53	1081.91
748.87	1081.84
749.20	1080.20
749.53	1076.86
749.86	1078.26
750.19	1079.27
750.52	1080.02
750.85	1082.50
751.18	1086.13
751.51	1086.87
751.84	1085.31
752.16	1083.95
752.49	1083.22
752.82	1083.55
753.15	1083.34
753.48	1083.90
753.81	1084.14
754.14	1078.73
754.47	1077.75
754.80	1073.39
755.13	1075.24
755.46	1076.81
755.79	1080.09
756.12	1081.84
756.45	1086.08
756.78	1087.06
757.11	1087.06
757.43	1087.06
757.76	1086.48
758.09	1083.86
758.42	1079.92
758.75	1078.87
759.08	1077.77
759.41	1077.42
759.74	1076.97
760.07	1080.13
760.39	1077.77
760.72	1077.09
761.05	1075.01
761.38	1076.30
761.71	1074.68
762.04	1076.15
762.36	1077.18
762.69	1077.72
763.02	1080.46
763.35	1081.84
763.68	1084.65
