SpectraSuite Data File
++++++++++++++++++++++++++++++++++++
Date: Mon Aug 26 10:22:34 PDT 2019
User: corrico
Dark Spectrum Present: No
Reference Spectrum Present: No
Number of Sampled Component Spectra: 1
Spectrometers: USB2+H06089
Integration Time (usec): 2000 (USB2+H06089)
Spectra Averaged: 20 (USB2+H06089)
Boxcar Smoothing: 2 (USB2+H06089)
Correct for Electrical Dark: No (USB2+H06089)
Strobe/Lamp Enabled: No (USB2+H06089)
Correct for Detector Non-linearity: No (USB2+H06089)
Correct for Stray Light: No (USB2+H06089)
Number of Pixels in Processed Spectrum: 2048
>>>>>Begin Processed Spectral Data<<<<<
339.70	1022.81
340.07	1022.81
340.45	994.33
340.82	973.80
341.19	951.29
341.57	926.95
341.94	915.24
342.31	907.99
342.69	902.16
343.06	899.30
343.43	898.06
343.81	897.90
344.18	898.18
344.55	900.68
344.93	905.25
345.30	911.24
345.67	919.60
346.04	922.83
346.42	933.69
346.79	942.67
347.16	952.72
347.54	961.68
347.91	977.43
348.28	988.13
348.65	997.23
349.03	1005.38
349.40	1013.24
349.77	1020.36
350.14	1024.45
350.52	1035.27
350.89	1044.79
351.26	1051.72
351.63	1057.90
352.01	1062.23
352.38	1060.73
352.75	1061.74
353.12	1065.01
353.50	1064.52
353.87	1068.52
354.24	1073.44
354.61	1075.20
354.98	1075.52
355.36	1079.97
355.73	1080.56
356.10	1083.83
356.47	1082.73
356.84	1084.93
357.22	1085.28
357.59	1089.57
357.96	1084.74
358.33	1088.37
358.70	1088.33
359.08	1083.64
359.45	1081.89
359.82	1084.07
360.19	1084.39
360.56	1083.53
360.94	1085.84
361.31	1081.58
361.68	1076.18
362.05	1072.62
362.42	1071.12
362.79	1070.96
363.16	1071.85
363.54	1074.26
363.91	1074.14
364.28	1072.01
364.65	1070.28
365.02	1073.79
365.39	1073.51
365.76	1072.43
366.14	1073.91
366.51	1076.23
366.88	1073.70
367.25	1076.83
367.62	1078.71
367.99	1076.48
368.36	1075.43
368.73	1076.72
369.10	1074.05
369.48	1073.42
369.85	1077.42
370.22	1077.42
370.59	1077.28
370.96	1078.19
371.33	1078.57
371.70	1073.67
372.07	1073.21
372.44	1070.68
372.81	1070.07
373.18	1069.51
373.55	1072.90
373.93	1073.65
374.30	1076.65
374.67	1075.15
375.04	1074.96
375.41	1074.82
375.78	1077.61
376.15	1078.57
376.52	1081.56
376.89	1082.12
377.26	1080.74
377.63	1078.28
378.00	1076.37
378.37	1078.99
378.74	1076.51
379.11	1077.75
379.48	1076.95
379.85	1073.81
380.22	1070.77
380.59	1074.05
380.96	1073.00
381.33	1075.55
381.70	1078.21
382.07	1077.49
382.44	1079.17
382.81	1079.78
383.18	1074.82
383.55	1071.75
383.92	1073.53
384.29	1070.21
384.66	1071.66
385.03	1077.04
385.40	1079.01
385.77	1079.08
386.14	1080.95
386.51	1082.64
386.88	1082.76
387.25	1086.01
387.62	1085.99
387.99	1086.31
388.36	1085.35
388.73	1083.29
389.10	1082.08
389.46	1081.19
389.83	1083.79
390.20	1083.06
390.57	1082.31
390.94	1081.73
391.31	1083.81
391.68	1079.74
392.05	1079.55
392.42	1081.05
392.79	1081.09
393.16	1080.79
393.53	1084.53
393.89	1085.49
394.26	1083.95
394.63	1086.15
395.00	1083.76
395.37	1081.26
395.74	1082.08
396.11	1083.11
396.48	1082.15
396.84	1083.60
397.21	1084.49
397.58	1083.67
397.95	1084.63
398.32	1083.53
398.69	1085.73
399.06	1086.29
399.42	1086.13
399.79	1084.86
400.16	1085.45
400.53	1084.91
400.90	1085.35
401.27	1087.37
401.64	1090.20
402.00	1089.80
402.37	1090.13
402.74	1089.52
403.11	1087.88
403.48	1086.20
403.84	1086.17
404.21	1086.99
404.58	1085.68
404.95	1087.90
405.32	1087.23
405.68	1088.58
406.05	1087.16
406.42	1089.52
406.79	1088.04
407.16	1094.43
407.52	1097.10
407.89	1097.17
408.26	1100.03
408.63	1102.32
408.99	1098.60
409.36	1096.89
409.73	1096.33
410.10	1094.83
410.47	1093.50
410.83	1091.11
411.20	1091.44
411.57	1091.77
411.94	1090.62
412.30	1091.06
412.67	1096.05
413.04	1095.14
413.40	1096.73
413.77	1098.41
414.14	1099.35
414.51	1096.33
414.87	1098.11
415.24	1097.13
415.61	1098.60
415.97	1098.65
416.34	1100.68
416.71	1100.71
417.08	1103.82
417.44	1101.39
417.81	1100.99
418.18	1100.80
418.54	1101.69
418.91	1101.03
419.28	1103.77
419.64	1104.78
420.01	1106.49
420.38	1108.99
420.74	1110.49
421.11	1112.11
421.48	1116.32
421.84	1118.57
422.21	1118.26
422.58	1120.37
422.94	1121.84
423.31	1122.66
423.68	1125.35
424.04	1128.68
424.41	1135.42
424.77	1141.46
425.14	1142.49
425.51	1147.05
425.87	1151.66
426.24	1152.04
426.61	1153.95
426.97	1162.03
427.34	1167.55
427.70	1175.72
428.07	1182.44
428.44	1189.88
428.80	1197.63
429.17	1205.54
429.53	1212.05
429.90	1222.39
430.27	1231.54
430.63	1242.15
431.00	1252.96
431.36	1265.39
431.73	1278.03
432.09	1292.30
432.46	1307.21
432.83	1318.99
433.19	1331.84
433.56	1350.09
433.92	1367.88
434.29	1386.56
434.65	1411.34
435.02	1440.20
435.38	1466.32
435.75	1494.34
436.11	1525.61
436.48	1557.70
436.84	1593.44
437.21	1627.84
437.57	1665.48
437.94	1705.48
438.30	1747.51
438.67	1788.01
439.03	1840.29
439.40	1896.11
439.76	1952.92
440.13	2015.18
440.49	2082.02
440.86	2143.02
441.22	2213.84
441.59	2290.89
441.95	2371.15
442.32	2455.43
442.68	2555.91
443.05	2644.15
443.41	2740.79
443.78	2837.15
444.14	2948.19
444.51	3052.90
444.87	3195.39
445.24	3331.89
445.60	3484.54
445.96	3633.40
446.33	3807.79
446.69	3972.10
447.06	4148.55
447.42	4336.15
447.79	4529.90
448.15	4748.64
448.51	4970.99
448.88	5232.92
449.24	5474.12
449.61	5749.03
449.97	6016.58
450.33	6304.14
450.70	6570.05
451.06	6898.78
451.43	7206.39
451.79	7570.49
452.15	7974.44
452.52	8425.34
452.88	8884.91
453.24	9420.00
453.61	9997.57
453.97	10558.62
454.34	11102.10
454.70	11754.19
455.06	12395.71
455.43	13018.15
455.79	13610.96
456.15	14319.70
456.52	14977.06
456.88	15744.36
457.24	16493.19
457.61	17349.13
457.97	18120.26
458.33	18890.51
458.70	19672.44
459.06	20409.47
459.42	21228.73
459.79	22002.70
460.15	22905.56
460.51	23756.69
460.88	24686.36
461.24	25494.00
461.60	26458.73
461.96	27309.89
462.33	28139.07
462.69	28913.13
463.05	29746.97
463.42	30454.91
463.78	31127.60
464.14	31669.46
464.50	32289.73
464.87	32768.23
465.23	33138.17
465.59	33476.07
465.95	33775.94
466.32	34005.62
466.68	34262.49
467.04	34391.88
467.40	34524.59
467.77	34698.77
468.13	34692.68
468.49	34554.43
468.85	34452.19
469.22	34274.27
469.58	33905.33
469.94	33626.43
470.30	33321.04
470.66	32917.62
471.03	32328.35
471.39	31919.76
471.75	31271.69
472.11	30651.37
472.47	30263.13
472.84	29934.23
473.20	29438.77
473.56	29174.05
473.92	28745.62
474.28	28254.29
474.65	27788.95
475.01	27338.93
475.37	26781.51
475.73	26339.05
476.09	25802.70
476.45	25264.75
476.81	24748.75
477.18	24219.47
477.54	23784.20
477.90	23438.71
478.26	23046.23
478.62	22711.58
478.98	22432.89
479.34	22115.65
479.71	21727.10
480.07	21354.86
480.43	21000.76
480.79	20603.81
481.15	20227.96
481.51	19900.55
481.87	19658.18
482.23	19376.24
482.59	19129.20
482.96	18848.94
483.32	18563.49
483.68	18193.10
484.04	17858.26
484.40	17500.75
484.76	17148.73
485.12	16784.89
485.48	16483.97
485.84	16123.62
486.20	15763.37
486.56	15405.17
486.92	15091.03
487.28	14726.18
487.64	14372.01
488.00	14047.26
488.37	13726.59
488.73	13365.16
489.09	13011.44
489.45	12701.62
489.81	12389.20
490.17	12081.33
490.53	11783.75
490.89	11477.89
491.25	11176.78
491.61	10856.83
491.97	10545.56
492.33	10223.46
492.69	9936.96
493.05	9640.76
493.41	9368.60
493.77	9092.98
494.13	8847.41
494.49	8602.19
494.85	8354.96
495.21	8132.61
495.57	7919.62
495.93	7705.70
496.29	7500.13
496.64	7322.69
497.00	7125.60
497.36	6940.27
497.72	6759.49
498.08	6592.21
498.44	6412.58
498.80	6249.37
499.16	6081.95
499.52	5922.16
499.88	5779.04
500.24	5644.08
500.60	5515.54
500.96	5404.27
501.32	5295.18
501.68	5177.97
502.03	5067.99
502.39	4945.04
502.75	4808.56
503.11	4684.86
503.47	4567.46
503.83	4434.89
504.19	4316.35
504.55	4211.00
504.91	4110.87
505.26	4017.20
505.62	3932.31
505.98	3845.64
506.34	3756.44
506.70	3664.62
507.06	3565.92
507.42	3479.00
507.78	3402.95
508.13	3331.73
508.49	3260.69
508.85	3196.19
509.21	3126.98
509.57	3057.28
509.93	2992.35
510.28	2924.15
510.64	2862.83
511.00	2805.86
511.36	2749.15
511.72	2692.04
512.07	2644.52
512.43	2593.69
512.79	2541.10
513.15	2491.50
513.51	2442.54
513.86	2394.98
514.22	2348.59
514.58	2311.16
514.94	2273.01
515.30	2240.01
515.65	2209.54
516.01	2184.56
516.37	2156.90
516.73	2130.82
517.08	2102.81
517.44	2071.54
517.80	2044.83
518.16	2009.28
518.51	1980.00
518.87	1947.68
519.23	1917.51
519.59	1887.01
519.94	1866.39
520.30	1839.71
520.66	1816.96
521.01	1795.17
521.37	1772.42
521.73	1751.63
522.09	1735.46
522.44	1722.40
522.80	1703.89
523.16	1686.22
523.51	1665.29
523.87	1646.17
524.23	1623.84
524.58	1606.97
524.94	1589.90
525.30	1573.64
525.65	1557.72
526.01	1542.09
526.37	1526.71
526.72	1512.59
527.08	1499.04
527.44	1486.66
527.79	1473.11
528.15	1460.94
528.51	1447.90
528.86	1435.12
529.22	1424.38
529.58	1415.35
529.93	1407.06
530.29	1397.35
530.65	1389.37
531.00	1379.37
531.36	1369.19
531.71	1360.09
532.07	1353.44
532.43	1350.14
532.78	1342.30
533.14	1335.14
533.49	1327.93
533.85	1320.34
534.21	1308.83
534.56	1301.76
534.92	1295.18
535.27	1290.43
535.63	1286.12
535.98	1282.19
536.34	1276.11
536.69	1270.68
537.05	1261.43
537.41	1249.45
537.76	1243.76
538.12	1237.46
538.47	1235.57
538.83	1235.22
539.18	1235.90
539.54	1229.81
539.89	1230.19
540.25	1221.99
540.60	1217.85
540.96	1212.16
541.31	1210.48
541.67	1204.70
542.02	1204.25
542.38	1201.42
542.73	1201.61
543.09	1199.78
543.44	1199.90
543.80	1195.87
544.15	1190.82
544.51	1185.57
544.86	1182.51
545.22	1177.64
545.57	1175.98
545.93	1174.93
546.28	1169.43
546.64	1165.12
546.99	1163.34
547.35	1161.75
547.70	1160.37
548.05	1161.16
548.41	1160.16
548.76	1157.89
549.12	1154.24
549.47	1150.91
549.83	1148.29
550.18	1145.41
550.53	1143.09
550.89	1141.74
551.24	1141.69
551.60	1143.42
551.95	1143.09
552.30	1141.81
552.66	1139.49
553.01	1136.35
553.37	1131.70
553.72	1130.85
554.07	1128.82
554.43	1127.69
554.78	1125.56
555.13	1127.60
555.49	1125.75
555.84	1124.25
556.19	1123.69
556.55	1124.56
556.90	1121.42
557.26	1119.76
557.61	1121.75
557.96	1124.51
558.32	1125.03
558.67	1128.37
559.02	1131.06
559.37	1128.40
559.73	1124.28
560.08	1121.80
560.43	1114.49
560.79	1110.05
561.14	1108.22
561.49	1108.48
561.85	1106.37
562.20	1108.57
562.55	1108.48
562.90	1108.48
563.26	1110.26
563.61	1113.56
563.96	1116.34
564.32	1116.37
564.67	1117.70
565.02	1113.46
565.37	1111.22
565.73	1106.28
566.08	1106.21
566.43	1104.94
566.78	1104.10
567.14	1103.52
567.49	1103.45
567.84	1102.11
568.19	1099.12
568.54	1098.20
568.90	1094.69
569.25	1096.75
569.60	1095.72
569.95	1094.43
570.31	1096.00
570.66	1096.70
571.01	1092.16
571.36	1090.48
571.71	1090.78
572.06	1090.24
572.42	1090.27
572.77	1094.08
573.12	1095.72
573.47	1098.34
573.82	1097.71
574.18	1097.36
574.53	1092.02
574.88	1090.29
575.23	1091.81
575.58	1090.10
575.93	1088.49
576.28	1090.13
576.64	1091.09
576.99	1087.16
577.34	1089.24
577.69	1088.19
578.04	1087.53
578.39	1090.20
578.74	1092.37
579.09	1088.37
579.44	1091.93
579.80	1092.45
580.15	1089.52
580.50	1087.27
580.85	1088.82
581.20	1087.18
581.55	1086.66
581.90	1088.77
582.25	1089.40
582.60	1095.42
582.95	1095.46
583.30	1093.50
583.65	1090.76
584.00	1089.96
584.35	1084.70
584.71	1085.42
585.06	1088.33
585.41	1087.09
585.76	1089.07
586.11	1088.68
586.46	1086.20
586.81	1085.75
587.16	1086.10
587.51	1083.41
587.86	1083.48
588.21	1084.96
588.56	1082.57
588.91	1083.83
589.26	1082.19
589.61	1081.58
589.96	1082.12
590.31	1084.91
590.66	1085.10
591.01	1087.65
591.36	1088.42
591.71	1090.06
592.06	1090.15
592.41	1091.42
592.76	1088.47
593.10	1088.77
593.45	1088.98
593.80	1089.75
594.15	1088.89
594.50	1091.84
594.85	1090.08
595.20	1087.44
595.55	1087.67
595.90	1087.27
596.25	1088.77
596.60	1091.77
596.95	1087.76
597.30	1086.36
597.64	1097.80
597.99	1098.16
598.34	1097.27
598.69	1099.30
599.04	1097.62
599.39	1084.56
599.74	1082.97
600.09	1083.79
600.44	1088.89
600.78	1089.85
601.13	1091.88
601.48	1091.49
601.83	1089.36
602.18	1082.47
602.53	1081.28
602.88	1080.93
603.22	1079.99
603.57	1081.73
603.92	1085.87
604.27	1087.23
604.62	1084.70
604.97	1082.83
605.31	1083.79
605.66	1081.70
606.01	1083.04
606.36	1084.39
606.71	1086.03
607.05	1082.12
607.40	1084.86
607.75	1083.46
608.10	1083.18
608.44	1084.09
608.79	1085.66
609.14	1083.57
609.49	1081.16
609.84	1081.33
610.18	1078.94
610.53	1076.93
610.88	1076.30
611.23	1077.23
611.57	1078.75
611.92	1082.47
612.27	1083.57
612.62	1083.36
612.96	1085.33
613.31	1083.93
613.66	1082.05
614.00	1083.43
614.35	1084.77
614.70	1085.75
615.05	1087.13
615.39	1085.47
615.74	1084.58
616.09	1085.12
616.43	1084.28
616.78	1082.99
617.13	1083.39
617.47	1082.61
617.82	1081.75
618.17	1079.08
618.51	1080.23
618.86	1081.21
619.21	1084.32
619.55	1087.04
619.90	1088.00
620.25	1089.82
620.59	1087.25
620.94	1085.68
621.29	1083.79
621.63	1086.69
621.98	1085.75
622.32	1089.31
622.67	1088.79
623.02	1088.63
623.36	1087.16
623.71	1087.30
624.05	1088.07
624.40	1085.59
624.75	1085.24
625.09	1083.27
625.44	1081.05
625.78	1078.59
626.13	1080.39
626.48	1079.71
626.82	1081.70
627.17	1077.89
627.51	1076.27
627.86	1076.13
628.20	1079.10
628.55	1084.02
628.89	1086.36
629.24	1089.14
629.58	1087.69
629.93	1087.27
630.28	1082.29
630.62	1082.08
630.97	1078.94
631.31	1083.06
631.66	1081.73
632.00	1083.20
632.35	1084.79
632.69	1088.68
633.04	1086.73
633.38	1086.97
633.73	1086.66
634.07	1085.91
634.42	1085.89
634.76	1086.55
635.11	1086.59
635.45	1084.16
635.79	1084.46
636.14	1082.83
636.48	1080.06
636.83	1079.10
637.17	1080.77
637.52	1080.91
637.86	1081.44
638.21	1084.35
638.55	1084.39
638.89	1083.18
639.24	1086.43
639.58	1086.15
639.93	1085.42
640.27	1082.54
640.61	1081.42
640.96	1078.00
641.30	1076.55
641.65	1078.89
641.99	1083.43
642.33	1084.16
642.68	1083.90
643.02	1081.54
643.37	1078.52
643.71	1075.36
644.05	1074.26
644.40	1076.81
644.74	1084.46
645.08	1084.67
645.43	1085.99
645.77	1086.08
646.11	1085.73
646.46	1082.92
646.80	1079.10
647.14	1078.28
647.49	1079.92
647.83	1077.33
648.17	1079.31
648.52	1081.84
648.86	1081.49
649.20	1082.61
649.55	1081.42
649.89	1080.23
650.23	1080.46
650.57	1080.53
650.92	1078.61
651.26	1080.46
651.60	1079.95
651.95	1080.09
652.29	1080.27
652.63	1079.57
652.97	1079.01
653.32	1078.61
653.66	1079.74
654.00	1082.47
654.34	1084.56
654.69	1086.13
655.03	1087.18
655.37	1087.32
655.71	1088.58
656.05	1088.49
656.40	1087.88
656.74	1090.03
657.08	1090.10
657.42	1088.21
657.76	1088.84
658.11	1086.99
658.45	1082.31
658.79	1079.81
659.13	1078.87
659.47	1076.41
659.82	1077.30
660.16	1076.20
660.50	1078.12
660.84	1077.49
661.18	1078.40
661.52	1080.41
661.87	1082.92
662.21	1084.32
662.55	1085.96
662.89	1087.41
663.23	1084.14
663.57	1082.15
663.91	1079.17
664.25	1077.28
664.60	1076.74
664.94	1076.27
665.28	1076.93
665.62	1077.04
665.96	1076.37
666.30	1075.62
666.64	1074.61
666.98	1074.70
667.32	1077.51
667.66	1079.03
668.01	1079.81
668.35	1084.00
668.69	1082.66
669.03	1081.56
669.37	1083.39
669.71	1081.19
670.05	1081.37
670.39	1085.38
670.73	1086.73
671.07	1084.77
671.41	1084.56
671.75	1082.29
672.09	1079.17
672.43	1074.52
672.77	1070.77
673.11	1075.17
673.45	1074.42
673.79	1076.37
674.13	1078.10
674.47	1080.41
674.81	1078.17
675.15	1080.20
675.49	1076.74
675.83	1077.61
676.17	1079.27
676.51	1079.41
676.85	1080.06
677.19	1081.14
677.53	1082.24
677.87	1081.28
678.21	1077.49
678.55	1077.35
678.89	1079.17
679.23	1079.71
679.57	1080.86
679.90	1084.42
680.24	1083.32
680.58	1083.27
680.92	1082.01
681.26	1082.97
681.60	1083.79
681.94	1081.82
682.28	1080.32
682.62	1079.99
682.96	1077.35
683.29	1076.46
683.63	1080.48
683.97	1079.76
684.31	1080.27
684.65	1082.15
684.99	1081.80
685.33	1079.01
685.67	1079.38
686.00	1080.46
686.34	1078.21
686.68	1080.74
687.02	1081.14
687.36	1079.69
687.70	1078.71
688.03	1080.67
688.37	1079.69
688.71	1080.18
689.05	1080.34
689.39	1080.23
689.72	1078.94
690.06	1076.11
690.40	1074.75
690.74	1076.51
691.08	1077.28
691.41	1075.41
691.75	1076.23
692.09	1080.65
692.43	1079.81
692.76	1080.51
693.10	1082.31
693.44	1085.96
693.78	1084.21
694.11	1088.42
694.45	1086.03
694.79	1084.63
695.13	1080.60
695.46	1075.78
695.80	1070.96
696.14	1069.27
696.48	1068.67
696.81	1068.76
697.15	1072.81
697.49	1074.61
697.82	1078.12
698.16	1079.55
698.50	1081.12
698.83	1080.81
699.17	1080.30
699.51	1080.18
699.84	1076.72
700.18	1074.45
700.52	1073.79
700.85	1073.88
701.19	1071.33
701.53	1076.86
701.86	1078.40
702.20	1078.17
702.54	1078.31
702.87	1080.41
703.21	1079.55
703.55	1080.93
703.88	1080.70
704.22	1080.74
704.55	1080.88
704.89	1078.71
705.23	1075.45
705.56	1075.57
705.90	1075.50
706.23	1071.92
706.57	1075.57
706.91	1077.25
707.24	1077.75
707.58	1079.01
707.91	1083.83
708.25	1080.39
708.58	1077.56
708.92	1077.42
709.26	1077.42
709.59	1076.11
709.93	1076.04
710.26	1079.60
710.60	1079.01
710.93	1078.71
711.27	1077.72
711.60	1080.41
711.94	1080.20
712.27	1080.34
712.61	1079.88
712.94	1079.92
713.28	1080.95
713.61	1080.30
713.95	1079.15
714.28	1078.87
714.62	1078.89
714.95	1075.38
715.29	1076.32
715.62	1079.48
715.96	1078.19
716.29	1079.10
716.63	1082.54
716.96	1078.52
717.29	1076.44
717.63	1077.61
717.96	1077.21
718.30	1075.08
718.63	1079.36
718.97	1079.60
719.30	1078.99
719.63	1075.59
719.97	1075.08
720.30	1074.05
720.64	1074.56
720.97	1073.70
721.30	1076.18
721.64	1078.19
721.97	1076.93
722.31	1079.95
722.64	1084.49
722.97	1084.89
723.31	1082.36
723.64	1080.20
723.97	1075.59
724.31	1076.32
724.64	1077.07
724.98	1079.83
725.31	1084.60
725.64	1087.44
725.98	1083.43
726.31	1080.67
726.64	1077.28
726.97	1074.28
727.31	1071.99
727.64	1072.53
727.97	1075.78
728.31	1078.57
728.64	1081.09
728.97	1084.28
729.31	1085.63
729.64	1083.81
729.97	1083.88
730.30	1081.89
730.64	1078.21
730.97	1077.30
731.30	1080.67
731.63	1082.15
731.97	1082.19
732.30	1084.35
732.63	1082.76
732.96	1079.90
733.30	1076.55
733.63	1077.04
733.96	1074.56
734.29	1076.04
734.63	1075.97
734.96	1077.00
735.29	1075.94
735.62	1077.25
735.95	1076.55
736.29	1078.57
736.62	1077.47
736.95	1078.50
737.28	1079.31
737.61	1076.88
737.94	1075.99
738.28	1077.09
738.61	1078.17
738.94	1077.63
739.27	1080.04
739.60	1079.13
739.93	1080.72
740.27	1084.44
740.60	1086.15
740.93	1087.16
741.26	1087.09
741.59	1084.91
741.92	1079.99
742.25	1079.08
742.58	1077.40
742.91	1076.18
743.25	1078.33
743.58	1081.63
743.91	1080.63
744.24	1081.00
744.57	1080.58
744.90	1077.35
745.23	1072.36
745.56	1073.11
745.89	1072.95
746.22	1073.84
746.55	1075.43
746.88	1076.90
747.21	1077.96
747.54	1079.10
747.87	1077.56
748.20	1077.44
748.53	1078.85
748.87	1076.23
749.20	1075.10
749.53	1077.42
749.86	1075.59
750.19	1075.52
750.52	1078.26
750.85	1078.59
751.18	1078.19
751.51	1080.41
751.84	1078.03
752.16	1079.36
752.49	1080.86
752.82	1082.73
753.15	1082.33
753.48	1083.86
753.81	1082.36
754.14	1080.30
754.47	1080.02
754.80	1079.22
755.13	1077.70
755.46	1076.25
755.79	1078.21
756.12	1078.66
756.45	1079.41
756.78	1080.77
757.11	1080.37
757.43	1078.52
757.76	1077.72
758.09	1075.76
758.42	1077.61
758.75	1075.48
759.08	1075.36
759.41	1072.48
759.74	1073.37
760.07	1071.50
760.39	1076.76
760.72	1074.87
761.05	1077.00
761.38	1077.51
761.71	1076.88
762.04	1072.95
762.36	1074.66
762.69	1075.34
763.02	1077.40
763.35	1079.01
763.68	1082.01
764.01	1081.09
