SpectraSuite Data File
++++++++++++++++++++++++++++++++++++
Date: Mon Aug 26 10:22:06 PDT 2019
User: corrico
Dark Spectrum Present: No
Reference Spectrum Present: No
Number of Sampled Component Spectra: 1
Spectrometers: USB2+H06089
Integration Time (usec): 2000 (USB2+H06089)
Spectra Averaged: 20 (USB2+H06089)
Boxcar Smoothing: 2 (USB2+H06089)
Correct for Electrical Dark: No (USB2+H06089)
Strobe/Lamp Enabled: No (USB2+H06089)
Correct for Detector Non-linearity: No (USB2+H06089)
Correct for Stray Light: No (USB2+H06089)
Number of Pixels in Processed Spectrum: 2048
>>>>>Begin Processed Spectral Data<<<<<
339.70	1022.58
340.07	1022.58
340.45	989.74
340.82	969.92
341.19	947.96
341.57	924.49
341.94	913.23
342.31	906.09
342.69	898.18
343.06	896.68
343.43	895.23
343.81	897.01
344.18	900.97
344.55	908.36
344.93	911.29
345.30	918.00
345.67	929.31
346.04	936.42
346.42	944.24
346.79	953.58
347.16	962.76
347.54	967.20
347.91	975.70
348.28	984.01
348.65	993.00
349.03	1001.63
349.40	1009.50
349.77	1016.24
350.14	1024.29
350.52	1033.30
350.89	1040.30
351.26	1047.74
351.63	1053.83
352.01	1058.65
352.38	1061.20
352.75	1066.79
353.12	1070.68
353.50	1074.77
353.87	1077.75
354.24	1079.88
354.61	1078.47
354.98	1078.17
355.36	1079.92
355.73	1082.12
356.10	1083.34
356.47	1085.26
356.84	1088.68
357.22	1087.37
357.59	1087.90
357.96	1088.82
358.33	1092.94
358.70	1092.16
359.08	1092.54
359.45	1091.46
359.82	1089.78
360.19	1084.86
360.56	1082.90
360.94	1083.71
361.31	1080.04
361.68	1078.24
362.05	1076.25
362.42	1075.31
362.79	1074.17
363.16	1076.08
363.54	1077.02
363.91	1077.14
364.28	1079.92
364.65	1078.61
365.02	1079.24
365.39	1080.51
365.76	1079.20
366.14	1078.31
366.51	1079.74
366.88	1077.09
367.25	1078.64
367.62	1083.93
367.99	1083.46
368.36	1081.80
368.73	1083.39
369.10	1083.25
369.48	1081.35
369.85	1081.28
370.22	1078.82
370.59	1083.08
370.96	1078.68
371.33	1078.33
371.70	1079.15
372.07	1082.22
372.44	1075.85
372.81	1077.98
373.18	1075.45
373.55	1075.05
373.93	1075.59
374.30	1074.33
374.67	1073.49
375.04	1075.71
375.41	1075.80
375.78	1078.43
376.15	1080.18
376.52	1080.91
376.89	1077.93
377.26	1074.75
377.63	1076.81
378.00	1077.77
378.37	1078.59
378.74	1080.93
379.11	1083.41
379.48	1079.27
379.85	1079.67
380.22	1083.97
380.59	1085.03
380.96	1086.31
381.33	1088.89
381.70	1088.70
382.07	1082.15
382.44	1084.00
382.81	1085.70
383.18	1082.24
383.55	1079.81
383.92	1078.82
384.29	1076.32
384.66	1076.48
385.03	1074.28
385.40	1078.07
385.77	1079.36
386.14	1083.04
386.51	1079.62
386.88	1084.42
387.25	1083.83
387.62	1086.01
387.99	1082.59
388.36	1084.74
388.73	1086.24
389.10	1088.44
389.46	1091.16
389.83	1092.47
390.20	1091.91
390.57	1091.06
390.94	1089.94
391.31	1086.80
391.68	1083.79
392.05	1081.70
392.42	1080.16
392.79	1082.17
393.16	1083.74
393.53	1087.53
393.89	1088.30
394.26	1089.94
394.63	1085.21
395.00	1082.94
395.37	1084.74
395.74	1085.87
396.11	1086.01
396.48	1090.20
396.84	1093.90
397.21	1092.96
397.58	1092.42
397.95	1091.51
398.32	1089.87
398.69	1087.72
399.06	1086.52
399.42	1089.26
399.79	1087.39
400.16	1090.97
400.53	1093.26
400.90	1096.00
401.27	1095.96
401.64	1100.57
402.00	1100.80
402.37	1101.08
402.74	1099.28
403.11	1097.69
403.48	1096.14
403.84	1094.97
404.21	1094.18
404.58	1094.76
404.95	1098.76
405.32	1099.09
405.68	1096.00
406.05	1096.12
406.42	1094.08
406.79	1092.19
407.16	1094.74
407.52	1096.24
407.89	1095.49
408.26	1096.87
408.63	1093.24
408.99	1092.09
409.36	1095.56
409.73	1096.96
410.10	1099.96
410.47	1103.87
410.83	1102.06
411.20	1100.61
411.57	1101.39
411.94	1099.82
412.30	1099.56
412.67	1101.71
413.04	1103.23
413.40	1105.13
413.77	1104.80
414.14	1106.70
414.51	1107.78
414.87	1104.66
415.24	1101.90
415.61	1102.04
415.97	1101.46
416.34	1103.09
416.71	1107.40
417.08	1111.05
417.44	1112.83
417.81	1112.95
418.18	1114.14
418.54	1113.95
418.91	1114.40
419.28	1116.95
419.64	1120.74
420.01	1120.67
420.38	1125.14
420.74	1126.80
421.11	1128.04
421.48	1130.39
421.84	1127.58
422.21	1125.96
422.58	1129.33
422.94	1136.07
423.31	1135.65
423.68	1142.04
424.04	1147.89
424.41	1148.43
424.77	1150.63
425.14	1156.74
425.51	1161.07
425.87	1165.42
426.24	1172.91
426.61	1176.52
426.97	1183.94
427.34	1192.27
427.70	1198.71
428.07	1206.27
428.44	1213.03
428.80	1220.52
429.17	1228.76
429.53	1232.62
429.90	1245.47
430.27	1258.25
430.63	1268.94
431.00	1284.49
431.36	1309.25
431.73	1321.72
432.09	1337.59
432.46	1359.55
432.83	1377.85
433.19	1393.60
433.56	1418.29
433.92	1445.96
434.29	1470.25
434.65	1502.13
435.02	1536.56
435.38	1567.48
435.75	1595.47
436.11	1633.34
436.48	1671.73
436.84	1714.04
437.21	1763.34
437.57	1817.00
437.94	1867.68
438.30	1917.81
438.67	1977.47
439.03	2040.46
439.40	2110.44
439.76	2179.44
440.13	2256.11
440.49	2335.41
440.86	2413.28
441.22	2495.57
441.59	2592.73
441.95	2699.06
442.32	2800.83
442.68	2917.20
443.05	3038.62
443.41	3161.71
443.78	3288.13
444.14	3430.71
444.51	3570.89
444.87	3739.12
445.24	3911.81
445.60	4093.95
445.96	4281.73
446.33	4491.46
446.69	4695.54
447.06	4907.59
447.42	5135.77
447.79	5366.40
448.15	5638.51
448.51	5916.71
448.88	6244.27
449.24	6548.23
449.61	6911.06
449.97	7268.67
450.33	7649.74
450.70	8008.00
451.06	8448.73
451.43	8855.74
451.79	9310.46
452.15	9796.90
452.52	10340.70
452.88	10890.33
453.24	11526.58
453.61	12253.17
453.97	12968.42
454.34	13674.06
454.70	14513.73
455.06	15328.22
455.43	16076.23
455.79	16790.75
456.15	17616.42
456.52	18349.05
456.88	19270.57
457.24	20199.38
457.61	21309.81
457.97	22377.21
458.33	23491.02
458.70	24531.55
459.06	25515.75
459.42	26550.19
459.79	27494.44
460.15	28552.03
460.51	29566.86
460.88	30692.69
461.24	31678.71
461.60	32822.20
461.96	33885.85
462.33	34957.94
462.69	36011.48
463.05	37173.98
463.42	38222.35
463.78	39197.54
464.14	39952.48
464.50	40682.91
464.87	41169.09
465.23	41478.76
465.59	41854.47
465.95	42164.21
466.32	42405.17
466.68	42699.35
467.04	42901.01
467.40	42942.65
467.77	43072.57
468.13	43009.50
468.49	42815.05
468.85	42697.92
469.22	42558.71
469.58	42289.76
469.94	42132.94
470.30	41940.86
470.66	41567.14
471.03	41045.76
471.39	40691.66
471.75	39965.79
472.11	39229.93
472.47	38755.29
472.84	38219.52
473.20	37501.47
473.56	37117.43
473.92	36568.46
474.28	35910.61
474.65	35275.20
475.01	34575.99
475.37	33743.06
475.73	33040.94
476.09	32325.30
476.45	31662.81
476.81	31108.18
477.18	30536.08
477.54	30050.11
477.90	29610.70
478.26	29028.66
478.62	28491.76
478.98	28057.50
479.34	27622.04
479.71	27040.61
480.07	26613.41
480.43	26160.31
480.79	25673.90
481.15	25176.79
481.51	24785.69
481.87	24458.29
482.23	24093.33
482.59	23768.77
482.96	23437.09
483.32	23151.32
483.68	22749.84
484.04	22415.50
484.40	22002.16
484.76	21587.56
485.12	21121.13
485.48	20690.92
485.84	20191.94
486.20	19744.85
486.56	19282.69
486.92	18894.30
487.28	18488.62
487.64	18065.00
488.00	17680.15
488.37	17281.02
488.73	16818.93
489.09	16328.37
489.45	15897.83
489.81	15424.39
490.17	15008.03
490.53	14613.53
490.89	14213.02
491.25	13815.71
491.61	13415.76
491.97	13008.60
492.33	12600.09
492.69	12246.57
493.05	11911.48
493.41	11598.52
493.77	11285.57
494.13	10978.31
494.49	10675.49
494.85	10379.67
495.21	10092.83
495.57	9818.64
495.93	9545.03
496.29	9295.67
496.64	9058.11
497.00	8810.22
497.36	8549.84
497.72	8317.07
498.08	8090.95
498.44	7851.75
498.80	7639.74
499.16	7436.96
499.52	7234.03
499.88	7042.88
500.24	6877.15
500.60	6710.27
500.96	6562.65
501.32	6409.63
501.68	6248.43
502.03	6068.10
502.39	5904.14
502.75	5731.15
503.11	5570.12
503.47	5430.28
503.83	5299.23
504.19	5164.58
504.55	5040.79
504.91	4932.02
505.26	4808.35
505.62	4688.56
505.98	4577.50
506.34	4465.37
506.70	4334.81
507.06	4223.57
507.42	4122.74
507.78	4022.80
508.13	3926.81
508.49	3852.03
508.85	3779.36
509.21	3694.30
509.57	3606.86
509.93	3520.82
510.28	3429.21
510.64	3339.08
511.00	3257.82
511.36	3188.84
511.72	3122.11
512.07	3057.98
512.43	2995.96
512.79	2941.33
513.15	2875.98
513.51	2812.39
513.86	2758.39
514.22	2707.81
514.58	2650.35
514.94	2606.70
515.30	2566.14
515.65	2522.70
516.01	2478.84
516.37	2438.16
516.73	2398.37
517.08	2359.96
517.44	2318.28
517.80	2276.64
518.16	2240.69
518.51	2201.62
518.87	2162.80
519.23	2131.01
519.59	2097.75
519.94	2067.14
520.30	2041.02
520.66	2011.36
521.01	1981.54
521.37	1958.61
521.73	1931.90
522.09	1906.58
522.44	1884.01
522.80	1859.04
523.16	1835.21
523.51	1811.57
523.87	1788.26
524.23	1767.81
524.58	1743.98
524.94	1719.47
525.30	1698.78
525.65	1679.43
526.01	1662.86
526.37	1650.78
526.72	1639.31
527.08	1622.65
527.44	1607.41
527.79	1589.55
528.15	1570.55
528.51	1551.10
528.86	1537.05
529.22	1521.00
529.58	1507.80
529.93	1496.89
530.29	1486.29
530.65	1473.32
531.00	1459.84
531.36	1446.08
531.71	1435.26
532.07	1422.93
532.43	1412.84
532.78	1401.11
533.14	1393.88
533.49	1386.86
533.85	1382.23
534.21	1371.09
534.56	1364.37
534.92	1351.87
535.27	1343.00
535.63	1331.48
535.98	1327.76
536.34	1324.77
536.69	1321.49
537.05	1312.85
537.41	1305.57
537.76	1299.18
538.12	1287.60
538.47	1281.05
538.83	1271.71
539.18	1264.24
539.54	1259.70
539.89	1256.73
540.25	1254.50
540.60	1252.40
540.96	1251.23
541.31	1243.62
541.67	1238.71
542.02	1231.75
542.38	1228.29
542.73	1225.83
543.09	1225.69
543.44	1224.26
543.80	1223.16
544.15	1222.88
544.51	1219.33
544.86	1213.03
545.22	1208.75
545.57	1200.86
545.93	1194.07
546.28	1191.50
546.64	1189.48
546.99	1186.25
547.35	1191.03
547.70	1189.58
548.05	1183.61
548.41	1180.03
548.76	1175.16
549.12	1169.66
549.47	1169.61
549.83	1167.97
550.18	1169.75
550.53	1169.68
550.89	1166.52
551.24	1165.70
551.60	1164.16
551.95	1160.95
552.30	1157.93
552.66	1155.50
553.01	1147.42
553.37	1147.03
553.72	1144.80
554.07	1140.71
554.43	1138.72
554.78	1141.69
555.13	1141.32
555.49	1140.75
555.84	1145.20
556.19	1145.06
556.55	1143.47
556.90	1140.82
557.26	1138.06
557.61	1133.78
557.96	1132.09
558.32	1129.99
558.67	1129.71
559.02	1129.57
559.37	1131.20
559.73	1129.85
560.08	1127.76
560.43	1124.81
560.79	1124.58
561.14	1123.78
561.49	1127.41
561.85	1127.72
562.20	1128.30
562.55	1126.34
562.90	1124.58
563.26	1121.42
563.61	1122.17
563.96	1121.28
564.32	1118.66
564.67	1116.60
565.02	1112.81
565.37	1109.72
565.73	1109.41
566.08	1109.69
566.43	1108.36
566.78	1107.17
567.14	1107.87
567.49	1106.63
567.84	1105.93
568.19	1108.15
568.54	1112.67
568.90	1112.62
569.25	1113.35
569.60	1113.04
569.95	1108.85
570.31	1105.93
570.66	1104.03
571.01	1101.41
571.36	1101.67
571.71	1103.31
572.06	1101.32
572.42	1100.57
572.77	1102.30
573.12	1100.66
573.47	1101.85
573.82	1100.22
574.18	1099.89
574.53	1100.52
574.88	1100.92
575.23	1097.69
575.58	1099.89
575.93	1099.72
576.28	1096.42
576.64	1097.50
576.99	1098.76
577.34	1100.82
577.69	1097.95
578.04	1098.46
578.39	1096.38
578.74	1095.79
579.09	1092.02
579.44	1093.76
579.80	1094.43
580.15	1094.90
580.50	1094.04
580.85	1098.34
581.20	1099.44
581.55	1095.23
581.90	1093.97
582.25	1093.87
582.60	1090.10
582.95	1087.69
583.30	1090.50
583.65	1088.42
584.00	1089.57
584.35	1087.51
584.71	1088.63
585.06	1087.67
585.41	1091.09
585.76	1089.12
586.11	1090.39
586.46	1091.09
586.81	1090.85
587.16	1090.06
587.51	1095.02
587.86	1098.13
588.21	1097.99
588.56	1096.73
588.91	1097.43
589.26	1091.88
589.61	1086.64
589.96	1086.50
590.31	1089.33
590.66	1088.09
591.01	1091.72
591.36	1093.50
591.71	1094.11
592.06	1092.82
592.41	1094.18
592.76	1093.85
593.10	1092.09
593.45	1088.77
593.80	1088.61
594.15	1085.96
594.50	1084.79
594.85	1086.13
595.20	1088.37
595.55	1086.41
595.90	1087.20
596.25	1086.59
596.60	1084.65
596.95	1083.60
597.30	1085.24
597.64	1096.05
597.99	1092.91
598.34	1094.08
598.69	1093.76
599.04	1091.79
599.39	1084.67
599.74	1086.83
600.09	1087.72
600.44	1089.22
600.78	1093.12
601.13	1089.99
601.48	1090.57
601.83	1091.65
602.18	1091.72
602.53	1092.28
602.88	1092.30
603.22	1094.29
603.57	1092.77
603.92	1093.92
604.27	1090.99
604.62	1090.01
604.97	1088.21
605.31	1088.21
605.66	1085.96
606.01	1084.86
606.36	1086.13
606.71	1085.28
607.05	1084.74
607.40	1083.57
607.75	1086.24
608.10	1085.10
608.44	1084.44
608.79	1085.21
609.14	1083.11
609.49	1083.81
609.84	1085.38
610.18	1088.07
610.53	1090.20
610.88	1094.15
611.23	1092.98
611.57	1095.14
611.92	1094.60
612.27	1093.08
612.62	1089.26
612.96	1087.44
613.31	1085.77
613.66	1082.85
614.00	1081.96
614.35	1086.43
614.70	1085.54
615.05	1085.24
615.39	1085.52
615.74	1083.15
616.09	1080.44
616.43	1082.40
616.78	1080.56
617.13	1083.11
617.47	1085.14
617.82	1087.18
618.17	1085.28
618.51	1085.99
618.86	1085.91
619.21	1085.82
619.55	1082.92
619.90	1086.97
620.25	1087.46
620.59	1084.51
620.94	1086.10
621.29	1088.14
621.63	1085.87
621.98	1087.13
622.32	1086.57
622.67	1086.06
623.02	1087.53
623.36	1087.11
623.71	1086.10
624.05	1087.81
624.40	1087.69
624.75	1087.76
625.09	1085.63
625.44	1083.62
625.78	1085.14
626.13	1086.66
626.48	1084.84
626.82	1087.67
627.17	1088.09
627.51	1084.53
627.86	1080.93
628.20	1079.57
628.55	1081.26
628.89	1081.14
629.24	1084.58
629.58	1085.14
629.93	1086.83
630.28	1083.93
630.62	1084.96
630.97	1083.74
631.31	1088.63
631.66	1089.50
632.00	1090.10
632.35	1087.86
632.69	1087.18
633.04	1083.86
633.38	1080.65
633.73	1080.46
634.07	1086.22
634.42	1086.76
634.76	1086.48
635.11	1087.41
635.45	1087.09
635.79	1081.30
636.14	1079.46
636.48	1077.25
636.83	1079.31
637.17	1084.02
637.52	1086.20
637.86	1088.49
638.21	1089.22
638.55	1088.86
638.89	1083.13
639.24	1084.79
639.58	1083.74
639.93	1087.62
640.27	1087.62
640.61	1088.68
640.96	1086.87
641.30	1088.28
641.65	1086.43
641.99	1086.45
642.33	1088.82
642.68	1090.81
643.02	1091.51
643.37	1088.86
643.71	1088.54
644.05	1089.47
644.40	1086.17
644.74	1086.52
645.08	1086.99
645.43	1083.74
645.77	1080.58
646.11	1081.37
646.46	1079.03
646.80	1080.11
647.14	1083.11
647.49	1082.92
647.83	1082.87
648.17	1085.28
648.52	1087.76
648.86	1086.50
649.20	1085.31
649.55	1088.16
649.89	1087.51
650.23	1084.25
650.57	1087.32
650.92	1089.85
651.26	1087.09
651.60	1086.59
651.95	1085.38
652.29	1080.95
652.63	1079.88
652.97	1079.55
653.32	1079.85
653.66	1082.01
654.00	1083.20
654.34	1082.54
654.69	1083.41
655.03	1084.58
655.37	1084.98
655.71	1085.42
656.05	1082.59
656.40	1080.63
656.74	1078.68
657.08	1078.50
657.42	1079.17
657.76	1083.86
658.11	1085.91
658.45	1086.03
658.79	1085.17
659.13	1087.62
659.47	1087.74
659.82	1088.86
660.16	1087.20
660.50	1087.20
660.84	1083.76
661.18	1082.99
661.52	1081.19
661.87	1083.11
662.21	1079.81
662.55	1081.49
662.89	1081.30
663.23	1082.45
663.57	1082.15
663.91	1082.15
664.25	1080.13
664.60	1079.17
664.94	1076.27
665.28	1075.43
665.62	1078.52
665.96	1082.22
666.30	1084.98
666.64	1086.10
666.98	1088.14
667.32	1090.97
667.66	1087.46
668.01	1084.04
668.35	1088.28
668.69	1088.84
669.03	1086.48
669.37	1088.28
669.71	1090.22
670.05	1086.80
670.39	1082.19
670.73	1080.65
671.07	1080.18
671.41	1081.58
671.75	1082.71
672.09	1088.68
672.43	1091.30
672.77	1090.15
673.11	1088.84
673.45	1089.78
673.79	1085.49
674.13	1084.37
674.47	1084.74
674.81	1081.96
675.15	1082.29
675.49	1082.99
675.83	1081.42
676.17	1081.07
676.51	1082.12
676.85	1079.78
677.19	1080.44
677.53	1080.25
677.87	1080.58
678.21	1081.05
678.55	1081.37
678.89	1079.67
679.23	1079.85
679.57	1079.31
679.90	1078.54
680.24	1076.23
680.58	1075.20
680.92	1077.89
681.26	1080.27
681.60	1081.84
681.94	1085.42
682.28	1087.27
682.62	1082.97
682.96	1081.89
683.29	1083.01
683.63	1082.17
683.97	1080.63
684.31	1082.52
684.65	1084.49
684.99	1085.91
685.33	1084.93
685.67	1084.37
686.00	1087.20
686.34	1082.73
686.68	1081.35
687.02	1082.22
687.36	1084.32
687.70	1082.12
688.03	1084.79
688.37	1080.98
688.71	1079.95
689.05	1079.55
689.39	1078.59
689.72	1076.97
690.06	1078.68
690.40	1078.47
690.74	1077.00
691.08	1078.24
691.41	1080.48
691.75	1082.15
692.09	1083.50
692.43	1083.95
692.76	1082.73
693.10	1080.67
693.44	1081.35
693.78	1081.70
694.11	1081.75
694.45	1083.97
694.79	1085.73
695.13	1082.92
695.46	1079.55
695.80	1079.78
696.14	1080.09
696.48	1076.97
696.81	1079.36
697.15	1079.57
697.49	1080.79
697.82	1079.78
698.16	1082.33
698.50	1078.99
698.83	1079.90
699.17	1081.54
699.51	1083.74
699.84	1083.86
700.18	1085.89
700.52	1083.95
700.85	1085.61
701.19	1084.70
701.53	1083.64
701.86	1082.43
702.20	1083.11
702.54	1077.47
702.87	1077.70
703.21	1079.17
703.55	1081.51
703.88	1084.07
704.22	1084.53
704.55	1084.04
704.89	1081.54
705.23	1079.57
705.56	1077.00
705.90	1078.78
706.23	1080.32
706.57	1083.88
706.91	1085.70
707.24	1086.90
707.58	1088.00
707.91	1085.07
708.25	1082.24
708.58	1082.85
708.92	1086.76
709.26	1084.39
709.59	1083.32
709.93	1084.60
710.26	1082.36
710.60	1080.74
710.93	1078.75
711.27	1073.81
711.60	1073.30
711.94	1072.20
712.27	1070.77
712.61	1073.25
712.94	1080.46
713.28	1077.23
713.61	1077.30
713.95	1079.57
714.28	1080.58
714.62	1078.17
714.95	1080.04
715.29	1080.77
715.62	1079.99
715.96	1078.99
716.29	1080.72
716.63	1082.64
716.96	1079.03
717.29	1077.16
717.63	1080.56
717.96	1080.48
718.30	1079.36
718.63	1084.07
718.97	1084.53
719.30	1082.78
719.63	1081.14
719.97	1081.68
720.30	1081.56
720.64	1079.10
720.97	1078.24
721.30	1080.30
721.64	1079.67
721.97	1080.39
722.31	1081.56
722.64	1080.72
722.97	1077.28
723.31	1080.27
723.64	1078.03
723.97	1078.94
724.31	1080.60
724.64	1084.89
724.98	1083.57
725.31	1087.88
725.64	1086.03
725.98	1086.10
726.31	1083.15
726.64	1082.36
726.97	1081.61
727.31	1084.42
727.64	1081.91
727.97	1084.44
728.31	1084.86
728.64	1081.61
728.97	1079.08
729.31	1081.70
729.64	1079.46
729.97	1081.09
730.30	1083.50
730.64	1085.38
730.97	1085.19
731.30	1087.76
731.63	1085.96
731.97	1084.23
732.30	1084.11
732.63	1084.16
732.96	1081.12
733.30	1078.75
733.63	1078.50
733.96	1077.02
734.29	1075.50
734.63	1075.45
734.96	1079.62
735.29	1080.16
735.62	1084.84
735.95	1085.19
736.29	1088.28
736.62	1086.06
736.95	1084.46
737.28	1080.65
737.61	1080.51
737.94	1081.44
738.28	1082.54
738.61	1083.08
738.94	1082.40
739.27	1083.93
739.60	1079.55
739.93	1081.58
740.27	1080.74
740.60	1080.79
740.93	1078.45
741.26	1083.57
741.59	1081.40
741.92	1082.45
742.25	1085.63
742.58	1087.83
742.91	1082.52
743.25	1081.68
743.58	1081.80
743.91	1080.46
744.24	1080.95
744.57	1084.02
744.90	1083.08
745.23	1081.61
745.56	1082.83
745.89	1081.80
746.22	1081.02
746.55	1081.98
746.88	1084.25
747.21	1082.92
747.54	1079.97
747.87	1079.67
748.20	1080.06
748.53	1077.35
748.87	1074.21
749.20	1077.04
749.53	1077.25
749.86	1075.38
750.19	1077.37
750.52	1079.06
750.85	1079.90
751.18	1077.93
751.51	1078.38
751.84	1079.15
752.16	1080.88
752.49	1079.48
752.82	1080.27
753.15	1077.14
753.48	1073.53
753.81	1072.01
754.14	1071.99
754.47	1069.93
754.80	1075.57
755.13	1078.14
755.46	1079.64
755.79	1082.76
756.12	1086.71
756.45	1083.34
756.78	1085.12
757.11	1082.26
757.43	1079.31
757.76	1079.90
758.09	1080.51
758.42	1076.74
758.75	1078.21
759.08	1081.94
759.41	1082.99
759.74	1083.71
760.07	1085.87
760.39	1084.91
760.72	1083.79
761.05	1079.10
761.38	1079.20
761.71	1078.64
762.04	1081.21
762.36	1076.23
762.69	1078.68
763.02	1077.07
763.35	1076.88
763.68	1073.14
