SpectraSuite Data File
++++++++++++++++++++++++++++++++++++
Date: Mon Aug 26 10:22:29 PDT 2019
User: corrico
Dark Spectrum Present: No
Reference Spectrum Present: No
Number of Sampled Component Spectra: 1
Spectrometers: USB2+H06089
Integration Time (usec): 2000 (USB2+H06089)
Spectra Averaged: 20 (USB2+H06089)
Boxcar Smoothing: 2 (USB2+H06089)
Correct for Electrical Dark: No (USB2+H06089)
Strobe/Lamp Enabled: No (USB2+H06089)
Correct for Detector Non-linearity: No (USB2+H06089)
Correct for Stray Light: No (USB2+H06089)
Number of Pixels in Processed Spectrum: 2048
>>>>>Begin Processed Spectral Data<<<<<
339.70	1033.46
340.07	1033.46
340.45	997.04
340.82	973.94
341.19	949.20
341.57	924.65
341.94	914.07
342.31	906.07
342.69	901.41
343.06	899.40
343.43	896.10
343.81	899.37
344.18	902.72
344.55	908.08
344.93	911.73
345.30	917.82
345.67	923.97
346.04	928.61
346.42	935.23
346.79	944.50
347.16	952.15
347.54	958.92
347.91	971.56
348.28	981.43
348.65	991.87
349.03	1002.78
349.40	1012.14
349.77	1017.92
350.14	1024.92
350.52	1030.70
350.89	1034.35
351.26	1040.18
351.63	1046.78
352.01	1051.42
352.38	1056.00
352.75	1063.42
353.12	1068.67
353.50	1073.30
353.87	1074.91
354.24	1075.45
354.61	1077.47
354.98	1075.41
355.36	1075.59
355.73	1077.42
356.10	1079.20
356.47	1078.28
356.84	1082.17
357.22	1083.01
357.59	1082.57
357.96	1080.98
358.33	1080.13
358.70	1078.12
359.08	1077.21
359.45	1079.17
359.82	1080.91
360.19	1086.13
360.56	1088.33
360.94	1086.20
361.31	1086.64
361.68	1086.48
362.05	1079.46
362.42	1078.82
362.79	1079.22
363.16	1076.34
363.54	1075.24
363.91	1078.17
364.28	1074.54
364.65	1074.75
365.02	1075.13
365.39	1072.76
365.76	1071.82
366.14	1074.61
366.51	1073.67
366.88	1071.73
367.25	1074.54
367.62	1073.86
367.99	1072.83
368.36	1072.06
368.73	1073.72
369.10	1073.46
369.48	1073.53
369.85	1072.13
370.22	1075.41
370.59	1075.05
370.96	1073.11
371.33	1074.70
371.70	1074.63
372.07	1072.32
372.44	1072.60
372.81	1075.17
373.18	1074.00
373.55	1075.73
373.93	1073.81
374.30	1077.07
374.67	1076.81
375.04	1078.59
375.41	1079.41
375.78	1080.65
376.15	1078.85
376.52	1077.30
376.89	1074.03
377.26	1071.75
377.63	1071.75
378.00	1072.78
378.37	1077.68
378.74	1079.48
379.11	1081.70
379.48	1080.81
379.85	1080.02
380.22	1077.35
380.59	1078.87
380.96	1076.62
381.33	1080.09
381.70	1081.35
382.07	1083.95
382.44	1084.11
382.81	1087.09
383.18	1089.14
383.55	1084.93
383.92	1080.86
384.29	1081.19
384.66	1079.85
385.03	1076.83
385.40	1081.47
385.77	1083.04
386.14	1080.65
386.51	1080.58
386.88	1076.83
387.25	1077.18
387.62	1080.09
387.99	1084.11
388.36	1080.58
388.73	1084.93
389.10	1080.70
389.46	1078.71
389.83	1076.37
390.20	1080.37
390.57	1082.31
390.94	1084.79
391.31	1084.37
391.68	1086.76
392.05	1087.67
392.42	1084.84
392.79	1083.76
393.16	1084.04
393.53	1083.18
393.89	1085.38
394.26	1085.77
394.63	1087.46
395.00	1085.14
395.37	1080.93
395.74	1080.48
396.11	1086.08
396.48	1086.99
396.84	1090.01
397.21	1093.03
397.58	1091.84
397.95	1087.65
398.32	1086.38
398.69	1084.93
399.06	1086.17
399.42	1086.03
399.79	1086.15
400.16	1087.37
400.53	1090.32
400.90	1089.57
401.27	1090.24
401.64	1091.11
402.00	1088.79
402.37	1086.34
402.74	1087.27
403.11	1089.05
403.48	1088.58
403.84	1091.04
404.21	1092.47
404.58	1094.27
404.95	1095.14
405.32	1098.65
405.68	1097.29
406.05	1099.91
406.42	1095.51
406.79	1094.50
407.16	1090.71
407.52	1090.57
407.89	1088.14
408.26	1089.92
408.63	1089.75
408.99	1090.83
409.36	1089.89
409.73	1091.44
410.10	1092.33
410.47	1091.32
410.83	1089.80
411.20	1095.56
411.57	1095.67
411.94	1096.75
412.30	1096.24
412.67	1097.24
413.04	1093.99
413.40	1092.16
413.77	1091.02
414.14	1094.62
414.51	1094.18
414.87	1092.94
415.24	1093.24
415.61	1093.97
415.97	1089.99
416.34	1089.71
416.71	1095.46
417.08	1096.92
417.44	1098.39
417.81	1102.70
418.18	1107.38
418.54	1107.89
418.91	1108.81
419.28	1111.61
419.64	1115.15
420.01	1116.46
420.38	1116.20
420.74	1117.56
421.11	1115.08
421.48	1114.54
421.84	1115.03
422.21	1117.21
422.58	1120.93
422.94	1127.18
423.31	1130.57
423.68	1135.07
424.04	1134.48
424.41	1136.87
424.77	1139.40
425.14	1141.88
425.51	1144.05
425.87	1151.40
426.24	1156.72
426.61	1160.88
426.97	1167.60
427.34	1172.51
427.70	1177.48
428.07	1180.26
428.44	1189.02
428.80	1194.80
429.17	1202.68
429.53	1212.14
429.90	1228.45
430.27	1232.78
430.63	1242.87
431.00	1254.29
431.36	1261.13
431.73	1268.22
432.09	1284.25
432.46	1298.30
432.83	1313.95
433.19	1336.66
433.56	1355.64
433.92	1373.50
434.29	1392.74
434.65	1415.84
435.02	1438.68
435.38	1461.69
435.75	1489.00
436.11	1520.29
436.48	1549.22
436.84	1581.22
437.21	1619.44
437.57	1656.80
437.94	1695.86
438.30	1743.93
438.67	1790.51
439.03	1841.58
439.40	1896.54
439.76	1954.49
440.13	2010.57
440.49	2078.65
440.86	2143.18
441.22	2209.84
441.59	2283.31
441.95	2364.20
442.32	2442.61
442.68	2535.78
443.05	2634.93
443.41	2729.84
443.78	2827.88
444.14	2936.37
444.51	3042.53
444.87	3176.20
445.24	3316.09
445.60	3465.12
445.96	3617.53
446.33	3795.93
446.69	3958.08
447.06	4142.14
447.42	4328.28
447.79	4520.21
448.15	4735.86
448.51	4967.81
448.88	5227.00
449.24	5472.13
449.61	5756.17
449.97	6024.82
450.33	6302.74
450.70	6563.82
451.06	6888.13
451.43	7182.99
451.79	7553.40
452.15	7956.77
452.52	8390.35
452.88	8863.19
453.24	9402.17
453.61	9960.06
453.97	10520.17
454.34	11071.55
454.70	11709.98
455.06	12349.32
455.43	12978.43
455.79	13572.04
456.15	14295.03
456.52	14930.82
456.88	15687.67
457.24	16403.78
457.61	17241.95
457.97	17994.44
458.33	18764.00
458.70	19521.54
459.06	20300.07
459.42	21131.83
459.79	21900.65
460.15	22810.91
460.51	23664.36
460.88	24573.57
461.24	25363.36
461.60	26327.73
461.96	27182.35
462.33	28023.59
462.69	28789.50
463.05	29629.50
463.42	30325.13
463.78	30961.64
464.14	31480.63
464.50	32079.59
464.87	32547.86
465.23	32892.37
465.59	33238.60
465.95	33549.19
466.32	33793.94
466.68	34013.67
467.04	34161.55
467.40	34286.16
467.77	34464.67
468.13	34454.42
468.49	34346.78
468.85	34276.84
469.22	34115.91
469.58	33751.46
469.94	33492.06
470.30	33202.58
470.66	32769.98
471.03	32190.77
471.39	31825.01
471.75	31197.49
472.11	30601.85
472.47	30252.03
472.84	29948.49
473.20	29451.34
473.56	29161.30
473.92	28747.42
474.28	28224.05
474.65	27715.15
475.01	27225.18
475.37	26683.11
475.73	26208.55
476.09	25689.93
476.45	25176.60
476.81	24670.74
477.18	24126.31
477.54	23700.62
477.90	23360.11
478.26	22947.38
478.62	22614.56
478.98	22348.09
479.34	22008.06
479.71	21604.27
480.07	21271.82
480.43	20920.97
480.79	20527.83
481.15	20194.17
481.51	19874.14
481.87	19637.14
482.23	19348.34
482.59	19108.98
482.96	18816.71
483.32	18526.63
483.68	18143.60
484.04	17799.63
484.40	17421.87
484.76	17067.47
485.12	16697.71
485.48	16379.54
485.84	16036.77
486.20	15697.06
486.56	15329.83
486.92	15025.49
487.28	14678.51
487.64	14322.67
488.00	13990.06
488.37	13673.92
488.73	13317.84
489.09	12965.80
489.45	12653.66
489.81	12340.15
490.17	12045.19
490.53	11766.74
490.89	11473.75
491.25	11185.09
491.61	10883.70
491.97	10568.69
492.33	10238.21
492.69	9942.08
493.05	9630.49
493.41	9338.18
493.77	9056.31
494.13	8816.38
494.49	8568.14
494.85	8340.15
495.21	8119.48
495.57	7911.78
495.93	7693.25
496.29	7501.72
496.64	7318.43
497.00	7128.01
497.36	6938.61
497.72	6759.28
498.08	6570.52
498.44	6382.34
498.80	6217.63
499.16	6063.23
499.52	5909.99
499.88	5779.88
500.24	5664.92
500.60	5544.05
500.96	5428.90
501.32	5317.44
501.68	5196.36
502.03	5065.79
502.39	4937.50
502.75	4800.20
503.11	4670.45
503.47	4552.08
503.83	4438.80
504.19	4322.55
504.55	4216.33
504.91	4121.61
505.26	4028.58
505.62	3943.87
505.98	3857.30
506.34	3766.88
506.70	3676.16
507.06	3586.31
507.42	3501.75
507.78	3430.10
508.13	3356.91
508.49	3281.50
508.85	3217.84
509.21	3146.12
509.57	3075.39
509.93	3010.14
510.28	2946.17
510.64	2878.95
511.00	2814.19
511.36	2755.72
511.72	2701.80
512.07	2653.30
512.43	2604.95
512.79	2557.60
513.15	2508.63
513.51	2460.51
513.86	2413.26
514.22	2368.76
514.58	2325.49
514.94	2289.16
515.30	2254.57
515.65	2217.10
516.01	2188.19
516.37	2163.08
516.73	2131.39
517.08	2102.48
517.44	2073.78
517.80	2038.28
518.16	2008.11
518.51	1982.67
518.87	1952.73
519.23	1925.68
519.59	1904.45
519.94	1879.68
520.30	1848.91
520.66	1823.00
521.01	1800.90
521.37	1779.21
521.73	1759.12
522.09	1741.90
522.44	1722.19
522.80	1702.55
523.16	1681.21
523.51	1661.71
523.87	1644.48
524.23	1627.54
524.58	1608.67
524.94	1591.14
525.30	1572.84
525.65	1557.39
526.01	1542.97
526.37	1527.15
526.72	1513.69
527.08	1498.88
527.44	1487.81
527.79	1476.41
528.15	1464.89
528.51	1456.59
528.86	1446.97
529.22	1431.96
529.58	1419.42
529.93	1410.55
530.29	1395.40
530.65	1387.63
531.00	1379.93
531.36	1370.03
531.71	1357.04
532.07	1351.07
532.43	1338.62
532.78	1330.41
533.14	1321.51
533.49	1316.34
533.85	1308.69
534.21	1304.68
534.56	1298.60
534.92	1292.79
535.27	1286.34
535.63	1280.62
535.98	1274.61
536.34	1269.25
536.69	1265.83
537.05	1259.82
537.41	1256.40
537.76	1249.68
538.12	1247.13
538.47	1244.16
538.83	1240.67
539.18	1231.92
539.54	1226.65
539.89	1219.30
540.25	1213.54
540.60	1212.44
540.96	1207.44
541.31	1205.63
541.67	1204.67
542.02	1203.60
542.38	1200.04
542.73	1204.18
543.09	1203.46
543.44	1199.22
543.80	1193.74
544.15	1192.03
544.51	1184.57
544.86	1176.96
545.22	1170.74
545.57	1171.23
545.93	1166.48
546.28	1164.44
546.64	1167.88
546.99	1166.20
547.35	1160.88
547.70	1158.68
548.05	1158.64
548.41	1153.93
548.76	1154.24
549.12	1153.77
549.47	1154.12
549.83	1151.99
550.18	1149.88
550.53	1148.13
550.89	1143.00
551.24	1137.13
551.60	1135.53
551.95	1135.89
552.30	1133.19
552.66	1136.17
553.01	1135.28
553.37	1134.29
553.72	1133.29
554.07	1130.53
554.43	1127.55
554.78	1130.22
555.13	1125.89
555.49	1124.00
555.84	1125.42
556.19	1125.75
556.55	1123.34
556.90	1125.40
557.26	1124.25
557.61	1124.74
557.96	1122.61
558.32	1119.57
558.67	1119.38
559.02	1116.95
559.37	1114.82
559.73	1111.75
560.08	1114.40
560.43	1110.91
560.79	1107.38
561.14	1106.30
561.49	1111.57
561.85	1109.27
562.20	1109.44
562.55	1115.03
562.90	1112.88
563.26	1111.12
563.61	1112.18
563.96	1112.15
564.32	1110.68
564.67	1112.57
565.02	1110.00
565.37	1108.43
565.73	1109.72
566.08	1108.50
566.43	1108.08
566.78	1108.52
567.14	1107.38
567.49	1104.66
567.84	1103.49
568.19	1103.77
568.54	1101.99
568.90	1102.28
569.25	1102.25
569.60	1101.69
569.95	1100.31
570.31	1100.82
570.66	1100.03
571.01	1100.45
571.36	1099.93
571.71	1099.49
572.06	1098.34
572.42	1095.91
572.77	1094.83
573.12	1095.84
573.47	1094.50
573.82	1093.01
574.18	1092.87
574.53	1091.65
574.88	1091.88
575.23	1093.99
575.58	1094.22
575.93	1095.56
576.28	1096.12
576.64	1094.25
576.99	1094.11
577.34	1094.06
577.69	1095.65
578.04	1096.59
578.39	1095.32
578.74	1092.84
579.09	1093.55
579.44	1090.43
579.80	1089.47
580.15	1092.47
580.50	1090.36
580.85	1090.95
581.20	1094.34
581.55	1092.94
581.90	1090.83
582.25	1091.65
582.60	1090.24
582.95	1088.30
583.30	1087.25
583.65	1087.51
584.00	1090.90
584.35	1088.93
584.71	1086.55
585.06	1088.26
585.41	1085.28
585.76	1082.66
586.11	1083.55
586.46	1083.90
586.81	1083.36
587.16	1086.22
587.51	1087.32
587.86	1088.63
588.21	1090.95
588.56	1089.78
588.91	1090.43
589.26	1086.55
589.61	1084.63
589.96	1083.39
590.31	1085.33
590.66	1084.39
591.01	1086.10
591.36	1087.69
591.71	1088.37
592.06	1086.66
592.41	1085.94
592.76	1086.62
593.10	1084.23
593.45	1079.20
593.80	1081.75
594.15	1081.28
594.50	1081.14
594.85	1083.06
595.20	1087.81
595.55	1085.03
595.90	1085.52
596.25	1087.09
596.60	1085.52
596.95	1085.28
597.30	1087.90
597.64	1099.09
597.99	1099.44
598.34	1101.11
598.69	1099.09
599.04	1098.95
599.39	1085.03
599.74	1080.88
600.09	1082.80
600.44	1083.20
600.78	1085.38
601.13	1088.40
601.48	1092.30
601.83	1091.37
602.18	1092.70
602.53	1085.24
602.88	1086.36
603.22	1085.52
603.57	1087.06
603.92	1084.96
604.27	1087.34
604.62	1085.54
604.97	1084.30
605.31	1082.05
605.66	1083.53
606.01	1082.97
606.36	1083.76
606.71	1083.95
607.05	1080.56
607.40	1080.02
607.75	1078.92
608.10	1081.37
608.44	1079.29
608.79	1082.40
609.14	1084.98
609.49	1088.07
609.84	1083.15
610.18	1084.44
610.53	1084.65
610.88	1084.32
611.23	1087.32
611.57	1090.78
611.92	1090.60
612.27	1093.17
612.62	1091.91
612.96	1089.87
613.31	1088.96
613.66	1091.49
614.00	1088.42
614.35	1086.94
614.70	1084.91
615.05	1082.76
615.39	1083.74
615.74	1087.90
616.09	1087.79
616.43	1087.83
616.78	1090.13
617.13	1084.98
617.47	1078.57
617.82	1080.65
618.17	1082.17
618.51	1078.64
618.86	1080.44
619.21	1083.39
619.55	1082.69
619.90	1080.34
620.25	1081.19
620.59	1080.34
620.94	1078.68
621.29	1078.82
621.63	1080.48
621.98	1082.05
622.32	1083.27
622.67	1084.74
623.02	1083.57
623.36	1083.06
623.71	1082.52
624.05	1083.18
624.40	1083.95
624.75	1085.47
625.09	1084.18
625.44	1086.85
625.78	1086.97
626.13	1084.11
626.48	1083.18
626.82	1083.53
627.17	1081.73
627.51	1081.28
627.86	1082.66
628.20	1079.43
628.55	1080.72
628.89	1083.93
629.24	1085.63
629.58	1086.71
629.93	1089.26
630.28	1087.46
630.62	1082.80
630.97	1079.29
631.31	1077.40
631.66	1075.83
632.00	1072.85
632.35	1074.00
632.69	1072.88
633.04	1072.69
633.38	1073.67
633.73	1076.93
634.07	1075.29
634.42	1078.92
634.76	1080.72
635.11	1082.94
635.45	1087.20
635.79	1087.30
636.14	1088.47
636.48	1088.42
636.83	1086.34
637.17	1081.58
637.52	1082.59
637.86	1079.78
638.21	1080.16
638.55	1078.96
638.89	1079.99
639.24	1080.02
639.58	1079.01
639.93	1077.72
640.27	1078.54
640.61	1076.39
640.96	1076.55
641.30	1079.24
641.65	1079.92
641.99	1082.15
642.33	1085.05
642.68	1086.71
643.02	1086.97
643.37	1087.39
643.71	1088.12
644.05	1087.13
644.40	1084.30
644.74	1082.52
645.08	1083.18
645.43	1082.52
645.77	1080.65
646.11	1080.20
646.46	1081.49
646.80	1079.53
647.14	1078.78
647.49	1080.20
647.83	1083.27
648.17	1082.66
648.52	1083.62
648.86	1083.25
649.20	1082.52
649.55	1081.70
649.89	1080.88
650.23	1082.36
650.57	1079.92
650.92	1078.17
651.26	1077.65
651.60	1079.85
651.95	1077.49
652.29	1079.46
652.63	1084.93
652.97	1083.08
653.32	1082.03
653.66	1080.74
654.00	1081.66
654.34	1080.70
654.69	1082.64
655.03	1079.90
655.37	1083.36
655.71	1082.01
656.05	1081.73
656.40	1078.80
656.74	1078.71
657.08	1078.82
657.42	1079.22
657.76	1080.11
658.11	1083.83
658.45	1087.81
658.79	1085.68
659.13	1084.81
659.47	1083.32
659.82	1084.35
660.16	1082.80
660.50	1083.25
660.84	1084.39
661.18	1083.88
661.52	1079.88
661.87	1082.90
662.21	1081.09
662.55	1082.83
662.89	1081.96
663.23	1083.32
663.57	1078.57
663.91	1079.17
664.25	1077.23
664.60	1077.47
664.94	1078.59
665.28	1078.05
665.62	1078.73
665.96	1076.79
666.30	1080.09
666.64	1078.00
666.98	1079.83
667.32	1080.53
667.66	1081.66
668.01	1076.55
668.35	1080.09
668.69	1080.30
669.03	1077.37
669.37	1080.18
669.71	1083.76
670.05	1080.11
670.39	1081.73
670.73	1082.24
671.07	1080.65
671.41	1078.66
671.75	1080.79
672.09	1077.70
672.43	1078.87
672.77	1076.46
673.11	1078.43
673.45	1077.86
673.79	1079.95
674.13	1080.74
674.47	1081.51
674.81	1078.87
675.15	1077.02
675.49	1075.20
675.83	1072.22
676.17	1075.22
676.51	1077.63
676.85	1079.43
677.19	1080.56
677.53	1083.81
677.87	1080.16
678.21	1077.47
678.55	1077.65
678.89	1077.98
679.23	1077.96
679.57	1079.55
679.90	1082.19
680.24	1078.75
680.58	1075.64
680.92	1076.83
681.26	1079.64
681.60	1081.30
681.94	1087.27
682.28	1091.37
682.62	1090.99
682.96	1089.71
683.29	1085.73
683.63	1083.20
683.97	1083.39
684.31	1078.92
684.65	1077.21
684.99	1079.57
685.33	1076.08
685.67	1075.64
686.00	1080.74
686.34	1081.23
686.68	1082.83
687.02	1083.01
687.36	1084.14
687.70	1080.88
688.03	1080.30
688.37	1077.77
688.71	1081.14
689.05	1076.30
689.39	1079.50
689.72	1080.79
690.06	1077.58
690.40	1076.88
690.74	1078.24
691.08	1077.18
691.41	1079.53
691.75	1083.34
692.09	1086.38
692.43	1084.79
692.76	1085.14
693.10	1084.96
693.44	1083.15
693.78	1079.64
694.11	1082.85
694.45	1077.35
694.79	1073.77
695.13	1074.80
695.46	1072.08
695.80	1071.45
696.14	1075.15
696.48	1072.76
696.81	1074.87
697.15	1080.86
697.49	1083.34
697.82	1086.45
698.16	1089.78
698.50	1088.54
698.83	1088.16
699.17	1084.14
699.51	1079.99
699.84	1080.77
700.18	1081.12
700.52	1077.96
700.85	1077.91
701.19	1075.50
701.53	1073.21
701.86	1074.26
702.20	1073.79
702.54	1075.22
702.87	1079.74
703.21	1080.34
703.55	1078.75
703.88	1080.98
704.22	1082.08
704.55	1082.19
704.89	1081.70
705.23	1083.27
705.56	1084.00
705.90	1083.55
706.23	1084.98
706.57	1087.23
706.91	1084.79
707.24	1082.92
707.58	1081.82
707.91	1082.24
708.25	1081.73
708.58	1083.20
708.92	1082.24
709.26	1079.08
709.59	1076.65
709.93	1077.70
710.26	1077.16
710.60	1077.61
710.93	1080.77
711.27	1082.66
711.60	1076.53
711.94	1072.95
712.27	1076.72
712.61	1076.37
712.94	1070.54
713.28	1074.56
713.61	1076.11
713.95	1070.89
714.28	1076.13
714.62	1077.91
714.95	1078.14
715.29	1082.03
715.62	1086.48
715.96	1083.83
716.29	1084.96
716.63	1084.58
716.96	1080.39
717.29	1077.40
717.63	1076.72
717.96	1077.58
718.30	1074.87
718.63	1076.81
718.97	1077.89
719.30	1078.00
719.63	1075.62
719.97	1076.69
720.30	1071.82
720.64	1071.54
720.97	1071.64
721.30	1074.98
721.64	1076.88
721.97	1078.17
722.31	1081.12
722.64	1079.62
722.97	1079.20
723.31	1078.82
723.64	1081.09
723.97	1076.76
724.31	1074.75
724.64	1072.74
724.98	1071.92
725.31	1070.80
725.64	1071.99
725.98	1074.28
726.31	1074.68
726.64	1081.02
726.97	1083.25
727.31	1081.68
727.64	1082.19
727.97	1082.50
728.31	1078.33
728.64	1076.76
728.97	1078.05
729.31	1076.88
729.64	1074.68
729.97	1074.33
730.30	1079.17
730.64	1077.77
730.97	1079.48
731.30	1078.75
731.63	1078.40
731.97	1073.93
732.30	1078.45
732.63	1079.85
732.96	1080.56
733.30	1083.34
733.63	1086.38
733.96	1083.39
734.29	1081.44
734.63	1088.40
734.96	1085.82
735.29	1079.95
735.62	1077.47
735.95	1076.58
736.29	1072.29
736.62	1073.00
736.95	1077.09
737.28	1080.67
737.61	1079.31
737.94	1076.86
738.28	1077.75
738.61	1079.27
738.94	1078.10
739.27	1076.76
739.60	1078.75
739.93	1077.40
740.27	1073.81
740.60	1076.06
740.93	1077.25
741.26	1078.38
741.59	1075.87
741.92	1077.54
742.25	1075.97
742.58	1078.78
742.91	1079.38
743.25	1083.81
743.58	1088.16
743.91	1090.10
744.24	1084.74
744.57	1083.18
744.90	1080.81
745.23	1077.07
745.56	1075.78
745.89	1079.27
746.22	1079.78
746.55	1078.54
746.88	1078.00
747.21	1077.40
747.54	1078.68
747.87	1080.20
748.20	1081.00
748.53	1078.36
748.87	1077.68
749.20	1078.05
749.53	1076.25
749.86	1075.34
750.19	1080.16
750.52	1083.22
750.85	1084.32
751.18	1083.95
751.51	1085.73
751.84	1082.45
752.16	1079.60
752.49	1075.57
752.82	1077.84
753.15	1076.48
753.48	1076.23
753.81	1076.76
754.14	1080.53
754.47	1077.49
754.80	1078.40
755.13	1080.48
755.46	1081.40
755.79	1076.93
756.12	1077.14
756.45	1074.12
756.78	1072.34
757.11	1070.61
757.43	1073.86
757.76	1074.61
758.09	1077.33
758.42	1078.59
758.75	1079.03
759.08	1080.13
759.41	1082.22
759.74	1084.23
760.07	1084.60
760.39	1085.28
760.72	1084.30
761.05	1083.81
761.38	1084.21
761.71	1084.84
762.04	1081.51
762.36	1081.89
762.69	1078.75
763.02	1077.35
763.35	1074.66
763.68	1078.50
764.01	1076.67
