SpectraSuite Data File
++++++++++++++++++++++++++++++++++++
Date: Mon Aug 26 10:22:32 PDT 2019
User: corrico
Dark Spectrum Present: No
Reference Spectrum Present: No
Number of Sampled Component Spectra: 1
Spectrometers: USB2+H06089
Integration Time (usec): 2000 (USB2+H06089)
Spectra Averaged: 20 (USB2+H06089)
Boxcar Smoothing: 2 (USB2+H06089)
Correct for Electrical Dark: No (USB2+H06089)
Strobe/Lamp Enabled: No (USB2+H06089)
Correct for Detector Non-linearity: No (USB2+H06089)
Correct for Stray Light: No (USB2+H06089)
Number of Pixels in Processed Spectrum: 2048
>>>>>Begin Processed Spectral Data<<<<<
339.70	1017.20
340.07	1017.20
340.45	989.16
340.82	968.21
341.19	946.93
341.57	922.64
341.94	908.29
342.31	902.28
342.69	896.43
343.06	896.78
343.43	896.47
343.81	898.53
344.18	897.62
344.55	901.88
344.93	905.30
345.30	910.02
345.67	918.36
346.04	927.41
346.42	937.48
346.79	942.00
347.16	951.76
347.54	957.26
347.91	965.73
348.28	976.40
348.65	988.06
349.03	999.24
349.40	1009.78
349.77	1019.49
350.14	1024.38
350.52	1026.77
350.89	1032.76
351.26	1038.92
351.63	1042.92
352.01	1048.09
352.38	1058.65
352.75	1062.63
353.12	1068.48
353.50	1076.79
353.87	1084.02
354.24	1082.85
354.61	1084.89
354.98	1083.83
355.36	1079.08
355.73	1075.94
356.10	1080.23
356.47	1082.90
356.84	1082.83
357.22	1086.34
357.59	1088.16
357.96	1085.33
358.33	1083.95
358.70	1086.34
359.08	1087.13
359.45	1086.45
359.82	1087.37
360.19	1084.04
360.56	1079.81
360.94	1075.50
361.31	1075.10
361.68	1074.98
362.05	1076.93
362.42	1078.10
362.79	1078.85
363.16	1079.76
363.54	1077.86
363.91	1077.51
364.28	1079.50
364.65	1081.58
365.02	1078.80
365.39	1083.06
365.76	1082.17
366.14	1077.58
366.51	1073.81
366.88	1074.70
367.25	1069.98
367.62	1070.89
367.99	1071.94
368.36	1077.30
368.73	1079.01
369.10	1083.04
369.48	1081.89
369.85	1081.26
370.22	1078.03
370.59	1075.97
370.96	1074.35
371.33	1077.16
371.70	1079.95
372.07	1080.48
372.44	1079.36
372.81	1078.24
373.18	1075.29
373.55	1074.82
373.93	1074.84
374.30	1075.71
374.67	1074.49
375.04	1076.79
375.41	1076.93
375.78	1078.05
376.15	1077.35
376.52	1078.05
376.89	1074.63
377.26	1071.92
377.63	1071.52
378.00	1075.01
378.37	1078.94
378.74	1082.73
379.11	1085.77
379.48	1084.37
379.85	1082.24
380.22	1078.00
380.59	1075.29
380.96	1077.23
381.33	1081.14
381.70	1082.50
382.07	1084.98
382.44	1085.17
382.81	1084.79
383.18	1085.40
383.55	1085.14
383.92	1084.93
384.29	1087.46
384.66	1087.83
385.03	1087.41
385.40	1087.83
385.77	1087.79
386.14	1086.41
386.51	1082.08
386.88	1077.35
387.25	1078.12
387.62	1077.09
387.99	1080.88
388.36	1085.56
388.73	1087.34
389.10	1085.59
389.46	1084.09
389.83	1079.17
390.20	1075.83
390.57	1075.69
390.94	1077.44
391.31	1081.58
391.68	1082.66
392.05	1086.06
392.42	1086.83
392.79	1085.00
393.16	1084.84
393.53	1087.04
393.89	1086.13
394.26	1089.03
394.63	1093.80
395.00	1093.78
395.37	1097.50
395.74	1095.07
396.11	1089.05
396.48	1085.84
396.84	1086.15
397.21	1082.52
397.58	1086.06
397.95	1087.32
398.32	1084.53
398.69	1083.67
399.06	1080.60
399.42	1077.58
399.79	1081.51
400.16	1084.58
400.53	1081.37
400.90	1084.04
401.27	1084.60
401.64	1081.12
402.00	1083.29
402.37	1085.21
402.74	1084.56
403.11	1087.09
403.48	1088.96
403.84	1088.49
404.21	1093.22
404.58	1094.20
404.95	1092.75
405.32	1094.86
405.68	1091.98
406.05	1090.62
406.42	1092.59
406.79	1093.97
407.16	1093.59
407.52	1094.41
407.89	1092.45
408.26	1092.63
408.63	1092.12
408.99	1092.26
409.36	1095.96
409.73	1094.55
410.10	1093.78
410.47	1095.49
410.83	1096.14
411.20	1095.96
411.57	1100.89
411.94	1101.15
412.30	1101.11
412.67	1101.46
413.04	1099.35
413.40	1097.83
413.77	1096.68
414.14	1096.75
414.51	1093.57
414.87	1097.43
415.24	1099.84
415.61	1102.95
415.97	1106.56
416.34	1109.67
416.71	1104.50
417.08	1103.23
417.44	1102.13
417.81	1099.33
418.18	1098.11
418.54	1103.49
418.91	1101.76
419.28	1099.65
419.64	1102.70
420.01	1105.15
420.38	1103.54
420.74	1112.29
421.11	1118.24
421.48	1118.87
421.84	1122.17
422.21	1122.52
422.58	1122.17
422.94	1121.84
423.31	1122.71
423.68	1124.37
424.04	1130.03
424.41	1130.06
424.77	1132.63
425.14	1138.06
425.51	1141.60
425.87	1143.84
426.24	1148.50
426.61	1155.92
426.97	1159.90
427.34	1165.91
427.70	1174.39
428.07	1180.54
428.44	1188.92
428.80	1196.44
429.17	1205.54
429.53	1211.88
429.90	1223.30
430.27	1228.99
430.63	1238.68
431.00	1250.48
431.36	1263.98
431.73	1272.24
432.09	1286.08
432.46	1299.25
432.83	1312.34
433.19	1324.98
433.56	1346.46
433.92	1366.33
434.29	1389.25
434.65	1411.97
435.02	1439.22
435.38	1463.79
435.75	1492.75
436.11	1520.22
436.48	1549.27
436.84	1583.30
437.21	1618.06
437.57	1653.19
437.94	1697.33
438.30	1746.37
438.67	1792.36
439.03	1845.49
439.40	1899.20
439.76	1949.85
440.13	2007.81
440.49	2069.03
440.86	2132.11
441.22	2208.08
441.59	2282.35
441.95	2358.89
442.32	2445.46
442.68	2534.59
443.05	2622.52
443.41	2722.58
443.78	2825.38
444.14	2928.27
444.51	3043.26
444.87	3180.98
445.24	3316.47
445.60	3464.88
445.96	3616.53
446.33	3784.41
446.69	3944.86
447.06	4123.02
447.42	4300.38
447.79	4494.84
448.15	4714.87
448.51	4946.44
448.88	5211.46
449.24	5461.87
449.61	5738.39
449.97	6004.41
450.33	6285.56
450.70	6540.25
451.06	6858.17
451.43	7160.94
451.79	7512.39
452.15	7897.74
452.52	8334.72
452.88	8797.72
453.24	9329.23
453.61	9906.06
453.97	10472.35
454.34	11020.79
454.70	11659.59
455.06	12287.74
455.43	12916.04
455.79	13505.22
456.15	14209.70
456.52	14863.41
456.88	15649.36
457.24	16365.63
457.61	17197.44
457.97	17963.61
458.33	18728.66
458.70	19465.09
459.06	20210.85
459.42	21054.99
459.79	21833.29
460.15	22730.60
460.51	23564.12
460.88	24505.41
461.24	25297.40
461.60	26239.47
461.96	27102.07
462.33	27965.75
462.69	28718.19
463.05	29538.36
463.42	30235.13
463.78	30848.75
464.14	31344.17
464.50	31943.77
464.87	32418.34
465.23	32785.83
465.59	33139.48
465.95	33474.86
466.32	33713.05
466.68	33910.17
467.04	34030.45
467.40	34176.10
467.77	34325.90
468.13	34323.51
468.49	34260.08
468.85	34195.91
469.22	34036.40
469.58	33697.65
469.94	33433.17
470.30	33117.36
470.66	32693.28
471.03	32100.17
471.39	31701.41
471.75	31056.33
472.11	30457.41
472.47	30095.01
472.84	29770.94
473.20	29280.36
473.56	29029.43
473.92	28606.47
474.28	28094.95
474.65	27603.22
475.01	27124.75
475.37	26549.54
475.73	26082.23
476.09	25556.29
476.45	25038.58
476.81	24528.02
477.18	24006.22
477.54	23577.11
477.90	23227.76
478.26	22836.68
478.62	22523.47
478.98	22242.46
479.34	21913.38
479.71	21519.21
480.07	21169.86
480.43	20808.46
480.79	20433.77
481.15	20090.88
481.51	19771.14
481.87	19538.07
482.23	19270.45
482.59	19020.50
482.96	18759.63
483.32	18473.01
483.68	18099.43
484.04	17756.24
484.40	17385.01
484.76	17009.23
485.12	16658.01
485.48	16330.90
485.84	15978.81
486.20	15641.45
486.56	15290.72
486.92	14981.32
487.28	14637.85
487.64	14278.32
488.00	13945.68
488.37	13622.03
488.73	13260.23
489.09	12910.09
489.45	12613.05
489.81	12296.66
490.17	11989.04
490.53	11712.11
490.89	11415.80
491.25	11112.47
491.61	10816.48
491.97	10509.03
492.33	10179.62
492.69	9891.08
493.05	9588.17
493.41	9299.14
493.77	9033.65
494.13	8790.12
494.49	8554.54
494.85	8325.47
495.21	8100.80
495.57	7888.19
495.93	7674.83
496.29	7464.86
496.64	7287.21
497.00	7093.91
497.36	6903.83
497.72	6720.01
498.08	6538.75
498.44	6355.94
498.80	6198.67
499.16	6035.54
499.52	5887.20
499.88	5767.48
500.24	5648.70
500.60	5524.51
500.96	5417.54
501.32	5304.36
501.68	5171.69
502.03	5039.31
502.39	4914.54
502.75	4775.00
503.11	4652.00
503.47	4540.90
503.83	4420.13
504.19	4304.17
504.55	4209.06
504.91	4115.86
505.26	4020.34
505.62	3938.49
505.98	3855.94
506.34	3763.53
506.70	3667.34
507.06	3577.20
507.42	3494.30
507.78	3421.91
508.13	3343.39
508.49	3264.58
508.85	3192.61
509.21	3118.06
509.57	3043.21
509.93	2979.15
510.28	2918.53
510.64	2854.99
511.00	2798.86
511.36	2741.02
511.72	2687.36
512.07	2642.79
512.43	2592.54
512.79	2538.92
513.15	2495.64
513.51	2451.76
513.86	2400.85
514.22	2364.01
514.58	2327.64
514.94	2286.87
515.30	2251.55
515.65	2217.35
516.01	2187.30
516.37	2154.91
516.73	2123.26
517.08	2090.45
517.44	2063.25
517.80	2031.61
518.16	2003.69
518.51	1976.93
518.87	1948.17
519.23	1922.89
519.59	1898.31
519.94	1870.18
520.30	1848.63
520.66	1829.43
521.01	1806.19
521.37	1782.25
521.73	1766.66
522.09	1746.72
522.44	1727.76
522.80	1710.56
523.16	1690.01
523.51	1668.22
523.87	1643.78
524.23	1624.26
524.58	1604.72
524.94	1589.43
525.30	1575.60
525.65	1562.64
526.01	1546.30
526.37	1528.42
526.72	1516.64
527.08	1501.13
527.44	1489.33
527.79	1476.78
528.15	1464.71
528.51	1448.11
528.86	1438.94
529.22	1421.99
529.58	1414.27
529.93	1407.39
530.29	1397.04
530.65	1386.23
531.00	1380.54
531.36	1367.62
531.71	1357.39
532.07	1351.26
532.43	1342.20
532.78	1333.71
533.14	1328.11
533.49	1320.06
533.85	1315.66
534.21	1309.32
534.56	1304.94
534.92	1298.74
535.27	1294.06
535.63	1285.61
535.98	1277.37
536.34	1269.32
536.69	1262.32
537.05	1256.31
537.41	1250.06
537.76	1247.65
538.12	1243.67
538.47	1238.82
538.83	1237.14
539.18	1234.82
539.54	1231.92
539.89	1228.76
540.25	1221.43
540.60	1215.74
540.96	1212.82
541.31	1208.37
541.67	1205.42
542.02	1204.98
542.38	1197.96
542.73	1195.19
543.09	1192.90
543.44	1191.66
543.80	1189.18
544.15	1190.75
544.51	1182.81
544.86	1178.74
545.22	1172.49
545.57	1170.78
545.93	1168.28
546.28	1171.63
546.64	1169.14
546.99	1168.89
547.35	1166.66
547.70	1166.10
548.05	1161.82
548.41	1161.33
548.76	1157.63
549.12	1157.51
549.47	1153.63
549.83	1151.01
550.18	1147.28
550.53	1145.81
550.89	1140.24
551.24	1138.18
551.60	1136.80
551.95	1138.13
552.30	1140.64
552.66	1141.67
553.01	1140.31
553.37	1139.58
553.72	1136.10
554.07	1132.73
554.43	1133.52
554.78	1130.85
555.13	1129.10
555.49	1128.40
555.84	1127.53
556.19	1124.79
556.55	1122.19
556.90	1120.51
557.26	1122.92
557.61	1123.74
557.96	1124.21
558.32	1127.01
558.67	1128.98
559.02	1122.73
559.37	1119.55
559.73	1117.93
560.08	1120.63
560.43	1119.06
560.79	1120.74
561.14	1118.94
561.49	1118.24
561.85	1111.66
562.20	1111.75
562.55	1113.88
562.90	1111.47
563.26	1109.88
563.61	1111.97
563.96	1109.88
564.32	1104.52
564.67	1106.04
565.02	1104.50
565.37	1102.98
565.73	1105.97
566.08	1108.59
566.43	1108.06
566.78	1105.72
567.14	1106.21
567.49	1101.90
567.84	1099.40
568.19	1101.57
568.54	1104.99
568.90	1105.58
569.25	1107.19
569.60	1104.29
569.95	1100.31
570.31	1098.83
570.66	1098.81
571.01	1096.40
571.36	1100.17
571.71	1103.33
572.06	1100.66
572.42	1098.44
572.77	1098.86
573.12	1096.82
573.47	1095.14
573.82	1097.88
574.18	1098.20
574.53	1096.61
574.88	1097.43
575.23	1097.76
575.58	1096.80
575.93	1094.90
576.28	1096.17
576.64	1096.33
576.99	1094.50
577.34	1094.34
577.69	1093.62
578.04	1093.45
578.39	1094.81
578.74	1092.96
579.09	1091.16
579.44	1092.73
579.80	1091.25
580.15	1089.45
580.50	1091.39
580.85	1092.61
581.20	1092.12
581.55	1091.95
581.90	1091.81
582.25	1090.69
582.60	1089.87
582.95	1088.56
583.30	1087.90
583.65	1086.90
584.00	1087.53
584.35	1088.58
584.71	1090.24
585.06	1091.04
585.41	1092.56
585.76	1090.50
586.11	1088.86
586.46	1088.16
586.81	1087.48
587.16	1087.16
587.51	1088.28
587.86	1087.74
588.21	1087.65
588.56	1090.74
588.91	1086.24
589.26	1088.37
589.61	1084.18
589.96	1083.88
590.31	1083.27
590.66	1088.07
591.01	1085.38
591.36	1088.61
591.71	1086.43
592.06	1082.64
592.41	1079.43
592.76	1081.73
593.10	1084.96
593.45	1087.04
593.80	1089.71
594.15	1092.28
594.50	1092.02
594.85	1092.37
595.20	1092.61
595.55	1091.88
595.90	1089.92
596.25	1089.96
596.60	1090.20
596.95	1087.25
597.30	1089.07
597.64	1099.70
597.99	1095.72
598.34	1092.45
598.69	1098.88
599.04	1099.12
599.39	1088.91
599.74	1092.52
600.09	1093.57
600.44	1089.22
600.78	1084.35
601.13	1084.30
601.48	1083.76
601.83	1085.00
602.18	1082.47
602.53	1087.62
602.88	1088.61
603.22	1086.69
603.57	1087.55
603.92	1090.90
604.27	1087.34
604.62	1085.61
604.97	1088.56
605.31	1085.82
605.66	1084.25
606.01	1083.46
606.36	1087.39
606.71	1088.89
607.05	1088.23
607.40	1087.18
607.75	1086.50
608.10	1082.26
608.44	1079.36
608.79	1079.99
609.14	1078.61
609.49	1080.34
609.84	1080.46
610.18	1080.30
610.53	1083.11
610.88	1086.71
611.23	1086.97
611.57	1086.99
611.92	1086.99
612.27	1086.38
612.62	1085.89
612.96	1087.09
613.31	1085.82
613.66	1085.31
614.00	1083.32
614.35	1083.01
614.70	1082.97
615.05	1083.71
615.39	1083.60
615.74	1083.39
616.09	1085.80
616.43	1086.15
616.78	1085.77
617.13	1087.16
617.47	1089.47
617.82	1084.77
618.17	1083.76
618.51	1083.32
618.86	1082.03
619.21	1079.81
619.55	1082.45
619.90	1079.90
620.25	1080.53
620.59	1079.92
620.94	1078.66
621.29	1079.01
621.63	1081.21
621.98	1081.73
622.32	1081.26
622.67	1083.11
623.02	1082.52
623.36	1081.23
623.71	1081.19
624.05	1081.87
624.40	1079.03
624.75	1075.48
625.09	1075.66
625.44	1074.91
625.78	1073.00
626.13	1075.17
626.48	1078.50
626.82	1077.25
627.17	1080.02
627.51	1082.87
627.86	1084.89
628.20	1085.70
628.55	1089.36
628.89	1086.64
629.24	1085.19
629.58	1082.64
629.93	1079.99
630.28	1080.13
630.62	1081.40
630.97	1081.16
631.31	1082.03
631.66	1082.87
632.00	1080.46
632.35	1079.76
632.69	1082.17
633.04	1080.86
633.38	1079.53
633.73	1079.10
634.07	1078.57
634.42	1079.85
634.76	1081.44
635.11	1084.35
635.45	1084.16
635.79	1085.87
636.14	1085.54
636.48	1084.04
636.83	1083.53
637.17	1085.21
637.52	1084.46
637.86	1082.43
638.21	1082.26
638.55	1078.40
638.89	1077.56
639.24	1077.51
639.58	1073.74
639.93	1075.43
640.27	1079.13
640.61	1080.39
640.96	1076.58
641.30	1080.44
641.65	1080.65
641.99	1079.81
642.33	1078.73
642.68	1083.64
643.02	1084.46
643.37	1086.17
643.71	1089.17
644.05	1090.01
644.40	1090.01
644.74	1089.71
645.08	1086.38
645.43	1086.13
645.77	1084.74
646.11	1085.56
646.46	1083.11
646.80	1083.55
647.14	1081.26
647.49	1081.91
647.83	1079.24
648.17	1081.63
648.52	1080.13
648.86	1081.21
649.20	1080.44
649.55	1082.22
649.89	1080.91
650.23	1081.98
650.57	1078.99
650.92	1075.57
651.26	1073.39
651.60	1072.81
651.95	1072.20
652.29	1076.44
652.63	1083.74
652.97	1082.12
653.32	1083.13
653.66	1084.51
654.00	1084.58
654.34	1082.45
654.69	1084.56
655.03	1085.99
655.37	1084.86
655.71	1080.70
656.05	1077.75
656.40	1079.67
656.74	1079.15
657.08	1078.59
657.42	1083.20
657.76	1084.46
658.11	1082.57
658.45	1082.24
658.79	1081.75
659.13	1077.72
659.47	1079.24
659.82	1081.68
660.16	1081.02
660.50	1082.40
660.84	1085.26
661.18	1081.42
661.52	1078.40
661.87	1079.48
662.21	1079.69
662.55	1076.58
662.89	1076.76
663.23	1076.55
663.57	1075.31
663.91	1073.81
664.25	1075.45
664.60	1079.29
664.94	1080.51
665.28	1080.16
665.62	1082.17
665.96	1081.28
666.30	1080.84
666.64	1081.61
666.98	1081.89
667.32	1080.34
667.66	1082.24
668.01	1079.99
668.35	1078.54
668.69	1078.24
669.03	1079.83
669.37	1077.96
669.71	1079.01
670.05	1082.40
670.39	1086.13
670.73	1086.99
671.07	1086.69
671.41	1085.42
671.75	1082.17
672.09	1078.36
672.43	1075.57
672.77	1073.95
673.11	1077.33
673.45	1077.14
673.79	1076.58
674.13	1076.97
674.47	1080.04
674.81	1079.27
675.15	1079.10
675.49	1080.67
675.83	1081.82
676.17	1082.90
676.51	1079.48
676.85	1079.81
677.19	1079.90
677.53	1078.64
677.87	1076.44
678.21	1079.81
678.55	1079.95
678.89	1079.31
679.23	1081.51
679.57	1080.84
679.90	1079.69
680.24	1080.65
680.58	1081.23
680.92	1082.36
681.26	1083.74
681.60	1084.00
681.94	1085.59
682.28	1083.88
682.62	1081.75
682.96	1082.54
683.29	1083.71
683.63	1083.76
683.97	1084.53
684.31	1084.53
684.65	1085.47
684.99	1081.75
685.33	1079.38
685.67	1080.72
686.00	1079.31
686.34	1077.42
686.68	1081.66
687.02	1079.57
687.36	1077.09
687.70	1078.54
688.03	1077.37
688.37	1075.10
688.71	1076.97
689.05	1076.90
689.39	1075.43
689.72	1076.18
690.06	1077.65
690.40	1075.94
690.74	1074.96
691.08	1076.37
691.41	1078.99
691.75	1075.36
692.09	1077.84
692.43	1080.02
692.76	1080.58
693.10	1073.21
693.44	1076.11
693.78	1074.91
694.11	1074.66
694.45	1071.73
694.79	1078.36
695.13	1074.49
695.46	1073.91
695.80	1075.13
696.14	1075.83
696.48	1072.69
696.81	1074.00
697.15	1074.45
697.49	1073.14
697.82	1074.17
698.16	1077.23
698.50	1080.65
698.83	1080.39
699.17	1081.26
699.51	1084.72
699.84	1082.64
700.18	1080.23
700.52	1082.54
700.85	1081.75
701.19	1078.89
701.53	1081.30
701.86	1082.97
702.20	1084.02
702.54	1086.45
702.87	1084.07
703.21	1082.36
703.55	1081.63
703.88	1077.00
704.22	1073.28
704.55	1074.40
704.89	1073.16
705.23	1072.83
705.56	1076.65
705.90	1078.26
706.23	1080.56
706.57	1078.87
706.91	1081.33
707.24	1078.05
707.58	1079.76
707.91	1077.68
708.25	1079.67
708.58	1078.33
708.92	1080.93
709.26	1079.24
709.59	1081.82
709.93	1086.01
710.26	1085.54
710.60	1082.83
710.93	1082.76
711.27	1083.79
711.60	1079.29
711.94	1076.72
712.27	1078.94
712.61	1078.99
712.94	1074.91
713.28	1073.65
713.61	1076.81
713.95	1074.80
714.28	1074.77
714.62	1077.35
714.95	1080.65
715.29	1077.09
715.62	1079.78
715.96	1076.04
716.29	1072.13
716.63	1072.97
716.96	1076.95
717.29	1077.40
717.63	1080.51
717.96	1082.90
718.30	1078.05
718.63	1075.22
718.97	1074.10
719.30	1074.75
719.63	1074.96
719.97	1076.11
720.30	1078.36
720.64	1079.34
720.97	1080.93
721.30	1079.85
721.64	1082.05
721.97	1080.93
722.31	1079.29
722.64	1077.93
722.97	1080.63
723.31	1080.18
723.64	1079.55
723.97	1078.59
724.31	1080.06
724.64	1076.11
724.98	1077.09
725.31	1077.65
725.64	1079.10
725.98	1079.29
726.31	1080.39
726.64	1079.36
726.97	1078.96
727.31	1079.95
727.64	1079.69
727.97	1078.54
728.31	1079.06
728.64	1078.85
728.97	1078.94
729.31	1076.34
729.64	1077.28
729.97	1077.58
730.30	1077.44
730.64	1077.61
730.97	1078.64
731.30	1077.86
731.63	1074.47
731.97	1075.73
732.30	1076.41
732.63	1075.48
732.96	1078.54
733.30	1082.57
733.63	1081.02
733.96	1076.53
734.29	1077.00
734.63	1074.75
734.96	1070.30
735.29	1073.74
735.62	1078.28
735.95	1079.15
736.29	1078.03
736.62	1083.22
736.95	1080.41
737.28	1078.19
737.61	1077.33
737.94	1079.55
738.28	1075.38
738.61	1075.92
738.94	1076.51
739.27	1078.87
739.60	1079.17
739.93	1081.63
740.27	1084.02
740.60	1082.17
740.93	1080.84
741.26	1079.34
741.59	1080.13
741.92	1078.96
742.25	1081.05
742.58	1079.06
742.91	1079.71
743.25	1078.17
743.58	1077.65
743.91	1074.84
744.24	1076.44
744.57	1077.28
744.90	1080.30
745.23	1080.13
745.56	1082.97
745.89	1082.03
746.22	1080.84
746.55	1077.51
746.88	1078.10
747.21	1074.35
747.54	1076.41
747.87	1080.18
748.20	1080.37
748.53	1079.81
748.87	1084.56
749.20	1083.29
749.53	1077.75
749.86	1078.33
750.19	1079.29
750.52	1079.62
750.85	1079.22
751.18	1081.84
751.51	1083.71
751.84	1085.47
752.16	1083.22
752.49	1083.62
752.82	1083.55
753.15	1078.71
753.48	1076.60
753.81	1075.69
754.14	1077.02
754.47	1077.56
754.80	1079.76
755.13	1080.63
755.46	1083.81
755.79	1084.67
756.12	1085.03
756.45	1087.25
756.78	1083.97
757.11	1083.86
757.43	1080.65
757.76	1078.28
758.09	1076.79
758.42	1078.59
758.75	1074.54
759.08	1074.59
759.41	1074.96
759.74	1075.69
760.07	1075.48
760.39	1078.03
760.72	1078.94
761.05	1078.80
761.38	1074.87
761.71	1072.76
762.04	1074.12
762.36	1075.64
762.69	1075.83
763.02	1077.35
763.35	1079.62
763.68	1078.00
764.01	1077.18
