SpectraSuite Data File
++++++++++++++++++++++++++++++++++++
Date: Mon Aug 26 10:22:17 PDT 2019
User: corrico
Dark Spectrum Present: No
Reference Spectrum Present: No
Number of Sampled Component Spectra: 1
Spectrometers: USB2+H06089
Integration Time (usec): 2000 (USB2+H06089)
Spectra Averaged: 20 (USB2+H06089)
Boxcar Smoothing: 2 (USB2+H06089)
Correct for Electrical Dark: No (USB2+H06089)
Strobe/Lamp Enabled: No (USB2+H06089)
Correct for Detector Non-linearity: No (USB2+H06089)
Correct for Stray Light: No (USB2+H06089)
Number of Pixels in Processed Spectrum: 2048
>>>>>Begin Processed Spectral Data<<<<<
339.70	1047.16
340.07	1047.16
340.45	1002.40
340.82	978.39
341.19	952.15
341.57	922.90
341.94	913.98
342.31	903.40
342.69	894.69
343.06	890.71
343.43	891.56
343.81	891.63
344.18	896.59
344.55	904.97
344.93	907.80
345.30	914.03
345.67	924.65
346.04	935.21
346.42	941.48
346.79	952.32
347.16	959.69
347.54	964.58
347.91	972.47
348.28	982.74
348.65	993.39
349.03	1001.00
349.40	1010.76
349.77	1015.77
350.14	1021.90
350.52	1030.40
350.89	1037.56
351.26	1042.92
351.63	1054.74
352.01	1058.93
352.38	1063.94
352.75	1068.83
353.12	1070.51
353.50	1069.65
353.87	1074.05
354.24	1072.27
354.61	1077.40
354.98	1081.84
355.36	1084.91
355.73	1086.13
356.10	1088.02
356.47	1083.22
356.84	1085.73
357.22	1084.49
357.59	1081.44
357.96	1080.67
358.33	1081.23
358.70	1076.67
359.08	1074.21
359.45	1074.75
359.82	1074.28
360.19	1076.69
360.56	1079.60
360.94	1083.43
361.31	1085.66
361.68	1084.98
362.05	1082.08
362.42	1083.22
362.79	1080.09
363.16	1077.14
363.54	1075.90
363.91	1076.76
364.28	1072.67
364.65	1074.63
365.02	1074.59
365.39	1076.46
365.76	1076.58
366.14	1080.25
366.51	1081.16
366.88	1084.46
367.25	1084.91
367.62	1086.13
367.99	1083.79
368.36	1080.53
368.73	1076.39
369.10	1075.24
369.48	1073.23
369.85	1073.28
370.22	1077.56
370.59	1079.41
370.96	1078.73
371.33	1080.60
371.70	1077.49
372.07	1071.94
372.44	1071.01
372.81	1070.26
373.18	1067.66
373.55	1068.67
373.93	1069.84
374.30	1072.34
374.67	1074.28
375.04	1072.85
375.41	1075.05
375.78	1077.33
376.15	1078.87
376.52	1079.41
376.89	1084.74
377.26	1086.80
377.63	1085.77
378.00	1081.77
378.37	1081.33
378.74	1079.01
379.11	1076.55
379.48	1077.65
379.85	1079.83
380.22	1078.89
380.59	1079.48
380.96	1081.37
381.33	1081.40
381.70	1078.71
382.07	1078.14
382.44	1077.16
382.81	1075.69
383.18	1076.20
383.55	1079.88
383.92	1080.81
384.29	1079.62
384.66	1080.44
385.03	1080.81
385.40	1079.17
385.77	1080.79
386.14	1082.40
386.51	1083.71
386.88	1082.78
387.25	1083.29
387.62	1082.01
387.99	1083.79
388.36	1084.70
388.73	1086.76
389.10	1088.28
389.46	1088.75
389.83	1088.09
390.20	1085.94
390.57	1086.62
390.94	1084.02
391.31	1083.95
391.68	1084.91
392.05	1083.83
392.42	1080.37
392.79	1078.40
393.16	1080.93
393.53	1082.22
393.89	1082.15
394.26	1082.71
394.63	1089.45
395.00	1087.86
395.37	1084.49
395.74	1088.75
396.11	1091.27
396.48	1090.17
396.84	1090.46
397.21	1092.70
397.58	1091.74
397.95	1088.61
398.32	1089.59
398.69	1089.47
399.06	1090.06
399.42	1087.72
399.79	1090.92
400.16	1090.62
400.53	1092.14
400.90	1090.97
401.27	1089.10
401.64	1087.32
402.00	1083.60
402.37	1082.73
402.74	1082.47
403.11	1087.44
403.48	1089.26
403.84	1090.48
404.21	1093.92
404.58	1096.87
404.95	1095.30
405.32	1095.44
405.68	1098.79
406.05	1097.15
406.42	1094.60
406.79	1095.14
407.16	1092.00
407.52	1091.86
407.89	1088.42
408.26	1091.16
408.63	1091.58
408.99	1093.01
409.36	1091.60
409.73	1092.66
410.10	1091.79
410.47	1092.07
410.83	1096.19
411.20	1095.04
411.57	1101.32
411.94	1100.99
412.30	1104.08
412.67	1102.44
413.04	1104.48
413.40	1101.53
413.77	1101.53
414.14	1100.19
414.51	1102.32
414.87	1099.72
415.24	1102.32
415.61	1102.28
415.97	1103.63
416.34	1104.03
416.71	1106.51
417.08	1106.42
417.44	1110.77
417.81	1109.09
418.18	1107.33
418.54	1107.92
418.91	1106.70
419.28	1105.06
419.64	1103.75
420.01	1103.82
420.38	1108.41
420.74	1108.62
421.11	1111.80
421.48	1116.20
421.84	1119.81
422.21	1122.10
422.58	1123.60
422.94	1124.56
423.31	1129.24
423.68	1131.34
424.04	1131.72
424.41	1135.79
424.77	1139.58
425.14	1140.03
425.51	1143.00
425.87	1145.69
426.24	1149.37
426.61	1154.00
426.97	1163.95
427.34	1166.22
427.70	1172.26
428.07	1180.87
428.44	1187.12
428.80	1191.05
429.17	1204.74
429.53	1213.83
429.90	1223.84
430.27	1232.95
430.63	1242.64
431.00	1251.37
431.36	1264.31
431.73	1273.70
432.09	1287.72
432.46	1298.62
432.83	1316.29
433.19	1328.96
433.56	1349.81
433.92	1369.10
434.29	1393.63
434.65	1416.42
435.02	1442.36
435.38	1468.36
435.75	1495.77
436.11	1524.13
436.48	1554.77
436.84	1588.31
437.21	1621.80
437.57	1656.26
437.94	1695.18
438.30	1737.61
438.67	1782.83
439.03	1831.26
439.40	1888.23
439.76	1943.77
440.13	2004.43
440.49	2068.28
440.86	2135.46
441.22	2208.16
441.59	2278.84
441.95	2360.52
442.32	2447.36
442.68	2544.51
443.05	2634.39
443.41	2737.61
443.78	2837.62
444.14	2943.88
444.51	3050.54
444.87	3187.06
445.24	3323.42
445.60	3470.10
445.96	3626.38
446.33	3796.72
446.69	3962.34
447.06	4145.56
447.42	4325.80
447.79	4512.76
448.15	4733.66
448.51	4954.28
448.88	5207.67
449.24	5455.04
449.61	5723.05
449.97	5992.15
450.33	6283.85
450.70	6543.46
451.06	6869.73
451.43	7184.70
451.79	7552.63
452.15	7953.75
452.52	8402.20
452.88	8864.12
453.24	9403.20
453.61	9971.38
453.97	10528.64
454.34	11085.83
454.70	11721.05
455.06	12359.64
455.43	12983.37
455.79	13583.04
456.15	14287.03
456.52	14950.83
456.88	15720.82
457.24	16434.26
457.61	17273.29
457.97	18044.59
458.33	18836.87
458.70	19593.54
459.06	20364.37
459.42	21200.24
459.79	21976.27
460.15	22870.33
460.51	23730.32
460.88	24647.18
461.24	25442.14
461.60	26394.10
461.96	27269.56
462.33	28116.29
462.69	28931.85
463.05	29811.52
463.42	30565.22
463.78	31220.05
464.14	31761.16
464.50	32353.62
464.87	32801.16
465.23	33140.82
465.59	33499.95
465.95	33826.66
466.32	34093.34
466.68	34340.25
467.04	34489.55
467.40	34617.69
467.77	34787.85
468.13	34757.94
468.49	34675.43
468.85	34604.02
469.22	34452.12
469.58	34096.97
469.94	33831.91
470.30	33490.84
470.66	33073.01
471.03	32465.57
471.39	32077.72
471.75	31475.64
472.11	30918.97
472.47	30578.68
472.84	30300.22
473.20	29829.52
473.56	29569.53
473.92	29143.55
474.28	28613.89
474.65	28117.67
475.01	27672.86
475.37	27134.02
475.73	26696.62
476.09	26213.49
476.45	25713.29
476.81	25188.19
477.18	24638.77
477.54	24167.76
477.90	23795.34
478.26	23346.26
478.62	22985.68
478.98	22690.79
479.34	22359.07
479.71	21929.44
480.07	21583.25
480.43	21215.69
480.79	20823.86
481.15	20463.65
481.51	20154.91
481.87	19893.36
482.23	19597.82
482.59	19337.44
482.96	19066.24
483.32	18764.40
483.68	18399.58
484.04	18062.97
484.40	17690.38
484.76	17315.12
485.12	16939.04
485.48	16606.19
485.84	16253.29
486.20	15893.97
486.56	15525.29
486.92	15227.22
487.28	14891.80
487.64	14540.46
488.00	14215.64
488.37	13902.36
488.73	13528.32
489.09	13172.44
489.45	12865.90
489.81	12562.99
490.17	12270.63
490.53	11997.19
490.89	11704.53
491.25	11403.98
491.61	11091.61
491.97	10768.27
492.33	10447.47
492.69	10152.14
493.05	9851.57
493.41	9558.21
493.77	9286.43
494.13	9028.92
494.49	8766.48
494.85	8511.24
495.21	8279.32
495.57	8050.11
495.93	7831.76
496.29	7622.70
496.64	7439.65
497.00	7250.56
497.36	7057.79
497.72	6863.36
498.08	6683.84
498.44	6494.12
498.80	6324.15
499.16	6163.94
499.52	6007.15
499.88	5871.28
500.24	5749.27
500.60	5619.91
500.96	5502.67
501.32	5381.71
501.68	5257.83
502.03	5131.86
502.39	5005.91
502.75	4862.77
503.11	4732.91
503.47	4611.23
503.83	4485.99
504.19	4364.51
504.55	4270.64
504.91	4186.49
505.26	4093.04
505.62	4012.05
505.98	3924.31
506.34	3823.87
506.70	3727.33
507.06	3638.57
507.42	3554.76
507.78	3480.66
508.13	3410.35
508.49	3333.44
508.85	3261.42
509.21	3181.42
509.57	3108.63
509.93	3040.12
510.28	2973.72
510.64	2912.47
511.00	2852.04
511.36	2788.82
511.72	2731.80
512.07	2681.65
512.43	2630.08
512.79	2580.09
513.15	2537.98
513.51	2490.40
513.86	2446.07
514.22	2401.34
514.58	2359.77
514.94	2321.86
515.30	2284.81
515.65	2244.85
516.01	2211.46
516.37	2179.79
516.73	2145.71
517.08	2119.80
517.44	2090.54
517.80	2063.25
518.16	2039.80
518.51	2011.43
518.87	1983.00
519.23	1955.03
519.59	1926.66
519.94	1895.23
520.30	1874.68
520.66	1847.29
521.01	1824.28
521.37	1799.33
521.73	1777.61
522.09	1750.70
522.44	1734.83
522.80	1717.39
523.16	1698.78
523.51	1679.78
523.87	1660.68
524.23	1640.22
524.58	1620.00
524.94	1603.36
525.30	1589.72
525.65	1572.25
526.01	1555.17
526.37	1542.72
526.72	1526.87
527.08	1512.66
527.44	1505.36
527.79	1492.02
528.15	1475.50
528.51	1464.87
528.86	1450.27
529.22	1436.08
529.58	1422.18
529.93	1415.39
530.29	1407.15
530.65	1397.53
531.00	1388.59
531.36	1383.28
531.71	1371.67
532.07	1361.35
532.43	1351.64
532.78	1342.37
533.14	1333.05
533.49	1326.48
533.85	1320.11
534.21	1314.28
534.56	1308.36
534.92	1302.81
535.27	1297.66
535.63	1292.14
535.98	1285.87
536.34	1279.97
536.69	1274.40
537.05	1266.44
537.41	1260.89
537.76	1257.41
538.12	1250.81
538.47	1242.26
538.83	1238.96
539.18	1233.98
539.54	1228.01
539.89	1225.39
540.25	1222.65
540.60	1220.40
540.96	1217.90
541.31	1215.04
541.67	1212.44
542.02	1209.03
542.38	1201.26
542.73	1197.96
543.09	1194.14
543.44	1188.95
543.80	1185.74
544.15	1187.03
544.51	1185.39
544.86	1185.41
545.22	1189.09
545.57	1191.80
545.93	1186.30
546.28	1181.90
546.64	1179.63
546.99	1171.44
547.35	1164.79
547.70	1163.71
548.05	1165.42
548.41	1161.63
548.76	1159.92
549.12	1158.52
549.47	1158.85
549.83	1152.06
550.18	1150.35
550.53	1152.01
550.89	1151.75
551.24	1150.44
551.60	1152.22
551.95	1150.19
552.30	1144.17
552.66	1143.89
553.01	1138.37
553.37	1133.97
553.72	1134.20
554.07	1135.16
554.43	1134.15
554.78	1133.24
555.13	1131.02
555.49	1128.77
555.84	1126.97
556.19	1119.97
556.55	1117.35
556.90	1117.82
557.26	1116.46
557.61	1117.04
557.96	1119.17
558.32	1121.80
558.67	1121.12
559.02	1119.74
559.37	1118.24
559.73	1119.92
560.08	1118.45
560.43	1117.63
560.79	1120.67
561.14	1118.80
561.49	1118.31
561.85	1117.42
562.20	1116.30
562.55	1114.94
562.90	1113.16
563.26	1109.18
563.61	1111.29
563.96	1108.59
564.32	1104.48
564.67	1104.03
565.02	1105.58
565.37	1102.65
565.73	1104.19
566.08	1103.23
566.43	1107.00
566.78	1106.49
567.14	1106.11
567.49	1105.36
567.84	1106.30
568.19	1104.94
568.54	1102.74
568.90	1101.81
569.25	1102.58
569.60	1102.98
569.95	1099.70
570.31	1101.22
570.66	1102.58
571.01	1099.21
571.36	1097.24
571.71	1098.74
572.06	1096.89
572.42	1096.89
572.77	1096.63
573.12	1097.10
573.47	1095.28
573.82	1097.62
574.18	1097.38
574.53	1099.63
574.88	1098.98
575.23	1101.08
575.58	1097.69
575.93	1094.08
576.28	1088.68
576.64	1089.19
576.99	1086.76
577.34	1088.09
577.69	1090.03
578.04	1094.67
578.39	1099.00
578.74	1098.67
579.09	1099.93
579.44	1101.41
579.80	1100.94
580.15	1098.41
580.50	1100.47
580.85	1098.34
581.20	1094.46
581.55	1092.30
581.90	1090.76
582.25	1088.09
582.60	1089.19
582.95	1091.11
583.30	1092.28
583.65	1092.42
584.00	1091.04
584.35	1086.34
584.71	1083.76
585.06	1085.33
585.41	1080.34
585.76	1081.26
586.11	1085.21
586.46	1086.52
586.81	1085.52
587.16	1091.51
587.51	1093.71
587.86	1093.92
588.21	1094.83
588.56	1093.69
588.91	1094.74
589.26	1092.70
589.61	1090.62
589.96	1089.52
590.31	1090.15
590.66	1087.76
591.01	1089.24
591.36	1086.85
591.71	1089.03
592.06	1089.19
592.41	1086.43
592.76	1086.22
593.10	1087.44
593.45	1086.69
593.80	1085.45
594.15	1087.04
594.50	1088.14
594.85	1088.65
595.20	1090.39
595.55	1092.63
595.90	1094.11
596.25	1092.80
596.60	1098.32
596.95	1095.49
597.30	1091.16
597.64	1100.45
597.99	1098.81
598.34	1093.10
598.69	1092.82
599.04	1099.40
599.39	1087.09
599.74	1087.76
600.09	1091.88
600.44	1092.77
600.78	1085.47
601.13	1086.83
601.48	1085.42
601.83	1083.71
602.18	1081.33
602.53	1084.09
602.88	1083.60
603.22	1084.65
603.57	1084.44
603.92	1085.75
604.27	1086.15
604.62	1087.51
604.97	1087.86
605.31	1087.20
605.66	1088.26
606.01	1090.24
606.36	1090.06
606.71	1090.97
607.05	1090.13
607.40	1090.74
607.75	1088.00
608.10	1084.21
608.44	1084.77
608.79	1086.17
609.14	1082.33
609.49	1084.09
609.84	1086.85
610.18	1086.57
610.53	1085.00
610.88	1086.76
611.23	1082.45
611.57	1081.91
611.92	1079.83
612.27	1079.81
612.62	1077.18
612.96	1078.94
613.31	1081.40
613.66	1081.75
614.00	1081.00
614.35	1083.34
614.70	1082.54
615.05	1078.54
615.39	1076.32
615.74	1076.32
616.09	1077.89
616.43	1080.37
616.78	1083.08
617.13	1088.09
617.47	1086.66
617.82	1085.94
618.17	1083.39
618.51	1083.88
618.86	1079.78
619.21	1079.01
619.55	1074.26
619.90	1074.21
620.25	1073.00
620.59	1074.31
620.94	1081.05
621.29	1083.46
621.63	1088.44
621.98	1087.79
622.32	1087.20
622.67	1086.06
623.02	1088.79
623.36	1089.59
623.71	1090.08
624.05	1089.47
624.40	1088.30
624.75	1091.27
625.09	1086.41
625.44	1085.12
625.78	1086.83
626.13	1086.31
626.48	1081.98
626.82	1083.83
627.17	1086.38
627.51	1086.27
627.86	1083.97
628.20	1084.65
628.55	1085.19
628.89	1083.95
629.24	1086.15
629.58	1089.82
629.93	1089.22
630.28	1087.39
630.62	1086.10
630.97	1084.96
631.31	1082.94
631.66	1084.46
632.00	1083.48
632.35	1083.95
632.69	1082.12
633.04	1080.88
633.38	1079.74
633.73	1080.23
634.07	1078.47
634.42	1079.48
634.76	1079.88
635.11	1081.49
635.45	1081.35
635.79	1083.46
636.14	1082.87
636.48	1083.11
636.83	1082.26
637.17	1082.61
637.52	1082.36
637.86	1081.07
638.21	1082.31
638.55	1081.63
638.89	1079.60
639.24	1079.81
639.58	1080.93
639.93	1078.43
640.27	1078.38
640.61	1084.46
640.96	1084.37
641.30	1081.80
641.65	1080.23
641.99	1080.79
642.33	1078.50
642.68	1080.88
643.02	1080.56
643.37	1084.53
643.71	1084.53
644.05	1081.35
644.40	1080.77
644.74	1084.28
645.08	1081.54
645.43	1082.54
645.77	1083.01
646.11	1081.70
646.46	1081.19
646.80	1080.20
647.14	1077.96
647.49	1080.18
647.83	1079.15
648.17	1079.15
648.52	1081.12
648.86	1083.57
649.20	1079.81
649.55	1079.88
649.89	1081.70
650.23	1083.74
650.57	1080.72
650.92	1085.70
651.26	1086.85
651.60	1082.83
651.95	1080.41
652.29	1081.42
652.63	1082.69
652.97	1083.34
653.32	1085.14
653.66	1087.79
654.00	1088.40
654.34	1086.59
654.69	1084.32
655.03	1085.47
655.37	1084.32
655.71	1086.69
656.05	1086.64
656.40	1088.35
656.74	1087.58
657.08	1087.39
657.42	1080.30
657.76	1081.35
658.11	1080.18
658.45	1082.31
658.79	1079.88
659.13	1084.25
659.47	1083.06
659.82	1084.72
660.16	1084.46
660.50	1085.05
660.84	1084.09
661.18	1083.13
661.52	1081.96
661.87	1078.82
662.21	1080.88
662.55	1081.63
662.89	1079.81
663.23	1077.51
663.57	1076.69
663.91	1076.83
664.25	1077.56
664.60	1080.41
664.94	1083.76
665.28	1084.77
665.62	1084.65
665.96	1084.56
666.30	1085.31
666.64	1084.18
666.98	1085.14
667.32	1082.17
667.66	1079.92
668.01	1080.20
668.35	1078.71
668.69	1079.43
669.03	1083.11
669.37	1084.35
669.71	1081.77
670.05	1083.08
670.39	1082.85
670.73	1082.76
671.07	1085.59
671.41	1083.53
671.75	1081.35
672.09	1078.24
672.43	1076.04
672.77	1071.94
673.11	1073.09
673.45	1075.31
673.79	1079.60
674.13	1081.35
674.47	1084.39
674.81	1086.78
675.15	1086.24
675.49	1082.57
675.83	1081.94
676.17	1078.66
676.51	1077.28
676.85	1077.84
677.19	1082.50
677.53	1082.43
677.87	1083.43
678.21	1083.83
678.55	1085.61
678.89	1081.66
679.23	1081.05
679.57	1083.32
679.90	1080.60
680.24	1079.69
680.58	1079.36
680.92	1078.87
681.26	1076.37
681.60	1078.54
681.94	1076.04
682.28	1075.22
682.62	1073.74
682.96	1074.80
683.29	1074.68
683.63	1077.16
683.97	1079.50
684.31	1082.19
684.65	1084.14
684.99	1084.09
685.33	1083.41
685.67	1082.10
686.00	1085.75
686.34	1082.90
686.68	1082.57
687.02	1082.61
687.36	1085.31
687.70	1082.83
688.03	1086.13
688.37	1087.34
688.71	1087.97
689.05	1086.06
689.39	1083.67
689.72	1081.44
690.06	1080.48
690.40	1080.27
690.74	1080.95
691.08	1082.97
691.41	1081.30
691.75	1080.09
692.09	1080.72
692.43	1079.76
692.76	1078.17
693.10	1076.32
693.44	1076.34
693.78	1074.47
694.11	1073.18
694.45	1073.98
694.79	1080.77
695.13	1080.95
695.46	1083.01
695.80	1085.31
696.14	1083.60
696.48	1080.77
696.81	1081.40
697.15	1078.10
697.49	1080.58
697.82	1082.78
698.16	1082.80
698.50	1082.57
698.83	1081.96
699.17	1080.34
699.51	1079.88
699.84	1079.57
700.18	1077.70
700.52	1083.50
700.85	1079.81
701.19	1078.96
701.53	1079.06
701.86	1079.48
702.20	1078.59
702.54	1080.37
702.87	1080.65
703.21	1082.17
703.55	1085.94
703.88	1082.57
704.22	1083.55
704.55	1081.96
704.89	1078.54
705.23	1076.62
705.56	1077.11
705.90	1074.49
706.23	1076.11
706.57	1075.05
706.91	1076.79
707.24	1079.15
707.58	1081.14
707.91	1079.88
708.25	1084.30
708.58	1081.28
708.92	1080.74
709.26	1081.02
709.59	1085.03
709.93	1083.67
710.26	1082.69
710.60	1081.58
710.93	1080.04
711.27	1077.79
711.60	1076.76
711.94	1077.56
712.27	1076.58
712.61	1073.77
712.94	1076.39
713.28	1076.97
713.61	1078.59
713.95	1081.26
714.28	1085.56
714.62	1081.40
714.95	1079.99
715.29	1076.30
715.62	1074.75
715.96	1072.85
716.29	1072.92
716.63	1073.63
716.96	1077.68
717.29	1075.97
717.63	1075.97
717.96	1074.40
718.30	1073.25
718.63	1073.42
718.97	1075.03
719.30	1077.25
719.63	1078.71
719.97	1081.16
720.30	1081.44
720.64	1081.61
720.97	1080.60
721.30	1084.93
721.64	1085.63
721.97	1084.49
722.31	1084.77
722.64	1083.15
722.97	1079.43
723.31	1078.57
723.64	1078.33
723.97	1078.26
724.31	1080.18
724.64	1077.44
724.98	1078.17
725.31	1077.65
725.64	1074.87
725.98	1074.00
726.31	1078.54
726.64	1079.29
726.97	1080.70
727.31	1082.47
727.64	1085.17
727.97	1085.49
728.31	1082.45
728.64	1079.95
728.97	1079.08
729.31	1077.70
729.64	1075.52
729.97	1077.23
730.30	1079.13
730.64	1080.53
730.97	1078.89
731.30	1080.58
731.63	1079.34
731.97	1081.12
732.30	1079.03
732.63	1081.16
732.96	1079.29
733.30	1081.84
733.63	1082.19
733.96	1083.01
734.29	1082.03
734.63	1082.64
734.96	1081.37
735.29	1079.88
735.62	1081.68
735.95	1080.65
736.29	1080.93
736.62	1079.99
736.95	1078.82
737.28	1079.36
737.61	1079.03
737.94	1076.81
738.28	1076.37
738.61	1078.36
738.94	1074.52
739.27	1074.89
739.60	1076.30
739.93	1075.90
740.27	1075.90
740.60	1076.39
740.93	1078.38
741.26	1079.50
741.59	1079.43
741.92	1079.29
742.25	1077.77
742.58	1073.72
742.91	1074.47
743.25	1075.66
743.58	1073.46
743.91	1073.88
744.24	1077.84
744.57	1076.72
744.90	1075.10
745.23	1077.58
745.56	1079.88
745.89	1081.12
746.22	1082.52
746.55	1081.42
746.88	1080.60
747.21	1082.71
747.54	1080.25
747.87	1078.54
748.20	1078.87
748.53	1079.34
748.87	1076.55
749.20	1078.71
749.53	1081.44
749.86	1084.60
750.19	1085.42
750.52	1084.56
750.85	1083.41
751.18	1080.13
751.51	1078.61
751.84	1078.38
752.16	1082.22
752.49	1080.23
752.82	1083.76
753.15	1086.17
753.48	1086.69
753.81	1083.55
754.14	1083.57
754.47	1079.95
754.80	1074.77
755.13	1073.21
755.46	1073.53
755.79	1072.88
756.12	1074.61
756.45	1078.54
756.78	1082.78
757.11	1084.70
757.43	1087.13
757.76	1085.42
758.09	1086.64
758.42	1078.45
758.75	1078.36
759.08	1077.14
759.41	1077.44
759.74	1074.61
760.07	1078.12
760.39	1081.33
760.72	1084.28
761.05	1085.07
761.38	1086.01
761.71	1088.84
762.04	1084.79
762.36	1081.12
762.69	1076.58
763.02	1079.13
763.35	1073.67
763.68	1074.70
764.01	1072.74
