SpectraSuite Data File
++++++++++++++++++++++++++++++++++++
Date: Mon Aug 26 10:22:28 PDT 2019
User: corrico
Dark Spectrum Present: No
Reference Spectrum Present: No
Number of Sampled Component Spectra: 1
Spectrometers: USB2+H06089
Integration Time (usec): 2000 (USB2+H06089)
Spectra Averaged: 20 (USB2+H06089)
Boxcar Smoothing: 2 (USB2+H06089)
Correct for Electrical Dark: No (USB2+H06089)
Strobe/Lamp Enabled: No (USB2+H06089)
Correct for Detector Non-linearity: No (USB2+H06089)
Correct for Stray Light: No (USB2+H06089)
Number of Pixels in Processed Spectrum: 2048
>>>>>Begin Processed Spectral Data<<<<<
339.70	1019.65
340.07	1019.65
340.45	989.25
340.82	969.05
341.19	946.35
341.57	922.36
341.94	910.33
342.31	903.33
342.69	898.18
343.06	894.81
343.43	894.04
343.81	893.43
344.18	894.04
344.55	896.43
344.93	900.94
345.30	907.03
345.67	913.79
346.04	920.56
346.42	931.56
346.79	943.96
347.16	955.27
347.54	965.73
347.91	978.60
348.28	988.53
348.65	996.86
349.03	1003.79
349.40	1012.66
349.77	1019.79
350.14	1028.43
350.52	1033.28
350.89	1038.68
351.26	1044.37
351.63	1050.20
352.01	1054.34
352.38	1059.86
352.75	1066.18
353.12	1071.52
353.50	1075.17
353.87	1075.10
354.24	1075.71
354.61	1079.15
354.98	1080.34
355.36	1080.27
355.73	1083.39
356.10	1090.43
356.47	1089.12
356.84	1088.63
357.22	1087.76
357.59	1085.14
357.96	1080.93
358.33	1078.00
358.70	1076.74
359.08	1076.18
359.45	1081.91
359.82	1082.87
360.19	1086.71
360.56	1088.75
360.94	1091.49
361.31	1084.89
361.68	1083.60
362.05	1083.46
362.42	1081.09
362.79	1079.06
363.16	1077.56
363.54	1078.00
363.91	1075.69
364.28	1075.08
364.65	1076.88
365.02	1080.41
365.39	1076.86
365.76	1078.03
366.14	1080.32
366.51	1078.78
366.88	1076.95
367.25	1078.94
367.62	1075.10
367.99	1072.97
368.36	1073.32
368.73	1073.88
369.10	1073.58
369.48	1078.68
369.85	1080.67
370.22	1081.30
370.59	1081.47
370.96	1080.11
371.33	1074.21
371.70	1074.61
372.07	1074.19
372.44	1076.34
372.81	1079.34
373.18	1082.45
373.55	1078.38
373.93	1077.07
374.30	1075.94
374.67	1073.88
375.04	1073.11
375.41	1077.75
375.78	1078.31
376.15	1079.60
376.52	1081.14
376.89	1082.61
377.26	1083.01
377.63	1082.15
378.00	1083.06
378.37	1083.06
378.74	1083.76
379.11	1082.19
379.48	1084.44
379.85	1085.24
380.22	1082.76
380.59	1085.59
380.96	1083.22
381.33	1082.22
381.70	1081.77
382.07	1082.12
382.44	1078.73
382.81	1079.50
383.18	1079.10
383.55	1075.83
383.92	1078.54
384.29	1079.85
384.66	1080.58
385.03	1082.52
385.40	1081.02
385.77	1077.28
386.14	1075.43
386.51	1075.76
386.88	1074.87
387.25	1077.40
387.62	1082.12
387.99	1083.88
388.36	1084.63
388.73	1087.06
389.10	1089.45
389.46	1087.74
389.83	1086.94
390.20	1086.36
390.57	1084.11
390.94	1080.39
391.31	1077.65
391.68	1077.00
392.05	1077.79
392.42	1079.62
392.79	1081.16
393.16	1084.04
393.53	1084.14
393.89	1084.14
394.26	1081.02
394.63	1084.58
395.00	1085.54
395.37	1087.86
395.74	1089.50
396.11	1090.32
396.48	1088.49
396.84	1089.61
397.21	1090.99
397.58	1090.99
397.95	1095.16
398.32	1093.19
398.69	1091.39
399.06	1088.75
399.42	1088.61
399.79	1087.18
400.16	1089.75
400.53	1090.53
400.90	1091.02
401.27	1092.33
401.64	1092.91
402.00	1090.34
402.37	1088.72
402.74	1089.07
403.11	1088.82
403.48	1086.76
403.84	1087.60
404.21	1093.94
404.58	1096.26
404.95	1096.33
405.32	1099.05
405.68	1101.99
406.05	1100.36
406.42	1099.47
406.79	1099.86
407.16	1098.74
407.52	1098.27
407.89	1099.21
408.26	1097.52
408.63	1095.53
408.99	1095.72
409.36	1092.07
409.73	1089.71
410.10	1089.43
410.47	1091.67
410.83	1093.38
411.20	1098.67
411.57	1100.08
411.94	1103.12
412.30	1104.99
412.67	1104.24
413.04	1098.53
413.40	1098.65
413.77	1095.75
414.14	1095.75
414.51	1096.24
414.87	1100.64
415.24	1103.66
415.61	1105.46
415.97	1104.29
416.34	1101.13
416.71	1100.82
417.08	1097.62
417.44	1101.57
417.81	1102.04
418.18	1107.21
418.54	1111.85
418.91	1114.82
419.28	1111.08
419.64	1111.71
420.01	1112.04
420.38	1113.74
420.74	1114.68
421.11	1120.13
421.48	1123.81
421.84	1124.49
422.21	1123.62
422.58	1125.05
422.94	1126.52
423.31	1127.88
423.68	1131.30
424.04	1135.65
424.41	1139.07
424.77	1143.21
425.14	1146.98
425.51	1149.65
425.87	1151.24
426.24	1153.93
426.61	1156.46
426.97	1161.40
427.34	1166.85
427.70	1171.60
428.07	1179.21
428.44	1187.38
428.80	1195.66
429.17	1203.20
429.53	1215.00
429.90	1227.00
430.27	1235.80
430.63	1244.67
431.00	1258.79
431.36	1267.49
431.73	1275.66
432.09	1288.49
432.46	1301.76
432.83	1314.30
433.19	1329.21
433.56	1351.96
433.92	1373.78
434.29	1398.12
434.65	1422.39
435.02	1451.09
435.38	1476.83
435.75	1500.61
436.11	1528.44
436.48	1556.69
436.84	1590.58
437.21	1625.06
437.57	1664.68
437.94	1708.52
438.30	1755.43
438.67	1801.28
439.03	1850.03
439.40	1906.46
439.76	1962.59
440.13	2023.58
440.49	2090.99
440.86	2157.58
441.22	2228.19
441.59	2299.44
441.95	2381.73
442.32	2466.57
442.68	2559.89
443.05	2649.79
443.41	2747.93
443.78	2848.99
444.14	2952.63
444.51	3065.80
444.87	3212.22
445.24	3354.17
445.60	3502.92
445.96	3659.33
446.33	3835.06
446.69	3997.85
447.06	4185.84
447.42	4370.51
447.79	4559.46
448.15	4775.65
448.51	5002.71
448.88	5265.81
449.24	5512.13
449.61	5799.03
449.97	6074.67
450.33	6353.06
450.70	6602.46
451.06	6931.47
451.43	7233.94
451.79	7597.64
452.15	8015.66
452.52	8478.45
452.88	8957.79
453.24	9498.08
453.61	10074.88
453.97	10631.20
454.34	11183.29
454.70	11825.18
455.06	12472.74
455.43	13099.07
455.79	13702.43
456.15	14419.01
456.52	15072.21
456.88	15841.87
457.24	16574.64
457.61	17431.33
457.97	18199.30
458.33	18998.32
458.70	19771.61
459.06	20542.58
459.42	21377.05
459.79	22157.17
460.15	23061.95
460.51	23934.34
460.88	24883.76
461.24	25691.19
461.60	26672.58
461.96	27544.99
462.33	28379.86
462.69	29156.15
463.05	29996.28
463.42	30712.51
463.78	31339.40
464.14	31889.40
464.50	32472.45
464.87	32969.35
465.23	33305.33
465.59	33682.42
465.95	34014.26
466.32	34281.59
466.68	34502.98
467.04	34665.91
467.40	34808.31
467.77	34955.62
468.13	34937.86
468.49	34839.37
468.85	34747.31
469.22	34553.47
469.58	34199.18
469.94	33944.49
470.30	33620.46
470.66	33207.78
471.03	32610.61
471.39	32196.83
471.75	31560.56
472.11	30966.76
472.47	30581.88
472.84	30288.52
473.20	29799.05
473.56	29510.29
473.92	29078.84
474.28	28579.49
474.65	28077.86
475.01	27604.28
475.37	27043.09
475.73	26575.73
476.09	26032.82
476.45	25513.71
476.81	24989.71
477.18	24460.19
477.54	24015.09
477.90	23674.38
478.26	23244.28
478.62	22922.72
478.98	22629.73
479.34	22290.05
479.71	21871.25
480.07	21534.40
480.43	21157.11
480.79	20772.39
481.15	20441.63
481.51	20133.12
481.87	19881.42
482.23	19594.33
482.59	19333.69
482.96	19040.38
483.32	18742.10
483.68	18360.10
484.04	18029.29
484.40	17659.74
484.76	17293.75
485.12	16932.25
485.48	16609.56
485.84	16250.22
486.20	15885.64
486.56	15520.09
486.92	15197.19
487.28	14837.85
487.64	14483.40
488.00	14165.51
488.37	13836.33
488.73	13477.83
489.09	13128.02
489.45	12808.11
489.81	12486.38
490.17	12193.54
490.53	11900.13
490.89	11599.37
491.25	11298.49
491.61	10993.24
491.97	10673.45
492.33	10348.14
492.69	10053.63
493.05	9753.25
493.41	9452.67
493.77	9169.94
494.13	8915.85
494.49	8665.18
494.85	8426.94
495.21	8214.86
495.57	8003.88
495.93	7792.53
496.29	7586.80
496.64	7401.76
497.00	7199.72
497.36	7006.02
497.72	6819.15
498.08	6637.99
498.44	6445.60
498.80	6280.94
499.16	6117.65
499.52	5959.40
499.88	5825.24
500.24	5706.62
500.60	5582.72
500.96	5471.28
501.32	5355.08
501.68	5233.91
502.03	5099.86
502.39	4970.92
502.75	4832.15
503.11	4709.63
503.47	4585.91
503.83	4472.95
504.19	4357.23
504.55	4251.63
504.91	4155.20
505.26	4058.68
505.62	3971.87
505.98	3882.71
506.34	3795.04
506.70	3696.55
507.06	3606.32
507.42	3519.35
507.78	3437.26
508.13	3361.03
508.49	3289.55
508.85	3220.23
509.21	3149.85
509.57	3090.30
509.93	3021.63
510.28	2960.92
510.64	2904.86
511.00	2839.30
511.36	2779.11
511.72	2726.35
512.07	2673.13
512.43	2617.73
512.79	2569.21
513.15	2515.58
513.51	2466.76
513.86	2423.69
514.22	2383.53
514.58	2343.81
514.94	2307.14
515.30	2264.59
515.65	2221.05
516.01	2188.52
516.37	2157.04
516.73	2131.43
517.08	2109.31
517.44	2081.74
517.80	2051.13
518.16	2025.78
518.51	1994.16
518.87	1965.98
519.23	1940.44
519.59	1913.41
519.94	1883.87
520.30	1861.83
520.66	1838.26
521.01	1813.92
521.37	1792.43
521.73	1773.66
522.09	1751.61
522.44	1732.16
522.80	1716.27
523.16	1698.50
523.51	1677.95
523.87	1657.94
524.23	1637.93
524.58	1618.60
524.94	1602.47
525.30	1586.32
525.65	1570.05
526.01	1555.26
526.37	1538.95
526.72	1523.01
527.08	1508.24
527.44	1497.36
527.79	1483.83
528.15	1474.49
528.51	1459.91
528.86	1446.50
529.22	1430.93
529.58	1417.76
529.93	1405.47
530.29	1391.50
530.65	1384.80
531.00	1379.30
531.36	1370.06
531.71	1360.65
532.07	1355.19
532.43	1343.44
532.78	1329.03
533.14	1319.87
533.49	1311.61
533.85	1307.10
534.21	1303.89
534.56	1302.81
534.92	1297.62
535.27	1290.99
535.63	1283.48
535.98	1279.20
536.34	1272.71
536.69	1265.93
537.05	1260.75
537.41	1256.54
537.76	1249.21
538.12	1241.70
538.47	1237.37
538.83	1233.91
539.18	1226.35
539.54	1222.25
539.89	1218.90
540.25	1220.10
540.60	1216.56
540.96	1217.73
541.31	1213.38
541.67	1212.19
542.02	1206.45
542.38	1202.87
542.73	1197.51
543.09	1197.44
543.44	1196.44
543.80	1193.39
544.15	1190.21
544.51	1188.20
544.86	1182.25
545.22	1176.91
545.57	1173.87
545.93	1172.05
546.28	1167.23
546.64	1167.37
546.99	1167.18
547.35	1167.97
547.70	1166.01
548.05	1164.39
548.41	1160.81
548.76	1158.10
549.12	1153.11
549.47	1150.54
549.83	1150.28
550.18	1150.07
550.53	1147.45
550.89	1144.36
551.24	1146.21
551.60	1144.73
551.95	1145.04
552.30	1144.08
552.66	1144.01
553.01	1140.99
553.37	1140.59
553.72	1136.87
554.07	1136.17
554.43	1135.98
554.78	1135.28
555.13	1132.42
555.49	1129.59
555.84	1126.76
556.19	1123.55
556.55	1122.83
556.90	1122.57
557.26	1122.50
557.61	1125.40
557.96	1125.59
558.32	1121.02
558.67	1122.15
559.02	1121.02
559.37	1115.87
559.73	1117.18
560.08	1116.97
560.43	1113.49
560.79	1114.09
561.14	1115.78
561.49	1115.62
561.85	1115.03
562.20	1114.70
562.55	1115.62
562.90	1111.82
563.26	1107.07
563.61	1107.85
563.96	1107.24
564.32	1104.97
564.67	1105.60
565.02	1105.69
565.37	1105.67
565.73	1105.48
566.08	1101.95
566.43	1101.78
566.78	1103.09
567.14	1101.60
567.49	1102.51
567.84	1105.46
568.19	1110.42
568.54	1110.98
568.90	1112.22
569.25	1111.82
569.60	1113.25
569.95	1108.64
570.31	1109.93
570.66	1109.62
571.01	1104.26
571.36	1099.96
571.71	1097.17
572.06	1096.40
572.42	1094.55
572.77	1096.73
573.12	1095.84
573.47	1098.37
573.82	1098.30
574.18	1098.62
574.53	1098.81
574.88	1100.05
575.23	1099.09
575.58	1093.57
575.93	1092.54
576.28	1092.26
576.64	1092.98
576.99	1092.33
577.34	1093.80
577.69	1093.99
578.04	1094.53
578.39	1095.07
578.74	1094.93
579.09	1096.49
579.44	1096.33
579.80	1096.82
580.15	1093.05
580.50	1094.06
580.85	1093.66
581.20	1094.01
581.55	1093.83
581.90	1098.04
582.25	1097.38
582.60	1096.07
582.95	1095.23
583.30	1093.62
583.65	1091.95
584.00	1088.56
584.35	1090.62
584.71	1089.19
585.06	1090.41
585.41	1091.39
585.76	1094.81
586.11	1092.68
586.46	1095.07
586.81	1095.07
587.16	1091.60
587.51	1091.42
587.86	1091.74
588.21	1090.08
588.56	1086.99
588.91	1090.50
589.26	1088.86
589.61	1087.04
589.96	1087.46
590.31	1088.30
590.66	1086.06
591.01	1088.09
591.36	1088.82
591.71	1087.06
592.06	1085.31
592.41	1084.46
592.76	1083.32
593.10	1081.37
593.45	1080.30
593.80	1079.38
594.15	1081.09
594.50	1078.80
594.85	1082.24
595.20	1085.73
595.55	1089.75
595.90	1089.99
596.25	1092.70
596.60	1091.98
596.95	1092.16
597.30	1089.22
597.64	1096.99
597.99	1095.32
598.34	1093.43
598.69	1092.14
599.04	1091.37
599.39	1084.37
599.74	1084.81
600.09	1085.47
600.44	1084.16
600.78	1084.86
601.13	1083.95
601.48	1083.13
601.83	1082.17
602.18	1081.87
602.53	1085.87
602.88	1086.20
603.22	1088.91
603.57	1090.34
603.92	1090.29
604.27	1088.09
604.62	1087.20
604.97	1086.57
605.31	1089.29
605.66	1090.78
606.01	1089.71
606.36	1090.74
606.71	1087.81
607.05	1083.67
607.40	1085.07
607.75	1088.70
608.10	1085.14
608.44	1084.16
608.79	1084.60
609.14	1079.50
609.49	1076.55
609.84	1078.66
610.18	1079.41
610.53	1081.42
610.88	1081.33
611.23	1082.52
611.57	1085.54
611.92	1088.04
612.27	1086.66
612.62	1090.17
612.96	1088.70
613.31	1084.74
613.66	1086.10
614.00	1086.24
614.35	1084.53
614.70	1084.37
615.05	1087.95
615.39	1087.06
615.74	1089.47
616.09	1091.42
616.43	1089.96
616.78	1087.93
617.13	1086.08
617.47	1081.68
617.82	1079.81
618.17	1083.46
618.51	1080.72
618.86	1079.88
619.21	1083.90
619.55	1084.11
619.90	1083.08
620.25	1083.93
620.59	1086.78
620.94	1085.14
621.29	1087.09
621.63	1085.05
621.98	1085.66
622.32	1083.22
622.67	1082.36
623.02	1081.07
623.36	1084.35
623.71	1081.84
624.05	1085.73
624.40	1086.03
624.75	1085.45
625.09	1083.04
625.44	1087.79
625.78	1081.44
626.13	1079.67
626.48	1078.45
626.82	1078.99
627.17	1077.91
627.51	1082.47
627.86	1087.37
628.20	1089.99
628.55	1088.61
628.89	1086.45
629.24	1084.51
629.58	1085.33
629.93	1087.30
630.28	1089.43
630.62	1093.36
630.97	1095.00
631.31	1089.03
631.66	1088.40
632.00	1087.74
632.35	1083.43
632.69	1082.66
633.04	1086.08
633.38	1083.95
633.73	1084.11
634.07	1085.26
634.42	1085.63
634.76	1083.83
635.11	1083.71
635.45	1081.02
635.79	1083.41
636.14	1079.43
636.48	1080.32
636.83	1081.26
637.17	1085.94
637.52	1080.09
637.86	1083.29
638.21	1082.71
638.55	1081.07
638.89	1081.56
639.24	1082.50
639.58	1082.50
639.93	1082.24
640.27	1082.80
640.61	1079.29
640.96	1083.15
641.30	1084.21
641.65	1083.71
641.99	1084.86
642.33	1086.10
642.68	1083.32
643.02	1081.89
643.37	1083.32
643.71	1082.87
644.05	1084.16
644.40	1087.27
644.74	1087.20
645.08	1085.84
645.43	1088.16
645.77	1088.61
646.11	1084.91
646.46	1086.01
646.80	1084.72
647.14	1080.13
647.49	1078.03
647.83	1080.51
648.17	1074.77
648.52	1076.69
648.86	1079.43
649.20	1080.67
649.55	1081.80
649.89	1085.91
650.23	1090.01
650.57	1089.87
650.92	1087.39
651.26	1084.35
651.60	1084.93
651.95	1082.19
652.29	1085.59
652.63	1083.53
652.97	1085.99
653.32	1085.89
653.66	1083.69
654.00	1078.38
654.34	1080.53
654.69	1077.07
655.03	1076.97
655.37	1075.20
655.71	1076.27
656.05	1077.75
656.40	1080.51
656.74	1080.53
657.08	1086.01
657.42	1087.55
657.76	1086.03
658.11	1086.22
658.45	1086.50
658.79	1084.63
659.13	1080.56
659.47	1082.36
659.82	1080.93
660.16	1081.16
660.50	1077.77
660.84	1080.51
661.18	1079.24
661.52	1079.57
661.87	1083.57
662.21	1082.59
662.55	1082.66
662.89	1082.90
663.23	1082.26
663.57	1080.16
663.91	1082.85
664.25	1082.80
664.60	1083.25
664.94	1083.11
665.28	1079.36
665.62	1077.51
665.96	1077.75
666.30	1075.71
666.64	1079.76
666.98	1083.53
667.32	1089.24
667.66	1089.59
668.01	1088.91
668.35	1085.14
668.69	1080.11
669.03	1077.04
669.37	1078.43
669.71	1082.12
670.05	1083.13
670.39	1086.08
670.73	1083.55
671.07	1077.96
671.41	1075.99
671.75	1078.05
672.09	1079.15
672.43	1081.28
672.77	1084.53
673.11	1083.01
673.45	1081.98
673.79	1081.37
674.13	1078.71
674.47	1078.21
674.81	1080.18
675.15	1078.71
675.49	1079.53
675.83	1082.85
676.17	1082.54
676.51	1082.80
676.85	1084.18
677.19	1083.86
677.53	1082.54
677.87	1082.54
678.21	1084.86
678.55	1083.93
678.89	1081.94
679.23	1080.32
679.57	1079.83
679.90	1075.69
680.24	1076.79
680.58	1078.38
680.92	1083.08
681.26	1084.84
681.60	1088.21
681.94	1086.45
682.28	1087.65
682.62	1084.77
682.96	1081.75
683.29	1078.73
683.63	1078.68
683.97	1075.69
684.31	1074.52
684.65	1076.48
684.99	1081.19
685.33	1082.78
685.67	1087.06
686.00	1087.13
686.34	1087.67
686.68	1085.12
687.02	1083.41
687.36	1079.95
687.70	1082.15
688.03	1085.17
688.37	1085.54
688.71	1086.08
689.05	1084.37
689.39	1087.90
689.72	1084.07
690.06	1082.66
690.40	1083.88
690.74	1089.38
691.08	1086.50
691.41	1090.78
691.75	1090.85
692.09	1089.80
692.43	1088.09
692.76	1087.06
693.10	1085.99
693.44	1088.07
693.78	1088.04
694.11	1084.77
694.45	1087.81
694.79	1086.31
695.13	1082.36
695.46	1079.48
695.80	1081.42
696.14	1075.24
696.48	1071.97
696.81	1071.15
697.15	1074.14
697.49	1072.95
697.82	1072.53
698.16	1075.15
698.50	1079.81
698.83	1076.01
699.17	1076.79
699.51	1081.35
699.84	1078.03
700.18	1078.21
700.52	1079.15
700.85	1077.84
701.19	1075.55
701.53	1076.06
701.86	1072.34
702.20	1073.65
702.54	1074.87
702.87	1077.47
703.21	1080.20
703.55	1080.91
703.88	1081.58
704.22	1080.48
704.55	1076.83
704.89	1076.95
705.23	1076.08
705.56	1075.97
705.90	1080.13
706.23	1083.83
706.57	1083.97
706.91	1083.67
707.24	1082.90
707.58	1081.51
707.91	1081.05
708.25	1082.43
708.58	1083.57
708.92	1085.03
709.26	1083.41
709.59	1083.15
709.93	1081.89
710.26	1082.69
710.60	1083.41
710.93	1084.72
711.27	1084.00
711.60	1082.61
711.94	1078.75
712.27	1075.66
712.61	1075.64
712.94	1074.52
713.28	1074.54
713.61	1081.21
713.95	1084.18
714.28	1082.92
714.62	1085.89
714.95	1086.76
715.29	1082.94
715.62	1082.33
715.96	1083.62
716.29	1081.68
716.63	1080.79
716.96	1081.02
717.29	1080.04
717.63	1079.78
717.96	1077.40
718.30	1079.92
718.63	1083.88
718.97	1084.23
719.30	1086.03
719.63	1086.69
719.97	1082.33
720.30	1078.75
720.64	1079.71
720.97	1075.83
721.30	1078.03
721.64	1080.65
721.97	1081.12
722.31	1081.35
722.64	1079.74
722.97	1078.24
723.31	1079.88
723.64	1081.75
723.97	1082.57
724.31	1085.19
724.64	1086.10
724.98	1083.41
725.31	1081.66
725.64	1080.18
725.98	1078.28
726.31	1075.10
726.64	1076.04
726.97	1076.11
727.31	1072.18
727.64	1070.70
727.97	1073.74
728.31	1072.55
728.64	1073.28
728.97	1077.93
729.31	1082.26
729.64	1082.43
729.97	1084.07
730.30	1084.86
730.64	1082.94
730.97	1080.77
731.30	1079.60
731.63	1077.63
731.97	1074.52
732.30	1075.83
732.63	1075.99
732.96	1075.92
733.30	1076.76
733.63	1074.98
733.96	1077.82
734.29	1078.03
734.63	1077.09
734.96	1079.85
735.29	1083.29
735.62	1079.97
735.95	1080.86
736.29	1085.42
736.62	1084.42
736.95	1083.25
737.28	1084.28
737.61	1087.06
737.94	1082.12
738.28	1083.20
738.61	1083.90
738.94	1083.04
739.27	1081.94
739.60	1085.42
739.93	1085.24
740.27	1084.63
740.60	1083.20
740.93	1080.37
741.26	1080.16
741.59	1078.66
741.92	1079.62
742.25	1084.21
742.58	1086.69
742.91	1082.45
743.25	1081.28
743.58	1080.65
743.91	1077.09
744.24	1076.97
744.57	1080.88
744.90	1082.33
745.23	1081.33
745.56	1080.51
745.89	1079.29
746.22	1076.51
746.55	1075.71
746.88	1076.65
747.21	1077.65
747.54	1078.17
747.87	1081.07
748.20	1080.41
748.53	1080.48
748.87	1081.23
749.20	1080.37
749.53	1079.36
749.86	1079.57
750.19	1080.98
750.52	1080.09
750.85	1079.81
751.18	1081.61
751.51	1081.94
751.84	1080.79
752.16	1081.68
752.49	1079.67
752.82	1077.42
753.15	1076.65
753.48	1077.02
753.81	1074.38
754.14	1076.97
754.47	1076.44
754.80	1074.80
755.13	1074.19
755.46	1076.08
755.79	1072.95
756.12	1074.82
756.45	1077.89
756.78	1079.67
757.11	1079.29
757.43	1082.99
757.76	1080.48
758.09	1079.60
758.42	1078.36
758.75	1076.25
759.08	1073.70
759.41	1075.52
759.74	1076.44
760.07	1077.30
760.39	1079.46
760.72	1079.55
761.05	1081.28
761.38	1079.81
761.71	1080.70
762.04	1082.99
762.36	1085.96
762.69	1084.51
763.02	1085.28
763.35	1082.45
763.68	1080.53
764.01	1078.61
