SpectraSuite Data File
++++++++++++++++++++++++++++++++++++
Date: Mon Aug 26 10:21:52 PDT 2019
User: corrico
Dark Spectrum Present: No
Reference Spectrum Present: No
Number of Sampled Component Spectra: 1
Spectrometers: USB2+H06089
Integration Time (usec): 2000 (USB2+H06089)
Spectra Averaged: 20 (USB2+H06089)
Boxcar Smoothing: 2 (USB2+H06089)
Correct for Electrical Dark: No (USB2+H06089)
Strobe/Lamp Enabled: No (USB2+H06089)
Correct for Detector Non-linearity: No (USB2+H06089)
Correct for Stray Light: No (USB2+H06089)
Number of Pixels in Processed Spectrum: 2048
>>>>>Begin Processed Spectral Data<<<<<
339.70	1016.73
340.07	1016.73
340.45	986.75
340.82	968.14
341.19	942.60
341.57	919.13
341.94	908.32
342.31	902.09
342.69	895.70
343.06	896.82
343.43	895.25
343.81	895.42
344.18	896.40
344.55	900.01
344.93	905.34
345.30	911.26
345.67	919.13
346.04	928.51
346.42	935.86
346.79	944.76
347.16	955.38
347.54	961.45
347.91	966.29
348.28	974.93
348.65	983.82
349.03	994.61
349.40	1004.70
349.77	1015.28
350.14	1025.44
350.52	1032.29
350.89	1035.24
351.26	1040.32
351.63	1044.02
352.01	1047.30
352.38	1049.73
352.75	1052.28
353.12	1053.69
353.50	1056.28
353.87	1058.34
354.24	1059.79
354.61	1063.28
354.98	1065.39
355.36	1069.23
355.73	1070.84
356.10	1074.21
356.47	1076.41
356.84	1079.50
357.22	1078.89
357.59	1078.57
357.96	1074.75
358.33	1074.91
358.70	1072.60
359.08	1073.21
359.45	1074.63
359.82	1074.94
360.19	1072.41
360.56	1070.54
360.94	1068.08
361.31	1067.07
361.68	1070.56
362.05	1068.31
362.42	1066.30
362.79	1068.57
363.16	1067.42
363.54	1064.45
363.91	1065.65
364.28	1067.38
364.65	1066.37
365.02	1068.10
365.39	1069.09
365.76	1068.92
366.14	1070.14
366.51	1067.85
366.88	1063.54
367.25	1062.28
367.62	1060.92
367.99	1061.92
368.36	1060.85
368.73	1061.83
369.10	1058.83
369.48	1058.74
369.85	1057.73
370.22	1061.64
370.59	1063.16
370.96	1064.90
371.33	1063.77
371.70	1060.64
372.07	1057.59
372.44	1056.24
372.81	1057.10
373.18	1058.39
373.55	1063.09
373.93	1065.58
374.30	1067.12
374.67	1068.17
375.04	1072.06
375.41	1071.97
375.78	1070.21
376.15	1069.88
376.52	1071.92
376.89	1066.61
377.26	1064.57
377.63	1066.32
378.00	1064.43
378.37	1063.73
378.74	1066.28
379.11	1066.44
379.48	1066.09
379.85	1066.77
380.22	1065.41
380.59	1066.75
380.96	1067.71
381.33	1068.20
381.70	1070.40
382.07	1070.63
382.44	1070.65
382.81	1070.87
383.18	1067.89
383.55	1068.78
383.92	1070.33
384.29	1069.77
384.66	1069.25
385.03	1070.16
385.40	1069.11
385.77	1066.65
386.14	1065.93
386.51	1067.96
386.88	1070.40
387.25	1068.67
387.62	1068.29
387.99	1068.71
388.36	1064.59
388.73	1061.99
389.10	1062.67
389.46	1064.97
389.83	1064.38
390.20	1067.07
390.57	1068.41
390.94	1069.09
391.31	1067.45
391.68	1067.87
392.05	1069.46
392.42	1069.91
392.79	1068.74
393.16	1068.24
393.53	1067.92
393.89	1068.13
394.26	1068.34
394.63	1068.03
395.00	1068.36
395.37	1068.36
395.74	1065.46
396.11	1067.00
396.48	1067.14
396.84	1069.55
397.21	1069.48
397.58	1072.48
397.95	1070.58
398.32	1072.32
398.69	1072.74
399.06	1073.98
399.42	1073.77
399.79	1075.94
400.16	1076.53
400.53	1075.01
400.90	1079.43
401.27	1081.68
401.64	1081.44
402.00	1078.52
402.37	1077.54
402.74	1073.00
403.11	1069.88
403.48	1068.27
403.84	1069.67
404.21	1068.78
404.58	1068.57
404.95	1068.06
405.32	1067.35
405.68	1068.50
406.05	1070.28
406.42	1068.48
406.79	1068.67
407.16	1068.45
407.52	1068.88
407.89	1068.71
408.26	1071.47
408.63	1075.43
408.99	1075.87
409.36	1074.59
409.73	1074.03
410.10	1074.68
410.47	1068.34
410.83	1068.29
411.20	1068.71
411.57	1068.13
411.94	1064.12
412.30	1067.10
412.67	1067.42
413.04	1067.87
413.40	1069.72
413.77	1072.71
414.14	1074.28
414.51	1076.83
414.87	1075.87
415.24	1074.98
415.61	1076.27
415.97	1073.63
416.34	1072.01
416.71	1071.15
417.08	1071.24
417.44	1071.03
417.81	1072.76
418.18	1074.96
418.54	1075.73
418.91	1076.58
419.28	1075.38
419.64	1072.22
420.01	1070.94
420.38	1072.53
420.74	1073.09
421.11	1073.04
421.48	1073.72
421.84	1074.96
422.21	1074.73
422.58	1070.82
422.94	1072.76
423.31	1074.96
423.68	1072.57
424.04	1068.03
424.41	1073.58
424.77	1071.12
425.14	1070.87
425.51	1072.25
425.87	1077.30
426.24	1077.84
426.61	1081.33
426.97	1083.11
427.34	1082.73
427.70	1083.29
428.07	1084.02
428.44	1084.70
428.80	1086.80
429.17	1088.40
429.53	1090.29
429.90	1090.74
430.27	1090.46
430.63	1089.66
431.00	1092.33
431.36	1091.30
431.73	1088.09
432.09	1088.49
432.46	1090.13
432.83	1090.06
433.19	1090.99
433.56	1096.14
433.92	1098.44
434.29	1098.95
434.65	1097.34
435.02	1100.22
435.38	1101.74
435.75	1105.51
436.11	1105.83
436.48	1112.81
436.84	1115.34
437.21	1117.91
437.57	1119.41
437.94	1125.40
438.30	1126.85
438.67	1129.57
439.03	1131.63
439.40	1137.48
439.76	1140.80
440.13	1147.61
440.49	1154.52
440.86	1160.55
441.22	1163.97
441.59	1169.36
441.95	1172.89
442.32	1178.39
442.68	1185.46
443.05	1194.47
443.41	1205.63
443.78	1211.81
444.14	1219.37
444.51	1227.85
444.87	1234.56
445.24	1238.59
445.60	1251.79
445.96	1262.34
446.33	1275.71
446.69	1286.76
447.06	1299.49
447.42	1310.19
447.79	1323.25
448.15	1337.71
448.51	1355.38
448.88	1373.68
449.24	1393.51
449.61	1415.25
449.97	1434.58
450.33	1456.05
450.70	1476.95
451.06	1499.65
451.43	1520.67
451.79	1541.06
452.15	1566.08
452.52	1595.17
452.88	1625.95
453.24	1658.04
453.61	1698.90
453.97	1734.81
454.34	1770.01
454.70	1808.70
455.06	1846.10
455.43	1887.45
455.79	1925.37
456.15	1969.91
456.52	2008.44
456.88	2061.45
457.24	2109.50
457.61	2163.01
457.97	2216.09
458.33	2270.97
458.70	2318.00
459.06	2363.22
459.42	2414.80
459.79	2461.78
460.15	2520.64
460.51	2575.90
460.88	2636.38
461.24	2692.18
461.60	2760.73
461.96	2820.46
462.33	2877.41
462.69	2927.45
463.05	2984.70
463.42	3037.24
463.78	3081.55
464.14	3124.50
464.50	3173.98
464.87	3207.59
465.23	3222.66
465.59	3245.78
465.95	3263.50
466.32	3270.78
466.68	3286.35
467.04	3301.91
467.40	3304.18
467.77	3313.94
468.13	3319.44
468.49	3314.39
468.85	3313.10
469.22	3317.24
469.58	3304.88
469.94	3293.58
470.30	3281.55
470.66	3254.00
471.03	3219.66
471.39	3194.15
471.75	3152.70
472.11	3112.66
472.47	3084.92
472.84	3053.14
473.20	3020.55
473.56	2999.65
473.92	2960.22
474.28	2929.09
474.65	2902.52
475.01	2874.44
475.37	2839.54
475.73	2815.31
476.09	2781.61
476.45	2749.33
476.81	2716.87
477.18	2688.15
477.54	2662.73
477.90	2638.81
478.26	2613.25
478.62	2589.83
478.98	2570.82
479.34	2553.38
479.71	2536.67
480.07	2515.00
480.43	2494.22
480.79	2473.08
481.15	2450.68
481.51	2424.51
481.87	2410.47
482.23	2386.32
482.59	2361.67
482.96	2336.81
483.32	2315.94
483.68	2283.38
484.04	2263.11
484.40	2247.08
484.76	2230.69
485.12	2214.50
485.48	2202.61
485.84	2181.52
486.20	2159.94
486.56	2141.10
486.92	2118.54
487.28	2094.55
487.64	2073.34
488.00	2057.31
488.37	2031.96
488.73	2006.33
489.09	1981.57
489.45	1961.98
489.81	1931.22
490.17	1907.16
490.53	1886.92
490.89	1864.21
491.25	1844.04
491.61	1823.30
491.97	1807.31
492.33	1786.53
492.69	1769.47
493.05	1747.54
493.41	1723.57
493.77	1700.49
494.13	1679.94
494.49	1660.84
494.85	1645.49
495.21	1635.40
495.57	1622.23
495.93	1611.88
496.29	1592.20
496.64	1576.51
497.00	1558.02
497.36	1544.26
497.72	1525.73
498.08	1515.82
498.44	1503.84
498.80	1494.22
499.16	1479.99
499.52	1471.92
499.88	1465.36
500.24	1457.03
500.60	1445.91
500.96	1436.69
501.32	1422.76
501.68	1411.48
502.03	1398.75
502.39	1388.92
502.75	1381.43
503.11	1377.34
503.47	1369.87
503.83	1359.27
504.19	1352.17
504.55	1341.01
504.91	1330.22
505.26	1319.80
505.62	1315.78
505.98	1308.22
506.34	1303.09
506.70	1297.62
507.06	1291.16
507.42	1281.14
507.78	1276.36
508.13	1270.26
508.49	1264.69
508.85	1259.86
509.21	1256.35
509.57	1247.08
509.93	1243.88
510.28	1236.32
510.64	1228.50
511.00	1221.31
511.36	1216.26
511.72	1207.60
512.07	1205.12
512.43	1201.02
512.79	1198.66
513.15	1197.84
513.51	1196.36
513.86	1191.29
514.22	1186.84
514.58	1179.86
514.94	1175.02
515.30	1171.72
515.65	1166.13
516.01	1163.64
516.37	1163.13
516.73	1161.28
517.08	1157.25
517.44	1159.36
517.80	1155.66
518.16	1154.09
518.51	1150.40
518.87	1148.88
519.23	1146.16
519.59	1144.03
519.94	1141.64
520.30	1139.09
520.66	1136.38
521.01	1132.63
521.37	1135.58
521.73	1136.12
522.09	1134.79
522.44	1135.39
522.80	1134.57
523.16	1130.92
523.51	1123.71
523.87	1121.65
524.23	1117.70
524.58	1116.46
524.94	1115.73
525.30	1119.29
525.65	1118.57
526.01	1115.59
526.37	1113.09
526.72	1109.98
527.08	1105.41
527.44	1106.98
527.79	1107.03
528.15	1106.21
528.51	1105.53
528.86	1106.72
529.22	1102.09
529.58	1101.01
529.93	1101.99
530.29	1101.97
530.65	1099.96
531.00	1099.86
531.36	1101.67
531.71	1101.34
532.07	1102.63
532.43	1103.73
532.78	1103.09
533.14	1099.44
533.49	1097.78
533.85	1097.08
534.21	1096.99
534.56	1099.00
534.92	1099.93
535.27	1099.21
535.63	1096.78
535.98	1094.43
536.34	1091.11
536.69	1090.15
537.05	1089.36
537.41	1090.81
537.76	1090.20
538.12	1090.97
538.47	1092.61
538.83	1091.49
539.18	1085.45
539.54	1082.90
539.89	1080.48
540.25	1078.75
540.60	1079.81
540.96	1080.98
541.31	1082.83
541.67	1085.82
542.02	1083.95
542.38	1083.71
542.73	1085.91
543.09	1088.28
543.44	1085.66
543.80	1087.53
544.15	1085.31
544.51	1084.96
544.86	1080.70
545.22	1082.76
545.57	1082.08
545.93	1082.59
546.28	1083.34
546.64	1084.07
546.99	1081.12
547.35	1079.55
547.70	1078.40
548.05	1078.64
548.41	1080.06
548.76	1084.37
549.12	1082.61
549.47	1083.53
549.83	1082.92
550.18	1083.22
550.53	1080.72
550.89	1081.19
551.24	1078.64
551.60	1075.50
551.95	1072.36
552.30	1072.15
552.66	1072.32
553.01	1075.03
553.37	1076.86
553.72	1079.29
554.07	1078.36
554.43	1079.22
554.78	1077.23
555.13	1075.57
555.49	1074.40
555.84	1075.50
556.19	1073.67
556.55	1074.03
556.90	1074.59
557.26	1073.98
557.61	1075.13
557.96	1078.54
558.32	1078.92
558.67	1078.26
559.02	1078.14
559.37	1076.08
559.73	1073.91
560.08	1075.99
560.43	1079.20
560.79	1081.26
561.14	1078.61
561.49	1078.24
561.85	1075.90
562.20	1072.57
562.55	1070.56
562.90	1073.37
563.26	1074.49
563.61	1075.22
563.96	1078.38
564.32	1078.96
564.67	1076.13
565.02	1074.87
565.37	1077.14
565.73	1077.16
566.08	1077.07
566.43	1079.99
566.78	1081.05
567.14	1081.61
567.49	1081.80
567.84	1082.19
568.19	1080.60
568.54	1078.68
568.90	1072.71
569.25	1070.94
569.60	1070.51
569.95	1072.62
570.31	1071.75
570.66	1074.31
571.01	1072.57
571.36	1072.13
571.71	1068.97
572.06	1072.97
572.42	1074.49
572.77	1075.22
573.12	1073.88
573.47	1078.07
573.82	1073.28
574.18	1070.94
574.53	1072.13
574.88	1077.07
575.23	1075.90
575.58	1078.45
575.93	1082.59
576.28	1080.58
576.64	1080.79
576.99	1079.48
577.34	1080.63
577.69	1077.47
578.04	1080.27
578.39	1078.38
578.74	1078.28
579.09	1078.31
579.44	1076.81
579.80	1075.85
580.15	1072.55
580.50	1072.25
580.85	1072.90
581.20	1075.05
581.55	1075.20
581.90	1077.98
582.25	1080.65
582.60	1079.24
582.95	1078.94
583.30	1079.78
583.65	1078.19
584.00	1075.64
584.35	1074.91
584.71	1075.45
585.06	1073.51
585.41	1074.05
585.76	1074.42
586.11	1076.74
586.46	1074.54
586.81	1075.83
587.16	1078.17
587.51	1080.44
587.86	1080.25
588.21	1082.26
588.56	1080.56
588.91	1081.30
589.26	1076.39
589.61	1074.45
589.96	1074.17
590.31	1077.09
590.66	1074.24
591.01	1076.74
591.36	1076.55
591.71	1078.33
592.06	1077.09
592.41	1075.34
592.76	1074.87
593.10	1072.08
593.45	1070.56
593.80	1068.76
594.15	1069.79
594.50	1072.55
594.85	1075.90
595.20	1073.84
595.55	1074.66
595.90	1074.63
596.25	1073.70
596.60	1073.00
596.95	1073.18
597.30	1073.32
597.64	1085.07
597.99	1082.85
598.34	1085.26
598.69	1084.60
599.04	1083.62
599.39	1071.24
599.74	1072.34
600.09	1073.18
600.44	1077.47
600.78	1077.21
601.13	1077.14
601.48	1075.69
601.83	1074.59
602.18	1073.04
602.53	1076.58
602.88	1079.20
603.22	1081.66
603.57	1081.44
603.92	1081.02
604.27	1077.00
604.62	1073.51
604.97	1071.17
605.31	1070.00
605.66	1069.53
606.01	1072.81
606.36	1077.09
606.71	1077.86
607.05	1076.90
607.40	1077.30
607.75	1075.80
608.10	1073.51
608.44	1076.18
608.79	1077.51
609.14	1079.43
609.49	1081.30
609.84	1083.97
610.18	1083.97
610.53	1084.53
610.88	1081.35
611.23	1078.82
611.57	1075.76
611.92	1073.70
612.27	1073.49
612.62	1072.76
612.96	1072.36
613.31	1072.29
613.66	1075.05
614.00	1073.88
614.35	1077.61
614.70	1079.55
615.05	1082.19
615.39	1081.84
615.74	1083.34
616.09	1081.44
616.43	1078.57
616.78	1077.00
617.13	1074.28
617.47	1076.51
617.82	1075.83
618.17	1077.35
618.51	1074.63
618.86	1072.83
619.21	1068.15
619.55	1066.00
619.90	1066.30
620.25	1067.85
620.59	1071.78
620.94	1074.52
621.29	1078.96
621.63	1080.46
621.98	1080.32
622.32	1080.58
622.67	1077.84
623.02	1076.95
623.36	1075.10
623.71	1074.61
624.05	1075.34
624.40	1077.98
624.75	1074.94
625.09	1076.81
625.44	1079.01
625.78	1074.73
626.13	1073.70
626.48	1076.11
626.82	1073.77
627.17	1071.64
627.51	1076.46
627.86	1076.18
628.20	1074.84
628.55	1076.72
628.89	1078.03
629.24	1076.34
629.58	1078.87
629.93	1079.53
630.28	1078.14
630.62	1080.02
630.97	1078.61
631.31	1074.73
631.66	1075.22
632.00	1075.87
632.35	1073.30
632.69	1073.46
633.04	1072.64
633.38	1072.78
633.73	1074.49
634.07	1076.15
634.42	1076.60
634.76	1080.27
635.11	1080.27
635.45	1077.30
635.79	1075.66
636.14	1073.07
636.48	1069.48
636.83	1066.07
637.17	1065.11
637.52	1066.77
637.86	1067.87
638.21	1069.93
638.55	1075.62
638.89	1077.86
639.24	1075.99
639.58	1076.76
639.93	1073.65
640.27	1071.31
640.61	1071.82
640.96	1073.95
641.30	1075.27
641.65	1080.93
641.99	1079.38
642.33	1078.31
642.68	1078.73
643.02	1077.33
643.37	1071.97
643.71	1073.28
644.05	1074.80
644.40	1073.63
644.74	1074.31
645.08	1079.20
645.43	1078.50
645.77	1077.11
646.11	1077.89
646.46	1075.94
646.80	1072.92
647.14	1071.26
647.49	1069.91
647.83	1068.34
648.17	1068.97
648.52	1069.65
648.86	1072.88
649.20	1075.52
649.55	1074.70
649.89	1072.29
650.23	1073.18
650.57	1074.17
650.92	1074.38
651.26	1074.35
651.60	1076.74
651.95	1076.23
652.29	1074.70
652.63	1072.29
652.97	1068.92
653.32	1068.24
653.66	1068.59
654.00	1069.79
654.34	1067.75
654.69	1072.55
655.03	1071.90
655.37	1070.44
655.71	1068.43
656.05	1071.12
656.40	1072.95
656.74	1071.80
657.08	1071.59
657.42	1070.65
657.76	1071.66
658.11	1071.57
658.45	1073.72
658.79	1076.34
659.13	1076.69
659.47	1074.91
659.82	1071.31
660.16	1070.16
660.50	1068.34
660.84	1067.92
661.18	1067.75
661.52	1068.48
661.87	1072.22
662.21	1074.28
662.55	1076.51
662.89	1080.44
663.23	1080.32
663.57	1079.24
663.91	1078.61
664.25	1075.01
664.60	1074.24
664.94	1074.14
665.28	1072.22
665.62	1070.94
665.96	1073.49
666.30	1072.50
666.64	1069.58
666.98	1070.02
667.32	1072.46
667.66	1072.57
668.01	1071.12
668.35	1075.22
668.69	1074.75
669.03	1074.70
669.37	1074.31
669.71	1076.53
670.05	1077.63
670.39	1078.19
670.73	1075.78
671.07	1075.08
671.41	1074.87
671.75	1073.56
672.09	1071.61
672.43	1074.12
672.77	1078.10
673.11	1077.07
673.45	1076.81
673.79	1080.79
674.13	1079.92
674.47	1077.54
674.81	1077.84
675.15	1077.35
675.49	1076.72
675.83	1076.88
676.17	1079.71
676.51	1082.22
676.85	1083.15
677.19	1079.29
677.53	1076.58
677.87	1071.33
678.21	1067.26
678.55	1065.60
678.89	1069.58
679.23	1074.68
679.57	1075.83
679.90	1075.36
680.24	1076.04
680.58	1074.07
680.92	1071.01
681.26	1074.35
681.60	1077.61
681.94	1079.38
682.28	1081.05
682.62	1080.02
682.96	1080.86
683.29	1078.38
683.63	1081.26
683.97	1077.65
684.31	1076.65
684.65	1069.30
684.99	1069.74
685.33	1064.10
685.67	1064.76
686.00	1067.17
686.34	1071.12
686.68	1070.77
687.02	1072.36
687.36	1073.91
687.70	1071.99
688.03	1073.93
688.37	1074.63
688.71	1075.78
689.05	1075.41
689.39	1077.91
689.72	1076.20
690.06	1072.60
690.40	1069.06
690.74	1071.36
691.08	1069.51
691.41	1066.51
691.75	1065.34
692.09	1068.57
692.43	1065.41
692.76	1063.94
693.10	1069.18
693.44	1072.39
693.78	1071.64
694.11	1075.05
694.45	1074.07
694.79	1073.18
695.13	1073.11
695.46	1071.33
695.80	1072.41
696.14	1073.51
696.48	1072.11
696.81	1073.93
697.15	1075.92
697.49	1073.98
697.82	1074.45
698.16	1074.49
698.50	1070.89
698.83	1069.77
699.17	1070.58
699.51	1073.07
699.84	1075.22
700.18	1075.34
700.52	1072.88
700.85	1067.57
701.19	1064.85
701.53	1063.07
701.86	1065.11
702.20	1069.62
702.54	1071.97
702.87	1071.38
703.21	1068.74
703.55	1069.93
703.88	1065.44
704.22	1069.74
704.55	1070.75
704.89	1070.68
705.23	1068.45
705.56	1073.18
705.90	1069.37
706.23	1068.31
706.57	1074.21
706.91	1075.15
707.24	1072.60
707.58	1073.79
707.91	1074.98
708.25	1069.25
708.58	1069.11
708.92	1073.14
709.26	1071.73
709.59	1074.82
709.93	1077.84
710.26	1078.47
710.60	1076.51
710.93	1075.29
711.27	1071.78
711.60	1072.50
711.94	1073.88
712.27	1071.38
712.61	1072.88
712.94	1076.60
713.28	1073.23
713.61	1072.55
713.95	1074.05
714.28	1077.04
714.62	1076.08
714.95	1077.25
715.29	1080.27
715.62	1079.67
715.96	1078.75
716.29	1077.37
716.63	1077.58
716.96	1075.10
717.29	1072.74
717.63	1067.61
717.96	1066.93
718.30	1066.68
718.63	1063.66
718.97	1068.67
719.30	1072.97
719.63	1071.12
719.97	1071.29
720.30	1075.27
720.64	1074.91
720.97	1073.07
721.30	1076.08
721.64	1074.84
721.97	1074.89
722.31	1074.03
722.64	1074.03
722.97	1072.64
723.31	1072.57
723.64	1070.37
723.97	1067.75
724.31	1064.57
724.64	1065.60
724.98	1066.96
725.31	1068.95
725.64	1071.61
725.98	1074.84
726.31	1074.98
726.64	1074.96
726.97	1075.80
727.31	1075.73
727.64	1076.81
727.97	1076.53
728.31	1077.70
728.64	1075.08
728.97	1073.53
729.31	1073.00
729.64	1071.31
729.97	1069.25
730.30	1068.62
730.64	1068.13
730.97	1068.99
731.30	1070.49
731.63	1071.52
731.97	1072.67
732.30	1075.76
732.63	1077.75
732.96	1077.93
733.30	1078.31
733.63	1080.02
733.96	1080.23
734.29	1077.47
734.63	1075.17
734.96	1073.58
735.29	1069.67
735.62	1066.96
735.95	1068.71
736.29	1067.96
736.62	1069.23
736.95	1073.70
737.28	1075.48
737.61	1073.95
737.94	1075.27
738.28	1076.39
738.61	1074.31
738.94	1074.91
739.27	1074.14
739.60	1075.01
739.93	1074.45
740.27	1075.94
740.60	1074.10
740.93	1073.28
741.26	1075.83
741.59	1075.41
741.92	1074.63
742.25	1076.93
742.58	1075.85
742.91	1073.49
743.25	1071.29
743.58	1068.69
743.91	1067.38
744.24	1070.91
744.57	1074.59
744.90	1081.61
745.23	1080.48
745.56	1080.06
745.89	1081.73
746.22	1076.08
746.55	1069.86
746.88	1074.17
747.21	1076.04
747.54	1075.13
747.87	1078.28
748.20	1079.41
748.53	1080.02
748.87	1079.01
749.20	1077.37
749.53	1076.44
749.86	1078.00
750.19	1077.04
750.52	1075.59
750.85	1073.37
751.18	1076.39
751.51	1075.69
751.84	1077.09
752.16	1078.66
752.49	1082.50
752.82	1079.10
753.15	1078.94
753.48	1075.99
753.81	1074.10
754.14	1072.22
754.47	1071.68
754.80	1070.89
755.13	1070.07
755.46	1070.42
755.79	1070.26
756.12	1072.97
756.45	1071.64
756.78	1074.12
757.11	1073.21
757.43	1073.30
757.76	1071.19
758.09	1071.87
758.42	1069.23
758.75	1072.36
759.08	1075.55
759.41	1077.93
759.74	1076.69
760.07	1076.60
760.39	1070.75
760.72	1069.11
761.05	1067.87
761.38	1069.95
761.71	1073.16
762.04	1076.25
762.36	1073.35
762.69	1071.31
763.02	1070.87
763.35	1069.91
763.68	1070.82
764.01	1072.11
764.33	1073.07
764.66	1072.11
764.99	1070.23
765.32	1071.47
765.65	1071.57
765.97	1073.91
766.30	1074.00
