SpectraSuite Data File
++++++++++++++++++++++++++++++++++++
Date: Mon Aug 26 10:22:02 PDT 2019
User: corrico
Dark Spectrum Present: No
Reference Spectrum Present: No
Number of Sampled Component Spectra: 1
Spectrometers: USB2+H06089
Integration Time (usec): 2000 (USB2+H06089)
Spectra Averaged: 20 (USB2+H06089)
Boxcar Smoothing: 2 (USB2+H06089)
Correct for Electrical Dark: No (USB2+H06089)
Strobe/Lamp Enabled: No (USB2+H06089)
Correct for Detector Non-linearity: No (USB2+H06089)
Correct for Stray Light: No (USB2+H06089)
Number of Pixels in Processed Spectrum: 2048
>>>>>Begin Processed Spectral Data<<<<<
339.70	1021.41
340.07	1021.41
340.45	991.08
340.82	972.31
341.19	950.16
341.57	926.85
341.94	915.88
342.31	906.68
342.69	901.04
343.06	900.12
343.43	900.43
343.81	900.10
344.18	901.36
344.55	903.70
344.93	909.49
345.30	916.34
345.67	923.60
346.04	929.94
346.42	937.57
346.79	943.61
347.16	949.60
347.54	960.79
347.91	972.96
348.28	986.89
348.65	997.33
349.03	1009.36
349.40	1015.89
349.77	1021.25
350.14	1025.20
350.52	1030.47
350.89	1035.43
351.26	1042.45
351.63	1052.63
352.01	1059.23
352.38	1064.52
352.75	1066.25
353.12	1067.73
353.50	1066.37
353.87	1064.26
354.24	1067.24
354.61	1071.05
354.98	1075.34
355.36	1080.11
355.73	1084.70
356.10	1083.25
356.47	1082.71
356.84	1084.72
357.22	1086.66
357.59	1084.86
357.96	1084.32
358.33	1087.65
358.70	1085.42
359.08	1081.58
359.45	1081.21
359.82	1081.14
360.19	1078.12
360.56	1075.24
360.94	1075.29
361.31	1077.49
361.68	1077.54
362.05	1072.64
362.42	1073.28
362.79	1073.93
363.16	1070.12
363.54	1070.21
363.91	1074.70
364.28	1076.86
364.65	1075.38
365.02	1078.99
365.39	1080.20
365.76	1079.22
366.14	1079.29
366.51	1079.53
366.88	1078.47
367.25	1076.34
367.62	1075.94
367.99	1077.23
368.36	1079.38
368.73	1079.41
369.10	1078.03
369.48	1079.41
369.85	1076.30
370.22	1074.26
370.59	1074.63
370.96	1076.11
371.33	1075.31
371.70	1075.59
372.07	1076.81
372.44	1077.14
372.81	1077.09
373.18	1074.87
373.55	1072.36
373.93	1068.45
374.30	1070.70
374.67	1074.05
375.04	1077.35
375.41	1079.20
375.78	1082.59
376.15	1078.82
376.52	1075.57
376.89	1075.34
377.26	1077.25
377.63	1077.25
378.00	1077.14
378.37	1078.47
378.74	1077.44
379.11	1074.52
379.48	1075.13
379.85	1077.04
380.22	1075.13
380.59	1073.93
380.96	1078.31
381.33	1077.61
381.70	1078.68
382.07	1080.91
382.44	1082.33
382.81	1081.21
383.18	1081.91
383.55	1079.36
383.92	1077.40
384.29	1077.56
384.66	1078.43
385.03	1079.48
385.40	1078.36
385.77	1081.21
386.14	1082.36
386.51	1079.69
386.88	1078.50
387.25	1078.28
387.62	1079.15
387.99	1079.60
388.36	1082.40
388.73	1083.39
389.10	1087.93
389.46	1085.70
389.83	1085.35
390.20	1086.17
390.57	1086.57
390.94	1085.89
391.31	1088.35
391.68	1090.10
392.05	1088.07
392.42	1088.40
392.79	1088.07
393.16	1087.32
393.53	1085.61
393.89	1084.35
394.26	1081.40
394.63	1080.13
395.00	1079.31
395.37	1079.99
395.74	1084.39
396.11	1086.10
396.48	1086.85
396.84	1087.32
397.21	1084.86
397.58	1080.95
397.95	1081.89
398.32	1083.06
398.69	1082.45
399.06	1085.07
399.42	1087.86
399.79	1086.87
400.16	1086.01
400.53	1085.61
400.90	1085.73
401.27	1085.26
401.64	1084.23
402.00	1085.82
402.37	1086.43
402.74	1084.65
403.11	1086.20
403.48	1089.50
403.84	1090.36
404.21	1094.32
404.58	1097.66
404.95	1097.78
405.32	1096.40
405.68	1095.32
406.05	1092.89
406.42	1095.30
406.79	1094.93
407.16	1095.42
407.52	1097.64
407.89	1099.77
408.26	1097.50
408.63	1096.94
408.99	1097.06
409.36	1095.82
409.73	1093.57
410.10	1092.45
410.47	1092.14
410.83	1093.55
411.20	1094.11
411.57	1096.28
411.94	1094.55
412.30	1097.41
412.67	1097.90
413.04	1098.46
413.40	1095.28
413.77	1099.30
414.14	1099.61
414.51	1098.83
414.87	1097.24
415.24	1100.54
415.61	1100.54
415.97	1099.89
416.34	1098.88
416.71	1100.50
417.08	1103.75
417.44	1104.33
417.81	1106.25
418.18	1112.01
418.54	1110.54
418.91	1106.25
419.28	1110.42
419.64	1108.83
420.01	1106.30
420.38	1109.37
420.74	1112.48
421.11	1109.72
421.48	1111.66
421.84	1113.81
422.21	1116.60
422.58	1119.81
422.94	1122.03
423.31	1127.93
423.68	1133.52
424.04	1137.62
424.41	1142.49
424.77	1145.93
425.14	1144.66
425.51	1144.80
425.87	1147.63
426.24	1150.28
426.61	1157.32
426.97	1169.78
427.34	1179.63
427.70	1188.85
428.07	1196.22
428.44	1203.20
428.80	1205.87
429.17	1212.82
429.53	1222.77
429.90	1235.03
430.27	1243.76
430.63	1254.90
431.00	1267.73
431.36	1279.50
431.73	1288.79
432.09	1301.92
432.46	1317.25
432.83	1330.95
433.19	1346.35
433.56	1367.90
433.92	1393.18
434.29	1415.13
434.65	1440.81
435.02	1466.77
435.38	1495.23
435.75	1521.63
436.11	1555.33
436.48	1591.73
436.84	1630.07
437.21	1668.80
437.57	1710.91
437.94	1754.79
438.30	1797.23
438.67	1843.22
439.03	1895.32
439.40	1953.67
439.76	2015.88
440.13	2083.52
440.49	2154.58
440.86	2228.59
441.22	2306.74
441.59	2387.23
441.95	2477.81
442.32	2566.40
442.68	2670.76
443.05	2774.99
443.41	2882.79
443.78	2988.96
444.14	3114.53
444.51	3225.23
444.87	3367.89
445.24	3509.09
445.60	3662.89
445.96	3814.02
446.33	3990.40
446.69	4162.39
447.06	4356.60
447.42	4560.46
447.79	4774.69
448.15	5018.04
448.51	5257.83
448.88	5531.97
449.24	5793.04
449.61	6099.30
449.97	6416.70
450.33	6748.23
450.70	7059.80
451.06	7448.47
451.43	7813.90
451.79	8206.53
452.15	8631.94
452.52	9093.29
452.88	9556.95
453.24	10086.56
453.61	10682.60
453.97	11275.72
454.34	11864.71
454.70	12532.33
455.06	13201.37
455.43	13850.19
455.79	14471.60
456.15	15216.74
456.52	15932.49
456.88	16785.57
457.24	17604.50
457.61	18578.40
457.97	19478.76
458.33	20383.28
458.70	21246.99
459.06	22078.62
459.42	22959.88
459.79	23797.68
460.15	24780.94
460.51	25703.27
460.88	26674.57
461.24	27548.99
461.60	28530.50
461.96	29373.28
462.33	30215.99
462.69	31105.79
463.05	32056.12
463.42	32944.58
463.78	33768.90
464.14	34431.64
464.50	35089.85
464.87	35568.33
465.23	35883.48
465.59	36248.84
465.95	36592.43
466.32	36882.93
466.68	37166.33
467.04	37365.62
467.40	37492.78
467.77	37660.74
468.13	37651.00
468.49	37535.10
468.85	37447.03
469.22	37346.85
469.58	37063.65
469.94	36830.01
470.30	36598.30
470.66	36251.39
471.03	35681.44
471.39	35305.46
471.75	34661.23
472.11	34000.38
472.47	33526.84
472.84	33078.16
473.20	32448.04
473.56	32095.88
473.92	31602.33
474.28	31048.17
474.65	30494.65
475.01	29930.44
475.37	29239.12
475.73	28649.16
476.09	28002.33
476.45	27416.10
476.81	26902.40
477.18	26367.14
477.54	25927.64
477.90	25573.02
478.26	25114.70
478.62	24696.91
478.98	24366.94
479.34	24027.92
479.71	23581.48
480.07	23227.66
480.43	22854.77
480.79	22427.62
481.15	21987.98
481.51	21657.54
481.87	21347.02
482.23	21014.94
482.59	20725.89
482.96	20411.60
483.32	20062.91
483.68	19677.38
484.04	19329.17
484.40	18956.89
484.76	18604.24
485.12	18245.08
485.48	17912.73
485.84	17544.98
486.20	17201.14
486.56	16826.60
486.92	16491.58
487.28	16119.32
487.64	15761.68
488.00	15402.46
488.37	15042.44
488.73	14615.24
489.09	14194.67
489.45	13803.75
489.81	13402.59
490.17	13046.61
490.53	12737.87
490.89	12426.58
491.25	12097.90
491.61	11751.88
491.97	11396.75
492.33	11044.64
492.69	10729.86
493.05	10421.31
493.41	10149.29
493.77	9871.26
494.13	9607.24
494.49	9331.88
494.85	9065.53
495.21	8802.38
495.57	8560.49
495.93	8314.21
496.29	8086.86
496.64	7887.84
497.00	7682.69
497.36	7474.20
497.72	7283.96
498.08	7105.37
498.44	6908.79
498.80	6715.91
499.16	6532.95
499.52	6358.00
499.88	6200.62
500.24	6054.10
500.60	5921.65
500.96	5796.13
501.32	5661.59
501.68	5514.86
502.03	5367.18
502.39	5233.84
502.75	5092.91
503.11	4958.89
503.47	4840.79
503.83	4722.97
504.19	4610.57
504.55	4504.83
504.91	4405.22
505.26	4296.12
505.62	4187.64
505.98	4083.65
506.34	3984.08
506.70	3882.15
507.06	3789.05
507.42	3705.28
507.78	3622.07
508.13	3539.97
508.49	3463.01
508.85	3389.94
509.21	3318.01
509.57	3245.36
509.93	3169.53
510.28	3091.43
510.64	3024.51
511.00	2961.11
511.36	2898.19
511.72	2847.47
512.07	2800.43
512.43	2741.42
512.79	2687.94
513.15	2633.06
513.51	2578.94
513.86	2529.07
514.22	2489.51
514.58	2445.72
514.94	2403.03
515.30	2360.57
515.65	2319.54
516.01	2280.50
516.37	2238.77
516.73	2210.92
517.08	2179.48
517.44	2146.81
517.80	2114.74
518.16	2087.17
518.51	2052.35
518.87	2020.89
519.23	1989.83
519.59	1962.14
519.94	1933.68
520.30	1910.13
520.66	1881.21
521.01	1859.16
521.37	1832.10
521.73	1806.36
522.09	1780.07
522.44	1762.66
522.80	1739.06
523.16	1721.51
523.51	1704.42
523.87	1689.59
524.23	1670.67
524.58	1653.61
524.94	1636.13
525.30	1617.45
525.65	1600.11
526.01	1583.65
526.37	1572.16
526.72	1557.84
527.08	1545.48
527.44	1528.14
527.79	1519.83
528.15	1503.14
528.51	1489.21
528.86	1474.89
529.22	1465.27
529.58	1448.79
529.93	1436.81
530.29	1427.52
530.65	1417.78
531.00	1406.43
531.36	1397.96
531.71	1390.65
532.07	1383.49
532.43	1373.19
532.78	1366.10
533.14	1354.14
533.49	1343.98
533.85	1329.54
534.21	1324.06
534.56	1314.44
534.92	1311.26
535.27	1305.27
535.63	1302.51
535.98	1291.30
536.34	1285.54
536.69	1280.86
537.05	1275.83
537.41	1271.54
537.76	1269.25
538.12	1263.61
538.47	1253.71
538.83	1247.55
539.18	1239.24
539.54	1238.14
539.89	1233.37
540.25	1229.23
540.60	1225.81
540.96	1224.26
541.31	1216.96
541.67	1214.55
542.02	1210.92
542.38	1210.31
542.73	1206.10
543.09	1203.62
543.44	1199.78
543.80	1197.28
544.15	1190.09
544.51	1185.88
544.86	1183.23
545.22	1180.59
545.57	1180.43
545.93	1178.88
546.28	1179.44
546.64	1177.24
546.99	1176.17
547.35	1172.30
547.70	1172.19
548.05	1168.77
548.41	1169.26
548.76	1168.23
549.12	1165.98
549.47	1161.00
549.83	1160.16
550.18	1157.28
550.53	1153.39
550.89	1150.96
551.24	1148.43
551.60	1144.66
551.95	1142.42
552.30	1141.10
552.66	1141.92
553.01	1143.98
553.37	1141.29
553.72	1138.97
554.07	1137.85
554.43	1134.18
554.78	1132.82
555.13	1134.67
555.49	1133.64
555.84	1130.08
556.19	1129.14
556.55	1124.86
556.90	1123.43
557.26	1122.40
557.61	1123.25
557.96	1121.58
558.32	1121.42
558.67	1120.44
559.02	1118.10
559.37	1118.92
559.73	1118.45
560.08	1119.36
560.43	1120.79
560.79	1119.36
561.14	1115.55
561.49	1114.75
561.85	1116.13
562.20	1112.43
562.55	1113.79
562.90	1116.72
563.26	1114.49
563.61	1110.89
563.96	1112.53
564.32	1112.11
564.67	1110.23
565.02	1110.77
565.37	1109.18
565.73	1106.25
566.08	1107.68
566.43	1106.84
566.78	1109.44
567.14	1109.81
567.49	1107.64
567.84	1103.54
568.19	1104.59
568.54	1103.45
568.90	1103.59
569.25	1105.79
569.60	1108.66
569.95	1106.54
570.31	1106.11
570.66	1107.75
571.01	1107.96
571.36	1104.10
571.71	1102.88
572.06	1100.40
572.42	1098.93
572.77	1097.66
573.12	1098.27
573.47	1100.82
573.82	1101.11
574.18	1099.47
574.53	1097.38
574.88	1099.35
575.23	1097.59
575.58	1098.23
575.93	1097.69
576.28	1098.55
576.64	1098.39
576.99	1099.68
577.34	1098.67
577.69	1100.08
578.04	1099.21
578.39	1098.27
578.74	1098.88
579.09	1099.68
579.44	1095.11
579.80	1094.83
580.15	1089.17
580.50	1083.29
580.85	1082.24
581.20	1086.55
581.55	1087.67
581.90	1089.33
582.25	1088.75
582.60	1086.80
582.95	1085.63
583.30	1081.63
583.65	1080.32
584.00	1080.81
584.35	1080.58
584.71	1080.11
585.06	1081.26
585.41	1083.55
585.76	1085.91
586.11	1088.28
586.46	1088.49
586.81	1090.20
587.16	1091.34
587.51	1092.61
587.86	1094.11
588.21	1094.32
588.56	1094.06
588.91	1092.21
589.26	1090.85
589.61	1085.00
589.96	1086.10
590.31	1084.74
590.66	1087.48
591.01	1090.95
591.36	1095.37
591.71	1095.23
592.06	1099.05
592.41	1096.68
592.76	1091.51
593.10	1089.31
593.45	1090.29
593.80	1088.68
594.15	1086.52
594.50	1088.14
594.85	1090.22
595.20	1087.41
595.55	1088.37
595.90	1092.45
596.25	1090.32
596.60	1092.35
596.95	1090.83
597.30	1088.42
597.64	1098.27
597.99	1095.18
598.34	1090.41
598.69	1092.73
599.04	1094.25
599.39	1082.54
599.74	1085.89
600.09	1090.67
600.44	1091.72
600.78	1090.22
601.13	1089.54
601.48	1090.43
601.83	1087.67
602.18	1083.74
602.53	1084.18
602.88	1084.18
603.22	1085.75
603.57	1084.60
603.92	1085.77
604.27	1084.53
604.62	1086.27
604.97	1083.34
605.31	1082.38
605.66	1083.86
606.01	1086.27
606.36	1086.10
606.71	1087.67
607.05	1089.40
607.40	1088.40
607.75	1084.67
608.10	1084.67
608.44	1086.94
608.79	1087.76
609.14	1087.23
609.49	1088.72
609.84	1086.38
610.18	1085.94
610.53	1085.70
610.88	1090.24
611.23	1088.14
611.57	1090.57
611.92	1087.11
612.27	1085.66
612.62	1080.70
612.96	1084.81
613.31	1083.11
613.66	1083.13
614.00	1083.43
614.35	1083.97
614.70	1084.35
615.05	1086.38
615.39	1088.77
615.74	1090.53
616.09	1088.26
616.43	1085.35
616.78	1082.87
617.13	1081.12
617.47	1078.66
617.82	1080.27
618.17	1074.91
618.51	1078.64
618.86	1078.40
619.21	1077.63
619.55	1082.05
619.90	1089.38
620.25	1082.83
620.59	1082.76
620.94	1085.26
621.29	1081.37
621.63	1080.93
621.98	1084.67
622.32	1085.96
622.67	1084.96
623.02	1087.27
623.36	1087.06
623.71	1087.53
624.05	1088.00
624.40	1090.48
624.75	1088.89
625.09	1089.61
625.44	1089.61
625.78	1088.47
626.13	1083.48
626.48	1083.06
626.82	1080.81
627.17	1078.73
627.51	1076.81
627.86	1079.24
628.20	1076.90
628.55	1078.07
628.89	1080.44
629.24	1077.09
629.58	1076.48
629.93	1081.77
630.28	1082.19
630.62	1078.82
630.97	1083.22
631.31	1082.66
631.66	1078.40
632.00	1077.14
632.35	1080.32
632.69	1080.79
633.04	1082.05
633.38	1082.59
633.73	1082.22
634.07	1083.76
634.42	1085.00
634.76	1083.48
635.11	1083.69
635.45	1085.77
635.79	1083.18
636.14	1082.08
636.48	1081.23
636.83	1081.87
637.17	1080.56
637.52	1079.22
637.86	1078.80
638.21	1080.32
638.55	1080.98
638.89	1082.24
639.24	1083.06
639.58	1084.39
639.93	1082.85
640.27	1083.36
640.61	1081.73
640.96	1081.63
641.30	1081.09
641.65	1080.63
641.99	1078.21
642.33	1077.98
642.68	1079.01
643.02	1079.01
643.37	1083.48
643.71	1085.70
644.05	1089.66
644.40	1087.55
644.74	1090.50
645.08	1087.25
645.43	1086.52
645.77	1084.63
646.11	1085.17
646.46	1081.16
646.80	1082.08
647.14	1080.98
647.49	1082.24
647.83	1082.54
648.17	1083.25
648.52	1083.18
648.86	1084.84
649.20	1080.65
649.55	1079.99
649.89	1081.40
650.23	1083.71
650.57	1083.34
650.92	1083.53
651.26	1085.35
651.60	1084.70
651.95	1081.98
652.29	1081.82
652.63	1084.23
652.97	1082.40
653.32	1083.34
653.66	1083.50
654.00	1084.39
654.34	1082.80
654.69	1085.38
655.03	1086.41
655.37	1085.63
655.71	1085.03
656.05	1084.74
656.40	1081.89
656.74	1079.20
657.08	1080.23
657.42	1077.47
657.76	1076.69
658.11	1080.04
658.45	1082.47
658.79	1085.56
659.13	1087.53
659.47	1087.02
659.82	1086.10
660.16	1084.93
660.50	1080.65
660.84	1080.81
661.18	1082.59
661.52	1082.22
661.87	1083.81
662.21	1084.63
662.55	1086.80
662.89	1090.41
663.23	1088.49
663.57	1087.95
663.91	1086.73
664.25	1083.57
664.60	1078.96
664.94	1081.14
665.28	1076.48
665.62	1076.74
665.96	1076.53
666.30	1075.73
666.64	1074.77
666.98	1074.10
667.32	1076.25
667.66	1075.87
668.01	1079.17
668.35	1080.20
668.69	1082.19
669.03	1082.40
669.37	1083.39
669.71	1082.61
670.05	1082.10
670.39	1083.36
670.73	1082.59
671.07	1086.17
671.41	1084.70
671.75	1085.38
672.09	1086.38
672.43	1082.61
672.77	1078.66
673.11	1079.76
673.45	1081.77
673.79	1079.10
674.13	1084.98
674.47	1085.40
674.81	1084.04
675.15	1081.02
675.49	1080.95
675.83	1078.47
676.17	1076.97
676.51	1078.07
676.85	1078.19
677.19	1079.85
677.53	1082.40
677.87	1085.49
678.21	1085.28
678.55	1088.04
678.89	1088.47
679.23	1088.19
679.57	1088.58
679.90	1088.91
680.24	1085.47
680.58	1083.41
680.92	1080.44
681.26	1079.31
681.60	1080.86
681.94	1080.13
682.28	1083.43
682.62	1083.74
682.96	1082.85
683.29	1080.77
683.63	1079.62
683.97	1080.02
684.31	1080.91
684.65	1079.53
684.99	1081.16
685.33	1085.52
685.67	1081.00
686.00	1082.10
686.34	1082.61
686.68	1079.67
687.02	1079.36
687.36	1082.24
687.70	1082.24
688.03	1083.67
688.37	1084.53
688.71	1083.55
689.05	1081.14
689.39	1080.37
689.72	1080.70
690.06	1080.44
690.40	1082.17
690.74	1082.47
691.08	1082.97
691.41	1083.60
691.75	1084.56
692.09	1083.11
692.43	1082.80
692.76	1080.02
693.10	1080.13
693.44	1079.76
693.78	1077.30
694.11	1080.13
694.45	1080.13
694.79	1077.33
695.13	1077.04
695.46	1080.84
695.80	1079.85
696.14	1081.23
696.48	1084.21
696.81	1084.09
697.15	1083.32
697.49	1080.53
697.82	1078.28
698.16	1078.89
698.50	1080.06
698.83	1078.38
699.17	1079.95
699.51	1081.84
699.84	1079.27
700.18	1078.73
700.52	1077.84
700.85	1074.89
701.19	1075.15
701.53	1077.63
701.86	1078.89
702.20	1077.86
702.54	1079.81
702.87	1079.85
703.21	1079.57
703.55	1078.50
703.88	1081.05
704.22	1084.16
704.55	1084.58
704.89	1085.12
705.23	1082.69
705.56	1079.06
705.90	1077.56
706.23	1076.11
706.57	1073.72
706.91	1076.20
707.24	1078.38
707.58	1076.25
707.91	1077.61
708.25	1074.35
708.58	1072.57
708.92	1070.82
709.26	1074.38
709.59	1074.98
709.93	1079.38
710.26	1082.85
710.60	1087.44
710.93	1087.30
711.27	1084.32
711.60	1080.32
711.94	1078.64
712.27	1077.79
712.61	1074.63
712.94	1077.47
713.28	1076.86
713.61	1076.53
713.95	1074.42
714.28	1075.76
714.62	1074.45
714.95	1076.83
715.29	1077.86
715.62	1075.71
715.96	1074.21
716.29	1075.36
716.63	1075.17
716.96	1074.10
717.29	1078.05
717.63	1078.89
717.96	1080.34
718.30	1081.68
718.63	1078.82
718.97	1077.58
719.30	1080.11
719.63	1075.94
719.97	1075.85
720.30	1079.03
720.64	1078.45
720.97	1075.85
721.30	1077.40
721.64	1076.41
721.97	1075.08
722.31	1077.58
722.64	1080.11
722.97	1079.36
723.31	1076.44
723.64	1074.31
723.97	1074.87
724.31	1070.54
724.64	1068.64
724.98	1072.78
725.31	1076.76
725.64	1074.42
725.98	1076.83
726.31	1082.31
726.64	1078.57
726.97	1076.83
727.31	1076.37
727.64	1075.50
727.97	1071.75
728.31	1074.59
728.64	1075.52
728.97	1076.01
729.31	1076.55
729.64	1079.57
729.97	1080.77
730.30	1081.58
730.64	1082.10
730.97	1082.17
731.30	1078.92
731.63	1078.33
731.97	1075.52
732.30	1073.11
732.63	1071.33
732.96	1072.88
733.30	1072.53
733.63	1072.90
733.96	1075.31
734.29	1079.95
734.63	1081.33
734.96	1079.67
735.29	1081.21
735.62	1079.08
735.95	1076.39
736.29	1074.66
736.62	1076.79
736.95	1073.58
737.28	1074.33
737.61	1076.01
737.94	1074.10
738.28	1074.56
738.61	1077.61
738.94	1080.53
739.27	1080.20
739.60	1082.45
739.93	1082.15
740.27	1085.40
740.60	1082.17
740.93	1082.22
741.26	1082.90
741.59	1080.16
741.92	1078.54
742.25	1080.98
742.58	1079.31
742.91	1078.75
743.25	1080.70
743.58	1078.61
743.91	1077.65
744.24	1077.35
744.57	1077.65
744.90	1075.92
745.23	1074.70
745.56	1075.03
745.89	1074.26
746.22	1073.86
746.55	1074.42
746.88	1079.24
747.21	1077.02
747.54	1079.92
747.87	1080.32
748.20	1082.22
748.53	1079.20
748.87	1078.96
749.20	1077.91
749.53	1077.14
749.86	1074.47
750.19	1074.03
750.52	1074.68
750.85	1074.87
751.18	1075.52
751.51	1079.53
751.84	1078.89
752.16	1081.14
752.49	1081.58
752.82	1085.14
753.15	1083.88
753.48	1083.62
753.81	1084.02
754.14	1083.81
754.47	1078.59
754.80	1075.92
755.13	1075.92
755.46	1073.95
755.79	1075.20
756.12	1078.87
756.45	1080.32
756.78	1083.15
757.11	1085.35
757.43	1086.01
757.76	1085.26
758.09	1085.96
758.42	1084.04
758.75	1082.33
759.08	1081.51
759.41	1080.09
759.74	1078.78
760.07	1080.56
760.39	1079.92
760.72	1078.28
761.05	1081.66
761.38	1083.08
761.71	1079.99
762.04	1079.15
762.36	1076.88
762.69	1075.24
763.02	1075.83
763.35	1077.86
763.68	1081.96
764.01	1085.75
