SpectraSuite Data File
++++++++++++++++++++++++++++++++++++
Date: Mon Aug 26 10:22:09 PDT 2019
User: corrico
Dark Spectrum Present: No
Reference Spectrum Present: No
Number of Sampled Component Spectra: 1
Spectrometers: USB2+H06089
Integration Time (usec): 2000 (USB2+H06089)
Spectra Averaged: 20 (USB2+H06089)
Boxcar Smoothing: 2 (USB2+H06089)
Correct for Electrical Dark: No (USB2+H06089)
Strobe/Lamp Enabled: No (USB2+H06089)
Correct for Detector Non-linearity: No (USB2+H06089)
Correct for Stray Light: No (USB2+H06089)
Number of Pixels in Processed Spectrum: 2048
>>>>>Begin Processed Spectral Data<<<<<
339.70	1027.14
340.07	1027.14
340.45	993.93
340.82	970.60
341.19	945.74
341.57	919.55
341.94	907.31
342.31	907.07
342.69	903.28
343.06	902.98
343.43	901.60
343.81	900.26
344.18	894.62
344.55	897.85
344.93	900.26
345.30	907.19
345.67	914.56
346.04	925.78
346.42	937.27
346.79	948.53
347.16	958.71
347.54	967.79
347.91	974.69
348.28	983.96
348.65	989.67
349.03	999.20
349.40	1011.56
349.77	1022.35
350.14	1027.99
350.52	1039.67
350.89	1045.54
351.26	1051.91
351.63	1057.38
352.01	1064.83
352.38	1070.82
352.75	1073.14
353.12	1073.04
353.50	1075.90
353.87	1073.81
354.24	1071.92
354.61	1077.21
354.98	1079.48
355.36	1079.85
355.73	1082.15
356.10	1082.90
356.47	1078.92
356.84	1081.70
357.22	1085.35
357.59	1086.76
357.96	1088.47
358.33	1089.59
358.70	1086.55
359.08	1082.78
359.45	1081.80
359.82	1080.20
360.19	1083.32
360.56	1086.64
360.94	1086.92
361.31	1087.27
361.68	1084.46
362.05	1081.07
362.42	1077.82
362.79	1078.73
363.16	1074.89
363.54	1075.69
363.91	1080.44
364.28	1080.46
364.65	1079.15
365.02	1084.86
365.39	1085.54
365.76	1080.46
366.14	1081.26
366.51	1081.77
366.88	1077.07
367.25	1076.39
367.62	1077.77
367.99	1076.15
368.36	1075.57
368.73	1075.05
369.10	1075.94
369.48	1073.02
369.85	1071.15
370.22	1071.78
370.59	1071.17
370.96	1070.26
371.33	1073.42
371.70	1074.70
372.07	1072.95
372.44	1073.56
372.81	1075.76
373.18	1076.30
373.55	1075.15
373.93	1073.65
374.30	1075.92
374.67	1073.21
375.04	1071.90
375.41	1072.06
375.78	1074.52
376.15	1075.36
376.52	1079.46
376.89	1081.66
377.26	1085.59
377.63	1086.55
378.00	1085.38
378.37	1084.91
378.74	1083.36
379.11	1081.05
379.48	1080.02
379.85	1082.40
380.22	1082.57
380.59	1082.15
380.96	1082.33
381.33	1081.98
381.70	1079.78
382.07	1077.02
382.44	1076.83
382.81	1079.62
383.18	1080.23
383.55	1081.23
383.92	1084.72
384.29	1083.06
384.66	1082.52
385.03	1081.94
385.40	1081.37
385.77	1078.92
386.14	1081.87
386.51	1078.73
386.88	1080.91
387.25	1081.68
387.62	1083.53
387.99	1083.64
388.36	1085.12
388.73	1080.91
389.10	1082.61
389.46	1082.01
389.83	1085.03
390.20	1086.97
390.57	1091.09
390.94	1089.57
391.31	1089.57
391.68	1088.51
392.05	1086.31
392.42	1085.68
392.79	1084.63
393.16	1083.79
393.53	1084.42
393.89	1084.25
394.26	1085.45
394.63	1085.68
395.00	1084.14
395.37	1080.44
395.74	1084.79
396.11	1086.73
396.48	1089.36
396.84	1088.98
397.21	1093.10
397.58	1086.20
397.95	1083.95
398.32	1079.01
398.69	1080.30
399.06	1074.54
399.42	1079.41
399.79	1080.09
400.16	1083.97
400.53	1082.76
400.90	1087.62
401.27	1086.55
401.64	1083.88
402.00	1083.86
402.37	1087.74
402.74	1087.09
403.11	1088.47
403.48	1087.53
403.84	1086.27
404.21	1086.71
404.58	1087.16
404.95	1084.70
405.32	1086.13
405.68	1089.14
406.05	1087.53
406.42	1089.52
406.79	1093.92
407.16	1095.16
407.52	1093.57
407.89	1094.18
408.26	1095.51
408.63	1093.90
408.99	1096.19
409.36	1098.65
409.73	1101.18
410.10	1101.36
410.47	1101.76
410.83	1102.74
411.20	1103.89
411.57	1103.14
411.94	1102.63
412.30	1103.89
412.67	1105.41
413.04	1103.91
413.40	1106.56
413.77	1102.23
414.14	1102.23
414.51	1100.71
414.87	1102.74
415.24	1099.02
415.61	1105.53
415.97	1105.48
416.34	1104.83
416.71	1105.27
417.08	1109.23
417.44	1106.32
417.81	1106.65
418.18	1111.99
418.54	1113.60
418.91	1116.15
419.28	1119.60
419.64	1122.90
420.01	1123.71
420.38	1123.97
420.74	1124.67
421.11	1125.80
421.48	1127.79
421.84	1127.86
422.21	1131.88
422.58	1133.90
422.94	1138.46
423.31	1140.73
423.68	1144.71
424.04	1148.76
424.41	1152.04
424.77	1152.06
425.14	1157.32
425.51	1160.70
425.87	1163.57
426.24	1167.39
426.61	1173.43
426.97	1175.98
427.34	1181.01
427.70	1188.95
428.07	1199.76
428.44	1205.52
428.80	1217.15
429.17	1227.63
429.53	1239.41
429.90	1247.79
430.27	1263.19
430.63	1275.26
431.00	1290.52
431.36	1301.24
431.73	1315.43
432.09	1328.18
432.46	1344.29
432.83	1359.69
433.19	1380.42
433.56	1404.09
433.92	1435.57
434.29	1463.23
434.65	1494.03
435.02	1526.57
435.38	1562.89
435.75	1592.85
436.11	1635.47
436.48	1677.18
436.84	1719.87
437.21	1761.89
437.57	1810.22
437.94	1850.50
438.30	1904.40
438.67	1959.40
439.03	2019.74
439.40	2085.46
439.76	2160.22
440.13	2232.54
440.49	2312.57
440.86	2390.74
441.22	2477.83
441.59	2571.10
441.95	2673.17
442.32	2779.57
442.68	2903.72
443.05	3026.52
443.41	3151.58
443.78	3279.84
444.14	3421.02
444.51	3558.92
444.87	3726.81
445.24	3886.30
445.60	4070.12
445.96	4256.78
446.33	4466.82
446.69	4661.18
447.06	4886.22
447.42	5111.59
447.79	5347.77
448.15	5622.01
448.51	5908.92
448.88	6229.36
449.24	6533.35
449.61	6883.77
449.97	7238.93
450.33	7610.79
450.70	7966.79
451.06	8404.70
451.43	8812.51
451.79	9270.93
452.15	9765.89
452.52	10311.16
452.88	10852.69
453.24	11481.17
453.61	12184.01
453.97	12901.03
454.34	13593.36
454.70	14407.43
455.06	15204.21
455.43	15955.62
455.79	16645.21
456.15	17458.29
456.52	18204.99
456.88	19127.65
457.24	20036.74
457.61	21150.44
457.97	22212.25
458.33	23336.87
458.70	24401.42
459.06	25406.49
459.42	26421.30
459.79	27356.02
460.15	28407.74
460.51	29409.35
460.88	30499.12
461.24	31478.43
461.60	32629.43
461.96	33647.99
462.33	34669.79
462.69	35703.59
463.05	36840.06
463.42	37853.27
463.78	38817.15
464.14	39570.83
464.50	40323.47
464.87	40844.27
465.23	41199.44
465.59	41607.02
465.95	41927.77
466.32	42162.22
466.68	42415.77
467.04	42553.49
467.40	42564.23
467.77	42660.01
468.13	42566.50
468.49	42388.83
468.85	42287.00
469.22	42151.95
469.58	41910.83
469.94	41779.83
470.30	41571.85
470.66	41219.13
471.03	40696.86
471.39	40329.84
471.75	39615.70
472.11	38894.39
472.47	38400.42
472.84	37902.12
473.20	37191.21
473.56	36803.68
473.92	36241.02
474.28	35603.83
474.65	34932.21
475.01	34242.86
475.37	33404.50
475.73	32720.41
476.09	32025.15
476.45	31380.31
476.81	30829.63
477.18	30257.35
477.54	29763.54
477.90	29297.26
478.26	28729.35
478.62	28211.88
478.98	27782.49
479.34	27356.46
479.71	26789.96
480.07	26359.89
480.43	25912.84
480.79	25432.10
481.15	24957.74
481.51	24591.05
481.87	24271.75
482.23	23914.45
482.59	23595.20
482.96	23254.21
483.32	22952.44
483.68	22537.98
484.04	22187.08
484.40	21772.01
484.76	21356.17
485.12	20885.82
485.48	20455.58
485.84	19957.96
486.20	19517.45
486.56	19076.23
486.92	18691.00
487.28	18292.34
487.64	17898.94
488.00	17518.54
488.37	17141.10
488.73	16715.92
489.09	16267.36
489.45	15837.23
489.81	15389.79
490.17	14947.88
490.53	14535.83
490.89	14124.27
491.25	13707.65
491.61	13301.43
491.97	12905.39
492.33	12491.86
492.69	12131.44
493.05	11800.70
493.41	11474.48
493.77	11148.88
494.13	10858.87
494.49	10560.31
494.85	10279.68
495.21	10007.66
495.57	9749.06
495.93	9482.82
496.29	9238.12
496.64	9002.82
497.00	8756.39
497.36	8496.66
497.72	8260.57
498.08	8031.43
498.44	7791.55
498.80	7573.95
499.16	7381.79
499.52	7177.91
499.88	6997.99
500.24	6833.57
500.60	6671.04
500.96	6510.74
501.32	6350.55
501.68	6172.60
502.03	5991.54
502.39	5829.15
502.75	5659.23
503.11	5501.45
503.47	5373.10
503.83	5245.16
504.19	5113.53
504.55	5002.01
504.91	4889.24
505.26	4769.75
505.62	4650.34
505.98	4540.71
506.34	4423.19
506.70	4309.70
507.06	4199.27
507.42	4098.28
507.78	4001.31
508.13	3910.94
508.49	3828.46
508.85	3748.20
509.21	3666.26
509.57	3580.50
509.93	3493.32
510.28	3407.89
510.64	3323.23
511.00	3243.19
511.36	3170.35
511.72	3108.21
512.07	3047.47
512.43	2984.21
512.79	2924.27
513.15	2862.52
513.51	2801.81
513.86	2740.14
514.22	2693.04
514.58	2642.21
514.94	2594.86
515.30	2543.25
515.65	2498.45
516.01	2453.23
516.37	2413.21
516.73	2371.64
517.08	2340.14
517.44	2300.28
517.80	2261.68
518.16	2225.45
518.51	2193.76
518.87	2159.07
519.23	2130.78
519.59	2101.31
519.94	2070.81
520.30	2044.60
520.66	2012.56
521.01	1984.68
521.37	1954.53
521.73	1924.34
522.09	1894.78
522.44	1870.09
522.80	1846.78
523.16	1823.75
523.51	1805.00
523.87	1787.16
524.23	1766.03
524.58	1745.03
524.94	1723.78
525.30	1707.96
525.65	1688.39
526.01	1675.14
526.37	1656.87
526.72	1644.02
527.08	1621.87
527.44	1602.75
527.79	1578.27
528.15	1565.16
528.51	1550.42
528.86	1537.99
529.22	1525.68
529.58	1515.17
529.93	1500.45
530.29	1483.06
530.65	1470.65
531.00	1457.12
531.36	1446.90
531.71	1433.04
532.07	1421.45
532.43	1409.00
532.78	1396.27
533.14	1384.01
533.49	1375.37
533.85	1369.40
534.21	1360.72
534.56	1351.52
534.92	1348.05
535.27	1341.45
535.63	1330.90
535.98	1328.53
536.34	1324.70
536.69	1315.26
537.05	1308.80
537.41	1302.60
537.76	1292.79
538.12	1285.75
538.47	1279.13
538.83	1272.60
539.18	1270.89
539.54	1264.12
539.89	1261.13
540.25	1256.87
540.60	1253.50
540.96	1248.91
541.31	1247.90
541.67	1243.60
542.02	1239.78
542.38	1234.38
542.73	1228.95
543.09	1223.98
543.44	1219.44
543.80	1217.38
544.15	1217.13
544.51	1214.88
544.86	1207.93
545.22	1205.02
545.57	1199.88
545.93	1194.77
546.28	1189.67
546.64	1190.42
546.99	1188.50
547.35	1184.57
547.70	1183.02
548.05	1183.42
548.41	1183.42
548.76	1177.41
549.12	1175.77
549.47	1171.06
549.83	1166.69
550.18	1163.36
550.53	1163.48
550.89	1162.24
551.24	1160.51
551.60	1157.32
551.95	1152.97
552.30	1149.32
552.66	1148.81
553.01	1148.64
553.37	1151.38
553.72	1151.19
554.07	1151.01
554.43	1147.38
554.78	1147.26
555.13	1143.45
555.49	1142.09
555.84	1142.28
556.19	1141.92
556.55	1133.59
556.90	1131.65
557.26	1128.47
557.61	1122.99
557.96	1121.23
558.32	1127.44
558.67	1124.46
559.02	1124.37
559.37	1125.61
559.73	1126.52
560.08	1125.77
560.43	1130.08
560.79	1129.43
561.14	1130.36
561.49	1128.75
561.85	1124.91
562.20	1120.46
562.55	1120.77
562.90	1120.70
563.26	1115.73
563.61	1113.53
563.96	1112.69
564.32	1108.50
564.67	1106.35
565.02	1107.17
565.37	1106.54
565.73	1105.88
566.08	1108.20
566.43	1104.26
566.78	1106.61
567.14	1109.30
567.49	1108.43
567.84	1108.29
568.19	1110.00
568.54	1108.83
568.90	1107.05
569.25	1108.31
569.60	1104.36
569.95	1104.05
570.31	1101.25
570.66	1098.93
571.01	1096.68
571.36	1100.22
571.71	1102.37
572.06	1104.48
572.42	1103.87
572.77	1107.52
573.12	1105.55
573.47	1102.60
573.82	1103.21
574.18	1102.25
574.53	1099.82
574.88	1097.99
575.23	1095.11
575.58	1095.00
575.93	1098.04
576.28	1098.32
576.64	1095.75
576.99	1100.29
577.34	1098.58
577.69	1097.85
578.04	1092.30
578.39	1094.41
578.74	1090.90
579.09	1091.32
579.44	1089.64
579.80	1090.85
580.15	1092.09
580.50	1091.44
580.85	1089.80
581.20	1091.23
581.55	1091.72
581.90	1091.16
582.25	1094.53
582.60	1094.86
582.95	1091.39
583.30	1094.15
583.65	1091.32
584.00	1092.37
584.35	1091.65
584.71	1092.49
585.06	1089.94
585.41	1092.54
585.76	1089.40
586.11	1090.29
586.46	1089.31
586.81	1090.34
587.16	1090.62
587.51	1090.78
587.86	1093.10
588.21	1094.06
588.56	1093.26
588.91	1090.53
589.26	1088.86
589.61	1085.56
589.96	1087.16
590.31	1086.06
590.66	1087.37
591.01	1088.33
591.36	1086.03
591.71	1083.48
592.06	1082.10
592.41	1086.66
592.76	1088.33
593.10	1090.39
593.45	1091.95
593.80	1096.80
594.15	1093.85
594.50	1091.67
594.85	1089.22
595.20	1087.83
595.55	1084.81
595.90	1080.37
596.25	1082.38
596.60	1084.23
596.95	1086.41
597.30	1089.99
597.64	1102.02
597.99	1099.35
598.34	1100.87
598.69	1099.54
599.04	1094.36
599.39	1082.83
599.74	1085.77
600.09	1085.05
600.44	1086.08
600.78	1089.07
601.13	1091.49
601.48	1086.62
601.83	1085.94
602.18	1084.02
602.53	1084.58
602.88	1085.03
603.22	1085.54
603.57	1085.33
603.92	1087.20
604.27	1082.26
604.62	1080.51
604.97	1083.71
605.31	1083.43
605.66	1084.35
606.01	1088.86
606.36	1089.17
606.71	1088.51
607.05	1089.82
607.40	1088.37
607.75	1086.45
608.10	1087.53
608.44	1086.03
608.79	1083.48
609.14	1082.57
609.49	1083.81
609.84	1081.82
610.18	1080.86
610.53	1081.33
610.88	1080.84
611.23	1080.44
611.57	1082.52
611.92	1083.50
612.27	1085.21
612.62	1087.95
612.96	1086.73
613.31	1084.35
613.66	1086.34
614.00	1086.06
614.35	1087.23
614.70	1089.00
615.05	1091.06
615.39	1089.66
615.74	1088.14
616.09	1083.62
616.43	1082.22
616.78	1081.35
617.13	1082.15
617.47	1085.35
617.82	1088.42
618.17	1090.53
618.51	1089.33
618.86	1089.07
619.21	1084.00
619.55	1080.27
619.90	1074.96
620.25	1076.88
620.59	1075.15
620.94	1076.46
621.29	1079.43
621.63	1082.29
621.98	1081.14
622.32	1084.81
622.67	1084.96
623.02	1086.03
623.36	1089.52
623.71	1090.20
624.05	1088.35
624.40	1088.51
624.75	1087.60
625.09	1083.39
625.44	1084.77
625.78	1084.11
626.13	1084.16
626.48	1082.90
626.82	1086.27
627.17	1083.36
627.51	1086.15
627.86	1089.38
628.20	1088.09
628.55	1086.41
628.89	1089.80
629.24	1086.31
629.58	1085.05
629.93	1084.16
630.28	1084.84
630.62	1082.99
630.97	1082.61
631.31	1080.23
631.66	1082.03
632.00	1079.29
632.35	1077.68
632.69	1079.01
633.04	1081.75
633.38	1080.20
633.73	1078.14
634.07	1075.92
634.42	1074.61
634.76	1073.25
635.11	1077.30
635.45	1082.38
635.79	1086.99
636.14	1086.01
636.48	1086.36
636.83	1083.95
637.17	1082.10
637.52	1082.24
637.86	1085.19
638.21	1082.43
638.55	1081.89
638.89	1081.96
639.24	1077.44
639.58	1076.48
639.93	1079.03
640.27	1079.78
640.61	1080.25
640.96	1082.80
641.30	1085.07
641.65	1082.90
641.99	1083.79
642.33	1082.92
642.68	1083.79
643.02	1080.37
643.37	1083.86
643.71	1082.57
644.05	1084.21
644.40	1083.20
644.74	1084.25
645.08	1081.07
645.43	1081.21
645.77	1081.66
646.11	1082.78
646.46	1082.73
646.80	1085.91
647.14	1087.55
647.49	1086.87
647.83	1086.29
648.17	1085.75
648.52	1082.66
648.86	1079.92
649.20	1080.20
649.55	1078.59
649.89	1077.23
650.23	1078.07
650.57	1077.07
650.92	1073.86
651.26	1077.47
651.60	1077.84
651.95	1077.49
652.29	1078.94
652.63	1080.86
652.97	1076.55
653.32	1075.85
653.66	1073.77
654.00	1074.35
654.34	1071.50
654.69	1075.45
655.03	1078.14
655.37	1081.56
655.71	1079.38
656.05	1080.51
656.40	1082.33
656.74	1082.45
657.08	1078.17
657.42	1079.15
657.76	1080.70
658.11	1076.76
658.45	1074.96
658.79	1077.98
659.13	1075.55
659.47	1075.36
659.82	1075.50
660.16	1075.22
660.50	1075.20
660.84	1078.17
661.18	1077.86
661.52	1080.56
661.87	1082.64
662.21	1085.77
662.55	1083.60
662.89	1081.91
663.23	1078.31
663.57	1077.84
663.91	1075.38
664.25	1075.92
664.60	1078.10
664.94	1080.20
665.28	1079.03
665.62	1079.50
665.96	1077.65
666.30	1075.73
666.64	1073.46
666.98	1072.85
667.32	1069.60
667.66	1073.53
668.01	1075.85
668.35	1079.38
668.69	1080.86
669.03	1081.94
669.37	1082.08
669.71	1082.22
670.05	1082.99
670.39	1083.18
670.73	1085.54
671.07	1085.75
671.41	1084.81
671.75	1079.50
672.09	1080.72
672.43	1081.51
672.77	1078.40
673.11	1077.58
673.45	1078.59
673.79	1076.11
674.13	1072.90
674.47	1076.27
674.81	1074.38
675.15	1073.81
675.49	1075.03
675.83	1075.90
676.17	1075.31
676.51	1079.41
676.85	1080.95
677.19	1079.48
677.53	1082.54
677.87	1084.93
678.21	1083.20
678.55	1083.20
678.89	1083.43
679.23	1080.84
679.57	1078.07
679.90	1078.94
680.24	1081.63
680.58	1084.60
680.92	1085.05
681.26	1086.52
681.60	1087.34
681.94	1084.30
682.28	1082.87
682.62	1081.73
682.96	1079.69
683.29	1078.75
683.63	1081.16
683.97	1081.30
684.31	1080.81
684.65	1079.64
684.99	1081.82
685.33	1077.49
685.67	1075.94
686.00	1078.43
686.34	1078.43
686.68	1076.04
687.02	1077.18
687.36	1077.72
687.70	1076.11
688.03	1076.34
688.37	1078.61
688.71	1082.29
689.05	1083.29
689.39	1081.42
689.72	1083.32
690.06	1083.93
690.40	1082.43
690.74	1082.92
691.08	1084.77
691.41	1085.40
691.75	1082.12
692.09	1082.94
692.43	1080.65
692.76	1082.85
693.10	1082.31
693.44	1084.02
693.78	1079.95
694.11	1082.69
694.45	1083.22
694.79	1081.77
695.13	1082.17
695.46	1084.42
695.80	1083.62
696.14	1081.54
696.48	1084.58
696.81	1080.53
697.15	1080.91
697.49	1078.82
697.82	1078.00
698.16	1074.40
698.50	1079.34
698.83	1081.30
699.17	1081.80
699.51	1081.44
699.84	1084.32
700.18	1080.06
700.52	1079.24
700.85	1079.95
701.19	1080.67
701.53	1080.13
701.86	1082.10
702.20	1081.12
702.54	1079.20
702.87	1079.69
703.21	1078.47
703.55	1079.24
703.88	1078.40
704.22	1083.32
704.55	1084.58
704.89	1083.60
705.23	1079.85
705.56	1081.87
705.90	1076.01
706.23	1073.18
706.57	1073.81
706.91	1076.48
707.24	1073.09
707.58	1074.75
707.91	1072.78
708.25	1072.32
708.58	1072.50
708.92	1074.24
709.26	1073.18
709.59	1076.20
709.93	1078.85
710.26	1077.49
710.60	1077.82
710.93	1079.36
711.27	1078.31
711.60	1077.02
711.94	1076.18
712.27	1079.29
712.61	1081.00
712.94	1081.05
713.28	1081.33
713.61	1082.64
713.95	1077.56
714.28	1073.86
714.62	1075.52
714.95	1076.18
715.29	1077.91
715.62	1078.66
715.96	1079.31
716.29	1078.80
716.63	1076.67
716.96	1073.63
717.29	1074.89
717.63	1074.75
717.96	1074.31
718.30	1075.38
718.63	1075.43
718.97	1076.01
719.30	1077.33
719.63	1075.71
719.97	1075.50
720.30	1078.26
720.64	1076.55
720.97	1075.87
721.30	1077.63
721.64	1076.46
721.97	1075.15
722.31	1076.39
722.64	1077.65
722.97	1077.35
723.31	1081.12
723.64	1081.00
723.97	1079.76
724.31	1079.22
724.64	1083.15
724.98	1080.74
725.31	1083.36
725.64	1085.38
725.98	1081.75
726.31	1079.69
726.64	1080.63
726.97	1076.51
727.31	1073.04
727.64	1075.99
727.97	1075.22
728.31	1076.20
728.64	1076.53
728.97	1077.35
729.31	1077.18
729.64	1078.05
729.97	1073.07
730.30	1077.93
730.64	1078.52
730.97	1080.60
731.30	1080.93
731.63	1084.84
731.97	1083.60
732.30	1083.67
732.63	1081.26
732.96	1077.58
733.30	1078.28
733.63	1076.97
733.96	1078.10
734.29	1078.33
734.63	1080.02
734.96	1079.97
735.29	1077.44
735.62	1076.90
735.95	1079.15
736.29	1079.01
736.62	1077.16
736.95	1075.80
737.28	1074.33
737.61	1074.94
737.94	1076.32
738.28	1078.92
738.61	1081.33
738.94	1084.39
739.27	1084.18
739.60	1082.26
739.93	1079.03
740.27	1079.95
740.60	1076.51
740.93	1075.83
741.26	1077.54
741.59	1077.58
741.92	1074.91
742.25	1078.33
742.58	1077.42
742.91	1077.16
743.25	1076.58
743.58	1080.63
743.91	1080.32
744.24	1079.83
744.57	1081.42
744.90	1086.20
745.23	1083.01
745.56	1082.15
745.89	1081.42
746.22	1077.84
746.55	1074.68
746.88	1076.58
747.21	1076.74
747.54	1078.38
747.87	1079.88
748.20	1079.20
748.53	1077.49
748.87	1075.41
749.20	1075.48
749.53	1073.77
749.86	1074.66
750.19	1078.80
750.52	1082.99
750.85	1081.96
751.18	1085.33
751.51	1087.67
751.84	1085.24
752.16	1083.15
752.49	1084.23
752.82	1083.69
753.15	1080.34
753.48	1078.43
753.81	1080.65
754.14	1078.96
754.47	1079.13
754.80	1078.66
755.13	1082.05
755.46	1075.71
755.79	1078.24
756.12	1074.73
756.45	1075.92
756.78	1076.25
757.11	1080.93
757.43	1077.89
757.76	1078.73
758.09	1077.72
758.42	1076.20
758.75	1073.72
759.08	1074.24
759.41	1074.84
759.74	1075.52
760.07	1078.66
760.39	1084.18
760.72	1085.59
761.05	1085.28
761.38	1085.28
761.71	1081.58
762.04	1077.75
762.36	1077.63
762.69	1079.20
763.02	1078.59
763.35	1075.80
763.68	1079.78
