SpectraSuite Data File
++++++++++++++++++++++++++++++++++++
Date: Mon Aug 26 10:22:02 PDT 2019
User: corrico
Dark Spectrum Present: No
Reference Spectrum Present: No
Number of Sampled Component Spectra: 1
Spectrometers: USB2+H06089
Integration Time (usec): 2000 (USB2+H06089)
Spectra Averaged: 20 (USB2+H06089)
Boxcar Smoothing: 2 (USB2+H06089)
Correct for Electrical Dark: No (USB2+H06089)
Strobe/Lamp Enabled: No (USB2+H06089)
Correct for Detector Non-linearity: No (USB2+H06089)
Correct for Stray Light: No (USB2+H06089)
Number of Pixels in Processed Spectrum: 2048
>>>>>Begin Processed Spectral Data<<<<<
339.70	1025.27
340.07	1025.27
340.45	993.32
340.82	971.25
341.19	947.45
341.57	924.56
341.94	912.39
342.31	903.91
342.69	898.56
343.06	895.14
343.43	894.41
343.81	897.01
344.18	899.77
344.55	908.95
344.93	913.25
345.30	918.38
345.67	922.12
346.04	932.77
346.42	936.89
346.79	946.70
347.16	953.89
347.54	965.17
347.91	972.24
348.28	980.26
348.65	991.36
349.03	1005.24
349.40	1014.53
349.77	1022.14
350.14	1031.26
350.52	1036.88
350.89	1041.30
351.26	1046.90
351.63	1053.69
352.01	1058.60
352.38	1064.10
352.75	1062.51
353.12	1065.83
353.50	1068.95
353.87	1070.12
354.24	1073.58
354.61	1080.41
354.98	1083.71
355.36	1083.83
355.73	1085.35
356.10	1083.25
356.47	1081.61
356.84	1078.80
357.22	1079.81
357.59	1082.31
357.96	1083.88
358.33	1085.31
358.70	1086.52
359.08	1084.67
359.45	1085.38
359.82	1082.80
360.19	1080.41
360.56	1078.43
360.94	1078.68
361.31	1079.76
361.68	1081.58
362.05	1081.96
362.42	1084.65
362.79	1083.71
363.16	1079.92
363.54	1077.51
363.91	1079.06
364.28	1079.83
364.65	1076.88
365.02	1075.43
365.39	1074.77
365.76	1070.44
366.14	1065.72
366.51	1068.48
366.88	1070.63
367.25	1071.57
367.62	1073.91
367.99	1071.59
368.36	1072.41
368.73	1072.69
369.10	1076.20
369.48	1077.98
369.85	1081.44
370.22	1082.73
370.59	1078.68
370.96	1075.80
371.33	1075.29
371.70	1075.20
372.07	1073.51
372.44	1072.71
372.81	1074.56
373.18	1076.01
373.55	1075.45
373.93	1075.99
374.30	1077.21
374.67	1075.17
375.04	1073.95
375.41	1075.78
375.78	1074.07
376.15	1076.88
376.52	1076.97
376.89	1074.49
377.26	1074.52
377.63	1076.67
378.00	1075.78
378.37	1074.12
378.74	1077.02
379.11	1076.72
379.48	1076.65
379.85	1076.48
380.22	1078.45
380.59	1079.10
380.96	1079.85
381.33	1079.31
381.70	1080.13
382.07	1080.46
382.44	1076.48
382.81	1074.87
383.18	1076.11
383.55	1075.78
383.92	1075.17
384.29	1076.86
384.66	1080.70
385.03	1080.25
385.40	1079.62
385.77	1081.75
386.14	1082.47
386.51	1080.53
386.88	1080.74
387.25	1082.78
387.62	1081.98
387.99	1084.09
388.36	1084.42
388.73	1084.67
389.10	1084.70
389.46	1086.38
389.83	1084.77
390.20	1083.32
390.57	1084.58
390.94	1083.39
391.31	1082.73
391.68	1082.33
392.05	1083.36
392.42	1078.64
392.79	1078.12
393.16	1081.73
393.53	1083.48
393.89	1085.00
394.26	1088.54
394.63	1089.36
395.00	1087.97
395.37	1087.74
395.74	1088.56
396.11	1087.76
396.48	1091.18
396.84	1089.80
397.21	1092.96
397.58	1090.99
397.95	1090.74
398.32	1088.07
398.69	1088.02
399.06	1086.50
399.42	1085.07
399.79	1085.73
400.16	1086.10
400.53	1087.04
400.90	1086.08
401.27	1089.45
401.64	1089.68
402.00	1090.95
402.37	1092.89
402.74	1095.04
403.11	1092.59
403.48	1094.90
403.84	1093.97
404.21	1092.42
404.58	1091.44
404.95	1095.82
405.32	1093.57
405.68	1092.12
406.05	1091.67
406.42	1091.13
406.79	1090.41
407.16	1090.10
407.52	1090.90
407.89	1089.29
408.26	1089.89
408.63	1088.72
408.99	1092.02
409.36	1093.76
409.73	1095.00
410.10	1093.76
410.47	1094.29
410.83	1095.00
411.20	1093.99
411.57	1092.91
411.94	1095.42
412.30	1099.00
412.67	1095.04
413.04	1095.98
413.40	1098.98
413.77	1097.59
414.14	1092.35
414.51	1097.27
414.87	1100.05
415.24	1102.21
415.61	1103.96
415.97	1104.59
416.34	1104.73
416.71	1101.88
417.08	1101.50
417.44	1100.73
417.81	1101.92
418.18	1098.72
418.54	1101.11
418.91	1100.89
419.28	1103.02
419.64	1107.35
420.01	1111.15
420.38	1111.99
420.74	1112.76
421.11	1112.27
421.48	1115.78
421.84	1117.02
422.21	1118.17
422.58	1121.23
422.94	1125.07
423.31	1126.29
423.68	1129.21
424.04	1130.53
424.41	1128.98
424.77	1132.82
425.14	1134.32
425.51	1139.77
425.87	1149.23
426.24	1157.75
426.61	1162.19
426.97	1165.84
427.34	1168.75
427.70	1172.54
428.07	1178.83
428.44	1186.02
428.80	1194.98
429.17	1203.53
429.53	1211.04
429.90	1221.90
430.27	1231.31
430.63	1234.84
431.00	1248.65
431.36	1262.16
431.73	1271.80
432.09	1285.00
432.46	1306.28
432.83	1322.10
433.19	1338.97
433.56	1357.04
433.92	1379.54
434.29	1400.48
434.65	1422.02
435.02	1445.66
435.38	1470.46
435.75	1496.84
436.11	1525.42
436.48	1555.57
436.84	1590.98
437.21	1630.30
437.57	1665.97
437.94	1709.34
438.30	1749.85
438.67	1797.63
439.03	1851.29
439.40	1913.15
439.76	1970.03
440.13	2033.13
440.49	2097.54
440.86	2160.13
441.22	2226.34
441.59	2304.44
441.95	2389.24
442.32	2476.85
442.68	2575.34
443.05	2672.80
443.41	2771.59
443.78	2880.26
444.14	2986.31
444.51	3097.14
444.87	3230.97
445.24	3368.97
445.60	3511.37
445.96	3658.68
446.33	3825.82
446.69	3986.35
447.06	4167.72
447.42	4356.28
447.79	4565.14
448.15	4793.23
448.51	5017.45
448.88	5261.24
449.24	5498.90
449.61	5776.49
449.97	6064.19
450.33	6389.87
450.70	6700.77
451.06	7075.86
451.43	7418.80
451.79	7800.42
452.15	8191.15
452.52	8620.87
452.88	9058.32
453.24	9548.26
453.61	10087.55
453.97	10622.40
454.34	11156.82
454.70	11770.04
455.06	12401.23
455.43	12986.74
455.79	13567.24
456.15	14269.94
456.52	14940.11
456.88	15757.68
457.24	16568.11
457.61	17509.88
457.97	18361.25
458.33	19247.35
458.70	20105.23
459.06	20929.61
459.42	21798.32
459.79	22596.87
460.15	23482.15
460.51	24260.92
460.88	25112.92
461.24	25849.65
461.60	26736.85
461.96	27519.46
462.33	28315.26
462.69	29134.24
463.05	30031.79
463.42	30877.63
463.78	31662.44
464.14	32335.76
464.50	32991.09
464.87	33499.48
465.23	33830.48
465.59	34206.27
465.95	34535.94
466.32	34807.89
466.68	35070.35
467.04	35262.18
467.40	35363.79
467.77	35496.19
468.13	35470.37
468.49	35350.80
468.85	35243.58
469.22	35150.28
469.58	34929.43
469.94	34799.88
470.30	34608.35
470.66	34282.06
471.03	33712.02
471.39	33280.66
471.75	32569.40
472.11	31888.37
472.47	31433.79
472.84	30998.90
473.20	30347.48
473.56	29960.26
473.92	29410.66
474.28	28839.26
474.65	28312.92
475.01	27841.49
475.37	27268.88
475.73	26826.05
476.09	26288.97
476.45	25806.26
476.81	25367.10
477.18	24897.45
477.54	24491.48
477.90	24158.99
478.26	23726.76
478.62	23321.92
478.98	23019.59
479.34	22733.55
479.71	22339.62
480.07	22009.27
480.43	21672.33
480.79	21239.66
481.15	20799.55
481.51	20440.25
481.87	20122.33
482.23	19790.10
482.59	19527.02
482.96	19217.11
483.32	18903.03
483.68	18521.81
484.04	18165.53
484.40	17769.98
484.76	17435.77
485.12	17077.63
485.48	16798.05
485.84	16505.11
486.20	16217.50
486.56	15875.74
486.92	15571.00
487.28	15209.64
487.64	14836.56
488.00	14494.00
488.37	14112.38
488.73	13712.73
489.09	13335.01
489.45	13003.06
489.81	12651.37
490.17	12348.83
490.53	12048.47
490.89	11736.34
491.25	11403.60
491.61	11058.40
491.97	10749.82
492.33	10452.67
492.69	10187.67
493.05	9917.29
493.41	9665.97
493.77	9386.44
494.13	9120.44
494.49	8834.24
494.85	8564.65
495.21	8323.09
495.57	8099.82
495.93	7877.28
496.29	7662.31
496.64	7465.44
497.00	7264.06
497.36	7070.03
497.72	6900.72
498.08	6745.28
498.44	6587.34
498.80	6425.19
499.16	6249.00
499.52	6069.64
499.88	5902.41
500.24	5753.65
500.60	5612.04
500.96	5494.59
501.32	5371.74
501.68	5250.38
502.03	5121.14
502.39	4996.81
502.75	4868.81
503.11	4752.20
503.47	4645.50
503.83	4536.68
504.19	4430.96
504.55	4322.78
504.91	4218.86
505.26	4112.11
505.62	4011.65
505.98	3913.82
506.34	3823.97
506.70	3737.13
507.06	3653.88
507.42	3570.91
507.78	3486.20
508.13	3405.53
508.49	3322.16
508.85	3248.29
509.21	3171.43
509.57	3111.60
509.93	3050.14
510.28	2985.14
510.64	2922.79
511.00	2865.73
511.36	2807.40
511.72	2751.42
512.07	2705.85
512.43	2654.10
512.79	2606.54
513.15	2554.76
513.51	2505.45
513.86	2453.47
514.22	2411.97
514.58	2366.59
514.94	2324.99
515.30	2293.47
515.65	2261.07
516.01	2226.67
516.37	2195.26
516.73	2162.33
517.08	2126.54
517.44	2096.00
517.80	2065.69
518.16	2035.91
518.51	2008.44
518.87	1978.24
519.23	1948.33
519.59	1920.39
519.94	1896.14
520.30	1873.58
520.66	1847.62
521.01	1823.98
521.37	1801.74
521.73	1778.41
522.09	1753.65
522.44	1735.76
522.80	1715.89
523.16	1692.84
523.51	1673.25
523.87	1653.49
524.23	1639.97
524.58	1623.40
524.94	1606.87
525.30	1589.36
525.65	1573.85
526.01	1550.18
526.37	1531.72
526.72	1518.87
527.08	1503.63
527.44	1489.26
527.79	1482.33
528.15	1472.06
528.51	1460.61
528.86	1450.06
529.22	1441.61
529.58	1429.62
529.93	1419.02
530.29	1409.92
530.65	1402.12
531.00	1389.37
531.36	1377.97
531.71	1371.16
532.07	1364.49
532.43	1353.44
532.78	1346.77
533.14	1339.72
533.49	1332.23
533.85	1321.89
534.21	1313.46
534.56	1308.62
534.92	1302.46
535.27	1295.98
535.63	1291.30
535.98	1290.45
536.34	1284.58
536.69	1278.21
537.05	1272.20
537.41	1264.43
537.76	1257.34
538.12	1252.42
538.47	1249.14
538.83	1242.52
539.18	1235.57
539.54	1229.13
539.89	1225.93
540.25	1222.98
540.60	1219.14
540.96	1219.23
541.31	1217.80
541.67	1209.64
542.02	1204.07
542.38	1203.15
542.73	1201.30
543.09	1198.99
543.44	1198.71
543.80	1194.21
544.15	1191.59
544.51	1188.62
544.86	1186.09
545.22	1183.45
545.57	1184.38
545.93	1179.84
546.28	1174.90
546.64	1171.37
546.99	1166.73
547.35	1160.53
547.70	1161.84
548.05	1162.22
548.41	1163.76
548.76	1165.03
549.12	1164.79
549.47	1159.99
549.83	1154.63
550.18	1148.92
550.53	1144.55
550.89	1144.78
551.24	1144.12
551.60	1144.66
551.95	1144.43
552.30	1143.73
552.66	1141.17
553.01	1139.70
553.37	1139.40
553.72	1136.26
554.07	1136.00
554.43	1136.12
554.78	1131.84
555.13	1129.82
555.49	1129.40
555.84	1128.93
556.19	1125.70
556.55	1129.36
556.90	1130.57
557.26	1129.87
557.61	1127.72
557.96	1127.53
558.32	1124.21
558.67	1117.04
559.02	1115.38
559.37	1114.61
559.73	1113.23
560.08	1111.47
560.43	1112.29
560.79	1109.04
561.14	1110.68
561.49	1107.89
561.85	1109.81
562.20	1109.32
562.55	1114.45
562.90	1113.21
563.26	1113.93
563.61	1112.92
563.96	1116.53
564.32	1114.24
564.67	1110.49
565.02	1110.40
565.37	1107.07
565.73	1104.71
566.08	1101.88
566.43	1105.32
566.78	1104.05
567.14	1104.64
567.49	1102.18
567.84	1101.27
568.19	1098.81
568.54	1099.86
568.90	1100.36
569.25	1103.45
569.60	1107.10
569.95	1107.52
570.31	1107.92
570.66	1106.18
571.01	1107.59
571.36	1104.97
571.71	1102.37
572.06	1099.96
572.42	1101.50
572.77	1097.20
573.12	1096.68
573.47	1099.54
573.82	1100.29
574.18	1099.61
574.53	1097.62
574.88	1097.99
575.23	1093.87
575.58	1090.97
575.93	1089.57
576.28	1089.61
576.64	1089.29
576.99	1090.41
577.34	1093.64
577.69	1093.80
578.04	1094.79
578.39	1093.71
578.74	1094.29
579.09	1091.27
579.44	1090.01
579.80	1087.58
580.15	1086.06
580.50	1085.52
580.85	1086.52
581.20	1091.49
581.55	1094.11
581.90	1095.98
582.25	1096.28
582.60	1098.06
582.95	1094.65
583.30	1093.69
583.65	1092.33
584.00	1091.30
584.35	1087.44
584.71	1087.95
585.06	1088.26
585.41	1089.66
585.76	1088.00
586.11	1090.57
586.46	1086.83
586.81	1087.44
587.16	1084.23
587.51	1086.71
587.86	1085.28
588.21	1087.76
588.56	1089.36
588.91	1093.73
589.26	1091.46
589.61	1091.06
589.96	1091.79
590.31	1091.88
590.66	1088.14
591.01	1091.02
591.36	1093.01
591.71	1091.95
592.06	1090.20
592.41	1090.92
592.76	1089.29
593.10	1087.83
593.45	1086.45
593.80	1088.35
594.15	1089.17
594.50	1087.81
594.85	1089.38
595.20	1092.91
595.55	1091.39
595.90	1090.57
596.25	1091.51
596.60	1090.69
596.95	1090.36
597.30	1090.60
597.64	1103.40
597.99	1107.14
598.34	1107.10
598.69	1102.21
599.04	1099.44
599.39	1084.02
599.74	1082.73
600.09	1082.03
600.44	1084.81
600.78	1085.91
601.13	1089.66
601.48	1087.65
601.83	1089.47
602.18	1089.54
602.53	1088.09
602.88	1087.18
603.22	1086.57
603.57	1080.74
603.92	1080.88
604.27	1081.54
604.62	1080.93
604.97	1079.08
605.31	1083.79
605.66	1087.02
606.01	1086.92
606.36	1086.76
606.71	1086.85
607.05	1086.27
607.40	1083.57
607.75	1082.69
608.10	1085.66
608.44	1089.33
608.79	1088.30
609.14	1086.85
609.49	1087.76
609.84	1087.18
610.18	1082.29
610.53	1083.48
610.88	1083.76
611.23	1084.91
611.57	1084.46
611.92	1088.04
612.27	1087.72
612.62	1091.23
612.96	1089.52
613.31	1087.95
613.66	1087.83
614.00	1088.26
614.35	1081.40
614.70	1081.84
615.05	1082.26
615.39	1079.83
615.74	1078.26
616.09	1083.81
616.43	1083.81
616.78	1082.85
617.13	1083.81
617.47	1083.41
617.82	1081.80
618.17	1081.70
618.51	1081.44
618.86	1083.97
619.21	1085.00
619.55	1084.07
619.90	1083.67
620.25	1081.80
620.59	1076.97
620.94	1078.64
621.29	1079.85
621.63	1080.16
621.98	1082.94
622.32	1085.84
622.67	1082.64
623.02	1080.91
623.36	1084.37
623.71	1086.10
624.05	1084.93
624.40	1085.66
624.75	1084.74
625.09	1081.63
625.44	1079.81
625.78	1083.57
626.13	1083.08
626.48	1081.58
626.82	1080.88
627.17	1079.31
627.51	1075.36
627.86	1077.54
628.20	1083.88
628.55	1085.94
628.89	1090.76
629.24	1092.23
629.58	1088.47
629.93	1083.69
630.28	1085.94
630.62	1082.78
630.97	1083.27
631.31	1092.00
631.66	1092.45
632.00	1089.66
632.35	1089.71
632.69	1089.40
633.04	1082.03
633.38	1082.05
633.73	1081.63
634.07	1084.49
634.42	1081.96
634.76	1082.24
635.11	1081.00
635.45	1081.84
635.79	1075.80
636.14	1078.33
636.48	1080.63
636.83	1081.75
637.17	1081.49
637.52	1084.56
637.86	1084.60
638.21	1083.48
638.55	1084.21
638.89	1086.17
639.24	1087.79
639.58	1086.76
639.93	1089.07
640.27	1089.22
640.61	1087.23
640.96	1084.32
641.30	1085.66
641.65	1081.07
641.99	1084.16
642.33	1082.36
642.68	1082.47
643.02	1082.94
643.37	1088.21
643.71	1086.64
644.05	1087.27
644.40	1090.41
644.74	1086.73
645.08	1083.97
645.43	1083.46
645.77	1085.94
646.11	1086.92
646.46	1090.83
646.80	1091.06
647.14	1091.23
647.49	1088.72
647.83	1086.64
648.17	1083.81
648.52	1085.91
648.86	1083.46
649.20	1087.62
649.55	1090.43
649.89	1092.26
650.23	1089.47
650.57	1090.57
650.92	1087.67
651.26	1083.71
651.60	1084.04
651.95	1083.57
652.29	1084.65
652.63	1085.84
652.97	1087.44
653.32	1083.76
653.66	1084.37
654.00	1082.90
654.34	1082.15
654.69	1080.98
655.03	1082.78
655.37	1078.64
655.71	1077.23
656.05	1076.13
656.40	1077.44
656.74	1076.25
657.08	1079.69
657.42	1082.38
657.76	1081.70
658.11	1079.46
658.45	1081.05
658.79	1086.80
659.13	1085.38
659.47	1088.00
659.82	1089.03
660.16	1089.75
660.50	1083.71
660.84	1086.29
661.18	1085.45
661.52	1085.19
661.87	1084.58
662.21	1086.22
662.55	1083.74
662.89	1084.70
663.23	1081.98
663.57	1084.67
663.91	1086.83
664.25	1086.45
664.60	1084.60
664.94	1088.16
665.28	1084.65
665.62	1081.80
665.96	1083.57
666.30	1085.82
666.64	1083.55
666.98	1087.55
667.32	1087.74
667.66	1083.90
668.01	1079.85
668.35	1080.65
668.69	1077.11
669.03	1076.76
669.37	1079.46
669.71	1079.97
670.05	1079.22
670.39	1079.85
670.73	1079.81
671.07	1080.44
671.41	1080.95
671.75	1082.15
672.09	1084.02
672.43	1083.64
672.77	1081.68
673.11	1081.84
673.45	1080.95
673.79	1076.53
674.13	1075.03
674.47	1075.83
674.81	1076.48
675.15	1077.56
675.49	1079.50
675.83	1081.68
676.17	1079.38
676.51	1077.18
676.85	1075.62
677.19	1075.27
677.53	1074.89
677.87	1078.05
678.21	1076.46
678.55	1076.69
678.89	1075.29
679.23	1076.20
679.57	1075.55
679.90	1079.69
680.24	1079.69
680.58	1081.16
680.92	1081.84
681.26	1082.92
681.60	1081.54
681.94	1084.02
682.28	1084.81
682.62	1082.19
682.96	1084.39
683.29	1081.68
683.63	1078.73
683.97	1079.48
684.31	1081.75
684.65	1078.45
684.99	1083.90
685.33	1087.41
685.67	1084.16
686.00	1084.30
686.34	1084.79
686.68	1080.39
687.02	1077.16
687.36	1077.77
687.70	1077.00
688.03	1076.06
688.37	1080.81
688.71	1081.30
689.05	1083.83
689.39	1081.94
689.72	1083.04
690.06	1081.77
690.40	1083.86
690.74	1082.01
691.08	1082.73
691.41	1081.80
691.75	1081.54
692.09	1080.16
692.43	1080.41
692.76	1084.58
693.10	1085.54
693.44	1085.35
693.78	1083.13
694.11	1086.29
694.45	1084.44
694.79	1081.28
695.13	1081.23
695.46	1082.50
695.80	1079.20
696.14	1075.27
696.48	1081.14
696.81	1077.51
697.15	1076.48
697.49	1078.52
697.82	1079.85
698.16	1079.01
698.50	1085.03
698.83	1085.89
699.17	1085.28
699.51	1085.56
699.84	1086.94
700.18	1084.16
700.52	1084.00
700.85	1085.63
701.19	1086.22
701.53	1082.78
701.86	1082.73
702.20	1083.60
702.54	1077.23
702.87	1075.48
703.21	1075.01
703.55	1076.23
703.88	1076.51
704.22	1080.37
704.55	1084.72
704.89	1084.11
705.23	1084.16
705.56	1083.76
705.90	1083.18
706.23	1082.38
706.57	1087.32
706.91	1082.76
707.24	1080.72
707.58	1079.20
707.91	1078.21
708.25	1076.32
708.58	1079.15
708.92	1080.37
709.26	1083.36
709.59	1082.24
709.93	1078.85
710.26	1080.11
710.60	1084.79
710.93	1085.12
711.27	1086.87
711.60	1086.99
711.94	1087.02
712.27	1083.18
712.61	1084.35
712.94	1081.66
713.28	1083.25
713.61	1082.76
713.95	1081.75
714.28	1079.20
714.62	1081.68
714.95	1081.54
715.29	1082.36
715.62	1083.81
715.96	1083.69
716.29	1082.10
716.63	1080.72
716.96	1080.41
717.29	1079.20
717.63	1077.61
717.96	1079.50
718.30	1080.30
718.63	1080.23
718.97	1081.58
719.30	1082.83
719.63	1083.04
719.97	1083.55
720.30	1082.59
720.64	1082.85
720.97	1082.52
721.30	1080.86
721.64	1080.46
721.97	1080.11
722.31	1080.70
722.64	1081.47
722.97	1082.01
723.31	1081.33
723.64	1078.87
723.97	1079.03
724.31	1078.28
724.64	1077.68
724.98	1078.75
725.31	1080.48
725.64	1078.33
725.98	1081.63
726.31	1080.37
726.64	1081.91
726.97	1079.20
727.31	1078.47
727.64	1079.38
727.97	1082.45
728.31	1081.54
728.64	1084.77
728.97	1087.32
729.31	1082.90
729.64	1077.63
729.97	1073.53
730.30	1074.21
730.64	1077.16
730.97	1077.79
731.30	1082.64
731.63	1087.55
731.97	1086.29
732.30	1083.64
732.63	1082.97
732.96	1083.97
733.30	1081.98
733.63	1083.06
733.96	1082.12
734.29	1085.03
734.63	1083.04
734.96	1085.00
735.29	1082.71
735.62	1079.81
735.95	1080.74
736.29	1081.33
736.62	1080.86
736.95	1082.90
737.28	1083.83
737.61	1082.80
737.94	1079.43
738.28	1075.52
738.61	1076.48
738.94	1074.68
739.27	1071.85
739.60	1074.14
739.93	1074.70
740.27	1071.66
740.60	1072.34
740.93	1072.78
741.26	1074.26
741.59	1076.88
741.92	1077.11
742.25	1079.88
742.58	1080.46
742.91	1080.37
743.25	1079.41
743.58	1080.91
743.91	1082.99
744.24	1083.27
744.57	1082.36
744.90	1080.84
745.23	1078.68
745.56	1076.86
745.89	1079.20
746.22	1076.53
746.55	1080.91
746.88	1084.21
747.21	1083.13
747.54	1078.94
747.87	1079.38
748.20	1078.71
748.53	1077.04
748.87	1077.86
749.20	1080.98
749.53	1081.05
749.86	1078.71
750.19	1079.85
750.52	1081.19
750.85	1079.57
751.18	1081.98
751.51	1084.89
751.84	1084.00
752.16	1083.13
752.49	1081.89
752.82	1079.85
753.15	1078.75
753.48	1076.83
753.81	1074.14
754.14	1076.83
754.47	1076.86
754.80	1080.37
755.13	1082.73
755.46	1079.99
755.79	1080.06
756.12	1079.97
756.45	1075.59
756.78	1075.41
757.11	1077.91
757.43	1076.65
757.76	1079.01
758.09	1078.75
758.42	1078.71
758.75	1079.34
759.08	1075.80
759.41	1074.91
759.74	1074.84
760.07	1077.96
760.39	1082.17
760.72	1088.63
761.05	1089.71
761.38	1087.95
761.71	1083.81
762.04	1079.95
762.36	1076.44
762.69	1073.37
763.02	1077.51
763.35	1079.17
763.68	1079.60
764.01	1078.00
