SpectraSuite Data File
++++++++++++++++++++++++++++++++++++
Date: Mon Aug 26 10:22:22 PDT 2019
User: corrico
Dark Spectrum Present: No
Reference Spectrum Present: No
Number of Sampled Component Spectra: 1
Spectrometers: USB2+H06089
Integration Time (usec): 2000 (USB2+H06089)
Spectra Averaged: 20 (USB2+H06089)
Boxcar Smoothing: 2 (USB2+H06089)
Correct for Electrical Dark: No (USB2+H06089)
Strobe/Lamp Enabled: No (USB2+H06089)
Correct for Detector Non-linearity: No (USB2+H06089)
Correct for Stray Light: No (USB2+H06089)
Number of Pixels in Processed Spectrum: 2048
>>>>>Begin Processed Spectral Data<<<<<
339.70	1032.18
340.07	1032.18
340.45	995.66
340.82	971.51
341.19	946.68
341.57	922.38
341.94	913.60
342.31	903.66
342.69	900.54
343.06	897.92
343.43	895.56
343.81	894.01
344.18	896.87
344.55	899.96
344.93	906.82
345.30	915.22
345.67	921.91
346.04	934.30
346.42	942.70
346.79	949.53
347.16	956.83
347.54	963.69
347.91	971.18
348.28	979.54
348.65	988.62
349.03	997.61
349.40	1008.51
349.77	1015.49
350.14	1025.34
350.52	1031.47
350.89	1037.11
351.26	1042.57
351.63	1046.76
352.01	1049.66
352.38	1054.60
352.75	1059.70
353.12	1063.56
353.50	1069.32
353.87	1073.56
354.24	1080.41
354.61	1083.55
354.98	1083.22
355.36	1085.45
355.73	1085.87
356.10	1082.29
356.47	1080.04
356.84	1083.74
357.22	1084.53
357.59	1083.86
357.96	1085.47
358.33	1084.84
358.70	1084.16
359.08	1080.06
359.45	1083.46
359.82	1081.98
360.19	1082.40
360.56	1082.57
360.94	1086.76
361.31	1082.22
361.68	1078.40
362.05	1077.18
362.42	1076.53
362.79	1075.76
363.16	1077.35
363.54	1079.88
363.91	1081.56
364.28	1081.09
364.65	1079.06
365.02	1078.92
365.39	1078.38
365.76	1075.13
366.14	1074.49
366.51	1073.02
366.88	1072.25
367.25	1076.93
367.62	1081.94
367.99	1081.28
368.36	1082.47
368.73	1082.33
369.10	1076.72
369.48	1074.84
369.85	1072.48
370.22	1070.98
370.59	1071.12
370.96	1074.61
371.33	1074.33
371.70	1077.70
372.07	1079.85
372.44	1080.04
372.81	1073.72
373.18	1072.83
373.55	1073.81
373.93	1075.13
374.30	1073.95
374.67	1078.45
375.04	1076.69
375.41	1074.96
375.78	1072.55
376.15	1074.24
376.52	1076.51
376.89	1081.00
377.26	1083.43
377.63	1084.49
378.00	1084.67
378.37	1083.64
378.74	1085.33
379.11	1082.97
379.48	1082.83
379.85	1082.24
380.22	1081.05
380.59	1077.79
380.96	1077.44
381.33	1078.12
381.70	1080.20
382.07	1080.37
382.44	1076.97
382.81	1076.08
383.18	1077.68
383.55	1076.83
383.92	1081.75
384.29	1087.32
384.66	1091.58
385.03	1091.37
385.40	1092.12
385.77	1087.90
386.14	1084.79
386.51	1084.25
386.88	1083.62
387.25	1082.80
387.62	1082.94
387.99	1082.66
388.36	1080.70
388.73	1079.67
389.10	1078.28
389.46	1078.28
389.83	1079.06
390.20	1078.21
390.57	1079.13
390.94	1082.64
391.31	1082.29
391.68	1084.32
392.05	1088.02
392.42	1087.65
392.79	1087.18
393.16	1088.77
393.53	1088.30
393.89	1086.57
394.26	1089.19
394.63	1088.91
395.00	1091.06
395.37	1091.67
395.74	1091.04
396.11	1090.46
396.48	1092.61
396.84	1087.16
397.21	1084.07
397.58	1086.03
397.95	1081.30
398.32	1081.61
398.69	1085.03
399.06	1086.22
399.42	1087.44
399.79	1091.44
400.16	1091.13
400.53	1088.42
400.90	1089.99
401.27	1087.74
401.64	1085.14
402.00	1079.22
402.37	1082.24
402.74	1081.54
403.11	1083.76
403.48	1086.38
403.84	1090.48
404.21	1090.10
404.58	1088.42
404.95	1086.66
405.32	1081.54
405.68	1080.34
406.05	1079.22
406.42	1081.82
406.79	1082.78
407.16	1088.72
407.52	1090.95
407.89	1092.94
408.26	1094.81
408.63	1092.91
408.99	1096.40
409.36	1097.69
409.73	1096.89
410.10	1096.54
410.47	1098.81
410.83	1096.89
411.20	1098.13
411.57	1097.99
411.94	1097.73
412.30	1097.59
412.67	1097.55
413.04	1093.64
413.40	1097.36
413.77	1099.98
414.14	1102.02
414.51	1099.79
414.87	1100.92
415.24	1101.43
415.61	1101.27
415.97	1104.10
416.34	1108.20
416.71	1110.30
417.08	1110.44
417.44	1109.09
417.81	1106.58
418.18	1106.65
418.54	1104.78
418.91	1102.28
419.28	1105.25
419.64	1104.71
420.01	1106.84
420.38	1109.86
420.74	1113.77
421.11	1114.87
421.48	1117.16
421.84	1117.16
422.21	1117.47
422.58	1117.89
422.94	1117.14
423.31	1121.84
423.68	1125.80
424.04	1131.88
424.41	1136.87
424.77	1138.09
425.14	1138.44
425.51	1136.59
425.87	1138.88
426.24	1140.87
426.61	1151.17
426.97	1160.16
427.34	1170.43
427.70	1177.64
428.07	1185.27
428.44	1190.89
428.80	1196.25
429.17	1204.04
429.53	1209.94
429.90	1219.93
430.27	1228.64
430.63	1238.49
431.00	1248.23
431.36	1261.08
431.73	1269.55
432.09	1280.95
432.46	1292.49
432.83	1307.61
433.19	1320.97
433.56	1341.67
433.92	1362.57
434.29	1384.43
434.65	1405.68
435.02	1429.29
435.38	1455.04
435.75	1477.46
436.11	1507.94
436.48	1537.97
436.84	1573.89
437.21	1609.09
437.57	1649.61
437.94	1689.80
438.30	1731.81
438.67	1778.90
439.03	1826.25
439.40	1879.12
439.76	1930.85
440.13	1989.34
440.49	2051.41
440.86	2111.12
441.22	2174.33
441.59	2240.95
441.95	2322.63
442.32	2399.26
442.68	2495.32
443.05	2589.29
443.41	2687.01
443.78	2777.98
444.14	2883.31
444.51	2988.19
444.87	3129.62
445.24	3266.31
445.60	3416.85
445.96	3567.73
446.33	3739.08
446.69	3887.35
447.06	4057.01
447.42	4230.87
447.79	4411.65
448.15	4613.08
448.51	4842.76
448.88	5103.05
449.24	5341.06
449.61	5617.92
449.97	5894.05
450.33	6165.44
450.70	6420.74
451.06	6734.40
451.43	7029.56
451.79	7374.65
452.15	7760.84
452.52	8179.73
452.88	8641.40
453.24	9143.79
453.61	9681.16
453.97	10217.02
454.34	10756.03
454.70	11360.33
455.06	11998.29
455.43	12622.63
455.79	13218.20
456.15	13905.47
456.52	14549.54
456.88	15298.40
457.24	15998.66
457.61	16816.42
457.97	17569.16
458.33	18326.93
458.70	19054.86
459.06	19793.09
459.42	20590.30
459.79	21328.69
460.15	22188.65
460.51	23000.07
460.88	23871.36
461.24	24634.84
461.60	25539.20
461.96	26355.70
462.33	27159.86
462.69	27924.53
463.05	28751.84
463.42	29487.01
463.78	30135.83
464.14	30674.90
464.50	31261.69
464.87	31739.82
465.23	32066.88
465.59	32447.55
465.95	32778.48
466.32	33017.40
466.68	33192.49
467.04	33325.48
467.40	33420.37
467.77	33538.54
468.13	33545.19
468.49	33500.79
468.85	33449.39
469.22	33314.09
469.58	32986.13
469.94	32728.90
470.30	32408.30
470.66	31992.55
471.03	31410.95
471.39	31048.82
471.75	30464.51
472.11	29893.81
472.47	29547.81
472.84	29256.04
473.20	28803.43
473.56	28547.09
473.92	28144.31
474.28	27646.13
474.65	27157.63
475.01	26690.95
475.37	26118.93
475.73	25661.59
476.09	25153.34
476.45	24637.30
476.81	24133.10
477.18	23609.55
477.54	23169.13
477.90	22823.62
478.26	22431.79
478.62	22083.33
478.98	21812.06
479.34	21498.87
479.71	21096.35
480.07	20783.00
480.43	20443.01
480.79	20071.62
481.15	19734.34
481.51	19427.43
481.87	19153.45
482.23	18881.36
482.59	18610.02
482.96	18331.40
483.32	18054.42
483.68	17692.13
484.04	17354.42
484.40	17020.68
484.76	16689.05
485.12	16340.15
485.48	16053.20
485.84	15744.01
486.20	15412.99
486.56	15058.84
486.92	14770.28
487.28	14434.60
487.64	14080.45
488.00	13771.06
488.37	13473.74
488.73	13122.68
489.09	12775.77
489.45	12477.19
489.81	12173.76
490.17	11875.53
490.53	11608.10
490.89	11323.96
491.25	11036.56
491.61	10732.69
491.97	10421.35
492.33	10102.59
492.69	9811.20
493.05	9508.45
493.41	9227.82
493.77	8965.80
494.13	8710.72
494.49	8462.37
494.85	8240.77
495.21	8022.40
495.57	7815.38
495.93	7616.20
496.29	7426.19
496.64	7236.80
497.00	7045.15
497.36	6851.61
497.72	6665.24
498.08	6485.25
498.44	6311.25
498.80	6151.30
499.16	5994.70
499.52	5846.24
499.88	5723.85
500.24	5606.45
500.60	5487.97
500.96	5375.88
501.32	5266.49
501.68	5148.78
502.03	5022.32
502.39	4900.40
502.75	4766.03
503.11	4641.59
503.47	4519.69
503.83	4402.41
504.19	4283.72
504.55	4183.71
504.91	4085.71
505.26	3991.15
505.62	3907.03
505.98	3823.03
506.34	3734.49
506.70	3647.63
507.06	3561.59
507.42	3479.25
507.78	3404.96
508.13	3334.40
508.49	3260.76
508.85	3190.50
509.21	3118.41
509.57	3047.75
509.93	2980.11
510.28	2909.54
510.64	2844.29
511.00	2781.84
511.36	2718.95
511.72	2659.97
512.07	2615.20
512.43	2570.45
512.79	2518.44
513.15	2475.70
513.51	2430.97
513.86	2385.87
514.22	2342.43
514.58	2305.22
514.94	2269.55
515.30	2231.30
515.65	2195.98
516.01	2164.29
516.37	2140.56
516.73	2110.46
517.08	2085.93
517.44	2056.56
517.80	2025.15
518.16	1992.43
518.51	1965.58
518.87	1936.40
519.23	1912.24
519.59	1886.99
519.94	1858.76
520.30	1835.78
520.66	1810.52
521.01	1786.53
521.37	1768.13
521.73	1749.67
522.09	1725.28
522.44	1707.37
522.80	1688.91
523.16	1666.72
523.51	1646.80
523.87	1627.89
524.23	1609.45
524.58	1592.55
524.94	1578.32
525.30	1564.11
525.65	1549.67
526.01	1535.44
526.37	1521.14
526.72	1504.96
527.08	1493.66
527.44	1482.33
527.79	1468.78
528.15	1456.56
528.51	1445.73
528.86	1432.06
529.22	1423.54
529.58	1411.20
529.93	1398.89
530.29	1389.22
530.65	1376.26
531.00	1364.02
531.36	1361.02
531.71	1353.95
532.07	1347.14
532.43	1340.26
532.78	1334.01
533.14	1321.98
533.49	1316.15
533.85	1308.76
534.21	1302.30
534.56	1296.26
534.92	1290.81
535.27	1282.92
535.63	1276.55
535.98	1271.50
536.34	1264.24
536.69	1261.38
537.05	1254.78
537.41	1250.41
537.76	1244.70
538.12	1239.43
538.47	1232.01
538.83	1230.33
539.18	1225.20
539.54	1224.47
539.89	1223.02
540.25	1221.95
540.60	1217.24
540.96	1214.11
541.31	1205.33
541.67	1200.27
542.02	1197.86
542.38	1193.95
542.73	1193.04
543.09	1193.02
543.44	1189.65
543.80	1184.83
544.15	1181.43
544.51	1177.41
544.86	1173.76
545.22	1170.95
545.57	1169.68
545.93	1169.36
546.28	1164.88
546.64	1166.80
546.99	1168.61
547.35	1168.00
547.70	1164.46
548.05	1162.66
548.41	1157.63
548.76	1152.01
549.12	1150.28
549.47	1153.21
549.83	1152.50
550.18	1152.71
550.53	1149.95
550.89	1143.49
551.24	1140.80
551.60	1139.35
551.95	1138.65
552.30	1137.95
552.66	1140.19
553.01	1135.11
553.37	1135.46
553.72	1130.90
554.07	1132.54
554.43	1131.27
554.78	1131.37
555.13	1125.49
555.49	1123.01
555.84	1120.48
556.19	1114.84
556.55	1116.13
556.90	1119.48
557.26	1118.89
557.61	1117.32
557.96	1118.26
558.32	1115.34
558.67	1114.89
559.02	1114.82
559.37	1115.41
559.73	1116.41
560.08	1115.83
560.43	1113.81
560.79	1114.84
561.14	1111.99
561.49	1109.79
561.85	1110.21
562.20	1106.77
562.55	1106.91
562.90	1107.75
563.26	1109.37
563.61	1109.69
563.96	1111.92
564.32	1111.78
564.67	1111.85
565.02	1111.17
565.37	1109.60
565.73	1109.79
566.08	1106.56
566.43	1105.34
566.78	1106.14
567.14	1103.00
567.49	1099.40
567.84	1098.93
568.19	1097.43
568.54	1096.42
568.90	1096.96
569.25	1097.90
569.60	1099.63
569.95	1100.24
570.31	1100.50
570.66	1100.61
571.01	1102.88
571.36	1103.28
571.71	1101.06
572.06	1095.77
572.42	1096.26
572.77	1091.79
573.12	1088.65
573.47	1090.88
573.82	1094.32
574.18	1094.41
574.53	1097.69
574.88	1097.20
575.23	1095.32
575.58	1094.06
575.93	1093.17
576.28	1089.80
576.64	1089.78
576.99	1088.84
577.34	1091.88
577.69	1091.63
578.04	1090.83
578.39	1092.28
578.74	1097.62
579.09	1093.33
579.44	1092.63
579.80	1095.09
580.15	1094.32
580.50	1093.15
580.85	1093.99
581.20	1094.22
581.55	1095.07
581.90	1095.42
582.25	1091.25
582.60	1091.20
582.95	1092.68
583.30	1087.72
583.65	1085.80
584.00	1086.43
584.35	1087.41
584.71	1084.72
585.06	1088.98
585.41	1088.70
585.76	1090.08
586.11	1086.27
586.46	1087.11
586.81	1084.91
587.16	1085.84
587.51	1085.52
587.86	1088.58
588.21	1088.54
588.56	1087.58
588.91	1088.82
589.26	1086.24
589.61	1084.89
589.96	1083.39
590.31	1085.24
590.66	1083.69
591.01	1082.05
591.36	1082.69
591.71	1083.69
592.06	1079.81
592.41	1080.16
592.76	1085.70
593.10	1086.24
593.45	1084.72
593.80	1089.73
594.15	1091.86
594.50	1090.13
594.85	1090.41
595.20	1095.14
595.55	1094.01
595.90	1093.29
596.25	1094.04
596.60	1094.88
596.95	1093.12
597.30	1093.29
597.64	1102.16
597.99	1102.02
598.34	1099.54
598.69	1095.28
599.04	1096.33
599.39	1087.46
599.74	1084.23
600.09	1085.26
600.44	1087.53
600.78	1084.98
601.13	1081.12
601.48	1085.05
601.83	1087.30
602.18	1085.63
602.53	1087.88
602.88	1091.98
603.22	1089.92
603.57	1084.09
603.92	1084.67
604.27	1082.19
604.62	1080.53
604.97	1079.22
605.31	1082.01
605.66	1081.30
606.01	1083.11
606.36	1081.14
606.71	1081.87
607.05	1081.98
607.40	1084.00
607.75	1082.29
608.10	1084.79
608.44	1086.87
608.79	1086.80
609.14	1088.82
609.49	1088.09
609.84	1087.51
610.18	1084.32
610.53	1082.31
610.88	1080.88
611.23	1083.79
611.57	1081.47
611.92	1082.03
612.27	1087.06
612.62	1084.46
612.96	1086.06
613.31	1088.42
613.66	1089.38
614.00	1084.44
614.35	1085.35
614.70	1080.41
615.05	1079.78
615.39	1082.80
615.74	1085.63
616.09	1085.03
616.43	1089.22
616.78	1089.68
617.13	1083.43
617.47	1081.02
617.82	1080.27
618.17	1077.51
618.51	1078.19
618.86	1079.71
619.21	1081.30
619.55	1083.25
619.90	1082.50
620.25	1080.09
620.59	1083.41
620.94	1082.73
621.29	1082.03
621.63	1082.94
621.98	1083.11
622.32	1080.77
622.67	1078.61
623.02	1078.21
623.36	1077.49
623.71	1078.38
624.05	1081.84
624.40	1086.36
624.75	1086.55
625.09	1088.96
625.44	1090.17
625.78	1088.14
626.13	1086.66
626.48	1088.49
626.82	1088.82
627.17	1084.96
627.51	1087.86
627.86	1088.47
628.20	1086.31
628.55	1083.04
628.89	1086.29
629.24	1081.47
629.58	1077.47
629.93	1078.47
630.28	1080.20
630.62	1079.92
630.97	1079.34
631.31	1083.53
631.66	1084.07
632.00	1084.11
632.35	1083.95
632.69	1086.34
633.04	1083.67
633.38	1083.64
633.73	1085.31
634.07	1083.50
634.42	1078.71
634.76	1079.27
635.11	1079.48
635.45	1076.72
635.79	1078.26
636.14	1083.53
636.48	1082.52
636.83	1079.71
637.17	1078.61
637.52	1078.87
637.86	1074.94
638.21	1076.53
638.55	1076.62
638.89	1080.09
639.24	1081.09
639.58	1086.10
639.93	1086.34
640.27	1088.23
640.61	1086.57
640.96	1085.33
641.30	1085.35
641.65	1083.53
641.99	1083.57
642.33	1085.31
642.68	1088.30
643.02	1086.83
643.37	1091.49
643.71	1092.00
644.05	1089.89
644.40	1086.52
644.74	1085.49
645.08	1084.60
645.43	1085.61
645.77	1083.74
646.11	1085.24
646.46	1084.21
646.80	1078.89
647.14	1079.95
647.49	1082.97
647.83	1078.03
648.17	1079.99
648.52	1082.99
648.86	1080.88
649.20	1080.67
649.55	1083.74
649.89	1087.04
650.23	1087.09
650.57	1088.63
650.92	1088.44
651.26	1090.24
651.60	1085.45
651.95	1084.89
652.29	1084.51
652.63	1080.65
652.97	1079.01
653.32	1078.61
653.66	1079.95
654.00	1077.75
654.34	1078.47
654.69	1081.23
655.03	1084.56
655.37	1085.59
655.71	1084.23
656.05	1088.98
656.40	1087.79
656.74	1086.13
657.08	1083.41
657.42	1082.22
657.76	1078.00
658.11	1076.20
658.45	1074.45
658.79	1074.94
659.13	1076.39
659.47	1078.07
659.82	1075.01
660.16	1075.64
660.50	1075.69
660.84	1077.51
661.18	1077.28
661.52	1078.40
661.87	1079.13
662.21	1079.10
662.55	1077.96
662.89	1078.64
663.23	1081.30
663.57	1078.03
663.91	1078.89
664.25	1079.46
664.60	1079.71
664.94	1082.24
665.28	1082.43
665.62	1084.28
665.96	1084.21
666.30	1086.48
666.64	1083.57
666.98	1086.78
667.32	1083.41
667.66	1083.22
668.01	1080.48
668.35	1081.30
668.69	1082.73
669.03	1083.83
669.37	1081.54
669.71	1081.37
670.05	1082.59
670.39	1078.38
670.73	1076.93
671.07	1078.99
671.41	1077.93
671.75	1075.85
672.09	1077.18
672.43	1076.15
672.77	1077.82
673.11	1077.98
673.45	1078.96
673.79	1080.04
674.13	1078.80
674.47	1076.72
674.81	1076.65
675.15	1077.56
675.49	1075.50
675.83	1081.05
676.17	1083.93
676.51	1084.18
676.85	1084.16
677.19	1084.63
677.53	1079.83
677.87	1076.86
678.21	1076.13
678.55	1075.20
678.89	1075.62
679.23	1077.00
679.57	1080.13
679.90	1082.83
680.24	1079.55
680.58	1076.67
680.92	1077.40
681.26	1076.11
681.60	1073.72
681.94	1076.74
682.28	1082.50
682.62	1083.60
682.96	1083.46
683.29	1085.91
683.63	1083.86
683.97	1083.04
684.31	1084.16
684.65	1082.78
684.99	1079.85
685.33	1083.08
685.67	1081.84
686.00	1084.56
686.34	1082.22
686.68	1082.36
687.02	1079.64
687.36	1079.57
687.70	1073.42
688.03	1077.79
688.37	1077.47
688.71	1078.71
689.05	1078.00
689.39	1079.97
689.72	1079.69
690.06	1082.26
690.40	1082.92
690.74	1082.40
691.08	1081.82
691.41	1081.91
691.75	1083.88
692.09	1086.01
692.43	1089.85
692.76	1092.70
693.10	1091.98
693.44	1087.39
693.78	1082.90
694.11	1082.24
694.45	1078.07
694.79	1076.20
695.13	1078.66
695.46	1079.46
695.80	1073.65
696.14	1078.82
696.48	1081.89
696.81	1080.77
697.15	1083.57
697.49	1086.31
697.82	1080.86
698.16	1079.48
698.50	1078.64
698.83	1076.81
699.17	1077.14
699.51	1078.45
699.84	1078.50
700.18	1079.24
700.52	1079.55
700.85	1080.04
701.19	1078.66
701.53	1078.00
701.86	1080.72
702.20	1080.88
702.54	1078.10
702.87	1079.48
703.21	1078.19
703.55	1075.08
703.88	1075.01
704.22	1077.56
704.55	1079.13
704.89	1081.05
705.23	1078.17
705.56	1079.38
705.90	1080.72
706.23	1078.17
706.57	1076.01
706.91	1082.01
707.24	1082.61
707.58	1080.13
707.91	1081.35
708.25	1082.19
708.58	1080.72
708.92	1076.58
709.26	1077.65
709.59	1081.28
709.93	1084.86
710.26	1086.57
710.60	1090.69
710.93	1090.22
711.27	1089.00
711.60	1085.94
711.94	1083.29
712.27	1077.65
712.61	1082.66
712.94	1078.73
713.28	1079.22
713.61	1080.04
713.95	1081.42
714.28	1074.28
714.62	1076.81
714.95	1078.12
715.29	1078.00
715.62	1080.16
715.96	1083.22
716.29	1079.76
716.63	1078.14
716.96	1077.07
717.29	1076.01
717.63	1073.91
717.96	1078.24
718.30	1078.82
718.63	1081.09
718.97	1080.74
719.30	1082.78
719.63	1081.09
719.97	1082.29
720.30	1083.46
720.64	1081.54
720.97	1084.02
721.30	1082.87
721.64	1082.47
721.97	1082.22
722.31	1085.10
722.64	1082.83
722.97	1083.41
723.31	1082.38
723.64	1080.34
723.97	1077.49
724.31	1075.71
724.64	1078.57
724.98	1077.54
725.31	1076.04
725.64	1078.17
725.98	1079.29
726.31	1078.33
726.64	1079.53
726.97	1081.23
727.31	1082.40
727.64	1084.09
727.97	1081.73
728.31	1079.67
728.64	1079.74
728.97	1080.27
729.31	1079.64
729.64	1080.63
729.97	1082.59
730.30	1081.51
730.64	1080.63
730.97	1079.53
731.30	1077.91
731.63	1077.61
731.97	1076.67
732.30	1077.65
732.63	1075.01
732.96	1077.96
733.30	1076.48
733.63	1077.86
733.96	1076.48
734.29	1077.28
734.63	1077.98
734.96	1080.84
735.29	1076.72
735.62	1077.09
735.95	1078.05
736.29	1074.66
736.62	1072.39
736.95	1075.55
737.28	1074.19
737.61	1077.09
737.94	1076.46
738.28	1076.41
738.61	1077.89
738.94	1080.16
739.27	1080.53
739.60	1082.01
739.93	1081.37
740.27	1078.33
740.60	1078.12
740.93	1075.24
741.26	1075.36
741.59	1078.17
741.92	1081.84
742.25	1082.22
742.58	1085.26
742.91	1086.80
743.25	1083.01
743.58	1078.59
743.91	1075.94
744.24	1073.65
744.57	1074.40
744.90	1076.48
745.23	1076.76
745.56	1075.66
745.89	1077.75
746.22	1076.32
746.55	1075.97
746.88	1076.41
747.21	1081.37
747.54	1080.02
747.87	1081.16
748.20	1079.83
748.53	1080.23
748.87	1077.84
749.20	1078.21
749.53	1078.40
749.86	1080.13
750.19	1082.90
750.52	1081.77
750.85	1078.38
751.18	1079.57
751.51	1079.01
751.84	1079.17
752.16	1081.61
752.49	1082.92
752.82	1079.17
753.15	1083.11
753.48	1082.73
753.81	1082.71
754.14	1083.53
754.47	1084.56
754.80	1082.78
755.13	1082.05
755.46	1080.86
755.79	1080.25
756.12	1080.67
756.45	1079.99
756.78	1081.47
757.11	1080.65
757.43	1080.72
757.76	1082.19
758.09	1082.43
758.42	1079.31
758.75	1079.31
759.08	1081.33
759.41	1079.74
759.74	1080.32
760.07	1084.23
760.39	1084.25
760.72	1082.10
761.05	1082.90
761.38	1079.88
761.71	1077.65
762.04	1077.93
762.36	1076.83
762.69	1076.13
763.02	1077.61
763.35	1075.73
763.68	1078.82
764.01	1083.22
