SpectraSuite Data File
++++++++++++++++++++++++++++++++++++
Date: Mon Aug 26 10:22:06 PDT 2019
User: corrico
Dark Spectrum Present: No
Reference Spectrum Present: No
Number of Sampled Component Spectra: 1
Spectrometers: USB2+H06089
Integration Time (usec): 2000 (USB2+H06089)
Spectra Averaged: 20 (USB2+H06089)
Boxcar Smoothing: 2 (USB2+H06089)
Correct for Electrical Dark: No (USB2+H06089)
Strobe/Lamp Enabled: No (USB2+H06089)
Correct for Detector Non-linearity: No (USB2+H06089)
Correct for Stray Light: No (USB2+H06089)
Number of Pixels in Processed Spectrum: 2048
>>>>>Begin Processed Spectral Data<<<<<
339.70	1027.50
340.07	1027.50
340.45	990.44
340.82	969.10
341.19	946.58
341.57	921.84
341.94	914.35
342.31	904.34
342.69	899.21
343.06	896.26
343.43	893.85
343.81	894.06
344.18	900.26
344.55	905.79
344.93	909.77
345.30	916.93
345.67	926.90
346.04	932.54
346.42	938.55
346.79	948.36
347.16	956.25
347.54	961.35
347.91	972.98
348.28	985.95
348.65	995.15
349.03	1005.66
349.40	1015.23
349.77	1021.81
350.14	1029.06
350.52	1036.58
350.89	1042.99
351.26	1051.13
351.63	1058.76
352.01	1058.79
352.38	1061.60
352.75	1066.61
353.12	1069.93
353.50	1073.39
353.87	1081.96
354.24	1084.14
354.61	1085.49
354.98	1084.51
355.36	1084.91
355.73	1083.08
356.10	1082.36
356.47	1083.71
356.84	1085.52
357.22	1082.12
357.59	1082.47
357.96	1083.04
358.33	1081.47
358.70	1081.61
359.08	1085.28
359.45	1085.52
359.82	1088.00
360.19	1088.07
360.56	1087.16
360.94	1087.06
361.31	1082.90
361.68	1081.42
362.05	1080.63
362.42	1078.85
362.79	1077.61
363.16	1078.73
363.54	1079.99
363.91	1079.22
364.28	1080.25
364.65	1079.78
365.02	1078.45
365.39	1076.65
365.76	1076.44
366.14	1076.67
366.51	1076.74
366.88	1076.48
367.25	1072.39
367.62	1071.61
367.99	1071.38
368.36	1068.88
368.73	1071.36
369.10	1075.24
369.48	1074.73
369.85	1073.35
370.22	1072.71
370.59	1071.85
370.96	1072.04
371.33	1070.33
371.70	1067.54
372.07	1069.60
372.44	1069.93
372.81	1070.80
373.18	1076.04
373.55	1079.15
373.93	1078.66
374.30	1078.92
374.67	1076.83
375.04	1077.33
375.41	1076.62
375.78	1075.99
376.15	1076.39
376.52	1077.86
376.89	1074.82
377.26	1078.80
377.63	1081.44
378.00	1085.61
378.37	1085.84
378.74	1088.14
379.11	1086.15
379.48	1085.56
379.85	1081.02
380.22	1079.81
380.59	1080.04
380.96	1082.54
381.33	1083.74
381.70	1084.63
382.07	1088.00
382.44	1088.12
382.81	1088.91
383.18	1087.23
383.55	1087.30
383.92	1083.11
384.29	1082.71
384.66	1081.09
385.03	1080.51
385.40	1078.85
385.77	1078.19
386.14	1075.45
386.51	1076.23
386.88	1079.27
387.25	1081.35
387.62	1081.89
387.99	1084.77
388.36	1081.96
388.73	1081.66
389.10	1080.67
389.46	1082.36
389.83	1083.34
390.20	1086.87
390.57	1086.20
390.94	1087.37
391.31	1086.99
391.68	1087.13
392.05	1086.71
392.42	1086.01
392.79	1089.40
393.16	1091.13
393.53	1091.98
393.89	1091.49
394.26	1090.64
394.63	1088.96
395.00	1090.74
395.37	1090.41
395.74	1087.72
396.11	1091.02
396.48	1088.23
396.84	1085.84
397.21	1086.69
397.58	1090.81
397.95	1089.29
398.32	1090.69
398.69	1092.56
399.06	1091.11
399.42	1087.23
399.79	1086.80
400.16	1088.16
400.53	1088.56
400.90	1089.89
401.27	1094.65
401.64	1094.76
402.00	1093.78
402.37	1088.14
402.74	1088.26
403.11	1085.05
403.48	1086.36
403.84	1086.73
404.21	1094.48
404.58	1096.26
404.95	1097.62
405.32	1097.52
405.68	1093.78
406.05	1091.46
406.42	1087.76
406.79	1089.61
407.16	1088.16
407.52	1094.57
407.89	1093.40
408.26	1095.67
408.63	1095.65
408.99	1097.43
409.36	1096.96
409.73	1096.07
410.10	1095.09
410.47	1094.34
410.83	1093.62
411.20	1089.38
411.57	1092.80
411.94	1094.08
412.30	1096.42
412.67	1098.02
413.04	1101.90
413.40	1100.22
413.77	1102.04
414.14	1100.80
414.51	1097.69
414.87	1095.84
415.24	1095.98
415.61	1094.95
415.97	1097.15
416.34	1103.49
416.71	1108.31
417.08	1110.79
417.44	1112.34
417.81	1112.99
418.18	1112.92
418.54	1112.71
418.91	1113.16
419.28	1112.83
419.64	1113.42
420.01	1114.42
420.38	1116.48
420.74	1119.17
421.11	1120.37
421.48	1125.73
421.84	1129.17
422.21	1130.43
422.58	1135.07
422.94	1142.39
423.31	1141.48
423.68	1145.01
424.04	1148.88
424.41	1148.59
424.77	1151.40
425.14	1154.47
425.51	1156.93
425.87	1160.06
426.24	1167.08
426.61	1170.46
426.97	1180.31
427.34	1189.69
427.70	1199.81
428.07	1209.43
428.44	1220.29
428.80	1227.99
429.17	1237.72
429.53	1246.48
429.90	1258.55
430.27	1271.38
430.63	1282.92
431.00	1292.40
431.36	1307.07
431.73	1324.35
432.09	1335.98
432.46	1350.28
432.83	1371.02
433.19	1393.11
433.56	1412.63
433.92	1442.57
434.29	1477.56
434.65	1507.30
435.02	1535.58
435.38	1567.69
435.75	1597.49
436.11	1630.39
436.48	1672.73
436.84	1716.15
437.21	1761.46
437.57	1814.13
437.94	1862.67
438.30	1911.14
438.67	1973.33
439.03	2035.31
439.40	2101.92
439.76	2170.54
440.13	2251.34
440.49	2331.48
440.86	2413.96
441.22	2498.26
441.59	2595.35
441.95	2694.87
442.32	2795.09
442.68	2911.44
443.05	3030.01
443.41	3151.65
443.78	3276.63
444.14	3415.38
444.51	3551.44
444.87	3729.67
445.24	3896.13
445.60	4082.32
445.96	4270.05
446.33	4483.67
446.69	4673.35
447.06	4902.21
447.42	5125.66
447.79	5361.98
448.15	5631.12
448.51	5911.44
448.88	6224.63
449.24	6533.25
449.61	6893.35
449.97	7248.71
450.33	7641.43
450.70	8009.85
451.06	8450.34
451.43	8858.20
451.79	9328.53
452.15	9808.27
452.52	10354.53
452.88	10900.20
453.24	11529.60
453.61	12219.91
453.97	12928.23
454.34	13616.16
454.70	14433.08
455.06	15241.17
455.43	16019.07
455.79	16716.34
456.15	17537.07
456.52	18298.05
456.88	19222.12
457.24	20112.32
457.61	21237.67
457.97	22305.77
458.33	23396.95
458.70	24425.57
459.06	25431.63
459.42	26447.73
459.79	27367.44
460.15	28427.40
460.51	29442.63
460.88	30548.65
461.24	31535.16
461.60	32698.31
461.96	33758.51
462.33	34809.03
462.69	35878.61
463.05	37030.32
463.42	38080.42
463.78	39024.95
464.14	39762.00
464.50	40473.85
464.87	40981.38
465.23	41266.94
465.59	41649.62
465.95	41992.91
466.32	42254.67
466.68	42528.24
467.04	42750.66
467.40	42784.74
467.77	42905.32
468.13	42790.07
468.49	42605.64
468.85	42467.01
469.22	42352.49
469.58	42094.39
469.94	41967.19
470.30	41765.85
470.66	41415.01
471.03	40894.45
471.39	40507.35
471.75	39773.05
472.11	39042.50
472.47	38535.02
472.84	38000.82
473.20	37304.91
473.56	36922.14
473.92	36355.80
474.28	35733.50
474.65	35083.88
475.01	34378.09
475.37	33549.57
475.73	32862.03
476.09	32157.56
476.45	31534.44
476.81	31003.65
477.18	30436.68
477.54	29955.49
477.90	29498.40
478.26	28892.23
478.62	28366.29
478.98	27963.90
479.34	27543.85
479.71	26975.56
480.07	26559.16
480.43	26118.46
480.79	25628.07
481.15	25143.56
481.51	24749.27
481.87	24416.56
482.23	24068.48
482.59	23744.08
482.96	23425.25
483.32	23140.31
483.68	22762.27
484.04	22386.19
484.40	21954.30
484.76	21517.48
485.12	21060.56
485.48	20619.44
485.84	20116.55
486.20	19694.09
486.56	19250.44
486.92	18840.12
487.28	18435.77
487.64	18054.87
488.00	17661.38
488.37	17267.30
488.73	16824.73
489.09	16346.16
489.45	15896.45
489.81	15434.36
490.17	14993.28
490.53	14596.19
490.89	14188.58
491.25	13768.37
491.61	13370.43
491.97	12964.70
492.33	12561.75
492.69	12213.71
493.05	11897.36
493.41	11580.01
493.77	11256.20
494.13	10951.98
494.49	10651.66
494.85	10351.39
495.21	10057.70
495.57	9789.74
495.93	9509.88
496.29	9245.00
496.64	9020.33
497.00	8777.64
497.36	8529.17
497.72	8288.26
498.08	8070.07
498.44	7826.59
498.80	7612.33
499.16	7413.90
499.52	7222.73
499.88	7027.88
500.24	6860.70
500.60	6697.07
500.96	6538.12
501.32	6385.85
501.68	6227.56
502.03	6051.20
502.39	5883.05
502.75	5712.71
503.11	5549.97
503.47	5397.86
503.83	5271.47
504.19	5146.39
504.55	5034.21
504.91	4926.64
505.26	4819.26
505.62	4689.90
505.98	4575.63
506.34	4454.69
506.70	4333.43
507.06	4222.68
507.42	4127.00
507.78	4026.28
508.13	3938.23
508.49	3857.34
508.85	3780.92
509.21	3695.03
509.57	3613.65
509.93	3520.26
510.28	3432.58
510.64	3340.32
511.00	3258.73
511.36	3179.90
511.72	3114.83
512.07	3054.63
512.43	2994.29
512.79	2938.05
513.15	2875.25
513.51	2815.01
513.86	2756.31
514.22	2702.87
514.58	2651.34
514.94	2603.78
515.30	2561.41
515.65	2513.59
516.01	2472.75
516.37	2429.22
516.73	2395.09
517.08	2354.04
517.44	2313.99
517.80	2277.25
518.16	2240.69
518.51	2206.07
518.87	2175.79
519.23	2145.05
519.59	2110.81
519.94	2079.47
520.30	2045.32
520.66	2014.48
521.01	1983.28
521.37	1959.26
521.73	1932.93
522.09	1904.99
522.44	1877.37
522.80	1855.53
523.16	1829.60
523.51	1804.23
523.87	1783.49
524.23	1765.07
524.58	1743.11
524.94	1723.36
525.30	1702.60
525.65	1682.31
526.01	1664.05
526.37	1647.29
526.72	1631.03
527.08	1617.59
527.44	1606.24
527.79	1588.15
528.15	1571.60
528.51	1555.08
528.86	1538.48
529.22	1519.92
529.58	1506.65
529.93	1495.18
530.29	1481.09
530.65	1469.53
531.00	1459.37
531.36	1447.15
531.71	1435.19
532.07	1426.65
532.43	1413.22
532.78	1401.65
533.14	1394.09
533.49	1381.71
533.85	1369.66
534.21	1367.62
534.56	1361.16
534.92	1351.05
535.27	1343.87
535.63	1338.46
535.98	1328.11
536.34	1320.02
536.69	1313.23
537.05	1306.91
537.41	1296.94
537.76	1293.03
538.12	1284.49
538.47	1276.39
538.83	1269.44
539.18	1267.59
539.54	1259.89
539.89	1257.78
540.25	1255.18
540.60	1254.01
540.96	1250.24
541.31	1246.29
541.67	1241.16
542.02	1239.06
542.38	1233.18
542.73	1229.95
543.09	1225.81
543.44	1220.29
543.80	1216.68
544.15	1214.01
544.51	1208.65
544.86	1208.54
545.22	1206.94
545.57	1202.33
545.93	1199.27
546.28	1195.62
546.64	1189.44
546.99	1188.62
547.35	1185.62
547.70	1183.30
548.05	1178.95
548.41	1174.90
548.76	1168.65
549.12	1168.18
549.47	1165.70
549.83	1165.63
550.18	1169.96
550.53	1169.64
550.89	1165.77
551.24	1161.80
551.60	1160.91
551.95	1159.06
552.30	1158.33
552.66	1154.82
553.01	1152.78
553.37	1151.80
553.72	1145.81
554.07	1141.32
554.43	1142.67
554.78	1143.77
555.13	1140.94
555.49	1140.66
555.84	1142.81
556.19	1142.11
556.55	1141.62
556.90	1141.03
557.26	1140.66
557.61	1136.89
557.96	1132.80
558.32	1128.93
558.67	1128.51
559.02	1126.36
559.37	1129.29
559.73	1127.20
560.08	1128.72
560.43	1128.14
560.79	1129.12
561.14	1126.48
561.49	1125.07
561.85	1121.56
562.20	1118.38
562.55	1114.68
562.90	1113.53
563.26	1113.14
563.61	1113.46
563.96	1113.86
564.32	1114.17
564.67	1113.02
565.02	1114.89
565.37	1110.91
565.73	1109.39
566.08	1108.15
566.43	1108.48
566.78	1109.93
567.14	1113.07
567.49	1113.02
567.84	1114.73
568.19	1112.95
568.54	1110.30
568.90	1108.20
569.25	1108.97
569.60	1106.09
569.95	1105.95
570.31	1107.40
570.66	1106.89
571.01	1103.33
571.36	1102.81
571.71	1099.44
572.06	1095.63
572.42	1097.50
572.77	1097.50
573.12	1096.96
573.47	1098.06
573.82	1095.28
574.18	1094.57
574.53	1098.41
574.88	1098.37
575.23	1099.02
575.58	1103.21
575.93	1102.13
576.28	1099.44
576.64	1099.86
576.99	1101.36
577.34	1100.99
577.69	1100.26
578.04	1099.33
578.39	1097.06
578.74	1096.59
579.09	1094.76
579.44	1095.77
579.80	1093.52
580.15	1095.42
580.50	1093.22
580.85	1091.53
581.20	1091.81
581.55	1092.33
581.90	1091.23
582.25	1088.98
582.60	1089.99
582.95	1088.23
583.30	1090.92
583.65	1093.40
584.00	1096.80
584.35	1097.27
584.71	1096.66
585.06	1094.83
585.41	1091.18
585.76	1089.40
586.11	1089.71
586.46	1090.27
586.81	1086.69
587.16	1085.80
587.51	1083.15
587.86	1080.48
588.21	1083.95
588.56	1088.49
588.91	1089.87
589.26	1092.84
589.61	1093.57
589.96	1088.21
590.31	1086.13
590.66	1085.21
591.01	1088.26
591.36	1088.30
591.71	1085.05
592.06	1085.19
592.41	1085.07
592.76	1083.41
593.10	1086.08
593.45	1091.32
593.80	1089.24
594.15	1086.90
594.50	1086.06
594.85	1086.41
595.20	1086.06
595.55	1088.30
595.90	1090.92
596.25	1090.67
596.60	1089.33
596.95	1087.90
597.30	1087.79
597.64	1099.61
597.99	1099.37
598.34	1098.76
598.69	1096.40
599.04	1094.04
599.39	1082.92
599.74	1085.49
600.09	1086.78
600.44	1091.13
600.78	1093.55
601.13	1090.71
601.48	1086.34
601.83	1084.86
602.18	1084.35
602.53	1083.64
602.88	1085.45
603.22	1085.14
603.57	1084.81
603.92	1085.10
604.27	1083.93
604.62	1083.50
604.97	1082.94
605.31	1085.68
605.66	1083.71
606.01	1084.67
606.36	1086.31
606.71	1088.35
607.05	1083.83
607.40	1081.70
607.75	1081.33
608.10	1079.71
608.44	1079.03
608.79	1080.37
609.14	1083.27
609.49	1085.05
609.84	1084.09
610.18	1084.86
610.53	1084.00
610.88	1081.09
611.23	1083.08
611.57	1082.26
611.92	1081.21
612.27	1082.73
612.62	1087.65
612.96	1083.67
613.31	1083.43
613.66	1082.05
614.00	1081.09
614.35	1076.95
614.70	1078.40
615.05	1078.47
615.39	1079.17
615.74	1079.31
616.09	1081.82
616.43	1081.68
616.78	1081.87
617.13	1082.99
617.47	1082.31
617.82	1083.04
618.17	1084.28
618.51	1087.51
618.86	1085.14
619.21	1086.76
619.55	1086.52
619.90	1083.62
620.25	1082.64
620.59	1084.58
620.94	1083.36
621.29	1084.21
621.63	1085.59
621.98	1084.63
622.32	1084.98
622.67	1086.38
623.02	1082.12
623.36	1084.39
623.71	1084.21
624.05	1084.49
624.40	1084.28
624.75	1085.54
625.09	1082.54
625.44	1082.29
625.78	1081.19
626.13	1079.03
626.48	1076.60
626.82	1079.97
627.17	1081.00
627.51	1080.46
627.86	1078.10
628.20	1084.35
628.55	1080.13
628.89	1078.26
629.24	1079.34
629.58	1080.56
629.93	1075.87
630.28	1075.76
630.62	1074.80
630.97	1074.26
631.31	1074.40
631.66	1073.56
632.00	1073.93
632.35	1073.91
632.69	1074.82
633.04	1075.80
633.38	1077.93
633.73	1076.06
634.07	1080.11
634.42	1078.33
634.76	1082.01
635.11	1080.67
635.45	1083.29
635.79	1080.63
636.14	1080.95
636.48	1075.31
636.83	1078.75
637.17	1077.93
637.52	1079.01
637.86	1079.29
638.21	1082.40
638.55	1082.12
638.89	1081.35
639.24	1082.15
639.58	1080.51
639.93	1083.06
640.27	1081.21
640.61	1086.01
640.96	1084.21
641.30	1087.27
641.65	1087.62
641.99	1088.93
642.33	1085.35
642.68	1084.51
643.02	1080.44
643.37	1077.91
643.71	1077.11
644.05	1075.15
644.40	1078.03
644.74	1081.02
645.08	1081.26
645.43	1078.73
645.77	1083.36
646.11	1083.67
646.46	1082.59
646.80	1081.14
647.14	1084.63
647.49	1082.61
647.83	1081.63
648.17	1079.99
648.52	1081.30
648.86	1080.34
649.20	1081.63
649.55	1081.47
649.89	1086.76
650.23	1084.65
650.57	1082.47
650.92	1079.27
651.26	1078.28
651.60	1076.04
651.95	1076.13
652.29	1078.99
652.63	1081.33
652.97	1080.25
653.32	1078.71
653.66	1080.88
654.00	1080.77
654.34	1079.36
654.69	1081.21
655.03	1081.80
655.37	1080.34
655.71	1079.90
656.05	1081.84
656.40	1080.58
656.74	1080.06
657.08	1080.63
657.42	1081.05
657.76	1078.96
658.11	1079.57
658.45	1080.30
658.79	1078.78
659.13	1082.15
659.47	1084.96
659.82	1086.45
660.16	1090.10
660.50	1092.54
660.84	1090.99
661.18	1089.40
661.52	1085.84
661.87	1083.55
662.21	1080.44
662.55	1078.26
662.89	1075.52
663.23	1077.79
663.57	1073.21
663.91	1074.54
664.25	1072.43
664.60	1074.47
664.94	1073.07
665.28	1072.67
665.62	1075.31
665.96	1078.96
666.30	1080.30
666.64	1081.94
666.98	1083.64
667.32	1082.50
667.66	1077.33
668.01	1075.38
668.35	1075.50
668.69	1075.71
669.03	1072.71
669.37	1073.30
669.71	1074.73
670.05	1073.25
670.39	1074.10
670.73	1076.41
671.07	1076.95
671.41	1076.41
671.75	1074.68
672.09	1076.67
672.43	1079.60
672.77	1078.73
673.11	1079.67
673.45	1081.77
673.79	1078.10
674.13	1074.31
674.47	1075.15
674.81	1069.70
675.15	1069.91
675.49	1072.11
675.83	1072.55
676.17	1076.88
676.51	1080.77
676.85	1082.40
677.19	1082.29
677.53	1082.54
677.87	1079.41
678.21	1081.14
678.55	1079.85
678.89	1083.01
679.23	1083.81
679.57	1082.71
679.90	1083.43
680.24	1083.29
680.58	1081.37
680.92	1080.81
681.26	1080.67
681.60	1074.54
681.94	1073.11
682.28	1072.32
682.62	1075.52
682.96	1076.37
683.29	1081.19
683.63	1078.85
683.97	1078.17
684.31	1075.24
684.65	1077.33
684.99	1076.69
685.33	1079.62
685.67	1082.47
686.00	1081.84
686.34	1080.81
686.68	1080.48
687.02	1081.75
687.36	1080.04
687.70	1080.70
688.03	1078.87
688.37	1078.71
688.71	1077.93
689.05	1077.28
689.39	1080.53
689.72	1081.89
690.06	1083.62
690.40	1083.81
690.74	1080.74
691.08	1077.72
691.41	1075.64
691.75	1073.51
692.09	1073.88
692.43	1077.98
692.76	1078.66
693.10	1082.29
693.44	1082.33
693.78	1081.00
694.11	1082.03
694.45	1081.05
694.79	1078.05
695.13	1076.51
695.46	1078.66
695.80	1076.81
696.14	1076.86
696.48	1076.11
696.81	1079.90
697.15	1079.90
697.49	1081.37
697.82	1080.56
698.16	1083.32
698.50	1083.74
698.83	1086.34
699.17	1089.45
699.51	1088.75
699.84	1087.60
700.18	1085.47
700.52	1085.99
700.85	1079.92
701.19	1083.71
701.53	1082.92
701.86	1082.22
702.20	1079.55
702.54	1081.56
702.87	1080.67
703.21	1083.64
703.55	1082.87
703.88	1078.47
704.22	1078.03
704.55	1077.79
704.89	1075.87
705.23	1077.35
705.56	1078.43
705.90	1076.60
706.23	1074.59
706.57	1074.59
706.91	1075.20
707.24	1076.95
707.58	1079.57
707.91	1077.47
708.25	1076.60
708.58	1077.98
708.92	1078.92
709.26	1079.81
709.59	1081.21
709.93	1084.28
710.26	1083.53
710.60	1081.94
710.93	1082.50
711.27	1081.21
711.60	1079.22
711.94	1078.03
712.27	1080.09
712.61	1080.58
712.94	1082.64
713.28	1084.04
713.61	1082.19
713.95	1082.54
714.28	1079.43
714.62	1080.16
714.95	1081.14
715.29	1084.46
715.62	1083.76
715.96	1082.83
716.29	1082.29
716.63	1079.78
716.96	1079.67
717.29	1080.20
717.63	1080.91
717.96	1080.16
718.30	1082.31
718.63	1081.16
718.97	1080.91
719.30	1081.73
719.63	1086.59
719.97	1083.88
720.30	1085.31
720.64	1085.07
720.97	1087.09
721.30	1083.32
721.64	1085.05
721.97	1083.69
722.31	1084.89
722.64	1081.12
722.97	1081.91
723.31	1080.67
723.64	1083.15
723.97	1080.79
724.31	1083.15
724.64	1082.57
724.98	1082.54
725.31	1080.18
725.64	1081.98
725.98	1079.62
726.31	1078.57
726.64	1078.75
726.97	1077.14
727.31	1078.80
727.64	1082.69
727.97	1081.89
728.31	1081.51
728.64	1082.24
728.97	1079.76
729.31	1078.12
729.64	1081.33
729.97	1084.23
730.30	1085.35
730.64	1084.18
730.97	1086.27
731.30	1086.27
731.63	1080.77
731.97	1081.40
732.30	1081.23
732.63	1077.72
732.96	1078.24
733.30	1082.90
733.63	1082.64
733.96	1084.51
734.29	1085.28
734.63	1082.78
734.96	1079.64
735.29	1074.98
735.62	1074.24
735.95	1074.52
736.29	1074.33
736.62	1079.24
736.95	1081.33
737.28	1078.21
737.61	1079.90
737.94	1078.10
738.28	1076.58
738.61	1077.84
738.94	1080.74
739.27	1080.77
739.60	1085.59
739.93	1084.35
740.27	1086.55
740.60	1087.53
740.93	1087.04
741.26	1083.60
741.59	1080.74
741.92	1078.75
742.25	1078.19
742.58	1075.57
742.91	1075.50
743.25	1077.79
743.58	1076.90
743.91	1074.14
744.24	1075.43
744.57	1078.99
744.90	1079.88
745.23	1078.12
745.56	1081.37
745.89	1083.18
746.22	1080.13
746.55	1080.88
746.88	1085.91
747.21	1084.46
747.54	1082.03
747.87	1084.79
748.20	1082.59
748.53	1079.64
748.87	1079.62
749.20	1079.99
749.53	1078.52
749.86	1078.50
750.19	1080.39
750.52	1081.87
750.85	1083.97
751.18	1083.39
751.51	1082.57
751.84	1081.80
752.16	1084.46
752.49	1082.83
752.82	1079.62
753.15	1082.17
753.48	1082.47
753.81	1079.57
754.14	1079.78
754.47	1081.54
754.80	1078.80
755.13	1076.67
755.46	1076.34
755.79	1074.31
756.12	1079.29
756.45	1082.03
756.78	1084.63
757.11	1088.04
757.43	1088.56
757.76	1085.26
758.09	1083.90
758.42	1084.25
758.75	1079.67
759.08	1080.88
759.41	1079.95
759.74	1079.20
760.07	1079.62
760.39	1078.96
760.72	1078.64
761.05	1077.14
761.38	1078.68
761.71	1077.25
762.04	1079.67
762.36	1080.06
762.69	1080.91
763.02	1083.04
763.35	1082.99
763.68	1083.57
