SpectraSuite Data File
++++++++++++++++++++++++++++++++++++
Date: Mon Aug 26 10:22:31 PDT 2019
User: corrico
Dark Spectrum Present: No
Reference Spectrum Present: No
Number of Sampled Component Spectra: 1
Spectrometers: USB2+H06089
Integration Time (usec): 2000 (USB2+H06089)
Spectra Averaged: 20 (USB2+H06089)
Boxcar Smoothing: 2 (USB2+H06089)
Correct for Electrical Dark: No (USB2+H06089)
Strobe/Lamp Enabled: No (USB2+H06089)
Correct for Detector Non-linearity: No (USB2+H06089)
Correct for Stray Light: No (USB2+H06089)
Number of Pixels in Processed Spectrum: 2048
>>>>>Begin Processed Spectral Data<<<<<
339.70	1028.08
340.07	1028.08
340.45	998.99
340.82	976.85
341.19	951.69
341.57	928.49
341.94	915.88
342.31	906.42
342.69	902.51
343.06	901.71
343.43	896.57
343.81	898.16
344.18	900.52
344.55	905.25
344.93	907.99
345.30	915.97
345.67	921.21
346.04	927.81
346.42	937.08
346.79	949.79
347.16	957.07
347.54	968.05
347.91	975.98
348.28	980.73
348.65	988.06
349.03	999.71
349.40	1005.82
349.77	1017.20
350.14	1025.90
350.52	1032.15
350.89	1038.87
351.26	1048.23
351.63	1053.83
352.01	1058.83
352.38	1063.07
352.75	1063.98
353.12	1063.73
353.50	1065.15
353.87	1070.28
354.24	1073.39
354.61	1080.04
354.98	1084.91
355.36	1087.37
355.73	1086.62
356.10	1088.54
356.47	1085.33
356.84	1084.91
357.22	1081.21
357.59	1080.56
357.96	1079.95
358.33	1081.23
358.70	1079.99
359.08	1083.50
359.45	1084.74
359.82	1083.86
360.19	1082.15
360.56	1082.03
360.94	1079.62
361.31	1080.67
361.68	1082.03
362.05	1084.09
362.42	1085.26
362.79	1085.91
363.16	1083.83
363.54	1081.73
363.91	1079.78
364.28	1079.74
364.65	1077.89
365.02	1076.06
365.39	1074.00
365.76	1075.10
366.14	1070.87
366.51	1072.18
366.88	1071.40
367.25	1072.48
367.62	1072.13
367.99	1073.32
368.36	1073.00
368.73	1071.50
369.10	1070.54
369.48	1068.85
369.85	1070.63
370.22	1068.64
370.59	1070.12
370.96	1072.76
371.33	1074.91
371.70	1074.91
372.07	1074.87
372.44	1074.96
372.81	1073.77
373.18	1070.26
373.55	1067.94
373.93	1072.55
374.30	1075.03
374.67	1076.41
375.04	1078.82
375.41	1080.53
375.78	1078.10
376.15	1077.14
376.52	1078.12
376.89	1080.46
377.26	1082.22
377.63	1079.90
378.00	1081.91
378.37	1080.41
378.74	1077.40
379.11	1073.98
379.48	1077.77
379.85	1076.18
380.22	1076.20
380.59	1079.29
380.96	1083.15
381.33	1081.47
381.70	1081.84
382.07	1085.14
382.44	1083.34
382.81	1081.89
383.18	1082.73
383.55	1081.44
383.92	1079.10
384.29	1078.85
384.66	1077.35
385.03	1075.76
385.40	1077.75
385.77	1075.57
386.14	1075.43
386.51	1078.10
386.88	1079.01
387.25	1080.81
387.62	1082.73
387.99	1083.25
388.36	1082.80
388.73	1085.38
389.10	1083.20
389.46	1083.39
389.83	1084.60
390.20	1084.42
390.57	1083.50
390.94	1083.04
391.31	1083.69
391.68	1084.18
392.05	1085.26
392.42	1087.65
392.79	1089.71
393.16	1088.37
393.53	1088.26
393.89	1086.50
394.26	1084.96
394.63	1085.84
395.00	1087.72
395.37	1086.36
395.74	1088.61
396.11	1086.66
396.48	1085.68
396.84	1086.76
397.21	1090.41
397.58	1089.38
397.95	1088.89
398.32	1088.28
398.69	1087.79
399.06	1085.54
399.42	1088.07
399.79	1091.49
400.16	1092.09
400.53	1088.63
400.90	1087.23
401.27	1084.56
401.64	1084.00
402.00	1084.91
402.37	1088.49
402.74	1092.33
403.11	1092.68
403.48	1092.40
403.84	1095.09
404.21	1092.21
404.58	1089.26
404.95	1090.71
405.32	1091.44
405.68	1089.59
406.05	1090.60
406.42	1094.46
406.79	1095.56
407.16	1096.05
407.52	1096.89
407.89	1099.98
408.26	1098.98
408.63	1099.77
408.99	1100.36
409.36	1099.05
409.73	1098.81
410.10	1094.04
410.47	1094.32
410.83	1094.62
411.20	1098.62
411.57	1099.12
411.94	1100.38
412.30	1099.72
412.67	1098.34
413.04	1094.41
413.40	1093.59
413.77	1097.20
414.14	1098.53
414.51	1100.33
414.87	1100.96
415.24	1098.98
415.61	1102.60
415.97	1100.89
416.34	1097.38
416.71	1095.63
417.08	1098.53
417.44	1095.30
417.81	1097.45
418.18	1101.03
418.54	1107.78
418.91	1110.07
419.28	1110.16
419.64	1111.89
420.01	1114.14
420.38	1110.82
420.74	1110.51
421.11	1113.58
421.48	1111.85
421.84	1112.97
422.21	1118.66
422.58	1123.62
422.94	1126.78
423.31	1133.52
423.68	1134.53
424.04	1137.15
424.41	1139.00
424.77	1142.58
425.14	1143.09
425.51	1146.30
425.87	1145.46
426.24	1148.92
426.61	1151.47
426.97	1157.51
427.34	1166.24
427.70	1175.14
428.07	1180.43
428.44	1192.34
428.80	1198.71
429.17	1208.32
429.53	1219.37
429.90	1230.84
430.27	1238.26
430.63	1250.34
431.00	1258.93
431.36	1267.54
431.73	1278.47
432.09	1288.70
432.46	1303.07
432.83	1320.48
433.19	1335.49
433.56	1352.60
433.92	1372.82
434.29	1391.26
434.65	1414.85
435.02	1440.25
435.38	1466.35
435.75	1494.97
436.11	1530.64
436.48	1562.10
436.84	1596.50
437.21	1633.06
437.57	1670.67
437.94	1707.16
438.30	1751.56
438.67	1799.22
439.03	1851.50
439.40	1911.09
439.76	1967.43
440.13	2025.01
440.49	2089.12
440.86	2153.83
441.22	2223.98
441.59	2297.28
441.95	2377.45
442.32	2465.78
442.68	2560.24
443.05	2653.86
443.41	2755.07
443.78	2856.58
444.14	2967.10
444.51	3081.13
444.87	3221.00
445.24	3365.67
445.60	3518.22
445.96	3672.77
446.33	3845.92
446.69	4004.09
447.06	4177.08
447.42	4358.43
447.79	4547.64
448.15	4760.32
448.51	4993.02
448.88	5259.51
449.24	5518.19
449.61	5799.57
449.97	6079.80
450.33	6365.09
450.70	6627.41
451.06	6941.51
451.43	7248.45
451.79	7607.26
452.15	8004.80
452.52	8459.61
452.88	8932.40
453.24	9470.28
453.61	10055.04
453.97	10631.16
454.34	11181.91
454.70	11824.53
455.06	12461.92
455.43	13089.14
455.79	13683.92
456.15	14404.62
456.52	15079.77
456.88	15857.55
457.24	16593.60
457.61	17441.67
457.97	18201.39
458.33	18958.78
458.70	19732.75
459.06	20483.92
459.42	21339.74
459.79	22122.35
460.15	23025.46
460.51	23885.33
460.88	24823.58
461.24	25602.49
461.60	26575.33
461.96	27465.60
462.33	28294.43
462.69	29073.60
463.05	29909.80
463.42	30597.94
463.78	31236.63
464.14	31775.44
464.50	32356.76
464.87	32832.43
465.23	33204.76
465.59	33545.24
465.95	33846.70
466.32	34115.34
466.68	34345.93
467.04	34464.39
467.40	34620.67
467.77	34804.84
468.13	34778.42
468.49	34669.61
468.85	34589.91
469.22	34395.79
469.58	34036.94
469.94	33793.17
470.30	33500.49
470.66	33091.80
471.03	32502.46
471.39	32097.15
471.75	31447.55
472.11	30830.31
472.47	30466.17
472.84	30157.80
473.20	29672.40
473.56	29392.35
473.92	28967.71
474.28	28455.81
474.65	27954.96
475.01	27464.92
475.37	26910.12
475.73	26455.05
476.09	25927.45
476.45	25403.99
476.81	24902.86
477.18	24361.30
477.54	23909.13
477.90	23552.74
478.26	23150.59
478.62	22819.80
478.98	22526.70
479.34	22224.04
479.71	21812.41
480.07	21452.60
480.43	21083.62
480.79	20711.45
481.15	20359.92
481.51	20057.92
481.87	19818.74
482.23	19539.42
482.59	19281.73
482.96	18984.79
483.32	18669.35
483.68	18303.29
484.04	17948.05
484.40	17583.95
484.76	17220.70
485.12	16884.04
485.48	16551.68
485.84	16202.01
486.20	15838.24
486.56	15471.34
486.92	15150.97
487.28	14808.08
487.64	14453.37
488.00	14131.24
488.37	13800.85
488.73	13430.04
489.09	13069.79
489.45	12764.09
489.81	12448.96
490.17	12149.93
490.53	11854.30
490.89	11547.27
491.25	11237.52
491.61	10929.83
491.97	10609.20
492.33	10295.03
492.69	9995.49
493.05	9690.73
493.41	9392.71
493.77	9118.59
494.13	8861.69
494.49	8620.08
494.85	8387.24
495.21	8173.74
495.57	7964.80
495.93	7752.58
496.29	7558.48
496.64	7374.07
497.00	7180.18
497.36	6990.15
497.72	6799.30
498.08	6608.46
498.44	6424.40
498.80	6257.16
499.16	6099.18
499.52	5948.87
499.88	5814.99
500.24	5696.28
500.60	5566.22
500.96	5442.73
501.32	5329.07
501.68	5207.43
502.03	5077.02
502.39	4958.54
502.75	4822.16
503.11	4696.99
503.47	4579.47
503.83	4456.82
504.19	4332.82
504.55	4228.13
504.91	4136.99
505.26	4036.04
505.62	3955.15
505.98	3867.27
506.34	3781.60
506.70	3680.40
507.06	3593.68
507.42	3504.48
507.78	3432.96
508.13	3351.83
508.49	3280.68
508.85	3209.11
509.21	3140.79
509.57	3068.70
509.93	3006.93
510.28	2938.31
510.64	2883.47
511.00	2822.24
511.36	2765.90
511.72	2712.91
512.07	2663.69
512.43	2609.51
512.79	2559.94
513.15	2509.94
513.51	2463.48
513.86	2422.83
514.22	2384.07
514.58	2344.49
514.94	2309.85
515.30	2269.10
515.65	2230.65
516.01	2196.73
516.37	2163.15
516.73	2134.03
517.08	2110.04
517.44	2079.31
517.80	2051.18
518.16	2026.62
518.51	1997.44
518.87	1970.43
519.23	1946.53
519.59	1917.67
519.94	1891.04
520.30	1864.56
520.66	1838.72
521.01	1816.96
521.37	1796.92
521.73	1776.12
522.09	1755.19
522.44	1735.58
522.80	1714.14
523.16	1693.82
523.51	1668.94
523.87	1651.04
524.23	1632.52
524.58	1615.39
524.94	1596.20
525.30	1585.13
525.65	1569.70
526.01	1551.68
526.37	1535.70
526.72	1524.88
527.08	1509.53
527.44	1496.40
527.79	1486.61
528.15	1476.83
528.51	1459.98
528.86	1451.79
529.22	1437.39
529.58	1425.13
529.93	1411.55
530.29	1402.36
530.65	1386.32
531.00	1374.60
531.36	1364.53
531.71	1356.06
532.07	1348.03
532.43	1345.46
532.78	1343.61
533.14	1337.83
533.49	1333.05
533.85	1331.84
534.21	1323.78
534.56	1317.65
534.92	1313.20
535.27	1304.33
535.63	1294.78
535.98	1286.08
536.34	1278.99
536.69	1268.64
537.05	1262.88
537.41	1256.82
537.76	1253.17
538.12	1247.76
538.47	1244.63
538.83	1243.25
539.18	1239.45
539.54	1232.46
539.89	1229.30
540.25	1225.74
540.60	1222.86
540.96	1217.78
541.31	1215.63
541.67	1214.62
542.02	1210.17
542.38	1203.83
542.73	1201.47
543.09	1200.93
543.44	1192.41
543.80	1189.39
544.15	1189.02
544.51	1185.93
544.86	1182.06
545.22	1181.60
545.57	1179.79
545.93	1175.74
546.28	1175.93
546.64	1176.31
546.99	1176.00
547.35	1176.59
547.70	1175.51
548.05	1173.15
548.41	1167.23
548.76	1163.06
549.12	1157.42
549.47	1156.88
549.83	1154.91
550.18	1155.08
550.53	1154.26
550.89	1153.51
551.24	1146.79
551.60	1142.74
551.95	1142.46
552.30	1139.56
552.66	1137.99
553.01	1140.94
553.37	1139.30
553.72	1137.36
554.07	1136.63
554.43	1136.82
554.78	1135.58
555.13	1133.38
555.49	1129.61
555.84	1130.62
556.19	1128.00
556.55	1122.40
556.90	1120.13
557.26	1120.37
557.61	1117.14
557.96	1116.97
558.32	1118.99
558.67	1118.12
559.02	1116.20
559.37	1116.34
559.73	1114.84
560.08	1113.58
560.43	1115.43
560.79	1114.07
561.14	1111.45
561.49	1110.94
561.85	1109.86
562.20	1107.66
562.55	1107.49
562.90	1107.54
563.26	1107.40
563.61	1106.70
563.96	1108.97
564.32	1110.70
564.67	1110.26
565.02	1110.96
565.37	1111.57
565.73	1108.48
566.08	1105.01
566.43	1103.19
566.78	1101.20
567.14	1101.60
567.49	1104.78
567.84	1104.24
568.19	1107.19
568.54	1107.54
568.90	1106.11
569.25	1103.68
569.60	1100.61
569.95	1097.55
570.31	1094.76
570.66	1093.45
571.01	1094.27
571.36	1099.51
571.71	1100.96
572.06	1106.07
572.42	1104.87
572.77	1101.90
573.12	1100.68
573.47	1100.52
573.82	1097.03
574.18	1099.98
574.53	1103.12
574.88	1103.00
575.23	1103.05
575.58	1100.64
575.93	1099.65
576.28	1096.54
576.64	1093.92
576.99	1091.16
577.34	1093.03
577.69	1089.59
578.04	1090.20
578.39	1090.83
578.74	1091.77
579.09	1088.72
579.44	1088.86
579.80	1089.87
580.15	1091.18
580.50	1091.72
580.85	1093.19
581.20	1095.65
581.55	1091.42
581.90	1091.04
582.25	1088.28
582.60	1088.93
582.95	1091.49
583.30	1095.72
583.65	1095.04
584.00	1093.85
584.35	1094.50
584.71	1089.94
585.06	1087.55
585.41	1088.61
585.76	1091.16
586.11	1090.76
586.46	1090.92
586.81	1090.64
587.16	1089.66
587.51	1087.11
587.86	1086.97
588.21	1088.44
588.56	1089.64
588.91	1090.95
589.26	1091.86
589.61	1093.36
589.96	1091.77
590.31	1092.94
590.66	1092.09
591.01	1092.09
591.36	1089.73
591.71	1091.09
592.06	1089.80
592.41	1087.86
592.76	1089.38
593.10	1090.43
593.45	1088.12
593.80	1088.77
594.15	1092.66
594.50	1091.60
594.85	1090.08
595.20	1092.68
595.55	1088.86
595.90	1085.77
596.25	1084.21
596.60	1083.53
596.95	1081.42
597.30	1081.26
597.64	1089.36
597.99	1091.79
598.34	1093.66
598.69	1091.16
599.04	1096.05
599.39	1088.07
599.74	1084.35
600.09	1079.95
600.44	1084.98
600.78	1083.76
601.13	1081.47
601.48	1084.46
601.83	1086.27
602.18	1083.25
602.53	1081.63
602.88	1084.67
603.22	1085.54
603.57	1088.93
603.92	1089.33
604.27	1090.88
604.62	1088.54
604.97	1086.36
605.31	1082.69
605.66	1081.51
606.01	1077.86
606.36	1078.68
606.71	1080.60
607.05	1081.63
607.40	1081.37
607.75	1084.46
608.10	1085.26
608.44	1085.70
608.79	1087.69
609.14	1087.79
609.49	1085.12
609.84	1086.45
610.18	1084.46
610.53	1085.07
610.88	1088.70
611.23	1091.39
611.57	1087.44
611.92	1087.81
612.27	1085.47
612.62	1084.02
612.96	1084.25
613.31	1086.59
613.66	1085.96
614.00	1086.13
614.35	1086.50
614.70	1085.31
615.05	1085.84
615.39	1085.63
615.74	1085.47
616.09	1083.20
616.43	1083.57
616.78	1083.20
617.13	1088.02
617.47	1089.24
617.82	1091.70
618.17	1093.73
618.51	1093.62
618.86	1089.47
619.21	1087.46
619.55	1086.87
619.90	1083.25
620.25	1080.37
620.59	1080.81
620.94	1080.23
621.29	1080.06
621.63	1081.68
621.98	1084.39
622.32	1084.81
622.67	1086.76
623.02	1084.74
623.36	1085.75
623.71	1082.45
624.05	1082.10
624.40	1077.89
624.75	1079.92
625.09	1076.83
625.44	1080.34
625.78	1082.31
626.13	1085.56
626.48	1082.66
626.82	1084.00
627.17	1082.99
627.51	1083.20
627.86	1081.51
628.20	1084.28
628.55	1085.07
628.89	1084.65
629.24	1084.00
629.58	1086.99
629.93	1087.11
630.28	1087.79
630.62	1088.65
630.97	1088.02
631.31	1087.81
631.66	1088.14
632.00	1087.23
632.35	1087.53
632.69	1085.68
633.04	1086.27
633.38	1083.48
633.73	1082.71
634.07	1081.49
634.42	1080.60
634.76	1081.23
635.11	1084.60
635.45	1082.73
635.79	1083.71
636.14	1085.33
636.48	1082.57
636.83	1079.55
637.17	1080.25
637.52	1083.11
637.86	1083.67
638.21	1084.91
638.55	1085.91
638.89	1088.79
639.24	1084.09
639.58	1084.53
639.93	1084.09
640.27	1085.28
640.61	1081.94
640.96	1084.42
641.30	1084.89
641.65	1083.15
641.99	1082.50
642.33	1085.61
642.68	1083.95
643.02	1081.82
643.37	1084.39
643.71	1086.08
644.05	1086.38
644.40	1088.84
644.74	1089.61
645.08	1089.12
645.43	1085.61
645.77	1086.24
646.11	1085.40
646.46	1086.66
646.80	1085.14
647.14	1088.07
647.49	1083.93
647.83	1081.87
648.17	1080.65
648.52	1084.21
648.86	1079.17
649.20	1078.12
649.55	1078.10
649.89	1079.38
650.23	1072.67
650.57	1077.89
650.92	1079.48
651.26	1079.74
651.60	1077.49
651.95	1082.38
652.29	1079.43
652.63	1078.85
652.97	1080.18
653.32	1081.42
653.66	1079.78
654.00	1082.33
654.34	1083.20
654.69	1082.73
655.03	1083.83
655.37	1082.94
655.71	1078.47
656.05	1076.72
656.40	1075.36
656.74	1074.91
657.08	1076.13
657.42	1080.98
657.76	1083.60
658.11	1085.19
658.45	1083.53
658.79	1083.27
659.13	1079.97
659.47	1079.81
659.82	1083.90
660.16	1084.81
660.50	1086.31
660.84	1087.48
661.18	1088.91
661.52	1086.03
661.87	1086.50
662.21	1087.18
662.55	1087.23
662.89	1088.35
663.23	1086.76
663.57	1086.10
663.91	1084.84
664.25	1085.07
664.60	1082.99
664.94	1082.69
665.28	1080.60
665.62	1080.72
665.96	1080.13
666.30	1080.93
666.64	1082.38
666.98	1083.57
667.32	1086.78
667.66	1088.47
668.01	1087.32
668.35	1088.19
668.69	1088.98
669.03	1085.31
669.37	1083.64
669.71	1085.07
670.05	1081.16
670.39	1079.90
670.73	1077.89
671.07	1080.04
671.41	1077.11
671.75	1080.93
672.09	1083.97
672.43	1087.76
672.77	1085.35
673.11	1086.71
673.45	1085.24
673.79	1084.11
674.13	1082.38
674.47	1084.98
674.81	1084.93
675.15	1083.13
675.49	1083.86
675.83	1082.22
676.17	1083.57
676.51	1085.38
676.85	1088.23
677.19	1086.36
677.53	1086.31
677.87	1085.38
678.21	1082.33
678.55	1080.34
678.89	1079.92
679.23	1084.07
679.57	1082.26
679.90	1084.60
680.24	1086.06
680.58	1085.47
680.92	1084.07
681.26	1083.34
681.60	1082.24
681.94	1078.47
682.28	1081.96
682.62	1080.93
682.96	1081.70
683.29	1080.32
683.63	1081.75
683.97	1079.48
684.31	1080.86
684.65	1077.96
684.99	1080.46
685.33	1082.85
685.67	1082.80
686.00	1083.90
686.34	1089.73
686.68	1089.03
687.02	1086.06
687.36	1085.89
687.70	1083.69
688.03	1077.77
688.37	1077.09
688.71	1082.94
689.05	1083.86
689.39	1083.90
689.72	1084.74
690.06	1084.53
690.40	1081.07
690.74	1078.99
691.08	1079.55
691.41	1081.16
691.75	1079.01
692.09	1075.15
692.43	1076.39
692.76	1073.51
693.10	1072.88
693.44	1073.98
693.78	1076.58
694.11	1075.69
694.45	1077.35
694.79	1077.70
695.13	1080.13
695.46	1082.01
695.80	1083.32
696.14	1085.87
696.48	1085.54
696.81	1082.61
697.15	1079.43
697.49	1077.23
697.82	1073.70
698.16	1075.10
698.50	1079.36
698.83	1083.83
699.17	1086.22
699.51	1085.89
699.84	1085.54
700.18	1082.69
700.52	1079.41
700.85	1076.15
701.19	1076.72
701.53	1072.15
701.86	1073.09
702.20	1073.18
702.54	1076.69
702.87	1076.55
703.21	1080.46
703.55	1082.52
703.88	1084.25
704.22	1084.04
704.55	1087.37
704.89	1086.52
705.23	1084.30
705.56	1079.27
705.90	1076.60
706.23	1076.25
706.57	1076.51
706.91	1076.25
707.24	1075.97
707.58	1077.28
707.91	1074.70
708.25	1075.71
708.58	1072.15
708.92	1075.36
709.26	1074.17
709.59	1074.63
709.93	1074.47
710.26	1076.88
710.60	1076.15
710.93	1077.93
711.27	1075.17
711.60	1075.85
711.94	1075.78
712.27	1075.87
712.61	1075.87
712.94	1076.93
713.28	1075.78
713.61	1074.12
713.95	1074.77
714.28	1074.45
714.62	1076.06
714.95	1077.91
715.29	1081.37
715.62	1082.99
715.96	1083.46
716.29	1082.59
716.63	1080.41
716.96	1083.48
717.29	1080.27
717.63	1080.60
717.96	1081.66
718.30	1082.59
718.63	1077.61
718.97	1082.61
719.30	1081.89
719.63	1079.17
719.97	1077.16
720.30	1077.68
720.64	1075.69
720.97	1074.40
721.30	1076.67
721.64	1078.12
721.97	1080.20
722.31	1077.56
722.64	1080.06
722.97	1079.76
723.31	1080.13
723.64	1081.12
723.97	1084.35
724.31	1081.87
724.64	1082.33
724.98	1083.08
725.31	1080.91
725.64	1078.68
725.98	1079.41
726.31	1079.27
726.64	1079.71
726.97	1081.87
727.31	1084.81
727.64	1084.28
727.97	1085.54
728.31	1084.53
728.64	1084.30
728.97	1081.98
729.31	1084.72
729.64	1081.87
729.97	1082.26
730.30	1082.73
730.64	1083.27
730.97	1081.35
731.30	1082.80
731.63	1082.59
731.97	1079.92
732.30	1078.68
732.63	1079.46
732.96	1079.78
733.30	1083.08
733.63	1081.51
733.96	1080.34
734.29	1079.95
734.63	1080.27
734.96	1075.62
735.29	1075.59
735.62	1075.64
735.95	1074.66
736.29	1074.45
736.62	1075.97
736.95	1078.71
737.28	1083.39
737.61	1086.62
737.94	1085.70
738.28	1083.88
738.61	1081.21
738.94	1080.25
739.27	1079.46
739.60	1083.08
739.93	1083.08
740.27	1084.51
740.60	1084.23
740.93	1083.53
741.26	1079.38
741.59	1082.59
741.92	1084.60
742.25	1083.88
742.58	1083.81
742.91	1090.15
743.25	1088.37
743.58	1086.69
743.91	1087.79
744.24	1089.59
744.57	1085.42
744.90	1084.67
745.23	1082.19
745.56	1080.46
745.89	1076.67
746.22	1075.59
746.55	1074.80
746.88	1077.98
747.21	1077.28
747.54	1075.83
747.87	1076.74
748.20	1079.92
748.53	1082.19
748.87	1082.31
749.20	1086.57
749.53	1085.75
749.86	1083.34
750.19	1080.84
750.52	1080.39
750.85	1079.24
751.18	1079.90
751.51	1079.13
751.84	1079.31
752.16	1082.10
752.49	1083.79
752.82	1085.87
753.15	1087.46
753.48	1084.46
753.81	1085.56
754.14	1082.71
754.47	1081.47
754.80	1081.63
755.13	1083.69
755.46	1081.14
755.79	1080.95
756.12	1079.55
756.45	1078.24
756.78	1079.06
757.11	1077.96
757.43	1075.90
757.76	1076.72
758.09	1077.09
758.42	1075.76
758.75	1076.48
759.08	1081.05
759.41	1079.50
759.74	1078.14
760.07	1077.00
760.39	1077.02
760.72	1077.86
761.05	1078.05
761.38	1078.54
761.71	1079.92
762.04	1081.00
762.36	1080.60
762.69	1082.08
763.02	1084.79
763.35	1087.62
763.68	1085.40
764.01	1085.03
