SpectraSuite Data File
++++++++++++++++++++++++++++++++++++
Date: Mon Aug 26 10:22:30 PDT 2019
User: corrico
Dark Spectrum Present: No
Reference Spectrum Present: No
Number of Sampled Component Spectra: 1
Spectrometers: USB2+H06089
Integration Time (usec): 2000 (USB2+H06089)
Spectra Averaged: 20 (USB2+H06089)
Boxcar Smoothing: 2 (USB2+H06089)
Correct for Electrical Dark: No (USB2+H06089)
Strobe/Lamp Enabled: No (USB2+H06089)
Correct for Detector Non-linearity: No (USB2+H06089)
Correct for Stray Light: No (USB2+H06089)
Number of Pixels in Processed Spectrum: 2048
>>>>>Begin Processed Spectral Data<<<<<
339.70	1029.72
340.07	1029.72
340.45	994.40
340.82	974.79
341.19	949.41
341.57	923.76
341.94	916.34
342.31	906.47
342.69	900.76
343.06	896.61
343.43	896.73
343.81	893.22
344.18	898.30
344.55	899.00
344.93	905.34
345.30	910.33
345.67	920.25
346.04	924.93
346.42	935.82
346.79	944.20
347.16	951.99
347.54	962.62
347.91	974.20
348.28	983.77
348.65	994.45
349.03	1003.04
349.40	1009.71
349.77	1017.38
350.14	1022.46
350.52	1030.68
350.89	1039.20
351.26	1043.62
351.63	1047.13
352.01	1051.98
352.38	1056.78
352.75	1063.49
353.12	1071.40
353.50	1077.44
353.87	1080.34
354.24	1082.08
354.61	1081.40
354.98	1082.83
355.36	1084.16
355.73	1085.07
356.10	1086.66
356.47	1086.66
356.84	1086.13
357.22	1084.98
357.59	1084.14
357.96	1082.31
358.33	1082.71
358.70	1081.54
359.08	1083.22
359.45	1085.14
359.82	1084.11
360.19	1083.60
360.56	1085.80
360.94	1082.50
361.31	1081.96
361.68	1082.10
362.05	1079.78
362.42	1075.90
362.79	1075.59
363.16	1074.10
363.54	1073.32
363.91	1074.56
364.28	1072.60
364.65	1072.11
365.02	1072.92
365.39	1075.41
365.76	1076.76
366.14	1077.68
366.51	1077.21
366.88	1078.40
367.25	1072.04
367.62	1066.09
367.99	1065.41
368.36	1069.93
368.73	1066.84
369.10	1072.20
369.48	1077.04
369.85	1078.00
370.22	1076.01
370.59	1076.32
370.96	1075.22
371.33	1073.77
371.70	1071.24
372.07	1070.30
372.44	1072.15
372.81	1073.98
373.18	1075.99
373.55	1080.70
373.93	1084.25
374.30	1082.33
374.67	1081.02
375.04	1080.23
375.41	1077.79
375.78	1075.41
376.15	1077.21
376.52	1076.65
376.89	1079.57
377.26	1081.21
377.63	1079.46
378.00	1080.70
378.37	1081.30
378.74	1079.43
379.11	1077.47
379.48	1075.48
379.85	1074.56
380.22	1076.90
380.59	1077.65
380.96	1079.34
381.33	1082.05
381.70	1079.13
382.07	1078.75
382.44	1080.88
382.81	1083.62
383.18	1082.69
383.55	1083.43
383.92	1084.16
384.29	1084.00
384.66	1081.56
385.03	1081.00
385.40	1084.84
385.77	1084.21
386.14	1079.20
386.51	1077.61
386.88	1079.76
387.25	1075.69
387.62	1074.56
387.99	1078.19
388.36	1078.54
388.73	1078.82
389.10	1083.08
389.46	1083.95
389.83	1086.01
390.20	1087.48
390.57	1086.06
390.94	1083.88
391.31	1084.09
391.68	1084.04
392.05	1084.00
392.42	1087.32
392.79	1086.15
393.16	1082.90
393.53	1077.61
393.89	1080.25
394.26	1078.24
394.63	1080.58
395.00	1084.46
395.37	1086.80
395.74	1085.68
396.11	1086.06
396.48	1085.00
396.84	1083.22
397.21	1085.96
397.58	1085.73
397.95	1086.22
398.32	1086.71
398.69	1089.94
399.06	1088.65
399.42	1089.45
399.79	1090.92
400.16	1095.23
400.53	1093.38
400.90	1094.27
401.27	1092.26
401.64	1092.21
402.00	1089.07
402.37	1090.81
402.74	1091.30
403.11	1091.88
403.48	1094.74
403.84	1093.55
404.21	1091.11
404.58	1088.54
404.95	1090.67
405.32	1089.59
405.68	1090.64
406.05	1089.45
406.42	1088.37
406.79	1088.51
407.16	1087.27
407.52	1094.13
407.89	1096.82
408.26	1099.14
408.63	1098.32
408.99	1100.10
409.36	1094.48
409.73	1094.53
410.10	1092.80
410.47	1092.89
410.83	1090.97
411.20	1092.28
411.57	1095.18
411.94	1096.99
412.30	1094.81
412.67	1096.12
413.04	1098.18
413.40	1098.44
413.77	1099.09
414.14	1101.01
414.51	1100.82
414.87	1097.10
415.24	1096.05
415.61	1096.14
415.97	1099.75
416.34	1097.15
416.71	1101.85
417.08	1102.06
417.44	1104.57
417.81	1101.32
418.18	1105.65
418.54	1105.15
418.91	1108.38
419.28	1110.05
419.64	1111.22
420.01	1111.87
420.38	1114.73
420.74	1116.15
421.11	1116.48
421.48	1123.11
421.84	1125.98
422.21	1126.45
422.58	1126.01
422.94	1128.49
423.31	1127.46
423.68	1128.49
424.04	1127.69
424.41	1129.57
424.77	1133.62
425.14	1136.33
425.51	1140.12
425.87	1146.53
426.24	1153.77
426.61	1159.06
426.97	1168.04
427.34	1173.52
427.70	1180.61
428.07	1185.86
428.44	1192.92
428.80	1198.24
429.17	1206.41
429.53	1214.69
429.90	1224.24
430.27	1232.36
430.63	1241.33
431.00	1251.27
431.36	1263.19
431.73	1275.01
432.09	1288.89
432.46	1303.28
432.83	1317.07
433.19	1328.39
433.56	1346.16
433.92	1363.48
434.29	1384.50
434.65	1408.32
435.02	1437.98
435.38	1462.44
435.75	1489.56
436.11	1521.04
436.48	1555.33
436.84	1590.44
437.21	1629.27
437.57	1665.95
437.94	1706.93
438.30	1752.17
438.67	1795.61
439.03	1844.72
439.40	1904.21
439.76	1963.38
440.13	2019.58
440.49	2084.67
440.86	2149.97
441.22	2217.45
441.59	2286.63
441.95	2373.70
442.32	2453.61
442.68	2550.18
443.05	2650.33
443.41	2751.25
443.78	2846.07
444.14	2956.45
444.51	3064.04
444.87	3202.06
445.24	3345.12
445.60	3495.73
445.96	3650.37
446.33	3829.09
446.69	3990.33
447.06	4165.01
447.42	4348.39
447.79	4541.58
448.15	4758.82
448.51	4980.99
448.88	5239.59
449.24	5489.96
449.61	5771.83
449.97	6043.15
450.33	6327.90
450.70	6587.32
451.06	6909.40
451.43	7216.97
451.79	7574.35
452.15	7978.56
452.52	8428.76
452.88	8900.10
453.24	9429.97
453.61	10013.79
453.97	10574.94
454.34	11126.84
454.70	11770.25
455.06	12431.45
455.43	13066.63
455.79	13668.14
456.15	14395.11
456.52	15062.10
456.88	15819.56
457.24	16532.21
457.61	17390.70
457.97	18150.22
458.33	18916.65
458.70	19665.79
459.06	20450.66
459.42	21271.96
459.79	22041.36
460.15	22928.05
460.51	23802.62
460.88	24720.01
461.24	25525.77
461.60	26509.89
461.96	27383.54
462.33	28235.31
462.69	29010.33
463.05	29843.23
463.42	30542.66
463.78	31200.32
464.14	31713.53
464.50	32304.75
464.87	32804.55
465.23	33146.53
465.59	33499.95
465.95	33827.41
466.32	34087.61
466.68	34287.82
467.04	34430.31
467.40	34554.85
467.77	34719.41
468.13	34706.59
468.49	34598.52
468.85	34517.35
469.22	34363.68
469.58	34000.52
469.94	33738.12
470.30	33444.01
470.66	33038.16
471.03	32435.40
471.39	32048.09
471.75	31410.04
472.11	30812.71
472.47	30446.93
472.84	30123.79
473.20	29647.19
473.56	29387.42
473.92	28961.72
474.28	28445.56
474.65	27954.47
475.01	27459.82
475.37	26877.40
475.73	26405.03
476.09	25867.34
476.45	25334.68
476.81	24814.45
477.18	24259.25
477.54	23788.36
477.90	23428.18
478.26	23006.48
478.62	22661.09
478.98	22389.24
479.34	22097.82
479.71	21695.03
480.07	21375.55
480.43	21020.91
480.79	20620.63
481.15	20262.44
481.51	19945.58
481.87	19696.05
482.23	19405.64
482.59	19175.70
482.96	18889.20
483.32	18608.12
483.68	18217.98
484.04	17884.13
484.40	17505.92
484.76	17135.37
485.12	16768.04
485.48	16473.72
485.84	16118.29
486.20	15768.77
486.56	15421.81
486.92	15116.00
487.28	14753.80
487.64	14393.78
488.00	14063.65
488.37	13729.33
488.73	13361.67
489.09	13007.20
489.45	12710.14
489.81	12397.26
490.17	12105.91
490.53	11821.41
490.89	11527.49
491.25	11221.72
491.61	10905.54
491.97	10586.76
492.33	10268.89
492.69	9967.36
493.05	9665.78
493.41	9383.54
493.77	9113.58
494.13	8855.09
494.49	8601.38
494.85	8368.96
495.21	8150.38
495.57	7937.90
495.93	7730.67
496.29	7531.61
496.64	7344.46
497.00	7154.46
497.36	6956.73
497.72	6764.83
498.08	6586.24
498.44	6406.02
498.80	6234.09
499.16	6071.44
499.52	5922.12
499.88	5800.64
500.24	5678.02
500.60	5555.96
500.96	5444.09
501.32	5326.05
501.68	5202.78
502.03	5072.50
502.39	4945.58
502.75	4813.73
503.11	4690.83
503.47	4570.60
503.83	4454.02
504.19	4338.02
504.55	4231.20
504.91	4134.04
505.26	4031.34
505.62	3943.15
505.98	3856.88
506.34	3767.70
506.70	3677.92
507.06	3591.51
507.42	3510.78
507.78	3436.33
508.13	3360.49
508.49	3285.25
508.85	3211.99
509.21	3137.61
509.57	3065.63
509.93	3003.91
510.28	2936.53
510.64	2878.41
511.00	2820.46
511.36	2764.29
511.72	2707.23
512.07	2655.92
512.43	2605.13
512.79	2552.45
513.15	2504.42
513.51	2456.74
513.86	2417.02
514.22	2377.38
514.58	2335.34
514.94	2296.44
515.30	2263.79
515.65	2220.77
516.01	2188.07
516.37	2159.19
516.73	2132.53
517.08	2103.09
517.44	2079.00
517.80	2047.99
518.16	2020.58
518.51	1992.90
518.87	1960.46
519.23	1932.23
519.59	1906.51
519.94	1880.20
520.30	1850.19
520.66	1828.43
521.01	1805.70
521.37	1780.75
521.73	1757.81
522.09	1740.68
522.44	1722.63
522.80	1706.06
523.16	1687.60
523.51	1671.45
523.87	1652.91
524.23	1636.67
524.58	1614.74
524.94	1599.59
525.30	1583.68
525.65	1569.87
526.01	1550.04
526.37	1536.82
526.72	1523.03
527.08	1507.89
527.44	1494.64
527.79	1484.46
528.15	1471.45
528.51	1457.19
528.86	1448.04
529.22	1431.94
529.58	1418.76
529.93	1406.99
530.29	1396.20
530.65	1383.61
531.00	1378.88
531.36	1369.68
531.71	1362.75
532.07	1354.63
532.43	1346.23
532.78	1336.31
533.14	1330.50
533.49	1324.13
533.85	1320.13
534.21	1311.78
534.56	1306.42
534.92	1296.66
535.27	1290.36
535.63	1285.63
535.98	1285.49
536.34	1281.05
536.69	1279.20
537.05	1271.68
537.41	1261.17
537.76	1249.54
538.12	1241.68
538.47	1237.39
538.83	1235.12
539.18	1233.04
539.54	1231.71
539.89	1225.50
540.25	1220.45
540.60	1213.85
540.96	1209.00
541.31	1207.20
541.67	1205.94
542.02	1204.56
542.38	1204.67
542.73	1202.97
543.09	1196.11
543.44	1194.96
543.80	1194.61
544.15	1189.72
544.51	1184.92
544.86	1184.22
545.22	1179.14
545.57	1173.26
545.93	1173.99
546.28	1174.64
546.64	1174.22
546.99	1173.38
547.35	1173.97
547.70	1167.86
548.05	1166.55
548.41	1166.48
548.76	1165.00
549.12	1157.58
549.47	1156.01
549.83	1147.35
550.18	1140.89
550.53	1138.16
550.89	1136.52
551.24	1135.89
551.60	1136.63
551.95	1135.89
552.30	1135.70
552.66	1135.82
553.01	1133.10
553.37	1132.77
553.72	1133.52
554.07	1131.88
554.43	1132.16
554.78	1135.49
555.13	1136.38
555.49	1133.76
555.84	1131.84
556.19	1129.75
556.55	1123.60
556.90	1120.74
557.26	1119.17
557.61	1116.95
557.96	1117.65
558.32	1118.17
558.67	1117.02
559.02	1114.19
559.37	1113.39
559.73	1110.87
560.08	1111.85
560.43	1112.11
560.79	1116.51
561.14	1115.94
561.49	1114.38
561.85	1112.01
562.20	1113.18
562.55	1110.07
562.90	1109.69
563.26	1109.37
563.61	1105.67
563.96	1100.43
564.32	1099.54
564.67	1100.64
565.02	1101.01
565.37	1103.54
565.73	1105.11
566.08	1103.73
566.43	1102.04
566.78	1103.52
567.14	1103.89
567.49	1101.64
567.84	1100.75
568.19	1101.92
568.54	1099.14
568.90	1100.82
569.25	1104.24
569.60	1104.55
569.95	1103.05
570.31	1101.60
570.66	1096.31
571.01	1095.09
571.36	1093.71
571.71	1095.46
572.06	1097.13
572.42	1097.90
572.77	1096.28
573.12	1098.11
573.47	1097.57
573.82	1095.23
574.18	1098.02
574.53	1100.94
574.88	1100.75
575.23	1097.99
575.58	1096.24
575.93	1091.30
576.28	1089.00
576.64	1085.70
576.99	1084.56
577.34	1083.90
577.69	1088.58
578.04	1087.41
578.39	1090.78
578.74	1092.75
579.09	1092.84
579.44	1088.82
579.80	1089.24
580.15	1087.60
580.50	1086.78
580.85	1086.34
581.20	1088.42
581.55	1087.65
581.90	1088.98
582.25	1092.05
582.60	1091.51
582.95	1088.47
583.30	1090.36
583.65	1092.35
584.00	1089.71
584.35	1093.17
584.71	1093.24
585.06	1089.82
585.41	1086.31
585.76	1086.15
586.11	1086.31
586.46	1086.10
586.81	1087.04
587.16	1088.61
587.51	1089.00
587.86	1089.87
588.21	1091.70
588.56	1096.75
588.91	1095.18
589.26	1091.30
589.61	1087.23
589.96	1087.93
590.31	1082.97
590.66	1082.50
591.01	1085.68
591.36	1084.60
591.71	1086.31
592.06	1085.91
592.41	1083.69
592.76	1084.35
593.10	1084.77
593.45	1082.10
593.80	1083.93
594.15	1085.24
594.50	1085.96
594.85	1091.09
595.20	1092.33
595.55	1090.71
595.90	1091.81
596.25	1090.67
596.60	1088.70
596.95	1084.86
597.30	1086.64
597.64	1095.39
597.99	1096.19
598.34	1092.49
598.69	1095.86
599.04	1093.92
599.39	1085.96
599.74	1081.12
600.09	1086.71
600.44	1086.85
600.78	1085.94
601.13	1084.74
601.48	1087.58
601.83	1086.59
602.18	1086.45
602.53	1089.10
602.88	1089.36
603.22	1088.96
603.57	1088.04
603.92	1085.19
604.27	1084.77
604.62	1086.06
604.97	1087.18
605.31	1085.75
605.66	1088.00
606.01	1085.80
606.36	1086.38
606.71	1084.44
607.05	1086.06
607.40	1086.10
607.75	1085.28
608.10	1080.02
608.44	1082.97
608.79	1081.56
609.14	1081.12
609.49	1081.47
609.84	1086.64
610.18	1086.31
610.53	1087.53
610.88	1091.93
611.23	1094.83
611.57	1093.69
611.92	1092.19
612.27	1093.36
612.62	1088.51
612.96	1088.42
613.31	1086.85
613.66	1087.58
614.00	1085.21
614.35	1085.99
614.70	1086.01
615.05	1087.11
615.39	1088.14
615.74	1089.38
616.09	1086.59
616.43	1084.11
616.78	1084.42
617.13	1081.16
617.47	1079.62
617.82	1080.98
618.17	1083.83
618.51	1081.73
618.86	1081.63
619.21	1082.64
619.55	1083.11
619.90	1080.70
620.25	1079.83
620.59	1079.55
620.94	1078.00
621.29	1077.96
621.63	1078.36
621.98	1080.98
622.32	1084.56
622.67	1084.58
623.02	1086.27
623.36	1084.67
623.71	1083.93
624.05	1083.29
624.40	1083.64
624.75	1078.33
625.09	1081.91
625.44	1082.50
625.78	1080.77
626.13	1079.55
626.48	1085.26
626.82	1081.21
627.17	1079.60
627.51	1079.01
627.86	1081.42
628.20	1080.13
628.55	1082.05
628.89	1082.61
629.24	1084.58
629.58	1083.67
629.93	1081.58
630.28	1080.60
630.62	1077.89
630.97	1078.17
631.31	1074.80
631.66	1079.90
632.00	1082.71
632.35	1088.40
632.69	1087.69
633.04	1091.34
633.38	1086.20
633.73	1085.94
634.07	1087.04
634.42	1087.18
634.76	1085.80
635.11	1087.58
635.45	1085.17
635.79	1083.46
636.14	1081.07
636.48	1084.32
636.83	1085.33
637.17	1087.37
637.52	1087.39
637.86	1090.90
638.21	1088.72
638.55	1085.14
638.89	1084.53
639.24	1080.53
639.58	1081.00
639.93	1079.71
640.27	1082.66
640.61	1082.50
640.96	1086.76
641.30	1081.91
641.65	1081.35
641.99	1079.24
642.33	1078.17
642.68	1076.30
643.02	1079.67
643.37	1078.43
643.71	1080.30
644.05	1081.35
644.40	1081.44
644.74	1079.08
645.08	1080.86
645.43	1079.41
645.77	1078.47
646.11	1078.71
646.46	1081.16
646.80	1084.09
647.14	1086.27
647.49	1086.43
647.83	1084.58
648.17	1081.89
648.52	1081.19
648.86	1079.13
649.20	1085.38
649.55	1087.53
649.89	1092.42
650.23	1090.22
650.57	1090.85
650.92	1087.51
651.26	1088.07
651.60	1083.95
651.95	1085.07
652.29	1084.23
652.63	1081.73
652.97	1079.95
653.32	1081.26
653.66	1081.12
654.00	1084.58
654.34	1087.09
654.69	1087.18
655.03	1085.84
655.37	1085.80
655.71	1083.64
656.05	1080.91
656.40	1081.28
656.74	1079.22
657.08	1078.71
657.42	1078.43
657.76	1080.34
658.11	1081.00
658.45	1085.33
658.79	1086.03
659.13	1085.49
659.47	1081.12
659.82	1079.88
660.16	1080.16
660.50	1082.24
660.84	1081.84
661.18	1084.81
661.52	1084.91
661.87	1084.77
662.21	1082.83
662.55	1083.34
662.89	1083.34
663.23	1080.72
663.57	1080.91
663.91	1081.47
664.25	1083.60
664.60	1082.76
664.94	1085.00
665.28	1085.26
665.62	1084.14
665.96	1083.86
666.30	1085.14
666.64	1088.35
666.98	1086.22
667.32	1085.54
667.66	1084.77
668.01	1082.45
668.35	1080.65
668.69	1080.44
669.03	1085.33
669.37	1083.83
669.71	1083.36
670.05	1079.36
670.39	1079.38
670.73	1074.40
671.07	1074.19
671.41	1078.36
671.75	1079.97
672.09	1078.75
672.43	1080.67
672.77	1083.50
673.11	1079.95
673.45	1082.05
673.79	1084.35
674.13	1081.96
674.47	1077.47
674.81	1081.14
675.15	1081.28
675.49	1078.28
675.83	1079.97
676.17	1080.48
676.51	1075.87
676.85	1077.28
677.19	1079.60
677.53	1081.84
677.87	1082.64
678.21	1086.41
678.55	1083.57
678.89	1087.04
679.23	1083.43
679.57	1086.48
679.90	1083.71
680.24	1085.70
680.58	1082.47
680.92	1085.70
681.26	1083.27
681.60	1083.71
681.94	1082.19
682.28	1083.76
682.62	1082.71
682.96	1080.72
683.29	1081.73
683.63	1079.31
683.97	1076.37
684.31	1075.10
684.65	1077.47
684.99	1076.93
685.33	1077.65
685.67	1079.50
686.00	1077.91
686.34	1080.44
686.68	1081.49
687.02	1081.89
687.36	1079.88
687.70	1080.70
688.03	1078.21
688.37	1079.97
688.71	1080.41
689.05	1081.14
689.39	1084.23
689.72	1086.87
690.06	1084.18
690.40	1082.52
690.74	1082.71
691.08	1082.03
691.41	1079.01
691.75	1082.05
692.09	1084.93
692.43	1086.97
692.76	1084.58
693.10	1087.32
693.44	1086.34
693.78	1084.60
694.11	1080.23
694.45	1083.36
694.79	1080.77
695.13	1080.46
695.46	1080.04
695.80	1081.19
696.14	1076.90
696.48	1074.91
696.81	1073.95
697.15	1074.98
697.49	1075.73
697.82	1077.79
698.16	1084.18
698.50	1083.36
698.83	1082.78
699.17	1085.05
699.51	1083.18
699.84	1079.78
700.18	1079.24
700.52	1081.14
700.85	1082.50
701.19	1084.77
701.53	1085.19
701.86	1086.15
702.20	1084.72
702.54	1081.37
702.87	1081.23
703.21	1079.71
703.55	1078.05
703.88	1079.64
704.22	1080.09
704.55	1078.31
704.89	1079.43
705.23	1082.19
705.56	1080.39
705.90	1079.92
706.23	1080.67
706.57	1077.14
706.91	1077.04
707.24	1076.51
707.58	1076.01
707.91	1078.36
708.25	1083.27
708.58	1085.66
708.92	1085.66
709.26	1084.37
709.59	1082.40
709.93	1082.61
710.26	1079.29
710.60	1078.40
710.93	1080.44
711.27	1078.57
711.60	1078.12
711.94	1077.63
712.27	1079.53
712.61	1080.37
712.94	1083.06
713.28	1081.26
713.61	1081.58
713.95	1081.56
714.28	1081.70
714.62	1078.66
714.95	1078.68
715.29	1081.37
715.62	1083.08
715.96	1082.83
716.29	1085.47
716.63	1086.52
716.96	1084.81
717.29	1079.71
717.63	1078.64
717.96	1079.08
718.30	1079.27
718.63	1075.01
718.97	1075.80
719.30	1075.50
719.63	1074.19
719.97	1071.52
720.30	1077.23
720.64	1080.32
720.97	1081.56
721.30	1084.04
721.64	1084.77
721.97	1080.13
722.31	1079.62
722.64	1080.02
722.97	1077.56
723.31	1076.62
723.64	1077.02
723.97	1076.18
724.31	1076.11
724.64	1076.58
724.98	1077.58
725.31	1077.91
725.64	1078.26
725.98	1077.72
726.31	1077.68
726.64	1078.68
726.97	1080.70
727.31	1080.86
727.64	1078.82
727.97	1078.45
728.31	1077.14
728.64	1077.28
728.97	1079.27
729.31	1081.49
729.64	1081.82
729.97	1082.59
730.30	1079.97
730.64	1078.96
730.97	1081.05
731.30	1081.37
731.63	1079.08
731.97	1081.02
732.30	1079.67
732.63	1072.48
732.96	1074.98
733.30	1077.75
733.63	1075.05
733.96	1075.48
734.29	1082.47
734.63	1080.32
734.96	1077.77
735.29	1082.50
735.62	1084.44
735.95	1085.52
736.29	1087.25
736.62	1088.70
736.95	1087.18
737.28	1088.07
737.61	1084.23
737.94	1079.22
738.28	1083.34
738.61	1085.70
738.94	1083.60
739.27	1083.20
739.60	1083.32
739.93	1080.74
740.27	1076.37
740.60	1075.66
740.93	1075.83
741.26	1078.28
741.59	1076.41
741.92	1079.13
742.25	1079.15
742.58	1079.24
742.91	1078.64
743.25	1077.54
743.58	1076.69
743.91	1078.10
744.24	1077.30
744.57	1076.55
744.90	1076.23
745.23	1074.87
745.56	1074.26
745.89	1078.24
746.22	1080.67
746.55	1084.49
746.88	1085.19
747.21	1083.50
747.54	1078.64
747.87	1077.35
748.20	1076.90
748.53	1078.82
748.87	1079.95
749.20	1080.95
749.53	1083.81
749.86	1084.32
750.19	1082.52
750.52	1083.55
750.85	1083.64
751.18	1079.10
751.51	1078.24
751.84	1079.57
752.16	1076.67
752.49	1079.62
752.82	1081.63
753.15	1083.20
753.48	1083.08
753.81	1085.10
754.14	1081.12
754.47	1083.55
754.80	1080.60
755.13	1079.24
755.46	1079.36
755.79	1080.81
756.12	1078.05
756.45	1077.14
756.78	1075.13
757.11	1075.43
757.43	1075.08
757.76	1078.45
758.09	1080.13
758.42	1080.41
758.75	1079.76
759.08	1081.19
759.41	1081.51
759.74	1080.65
760.07	1084.14
760.39	1084.96
760.72	1083.53
761.05	1080.11
761.38	1082.45
761.71	1081.66
762.04	1081.51
762.36	1080.70
762.69	1079.10
763.02	1073.42
763.35	1072.13
763.68	1070.30
764.01	1068.64
