SpectraSuite Data File
++++++++++++++++++++++++++++++++++++
Date: Mon Aug 26 10:22:28 PDT 2019
User: corrico
Dark Spectrum Present: No
Reference Spectrum Present: No
Number of Sampled Component Spectra: 1
Spectrometers: USB2+H06089
Integration Time (usec): 2000 (USB2+H06089)
Spectra Averaged: 20 (USB2+H06089)
Boxcar Smoothing: 2 (USB2+H06089)
Correct for Electrical Dark: No (USB2+H06089)
Strobe/Lamp Enabled: No (USB2+H06089)
Correct for Detector Non-linearity: No (USB2+H06089)
Correct for Stray Light: No (USB2+H06089)
Number of Pixels in Processed Spectrum: 2048
>>>>>Begin Processed Spectral Data<<<<<
339.70	1016.85
340.07	1016.85
340.45	984.20
340.82	963.72
341.19	940.59
341.57	917.91
341.94	907.73
342.31	900.68
342.69	894.65
343.06	894.34
343.43	893.83
343.81	895.18
344.18	899.26
344.55	907.38
344.93	909.49
345.30	913.49
345.67	923.72
346.04	929.01
346.42	934.74
346.79	944.62
347.16	956.69
347.54	964.51
347.91	973.97
348.28	984.15
348.65	994.14
349.03	1001.45
349.40	1007.39
349.77	1015.23
350.14	1020.80
350.52	1026.96
350.89	1033.93
351.26	1043.25
351.63	1049.52
352.01	1056.26
352.38	1063.40
352.75	1065.04
353.12	1067.45
353.50	1070.02
353.87	1072.95
354.24	1072.67
354.61	1076.55
354.98	1077.18
355.36	1078.82
355.73	1080.46
356.10	1082.71
356.47	1078.82
356.84	1078.31
357.22	1077.56
357.59	1076.60
357.96	1078.80
358.33	1082.90
358.70	1085.42
359.08	1084.91
359.45	1085.73
359.82	1084.00
360.19	1084.51
360.56	1083.11
360.94	1084.39
361.31	1084.14
361.68	1081.68
362.05	1080.06
362.42	1079.22
362.79	1076.48
363.16	1074.66
363.54	1076.34
363.91	1075.71
364.28	1076.46
364.65	1080.67
365.02	1080.41
365.39	1076.01
365.76	1074.17
366.14	1071.64
366.51	1068.71
366.88	1067.40
367.25	1070.07
367.62	1070.87
367.99	1072.04
368.36	1072.85
368.73	1075.69
369.10	1075.85
369.48	1078.64
369.85	1082.15
370.22	1083.06
370.59	1083.06
370.96	1083.79
371.33	1083.29
371.70	1080.04
372.07	1076.62
372.44	1075.97
372.81	1076.51
373.18	1078.50
373.55	1076.88
373.93	1079.10
374.30	1079.01
374.67	1080.23
375.04	1077.07
375.41	1079.36
375.78	1076.23
376.15	1074.17
376.52	1071.80
376.89	1073.70
377.26	1076.11
377.63	1077.37
378.00	1078.03
378.37	1075.17
378.74	1073.37
379.11	1071.97
379.48	1072.81
379.85	1077.00
380.22	1076.18
380.59	1077.96
380.96	1078.61
381.33	1077.98
381.70	1076.32
382.07	1080.09
382.44	1080.11
382.81	1078.00
383.18	1080.60
383.55	1079.85
383.92	1081.42
384.29	1079.13
384.66	1082.54
385.03	1081.35
385.40	1081.89
385.77	1080.72
386.14	1083.90
386.51	1082.36
386.88	1083.22
387.25	1082.52
387.62	1082.50
387.99	1084.39
388.36	1086.83
388.73	1087.44
389.10	1086.52
389.46	1089.10
389.83	1087.25
390.20	1087.55
390.57	1087.93
390.94	1085.68
391.31	1082.97
391.68	1083.06
392.05	1079.60
392.42	1078.54
392.79	1084.98
393.16	1087.46
393.53	1085.70
393.89	1085.82
394.26	1085.89
394.63	1085.24
395.00	1085.68
395.37	1086.92
395.74	1087.74
396.11	1088.28
396.48	1085.31
396.84	1082.43
397.21	1083.79
397.58	1084.32
397.95	1084.18
398.32	1084.14
398.69	1083.55
399.06	1085.19
399.42	1087.25
399.79	1088.65
400.16	1092.73
400.53	1094.06
400.90	1091.63
401.27	1090.13
401.64	1089.43
402.00	1086.29
402.37	1087.58
402.74	1090.81
403.11	1090.46
403.48	1090.69
403.84	1090.36
404.21	1090.69
404.58	1087.53
404.95	1087.34
405.32	1087.90
405.68	1090.83
406.05	1090.64
406.42	1093.08
406.79	1096.10
407.16	1096.61
407.52	1096.52
407.89	1096.54
408.26	1094.93
408.63	1091.79
408.99	1090.13
409.36	1089.05
409.73	1090.71
410.10	1092.23
410.47	1093.33
410.83	1094.20
411.20	1095.65
411.57	1093.55
411.94	1093.69
412.30	1093.31
412.67	1093.92
413.04	1094.57
413.40	1098.20
413.77	1099.28
414.14	1100.24
414.51	1102.32
414.87	1102.56
415.24	1102.11
415.61	1099.75
415.97	1102.25
416.34	1100.50
416.71	1099.42
417.08	1101.36
417.44	1100.19
417.81	1100.82
418.18	1103.77
418.54	1103.70
418.91	1105.04
419.28	1110.49
419.64	1112.81
420.01	1112.25
420.38	1115.17
420.74	1115.05
421.11	1116.69
421.48	1116.51
421.84	1121.23
422.21	1124.70
422.58	1127.13
422.94	1128.30
423.31	1131.56
423.68	1130.17
424.04	1132.47
424.41	1136.66
424.77	1137.85
425.14	1141.34
425.51	1148.15
425.87	1153.35
426.24	1154.26
426.61	1162.75
426.97	1169.00
427.34	1172.37
427.70	1176.52
428.07	1184.01
428.44	1193.09
428.80	1198.28
429.17	1208.84
429.53	1220.40
429.90	1230.23
430.27	1236.72
430.63	1246.27
431.00	1254.06
431.36	1263.84
431.73	1274.87
432.09	1288.68
432.46	1304.57
432.83	1319.08
433.19	1334.81
433.56	1352.95
433.92	1370.15
434.29	1391.43
434.65	1416.07
435.02	1440.51
435.38	1469.65
435.75	1497.47
436.11	1531.20
436.48	1564.77
436.84	1599.85
437.21	1634.23
437.57	1673.27
437.94	1708.90
438.30	1751.77
438.67	1798.49
439.03	1845.25
439.40	1897.52
439.76	1952.80
440.13	2011.43
440.49	2074.07
440.86	2144.07
441.22	2221.33
441.59	2297.73
441.95	2378.48
442.32	2460.35
442.68	2551.75
443.05	2642.25
443.41	2744.54
443.78	2846.51
444.14	2954.15
444.51	3068.54
444.87	3206.89
445.24	3347.76
445.60	3503.90
445.96	3663.57
446.33	3836.18
446.69	3998.59
447.06	4176.83
447.42	4358.80
447.79	4552.60
448.15	4773.38
448.51	4995.48
448.88	5259.39
449.24	5506.63
449.61	5783.63
449.97	6055.25
450.33	6345.52
450.70	6603.94
451.06	6936.34
451.43	7248.12
451.79	7609.81
452.15	8017.41
452.52	8465.95
452.88	8920.79
453.24	9445.93
453.61	10019.41
453.97	10580.04
454.34	11130.25
454.70	11779.92
455.06	12432.18
455.43	13075.03
455.79	13685.32
456.15	14402.23
456.52	15064.83
456.88	15834.80
457.24	16557.30
457.61	17389.71
457.97	18167.52
458.33	18954.73
458.70	19731.00
459.06	20499.02
459.42	21357.53
459.79	22136.62
460.15	23031.29
460.51	23887.72
460.88	24826.06
461.24	25615.69
461.60	26599.46
461.96	27481.99
462.33	28331.08
462.69	29106.41
463.05	29951.67
463.42	30642.27
463.78	31284.93
464.14	31795.55
464.50	32380.73
464.87	32862.88
465.23	33230.11
465.59	33587.46
465.95	33934.28
466.32	34205.08
466.68	34433.31
467.04	34574.63
467.40	34712.32
467.77	34864.71
468.13	34830.17
468.49	34734.16
468.85	34646.53
469.22	34485.92
469.58	34146.66
469.94	33926.91
470.30	33619.31
470.66	33219.88
471.03	32631.05
471.39	32254.85
471.75	31612.68
472.11	31011.72
472.47	30665.77
472.84	30349.61
473.20	29850.28
473.56	29586.85
473.92	29175.18
474.28	28646.47
474.65	28145.85
475.01	27664.69
475.37	27070.14
475.73	26580.60
476.09	26034.90
476.45	25499.60
476.81	24976.86
477.18	24446.15
477.54	24006.95
477.90	23662.21
478.26	23246.83
478.62	22894.61
478.98	22606.09
479.34	22276.12
479.71	21841.39
480.07	21493.26
480.43	21131.15
480.79	20736.94
481.15	20382.04
481.51	20073.07
481.87	19819.70
482.23	19536.90
482.59	19274.12
482.96	18984.74
483.32	18684.08
483.68	18294.52
484.04	17950.81
484.40	17579.06
484.76	17214.94
485.12	16860.31
485.48	16543.98
485.84	16188.50
486.20	15836.32
486.56	15470.26
486.92	15129.85
487.28	14781.63
487.64	14414.63
488.00	14096.81
488.37	13774.90
488.73	13418.62
489.09	13060.84
489.45	12766.24
489.81	12447.25
490.17	12147.26
490.53	11861.48
490.89	11563.72
491.25	11249.81
491.61	10937.56
491.97	10618.26
492.33	10310.57
492.69	10010.89
493.05	9707.58
493.41	9411.76
493.77	9134.78
494.13	8862.20
494.49	8619.37
494.85	8382.23
495.21	8171.37
495.57	7960.47
495.93	7755.04
496.29	7551.36
496.64	7366.25
497.00	7168.76
497.36	6972.67
497.72	6784.37
498.08	6598.70
498.44	6417.40
498.80	6238.81
499.16	6077.55
499.52	5930.94
499.88	5805.63
500.24	5685.98
500.60	5573.00
500.96	5467.56
501.32	5350.91
501.68	5230.68
502.03	5097.94
502.39	4970.97
502.75	4830.66
503.11	4705.06
503.47	4582.09
503.83	4467.26
504.19	4349.11
504.55	4244.70
504.91	4152.32
505.26	4056.10
505.62	3969.15
505.98	3883.58
506.34	3787.15
506.70	3691.47
507.06	3602.08
507.42	3511.27
507.78	3434.01
508.13	3360.52
508.49	3287.84
508.85	3215.85
509.21	3147.51
509.57	3073.36
509.93	3010.56
510.28	2939.53
510.64	2879.12
511.00	2813.63
511.36	2753.80
511.72	2690.07
512.07	2639.96
512.43	2590.06
512.79	2541.75
513.15	2501.14
513.51	2456.93
513.86	2410.07
514.22	2367.64
514.58	2328.60
514.94	2287.08
515.30	2253.56
515.65	2220.79
516.01	2189.97
516.37	2159.57
516.73	2129.44
517.08	2105.64
517.44	2077.86
517.80	2049.02
518.16	2022.76
518.51	1996.73
518.87	1965.70
519.23	1939.88
519.59	1911.12
519.94	1884.65
520.30	1861.73
520.66	1834.68
521.01	1809.49
521.37	1788.26
521.73	1768.74
522.09	1746.60
522.44	1729.98
522.80	1712.45
523.16	1691.51
523.51	1669.36
523.87	1648.95
524.23	1625.97
524.58	1604.37
524.94	1584.07
525.30	1561.28
525.65	1543.49
526.01	1531.41
526.37	1521.96
526.72	1515.33
527.08	1505.53
527.44	1493.80
527.79	1479.90
528.15	1464.15
528.51	1450.13
528.86	1436.74
529.22	1424.71
529.58	1416.66
529.93	1406.36
530.29	1394.58
530.65	1388.48
531.00	1381.06
531.36	1369.31
531.71	1360.55
532.07	1352.95
532.43	1341.88
532.78	1334.85
533.14	1328.16
533.49	1322.75
533.85	1315.43
534.21	1312.67
534.56	1303.61
534.92	1299.56
535.27	1296.05
535.63	1291.81
535.98	1286.45
536.34	1283.48
536.69	1275.73
537.05	1264.57
537.41	1257.01
537.76	1252.21
538.12	1244.95
538.47	1240.91
538.83	1238.49
539.18	1233.60
539.54	1228.69
539.89	1224.17
540.25	1221.29
540.60	1217.52
540.96	1215.84
541.31	1214.20
541.67	1212.51
542.02	1209.35
542.38	1204.56
542.73	1199.59
543.09	1193.93
543.44	1190.16
543.80	1185.67
544.15	1182.81
544.51	1179.44
544.86	1174.81
545.22	1174.20
545.57	1172.16
545.93	1170.13
546.28	1170.74
546.64	1171.11
546.99	1166.08
547.35	1163.36
547.70	1161.94
548.05	1158.96
548.41	1155.29
548.76	1155.64
549.12	1154.00
549.47	1153.09
549.83	1151.36
550.18	1149.04
550.53	1146.96
550.89	1146.16
551.24	1142.51
551.60	1138.39
551.95	1137.78
552.30	1136.35
552.66	1134.48
553.01	1134.32
553.37	1136.70
553.72	1134.29
554.07	1133.69
554.43	1132.23
554.78	1132.21
555.13	1132.96
555.49	1133.24
555.84	1134.22
556.19	1132.94
556.55	1132.09
556.90	1126.03
557.26	1125.45
557.61	1123.22
557.96	1126.85
558.32	1125.38
558.67	1126.36
559.02	1126.59
559.37	1126.41
559.73	1121.58
560.08	1121.91
560.43	1121.58
560.79	1120.11
561.14	1114.54
561.49	1110.65
561.85	1111.05
562.20	1112.04
562.55	1112.04
562.90	1112.62
563.26	1115.45
563.61	1112.06
563.96	1108.31
564.32	1103.89
564.67	1101.22
565.02	1100.89
565.37	1102.77
565.73	1101.69
566.08	1104.50
566.43	1111.12
566.78	1109.86
567.14	1109.72
567.49	1110.26
567.84	1109.20
568.19	1105.22
568.54	1106.35
568.90	1105.15
569.25	1105.13
569.60	1103.66
569.95	1103.89
570.31	1102.95
570.66	1099.91
571.01	1096.70
571.36	1099.96
571.71	1099.19
572.06	1097.01
572.42	1099.68
572.77	1103.91
573.12	1101.01
573.47	1095.84
573.82	1097.66
574.18	1093.94
574.53	1091.11
574.88	1091.34
575.23	1096.24
575.58	1093.62
575.93	1092.30
576.28	1095.02
576.64	1094.81
576.99	1095.65
577.34	1096.38
577.69	1097.78
578.04	1096.31
578.39	1097.06
578.74	1093.24
579.09	1093.85
579.44	1095.93
579.80	1094.95
580.15	1098.44
580.50	1099.63
580.85	1099.05
581.20	1096.17
581.55	1097.50
581.90	1092.77
582.25	1093.38
582.60	1093.80
582.95	1096.66
583.30	1093.52
583.65	1093.45
584.00	1088.30
584.35	1085.33
584.71	1080.72
585.06	1084.14
585.41	1083.81
585.76	1089.66
586.11	1088.98
586.46	1092.30
586.81	1091.72
587.16	1090.95
587.51	1086.45
587.86	1091.72
588.21	1091.44
588.56	1086.80
588.91	1088.54
589.26	1090.10
589.61	1085.10
589.96	1085.47
590.31	1086.08
590.66	1085.24
591.01	1085.70
591.36	1088.30
591.71	1090.41
592.06	1091.79
592.41	1090.92
592.76	1089.75
593.10	1088.91
593.45	1084.56
593.80	1084.18
594.15	1085.14
594.50	1087.41
594.85	1088.00
595.20	1091.20
595.55	1094.46
595.90	1092.94
596.25	1091.18
596.60	1088.93
596.95	1085.52
597.30	1081.70
597.64	1091.72
597.99	1093.05
598.34	1093.92
598.69	1094.08
599.04	1093.71
599.39	1085.94
599.74	1084.77
600.09	1087.72
600.44	1088.58
600.78	1092.42
601.13	1089.07
601.48	1089.54
601.83	1088.23
602.18	1083.93
602.53	1082.73
602.88	1084.21
603.22	1086.27
603.57	1086.08
603.92	1088.54
604.27	1087.83
604.62	1086.69
604.97	1084.79
605.31	1081.42
605.66	1080.11
606.01	1079.74
606.36	1083.97
606.71	1083.25
607.05	1085.40
607.40	1090.53
607.75	1091.79
608.10	1090.41
608.44	1091.32
608.79	1092.59
609.14	1089.43
609.49	1085.03
609.84	1081.66
610.18	1081.00
610.53	1080.06
610.88	1079.24
611.23	1084.44
611.57	1085.66
611.92	1083.93
612.27	1083.64
612.62	1087.69
612.96	1085.31
613.31	1086.85
613.66	1088.14
614.00	1087.04
614.35	1085.40
614.70	1087.65
615.05	1084.84
615.39	1085.26
615.74	1084.21
616.09	1080.79
616.43	1080.16
616.78	1077.68
617.13	1077.44
617.47	1077.51
617.82	1077.28
618.17	1072.06
618.51	1073.77
618.86	1071.61
619.21	1071.17
619.55	1073.23
619.90	1076.04
620.25	1077.37
620.59	1080.37
620.94	1086.17
621.29	1085.82
621.63	1085.17
621.98	1087.93
622.32	1086.22
622.67	1081.56
623.02	1083.01
623.36	1085.70
623.71	1082.97
624.05	1083.81
624.40	1084.81
624.75	1084.35
625.09	1084.42
625.44	1086.29
625.78	1086.31
626.13	1087.51
626.48	1088.75
626.82	1087.79
627.17	1088.02
627.51	1087.25
627.86	1083.97
628.20	1082.99
628.55	1081.77
628.89	1081.26
629.24	1079.36
629.58	1080.32
629.93	1078.71
630.28	1080.77
630.62	1079.62
630.97	1083.83
631.31	1086.78
631.66	1086.71
632.00	1084.84
632.35	1085.14
632.69	1081.91
633.04	1077.58
633.38	1077.02
633.73	1076.48
634.07	1074.61
634.42	1076.93
634.76	1078.52
635.11	1079.74
635.45	1079.60
635.79	1081.12
636.14	1081.09
636.48	1081.80
636.83	1082.24
637.17	1081.58
637.52	1080.51
637.86	1078.64
638.21	1079.13
638.55	1079.50
638.89	1079.92
639.24	1082.59
639.58	1082.43
639.93	1080.93
640.27	1077.68
640.61	1078.26
640.96	1077.09
641.30	1078.71
641.65	1078.47
641.99	1081.91
642.33	1081.02
642.68	1081.16
643.02	1079.20
643.37	1079.15
643.71	1081.00
644.05	1082.45
644.40	1082.45
644.74	1084.89
645.08	1086.48
645.43	1081.87
645.77	1082.54
646.11	1081.94
646.46	1079.13
646.80	1078.17
647.14	1080.67
647.49	1080.91
647.83	1080.72
648.17	1079.90
648.52	1083.34
648.86	1081.84
649.20	1081.89
649.55	1079.53
649.89	1082.08
650.23	1078.54
650.57	1078.73
650.92	1079.01
651.26	1083.27
651.60	1084.44
651.95	1086.45
652.29	1089.05
652.63	1086.64
652.97	1083.74
653.32	1081.00
653.66	1078.94
654.00	1075.52
654.34	1074.63
654.69	1073.51
655.03	1074.91
655.37	1077.18
655.71	1080.53
656.05	1082.71
656.40	1083.53
656.74	1083.04
657.08	1079.60
657.42	1079.24
657.76	1080.58
658.11	1079.81
658.45	1080.39
658.79	1082.80
659.13	1082.47
659.47	1083.22
659.82	1085.35
660.16	1086.85
660.50	1084.81
660.84	1082.94
661.18	1082.80
661.52	1085.94
661.87	1085.61
662.21	1086.92
662.55	1088.30
662.89	1087.39
663.23	1084.65
663.57	1083.04
663.91	1082.05
664.25	1082.57
664.60	1078.57
664.94	1077.23
665.28	1074.24
665.62	1076.34
665.96	1073.86
666.30	1075.08
666.64	1074.42
666.98	1075.31
667.32	1075.36
667.66	1076.53
668.01	1077.40
668.35	1078.12
668.69	1078.31
669.03	1075.99
669.37	1075.94
669.71	1079.50
670.05	1081.16
670.39	1082.73
670.73	1082.05
671.07	1081.05
671.41	1080.70
671.75	1080.20
672.09	1079.78
672.43	1078.40
672.77	1079.57
673.11	1076.95
673.45	1073.58
673.79	1074.24
674.13	1078.66
674.47	1074.77
674.81	1077.56
675.15	1079.38
675.49	1078.33
675.83	1076.44
676.17	1079.76
676.51	1078.85
676.85	1077.68
677.19	1080.84
677.53	1078.94
677.87	1079.71
678.21	1077.82
678.55	1077.61
678.89	1075.92
679.23	1078.00
679.57	1076.23
679.90	1078.26
680.24	1082.38
680.58	1081.51
680.92	1082.33
681.26	1084.58
681.60	1081.75
681.94	1079.74
682.28	1080.09
682.62	1077.98
682.96	1074.28
683.29	1073.91
683.63	1075.41
683.97	1077.00
684.31	1079.85
684.65	1080.53
684.99	1080.93
685.33	1079.17
685.67	1076.97
686.00	1076.32
686.34	1079.17
686.68	1075.73
687.02	1075.24
687.36	1074.84
687.70	1073.35
688.03	1069.13
688.37	1070.84
688.71	1072.08
689.05	1072.13
689.39	1072.60
689.72	1075.92
690.06	1077.82
690.40	1079.03
690.74	1082.24
691.08	1085.03
691.41	1085.87
691.75	1087.02
692.09	1088.04
692.43	1085.33
692.76	1083.86
693.10	1084.39
693.44	1082.19
693.78	1077.72
694.11	1076.95
694.45	1075.22
694.79	1071.50
695.13	1072.43
695.46	1075.57
695.80	1077.00
696.14	1079.76
696.48	1083.41
696.81	1082.85
697.15	1079.64
697.49	1079.03
697.82	1077.16
698.16	1075.03
698.50	1075.59
698.83	1076.13
699.17	1079.97
699.51	1083.53
699.84	1084.04
700.18	1087.34
700.52	1087.83
700.85	1083.15
701.19	1078.57
701.53	1078.21
701.86	1077.75
702.20	1077.58
702.54	1079.64
702.87	1080.84
703.21	1080.86
703.55	1076.88
703.88	1078.85
704.22	1078.89
704.55	1080.37
704.89	1078.75
705.23	1083.60
705.56	1082.54
705.90	1084.63
706.23	1083.86
706.57	1087.20
706.91	1084.56
707.24	1084.67
707.58	1081.51
707.91	1079.20
708.25	1079.46
708.58	1080.02
708.92	1080.67
709.26	1081.96
709.59	1084.96
709.93	1083.41
710.26	1079.53
710.60	1078.54
710.93	1079.64
711.27	1077.72
711.60	1079.08
711.94	1085.33
712.27	1086.71
712.61	1084.91
712.94	1084.91
713.28	1084.14
713.61	1078.92
713.95	1077.33
714.28	1075.03
714.62	1077.04
714.95	1077.47
715.29	1080.11
715.62	1082.71
715.96	1083.71
716.29	1081.82
716.63	1077.93
716.96	1075.87
717.29	1072.97
717.63	1074.94
717.96	1075.59
718.30	1078.40
718.63	1080.56
718.97	1080.86
719.30	1080.30
719.63	1080.27
719.97	1080.98
720.30	1077.40
720.64	1076.01
720.97	1078.10
721.30	1079.50
721.64	1078.82
721.97	1080.11
722.31	1079.83
722.64	1079.22
722.97	1076.79
723.31	1076.58
723.64	1076.81
723.97	1077.86
724.31	1075.27
724.64	1075.99
724.98	1077.91
725.31	1078.52
725.64	1079.36
725.98	1080.18
726.31	1079.53
726.64	1077.23
726.97	1079.67
727.31	1080.25
727.64	1078.64
727.97	1076.95
728.31	1077.07
728.64	1075.92
728.97	1073.91
729.31	1077.96
729.64	1080.46
729.97	1079.36
730.30	1078.50
730.64	1080.13
730.97	1079.10
731.30	1078.94
731.63	1081.56
731.97	1081.37
732.30	1081.00
732.63	1077.56
732.96	1076.62
733.30	1073.86
733.63	1075.62
733.96	1077.54
734.29	1080.27
734.63	1083.18
734.96	1087.62
735.29	1086.31
735.62	1088.07
735.95	1085.63
736.29	1082.94
736.62	1080.79
736.95	1081.21
737.28	1079.01
737.61	1081.91
737.94	1082.05
738.28	1081.94
738.61	1081.05
738.94	1078.85
739.27	1077.25
739.60	1078.45
739.93	1076.72
740.27	1076.11
740.60	1077.00
740.93	1077.28
741.26	1075.29
741.59	1077.72
741.92	1077.82
742.25	1077.02
742.58	1078.26
742.91	1079.17
743.25	1078.47
743.58	1082.64
743.91	1082.19
744.24	1080.16
744.57	1081.30
744.90	1079.38
745.23	1076.46
745.56	1077.14
745.89	1075.22
746.22	1073.98
746.55	1077.04
746.88	1078.40
747.21	1076.74
747.54	1078.75
747.87	1078.89
748.20	1076.32
748.53	1072.11
748.87	1076.39
749.20	1079.78
749.53	1082.71
749.86	1085.82
750.19	1089.22
750.52	1082.78
750.85	1082.54
751.18	1081.21
751.51	1079.67
751.84	1077.00
752.16	1084.09
752.49	1083.29
752.82	1081.61
753.15	1081.37
753.48	1082.36
753.81	1078.38
754.14	1076.20
754.47	1075.55
754.80	1076.86
755.13	1075.50
755.46	1073.30
755.79	1071.71
756.12	1074.56
756.45	1071.33
756.78	1069.81
757.11	1074.07
757.43	1079.41
757.76	1078.26
758.09	1077.75
758.42	1081.94
758.75	1081.30
759.08	1078.31
759.41	1078.28
759.74	1079.22
760.07	1077.61
760.39	1079.92
760.72	1080.04
761.05	1080.53
761.38	1080.95
761.71	1081.68
762.04	1078.92
762.36	1078.57
762.69	1074.45
763.02	1073.46
763.35	1073.93
763.68	1074.40
764.01	1073.35
