SpectraSuite Data File
++++++++++++++++++++++++++++++++++++
Date: Mon Aug 26 10:22:26 PDT 2019
User: corrico
Dark Spectrum Present: No
Reference Spectrum Present: No
Number of Sampled Component Spectra: 1
Spectrometers: USB2+H06089
Integration Time (usec): 2000 (USB2+H06089)
Spectra Averaged: 20 (USB2+H06089)
Boxcar Smoothing: 2 (USB2+H06089)
Correct for Electrical Dark: No (USB2+H06089)
Strobe/Lamp Enabled: No (USB2+H06089)
Correct for Detector Non-linearity: No (USB2+H06089)
Correct for Stray Light: No (USB2+H06089)
Number of Pixels in Processed Spectrum: 2048
>>>>>Begin Processed Spectral Data<<<<<
339.70	1029.95
340.07	1029.95
340.45	997.19
340.82	978.13
341.19	953.49
341.57	930.64
341.94	919.32
342.31	911.45
342.69	904.92
343.06	900.38
343.43	897.53
343.81	895.18
344.18	899.94
344.55	900.31
344.93	907.03
345.30	910.28
345.67	919.90
346.04	921.96
346.42	931.74
346.79	941.60
347.16	951.87
347.54	960.51
347.91	976.54
348.28	988.99
348.65	995.27
349.03	1004.09
349.40	1011.77
349.77	1017.95
350.14	1024.73
350.52	1036.93
350.89	1048.07
351.26	1056.63
351.63	1061.64
352.01	1066.96
352.38	1067.94
352.75	1069.58
353.12	1072.15
353.50	1074.63
353.87	1076.32
354.24	1081.00
354.61	1082.15
354.98	1084.86
355.36	1087.09
355.73	1085.66
356.10	1084.77
356.47	1084.60
356.84	1085.17
357.22	1086.08
357.59	1090.69
357.96	1092.07
358.33	1090.03
358.70	1081.84
359.08	1079.92
359.45	1073.53
359.82	1072.97
360.19	1074.80
360.56	1080.74
360.94	1080.93
361.31	1085.66
361.68	1084.30
362.05	1083.29
362.42	1083.20
362.79	1081.63
363.16	1078.89
363.54	1077.42
363.91	1077.91
364.28	1076.04
364.65	1074.52
365.02	1072.57
365.39	1073.32
365.76	1073.09
366.14	1073.25
366.51	1073.46
366.88	1072.76
367.25	1072.48
367.62	1073.07
367.99	1074.87
368.36	1075.73
368.73	1078.73
369.10	1078.10
369.48	1078.68
369.85	1074.17
370.22	1075.17
370.59	1073.88
370.96	1070.56
371.33	1070.26
371.70	1075.87
372.07	1075.94
372.44	1077.79
372.81	1083.69
373.18	1082.01
373.55	1078.03
373.93	1077.47
374.30	1076.06
374.67	1073.39
375.04	1076.51
375.41	1076.93
375.78	1078.59
376.15	1080.48
376.52	1082.69
376.89	1083.53
377.26	1083.41
377.63	1081.26
378.00	1076.88
378.37	1076.67
378.74	1071.15
379.11	1069.51
379.48	1072.53
379.85	1074.68
380.22	1075.13
380.59	1078.10
380.96	1080.18
381.33	1078.73
381.70	1076.67
382.07	1077.79
382.44	1075.83
382.81	1075.85
383.18	1074.40
383.55	1078.40
383.92	1078.92
384.29	1082.99
384.66	1084.14
385.03	1088.63
385.40	1090.74
385.77	1090.64
386.14	1088.91
386.51	1089.47
386.88	1086.52
387.25	1082.85
387.62	1080.95
387.99	1080.32
388.36	1080.63
388.73	1083.32
389.10	1083.83
389.46	1081.70
389.83	1084.04
390.20	1082.10
390.57	1082.66
390.94	1080.25
391.31	1081.96
391.68	1081.09
392.05	1080.77
392.42	1077.84
392.79	1081.58
393.16	1082.97
393.53	1080.18
393.89	1083.41
394.26	1083.08
394.63	1083.13
395.00	1083.62
395.37	1084.37
395.74	1081.42
396.11	1083.43
396.48	1083.88
396.84	1083.01
397.21	1084.42
397.58	1083.88
397.95	1084.77
398.32	1083.71
398.69	1086.31
399.06	1084.14
399.42	1089.73
399.79	1090.60
400.16	1094.18
400.53	1092.63
400.90	1098.37
401.27	1095.67
401.64	1096.38
402.00	1093.99
402.37	1095.14
402.74	1092.07
403.11	1094.41
403.48	1092.52
403.84	1094.97
404.21	1096.85
404.58	1095.75
404.95	1095.93
405.32	1096.03
405.68	1096.75
406.05	1095.67
406.42	1095.79
406.79	1090.50
407.16	1087.53
407.52	1082.01
407.89	1079.41
408.26	1080.27
408.63	1085.54
408.99	1089.89
409.36	1091.91
409.73	1095.51
410.10	1098.30
410.47	1097.69
410.83	1095.63
411.20	1099.21
411.57	1097.66
411.94	1097.90
412.30	1098.25
412.67	1102.44
413.04	1102.86
413.40	1103.02
413.77	1102.06
414.14	1099.44
414.51	1096.75
414.87	1093.94
415.24	1095.07
415.61	1095.98
415.97	1100.31
416.34	1098.02
416.71	1100.61
417.08	1101.95
417.44	1103.73
417.81	1104.59
418.18	1109.23
418.54	1108.85
418.91	1106.98
419.28	1106.82
419.64	1106.23
420.01	1109.16
420.38	1112.85
420.74	1116.15
421.11	1118.66
421.48	1119.43
421.84	1119.08
422.21	1119.60
422.58	1117.02
422.94	1115.29
423.31	1118.17
423.68	1118.19
424.04	1122.33
424.41	1129.36
424.77	1136.54
425.14	1141.39
425.51	1145.50
425.87	1146.96
426.24	1149.51
426.61	1151.85
426.97	1158.03
427.34	1168.54
427.70	1174.86
428.07	1182.86
428.44	1189.46
428.80	1192.85
429.17	1198.52
429.53	1202.97
429.90	1213.24
430.27	1222.81
430.63	1233.51
431.00	1243.53
431.36	1259.77
431.73	1273.09
432.09	1287.15
432.46	1303.26
432.83	1321.49
433.19	1337.05
433.56	1354.26
433.92	1375.28
434.29	1394.75
434.65	1416.87
435.02	1442.40
435.38	1466.70
435.75	1492.35
436.11	1520.76
436.48	1547.77
436.84	1585.10
437.21	1619.93
437.57	1658.18
437.94	1700.59
438.30	1748.17
438.67	1792.24
439.03	1847.81
439.40	1904.38
439.76	1963.45
440.13	2026.97
440.49	2095.22
440.86	2156.71
441.22	2230.83
441.59	2300.28
441.95	2374.43
442.32	2453.51
442.68	2552.40
443.05	2641.76
443.41	2747.44
443.78	2849.86
444.14	2961.76
444.51	3069.31
444.87	3213.65
445.24	3356.98
445.60	3509.75
445.96	3658.02
446.33	3831.36
446.69	3990.24
447.06	4159.65
447.42	4336.50
447.79	4535.51
448.15	4755.78
448.51	4993.23
448.88	5259.56
449.24	5513.65
449.61	5795.35
449.97	6064.82
450.33	6344.44
450.70	6609.32
451.06	6936.41
451.43	7236.00
451.79	7609.08
452.15	8008.10
452.52	8459.82
452.88	8931.72
453.24	9471.56
453.61	10044.81
453.97	10608.97
454.34	11154.03
454.70	11806.79
455.06	12454.95
455.43	13084.41
455.79	13682.23
456.15	14398.67
456.52	15040.35
456.88	15804.33
457.24	16522.05
457.61	17384.12
457.97	18159.70
458.33	18936.74
458.70	19707.33
459.06	20480.37
459.42	21295.06
459.79	22079.33
460.15	22998.55
460.51	23858.51
460.88	24772.37
461.24	25596.29
461.60	26560.40
461.96	27438.12
462.33	28278.00
462.69	29082.00
463.05	29936.39
463.42	30655.70
463.78	31287.79
464.14	31827.52
464.50	32413.26
464.87	32856.86
465.23	33185.85
465.59	33570.00
465.95	33883.21
466.32	34141.63
466.68	34397.00
467.04	34540.69
467.40	34643.37
467.77	34801.50
468.13	34790.07
468.49	34687.14
468.85	34624.53
469.22	34465.75
469.58	34114.74
469.94	33879.21
470.30	33570.00
470.66	33160.66
471.03	32582.39
471.39	32202.49
471.75	31560.04
472.11	30968.66
472.47	30603.93
472.84	30285.08
473.20	29810.19
473.56	29540.18
473.92	29110.67
474.28	28600.50
474.65	28121.93
475.01	27631.31
475.37	27050.51
475.73	26586.33
476.09	26040.85
476.45	25503.06
476.81	24977.99
477.18	24451.72
477.54	23991.36
477.90	23637.80
478.26	23223.08
478.62	22897.58
478.98	22603.12
479.34	22277.99
479.71	21866.67
480.07	21504.73
480.43	21124.46
480.79	20740.87
481.15	20380.66
481.51	20056.87
481.87	19817.04
482.23	19531.82
482.59	19261.32
482.96	18990.83
483.32	18698.00
483.68	18309.50
484.04	17969.95
484.40	17610.89
484.76	17240.27
485.12	16865.46
485.48	16532.28
485.84	16183.17
486.20	15823.24
486.56	15461.09
486.92	15156.84
487.28	14813.09
487.64	14459.38
488.00	14123.28
488.37	13798.11
488.73	13449.19
489.09	13102.41
489.45	12790.42
489.81	12483.06
490.17	12186.56
490.53	11896.03
490.89	11599.84
491.25	11301.49
491.61	10999.21
491.97	10672.47
492.33	10340.46
492.69	10036.12
493.05	9729.84
493.41	9430.35
493.77	9159.05
494.13	8907.63
494.49	8662.39
494.85	8421.11
495.21	8187.57
495.57	7975.82
495.93	7766.04
496.29	7558.06
496.64	7370.82
497.00	7192.19
497.36	6989.05
497.72	6797.38
498.08	6616.06
498.44	6427.25
498.80	6250.70
499.16	6095.01
499.52	5947.68
499.88	5817.26
500.24	5697.26
500.60	5579.91
500.96	5466.11
501.32	5342.83
501.68	5223.54
502.03	5098.83
502.39	4971.98
502.75	4835.57
503.11	4712.04
503.47	4580.83
503.83	4461.86
504.19	4348.83
504.55	4237.91
504.91	4141.69
505.26	4055.21
505.62	3967.25
505.98	3875.74
506.34	3784.79
506.70	3693.34
507.06	3606.48
507.42	3523.28
507.78	3447.87
508.13	3376.62
508.49	3298.35
508.85	3226.59
509.21	3155.79
509.57	3086.09
509.93	3020.67
510.28	2959.68
510.64	2894.31
511.00	2826.55
511.36	2764.62
511.72	2712.38
512.07	2660.88
512.43	2610.94
512.79	2565.16
513.15	2518.37
513.51	2466.15
513.86	2418.29
514.22	2373.40
514.58	2326.70
514.94	2290.00
515.30	2254.68
515.65	2220.44
516.01	2189.92
516.37	2161.18
516.73	2125.56
517.08	2095.32
517.44	2065.38
517.80	2038.72
518.16	2019.11
518.51	1995.21
518.87	1964.69
519.23	1939.91
519.59	1912.22
519.94	1880.11
520.30	1855.41
520.66	1836.27
521.01	1814.41
521.37	1793.11
521.73	1774.01
522.09	1750.95
522.44	1729.70
522.80	1705.34
523.16	1686.96
523.51	1665.10
523.87	1647.88
524.23	1629.04
524.58	1608.81
524.94	1584.61
525.30	1568.58
525.65	1553.18
526.01	1535.58
526.37	1527.76
526.72	1518.89
527.08	1504.99
527.44	1493.05
527.79	1487.78
528.15	1476.64
528.51	1462.34
528.86	1450.99
529.22	1438.66
529.58	1426.86
529.93	1412.19
530.29	1400.25
530.65	1387.73
531.00	1375.84
531.36	1363.83
531.71	1354.33
532.07	1347.33
532.43	1339.79
532.78	1333.29
533.14	1326.90
533.49	1324.39
533.85	1317.96
534.21	1314.77
534.56	1306.93
534.92	1299.51
535.27	1288.84
535.63	1282.64
535.98	1273.11
536.34	1269.60
536.69	1262.60
537.05	1257.41
537.41	1253.92
537.76	1250.13
538.12	1246.08
538.47	1245.47
538.83	1242.08
539.18	1236.67
539.54	1233.13
539.89	1227.56
540.25	1221.83
540.60	1216.75
540.96	1214.48
541.31	1212.14
541.67	1208.09
542.02	1204.91
542.38	1204.02
542.73	1199.92
543.09	1196.06
543.44	1196.46
543.80	1192.99
544.15	1191.31
544.51	1189.62
544.86	1186.79
545.22	1183.30
545.57	1183.33
545.93	1179.98
546.28	1176.96
546.64	1175.09
546.99	1170.76
547.35	1165.91
547.70	1163.01
548.05	1158.99
548.41	1158.66
548.76	1157.77
549.12	1157.09
549.47	1155.27
549.83	1153.81
550.18	1150.75
550.53	1153.30
550.89	1152.36
551.24	1149.02
551.60	1147.14
551.95	1147.94
552.30	1140.64
552.66	1137.38
553.01	1137.36
553.37	1139.23
553.72	1135.86
554.07	1136.07
554.43	1134.95
554.78	1136.45
555.13	1135.77
555.49	1135.53
555.84	1134.15
556.19	1135.18
556.55	1129.71
556.90	1124.53
557.26	1121.05
557.61	1122.40
557.96	1118.80
558.32	1120.13
558.67	1125.14
559.02	1123.39
559.37	1120.44
559.73	1118.61
560.08	1117.93
560.43	1111.54
560.79	1112.74
561.14	1114.75
561.49	1114.49
561.85	1113.67
562.20	1112.53
562.55	1112.85
562.90	1109.30
563.26	1109.02
563.61	1106.84
563.96	1108.08
564.32	1107.33
564.67	1108.29
565.02	1105.53
565.37	1107.59
565.73	1109.53
566.08	1112.39
566.43	1111.29
566.78	1116.11
567.14	1112.46
567.49	1110.91
567.84	1105.69
568.19	1105.86
568.54	1100.92
568.90	1099.86
569.25	1098.20
569.60	1101.92
569.95	1100.12
570.31	1102.58
570.66	1101.95
571.01	1100.19
571.36	1097.83
571.71	1098.67
572.06	1099.09
572.42	1098.20
572.77	1097.80
573.12	1098.46
573.47	1095.91
573.82	1096.82
574.18	1098.20
574.53	1100.29
574.88	1097.29
575.23	1098.32
575.58	1093.78
575.93	1091.51
576.28	1090.64
576.64	1088.51
576.99	1087.81
577.34	1088.58
577.69	1091.23
578.04	1090.34
578.39	1094.88
578.74	1094.79
579.09	1094.97
579.44	1093.47
579.80	1093.92
580.15	1089.94
580.50	1085.91
580.85	1087.69
581.20	1092.12
581.55	1090.92
581.90	1090.92
582.25	1095.96
582.60	1093.36
582.95	1091.79
583.30	1094.25
583.65	1095.72
584.00	1095.30
584.35	1096.17
584.71	1093.40
585.06	1092.49
585.41	1090.01
585.76	1089.85
586.11	1088.28
586.46	1090.06
586.81	1088.96
587.16	1088.51
587.51	1087.13
587.86	1087.37
588.21	1086.52
588.56	1085.05
588.91	1084.84
589.26	1087.90
589.61	1087.32
589.96	1086.97
590.31	1088.21
590.66	1092.00
591.01	1090.76
591.36	1093.36
591.71	1093.17
592.06	1091.23
592.41	1087.34
592.76	1087.81
593.10	1084.56
593.45	1084.42
593.80	1088.28
594.15	1090.95
594.50	1090.43
594.85	1091.81
595.20	1091.11
595.55	1088.47
595.90	1088.42
596.25	1086.55
596.60	1087.02
596.95	1089.31
597.30	1089.45
597.64	1098.93
597.99	1100.17
598.34	1102.65
598.69	1097.97
599.04	1098.51
599.39	1087.88
599.74	1085.14
600.09	1081.75
600.44	1084.32
600.78	1080.93
601.13	1080.70
601.48	1080.98
601.83	1081.49
602.18	1081.07
602.53	1080.37
602.88	1082.54
603.22	1083.74
603.57	1084.14
603.92	1086.52
604.27	1091.13
604.62	1089.07
604.97	1092.77
605.31	1088.84
605.66	1085.28
606.01	1083.67
606.36	1086.10
606.71	1080.44
607.05	1083.15
607.40	1085.75
607.75	1087.20
608.10	1082.66
608.44	1084.79
608.79	1085.99
609.14	1085.19
609.49	1080.93
609.84	1085.17
610.18	1084.18
610.53	1083.46
610.88	1085.26
611.23	1088.51
611.57	1084.77
611.92	1087.65
612.27	1084.56
612.62	1084.79
612.96	1084.49
613.31	1085.33
613.66	1083.25
614.00	1085.14
614.35	1085.19
614.70	1085.17
615.05	1086.10
615.39	1088.49
615.74	1088.47
616.09	1088.93
616.43	1087.48
616.78	1088.89
617.13	1083.48
617.47	1083.27
617.82	1078.38
618.17	1077.18
618.51	1075.22
618.86	1076.06
619.21	1076.53
619.55	1078.61
619.90	1083.01
620.25	1082.10
620.59	1082.80
620.94	1082.36
621.29	1080.70
621.63	1080.58
621.98	1079.20
622.32	1082.29
622.67	1083.90
623.02	1083.06
623.36	1078.94
623.71	1082.01
624.05	1078.61
624.40	1083.27
624.75	1085.40
625.09	1086.83
625.44	1087.06
625.78	1088.23
626.13	1081.42
626.48	1080.32
626.82	1081.94
627.17	1080.13
627.51	1083.93
627.86	1085.03
628.20	1085.96
628.55	1082.69
628.89	1083.57
629.24	1078.68
629.58	1075.15
629.93	1076.48
630.28	1078.68
630.62	1077.79
630.97	1080.60
631.31	1084.79
631.66	1085.14
632.00	1083.90
632.35	1085.40
632.69	1082.57
633.04	1082.29
633.38	1082.17
633.73	1082.73
634.07	1081.73
634.42	1086.20
634.76	1085.26
635.11	1082.59
635.45	1082.71
635.79	1082.05
636.14	1079.90
636.48	1079.29
636.83	1081.35
637.17	1082.38
637.52	1083.62
637.86	1083.53
638.21	1084.72
638.55	1082.50
638.89	1083.08
639.24	1080.13
639.58	1079.88
639.93	1077.14
640.27	1077.23
640.61	1075.64
640.96	1077.49
641.30	1078.89
641.65	1080.39
641.99	1081.94
642.33	1083.57
642.68	1083.55
643.02	1079.17
643.37	1079.99
643.71	1077.82
644.05	1076.01
644.40	1077.58
644.74	1080.23
645.08	1082.85
645.43	1084.84
645.77	1083.74
646.11	1081.77
646.46	1082.10
646.80	1080.53
647.14	1079.01
647.49	1081.26
647.83	1079.88
648.17	1077.98
648.52	1078.05
648.86	1079.60
649.20	1082.01
649.55	1084.91
649.89	1085.38
650.23	1086.06
650.57	1086.59
650.92	1084.77
651.26	1080.13
651.60	1082.52
651.95	1083.71
652.29	1085.40
652.63	1084.23
652.97	1089.80
653.32	1088.63
653.66	1086.66
654.00	1083.64
654.34	1083.29
654.69	1081.63
655.03	1082.03
655.37	1084.63
655.71	1084.77
656.05	1088.77
656.40	1090.55
656.74	1087.34
657.08	1084.35
657.42	1085.35
657.76	1080.51
658.11	1079.74
658.45	1080.79
658.79	1081.09
659.13	1081.66
659.47	1082.12
659.82	1080.23
660.16	1082.38
660.50	1081.26
660.84	1079.38
661.18	1081.70
661.52	1081.07
661.87	1082.57
662.21	1082.05
662.55	1083.32
662.89	1080.53
663.23	1081.21
663.57	1079.85
663.91	1080.25
664.25	1075.85
664.60	1077.93
664.94	1078.68
665.28	1078.26
665.62	1080.51
665.96	1086.20
666.30	1084.09
666.64	1084.98
666.98	1084.72
667.32	1081.47
667.66	1081.49
668.01	1082.12
668.35	1080.04
668.69	1081.42
669.03	1082.94
669.37	1081.07
669.71	1080.44
670.05	1083.86
670.39	1077.75
670.73	1077.28
671.07	1076.18
671.41	1077.37
671.75	1077.98
672.09	1083.46
672.43	1085.61
672.77	1083.60
673.11	1082.31
673.45	1080.20
673.79	1080.60
674.13	1077.25
674.47	1079.36
674.81	1081.40
675.15	1082.76
675.49	1082.12
675.83	1084.02
676.17	1085.59
676.51	1084.93
676.85	1082.26
677.19	1080.65
677.53	1078.43
677.87	1077.54
678.21	1078.64
678.55	1077.96
678.89	1078.00
679.23	1079.48
679.57	1079.48
679.90	1075.10
680.24	1077.04
680.58	1076.55
680.92	1075.22
681.26	1075.64
681.60	1081.89
681.94	1081.28
682.28	1081.84
682.62	1081.58
682.96	1080.06
683.29	1075.36
683.63	1075.31
683.97	1078.31
684.31	1081.21
684.65	1081.96
684.99	1083.67
685.33	1084.81
685.67	1082.69
686.00	1082.92
686.34	1085.14
686.68	1084.58
687.02	1082.29
687.36	1084.46
687.70	1084.77
688.03	1083.90
688.37	1086.80
688.71	1089.89
689.05	1086.92
689.39	1086.76
689.72	1083.76
690.06	1079.83
690.40	1075.90
690.74	1074.12
691.08	1073.18
691.41	1076.65
691.75	1077.28
692.09	1079.67
692.43	1083.22
692.76	1083.67
693.10	1080.20
693.44	1079.67
693.78	1075.94
694.11	1073.18
694.45	1072.85
694.79	1076.25
695.13	1078.66
695.46	1079.34
695.80	1081.28
696.14	1079.41
696.48	1080.95
696.81	1082.15
697.15	1086.80
697.49	1085.96
697.82	1086.20
698.16	1084.39
698.50	1080.41
698.83	1078.59
699.17	1078.54
699.51	1080.77
699.84	1079.88
700.18	1083.69
700.52	1082.66
700.85	1081.89
701.19	1083.95
701.53	1081.77
701.86	1077.58
702.20	1077.96
702.54	1077.86
702.87	1075.73
703.21	1080.88
703.55	1083.22
703.88	1084.58
704.22	1085.82
704.55	1085.00
704.89	1082.92
705.23	1079.29
705.56	1078.10
705.90	1077.68
706.23	1077.51
706.57	1074.91
706.91	1077.25
707.24	1077.42
707.58	1077.02
707.91	1077.93
708.25	1077.23
708.58	1076.58
708.92	1076.01
709.26	1078.17
709.59	1076.27
709.93	1077.25
710.26	1080.46
710.60	1081.21
710.93	1080.44
711.27	1082.66
711.60	1085.40
711.94	1084.74
712.27	1084.72
712.61	1086.17
712.94	1084.67
713.28	1082.33
713.61	1081.58
713.95	1080.65
714.28	1078.57
714.62	1078.80
714.95	1077.84
715.29	1076.60
715.62	1076.18
715.96	1074.59
716.29	1075.71
716.63	1076.06
716.96	1074.33
717.29	1076.81
717.63	1078.47
717.96	1077.23
718.30	1078.00
718.63	1084.63
718.97	1084.65
719.30	1082.71
719.63	1081.87
719.97	1083.08
720.30	1080.06
720.64	1080.72
720.97	1080.95
721.30	1081.89
721.64	1081.42
721.97	1082.83
722.31	1080.65
722.64	1082.50
722.97	1083.81
723.31	1083.11
723.64	1079.76
723.97	1079.62
724.31	1077.70
724.64	1074.70
724.98	1073.21
725.31	1072.90
725.64	1073.56
725.98	1073.70
726.31	1075.31
726.64	1076.08
726.97	1075.69
727.31	1073.02
727.64	1075.57
727.97	1077.11
728.31	1078.45
728.64	1080.67
728.97	1081.33
729.31	1078.82
729.64	1078.26
729.97	1078.26
730.30	1075.78
730.64	1075.73
730.97	1075.41
731.30	1076.30
731.63	1075.78
731.97	1080.51
732.30	1082.73
732.63	1082.15
732.96	1080.58
733.30	1080.02
733.63	1073.72
733.96	1070.91
734.29	1072.43
734.63	1071.90
734.96	1072.85
735.29	1075.83
735.62	1081.07
735.95	1080.04
736.29	1079.71
736.62	1080.81
736.95	1079.85
737.28	1077.68
737.61	1081.14
737.94	1081.44
738.28	1080.70
738.61	1079.71
738.94	1079.10
739.27	1074.84
739.60	1076.46
739.93	1078.43
740.27	1078.85
740.60	1078.17
740.93	1078.26
741.26	1076.23
741.59	1073.39
741.92	1076.18
742.25	1076.23
742.58	1079.43
742.91	1079.20
743.25	1077.18
743.58	1075.10
743.91	1076.44
744.24	1074.49
744.57	1075.69
744.90	1076.51
745.23	1076.46
745.56	1074.12
745.89	1076.74
746.22	1078.17
746.55	1080.60
746.88	1081.91
747.21	1080.88
747.54	1076.72
747.87	1074.63
748.20	1073.32
748.53	1073.21
748.87	1073.79
749.20	1077.44
749.53	1077.18
749.86	1077.79
750.19	1079.69
750.52	1082.33
750.85	1084.04
751.18	1086.08
751.51	1084.65
751.84	1081.33
752.16	1080.30
752.49	1078.24
752.82	1075.64
753.15	1078.33
753.48	1080.74
753.81	1077.51
754.14	1074.91
754.47	1077.58
754.80	1077.84
755.13	1075.92
755.46	1080.16
755.79	1081.28
756.12	1080.34
756.45	1079.55
756.78	1080.70
757.11	1078.80
757.43	1079.36
757.76	1080.34
758.09	1077.02
758.42	1077.58
758.75	1078.12
759.08	1079.41
759.41	1076.62
759.74	1079.81
760.07	1078.61
760.39	1075.71
760.72	1075.34
761.05	1078.28
761.38	1078.05
761.71	1078.10
762.04	1082.24
762.36	1080.91
762.69	1078.36
763.02	1077.79
763.35	1078.07
763.68	1078.28
764.01	1078.03
