SpectraSuite Data File
++++++++++++++++++++++++++++++++++++
Date: Mon Aug 26 10:22:21 PDT 2019
User: corrico
Dark Spectrum Present: No
Reference Spectrum Present: No
Number of Sampled Component Spectra: 1
Spectrometers: USB2+H06089
Integration Time (usec): 2000 (USB2+H06089)
Spectra Averaged: 20 (USB2+H06089)
Boxcar Smoothing: 2 (USB2+H06089)
Correct for Electrical Dark: No (USB2+H06089)
Strobe/Lamp Enabled: No (USB2+H06089)
Correct for Detector Non-linearity: No (USB2+H06089)
Correct for Stray Light: No (USB2+H06089)
Number of Pixels in Processed Spectrum: 2048
>>>>>Begin Processed Spectral Data<<<<<
339.70	1020.36
340.07	1020.36
340.45	992.34
340.82	972.87
341.19	951.73
341.57	925.78
341.94	911.80
342.31	903.28
342.69	896.96
343.06	894.76
343.43	897.85
343.81	899.87
344.18	903.17
344.55	908.27
344.93	911.01
345.30	915.57
345.67	924.14
346.04	931.23
346.42	939.54
346.79	951.05
347.16	957.54
347.54	964.82
347.91	974.08
348.28	979.68
348.65	984.59
349.03	993.18
349.40	1002.40
349.77	1009.82
350.14	1020.73
350.52	1031.57
350.89	1037.77
351.26	1045.70
351.63	1050.10
352.01	1055.63
352.38	1061.15
352.75	1069.18
353.12	1070.40
353.50	1070.91
353.87	1074.89
354.24	1076.23
354.61	1076.46
354.98	1076.88
355.36	1079.71
355.73	1077.44
356.10	1076.37
356.47	1079.85
356.84	1081.30
357.22	1083.08
357.59	1082.90
357.96	1085.07
358.33	1081.63
358.70	1083.11
359.08	1082.83
359.45	1085.21
359.82	1081.80
360.19	1082.59
360.56	1080.63
360.94	1078.26
361.31	1074.84
361.68	1073.95
362.05	1073.30
362.42	1073.86
362.79	1074.91
363.16	1076.11
363.54	1076.18
363.91	1075.10
364.28	1074.28
364.65	1074.73
365.02	1075.76
365.39	1075.31
365.76	1076.32
366.14	1073.09
366.51	1070.72
366.88	1071.12
367.25	1071.54
367.62	1070.37
367.99	1074.00
368.36	1076.46
368.73	1074.12
369.10	1075.62
369.48	1075.24
369.85	1076.27
370.22	1073.86
370.59	1075.92
370.96	1077.82
371.33	1078.28
371.70	1075.92
372.07	1079.34
372.44	1081.37
372.81	1078.17
373.18	1080.77
373.55	1081.70
373.93	1080.60
374.30	1075.08
374.67	1073.93
375.04	1068.48
375.41	1071.33
375.78	1070.35
376.15	1070.37
376.52	1072.46
376.89	1074.89
377.26	1072.50
377.63	1073.56
378.00	1077.35
378.37	1077.54
378.74	1080.86
379.11	1081.77
379.48	1081.84
379.85	1080.84
380.22	1080.09
380.59	1078.92
380.96	1077.40
381.33	1077.93
381.70	1079.85
382.07	1080.27
382.44	1078.64
382.81	1077.28
383.18	1077.82
383.55	1075.50
383.92	1074.42
384.29	1076.69
384.66	1078.66
385.03	1077.93
385.40	1077.47
385.77	1080.34
386.14	1080.91
386.51	1081.84
386.88	1082.33
387.25	1084.35
387.62	1083.04
387.99	1084.28
388.36	1088.00
388.73	1091.04
389.10	1091.34
389.46	1093.73
389.83	1092.00
390.20	1088.35
390.57	1086.62
390.94	1086.48
391.31	1085.28
391.68	1088.00
392.05	1087.51
392.42	1087.30
392.79	1087.60
393.16	1086.10
393.53	1081.54
393.89	1082.40
394.26	1082.57
394.63	1084.07
395.00	1087.34
395.37	1090.15
395.74	1089.33
396.11	1086.64
396.48	1085.82
396.84	1085.54
397.21	1085.77
397.58	1087.41
397.95	1091.46
398.32	1093.12
398.69	1088.58
399.06	1086.50
399.42	1086.50
399.79	1081.66
400.16	1077.68
400.53	1081.75
400.90	1083.57
401.27	1085.77
401.64	1089.24
402.00	1092.16
402.37	1088.42
402.74	1089.12
403.11	1086.78
403.48	1083.36
403.84	1079.76
404.21	1086.45
404.58	1087.72
404.95	1088.54
405.32	1092.19
405.68	1096.07
406.05	1090.85
406.42	1087.58
406.79	1085.80
407.16	1087.79
407.52	1089.26
407.89	1092.21
408.26	1091.72
408.63	1095.30
408.99	1096.61
409.36	1094.18
409.73	1094.29
410.10	1095.14
410.47	1091.30
410.83	1091.04
411.20	1092.26
411.57	1090.36
411.94	1093.97
412.30	1099.21
412.67	1098.23
413.04	1098.11
413.40	1100.82
413.77	1097.59
414.14	1093.78
414.51	1093.45
414.87	1094.20
415.24	1092.80
415.61	1099.33
415.97	1102.37
416.34	1102.37
416.71	1099.05
417.08	1101.97
417.44	1100.38
417.81	1097.55
418.18	1100.29
418.54	1101.64
418.91	1104.78
419.28	1104.55
419.64	1109.09
420.01	1110.65
420.38	1116.72
420.74	1115.48
421.11	1117.07
421.48	1117.96
421.84	1115.55
422.21	1119.24
422.58	1119.99
422.94	1122.17
423.31	1126.48
423.68	1132.91
424.04	1132.68
424.41	1137.22
424.77	1140.94
425.14	1143.66
425.51	1145.11
425.87	1149.81
426.24	1155.12
426.61	1159.29
426.97	1164.00
427.34	1172.02
427.70	1179.47
428.07	1185.67
428.44	1191.22
428.80	1198.14
429.17	1204.32
429.53	1211.18
429.90	1217.31
430.27	1229.72
430.63	1240.04
431.00	1250.34
431.36	1264.29
431.73	1280.44
432.09	1296.42
432.46	1311.66
432.83	1326.55
433.19	1341.24
433.56	1355.97
433.92	1372.91
434.29	1393.63
434.65	1417.92
435.02	1443.74
435.38	1471.19
435.75	1495.51
436.11	1522.94
436.48	1557.58
436.84	1589.06
437.21	1625.57
437.57	1667.56
437.94	1709.90
438.30	1753.23
438.67	1799.94
439.03	1850.99
439.40	1903.67
439.76	1959.33
440.13	2019.79
440.49	2086.00
440.86	2148.85
441.22	2221.68
441.59	2296.63
441.95	2377.33
442.32	2464.23
442.68	2564.36
443.05	2656.13
443.41	2757.78
443.78	2859.69
444.14	2966.96
444.51	3077.62
444.87	3221.28
445.24	3364.73
445.60	3515.65
445.96	3670.69
446.33	3843.28
446.69	4003.60
447.06	4175.98
447.42	4358.71
447.79	4547.10
448.15	4772.21
448.51	4999.62
448.88	5266.14
449.24	5518.47
449.61	5806.35
449.97	6071.02
450.33	6365.25
450.70	6623.62
451.06	6945.82
451.43	7249.13
451.79	7614.82
452.15	8006.90
452.52	8458.09
452.88	8938.81
453.24	9479.75
453.61	10063.44
453.97	10643.66
454.34	11203.98
454.70	11848.19
455.06	12495.58
455.43	13125.93
455.79	13735.32
456.15	14458.82
456.52	15119.46
456.88	15894.04
457.24	16623.47
457.61	17470.67
457.97	18254.26
458.33	19036.91
458.70	19802.03
459.06	20579.51
459.42	21413.40
459.79	22201.25
460.15	23126.34
460.51	24007.86
460.88	24941.83
461.24	25760.94
461.60	26722.53
461.96	27606.81
462.33	28471.42
462.69	29273.22
463.05	30149.19
463.42	30883.81
463.78	31532.68
464.14	32048.84
464.50	32634.25
464.87	33073.01
465.23	33408.17
465.59	33754.50
465.95	34083.98
466.32	34350.90
466.68	34618.54
467.04	34768.94
467.40	34924.16
467.77	35104.13
468.13	35073.42
468.49	34959.44
468.85	34886.81
469.22	34706.63
469.58	34354.38
469.94	34121.71
470.30	33818.24
470.66	33401.79
471.03	32824.84
471.39	32434.11
471.75	31799.48
472.11	31204.54
472.47	30870.00
472.84	30549.35
473.20	30064.13
473.56	29803.96
473.92	29372.20
474.28	28826.76
474.65	28329.70
475.01	27847.44
475.37	27283.39
475.73	26829.09
476.09	26321.71
476.45	25813.98
476.81	25299.11
477.18	24759.15
477.54	24296.21
477.90	23936.68
478.26	23494.16
478.62	23140.50
478.98	22834.78
479.34	22515.42
479.71	22081.76
480.07	21736.37
480.43	21373.07
480.79	20969.42
481.15	20612.84
481.51	20295.32
481.87	20044.65
482.23	19744.08
482.59	19499.94
482.96	19228.65
483.32	18942.75
483.68	18551.55
484.04	18219.74
484.40	17848.32
484.76	17453.87
485.12	17073.65
485.48	16756.29
485.84	16394.19
486.20	16036.48
486.56	15665.04
486.92	15359.81
487.28	15003.49
487.64	14645.90
488.00	14321.90
488.37	13992.28
488.73	13626.06
489.09	13264.49
489.45	12949.67
489.81	12618.67
490.17	12331.65
490.53	12045.29
490.89	11745.70
491.25	11426.73
491.61	11110.43
491.97	10772.50
492.33	10438.11
492.69	10143.86
493.05	9843.08
493.41	9553.74
493.77	9287.04
494.13	9027.21
494.49	8775.02
494.85	8534.60
495.21	8302.28
495.57	8076.74
495.93	7852.26
496.29	7635.69
496.64	7445.92
497.00	7260.44
497.36	7065.61
497.72	6875.96
498.08	6693.65
498.44	6505.99
498.80	6328.32
499.16	6165.11
499.52	6020.33
499.88	5889.16
500.24	5770.61
500.60	5653.40
500.96	5533.10
501.32	5411.79
501.68	5281.89
502.03	5147.59
502.39	5015.39
502.75	4878.66
503.11	4747.33
503.47	4626.93
503.83	4506.65
504.19	4385.39
504.55	4279.32
504.91	4179.61
505.26	4085.24
505.62	4001.15
505.98	3914.66
506.34	3826.26
506.70	3733.93
507.06	3647.77
507.42	3557.61
507.78	3477.17
508.13	3403.79
508.49	3329.62
508.85	3256.81
509.21	3184.18
509.57	3112.40
509.93	3043.21
510.28	2977.11
510.64	2908.51
511.00	2847.75
511.36	2789.71
511.72	2733.21
512.07	2679.75
512.43	2629.94
512.79	2577.89
513.15	2534.43
513.51	2483.78
513.86	2439.70
514.22	2401.90
514.58	2360.08
514.94	2317.18
515.30	2282.30
515.65	2242.84
516.01	2203.73
516.37	2176.07
516.73	2146.39
517.08	2114.28
517.44	2087.31
517.80	2060.14
518.16	2031.77
518.51	2005.39
518.87	1975.20
519.23	1950.09
519.59	1925.09
519.94	1896.61
520.30	1869.25
520.66	1849.47
521.01	1825.88
521.37	1802.59
521.73	1778.95
522.09	1756.15
522.44	1733.89
522.80	1711.19
523.16	1691.88
523.51	1671.31
523.87	1652.16
524.23	1633.30
524.58	1613.03
524.94	1596.41
525.30	1586.16
525.65	1573.10
526.01	1561.79
526.37	1550.56
526.72	1536.77
527.08	1519.24
527.44	1501.90
527.79	1487.25
528.15	1473.20
528.51	1458.27
528.86	1446.64
529.22	1436.97
529.58	1421.15
529.93	1410.08
530.29	1401.35
530.65	1396.32
531.00	1383.19
531.36	1378.97
531.71	1372.00
532.07	1362.96
532.43	1349.44
532.78	1345.13
533.14	1333.12
533.49	1322.33
533.85	1312.78
534.21	1308.55
534.56	1304.36
534.92	1299.75
535.27	1297.57
535.63	1293.61
535.98	1285.68
536.34	1279.27
536.69	1275.47
537.05	1267.68
537.41	1260.52
537.76	1254.83
538.12	1248.14
538.47	1245.40
538.83	1242.36
539.18	1239.41
539.54	1235.12
539.89	1230.19
540.25	1223.14
540.60	1220.75
540.96	1218.62
541.31	1211.32
541.67	1207.93
542.02	1202.64
542.38	1196.46
542.73	1190.75
543.09	1194.21
543.44	1193.95
543.80	1189.58
544.15	1187.52
544.51	1184.05
544.86	1179.51
545.22	1174.34
545.57	1176.49
545.93	1173.17
546.28	1172.42
546.64	1169.96
546.99	1168.89
547.35	1166.10
547.70	1165.52
548.05	1164.95
548.41	1162.66
548.76	1162.61
549.12	1161.51
549.47	1156.44
549.83	1152.34
550.18	1153.16
550.53	1145.04
550.89	1139.96
551.24	1139.82
551.60	1133.99
551.95	1129.66
552.30	1133.12
552.66	1135.77
553.01	1134.50
553.37	1138.74
553.72	1137.55
554.07	1140.45
554.43	1135.30
554.78	1131.34
555.13	1127.51
555.49	1125.91
555.84	1118.71
556.19	1119.15
556.55	1120.91
556.90	1119.74
557.26	1120.51
557.61	1120.44
557.96	1119.50
558.32	1118.50
558.67	1118.80
559.02	1117.93
559.37	1116.44
559.73	1115.17
560.08	1113.72
560.43	1113.72
560.79	1114.47
561.14	1114.12
561.49	1112.88
561.85	1111.92
562.20	1111.87
562.55	1105.97
562.90	1106.18
563.26	1108.36
563.61	1107.17
563.96	1107.45
564.32	1111.45
564.67	1111.59
565.02	1106.51
565.37	1107.99
565.73	1104.71
566.08	1100.26
566.43	1098.93
566.78	1102.21
567.14	1104.26
567.49	1105.39
567.84	1108.99
568.19	1108.03
568.54	1107.42
568.90	1102.39
569.25	1102.35
569.60	1098.79
569.95	1098.72
570.31	1098.72
570.66	1099.07
571.01	1098.13
571.36	1099.42
571.71	1098.46
572.06	1098.62
572.42	1097.83
572.77	1097.52
573.12	1097.76
573.47	1097.66
573.82	1092.84
574.18	1095.35
574.53	1092.66
574.88	1091.95
575.23	1092.40
575.58	1094.74
575.93	1095.49
576.28	1096.52
576.64	1095.14
576.99	1094.79
577.34	1091.72
577.69	1088.35
578.04	1087.32
578.39	1088.54
578.74	1087.76
579.09	1091.20
579.44	1089.89
579.80	1090.97
580.15	1090.29
580.50	1092.52
580.85	1091.02
581.20	1092.87
581.55	1091.13
581.90	1091.39
582.25	1090.06
582.60	1089.17
582.95	1088.40
583.30	1090.24
583.65	1089.10
584.00	1088.37
584.35	1089.96
584.71	1088.42
585.06	1087.20
585.41	1086.41
585.76	1086.43
586.11	1083.90
586.46	1086.17
586.81	1088.96
587.16	1087.76
587.51	1087.48
587.86	1091.11
588.21	1090.92
588.56	1091.46
588.91	1094.88
589.26	1091.81
589.61	1092.75
589.96	1093.71
590.31	1089.94
590.66	1088.49
591.01	1091.04
591.36	1089.31
591.71	1089.80
592.06	1088.00
592.41	1089.12
592.76	1091.06
593.10	1088.07
593.45	1087.65
593.80	1088.51
594.15	1088.30
594.50	1087.18
594.85	1090.22
595.20	1090.67
595.55	1091.25
595.90	1091.32
596.25	1089.10
596.60	1085.82
596.95	1082.47
597.30	1082.94
597.64	1089.94
597.99	1090.20
598.34	1092.68
598.69	1091.98
599.04	1095.00
599.39	1084.56
599.74	1085.56
600.09	1084.98
600.44	1087.58
600.78	1086.92
601.13	1089.03
601.48	1089.14
601.83	1092.16
602.18	1089.36
602.53	1086.85
602.88	1083.01
603.22	1079.99
603.57	1075.69
603.92	1079.15
604.27	1078.73
604.62	1082.47
604.97	1083.64
605.31	1082.47
605.66	1078.99
606.01	1079.01
606.36	1077.75
606.71	1078.57
607.05	1080.84
607.40	1083.32
607.75	1079.67
608.10	1080.98
608.44	1082.69
608.79	1083.18
609.14	1081.87
609.49	1084.16
609.84	1082.80
610.18	1082.94
610.53	1080.88
610.88	1084.60
611.23	1085.82
611.57	1087.67
611.92	1087.27
612.27	1088.14
612.62	1084.23
612.96	1084.70
613.31	1082.43
613.66	1081.28
614.00	1080.65
614.35	1081.37
614.70	1078.43
615.05	1078.68
615.39	1078.92
615.74	1079.36
616.09	1080.41
616.43	1082.43
616.78	1081.19
617.13	1082.15
617.47	1082.17
617.82	1080.74
618.17	1081.12
618.51	1085.66
618.86	1083.43
619.21	1083.86
619.55	1086.36
619.90	1088.98
620.25	1084.23
620.59	1085.56
620.94	1087.51
621.29	1085.52
621.63	1085.17
621.98	1087.23
622.32	1086.87
622.67	1087.65
623.02	1087.20
623.36	1086.13
623.71	1086.43
624.05	1086.83
624.40	1082.50
624.75	1081.91
625.09	1081.35
625.44	1080.34
625.78	1080.23
626.13	1083.74
626.48	1081.09
626.82	1079.78
627.17	1079.55
627.51	1074.94
627.86	1072.67
628.20	1076.23
628.55	1076.25
628.89	1078.43
629.24	1083.55
629.58	1084.67
629.93	1082.24
630.28	1082.66
630.62	1082.15
630.97	1082.57
631.31	1082.80
631.66	1084.02
632.00	1083.93
632.35	1080.84
632.69	1081.49
633.04	1082.43
633.38	1085.33
633.73	1084.70
634.07	1090.39
634.42	1088.56
634.76	1087.37
635.11	1084.96
635.45	1086.01
635.79	1080.39
636.14	1079.43
636.48	1078.54
636.83	1078.43
637.17	1078.14
637.52	1083.71
637.86	1084.44
638.21	1085.38
638.55	1085.05
638.89	1085.21
639.24	1082.66
639.58	1078.92
639.93	1078.26
640.27	1079.15
640.61	1078.73
640.96	1077.14
641.30	1081.56
641.65	1082.05
641.99	1082.03
642.33	1083.04
642.68	1084.35
643.02	1082.36
643.37	1082.61
643.71	1082.50
644.05	1081.98
644.40	1079.97
644.74	1080.67
645.08	1077.61
645.43	1079.69
645.77	1080.23
646.11	1082.52
646.46	1081.98
646.80	1085.24
647.14	1086.57
647.49	1089.03
647.83	1088.51
648.17	1091.06
648.52	1091.09
648.86	1086.71
649.20	1083.62
649.55	1083.67
649.89	1081.89
650.23	1078.33
650.57	1080.74
650.92	1079.17
651.26	1079.57
651.60	1079.48
651.95	1080.04
652.29	1078.40
652.63	1080.65
652.97	1077.42
653.32	1076.62
653.66	1075.94
654.00	1074.87
654.34	1071.47
654.69	1073.98
655.03	1072.78
655.37	1075.85
655.71	1081.37
656.05	1084.18
656.40	1084.67
656.74	1083.57
657.08	1083.43
657.42	1078.47
657.76	1077.72
658.11	1078.38
658.45	1081.80
658.79	1082.66
659.13	1085.33
659.47	1086.76
659.82	1083.04
660.16	1082.73
660.50	1084.25
660.84	1082.50
661.18	1082.22
661.52	1085.63
661.87	1087.60
662.21	1084.09
662.55	1083.01
662.89	1083.74
663.23	1081.30
663.57	1079.67
663.91	1080.63
664.25	1081.75
664.60	1078.50
664.94	1080.23
665.28	1076.93
665.62	1074.21
665.96	1073.18
666.30	1073.81
666.64	1075.34
666.98	1076.18
667.32	1077.75
667.66	1076.97
668.01	1077.65
668.35	1075.76
668.69	1076.30
669.03	1078.10
669.37	1076.95
669.71	1077.65
670.05	1076.34
670.39	1076.23
670.73	1075.45
671.07	1077.21
671.41	1077.30
671.75	1075.83
672.09	1078.50
672.43	1077.04
672.77	1077.02
673.11	1078.19
673.45	1078.54
673.79	1077.77
674.13	1078.33
674.47	1078.54
674.81	1076.18
675.15	1079.22
675.49	1078.12
675.83	1078.52
676.17	1077.89
676.51	1077.72
676.85	1075.90
677.19	1073.72
677.53	1073.91
677.87	1074.84
678.21	1074.63
678.55	1076.32
678.89	1080.30
679.23	1077.40
679.57	1077.84
679.90	1078.43
680.24	1077.77
680.58	1077.35
680.92	1081.37
681.26	1082.15
681.60	1082.03
681.94	1083.62
682.28	1085.66
682.62	1085.26
682.96	1083.64
683.29	1085.33
683.63	1081.49
683.97	1078.75
684.31	1081.07
684.65	1082.36
684.99	1083.48
685.33	1086.41
685.67	1087.51
686.00	1084.65
686.34	1082.45
686.68	1080.13
687.02	1080.70
687.36	1081.84
687.70	1080.93
688.03	1080.84
688.37	1080.04
688.71	1079.85
689.05	1078.33
689.39	1078.68
689.72	1079.67
690.06	1080.16
690.40	1079.17
690.74	1080.02
691.08	1078.78
691.41	1076.30
691.75	1075.29
692.09	1074.87
692.43	1073.32
692.76	1075.34
693.10	1079.03
693.44	1080.25
693.78	1080.25
694.11	1080.16
694.45	1077.37
694.79	1079.34
695.13	1080.11
695.46	1082.50
695.80	1083.27
696.14	1086.55
696.48	1083.62
696.81	1085.59
697.15	1083.76
697.49	1081.44
697.82	1079.64
698.16	1079.22
698.50	1078.21
698.83	1077.98
699.17	1077.21
699.51	1075.17
699.84	1077.47
700.18	1075.45
700.52	1075.85
700.85	1078.10
701.19	1079.22
701.53	1078.89
701.86	1081.33
702.20	1080.65
702.54	1079.53
702.87	1080.81
703.21	1081.30
703.55	1081.00
703.88	1080.72
704.22	1080.27
704.55	1082.03
704.89	1079.17
705.23	1076.65
705.56	1077.63
705.90	1077.14
706.23	1074.49
706.57	1074.05
706.91	1074.52
707.24	1074.38
707.58	1077.02
707.91	1077.89
708.25	1077.00
708.58	1076.88
708.92	1077.30
709.26	1079.90
709.59	1079.03
709.93	1080.84
710.26	1081.33
710.60	1080.04
710.93	1074.77
711.27	1075.03
711.60	1074.56
711.94	1076.41
712.27	1074.38
712.61	1077.79
712.94	1081.98
713.28	1083.25
713.61	1082.52
713.95	1085.68
714.28	1086.15
714.62	1080.32
714.95	1081.02
715.29	1081.89
715.62	1082.38
715.96	1079.95
716.29	1080.13
716.63	1079.15
716.96	1079.62
717.29	1079.85
717.63	1081.77
717.96	1086.83
718.30	1085.47
718.63	1082.54
718.97	1079.27
719.30	1078.92
719.63	1077.75
719.97	1078.54
720.30	1078.40
720.64	1077.65
720.97	1075.05
721.30	1074.98
721.64	1078.40
721.97	1079.29
722.31	1083.20
722.64	1085.40
722.97	1081.51
723.31	1079.69
723.64	1081.96
723.97	1082.01
724.31	1080.86
724.64	1082.59
724.98	1082.08
725.31	1079.76
725.64	1077.75
725.98	1079.03
726.31	1080.58
726.64	1079.24
726.97	1079.24
727.31	1077.23
727.64	1077.58
727.97	1075.24
728.31	1073.74
728.64	1076.11
728.97	1077.68
729.31	1076.69
729.64	1080.32
729.97	1083.01
730.30	1080.79
730.64	1083.27
730.97	1083.76
731.30	1079.81
731.63	1077.40
731.97	1079.08
732.30	1078.14
732.63	1077.09
732.96	1076.23
733.30	1078.12
733.63	1076.39
733.96	1075.43
734.29	1076.20
734.63	1079.88
734.96	1079.92
735.29	1077.61
735.62	1080.88
735.95	1082.12
736.29	1081.94
736.62	1080.88
736.95	1082.43
737.28	1080.44
737.61	1079.60
737.94	1077.14
738.28	1080.20
738.61	1080.74
738.94	1080.86
739.27	1079.71
739.60	1079.85
739.93	1079.85
740.27	1079.78
740.60	1079.27
740.93	1080.65
741.26	1082.17
741.59	1080.06
741.92	1078.36
742.25	1078.28
742.58	1075.38
742.91	1074.45
743.25	1072.60
743.58	1075.66
743.91	1075.90
744.24	1076.20
744.57	1080.23
744.90	1084.67
745.23	1084.51
745.56	1085.77
745.89	1085.31
746.22	1081.35
746.55	1080.23
746.88	1080.11
747.21	1076.32
747.54	1076.62
747.87	1075.13
748.20	1071.40
748.53	1071.47
748.87	1074.26
749.20	1078.07
749.53	1079.74
749.86	1081.80
750.19	1079.13
750.52	1080.23
750.85	1079.34
751.18	1078.14
751.51	1080.09
751.84	1079.10
752.16	1076.67
752.49	1074.38
752.82	1076.32
753.15	1076.72
753.48	1078.82
753.81	1078.19
754.14	1081.28
754.47	1082.36
754.80	1082.73
755.13	1082.19
755.46	1081.94
755.79	1079.78
756.12	1079.17
756.45	1077.42
756.78	1078.10
757.11	1080.86
757.43	1079.55
757.76	1078.03
758.09	1078.61
758.42	1081.26
758.75	1081.94
759.08	1083.74
759.41	1086.15
759.74	1084.67
760.07	1080.30
760.39	1078.10
760.72	1081.26
761.05	1081.73
761.38	1080.13
761.71	1081.23
762.04	1083.93
762.36	1080.46
762.69	1075.22
763.02	1073.18
763.35	1071.19
763.68	1067.12
764.01	1064.87
