SpectraSuite Data File
++++++++++++++++++++++++++++++++++++
Date: Mon Aug 26 10:21:59 PDT 2019
User: corrico
Dark Spectrum Present: No
Reference Spectrum Present: No
Number of Sampled Component Spectra: 1
Spectrometers: USB2+H06089
Integration Time (usec): 2000 (USB2+H06089)
Spectra Averaged: 20 (USB2+H06089)
Boxcar Smoothing: 2 (USB2+H06089)
Correct for Electrical Dark: No (USB2+H06089)
Strobe/Lamp Enabled: No (USB2+H06089)
Correct for Detector Non-linearity: No (USB2+H06089)
Correct for Stray Light: No (USB2+H06089)
Number of Pixels in Processed Spectrum: 2048
>>>>>Begin Processed Spectral Data<<<<<
339.70	1017.31
340.07	1017.31
340.45	986.14
340.82	967.39
341.19	945.67
341.57	920.44
341.94	908.01
342.31	902.58
342.69	894.72
343.06	895.00
343.43	895.72
343.81	897.83
344.18	901.81
344.55	905.65
344.93	909.79
345.30	917.72
345.67	924.28
346.04	931.44
346.42	942.91
346.79	948.53
347.16	951.66
347.54	962.97
347.91	971.18
348.28	979.58
348.65	989.63
349.03	1003.48
349.40	1010.53
349.77	1017.74
350.14	1023.40
350.52	1029.88
350.89	1034.59
351.26	1041.98
351.63	1047.20
352.01	1053.26
352.38	1058.98
352.75	1063.68
353.12	1063.14
353.50	1064.45
353.87	1067.71
354.24	1068.90
354.61	1070.30
354.98	1071.57
355.36	1073.23
355.73	1073.16
356.10	1074.91
356.47	1078.24
356.84	1081.94
357.22	1082.71
357.59	1082.40
357.96	1084.30
358.33	1081.05
358.70	1078.54
359.08	1077.14
359.45	1077.70
359.82	1075.50
360.19	1078.10
360.56	1081.02
360.94	1081.16
361.31	1080.91
361.68	1078.19
362.05	1075.29
362.42	1070.09
362.79	1069.88
363.16	1067.80
363.54	1067.87
363.91	1068.45
364.28	1070.80
364.65	1071.59
365.02	1070.91
365.39	1069.34
365.76	1068.62
366.14	1068.59
366.51	1070.05
366.88	1071.94
367.25	1074.82
367.62	1074.77
367.99	1073.95
368.36	1072.13
368.73	1072.57
369.10	1070.30
369.48	1070.56
369.85	1066.35
370.22	1065.93
370.59	1064.34
370.96	1064.22
371.33	1065.81
371.70	1068.52
372.07	1067.42
372.44	1068.41
372.81	1070.19
373.18	1068.15
373.55	1070.42
373.93	1073.35
374.30	1072.67
374.67	1073.32
375.04	1072.67
375.41	1070.26
375.78	1066.58
376.15	1067.96
376.52	1068.52
376.89	1070.02
377.26	1073.72
377.63	1076.48
378.00	1075.71
378.37	1075.55
378.74	1076.62
379.11	1077.79
379.48	1078.71
379.85	1081.30
380.22	1081.09
380.59	1080.30
380.96	1076.53
381.33	1075.83
381.70	1072.36
382.07	1071.19
382.44	1072.25
382.81	1075.20
383.18	1075.41
383.55	1078.40
383.92	1080.32
384.29	1076.74
384.66	1073.74
385.03	1074.42
385.40	1070.44
385.77	1070.94
386.14	1073.32
386.51	1074.91
386.88	1077.91
387.25	1081.89
387.62	1081.28
387.99	1081.47
388.36	1079.03
388.73	1076.18
389.10	1076.27
389.46	1074.03
389.83	1076.90
390.20	1081.19
390.57	1078.66
390.94	1075.66
391.31	1075.73
391.68	1076.95
392.05	1075.24
392.42	1078.50
392.79	1080.91
393.16	1083.97
393.53	1081.00
393.89	1080.98
394.26	1079.48
394.63	1079.01
395.00	1077.82
395.37	1077.54
395.74	1076.93
396.11	1080.81
396.48	1082.64
396.84	1083.06
397.21	1084.37
397.58	1085.12
397.95	1080.51
398.32	1078.33
398.69	1076.90
399.06	1072.22
399.42	1077.33
399.79	1079.36
400.16	1077.14
400.53	1075.94
400.90	1078.21
401.27	1074.59
401.64	1076.41
402.00	1076.41
402.37	1079.31
402.74	1080.44
403.11	1079.64
403.48	1075.73
403.84	1078.12
404.21	1078.00
404.58	1079.83
404.95	1080.23
405.32	1085.21
405.68	1083.62
406.05	1080.72
406.42	1080.23
406.79	1078.28
407.16	1076.06
407.52	1079.85
407.89	1081.07
408.26	1076.88
408.63	1077.93
408.99	1075.17
409.36	1073.09
409.73	1076.23
410.10	1082.10
410.47	1084.04
410.83	1087.20
411.20	1088.98
411.57	1091.20
411.94	1089.31
412.30	1088.28
412.67	1087.53
413.04	1088.72
413.40	1085.66
413.77	1084.79
414.14	1085.63
414.51	1091.65
414.87	1092.73
415.24	1092.98
415.61	1096.75
415.97	1097.85
416.34	1095.14
416.71	1095.93
417.08	1094.57
417.44	1090.78
417.81	1087.93
418.18	1084.56
418.54	1082.90
418.91	1089.78
419.28	1094.36
419.64	1101.18
420.01	1105.18
420.38	1108.57
420.74	1103.82
421.11	1099.93
421.48	1095.39
421.84	1093.43
422.21	1091.72
422.58	1094.04
422.94	1097.80
423.31	1100.43
423.68	1102.79
424.04	1105.65
424.41	1107.59
424.77	1110.28
425.14	1113.58
425.51	1117.07
425.87	1118.99
426.24	1123.39
426.61	1125.21
426.97	1128.65
427.34	1131.56
427.70	1133.66
428.07	1137.31
428.44	1144.71
428.80	1147.21
429.17	1152.62
429.53	1156.15
429.90	1161.54
430.27	1167.51
430.63	1178.90
431.00	1185.01
431.36	1195.97
431.73	1203.15
432.09	1209.75
432.46	1212.98
432.83	1224.29
433.19	1233.60
433.56	1243.57
433.92	1254.57
434.29	1273.46
434.65	1284.42
435.02	1298.44
435.38	1314.70
435.75	1334.29
436.11	1350.84
436.48	1372.30
436.84	1394.58
437.21	1416.49
437.57	1434.61
437.94	1455.81
438.30	1479.97
438.67	1504.66
439.03	1535.09
439.40	1568.35
439.76	1602.73
440.13	1645.07
440.49	1695.18
440.86	1733.99
441.22	1777.00
441.59	1821.31
441.95	1869.99
442.32	1915.00
442.68	1974.15
443.05	2036.43
443.41	2100.68
443.78	2168.90
444.14	2237.88
444.51	2302.17
444.87	2379.08
445.24	2458.38
445.60	2539.25
445.96	2624.75
446.33	2727.82
446.69	2828.82
447.06	2930.40
447.42	3035.09
447.79	3153.08
448.15	3281.20
448.51	3407.02
448.88	3553.59
449.24	3693.25
449.61	3857.60
449.97	4025.77
450.33	4212.59
450.70	4392.93
451.06	4590.77
451.43	4764.53
451.79	4970.34
452.15	5182.44
452.52	5420.91
452.88	5691.39
453.24	6001.30
453.61	6333.26
453.97	6663.58
454.34	6984.67
454.70	7332.55
455.06	7677.21
455.43	7994.66
455.79	8297.88
456.15	8657.20
456.52	8994.56
456.88	9408.25
457.24	9853.05
457.61	10410.54
457.97	10928.83
458.33	11470.87
458.70	11993.93
459.06	12474.33
459.42	12972.61
459.79	13426.32
460.15	13927.83
460.51	14366.93
460.88	14847.70
461.24	15253.81
461.60	15748.32
461.96	16186.68
462.33	16620.82
462.69	17044.76
463.05	17521.16
463.42	17979.36
463.78	18389.00
464.14	18762.83
464.50	19181.35
464.87	19518.48
465.23	19745.51
465.59	20022.65
465.95	20260.75
466.32	20410.08
466.68	20529.12
467.04	20622.67
467.40	20635.40
467.77	20670.51
468.13	20609.24
468.49	20469.53
468.85	20345.18
469.22	20240.72
469.58	20077.42
469.94	19963.04
470.30	19819.16
470.66	19598.45
471.03	19262.14
471.39	18966.44
471.75	18566.98
472.11	18214.28
472.47	17961.48
472.84	17733.09
473.20	17429.85
473.56	17220.44
473.92	16881.79
474.28	16508.50
474.65	16159.29
475.01	15840.28
475.37	15463.99
475.73	15200.05
476.09	14923.33
476.45	14667.06
476.81	14428.16
477.18	14201.39
477.54	14011.73
477.90	13847.48
478.26	13642.12
478.62	13456.23
478.98	13307.51
479.34	13161.93
479.71	12967.15
480.07	12776.28
480.43	12571.84
480.79	12320.37
481.15	12029.00
481.51	11802.53
481.87	11614.07
482.23	11411.21
482.59	11236.40
482.96	11089.43
483.32	10927.26
483.68	10743.71
484.04	10572.57
484.40	10402.96
484.76	10210.05
485.12	10026.48
485.48	9847.59
485.84	9684.36
486.20	9509.03
486.56	9342.72
486.92	9169.66
487.28	8984.94
487.64	8783.75
488.00	8606.85
488.37	8424.55
488.73	8236.77
489.09	8053.39
489.45	7877.70
489.81	7684.10
490.17	7484.52
490.53	7279.98
490.89	7058.40
491.25	6844.15
491.61	6640.10
491.97	6454.03
492.33	6286.26
492.69	6139.37
493.05	5996.62
493.41	5866.30
493.77	5739.63
494.13	5609.94
494.49	5485.56
494.85	5356.13
495.21	5234.51
495.57	5110.51
495.93	4980.80
496.29	4854.69
496.64	4736.66
497.00	4612.07
497.36	4501.25
497.72	4398.83
498.08	4311.73
498.44	4234.03
498.80	4153.84
499.16	4053.13
499.52	3948.65
499.88	3840.44
500.24	3724.47
500.60	3625.40
500.96	3541.98
501.32	3467.69
501.68	3396.26
502.03	3330.32
502.39	3260.58
502.75	3197.99
503.11	3141.79
503.47	3089.69
503.83	3031.86
504.19	2973.14
504.55	2922.60
504.91	2868.00
505.26	2806.35
505.62	2748.02
505.98	2695.52
506.34	2633.24
506.70	2574.59
507.06	2516.94
507.42	2468.54
507.78	2417.70
508.13	2374.12
508.49	2330.82
508.85	2295.90
509.21	2259.39
509.57	2225.64
509.93	2190.06
510.28	2155.84
510.64	2120.01
511.00	2084.32
511.36	2049.30
511.72	2019.98
512.07	1988.47
512.43	1961.42
512.79	1933.26
513.15	1905.27
513.51	1873.55
513.86	1850.45
514.22	1827.23
514.58	1804.58
514.94	1781.73
515.30	1760.25
515.65	1738.34
516.01	1719.94
516.37	1699.42
516.73	1683.24
517.08	1669.11
517.44	1653.12
517.80	1629.20
518.16	1608.95
518.51	1590.51
518.87	1572.16
519.23	1556.88
519.59	1547.49
519.94	1538.55
520.30	1525.07
520.66	1512.31
521.01	1496.40
521.37	1478.77
521.73	1460.94
522.09	1445.80
522.44	1433.30
522.80	1420.61
523.16	1411.13
523.51	1402.68
523.87	1394.26
524.23	1386.02
524.58	1376.19
524.94	1370.90
525.30	1362.14
525.65	1350.72
526.01	1341.50
526.37	1336.24
526.72	1323.43
527.08	1315.05
527.44	1310.49
527.79	1304.10
528.15	1294.20
528.51	1288.75
528.86	1282.40
529.22	1275.29
529.58	1268.92
529.93	1268.50
530.29	1263.19
530.65	1259.91
531.00	1254.81
531.36	1248.11
531.71	1241.26
532.07	1237.65
532.43	1231.15
532.78	1226.23
533.14	1220.61
533.49	1214.13
533.85	1209.94
534.21	1205.40
534.56	1204.67
534.92	1200.84
535.27	1197.72
535.63	1192.20
535.98	1188.64
536.34	1182.53
536.69	1179.84
537.05	1178.90
537.41	1178.09
537.76	1174.60
538.12	1169.45
538.47	1170.17
538.83	1166.24
539.18	1161.23
539.54	1161.80
539.89	1161.77
540.25	1159.06
540.60	1154.80
540.96	1155.41
541.31	1152.88
541.67	1151.61
542.02	1148.66
542.38	1148.55
542.73	1145.58
543.09	1146.23
543.44	1145.72
543.80	1143.89
544.15	1143.38
544.51	1142.02
544.86	1138.41
545.22	1136.87
545.57	1135.02
545.93	1131.56
546.28	1126.94
546.64	1124.81
546.99	1125.56
547.35	1121.65
547.70	1120.02
548.05	1120.20
548.41	1119.67
548.76	1114.42
549.12	1116.93
549.47	1118.17
549.83	1119.01
550.18	1117.18
550.53	1116.86
550.89	1114.91
551.24	1112.15
551.60	1110.40
551.95	1108.99
552.30	1108.34
552.66	1109.98
553.01	1107.12
553.37	1104.59
553.72	1104.52
554.07	1104.43
554.43	1100.68
554.78	1102.58
555.13	1102.81
555.49	1102.04
555.84	1102.44
556.19	1099.89
556.55	1101.74
556.90	1104.78
557.26	1103.63
557.61	1099.51
557.96	1104.22
558.32	1100.45
558.67	1098.88
559.02	1100.29
559.37	1105.04
559.73	1104.31
560.08	1104.24
560.43	1101.78
560.79	1096.85
561.14	1092.49
561.49	1090.50
561.85	1091.98
562.20	1091.93
562.55	1096.87
562.90	1095.23
563.26	1095.75
563.61	1094.41
563.96	1093.55
564.32	1089.54
564.67	1090.60
565.02	1089.68
565.37	1089.78
565.73	1090.50
566.08	1093.19
566.43	1094.62
566.78	1092.21
567.14	1091.81
567.49	1092.12
567.84	1087.93
568.19	1090.67
568.54	1093.19
568.90	1093.55
569.25	1093.40
569.60	1091.63
569.95	1085.42
570.31	1083.62
570.66	1079.62
571.01	1079.36
571.36	1082.19
571.71	1084.37
572.06	1083.55
572.42	1083.90
572.77	1080.18
573.12	1081.14
573.47	1079.90
573.82	1081.94
574.18	1083.34
574.53	1084.65
574.88	1084.42
575.23	1085.14
575.58	1084.14
575.93	1083.64
576.28	1086.80
576.64	1086.17
576.99	1087.25
577.34	1089.05
577.69	1090.76
578.04	1090.06
578.39	1093.90
578.74	1092.52
579.09	1089.29
579.44	1089.73
579.80	1087.65
580.15	1084.70
580.50	1085.35
580.85	1086.50
581.20	1084.86
581.55	1087.18
581.90	1086.15
582.25	1082.05
582.60	1083.81
582.95	1081.19
583.30	1080.44
583.65	1083.81
584.00	1090.06
584.35	1088.58
584.71	1089.07
585.06	1085.70
585.41	1083.62
585.76	1080.32
586.11	1081.07
586.46	1083.48
586.81	1085.07
587.16	1083.29
587.51	1086.83
587.86	1083.93
588.21	1086.08
588.56	1086.83
588.91	1085.80
589.26	1081.33
589.61	1081.07
589.96	1076.79
590.31	1077.07
590.66	1078.10
591.01	1079.74
591.36	1081.19
591.71	1084.14
592.06	1085.26
592.41	1087.32
592.76	1084.79
593.10	1083.34
593.45	1082.03
593.80	1080.74
594.15	1078.54
594.50	1082.61
594.85	1083.11
595.20	1083.53
595.55	1082.26
595.90	1082.50
596.25	1081.91
596.60	1082.92
596.95	1083.32
597.30	1083.64
597.64	1094.29
597.99	1094.50
598.34	1095.58
598.69	1092.47
599.04	1092.05
599.39	1081.44
599.74	1078.68
600.09	1076.13
600.44	1076.97
600.78	1076.01
601.13	1073.84
601.48	1075.03
601.83	1076.81
602.18	1077.96
602.53	1078.33
602.88	1079.48
603.22	1077.56
603.57	1074.52
603.92	1077.63
604.27	1081.42
604.62	1080.34
604.97	1079.38
605.31	1081.19
605.66	1076.32
606.01	1071.29
606.36	1072.29
606.71	1071.61
607.05	1073.37
607.40	1075.01
607.75	1077.51
608.10	1079.92
608.44	1086.59
608.79	1087.97
609.14	1088.70
609.49	1089.19
609.84	1090.64
610.18	1087.32
610.53	1083.93
610.88	1084.81
611.23	1083.74
611.57	1078.47
611.92	1079.03
612.27	1079.99
612.62	1077.51
612.96	1075.62
613.31	1076.15
613.66	1075.57
614.00	1076.27
614.35	1075.20
614.70	1077.16
615.05	1080.63
615.39	1079.78
615.74	1082.01
616.09	1084.91
616.43	1083.95
616.78	1081.82
617.13	1079.06
617.47	1073.72
617.82	1076.97
618.17	1078.38
618.51	1081.19
618.86	1082.85
619.21	1083.41
619.55	1081.58
619.90	1083.15
620.25	1081.09
620.59	1081.73
620.94	1080.77
621.29	1077.33
621.63	1077.11
621.98	1077.21
622.32	1080.30
622.67	1082.22
623.02	1085.82
623.36	1084.32
623.71	1082.36
624.05	1079.99
624.40	1082.31
624.75	1080.72
625.09	1080.41
625.44	1081.40
625.78	1080.93
626.13	1078.50
626.48	1079.64
626.82	1077.02
627.17	1078.61
627.51	1079.46
627.86	1078.68
628.20	1078.61
628.55	1082.54
628.89	1079.38
629.24	1077.65
629.58	1077.96
629.93	1074.68
630.28	1073.60
630.62	1074.40
630.97	1076.13
631.31	1078.45
631.66	1080.95
632.00	1079.29
632.35	1078.75
632.69	1080.41
633.04	1077.04
633.38	1076.60
633.73	1079.50
634.07	1080.56
634.42	1076.30
634.76	1078.45
635.11	1077.28
635.45	1074.07
635.79	1075.15
636.14	1078.71
636.48	1078.38
636.83	1081.00
637.17	1080.34
637.52	1079.24
637.86	1079.13
638.21	1079.06
638.55	1076.67
638.89	1078.66
639.24	1077.84
639.58	1077.44
639.93	1077.91
640.27	1077.00
640.61	1074.59
640.96	1075.13
641.30	1072.83
641.65	1070.75
641.99	1068.88
642.33	1071.47
642.68	1074.45
643.02	1077.61
643.37	1078.68
643.71	1080.20
644.05	1080.20
644.40	1078.07
644.74	1077.56
645.08	1080.91
645.43	1084.89
645.77	1084.00
646.11	1084.44
646.46	1082.08
646.80	1077.75
647.14	1076.76
647.49	1076.93
647.83	1074.89
648.17	1075.15
648.52	1076.13
648.86	1074.17
649.20	1070.56
649.55	1072.97
649.89	1075.10
650.23	1075.76
650.57	1073.53
650.92	1074.59
651.26	1070.19
651.60	1068.06
651.95	1066.96
652.29	1071.64
652.63	1074.56
652.97	1077.25
653.32	1079.48
653.66	1080.20
654.00	1077.14
654.34	1077.77
654.69	1079.15
655.03	1079.03
655.37	1078.71
655.71	1078.38
656.05	1077.63
656.40	1077.30
656.74	1078.14
657.08	1080.98
657.42	1081.80
657.76	1083.46
658.11	1084.79
658.45	1081.19
658.79	1075.29
659.13	1077.14
659.47	1075.97
659.82	1074.21
660.16	1077.93
660.50	1081.94
660.84	1078.47
661.18	1078.28
661.52	1081.98
661.87	1079.29
662.21	1078.66
662.55	1079.41
662.89	1076.69
663.23	1074.35
663.57	1077.37
663.91	1079.38
664.25	1080.25
664.60	1080.72
664.94	1077.79
665.28	1074.28
665.62	1075.36
665.96	1074.45
666.30	1074.28
666.64	1078.36
666.98	1079.69
667.32	1075.71
667.66	1077.02
668.01	1078.85
668.35	1076.97
668.69	1079.06
669.03	1080.67
669.37	1082.24
669.71	1085.00
670.05	1087.86
670.39	1086.55
670.73	1085.17
671.07	1083.50
671.41	1079.97
671.75	1077.68
672.09	1075.41
672.43	1077.09
672.77	1073.28
673.11	1075.17
673.45	1073.30
673.79	1073.79
674.13	1073.44
674.47	1077.44
674.81	1077.25
675.15	1077.72
675.49	1079.81
675.83	1080.23
676.17	1079.34
676.51	1075.99
676.85	1074.21
677.19	1073.84
677.53	1072.50
677.87	1069.98
678.21	1073.58
678.55	1075.50
678.89	1076.23
679.23	1079.99
679.57	1086.06
679.90	1087.39
680.24	1087.83
680.58	1086.06
680.92	1085.14
681.26	1082.87
681.60	1082.08
681.94	1081.33
682.28	1080.79
682.62	1077.68
682.96	1079.01
683.29	1078.31
683.63	1079.97
683.97	1080.06
684.31	1079.67
684.65	1076.62
684.99	1075.24
685.33	1072.18
685.67	1072.08
686.00	1071.31
686.34	1073.18
686.68	1076.06
687.02	1076.46
687.36	1077.42
687.70	1080.13
688.03	1084.79
688.37	1082.92
688.71	1085.03
689.05	1085.42
689.39	1081.80
689.72	1077.70
690.06	1076.60
690.40	1077.61
690.74	1073.39
691.08	1077.14
691.41	1075.41
691.75	1075.01
692.09	1071.87
692.43	1074.45
692.76	1074.89
693.10	1075.36
693.44	1075.57
693.78	1077.89
694.11	1078.59
694.45	1078.68
694.79	1080.25
695.13	1081.19
695.46	1080.30
695.80	1080.44
696.14	1078.78
696.48	1077.28
696.81	1079.41
697.15	1080.63
697.49	1081.56
697.82	1079.38
698.16	1078.59
698.50	1078.33
698.83	1077.09
699.17	1073.04
699.51	1074.42
699.84	1075.48
700.18	1070.47
700.52	1070.77
700.85	1074.52
701.19	1077.47
701.53	1079.27
701.86	1084.49
702.20	1083.88
702.54	1081.87
702.87	1079.92
703.21	1076.04
703.55	1070.12
703.88	1073.39
704.22	1077.40
704.55	1076.53
704.89	1081.42
705.23	1084.65
705.56	1084.14
705.90	1080.53
706.23	1081.42
706.57	1076.67
706.91	1077.75
707.24	1078.92
707.58	1079.99
707.91	1080.46
708.25	1084.65
708.58	1084.96
708.92	1078.43
709.26	1077.07
709.59	1073.74
709.93	1073.21
710.26	1074.87
710.60	1079.01
710.93	1083.53
711.27	1085.70
711.60	1082.69
711.94	1082.73
712.27	1079.85
712.61	1074.00
712.94	1076.27
713.28	1076.11
713.61	1073.25
713.95	1074.42
714.28	1076.34
714.62	1074.94
714.95	1075.85
715.29	1076.41
715.62	1075.10
715.96	1080.41
716.29	1079.71
716.63	1081.84
716.96	1081.19
717.29	1083.01
717.63	1077.28
717.96	1077.89
718.30	1075.22
718.63	1073.67
718.97	1073.79
719.30	1075.05
719.63	1073.70
719.97	1074.28
720.30	1077.07
720.64	1076.72
720.97	1078.45
721.30	1077.63
721.64	1076.41
721.97	1072.46
722.31	1073.35
722.64	1071.31
722.97	1074.68
723.31	1073.65
723.64	1076.32
723.97	1077.56
724.31	1078.52
724.64	1077.84
724.98	1080.09
725.31	1081.84
725.64	1082.08
725.98	1081.40
726.31	1078.96
726.64	1077.79
726.97	1079.27
727.31	1077.47
727.64	1079.06
727.97	1080.11
728.31	1078.61
728.64	1076.11
728.97	1075.41
729.31	1075.34
729.64	1073.63
729.97	1077.04
730.30	1076.90
730.64	1079.41
730.97	1079.29
731.30	1083.88
731.63	1083.08
731.97	1080.67
732.30	1082.05
732.63	1080.86
732.96	1076.62
733.30	1074.98
733.63	1075.66
733.96	1069.88
734.29	1069.70
734.63	1072.46
734.96	1074.54
735.29	1077.93
735.62	1081.80
735.95	1079.10
736.29	1079.55
736.62	1081.61
736.95	1078.59
737.28	1080.39
737.61	1080.70
737.94	1080.58
738.28	1079.10
738.61	1080.84
738.94	1077.42
739.27	1078.96
739.60	1079.01
739.93	1078.12
740.27	1075.90
740.60	1076.72
740.93	1078.28
741.26	1076.27
741.59	1074.89
741.92	1077.58
742.25	1079.97
742.58	1079.60
742.91	1081.94
743.25	1083.64
743.58	1082.10
743.91	1075.73
744.24	1076.01
744.57	1073.46
744.90	1073.21
745.23	1074.61
745.56	1076.55
745.89	1075.99
746.22	1079.15
746.55	1082.01
746.88	1085.03
747.21	1088.09
747.54	1087.55
747.87	1087.86
748.20	1083.95
748.53	1080.06
748.87	1078.36
749.20	1079.62
749.53	1083.22
749.86	1085.35
750.19	1084.51
750.52	1082.08
750.85	1081.35
751.18	1075.78
751.51	1074.54
751.84	1076.13
752.16	1079.41
752.49	1080.48
752.82	1080.04
753.15	1082.43
753.48	1080.67
753.81	1080.93
754.14	1079.22
754.47	1079.08
754.80	1076.37
755.13	1076.97
755.46	1078.61
755.79	1077.72
756.12	1077.33
756.45	1076.25
756.78	1075.01
757.11	1071.87
757.43	1071.94
757.76	1072.64
758.09	1073.72
758.42	1075.64
758.75	1075.66
759.08	1075.27
759.41	1073.58
759.74	1074.75
760.07	1072.83
760.39	1073.23
760.72	1071.47
761.05	1070.33
761.38	1069.25
761.71	1071.38
762.04	1071.31
762.36	1076.55
762.69	1081.02
763.02	1082.80
763.35	1081.66
763.68	1082.15
764.01	1080.20
764.33	1077.02
764.66	1075.50
