SpectraSuite Data File
++++++++++++++++++++++++++++++++++++
Date: Mon Aug 26 10:21:53 PDT 2019
User: corrico
Dark Spectrum Present: No
Reference Spectrum Present: No
Number of Sampled Component Spectra: 1
Spectrometers: USB2+H06089
Integration Time (usec): 2000 (USB2+H06089)
Spectra Averaged: 20 (USB2+H06089)
Boxcar Smoothing: 2 (USB2+H06089)
Correct for Electrical Dark: No (USB2+H06089)
Strobe/Lamp Enabled: No (USB2+H06089)
Correct for Detector Non-linearity: No (USB2+H06089)
Correct for Stray Light: No (USB2+H06089)
Number of Pixels in Processed Spectrum: 2048
>>>>>Begin Processed Spectral Data<<<<<
339.70	1025.39
340.07	1025.39
340.45	990.70
340.82	971.44
341.19	948.10
341.57	922.19
341.94	913.07
342.31	904.87
342.69	902.65
343.06	899.26
343.43	899.56
343.81	896.21
344.18	899.02
344.55	898.34
344.93	903.24
345.30	910.19
345.67	919.67
346.04	926.81
346.42	937.20
346.79	943.94
347.16	950.33
347.54	959.48
347.91	969.05
348.28	974.15
348.65	986.16
349.03	993.98
349.40	1005.12
349.77	1014.15
350.14	1024.43
350.52	1028.10
350.89	1035.01
351.26	1039.10
351.63	1044.49
352.01	1049.38
352.38	1055.86
352.75	1060.64
353.12	1064.24
353.50	1066.72
353.87	1068.43
354.24	1072.78
354.61	1074.89
354.98	1073.70
355.36	1073.53
355.73	1071.68
356.10	1072.01
356.47	1071.52
356.84	1075.03
357.22	1075.03
357.59	1078.73
357.96	1075.08
358.33	1076.72
358.70	1079.60
359.08	1081.07
359.45	1080.70
359.82	1082.47
360.19	1083.88
360.56	1078.61
360.94	1078.85
361.31	1077.75
361.68	1079.06
362.05	1074.96
362.42	1073.46
362.79	1070.14
363.16	1066.58
363.54	1065.83
363.91	1065.72
364.28	1066.96
364.65	1067.94
365.02	1069.13
365.39	1065.72
365.76	1066.96
366.14	1068.78
366.51	1067.59
366.88	1067.89
367.25	1070.12
367.62	1069.98
367.99	1068.83
368.36	1070.23
368.73	1071.66
369.10	1073.32
369.48	1071.64
369.85	1073.91
370.22	1073.44
370.59	1073.67
370.96	1072.48
371.33	1074.28
371.70	1070.80
372.07	1071.01
372.44	1067.94
372.81	1067.82
373.18	1066.30
373.55	1067.85
373.93	1065.44
374.30	1064.29
374.67	1063.02
375.04	1060.61
375.41	1057.78
375.78	1060.05
376.15	1064.29
376.52	1064.80
376.89	1066.61
377.26	1068.90
377.63	1070.54
378.00	1071.19
378.37	1070.33
378.74	1070.77
379.11	1071.59
379.48	1070.19
379.85	1070.56
380.22	1068.88
380.59	1071.99
380.96	1071.05
381.33	1070.91
381.70	1070.21
382.07	1071.03
382.44	1071.29
382.81	1072.13
383.18	1073.91
383.55	1073.63
383.92	1075.10
384.29	1072.36
384.66	1072.34
385.03	1072.06
385.40	1070.26
385.77	1070.89
386.14	1072.48
386.51	1071.33
386.88	1071.10
387.25	1074.42
387.62	1074.61
387.99	1075.17
388.36	1073.56
388.73	1072.92
389.10	1072.62
389.46	1074.84
389.83	1076.90
390.20	1080.70
390.57	1081.12
390.94	1078.64
391.31	1078.87
391.68	1075.97
392.05	1075.66
392.42	1073.88
392.79	1074.26
393.16	1071.05
393.53	1071.26
393.89	1070.51
394.26	1071.87
394.63	1072.43
395.00	1073.86
395.37	1075.38
395.74	1075.90
396.11	1076.81
396.48	1079.03
396.84	1079.83
397.21	1080.04
397.58	1080.27
397.95	1080.39
398.32	1079.92
398.69	1080.65
399.06	1080.39
399.42	1080.86
399.79	1081.26
400.16	1079.57
400.53	1078.71
400.90	1080.46
401.27	1079.99
401.64	1080.60
402.00	1083.86
402.37	1082.22
402.74	1081.84
403.11	1079.92
403.48	1077.37
403.84	1074.89
404.21	1076.37
404.58	1072.20
404.95	1075.59
405.32	1077.79
405.68	1079.31
406.05	1077.75
406.42	1080.91
406.79	1081.33
407.16	1084.93
407.52	1084.37
407.89	1086.38
408.26	1084.63
408.63	1083.11
408.99	1080.53
409.36	1078.87
409.73	1083.11
410.10	1082.80
410.47	1084.86
410.83	1082.64
411.20	1079.85
411.57	1076.81
411.94	1079.08
412.30	1077.54
412.67	1077.79
413.04	1079.31
413.40	1078.17
413.77	1077.77
414.14	1076.23
414.51	1078.94
414.87	1083.13
415.24	1083.69
415.61	1084.42
415.97	1086.08
416.34	1085.59
416.71	1083.32
417.08	1083.48
417.44	1083.83
417.81	1085.56
418.18	1085.33
418.54	1087.90
418.91	1088.33
419.28	1090.39
419.64	1090.83
420.01	1091.27
420.38	1088.75
420.74	1090.85
421.11	1089.38
421.48	1088.49
421.84	1089.14
422.21	1091.70
422.58	1091.42
422.94	1092.28
423.31	1093.47
423.68	1093.33
424.04	1094.86
424.41	1095.30
424.77	1097.17
425.14	1099.70
425.51	1103.21
425.87	1102.93
426.24	1104.24
426.61	1100.36
426.97	1100.54
427.34	1103.84
427.70	1106.72
428.07	1106.68
428.44	1114.14
428.80	1115.52
429.17	1115.38
429.53	1115.08
429.90	1121.73
430.27	1123.69
430.63	1127.74
431.00	1130.78
431.36	1137.80
431.73	1141.20
432.09	1147.54
432.46	1151.45
432.83	1158.61
433.19	1164.14
433.56	1168.49
433.92	1172.84
434.29	1181.85
434.65	1186.00
435.02	1190.19
435.38	1198.49
435.75	1205.26
436.11	1216.26
436.48	1226.42
436.84	1241.86
437.21	1253.38
437.57	1269.20
437.94	1282.66
438.30	1302.63
438.67	1317.44
439.03	1337.76
439.40	1359.55
439.76	1380.03
440.13	1396.97
440.49	1418.32
440.86	1439.78
441.22	1461.17
441.59	1482.35
441.95	1506.74
442.32	1535.39
442.68	1563.85
443.05	1594.77
443.41	1624.80
443.78	1659.53
444.14	1698.15
444.51	1734.95
444.87	1784.14
445.24	1830.67
445.60	1883.66
445.96	1932.16
446.33	1991.44
446.69	2040.62
447.06	2104.70
447.42	2164.06
447.79	2229.57
448.15	2299.13
448.51	2373.65
448.88	2460.14
449.24	2543.76
449.61	2633.43
449.97	2724.83
450.33	2818.22
450.70	2904.79
451.06	3015.50
451.43	3124.57
451.79	3257.67
452.15	3400.63
452.52	3546.15
452.88	3690.32
453.24	3853.18
453.61	4028.20
453.97	4199.55
454.34	4364.89
454.70	4562.08
455.06	4759.69
455.43	4944.78
455.79	5123.76
456.15	5347.16
456.52	5559.66
456.88	5812.46
457.24	6067.98
457.61	6370.07
457.97	6656.55
458.33	6928.20
458.70	7214.33
459.06	7496.57
459.42	7810.67
459.79	8098.00
460.15	8432.25
460.51	8718.94
460.88	9013.80
461.24	9250.55
461.60	9518.65
461.96	9738.45
462.33	9970.85
462.69	10211.29
463.05	10480.76
463.42	10749.82
463.78	11025.63
464.14	11271.62
464.50	11520.47
464.87	11743.33
465.23	11949.46
465.59	12170.43
465.95	12369.33
466.32	12518.54
466.68	12638.35
467.04	12686.45
467.40	12713.39
467.77	12755.19
468.13	12806.99
468.49	12831.87
468.85	12842.07
469.22	12812.14
469.58	12717.28
469.94	12612.44
470.30	12481.63
470.66	12362.97
471.03	12239.62
471.39	12159.18
471.75	12002.31
472.11	11862.86
472.47	11748.01
472.84	11618.70
473.20	11426.28
473.56	11271.69
473.92	11053.06
474.28	10835.49
474.65	10613.04
475.01	10450.80
475.37	10288.27
475.73	10165.93
476.09	10034.13
476.45	9899.67
476.81	9734.76
477.18	9553.34
477.54	9403.78
477.90	9243.22
478.26	9039.99
478.62	8871.87
478.98	8730.53
479.34	8608.86
479.71	8513.96
480.07	8470.87
480.43	8387.68
480.79	8282.03
481.15	8142.35
481.51	7995.11
481.87	7852.17
482.23	7715.90
482.59	7608.29
482.96	7520.52
483.32	7455.78
483.68	7368.83
484.04	7315.25
484.40	7229.19
484.76	7137.60
485.12	7011.78
485.48	6913.24
485.84	6775.66
486.20	6653.53
486.56	6512.70
486.92	6397.62
487.28	6261.24
487.64	6130.99
488.00	6013.00
488.37	5895.88
488.73	5766.89
489.09	5642.10
489.45	5523.06
489.81	5393.25
490.17	5286.33
490.53	5188.05
490.89	5088.77
491.25	4998.19
491.61	4908.29
491.97	4799.76
492.33	4685.61
492.69	4577.15
493.05	4462.37
493.41	4354.19
493.77	4259.12
494.13	4160.00
494.49	4067.50
494.85	3977.16
495.21	3895.45
495.57	3800.00
495.93	3706.07
496.29	3618.63
496.64	3544.18
497.00	3456.32
497.36	3389.99
497.72	3321.50
498.08	3255.03
498.44	3186.92
498.80	3132.99
499.16	3077.48
499.52	3024.39
499.88	2966.00
500.24	2912.02
500.60	2854.94
500.96	2795.58
501.32	2741.35
501.68	2689.35
502.03	2638.77
502.39	2597.29
502.75	2555.33
503.11	2517.01
503.47	2480.73
503.83	2444.50
504.19	2399.31
504.55	2355.68
504.91	2315.23
505.26	2276.50
505.62	2234.58
505.98	2199.03
506.34	2171.62
506.70	2136.63
507.06	2105.71
507.42	2077.53
507.78	2042.49
508.13	2011.25
508.49	1980.30
508.85	1949.76
509.21	1917.44
509.57	1895.58
509.93	1864.61
510.28	1839.22
510.64	1815.65
511.00	1793.37
511.36	1765.51
511.72	1741.52
512.07	1719.08
512.43	1695.34
512.79	1669.20
513.15	1650.97
513.51	1633.25
513.86	1615.04
514.22	1600.11
514.58	1588.69
514.94	1573.54
515.30	1561.49
515.65	1550.07
516.01	1531.08
516.37	1516.27
516.73	1502.41
517.08	1486.57
517.44	1469.58
517.80	1459.56
518.16	1448.89
518.51	1434.63
518.87	1423.12
519.23	1414.64
519.59	1402.96
519.94	1391.43
520.30	1382.65
520.66	1373.15
521.01	1361.44
521.37	1351.78
521.73	1342.62
522.09	1339.70
522.44	1335.02
522.80	1326.92
523.16	1321.93
523.51	1314.07
523.87	1303.61
524.23	1292.40
524.58	1288.65
524.94	1281.68
525.30	1276.15
525.65	1269.09
526.01	1265.93
526.37	1256.10
526.72	1251.84
527.08	1247.51
527.44	1242.50
527.79	1238.71
528.15	1236.29
528.51	1231.10
528.86	1223.73
529.22	1219.02
529.58	1212.26
529.93	1206.45
530.29	1202.43
530.65	1200.67
531.00	1197.75
531.36	1194.14
531.71	1193.60
532.07	1187.89
532.43	1183.80
532.78	1178.65
533.14	1176.70
533.49	1172.63
533.85	1173.85
534.21	1170.46
534.56	1168.16
534.92	1164.02
535.27	1162.71
535.63	1155.71
535.98	1153.46
536.34	1152.48
536.69	1152.43
537.05	1147.03
537.41	1145.93
537.76	1145.88
538.12	1145.86
538.47	1141.64
538.83	1139.35
539.18	1139.63
539.54	1135.72
539.89	1135.35
540.25	1133.24
540.60	1135.53
540.96	1132.94
541.31	1132.98
541.67	1127.30
542.02	1127.97
542.38	1126.36
542.73	1126.83
543.09	1126.36
543.44	1128.11
543.80	1126.80
544.15	1127.27
544.51	1122.75
544.86	1120.53
545.22	1117.86
545.57	1114.77
545.93	1109.98
546.28	1111.50
546.64	1111.66
546.99	1108.38
547.35	1107.35
547.70	1106.56
548.05	1107.14
548.41	1107.47
548.76	1110.98
549.12	1112.27
549.47	1116.04
549.83	1114.91
550.18	1112.64
550.53	1110.35
550.89	1105.51
551.24	1102.93
551.60	1101.36
551.95	1098.37
552.30	1097.66
552.66	1101.43
553.01	1098.62
553.37	1095.77
553.72	1097.20
554.07	1095.67
554.43	1093.47
554.78	1093.71
555.13	1096.07
555.49	1097.57
555.84	1096.73
556.19	1097.80
556.55	1099.28
556.90	1096.61
557.26	1096.24
557.61	1096.40
557.96	1095.67
558.32	1092.96
558.67	1090.13
559.02	1087.86
559.37	1088.70
559.73	1089.78
560.08	1089.31
560.43	1092.19
560.79	1091.88
561.14	1091.34
561.49	1089.75
561.85	1090.53
562.20	1089.89
562.55	1087.79
562.90	1086.03
563.26	1086.97
563.61	1084.74
563.96	1085.84
564.32	1089.54
564.67	1087.88
565.02	1084.30
565.37	1084.86
565.73	1084.74
566.08	1083.06
566.43	1085.99
566.78	1090.71
567.14	1092.35
567.49	1086.69
567.84	1084.74
568.19	1082.80
568.54	1078.75
568.90	1078.10
569.25	1082.85
569.60	1084.72
569.95	1084.67
570.31	1083.97
570.66	1084.28
571.01	1085.99
571.36	1085.21
571.71	1087.51
572.06	1090.13
572.42	1085.42
572.77	1084.63
573.12	1084.77
573.47	1080.41
573.82	1076.39
574.18	1079.99
574.53	1078.96
574.88	1079.64
575.23	1081.30
575.58	1084.93
575.93	1085.03
576.28	1085.05
576.64	1084.79
576.99	1089.10
577.34	1090.29
577.69	1088.63
578.04	1086.59
578.39	1085.07
578.74	1084.60
579.09	1084.46
579.44	1084.60
579.80	1084.72
580.15	1085.49
580.50	1083.60
580.85	1081.05
581.20	1079.24
581.55	1078.43
581.90	1077.33
582.25	1077.63
582.60	1076.88
582.95	1080.70
583.30	1082.80
583.65	1086.36
584.00	1089.10
584.35	1088.79
584.71	1086.78
585.06	1087.83
585.41	1086.71
585.76	1083.04
586.11	1087.55
586.46	1086.48
586.81	1081.51
587.16	1080.60
587.51	1081.63
587.86	1075.38
588.21	1076.25
588.56	1079.97
588.91	1080.32
589.26	1077.51
589.61	1081.09
589.96	1081.80
590.31	1081.23
590.66	1080.32
591.01	1084.44
591.36	1084.42
591.71	1085.56
592.06	1085.63
592.41	1084.63
592.76	1082.59
593.10	1078.92
593.45	1078.50
593.80	1079.08
594.15	1080.93
594.50	1076.30
594.85	1078.71
595.20	1080.46
595.55	1079.95
595.90	1079.60
596.25	1082.05
596.60	1083.22
596.95	1081.40
597.30	1081.56
597.64	1092.16
597.99	1092.59
598.34	1092.30
598.69	1090.46
599.04	1091.79
599.39	1080.41
599.74	1079.64
600.09	1080.63
600.44	1080.51
600.78	1080.60
601.13	1081.28
601.48	1083.25
601.83	1084.44
602.18	1086.76
602.53	1085.47
602.88	1087.53
603.22	1085.07
603.57	1084.32
603.92	1084.21
604.27	1084.42
604.62	1082.59
604.97	1081.84
605.31	1084.81
605.66	1083.39
606.01	1082.22
606.36	1080.44
606.71	1084.89
607.05	1080.04
607.40	1080.34
607.75	1079.83
608.10	1079.46
608.44	1075.57
608.79	1074.33
609.14	1072.92
609.49	1074.63
609.84	1073.81
610.18	1077.96
610.53	1080.72
610.88	1083.32
611.23	1082.99
611.57	1086.29
611.92	1083.01
612.27	1080.95
612.62	1078.64
612.96	1078.28
613.31	1076.60
613.66	1076.08
614.00	1076.88
614.35	1076.67
614.70	1077.96
615.05	1076.13
615.39	1076.67
615.74	1075.22
616.09	1076.08
616.43	1073.04
616.78	1073.88
617.13	1070.96
617.47	1071.50
617.82	1070.80
618.17	1071.19
618.51	1073.53
618.86	1078.33
619.21	1079.03
619.55	1080.30
619.90	1081.30
620.25	1080.32
620.59	1077.54
620.94	1078.21
621.29	1079.95
621.63	1080.34
621.98	1077.49
622.32	1079.01
622.67	1080.70
623.02	1081.49
623.36	1080.16
623.71	1085.66
624.05	1086.29
624.40	1084.84
624.75	1080.70
625.09	1082.52
625.44	1079.71
625.78	1077.54
626.13	1075.52
626.48	1074.94
626.82	1074.59
627.17	1073.63
627.51	1075.97
627.86	1076.83
628.20	1078.21
628.55	1079.67
628.89	1079.34
629.24	1079.34
629.58	1081.05
629.93	1081.56
630.28	1080.70
630.62	1083.25
630.97	1082.50
631.31	1082.85
631.66	1083.57
632.00	1082.40
632.35	1083.90
632.69	1083.41
633.04	1081.63
633.38	1079.90
633.73	1080.60
634.07	1081.09
634.42	1083.27
634.76	1082.92
635.11	1084.00
635.45	1085.07
635.79	1080.67
636.14	1078.36
636.48	1081.63
636.83	1081.54
637.17	1077.25
637.52	1077.54
637.86	1078.28
638.21	1074.12
638.55	1073.16
638.89	1077.65
639.24	1080.91
639.58	1084.39
639.93	1084.63
640.27	1087.58
640.61	1086.38
640.96	1083.71
641.30	1079.92
641.65	1078.43
641.99	1077.35
642.33	1078.03
642.68	1076.46
643.02	1077.02
643.37	1077.28
643.71	1077.98
644.05	1077.91
644.40	1080.95
644.74	1083.32
645.08	1087.16
645.43	1086.15
645.77	1084.65
646.11	1080.32
646.46	1078.00
646.80	1072.53
647.14	1070.84
647.49	1070.63
647.83	1073.42
648.17	1072.74
648.52	1077.79
648.86	1079.38
649.20	1081.12
649.55	1080.20
649.89	1078.87
650.23	1078.94
650.57	1079.31
650.92	1076.97
651.26	1079.88
651.60	1084.74
651.95	1080.37
652.29	1078.80
652.63	1080.95
652.97	1079.53
653.32	1076.62
653.66	1078.96
654.00	1078.71
654.34	1078.64
654.69	1078.12
655.03	1077.49
655.37	1077.16
655.71	1077.72
656.05	1077.23
656.40	1075.41
656.74	1074.49
657.08	1073.04
657.42	1073.60
657.76	1074.31
658.11	1076.06
658.45	1079.60
658.79	1082.69
659.13	1081.16
659.47	1079.92
659.82	1081.40
660.16	1079.27
660.50	1077.68
660.84	1077.42
661.18	1077.02
661.52	1075.20
661.87	1074.28
662.21	1075.50
662.55	1075.59
662.89	1075.99
663.23	1077.16
663.57	1080.09
663.91	1079.46
664.25	1079.81
664.60	1081.14
664.94	1077.79
665.28	1077.14
665.62	1077.61
665.96	1082.19
666.30	1082.54
666.64	1085.12
666.98	1084.18
667.32	1084.25
667.66	1083.53
668.01	1082.05
668.35	1084.81
668.69	1081.47
669.03	1080.46
669.37	1077.07
669.71	1079.17
670.05	1077.75
670.39	1080.32
670.73	1077.91
671.07	1077.37
671.41	1074.10
671.75	1071.36
672.09	1069.32
672.43	1071.50
672.77	1072.69
673.11	1071.50
673.45	1075.73
673.79	1078.61
674.13	1079.22
674.47	1077.49
674.81	1080.46
675.15	1078.40
675.49	1078.03
675.83	1079.03
676.17	1080.41
676.51	1077.51
676.85	1076.41
677.19	1075.99
677.53	1075.92
677.87	1075.20
678.21	1078.89
678.55	1081.02
678.89	1080.72
679.23	1079.22
679.57	1083.46
679.90	1080.95
680.24	1078.68
680.58	1077.63
680.92	1079.36
681.26	1075.59
681.60	1077.35
681.94	1079.43
682.28	1079.38
682.62	1077.96
682.96	1079.60
683.29	1078.64
683.63	1074.49
683.97	1078.61
684.31	1077.70
684.65	1078.94
684.99	1079.67
685.33	1083.53
685.67	1081.75
686.00	1085.31
686.34	1082.87
686.68	1083.62
687.02	1081.28
687.36	1079.13
687.70	1076.44
688.03	1076.58
688.37	1076.48
688.71	1075.85
689.05	1079.03
689.39	1077.98
689.72	1078.52
690.06	1079.03
690.40	1080.86
690.74	1079.83
691.08	1081.68
691.41	1080.37
691.75	1077.63
692.09	1079.36
692.43	1075.48
692.76	1077.86
693.10	1078.00
693.44	1079.17
693.78	1076.81
694.11	1083.29
694.45	1082.10
694.79	1082.50
695.13	1081.49
695.46	1082.24
695.80	1079.13
696.14	1078.66
696.48	1077.33
696.81	1075.62
697.15	1078.43
697.49	1075.38
697.82	1073.63
698.16	1075.92
698.50	1080.25
698.83	1078.00
699.17	1078.96
699.51	1080.41
699.84	1081.51
700.18	1079.60
700.52	1079.60
700.85	1079.03
701.19	1077.14
701.53	1074.40
701.86	1071.94
702.20	1072.53
702.54	1073.39
702.87	1076.83
703.21	1076.81
703.55	1077.58
703.88	1075.48
704.22	1075.20
704.55	1073.53
704.89	1073.86
705.23	1075.20
705.56	1078.96
705.90	1079.36
706.23	1079.24
706.57	1081.07
706.91	1080.34
707.24	1077.49
707.58	1081.61
707.91	1080.11
708.25	1078.57
708.58	1079.34
708.92	1079.38
709.26	1078.10
709.59	1078.47
709.93	1079.22
710.26	1078.68
710.60	1077.56
710.93	1075.87
711.27	1077.42
711.60	1074.47
711.94	1075.73
712.27	1077.35
712.61	1075.87
712.94	1077.25
713.28	1078.43
713.61	1074.24
713.95	1071.31
714.28	1068.88
714.62	1064.87
714.95	1065.76
715.29	1067.66
715.62	1070.40
715.96	1071.92
716.29	1075.36
716.63	1076.95
716.96	1080.88
717.29	1080.46
717.63	1084.39
717.96	1082.05
718.30	1078.96
718.63	1075.24
718.97	1074.56
719.30	1072.62
719.63	1074.54
719.97	1075.73
720.30	1079.69
720.64	1080.79
720.97	1080.37
721.30	1079.06
721.64	1081.12
721.97	1076.55
722.31	1074.33
722.64	1074.40
722.97	1074.38
723.31	1070.54
723.64	1069.70
723.97	1071.38
724.31	1073.11
724.64	1072.81
724.98	1075.31
725.31	1079.17
725.64	1081.21
725.98	1081.30
726.31	1081.89
726.64	1082.12
726.97	1081.14
727.31	1082.78
727.64	1083.08
727.97	1082.43
728.31	1081.61
728.64	1083.20
728.97	1080.09
729.31	1075.87
729.64	1076.23
729.97	1078.96
730.30	1075.85
730.64	1073.77
730.97	1076.20
731.30	1079.90
731.63	1081.00
731.97	1082.50
732.30	1083.53
732.63	1083.08
732.96	1079.50
733.30	1078.68
733.63	1078.31
733.96	1080.06
734.29	1080.16
734.63	1080.53
734.96	1077.04
735.29	1076.27
735.62	1075.41
735.95	1074.14
736.29	1070.47
736.62	1070.68
736.95	1070.70
737.28	1069.58
737.61	1072.25
737.94	1077.07
738.28	1079.81
738.61	1082.78
738.94	1086.15
739.27	1086.94
739.60	1085.00
739.93	1084.46
740.27	1083.64
740.60	1080.11
740.93	1077.98
741.26	1080.44
741.59	1077.84
741.92	1075.24
742.25	1078.24
742.58	1078.47
742.91	1075.13
743.25	1076.83
743.58	1078.85
743.91	1076.06
744.24	1078.80
744.57	1078.87
744.90	1077.42
745.23	1075.92
745.56	1079.24
745.89	1076.88
746.22	1078.71
746.55	1080.93
746.88	1083.04
747.21	1083.57
747.54	1080.04
747.87	1076.23
748.20	1073.18
748.53	1073.49
748.87	1071.38
749.20	1076.44
749.53	1079.88
749.86	1081.35
750.19	1077.61
750.52	1076.01
750.85	1074.66
751.18	1073.23
751.51	1072.67
751.84	1075.62
752.16	1075.13
752.49	1073.49
752.82	1074.89
753.15	1076.41
753.48	1074.14
753.81	1074.38
754.14	1075.24
754.47	1075.80
754.80	1076.15
755.13	1077.54
755.46	1078.64
755.79	1079.41
756.12	1079.74
756.45	1079.22
756.78	1081.00
757.11	1079.62
757.43	1079.71
757.76	1079.83
758.09	1080.37
758.42	1077.63
758.75	1078.07
759.08	1078.31
759.41	1078.38
759.74	1077.00
760.07	1074.87
760.39	1074.05
760.72	1073.65
761.05	1073.53
761.38	1076.55
761.71	1082.47
762.04	1085.19
762.36	1082.50
762.69	1082.31
763.02	1079.92
763.35	1075.59
763.68	1071.61
764.01	1077.44
764.33	1075.71
764.66	1073.86
764.99	1077.49
765.32	1078.61
765.65	1074.10
