SpectraSuite Data File
++++++++++++++++++++++++++++++++++++
Date: Mon Aug 26 10:21:55 PDT 2019
User: corrico
Dark Spectrum Present: No
Reference Spectrum Present: No
Number of Sampled Component Spectra: 1
Spectrometers: USB2+H06089
Integration Time (usec): 2000 (USB2+H06089)
Spectra Averaged: 20 (USB2+H06089)
Boxcar Smoothing: 2 (USB2+H06089)
Correct for Electrical Dark: No (USB2+H06089)
Strobe/Lamp Enabled: No (USB2+H06089)
Correct for Detector Non-linearity: No (USB2+H06089)
Correct for Stray Light: No (USB2+H06089)
Number of Pixels in Processed Spectrum: 2048
>>>>>Begin Processed Spectral Data<<<<<
339.70	1026.09
340.07	1026.09
340.45	991.87
340.82	970.85
341.19	947.54
341.57	922.41
341.94	910.56
342.31	901.64
342.69	894.51
343.06	890.81
343.43	888.47
343.81	892.84
344.18	897.01
344.55	902.51
344.93	907.43
345.30	917.30
345.67	918.33
346.04	924.77
346.42	933.08
346.79	943.05
347.16	946.47
347.54	958.05
347.91	966.52
348.28	971.44
348.65	979.26
349.03	991.68
349.40	1001.45
349.77	1008.96
350.14	1018.95
350.52	1026.09
350.89	1030.70
351.26	1037.07
351.63	1042.57
352.01	1049.33
352.38	1054.04
352.75	1058.67
353.12	1061.50
353.50	1063.24
353.87	1065.74
354.24	1065.88
354.61	1068.13
354.98	1068.15
355.36	1070.05
355.73	1070.44
356.10	1073.46
356.47	1073.56
356.84	1075.73
357.22	1079.20
357.59	1077.68
357.96	1077.09
358.33	1081.05
358.70	1079.43
359.08	1076.95
359.45	1076.83
359.82	1078.36
360.19	1074.80
360.56	1077.14
360.94	1077.93
361.31	1078.94
361.68	1076.93
362.05	1075.66
362.42	1073.46
362.79	1074.17
363.16	1072.57
363.54	1071.33
363.91	1070.07
364.28	1067.40
364.65	1067.38
365.02	1067.89
365.39	1068.38
365.76	1064.92
366.14	1065.81
366.51	1064.31
366.88	1063.63
367.25	1061.50
367.62	1066.54
367.99	1067.40
368.36	1065.60
368.73	1065.55
369.10	1067.26
369.48	1064.64
369.85	1062.42
370.22	1062.06
370.59	1062.70
370.96	1062.98
371.33	1064.22
371.70	1068.08
372.07	1069.06
372.44	1068.08
372.81	1066.86
373.18	1067.80
373.55	1067.12
373.93	1064.69
374.30	1064.71
374.67	1068.90
375.04	1070.05
375.41	1068.55
375.78	1072.83
376.15	1074.96
376.52	1072.76
376.89	1069.84
377.26	1069.02
377.63	1067.47
378.00	1062.93
378.37	1062.72
378.74	1064.03
379.11	1064.52
379.48	1064.19
379.85	1070.94
380.22	1071.08
380.59	1070.02
380.96	1072.48
381.33	1076.83
381.70	1071.73
382.07	1074.66
382.44	1076.72
382.81	1078.00
383.18	1075.52
383.55	1076.08
383.92	1071.03
384.29	1070.72
384.66	1065.11
385.03	1062.09
385.40	1067.59
385.77	1066.63
386.14	1067.71
386.51	1072.62
386.88	1077.70
387.25	1073.60
387.62	1079.01
387.99	1081.00
388.36	1081.19
388.73	1078.99
389.10	1079.74
389.46	1076.58
389.83	1074.84
390.20	1072.22
390.57	1071.75
390.94	1074.40
391.31	1075.69
391.68	1075.17
392.05	1079.92
392.42	1080.74
392.79	1076.34
393.16	1072.83
393.53	1071.22
393.89	1065.76
394.26	1064.48
394.63	1067.61
395.00	1067.78
395.37	1070.82
395.74	1073.88
396.11	1074.05
396.48	1073.04
396.84	1075.41
397.21	1073.21
397.58	1071.15
397.95	1074.28
398.32	1074.66
398.69	1078.00
399.06	1079.41
399.42	1081.02
399.79	1079.53
400.16	1080.44
400.53	1077.98
400.90	1075.80
401.27	1073.63
401.64	1075.10
402.00	1071.92
402.37	1071.12
402.74	1073.51
403.11	1076.34
403.48	1075.62
403.84	1076.81
404.21	1079.48
404.58	1080.25
404.95	1081.56
405.32	1076.97
405.68	1078.33
406.05	1078.10
406.42	1077.04
406.79	1074.28
407.16	1077.51
407.52	1076.48
407.89	1072.29
408.26	1071.38
408.63	1073.81
408.99	1074.45
409.36	1074.42
409.73	1078.47
410.10	1078.96
410.47	1076.86
410.83	1078.05
411.20	1078.99
411.57	1079.36
411.94	1082.15
412.30	1078.92
412.67	1075.87
413.04	1077.86
413.40	1078.73
413.77	1074.94
414.14	1082.26
414.51	1086.41
414.87	1081.89
415.24	1081.19
415.61	1083.22
415.97	1079.76
416.34	1077.58
416.71	1083.41
417.08	1081.40
417.44	1080.84
417.81	1083.08
418.18	1085.24
418.54	1083.79
418.91	1086.10
419.28	1088.26
419.64	1088.04
420.01	1086.73
420.38	1084.65
420.74	1083.36
421.11	1083.11
421.48	1084.84
421.84	1087.37
422.21	1089.45
422.58	1091.34
422.94	1092.47
423.31	1093.50
423.68	1093.52
424.04	1097.59
424.41	1100.64
424.77	1104.38
425.14	1103.91
425.51	1105.95
425.87	1104.26
426.24	1106.00
426.61	1107.96
426.97	1111.38
427.34	1112.11
427.70	1115.45
428.07	1118.94
428.44	1119.83
428.80	1121.96
429.17	1127.06
429.53	1128.51
429.90	1131.13
430.27	1134.57
430.63	1137.85
431.00	1142.23
431.36	1147.07
431.73	1149.72
432.09	1153.63
432.46	1160.84
432.83	1167.88
433.19	1177.20
433.56	1185.90
433.92	1194.96
434.29	1203.71
434.65	1211.27
435.02	1216.56
435.38	1228.80
435.75	1239.45
436.11	1251.93
436.48	1263.16
436.84	1279.31
437.21	1289.21
437.57	1306.04
437.94	1319.73
438.30	1338.74
438.67	1357.89
439.03	1379.56
439.40	1397.25
439.76	1419.84
440.13	1441.44
440.49	1469.62
440.86	1497.85
441.22	1527.50
441.59	1557.32
441.95	1592.66
442.32	1622.44
442.68	1655.93
443.05	1692.72
443.41	1739.65
443.78	1783.32
444.14	1830.28
444.51	1876.90
444.87	1935.30
445.24	1976.37
445.60	2027.18
445.96	2081.63
446.33	2146.97
446.69	2207.62
447.06	2283.15
447.42	2360.85
447.79	2442.58
448.15	2531.36
448.51	2614.12
448.88	2709.03
449.24	2795.25
449.61	2900.67
449.97	3009.98
450.33	3131.61
450.70	3243.42
451.06	3379.66
451.43	3516.49
451.79	3656.76
452.15	3808.57
452.52	3978.23
452.88	4145.51
453.24	4319.55
453.61	4518.52
453.97	4717.47
454.34	4919.24
454.70	5149.93
455.06	5376.68
455.43	5604.55
455.79	5824.82
456.15	6077.11
456.52	6326.84
456.88	6630.88
457.24	6918.93
457.61	7270.99
457.97	7590.47
458.33	7914.66
458.70	8233.28
459.06	8558.03
459.42	8895.51
459.79	9224.82
460.15	9604.95
460.51	9960.66
460.88	10331.99
461.24	10648.59
461.60	11017.77
461.96	11341.67
462.33	11647.04
462.69	11958.38
463.05	12299.54
463.42	12614.25
463.78	12921.44
464.14	13217.50
464.50	13502.29
464.87	13726.73
465.23	13883.33
465.59	14061.73
465.95	14245.76
466.32	14395.75
466.68	14520.33
467.04	14601.22
467.40	14585.02
467.77	14559.82
468.13	14532.13
468.49	14516.26
468.85	14536.83
469.22	14585.12
469.58	14581.28
469.94	14548.72
470.30	14476.49
470.66	14342.97
471.03	14146.29
471.39	13999.54
471.75	13777.28
472.11	13544.75
472.47	13354.28
472.84	13150.11
473.20	12898.36
473.56	12726.22
473.92	12543.61
474.28	12390.14
474.65	12246.81
475.01	12075.97
475.37	11871.76
475.73	11668.69
476.09	11446.88
476.45	11247.19
476.81	11073.66
477.18	10915.11
477.54	10772.41
477.90	10631.98
478.26	10479.70
478.62	10330.68
478.98	10153.34
479.34	10013.89
479.71	9838.35
480.07	9682.45
480.43	9548.92
480.79	9421.90
481.15	9260.82
481.51	9149.93
481.87	9039.38
482.23	8874.52
482.59	8744.50
482.96	8621.74
483.32	8487.46
483.68	8341.93
484.04	8221.58
484.40	8068.32
484.76	7929.64
485.12	7790.33
485.48	7665.84
485.84	7514.69
486.20	7370.02
486.56	7222.05
486.92	7078.53
487.28	6937.04
487.64	6806.72
488.00	6687.71
488.37	6549.50
488.73	6405.32
489.09	6235.23
489.45	6090.92
489.81	5956.27
490.17	5843.38
490.53	5731.53
490.89	5614.34
491.25	5486.47
491.61	5351.19
491.97	5210.76
492.33	5074.75
492.69	4954.87
493.05	4838.78
493.41	4725.89
493.77	4610.69
494.13	4503.82
494.49	4407.88
494.85	4313.12
495.21	4229.65
495.57	4149.77
495.93	4057.30
496.29	3963.98
496.64	3886.16
497.00	3788.48
497.36	3690.30
497.72	3606.55
498.08	3537.93
498.44	3456.46
498.80	3379.41
499.16	3311.83
499.52	3242.60
499.88	3167.17
500.24	3105.42
500.60	3056.20
500.96	3002.67
501.32	2944.46
501.68	2882.63
502.03	2818.64
502.39	2751.77
502.75	2693.68
503.11	2648.29
503.47	2609.02
503.83	2570.31
504.19	2534.73
504.55	2493.65
504.91	2449.04
505.26	2401.62
505.62	2357.15
505.98	2316.87
506.34	2277.79
506.70	2236.22
507.06	2201.13
507.42	2167.45
507.78	2128.81
508.13	2093.26
508.49	2064.77
508.85	2038.84
509.21	2009.89
509.57	1980.61
509.93	1951.75
510.28	1920.83
510.64	1889.40
511.00	1858.13
511.36	1828.40
511.72	1806.68
512.07	1784.17
512.43	1759.40
512.79	1741.38
513.15	1721.93
513.51	1692.93
513.86	1674.07
514.22	1657.90
514.58	1635.59
514.94	1616.44
515.30	1603.74
515.65	1582.41
516.01	1563.34
516.37	1548.26
516.73	1537.01
517.08	1522.26
517.44	1507.70
517.80	1493.38
518.16	1482.52
518.51	1466.16
518.87	1455.06
519.23	1445.56
519.59	1437.56
519.94	1421.62
520.30	1413.87
520.66	1407.86
521.01	1398.59
521.37	1390.86
521.73	1383.75
522.09	1375.60
522.44	1362.80
522.80	1353.70
523.16	1343.77
523.51	1338.04
523.87	1327.18
524.23	1317.60
524.58	1315.05
524.94	1306.23
525.30	1296.38
525.65	1289.68
526.01	1284.06
526.37	1272.97
526.72	1267.63
527.08	1262.27
527.44	1256.66
527.79	1250.03
528.15	1245.16
528.51	1239.29
528.86	1236.29
529.22	1231.89
529.58	1228.31
529.93	1223.61
530.29	1220.21
530.65	1212.33
531.00	1208.58
531.36	1206.38
531.71	1203.39
532.07	1198.03
532.43	1193.77
532.78	1189.51
533.14	1183.82
533.49	1180.05
533.85	1177.06
534.21	1175.37
534.56	1173.92
534.92	1172.02
535.27	1166.52
535.63	1163.81
535.98	1159.17
536.34	1155.71
536.69	1153.67
537.05	1154.75
537.41	1150.77
537.76	1147.96
538.12	1144.94
538.47	1141.64
538.83	1137.95
539.18	1138.16
539.54	1137.64
539.89	1137.03
540.25	1134.55
540.60	1134.41
540.96	1131.88
541.31	1130.64
541.67	1134.48
542.02	1132.98
542.38	1130.53
542.73	1129.92
543.09	1131.79
543.44	1124.16
543.80	1126.10
544.15	1124.53
544.51	1123.06
544.86	1121.68
545.22	1121.44
545.57	1119.22
545.93	1122.36
546.28	1121.05
546.64	1118.45
546.99	1117.47
547.35	1116.88
547.70	1113.67
548.05	1115.85
548.41	1113.14
548.76	1112.67
549.12	1111.75
549.47	1109.46
549.83	1106.49
550.18	1107.59
550.53	1105.18
550.89	1102.21
551.24	1098.55
551.60	1098.83
551.95	1097.66
552.30	1097.57
552.66	1096.45
553.01	1097.31
553.37	1098.88
553.72	1100.00
554.07	1100.73
554.43	1103.89
554.78	1103.31
555.13	1098.46
555.49	1096.35
555.84	1097.17
556.19	1094.72
556.55	1093.40
556.90	1095.86
557.26	1095.16
557.61	1093.03
557.96	1093.73
558.32	1099.40
558.67	1096.78
559.02	1097.78
559.37	1093.03
559.73	1091.74
560.08	1087.06
560.43	1086.03
560.79	1087.20
561.14	1091.95
561.49	1092.82
561.85	1092.09
562.20	1094.01
562.55	1088.96
562.90	1089.54
563.26	1089.82
563.61	1092.52
563.96	1091.91
564.32	1095.30
564.67	1091.60
565.02	1089.29
565.37	1088.04
565.73	1085.84
566.08	1085.10
566.43	1084.37
566.78	1086.41
567.14	1082.24
567.49	1081.89
567.84	1081.12
568.19	1082.90
568.54	1079.43
568.90	1085.63
569.25	1086.85
569.60	1088.35
569.95	1088.26
570.31	1092.61
570.66	1088.63
571.01	1086.57
571.36	1085.19
571.71	1082.15
572.06	1078.12
572.42	1079.74
572.77	1082.97
573.12	1083.90
573.47	1087.39
573.82	1088.19
574.18	1085.45
574.53	1083.25
574.88	1082.45
575.23	1080.39
575.58	1077.04
575.93	1080.44
576.28	1077.61
576.64	1075.41
576.99	1077.37
577.34	1076.93
577.69	1073.53
578.04	1076.79
578.39	1076.60
578.74	1077.79
579.09	1081.49
579.44	1081.23
579.80	1082.99
580.15	1082.45
580.50	1079.41
580.85	1079.85
581.20	1080.84
581.55	1080.46
581.90	1083.06
582.25	1081.37
582.60	1080.48
582.95	1079.83
583.30	1081.91
583.65	1081.58
584.00	1084.51
584.35	1083.46
584.71	1081.44
585.06	1076.72
585.41	1076.53
585.76	1074.38
586.11	1074.70
586.46	1080.04
586.81	1078.75
587.16	1075.69
587.51	1074.61
587.86	1075.87
588.21	1073.00
588.56	1078.54
588.91	1080.46
589.26	1083.64
589.61	1082.73
589.96	1083.25
590.31	1080.16
590.66	1079.13
591.01	1079.71
591.36	1080.48
591.71	1080.72
592.06	1078.05
592.41	1079.53
592.76	1079.06
593.10	1081.33
593.45	1081.96
593.80	1082.78
594.15	1082.01
594.50	1081.98
594.85	1078.71
595.20	1075.97
595.55	1078.87
595.90	1077.70
596.25	1077.40
596.60	1078.05
596.95	1078.54
597.30	1077.84
597.64	1090.46
597.99	1089.73
598.34	1089.66
598.69	1091.34
599.04	1090.29
599.39	1078.43
599.74	1077.33
600.09	1075.48
600.44	1075.31
600.78	1072.43
601.13	1072.06
601.48	1070.30
601.83	1071.05
602.18	1070.63
602.53	1072.88
602.88	1074.96
603.22	1078.92
603.57	1079.13
603.92	1076.76
604.27	1076.23
604.62	1077.91
604.97	1075.55
605.31	1075.76
605.66	1076.30
606.01	1075.99
606.36	1076.01
606.71	1077.37
607.05	1077.61
607.40	1078.92
607.75	1078.99
608.10	1076.69
608.44	1077.11
608.79	1076.74
609.14	1075.22
609.49	1077.63
609.84	1077.75
610.18	1078.73
610.53	1079.46
610.88	1082.54
611.23	1081.68
611.57	1078.71
611.92	1076.18
612.27	1076.25
612.62	1073.67
612.96	1073.56
613.31	1076.46
613.66	1078.40
614.00	1076.67
614.35	1077.86
614.70	1079.53
615.05	1077.75
615.39	1075.64
615.74	1080.53
616.09	1082.19
616.43	1077.79
616.78	1077.93
617.13	1080.34
617.47	1078.54
617.82	1077.89
618.17	1078.66
618.51	1081.54
618.86	1080.63
619.21	1080.18
619.55	1081.87
619.90	1085.28
620.25	1086.17
620.59	1086.38
620.94	1085.17
621.29	1081.42
621.63	1081.16
621.98	1077.49
622.32	1077.35
622.67	1078.03
623.02	1081.63
623.36	1079.69
623.71	1079.34
624.05	1076.37
624.40	1075.27
624.75	1073.77
625.09	1076.23
625.44	1078.03
625.78	1079.08
626.13	1082.52
626.48	1082.36
626.82	1078.33
627.17	1081.49
627.51	1082.03
627.86	1079.46
628.20	1079.08
628.55	1082.26
628.89	1080.04
629.24	1080.74
629.58	1081.91
629.93	1079.69
630.28	1079.17
630.62	1077.18
630.97	1079.41
631.31	1078.14
631.66	1080.09
632.00	1082.59
632.35	1082.31
632.69	1079.76
633.04	1080.30
633.38	1079.64
633.73	1075.80
634.07	1079.92
634.42	1080.88
634.76	1081.14
635.11	1080.16
635.45	1080.41
635.79	1078.73
636.14	1080.11
636.48	1077.86
636.83	1079.83
637.17	1079.92
637.52	1079.20
637.86	1073.88
638.21	1073.95
638.55	1071.80
638.89	1071.85
639.24	1071.43
639.58	1075.08
639.93	1073.21
640.27	1074.42
640.61	1076.97
640.96	1078.85
641.30	1080.20
641.65	1082.40
641.99	1082.12
642.33	1080.84
642.68	1081.70
643.02	1080.41
643.37	1081.42
643.71	1081.58
644.05	1080.56
644.40	1078.45
644.74	1078.96
645.08	1077.63
645.43	1077.47
645.77	1074.35
646.11	1073.51
646.46	1071.22
646.80	1070.84
647.14	1071.05
647.49	1076.76
647.83	1076.15
648.17	1080.44
648.52	1081.75
648.86	1081.51
649.20	1078.68
649.55	1076.37
649.89	1073.44
650.23	1075.41
650.57	1077.25
650.92	1078.64
651.26	1081.87
651.60	1080.93
651.95	1078.82
652.29	1079.69
652.63	1076.86
652.97	1075.15
653.32	1076.30
653.66	1072.74
654.00	1072.62
654.34	1074.21
654.69	1078.40
655.03	1078.57
655.37	1084.00
655.71	1083.29
656.05	1083.06
656.40	1080.23
656.74	1079.48
657.08	1078.47
657.42	1077.00
657.76	1077.49
658.11	1077.82
658.45	1079.17
658.79	1077.35
659.13	1078.96
659.47	1078.05
659.82	1077.51
660.16	1076.76
660.50	1074.03
660.84	1071.59
661.18	1072.15
661.52	1076.23
661.87	1076.62
662.21	1080.13
662.55	1080.37
662.89	1082.10
663.23	1080.16
663.57	1078.10
663.91	1077.40
664.25	1078.07
664.60	1075.62
664.94	1073.00
665.28	1074.26
665.62	1074.45
665.96	1073.60
666.30	1076.15
666.64	1079.55
666.98	1077.02
667.32	1075.80
667.66	1074.84
668.01	1073.63
668.35	1071.03
668.69	1074.26
669.03	1078.26
669.37	1077.00
669.71	1076.44
670.05	1077.58
670.39	1076.55
670.73	1074.17
671.07	1075.57
671.41	1075.22
671.75	1073.51
672.09	1074.31
672.43	1070.96
672.77	1073.95
673.11	1072.60
673.45	1072.60
673.79	1073.51
674.13	1074.84
674.47	1071.24
674.81	1073.02
675.15	1072.01
675.49	1071.59
675.83	1071.94
676.17	1077.23
676.51	1072.92
676.85	1073.39
677.19	1073.53
677.53	1074.19
677.87	1075.15
678.21	1081.68
678.55	1080.06
678.89	1077.79
679.23	1080.13
679.57	1075.76
679.90	1071.90
680.24	1073.37
680.58	1076.67
680.92	1077.63
681.26	1080.72
681.60	1081.91
681.94	1084.70
682.28	1081.21
682.62	1079.13
682.96	1075.92
683.29	1077.58
683.63	1074.68
683.97	1077.00
684.31	1076.79
684.65	1075.69
684.99	1074.75
685.33	1075.78
685.67	1072.81
686.00	1072.43
686.34	1074.14
686.68	1073.84
687.02	1072.81
687.36	1073.91
687.70	1071.66
688.03	1068.78
688.37	1069.55
688.71	1069.39
689.05	1072.50
689.39	1075.55
689.72	1074.49
690.06	1072.90
690.40	1072.88
690.74	1067.89
691.08	1067.68
691.41	1070.58
691.75	1070.84
692.09	1072.06
692.43	1072.57
692.76	1069.93
693.10	1068.97
693.44	1071.05
693.78	1071.43
694.11	1075.29
694.45	1078.92
694.79	1077.86
695.13	1074.47
695.46	1076.58
695.80	1075.05
696.14	1074.26
696.48	1075.90
696.81	1078.73
697.15	1075.50
697.49	1075.45
697.82	1073.07
698.16	1072.53
698.50	1070.51
698.83	1071.61
699.17	1072.48
699.51	1076.18
699.84	1077.40
700.18	1077.00
700.52	1074.59
700.85	1073.35
701.19	1072.11
701.53	1071.50
701.86	1075.15
702.20	1078.31
702.54	1079.01
702.87	1078.21
703.21	1078.03
703.55	1076.90
703.88	1074.61
704.22	1070.68
704.55	1073.79
704.89	1075.78
705.23	1074.91
705.56	1078.66
705.90	1077.04
706.23	1074.17
706.57	1073.37
706.91	1076.32
707.24	1072.67
707.58	1079.29
707.91	1080.37
708.25	1078.92
708.58	1075.17
708.92	1074.05
709.26	1073.86
709.59	1074.42
709.93	1076.86
710.26	1076.55
710.60	1078.17
710.93	1074.03
711.27	1071.15
711.60	1066.49
711.94	1066.63
712.27	1068.34
712.61	1071.45
712.94	1070.26
713.28	1072.04
713.61	1075.27
713.95	1073.74
714.28	1071.40
714.62	1072.48
714.95	1073.42
715.29	1074.35
715.62	1073.56
715.96	1076.23
716.29	1079.31
716.63	1080.93
716.96	1078.87
717.29	1079.15
717.63	1078.00
717.96	1075.94
718.30	1075.13
718.63	1076.65
718.97	1077.63
719.30	1078.26
719.63	1076.08
719.97	1077.35
720.30	1074.10
720.64	1074.59
720.97	1075.34
721.30	1080.16
721.64	1076.27
721.97	1074.59
722.31	1074.38
722.64	1074.45
722.97	1074.31
723.31	1077.79
723.64	1080.04
723.97	1078.52
724.31	1080.37
724.64	1078.26
724.98	1074.40
725.31	1071.80
725.64	1070.75
725.98	1066.35
726.31	1064.34
726.64	1066.25
726.97	1067.35
727.31	1069.70
727.64	1073.23
727.97	1074.03
728.31	1072.76
728.64	1075.83
728.97	1075.64
729.31	1075.05
729.64	1076.60
729.97	1081.02
730.30	1079.17
730.64	1074.28
730.97	1073.53
731.30	1072.22
731.63	1070.28
731.97	1070.37
732.30	1075.43
732.63	1076.93
732.96	1079.20
733.30	1077.72
733.63	1078.92
733.96	1077.21
734.29	1072.64
734.63	1073.14
734.96	1073.32
735.29	1069.79
735.62	1072.50
735.95	1074.77
736.29	1071.54
736.62	1070.35
736.95	1071.87
737.28	1072.27
737.61	1073.28
737.94	1074.31
738.28	1075.48
738.61	1075.50
738.94	1074.05
739.27	1073.49
739.60	1072.15
739.93	1070.16
740.27	1073.18
740.60	1073.09
740.93	1071.68
741.26	1072.34
741.59	1073.23
741.92	1069.30
742.25	1070.12
742.58	1072.32
742.91	1072.97
743.25	1074.42
743.58	1075.66
743.91	1077.04
744.24	1076.90
744.57	1076.97
744.90	1079.08
745.23	1079.60
745.56	1077.51
745.89	1076.25
746.22	1075.15
746.55	1074.03
746.88	1073.42
747.21	1074.14
747.54	1074.96
747.87	1076.20
748.20	1076.58
748.53	1075.20
748.87	1071.82
749.20	1071.15
749.53	1074.54
749.86	1074.45
750.19	1076.06
750.52	1078.05
750.85	1081.21
751.18	1076.74
751.51	1075.80
751.84	1075.90
752.16	1075.50
752.49	1072.53
752.82	1073.44
753.15	1076.11
753.48	1076.23
753.81	1076.86
754.14	1073.32
754.47	1072.76
754.80	1070.12
755.13	1069.77
755.46	1073.37
755.79	1076.95
756.12	1077.93
756.45	1077.49
756.78	1078.57
757.11	1072.43
757.43	1073.81
757.76	1072.25
758.09	1070.68
758.42	1071.90
758.75	1073.79
759.08	1073.00
759.41	1077.51
759.74	1076.30
760.07	1076.51
760.39	1078.36
760.72	1077.21
761.05	1073.51
761.38	1076.97
761.71	1074.96
762.04	1076.27
762.36	1076.65
762.69	1074.98
763.02	1074.80
763.35	1073.21
763.68	1071.22
764.01	1070.82
764.33	1071.73
764.66	1072.11
764.99	1077.02
765.32	1077.44
