SpectraSuite Data File
++++++++++++++++++++++++++++++++++++
Date: Mon Aug 26 10:22:25 PDT 2019
User: corrico
Dark Spectrum Present: No
Reference Spectrum Present: No
Number of Sampled Component Spectra: 1
Spectrometers: USB2+H06089
Integration Time (usec): 2000 (USB2+H06089)
Spectra Averaged: 20 (USB2+H06089)
Boxcar Smoothing: 2 (USB2+H06089)
Correct for Electrical Dark: No (USB2+H06089)
Strobe/Lamp Enabled: No (USB2+H06089)
Correct for Detector Non-linearity: No (USB2+H06089)
Correct for Stray Light: No (USB2+H06089)
Number of Pixels in Processed Spectrum: 2048
>>>>>Begin Processed Spectral Data<<<<<
339.70	1034.75
340.07	1034.75
340.45	995.08
340.82	972.40
341.19	946.77
341.57	921.98
341.94	911.85
342.31	906.04
342.69	900.99
343.06	896.85
343.43	894.81
343.81	897.81
344.18	901.69
344.55	904.90
344.93	909.79
345.30	917.63
345.67	922.57
346.04	930.27
346.42	941.46
346.79	950.05
347.16	955.95
347.54	962.52
347.91	972.89
348.28	979.54
348.65	991.36
349.03	1000.91
349.40	1011.74
349.77	1019.02
350.14	1027.66
350.52	1035.31
350.89	1043.55
351.26	1050.25
351.63	1053.57
352.01	1057.73
352.38	1059.49
352.75	1062.39
353.12	1065.04
353.50	1069.39
353.87	1073.53
354.24	1076.67
354.61	1075.83
354.98	1077.42
355.36	1076.74
355.73	1077.18
356.10	1076.74
356.47	1080.58
356.84	1079.27
357.22	1079.92
357.59	1081.66
357.96	1080.60
358.33	1081.40
358.70	1085.52
359.08	1087.72
359.45	1083.74
359.82	1088.56
360.19	1083.88
360.56	1081.77
360.94	1078.85
361.31	1077.49
361.68	1076.27
362.05	1080.81
362.42	1079.83
362.79	1079.64
363.16	1080.16
363.54	1076.97
363.91	1075.80
364.28	1077.14
364.65	1078.33
365.02	1077.61
365.39	1078.99
365.76	1077.09
366.14	1074.21
366.51	1073.44
366.88	1075.48
367.25	1074.59
367.62	1076.18
367.99	1077.70
368.36	1074.47
368.73	1074.61
369.10	1074.26
369.48	1071.36
369.85	1071.45
370.22	1073.70
370.59	1072.22
370.96	1072.27
371.33	1075.94
371.70	1079.48
372.07	1079.95
372.44	1079.24
372.81	1080.84
373.18	1078.52
373.55	1074.14
373.93	1075.01
374.30	1075.10
374.67	1074.68
375.04	1074.75
375.41	1073.21
375.78	1070.58
376.15	1070.26
376.52	1067.82
376.89	1066.91
377.26	1067.96
377.63	1070.16
378.00	1070.89
378.37	1071.85
378.74	1074.96
379.11	1074.26
379.48	1073.37
379.85	1073.84
380.22	1077.02
380.59	1077.00
380.96	1079.46
381.33	1083.34
381.70	1086.85
382.07	1085.28
382.44	1082.92
382.81	1084.63
383.18	1081.77
383.55	1080.18
383.92	1080.58
384.29	1080.44
384.66	1079.88
385.03	1081.54
385.40	1078.85
385.77	1080.18
386.14	1080.30
386.51	1081.28
386.88	1082.57
387.25	1083.71
387.62	1084.77
387.99	1089.12
388.36	1089.73
388.73	1091.70
389.10	1093.15
389.46	1090.48
389.83	1086.36
390.20	1084.25
390.57	1078.66
390.94	1079.95
391.31	1082.78
391.68	1085.31
392.05	1084.32
392.42	1085.00
392.79	1084.46
393.16	1082.50
393.53	1080.67
393.89	1081.14
394.26	1082.45
394.63	1085.07
395.00	1086.27
395.37	1088.00
395.74	1086.83
396.11	1087.25
396.48	1086.66
396.84	1087.58
397.21	1085.40
397.58	1089.31
397.95	1087.04
398.32	1085.31
398.69	1085.00
399.06	1087.69
399.42	1085.47
399.79	1087.48
400.16	1083.97
400.53	1086.55
400.90	1089.31
401.27	1090.95
401.64	1091.53
402.00	1093.01
402.37	1087.62
402.74	1084.46
403.11	1086.78
403.48	1086.03
403.84	1089.87
404.21	1094.20
404.58	1091.88
404.95	1090.36
405.32	1089.87
405.68	1089.19
406.05	1088.33
406.42	1089.61
406.79	1090.78
407.16	1095.16
407.52	1096.92
407.89	1098.90
408.26	1100.45
408.63	1100.96
408.99	1097.90
409.36	1095.72
409.73	1094.29
410.10	1092.56
410.47	1091.77
410.83	1095.02
411.20	1097.20
411.57	1097.20
411.94	1098.53
412.30	1101.20
412.67	1100.89
413.04	1101.71
413.40	1103.02
413.77	1106.30
414.14	1107.07
414.51	1103.52
414.87	1101.67
415.24	1100.73
415.61	1098.51
415.97	1096.07
416.34	1101.27
416.71	1103.07
417.08	1105.13
417.44	1106.77
417.81	1108.27
418.18	1104.87
418.54	1107.07
418.91	1108.81
419.28	1110.07
419.64	1113.23
420.01	1117.72
420.38	1115.71
420.74	1117.68
421.11	1121.16
421.48	1120.04
421.84	1121.07
422.21	1123.18
422.58	1121.49
422.94	1122.59
423.31	1123.04
423.68	1126.22
424.04	1131.09
424.41	1138.02
424.77	1138.90
425.14	1145.13
425.51	1151.87
425.87	1157.21
426.24	1156.29
426.61	1161.61
426.97	1164.91
427.34	1163.97
427.70	1168.23
428.07	1175.72
428.44	1183.73
428.80	1189.30
429.17	1199.24
429.53	1208.54
429.90	1219.72
430.27	1227.00
430.63	1238.92
431.00	1250.20
431.36	1259.72
431.73	1269.09
432.09	1284.93
432.46	1299.35
432.83	1314.80
433.19	1330.45
433.56	1349.23
433.92	1368.09
434.29	1389.13
434.65	1408.96
435.02	1435.36
435.38	1467.84
435.75	1494.20
436.11	1525.30
436.48	1562.47
436.84	1594.68
437.21	1626.67
437.57	1664.38
437.94	1705.24
438.30	1743.11
438.67	1788.15
439.03	1835.73
439.40	1891.86
439.76	1950.35
440.13	2014.01
440.49	2080.69
440.86	2145.41
441.22	2214.12
441.59	2282.65
441.95	2361.41
442.32	2445.53
442.68	2538.40
443.05	2631.49
443.41	2728.64
443.78	2827.65
444.14	2932.36
444.51	3042.32
444.87	3178.47
445.24	3324.33
445.60	3477.38
445.96	3634.83
446.33	3811.42
446.69	3970.70
447.06	4146.33
447.42	4332.40
447.79	4517.84
448.15	4733.38
448.51	4965.98
448.88	5221.64
449.24	5469.29
449.61	5751.66
449.97	6027.91
450.33	6316.92
450.70	6578.38
451.06	6893.11
451.43	7201.24
451.79	7556.86
452.15	7947.10
452.52	8410.36
452.88	8872.76
453.24	9403.20
453.61	9975.34
453.97	10536.37
454.34	11062.12
454.70	11712.72
455.06	12345.67
455.43	12980.82
455.79	13577.52
456.15	14294.33
456.52	14940.95
456.88	15712.55
457.24	16409.19
457.61	17256.51
457.97	18029.73
458.33	18808.01
458.70	19555.90
459.06	20318.87
459.42	21125.82
459.79	21900.11
460.15	22787.39
460.51	23649.36
460.88	24595.78
461.24	25409.67
461.60	26348.53
461.96	27222.93
462.33	28052.51
462.69	28817.19
463.05	29657.51
463.42	30375.99
463.78	31012.33
464.14	31551.36
464.50	32122.38
464.87	32594.07
465.23	32932.91
465.59	33278.25
465.95	33613.65
466.32	33882.46
466.68	34109.52
467.04	34260.74
467.40	34399.79
467.77	34555.39
468.13	34550.96
468.49	34479.67
468.85	34436.75
469.22	34287.33
469.58	33945.47
469.94	33699.76
470.30	33372.11
470.66	32955.59
471.03	32369.68
471.39	31962.66
471.75	31337.92
472.11	30736.64
472.47	30348.58
472.84	30039.75
473.20	29559.28
473.56	29273.85
473.92	28859.81
474.28	28329.66
474.65	27817.83
475.01	27329.10
475.37	26752.14
475.73	26278.74
476.09	25759.30
476.45	25232.47
476.81	24717.72
477.18	24197.75
477.54	23753.02
477.90	23402.97
478.26	22988.93
478.62	22659.92
478.98	22373.13
479.34	22065.10
479.71	21660.82
480.07	21325.49
480.43	20975.76
480.79	20595.05
481.15	20239.03
481.51	19937.53
481.87	19685.17
482.23	19390.03
482.59	19130.32
482.96	18843.75
483.32	18540.34
483.68	18183.39
484.04	17833.13
484.40	17461.15
484.76	17101.29
485.12	16740.52
485.48	16421.74
485.84	16095.02
486.20	15760.49
486.56	15403.46
486.92	15091.63
487.28	14740.06
487.64	14373.89
488.00	14037.55
488.37	13717.36
488.73	13372.88
489.09	13009.73
489.45	12702.39
489.81	12391.62
490.17	12098.65
490.53	11812.54
490.89	11524.70
491.25	11236.00
491.61	10930.82
491.97	10609.02
492.33	10278.11
492.69	9978.71
493.05	9667.33
493.41	9379.51
493.77	9098.41
494.13	8840.06
494.49	8593.67
494.85	8354.89
495.21	8134.25
495.57	7922.76
495.93	7717.00
496.29	7511.04
496.64	7328.99
497.00	7125.46
497.36	6930.12
497.72	6746.22
498.08	6567.66
498.44	6380.25
498.80	6218.64
499.16	6064.33
499.52	5905.36
499.88	5772.37
500.24	5662.01
500.60	5545.06
500.96	5427.49
501.32	5316.55
501.68	5198.03
502.03	5065.53
502.39	4938.74
502.75	4807.46
503.11	4684.04
503.47	4567.98
503.83	4448.47
504.19	4329.10
504.55	4220.34
504.91	4118.24
505.26	4020.13
505.62	3936.55
505.98	3847.79
506.34	3759.65
506.70	3674.41
507.06	3590.99
507.42	3506.75
507.78	3428.44
508.13	3349.59
508.49	3275.58
508.85	3199.16
509.21	3134.61
509.57	3070.43
509.93	3007.42
510.28	2936.41
510.64	2873.90
511.00	2804.90
511.36	2745.66
511.72	2693.07
512.07	2645.04
512.43	2597.97
512.79	2545.78
513.15	2498.66
513.51	2450.03
513.86	2407.38
514.22	2364.15
514.58	2323.36
514.94	2284.50
515.30	2253.16
515.65	2215.08
516.01	2184.84
516.37	2155.96
516.73	2129.65
517.08	2101.45
517.44	2073.46
517.80	2043.05
518.16	2017.05
518.51	1986.86
518.87	1953.83
519.23	1930.08
519.59	1903.51
519.94	1877.02
520.30	1854.08
520.66	1827.89
521.01	1802.19
521.37	1781.78
521.73	1761.30
522.09	1742.11
522.44	1727.57
522.80	1709.48
523.16	1682.31
523.51	1661.62
523.87	1639.90
524.23	1617.80
524.58	1598.54
524.94	1587.30
525.30	1570.48
525.65	1554.28
526.01	1538.83
526.37	1523.97
526.72	1513.55
527.08	1500.00
527.44	1485.96
527.79	1474.87
528.15	1461.99
528.51	1443.99
528.86	1432.15
529.22	1426.28
529.58	1414.74
529.93	1405.23
530.29	1399.85
530.65	1388.64
531.00	1372.26
531.36	1360.37
531.71	1347.42
532.07	1339.37
532.43	1333.12
532.78	1324.86
533.14	1323.50
533.49	1319.48
533.85	1311.43
534.21	1305.76
534.56	1307.38
534.92	1300.89
535.27	1297.27
535.63	1292.14
535.98	1285.38
536.34	1272.76
536.69	1265.41
537.05	1257.71
537.41	1249.38
537.76	1245.68
538.12	1243.04
538.47	1241.47
538.83	1237.68
539.18	1233.25
539.54	1227.85
539.89	1225.81
540.25	1220.57
540.60	1217.66
540.96	1215.44
541.31	1211.84
541.67	1208.18
542.02	1206.87
542.38	1204.02
542.73	1202.38
543.09	1202.97
543.44	1200.23
543.80	1191.24
544.15	1187.63
544.51	1185.32
544.86	1180.05
545.22	1174.90
545.57	1175.84
545.93	1171.67
546.28	1166.57
546.64	1164.46
546.99	1165.21
547.35	1164.86
547.70	1165.89
548.05	1165.56
548.41	1162.31
548.76	1160.44
549.12	1156.83
549.47	1151.89
549.83	1149.20
550.18	1147.21
550.53	1143.23
550.89	1141.08
551.24	1142.28
551.60	1141.27
551.95	1136.47
552.30	1134.15
552.66	1132.80
553.01	1133.57
553.37	1133.43
553.72	1135.67
554.07	1135.70
554.43	1136.33
554.78	1130.88
555.13	1128.44
555.49	1131.09
555.84	1131.13
556.19	1126.71
556.55	1126.80
556.90	1127.69
557.26	1123.48
557.61	1118.68
557.96	1117.28
558.32	1116.44
558.67	1112.11
559.02	1112.92
559.37	1111.68
559.73	1114.28
560.08	1113.14
560.43	1113.14
560.79	1110.49
561.14	1111.29
561.49	1108.13
561.85	1109.48
562.20	1108.48
562.55	1108.03
562.90	1108.38
563.26	1109.04
563.61	1107.64
563.96	1107.05
564.32	1106.61
564.67	1106.91
565.02	1108.01
565.37	1106.56
565.73	1106.23
566.08	1107.49
566.43	1107.19
566.78	1104.10
567.14	1102.84
567.49	1102.67
567.84	1102.39
568.19	1104.66
568.54	1104.38
568.90	1106.84
569.25	1105.88
569.60	1101.67
569.95	1101.57
570.31	1103.68
570.66	1099.61
571.01	1098.53
571.36	1096.07
571.71	1090.27
572.06	1088.26
572.42	1090.67
572.77	1092.19
573.12	1098.53
573.47	1101.71
573.82	1101.34
574.18	1099.54
574.53	1101.32
574.88	1098.98
575.23	1098.41
575.58	1098.25
575.93	1099.51
576.28	1097.64
576.64	1096.12
576.99	1096.42
577.34	1093.78
577.69	1089.82
578.04	1089.89
578.39	1088.75
578.74	1086.17
579.09	1088.51
579.44	1090.50
579.80	1088.84
580.15	1089.36
580.50	1088.77
580.85	1088.77
581.20	1091.13
581.55	1090.10
581.90	1092.70
582.25	1092.42
582.60	1092.37
582.95	1089.22
583.30	1092.70
583.65	1091.65
584.00	1091.98
584.35	1092.40
584.71	1092.73
585.06	1086.97
585.41	1088.40
585.76	1088.54
586.11	1089.19
586.46	1087.93
586.81	1090.97
587.16	1089.07
587.51	1090.10
587.86	1088.70
588.21	1091.81
588.56	1091.74
588.91	1092.63
589.26	1089.61
589.61	1089.17
589.96	1089.71
590.31	1091.04
590.66	1088.68
591.01	1088.30
591.36	1086.90
591.71	1085.35
592.06	1082.73
592.41	1083.13
592.76	1084.60
593.10	1081.28
593.45	1080.65
593.80	1082.83
594.15	1081.07
594.50	1083.32
594.85	1086.24
595.20	1084.93
595.55	1084.51
595.90	1085.10
596.25	1082.92
596.60	1082.26
596.95	1080.88
597.30	1080.37
597.64	1090.50
597.99	1089.66
598.34	1092.59
598.69	1094.39
599.04	1092.96
599.39	1084.39
599.74	1085.07
600.09	1085.05
600.44	1084.84
600.78	1084.37
601.13	1085.12
601.48	1088.49
601.83	1087.04
602.18	1083.76
602.53	1088.30
602.88	1085.91
603.22	1081.19
603.57	1081.84
603.92	1084.46
604.27	1081.77
604.62	1084.89
604.97	1089.80
605.31	1088.07
605.66	1089.78
606.01	1087.69
606.36	1083.83
606.71	1079.31
607.05	1080.56
607.40	1080.77
607.75	1083.36
608.10	1086.15
608.44	1086.01
608.79	1083.41
609.14	1080.91
609.49	1079.81
609.84	1079.97
610.18	1078.50
610.53	1082.19
610.88	1083.57
611.23	1083.55
611.57	1083.55
611.92	1085.68
612.27	1084.35
612.62	1082.99
612.96	1086.83
613.31	1086.45
613.66	1088.37
614.00	1090.17
614.35	1090.43
614.70	1087.13
615.05	1085.45
615.39	1083.81
615.74	1082.12
616.09	1083.81
616.43	1083.69
616.78	1084.53
617.13	1086.13
617.47	1083.60
617.82	1082.50
618.17	1079.88
618.51	1079.50
618.86	1078.96
619.21	1082.08
619.55	1080.34
619.90	1083.06
620.25	1082.87
620.59	1080.32
620.94	1079.41
621.29	1081.02
621.63	1080.81
621.98	1079.90
622.32	1081.23
622.67	1081.23
623.02	1080.25
623.36	1082.26
623.71	1083.08
624.05	1081.63
624.40	1080.46
624.75	1082.69
625.09	1080.18
625.44	1081.00
625.78	1083.60
626.13	1083.27
626.48	1082.83
626.82	1081.80
627.17	1080.93
627.51	1080.56
627.86	1081.66
628.20	1081.47
628.55	1080.60
628.89	1082.99
629.24	1083.67
629.58	1084.49
629.93	1080.34
630.28	1082.33
630.62	1084.89
630.97	1083.15
631.31	1080.27
631.66	1081.19
632.00	1079.31
632.35	1074.87
632.69	1073.79
633.04	1076.39
633.38	1077.84
633.73	1080.63
634.07	1080.16
634.42	1082.85
634.76	1083.27
635.11	1083.32
635.45	1080.37
635.79	1079.08
636.14	1079.95
636.48	1080.11
636.83	1079.55
637.17	1081.75
637.52	1082.61
637.86	1079.78
638.21	1078.50
638.55	1081.23
638.89	1080.51
639.24	1079.10
639.58	1082.22
639.93	1081.40
640.27	1079.57
640.61	1080.04
640.96	1082.92
641.30	1085.87
641.65	1089.78
641.99	1090.22
642.33	1091.70
642.68	1091.46
643.02	1086.94
643.37	1083.04
643.71	1084.37
644.05	1081.37
644.40	1082.73
644.74	1082.33
645.08	1084.63
645.43	1082.12
645.77	1088.65
646.11	1086.80
646.46	1087.60
646.80	1084.72
647.14	1084.89
647.49	1078.57
647.83	1078.80
648.17	1078.73
648.52	1079.36
648.86	1079.41
649.20	1081.26
649.55	1080.09
649.89	1080.20
650.23	1080.56
650.57	1081.91
650.92	1082.38
651.26	1083.39
651.60	1080.63
651.95	1081.44
652.29	1082.43
652.63	1079.90
652.97	1077.82
653.32	1080.46
653.66	1081.87
654.00	1081.37
654.34	1083.62
654.69	1083.41
655.03	1081.19
655.37	1078.85
655.71	1076.32
656.05	1076.72
656.40	1079.78
656.74	1078.85
657.08	1082.52
657.42	1085.10
657.76	1085.59
658.11	1083.88
658.45	1086.36
658.79	1085.94
659.13	1084.46
659.47	1081.58
659.82	1083.67
660.16	1081.75
660.50	1076.46
660.84	1079.38
661.18	1082.78
661.52	1081.28
661.87	1084.70
662.21	1087.37
662.55	1085.28
662.89	1083.20
663.23	1082.80
663.57	1081.14
663.91	1079.20
664.25	1080.27
664.60	1080.48
664.94	1078.21
665.28	1079.31
665.62	1080.65
665.96	1080.65
666.30	1077.82
666.64	1080.98
666.98	1077.54
667.32	1075.17
667.66	1074.89
668.01	1078.80
668.35	1080.20
668.69	1082.83
669.03	1086.94
669.37	1086.08
669.71	1083.83
670.05	1081.16
670.39	1080.37
670.73	1079.92
671.07	1080.70
671.41	1083.50
671.75	1084.18
672.09	1083.27
672.43	1079.74
672.77	1077.89
673.11	1075.59
673.45	1076.58
673.79	1075.52
674.13	1078.94
674.47	1078.50
674.81	1078.24
675.15	1075.71
675.49	1078.57
675.83	1076.15
676.17	1078.19
676.51	1078.92
676.85	1079.88
677.19	1079.78
677.53	1081.40
677.87	1080.04
678.21	1077.61
678.55	1078.14
678.89	1078.03
679.23	1079.13
679.57	1079.27
679.90	1079.50
680.24	1081.82
680.58	1082.19
680.92	1078.87
681.26	1079.95
681.60	1078.52
681.94	1076.79
682.28	1077.65
682.62	1080.98
682.96	1080.27
683.29	1083.79
683.63	1082.59
683.97	1078.61
684.31	1077.63
684.65	1077.07
684.99	1075.20
685.33	1075.13
685.67	1076.81
686.00	1079.76
686.34	1079.36
686.68	1081.44
687.02	1082.99
687.36	1084.91
687.70	1083.60
688.03	1084.09
688.37	1085.80
688.71	1084.81
689.05	1084.49
689.39	1083.36
689.72	1085.89
690.06	1086.83
690.40	1086.90
690.74	1084.72
691.08	1083.08
691.41	1079.74
691.75	1078.94
692.09	1080.34
692.43	1079.60
692.76	1080.32
693.10	1079.78
693.44	1074.47
693.78	1072.57
694.11	1073.00
694.45	1072.01
694.79	1072.74
695.13	1076.34
695.46	1076.97
695.80	1079.34
696.14	1081.28
696.48	1084.49
696.81	1084.30
697.15	1085.05
697.49	1083.76
697.82	1085.87
698.16	1085.24
698.50	1083.71
698.83	1082.36
699.17	1081.75
699.51	1079.95
699.84	1079.78
700.18	1081.02
700.52	1082.31
700.85	1084.37
701.19	1083.41
701.53	1083.50
701.86	1085.07
702.20	1083.64
702.54	1084.07
702.87	1082.73
703.21	1082.43
703.55	1080.88
703.88	1081.00
704.22	1079.62
704.55	1082.50
704.89	1079.92
705.23	1081.44
705.56	1082.83
705.90	1080.44
706.23	1081.63
706.57	1083.48
706.91	1083.71
707.24	1083.93
707.58	1084.79
707.91	1084.46
708.25	1085.17
708.58	1079.24
708.92	1079.99
709.26	1083.11
709.59	1081.19
709.93	1081.75
710.26	1086.87
710.60	1083.74
710.93	1081.82
711.27	1081.75
711.60	1081.19
711.94	1080.09
712.27	1082.47
712.61	1084.84
712.94	1085.87
713.28	1088.16
713.61	1090.43
713.95	1090.17
714.28	1089.61
714.62	1084.89
714.95	1084.79
715.29	1080.56
715.62	1082.01
715.96	1079.24
716.29	1081.80
716.63	1079.15
716.96	1078.87
717.29	1075.36
717.63	1077.44
717.96	1079.55
718.30	1078.78
718.63	1079.62
718.97	1083.53
719.30	1082.03
719.63	1079.50
719.97	1080.44
720.30	1083.34
720.64	1078.92
720.97	1081.66
721.30	1082.01
721.64	1082.38
721.97	1080.41
722.31	1080.86
722.64	1080.63
722.97	1083.04
723.31	1083.22
723.64	1083.79
723.97	1084.58
724.31	1082.85
724.64	1081.19
724.98	1078.80
725.31	1079.10
725.64	1078.75
725.98	1077.51
726.31	1075.50
726.64	1078.47
726.97	1077.28
727.31	1076.79
727.64	1078.52
727.97	1079.48
728.31	1078.03
728.64	1077.54
728.97	1078.52
729.31	1077.79
729.64	1076.39
729.97	1076.65
730.30	1076.90
730.64	1073.98
730.97	1072.74
731.30	1073.91
731.63	1073.18
731.97	1074.52
732.30	1079.95
732.63	1079.22
732.96	1080.06
733.30	1080.72
733.63	1076.90
733.96	1076.97
734.29	1078.40
734.63	1079.34
734.96	1079.46
735.29	1085.54
735.62	1081.49
735.95	1082.40
736.29	1082.87
736.62	1082.47
736.95	1081.33
737.28	1083.06
737.61	1081.30
737.94	1080.95
738.28	1079.62
738.61	1079.99
738.94	1079.55
739.27	1080.48
739.60	1078.80
739.93	1081.82
740.27	1077.98
740.60	1078.99
740.93	1078.73
741.26	1077.91
741.59	1073.93
741.92	1078.17
742.25	1078.19
742.58	1076.83
742.91	1076.11
743.25	1076.93
743.58	1073.39
743.91	1071.73
744.24	1074.94
744.57	1079.13
744.90	1080.13
745.23	1085.80
745.56	1087.62
745.89	1084.21
746.22	1080.11
746.55	1080.44
746.88	1077.49
747.21	1077.79
747.54	1080.86
747.87	1082.47
748.20	1081.00
748.53	1079.67
748.87	1077.63
749.20	1077.63
749.53	1080.48
749.86	1081.05
750.19	1080.51
750.52	1080.81
750.85	1079.08
751.18	1077.09
751.51	1075.43
751.84	1076.88
752.16	1077.72
752.49	1078.68
752.82	1078.33
753.15	1083.29
753.48	1083.06
753.81	1082.38
754.14	1081.42
754.47	1082.78
754.80	1077.35
755.13	1074.40
755.46	1071.26
755.79	1071.66
756.12	1068.43
756.45	1070.72
756.78	1072.62
757.11	1073.93
757.43	1073.28
757.76	1075.90
758.09	1076.34
758.42	1075.52
758.75	1077.16
759.08	1078.21
759.41	1075.10
759.74	1077.14
760.07	1077.40
760.39	1080.34
760.72	1079.60
761.05	1081.19
761.38	1080.81
761.71	1083.20
762.04	1083.71
762.36	1088.16
762.69	1087.34
763.02	1083.57
763.35	1081.56
763.68	1080.60
764.01	1078.85
