SpectraSuite Data File
++++++++++++++++++++++++++++++++++++
Date: Mon Aug 26 10:21:58 PDT 2019
User: corrico
Dark Spectrum Present: No
Reference Spectrum Present: No
Number of Sampled Component Spectra: 1
Spectrometers: USB2+H06089
Integration Time (usec): 2000 (USB2+H06089)
Spectra Averaged: 20 (USB2+H06089)
Boxcar Smoothing: 2 (USB2+H06089)
Correct for Electrical Dark: No (USB2+H06089)
Strobe/Lamp Enabled: No (USB2+H06089)
Correct for Detector Non-linearity: No (USB2+H06089)
Correct for Stray Light: No (USB2+H06089)
Number of Pixels in Processed Spectrum: 2048
>>>>>Begin Processed Spectral Data<<<<<
339.70	1034.40
340.07	1034.40
340.45	998.96
340.82	974.39
341.19	952.60
341.57	926.71
341.94	914.82
342.31	907.99
342.69	907.29
343.06	899.73
343.43	898.51
343.81	898.98
344.18	898.39
344.55	898.53
344.93	906.23
345.30	912.22
345.67	920.72
346.04	929.64
346.42	939.56
346.79	945.55
347.16	954.73
347.54	964.37
347.91	974.95
348.28	983.56
348.65	994.94
349.03	1001.80
349.40	1009.94
349.77	1017.27
350.14	1024.80
350.52	1029.58
350.89	1036.16
351.26	1038.82
351.63	1044.93
352.01	1049.78
352.38	1053.24
352.75	1059.65
353.12	1063.68
353.50	1068.55
353.87	1071.97
354.24	1076.37
354.61	1078.24
354.98	1080.30
355.36	1079.99
355.73	1079.29
356.10	1078.12
356.47	1077.14
356.84	1077.47
357.22	1077.54
357.59	1078.71
357.96	1084.42
358.33	1082.50
358.70	1082.17
359.08	1078.10
359.45	1076.37
359.82	1070.40
360.19	1069.77
360.56	1067.12
360.94	1067.19
361.31	1069.25
361.68	1069.48
362.05	1070.37
362.42	1070.35
362.79	1071.01
363.16	1066.11
363.54	1065.86
363.91	1065.62
364.28	1067.14
364.65	1068.64
365.02	1071.61
365.39	1075.92
365.76	1077.09
366.14	1076.62
366.51	1076.97
366.88	1075.01
367.25	1069.67
367.62	1069.95
367.99	1069.74
368.36	1065.65
368.73	1063.47
369.10	1063.84
369.48	1063.07
369.85	1063.56
370.22	1066.49
370.59	1068.74
370.96	1069.72
371.33	1067.94
371.70	1067.10
372.07	1062.88
372.44	1063.89
372.81	1062.51
373.18	1064.50
373.55	1068.17
373.93	1072.29
374.30	1072.27
374.67	1073.91
375.04	1072.46
375.41	1070.44
375.78	1070.14
376.15	1069.30
376.52	1068.67
376.89	1069.86
377.26	1068.10
377.63	1067.00
378.00	1068.52
378.37	1071.38
378.74	1071.73
379.11	1075.17
379.48	1075.52
379.85	1075.55
380.22	1073.93
380.59	1074.17
380.96	1072.25
381.33	1073.53
381.70	1075.80
382.07	1077.14
382.44	1077.54
382.81	1075.92
383.18	1076.20
383.55	1075.20
383.92	1073.16
384.29	1069.81
384.66	1073.42
385.03	1073.16
385.40	1070.89
385.77	1073.70
386.14	1078.82
386.51	1079.29
386.88	1079.55
387.25	1079.50
387.62	1077.44
387.99	1073.79
388.36	1073.44
388.73	1074.31
389.10	1077.16
389.46	1078.45
389.83	1080.93
390.20	1081.70
390.57	1080.79
390.94	1079.92
391.31	1082.08
391.68	1078.99
392.05	1075.62
392.42	1077.56
392.79	1077.07
393.16	1073.65
393.53	1076.06
393.89	1077.75
394.26	1078.05
394.63	1080.20
395.00	1079.95
395.37	1079.41
395.74	1077.68
396.11	1079.08
396.48	1076.88
396.84	1077.77
397.21	1077.72
397.58	1078.92
397.95	1075.24
398.32	1078.00
398.69	1078.28
399.06	1081.77
399.42	1080.46
399.79	1083.08
400.16	1081.56
400.53	1082.38
400.90	1079.10
401.27	1078.19
401.64	1077.42
402.00	1077.07
402.37	1076.90
402.74	1076.04
403.11	1077.70
403.48	1078.12
403.84	1078.73
404.21	1076.74
404.58	1079.36
404.95	1080.27
405.32	1081.30
405.68	1080.86
406.05	1081.42
406.42	1080.95
406.79	1082.08
407.16	1077.23
407.52	1077.65
407.89	1081.09
408.26	1080.39
408.63	1081.58
408.99	1083.15
409.36	1081.68
409.73	1077.63
410.10	1078.52
410.47	1078.43
410.83	1079.38
411.20	1080.13
411.57	1082.50
411.94	1081.70
412.30	1077.79
412.67	1077.33
413.04	1076.65
413.40	1075.29
413.77	1076.20
414.14	1080.09
414.51	1080.27
414.87	1083.43
415.24	1086.50
415.61	1085.19
415.97	1083.25
416.34	1083.95
416.71	1081.42
417.08	1081.30
417.44	1083.01
417.81	1085.94
418.18	1090.43
418.54	1096.00
418.91	1095.44
419.28	1094.53
419.64	1092.45
420.01	1089.73
420.38	1087.37
420.74	1087.93
421.11	1091.74
421.48	1096.54
421.84	1098.67
422.21	1097.97
422.58	1099.12
422.94	1098.23
423.31	1099.07
423.68	1100.92
424.04	1101.90
424.41	1103.21
424.77	1107.31
425.14	1106.30
425.51	1107.73
425.87	1111.22
426.24	1114.42
426.61	1114.66
426.97	1116.81
427.34	1121.40
427.70	1124.37
428.07	1127.51
428.44	1133.47
428.80	1139.28
429.17	1140.71
429.53	1143.91
429.90	1149.18
430.27	1152.55
430.63	1158.38
431.00	1166.99
431.36	1175.91
431.73	1182.63
432.09	1190.33
432.46	1196.62
432.83	1201.02
433.19	1205.91
433.56	1218.13
433.92	1228.85
434.29	1241.23
434.65	1256.82
435.02	1273.42
435.38	1285.63
435.75	1300.12
436.11	1318.59
436.48	1333.80
436.84	1353.56
437.21	1372.91
437.57	1392.85
437.94	1412.00
438.30	1434.51
438.67	1454.20
439.03	1483.13
439.40	1513.98
439.76	1545.64
440.13	1580.96
440.49	1621.34
440.86	1655.44
441.22	1690.94
441.59	1727.25
441.95	1765.26
442.32	1803.22
442.68	1847.17
443.05	1899.41
443.41	1956.29
443.78	2017.80
444.14	2078.70
444.51	2141.33
444.87	2211.99
445.24	2278.77
445.60	2351.61
445.96	2429.41
446.33	2517.90
446.69	2601.32
447.06	2693.72
447.42	2794.01
447.79	2897.58
448.15	3010.68
448.51	3134.49
448.88	3272.54
449.24	3398.46
449.61	3556.80
449.97	3709.42
450.33	3858.37
450.70	4006.08
451.06	4184.85
451.43	4350.40
451.79	4546.49
452.15	4754.49
452.52	4976.68
452.88	5194.56
453.24	5441.35
453.61	5716.95
453.97	6001.70
454.34	6292.18
454.70	6628.28
455.06	6951.25
455.43	7252.50
455.79	7538.54
456.15	7864.71
456.52	8179.47
456.88	8578.67
457.24	8975.58
457.61	9454.03
457.97	9888.04
458.33	10340.11
458.70	10760.66
459.06	11166.93
459.42	11605.50
459.79	12038.45
460.15	12539.40
460.51	12987.02
460.88	13450.82
461.24	13856.93
461.60	14296.65
461.96	14649.88
462.33	15008.31
462.69	15408.47
463.05	15865.60
463.42	16331.16
463.78	16762.26
464.14	17158.87
464.50	17532.16
464.87	17763.82
465.23	17862.24
465.59	18022.59
465.95	18189.99
466.32	18295.87
466.68	18410.00
467.04	18520.96
467.40	18532.57
467.77	18525.53
468.13	18505.00
468.49	18445.90
468.85	18400.24
469.22	18361.60
469.58	18279.26
469.94	18176.18
470.30	18023.32
470.66	17802.00
471.03	17500.98
471.39	17228.71
471.75	16863.16
472.11	16533.38
472.47	16295.54
472.84	16062.23
473.20	15761.14
473.56	15554.57
473.92	15288.33
474.28	15061.35
474.65	14865.09
475.01	14687.19
475.37	14455.41
475.73	14289.13
476.09	14047.47
476.45	13789.45
476.81	13552.01
477.18	13321.53
477.54	13108.22
477.90	12909.44
478.26	12680.69
478.62	12461.74
478.98	12302.11
479.34	12154.96
479.71	11965.78
480.07	11782.26
480.43	11618.68
480.79	11393.21
481.15	11160.77
481.51	10996.26
481.87	10872.79
482.23	10683.84
482.59	10525.90
482.96	10337.23
483.32	10141.42
483.68	9933.96
484.04	9769.72
484.40	9582.25
484.76	9443.55
485.12	9304.82
485.48	9191.61
485.84	9042.59
486.20	8906.04
486.56	8722.26
486.92	8534.30
487.28	8330.90
487.64	8146.91
488.00	7971.33
488.37	7799.65
488.73	7605.22
489.09	7403.30
489.45	7228.96
489.81	7056.01
490.17	6899.08
490.53	6752.82
490.89	6604.29
491.25	6447.52
491.61	6294.00
491.97	6134.24
492.33	5980.93
492.69	5834.23
493.05	5686.40
493.41	5555.17
493.77	5415.98
494.13	5274.61
494.49	5139.98
494.85	5026.67
495.21	4891.70
495.57	4776.89
495.93	4669.23
496.29	4561.14
496.64	4438.57
497.00	4323.48
497.36	4218.63
497.72	4124.33
498.08	4040.19
498.44	3960.23
498.80	3878.53
499.16	3790.01
499.52	3700.32
499.88	3616.13
500.24	3534.00
500.60	3463.74
500.96	3392.21
501.32	3314.92
501.68	3241.83
502.03	3171.36
502.39	3102.03
502.75	3035.07
503.11	2981.82
503.47	2924.94
503.83	2869.12
504.19	2809.98
504.55	2761.01
504.91	2703.37
505.26	2649.11
505.62	2600.22
505.98	2555.14
506.34	2506.43
506.70	2461.92
507.06	2426.62
507.42	2382.34
507.78	2347.18
508.13	2306.18
508.49	2266.79
508.85	2222.83
509.21	2188.28
509.57	2149.27
509.93	2111.42
510.28	2080.53
510.64	2048.20
511.00	2014.05
511.36	1977.94
511.72	1950.56
512.07	1921.86
512.43	1896.61
512.79	1874.32
513.15	1849.68
513.51	1824.24
513.86	1796.10
514.22	1773.00
514.58	1750.60
514.94	1731.90
515.30	1709.88
515.65	1691.08
516.01	1671.56
516.37	1650.90
516.73	1635.47
517.08	1623.00
517.44	1612.47
517.80	1597.23
518.16	1578.83
518.51	1563.50
518.87	1544.73
519.23	1529.94
519.59	1514.56
519.94	1505.78
520.30	1490.17
520.66	1479.94
521.01	1465.20
521.37	1453.40
521.73	1438.61
522.09	1427.45
522.44	1414.88
522.80	1402.71
523.16	1393.63
523.51	1382.93
523.87	1373.78
524.23	1367.29
524.58	1362.17
524.94	1353.02
525.30	1344.05
525.65	1333.57
526.01	1323.10
526.37	1314.56
526.72	1308.24
527.08	1302.30
527.44	1295.39
527.79	1290.24
528.15	1281.14
528.51	1275.52
528.86	1270.54
529.22	1266.14
529.58	1261.27
529.93	1256.33
530.29	1249.00
530.65	1241.42
531.00	1236.90
531.36	1228.01
531.71	1224.73
532.07	1222.11
532.43	1218.04
532.78	1212.65
533.14	1209.78
533.49	1209.17
533.85	1203.57
534.21	1201.49
534.56	1197.77
534.92	1198.05
535.27	1191.08
535.63	1187.92
535.98	1183.87
536.34	1180.22
536.69	1175.23
537.05	1172.21
537.41	1171.18
537.76	1167.58
538.12	1169.03
538.47	1167.90
538.83	1166.48
539.18	1164.63
539.54	1162.38
539.89	1156.93
540.25	1152.64
540.60	1150.05
540.96	1148.90
541.31	1147.73
541.67	1147.56
542.02	1146.44
542.38	1142.06
542.73	1138.55
543.09	1139.47
543.44	1138.11
543.80	1135.93
544.15	1137.38
544.51	1131.88
544.86	1129.19
545.22	1127.46
545.57	1124.70
545.93	1124.23
546.28	1124.23
546.64	1121.91
546.99	1121.26
547.35	1121.05
547.70	1121.28
548.05	1122.50
548.41	1123.01
548.76	1118.50
549.12	1120.63
549.47	1118.19
549.83	1117.42
550.18	1117.84
550.53	1119.06
550.89	1114.35
551.24	1112.95
551.60	1110.70
551.95	1107.10
552.30	1107.28
552.66	1108.64
553.01	1108.36
553.37	1108.10
553.72	1109.32
554.07	1109.67
554.43	1107.17
554.78	1103.56
555.13	1099.21
555.49	1097.17
555.84	1095.51
556.19	1095.58
556.55	1096.42
556.90	1099.72
557.26	1099.23
557.61	1099.58
557.96	1099.84
558.32	1099.77
558.67	1100.66
559.02	1100.10
559.37	1097.03
559.73	1096.42
560.08	1094.25
560.43	1090.64
560.79	1088.42
561.14	1089.82
561.49	1093.57
561.85	1097.06
562.20	1096.00
562.55	1098.88
562.90	1098.25
563.26	1097.78
563.61	1095.23
563.96	1096.92
564.32	1094.46
564.67	1093.94
565.02	1090.32
565.37	1088.54
565.73	1090.53
566.08	1090.74
566.43	1090.78
566.78	1091.65
567.14	1093.17
567.49	1090.13
567.84	1089.87
568.19	1090.50
568.54	1088.30
568.90	1087.48
569.25	1090.41
569.60	1090.50
569.95	1091.04
570.31	1093.57
570.66	1093.64
571.01	1091.02
571.36	1089.33
571.71	1087.06
572.06	1085.10
572.42	1083.11
572.77	1086.20
573.12	1087.04
573.47	1084.00
573.82	1082.83
574.18	1084.63
574.53	1080.30
574.88	1080.46
575.23	1082.38
575.58	1082.40
575.93	1081.82
576.28	1083.32
576.64	1085.82
576.99	1087.83
577.34	1087.83
577.69	1087.60
578.04	1086.94
578.39	1084.35
578.74	1083.39
579.09	1081.75
579.44	1082.80
579.80	1083.27
580.15	1083.20
580.50	1084.91
580.85	1087.23
581.20	1085.19
581.55	1081.96
581.90	1081.21
582.25	1079.64
582.60	1080.25
582.95	1081.21
583.30	1082.59
583.65	1080.27
584.00	1078.66
584.35	1078.12
584.71	1077.42
585.06	1077.58
585.41	1081.33
585.76	1082.10
586.11	1080.46
586.46	1080.13
586.81	1084.18
587.16	1081.26
587.51	1083.25
587.86	1083.29
588.21	1081.68
588.56	1075.78
588.91	1074.70
589.26	1073.09
589.61	1070.07
589.96	1074.82
590.31	1076.30
590.66	1081.56
591.01	1078.87
591.36	1082.80
591.71	1079.48
592.06	1080.67
592.41	1078.94
592.76	1082.17
593.10	1081.96
593.45	1085.89
593.80	1083.90
594.15	1084.39
594.50	1086.17
594.85	1087.44
595.20	1083.86
595.55	1085.63
595.90	1084.49
596.25	1081.28
596.60	1080.30
596.95	1080.98
597.30	1082.31
597.64	1094.86
597.99	1092.75
598.34	1092.45
598.69	1092.80
599.04	1090.43
599.39	1077.47
599.74	1080.25
600.09	1078.94
600.44	1077.58
600.78	1077.02
601.13	1078.59
601.48	1077.98
601.83	1076.86
602.18	1078.52
602.53	1079.10
602.88	1078.26
603.22	1081.19
603.57	1082.10
603.92	1079.38
604.27	1078.07
604.62	1078.12
604.97	1074.47
605.31	1075.41
605.66	1076.83
606.01	1081.09
606.36	1080.20
606.71	1080.04
607.05	1078.12
607.40	1078.61
607.75	1076.13
608.10	1076.67
608.44	1078.85
608.79	1080.13
609.14	1081.70
609.49	1083.55
609.84	1081.14
610.18	1081.82
610.53	1086.20
610.88	1088.37
611.23	1087.04
611.57	1090.39
611.92	1088.72
612.27	1083.50
612.62	1080.20
612.96	1083.06
613.31	1082.52
613.66	1083.34
614.00	1085.05
614.35	1086.80
614.70	1082.83
615.05	1082.61
615.39	1078.36
615.74	1078.96
616.09	1078.82
616.43	1081.28
616.78	1084.49
617.13	1087.20
617.47	1083.25
617.82	1079.74
618.17	1078.52
618.51	1072.90
618.86	1074.87
619.21	1077.42
619.55	1078.38
619.90	1078.38
620.25	1080.88
620.59	1079.36
620.94	1080.09
621.29	1081.94
621.63	1079.76
621.98	1078.24
622.32	1079.43
622.67	1078.66
623.02	1077.65
623.36	1079.22
623.71	1077.65
624.05	1075.55
624.40	1075.69
624.75	1076.46
625.09	1076.25
625.44	1076.15
625.78	1074.68
626.13	1073.46
626.48	1071.29
626.82	1071.66
627.17	1072.11
627.51	1075.52
627.86	1077.14
628.20	1075.01
628.55	1074.91
628.89	1078.19
629.24	1076.88
629.58	1076.39
629.93	1082.50
630.28	1081.44
630.62	1078.99
630.97	1078.66
631.31	1082.59
631.66	1081.19
632.00	1080.46
632.35	1083.46
632.69	1083.69
633.04	1079.60
633.38	1077.11
633.73	1076.67
634.07	1071.94
634.42	1069.18
634.76	1071.40
635.11	1073.84
635.45	1076.13
635.79	1077.89
636.14	1081.68
636.48	1081.33
636.83	1080.32
637.17	1079.46
637.52	1079.08
637.86	1078.92
638.21	1076.60
638.55	1072.15
638.89	1071.64
639.24	1073.65
639.58	1072.81
639.93	1073.77
640.27	1074.26
640.61	1075.80
640.96	1075.17
641.30	1077.54
641.65	1077.49
641.99	1081.28
642.33	1081.44
642.68	1082.50
643.02	1081.40
643.37	1084.11
643.71	1081.37
644.05	1080.65
644.40	1076.51
644.74	1076.90
645.08	1073.53
645.43	1078.82
645.77	1076.37
646.11	1079.46
646.46	1078.07
646.80	1078.96
647.14	1075.69
647.49	1080.04
647.83	1078.78
648.17	1076.27
648.52	1074.63
648.86	1072.71
649.20	1068.83
649.55	1071.57
649.89	1073.63
650.23	1075.64
650.57	1077.82
650.92	1078.07
651.26	1074.87
651.60	1073.46
651.95	1074.38
652.29	1074.07
652.63	1076.86
652.97	1078.03
653.32	1080.06
653.66	1076.93
654.00	1074.28
654.34	1074.73
654.69	1074.38
655.03	1074.70
655.37	1076.25
655.71	1077.09
656.05	1078.10
656.40	1081.63
656.74	1081.05
657.08	1081.30
657.42	1082.33
657.76	1081.21
658.11	1079.29
658.45	1079.46
658.79	1080.46
659.13	1081.12
659.47	1081.47
659.82	1080.79
660.16	1082.64
660.50	1082.40
660.84	1080.81
661.18	1079.97
661.52	1081.54
661.87	1080.04
662.21	1079.90
662.55	1081.42
662.89	1081.94
663.23	1079.95
663.57	1079.50
663.91	1076.51
664.25	1079.74
664.60	1080.23
664.94	1080.18
665.28	1080.04
665.62	1083.18
665.96	1082.33
666.30	1082.73
666.64	1082.43
666.98	1082.03
667.32	1081.56
667.66	1080.34
668.01	1079.22
668.35	1078.80
668.69	1079.48
669.03	1077.54
669.37	1075.10
669.71	1072.92
670.05	1073.28
670.39	1070.21
670.73	1073.16
671.07	1075.59
671.41	1076.48
671.75	1077.00
672.09	1079.46
672.43	1076.13
672.77	1077.30
673.11	1079.48
673.45	1080.63
673.79	1081.16
674.13	1082.15
674.47	1083.18
674.81	1082.66
675.15	1081.05
675.49	1082.22
675.83	1084.16
676.17	1080.46
676.51	1076.90
676.85	1077.82
677.19	1075.08
677.53	1073.42
677.87	1073.72
678.21	1077.18
678.55	1077.77
678.89	1078.92
679.23	1081.51
679.57	1080.86
679.90	1079.46
680.24	1080.30
680.58	1081.14
680.92	1078.21
681.26	1081.16
681.60	1079.48
681.94	1080.56
682.28	1081.42
682.62	1080.32
682.96	1078.36
683.29	1081.02
683.63	1080.27
683.97	1078.05
684.31	1079.53
684.65	1080.84
684.99	1080.74
685.33	1077.02
685.67	1076.51
686.00	1077.40
686.34	1073.95
686.68	1070.75
687.02	1071.31
687.36	1072.62
687.70	1074.42
688.03	1077.28
688.37	1081.77
688.71	1084.04
689.05	1082.12
689.39	1079.60
689.72	1079.97
690.06	1079.17
690.40	1077.91
690.74	1079.85
691.08	1081.30
691.41	1081.94
691.75	1078.36
692.09	1077.72
692.43	1077.44
692.76	1076.32
693.10	1073.23
693.44	1074.87
693.78	1078.00
694.11	1076.13
694.45	1071.50
694.79	1072.13
695.13	1073.88
695.46	1070.19
695.80	1073.42
696.14	1078.12
696.48	1081.02
696.81	1079.67
697.15	1077.98
697.49	1076.39
697.82	1076.88
698.16	1074.70
698.50	1073.39
698.83	1073.51
699.17	1072.29
699.51	1072.97
699.84	1072.67
700.18	1073.84
700.52	1076.97
700.85	1077.96
701.19	1076.15
701.53	1073.84
701.86	1073.37
702.20	1071.99
702.54	1073.07
702.87	1071.82
703.21	1073.49
703.55	1072.69
703.88	1072.71
704.22	1073.39
704.55	1076.06
704.89	1076.27
705.23	1076.65
705.56	1075.80
705.90	1074.38
706.23	1074.38
706.57	1076.74
706.91	1078.36
707.24	1081.61
707.58	1080.74
707.91	1079.64
708.25	1077.96
708.58	1077.23
708.92	1077.58
709.26	1077.40
709.59	1077.72
709.93	1076.86
710.26	1076.06
710.60	1073.63
710.93	1074.91
711.27	1072.53
711.60	1071.71
711.94	1072.13
712.27	1071.52
712.61	1072.27
712.94	1073.35
713.28	1076.25
713.61	1079.31
713.95	1078.36
714.28	1076.01
714.62	1076.20
714.95	1072.95
715.29	1069.65
715.62	1069.88
715.96	1070.14
716.29	1070.68
716.63	1072.55
716.96	1070.56
717.29	1070.63
717.63	1071.61
717.96	1071.90
718.30	1071.90
718.63	1074.94
718.97	1076.97
719.30	1078.78
719.63	1079.48
719.97	1079.76
720.30	1082.80
720.64	1082.10
720.97	1078.94
721.30	1076.69
721.64	1076.04
721.97	1069.32
722.31	1067.40
722.64	1066.86
722.97	1070.26
723.31	1072.18
723.64	1074.98
723.97	1075.57
724.31	1076.41
724.64	1075.17
724.98	1073.28
725.31	1073.77
725.64	1074.00
725.98	1073.60
726.31	1073.25
726.64	1076.72
726.97	1076.93
727.31	1078.19
727.64	1078.78
727.97	1079.43
728.31	1074.47
728.64	1074.56
728.97	1074.10
729.31	1077.98
729.64	1078.99
729.97	1081.77
730.30	1080.06
730.64	1078.33
730.97	1075.59
731.30	1076.48
731.63	1078.36
731.97	1080.25
732.30	1083.34
732.63	1083.29
732.96	1081.12
733.30	1079.34
733.63	1081.21
733.96	1080.79
734.29	1079.83
734.63	1080.77
734.96	1081.89
735.29	1078.75
735.62	1077.02
735.95	1080.98
736.29	1080.39
736.62	1079.62
736.95	1079.20
737.28	1081.05
737.61	1077.40
737.94	1077.77
738.28	1077.14
738.61	1079.76
738.94	1080.84
739.27	1080.79
739.60	1082.85
739.93	1083.83
740.27	1083.22
740.60	1080.72
740.93	1080.77
741.26	1075.83
741.59	1074.35
741.92	1074.12
742.25	1074.31
742.58	1073.25
742.91	1077.82
743.25	1079.92
743.58	1081.12
743.91	1079.48
744.24	1079.53
744.57	1078.17
744.90	1074.70
745.23	1070.35
745.56	1071.47
745.89	1073.72
746.22	1072.34
746.55	1074.89
746.88	1076.18
747.21	1074.98
747.54	1075.05
747.87	1074.94
748.20	1069.48
748.53	1072.29
748.87	1076.51
749.20	1075.08
749.53	1075.59
749.86	1076.58
750.19	1075.43
750.52	1071.82
750.85	1072.43
751.18	1073.65
751.51	1078.14
751.84	1077.14
752.16	1081.30
752.49	1078.64
752.82	1074.84
753.15	1072.78
753.48	1072.20
753.81	1069.13
754.14	1068.92
754.47	1070.40
754.80	1070.49
755.13	1072.01
755.46	1072.48
755.79	1074.17
756.12	1075.48
756.45	1072.57
756.78	1068.38
757.11	1067.33
757.43	1066.79
757.76	1067.19
758.09	1067.99
758.42	1070.77
758.75	1069.81
759.08	1071.12
759.41	1068.52
759.74	1071.97
760.07	1074.17
760.39	1074.80
760.72	1075.20
761.05	1075.92
761.38	1078.75
761.71	1078.82
762.04	1078.17
762.36	1077.40
762.69	1078.89
763.02	1074.80
763.35	1072.04
763.68	1075.45
764.01	1077.47
764.33	1074.12
764.66	1071.90
