SpectraSuite Data File
++++++++++++++++++++++++++++++++++++
Date: Mon Aug 26 10:22:18 PDT 2019
User: corrico
Dark Spectrum Present: No
Reference Spectrum Present: No
Number of Sampled Component Spectra: 1
Spectrometers: USB2+H06089
Integration Time (usec): 2000 (USB2+H06089)
Spectra Averaged: 20 (USB2+H06089)
Boxcar Smoothing: 2 (USB2+H06089)
Correct for Electrical Dark: No (USB2+H06089)
Strobe/Lamp Enabled: No (USB2+H06089)
Correct for Detector Non-linearity: No (USB2+H06089)
Correct for Stray Light: No (USB2+H06089)
Number of Pixels in Processed Spectrum: 2048
>>>>>Begin Processed Spectral Data<<<<<
339.70	1034.40
340.07	1034.40
340.45	992.18
340.82	970.15
341.19	946.93
341.57	921.47
341.94	915.50
342.31	908.71
342.69	904.03
343.06	896.03
343.43	895.04
343.81	893.59
344.18	896.59
344.55	897.76
344.93	903.84
345.30	909.53
345.67	920.46
346.04	927.39
346.42	936.89
346.79	947.64
347.16	957.56
347.54	962.26
347.91	971.37
348.28	981.25
348.65	989.34
349.03	998.57
349.40	1008.23
349.77	1021.08
350.14	1029.27
350.52	1040.20
350.89	1046.20
351.26	1053.12
351.63	1053.97
352.01	1057.57
352.38	1060.47
352.75	1064.10
353.12	1068.41
353.50	1072.97
353.87	1074.59
354.24	1075.24
354.61	1073.98
354.98	1075.92
355.36	1076.34
355.73	1080.34
356.10	1084.21
356.47	1088.58
356.84	1086.41
357.22	1089.66
357.59	1092.28
357.96	1091.06
358.33	1091.72
358.70	1094.46
359.08	1091.34
359.45	1084.77
359.82	1083.22
360.19	1080.16
360.56	1078.45
360.94	1076.55
361.31	1079.55
361.68	1080.30
362.05	1082.38
362.42	1081.91
362.79	1082.78
363.16	1082.12
363.54	1082.85
363.91	1082.61
364.28	1082.15
364.65	1083.15
365.02	1082.80
365.39	1077.54
365.76	1077.16
366.14	1076.25
366.51	1072.27
366.88	1069.93
367.25	1074.38
367.62	1071.17
367.99	1071.97
368.36	1073.32
368.73	1073.98
369.10	1071.78
369.48	1075.85
369.85	1072.69
370.22	1072.81
370.59	1072.76
370.96	1074.12
371.33	1071.10
371.70	1074.66
372.07	1077.04
372.44	1078.31
372.81	1077.75
373.18	1079.46
373.55	1081.07
373.93	1082.94
374.30	1082.17
374.67	1083.27
375.04	1083.69
375.41	1080.98
375.78	1079.38
376.15	1080.44
376.52	1079.85
376.89	1078.92
377.26	1081.66
377.63	1079.90
378.00	1081.73
378.37	1081.14
378.74	1079.46
379.11	1076.88
379.48	1080.04
379.85	1079.13
380.22	1077.77
380.59	1081.91
380.96	1084.51
381.33	1082.29
381.70	1082.24
382.07	1083.22
382.44	1082.66
382.81	1081.66
383.18	1084.63
383.55	1084.56
383.92	1087.16
384.29	1089.54
384.66	1090.55
385.03	1088.96
385.40	1088.42
385.77	1087.67
386.14	1083.93
386.51	1083.90
386.88	1086.69
387.25	1088.54
387.62	1093.36
387.99	1097.01
388.36	1099.05
388.73	1098.13
389.10	1096.56
389.46	1092.49
389.83	1088.04
390.20	1081.14
390.57	1078.68
390.94	1077.61
391.31	1074.87
391.68	1074.66
392.05	1079.95
392.42	1081.84
392.79	1083.04
393.16	1082.83
393.53	1086.43
393.89	1087.30
394.26	1085.99
394.63	1086.57
395.00	1089.45
395.37	1085.19
395.74	1078.82
396.11	1082.08
396.48	1081.19
396.84	1082.22
397.21	1086.99
397.58	1091.02
397.95	1086.99
398.32	1087.18
398.69	1087.46
399.06	1084.70
399.42	1085.77
399.79	1086.80
400.16	1088.00
400.53	1086.87
400.90	1088.19
401.27	1089.14
401.64	1091.06
402.00	1091.42
402.37	1091.63
402.74	1091.30
403.11	1090.97
403.48	1089.14
403.84	1086.76
404.21	1084.96
404.58	1083.13
404.95	1083.13
405.32	1086.34
405.68	1087.41
406.05	1088.84
406.42	1088.72
406.79	1089.38
407.16	1088.61
407.52	1090.22
407.89	1092.12
408.26	1096.17
408.63	1093.45
408.99	1093.03
409.36	1092.23
409.73	1094.39
410.10	1096.03
410.47	1100.10
410.83	1099.07
411.20	1103.12
411.57	1099.37
411.94	1097.10
412.30	1094.72
412.67	1094.13
413.04	1093.99
413.40	1095.11
413.77	1095.53
414.14	1093.90
414.51	1097.10
414.87	1095.58
415.24	1094.13
415.61	1094.27
415.97	1097.31
416.34	1097.45
416.71	1095.72
417.08	1097.38
417.44	1099.09
417.81	1099.58
418.18	1100.33
418.54	1103.94
418.91	1108.62
419.28	1109.44
419.64	1113.44
420.01	1110.56
420.38	1109.86
420.74	1108.01
421.11	1111.47
421.48	1110.19
421.84	1114.77
422.21	1119.13
422.58	1121.68
422.94	1122.19
423.31	1124.49
423.68	1129.03
424.04	1131.32
424.41	1136.31
424.77	1140.47
425.14	1148.31
425.51	1150.00
425.87	1154.91
426.24	1161.05
426.61	1162.66
426.97	1165.42
427.34	1171.27
427.70	1176.66
428.07	1179.96
428.44	1187.87
428.80	1196.04
429.17	1204.21
429.53	1209.35
429.90	1219.75
430.27	1231.82
430.63	1239.15
431.00	1249.89
431.36	1266.32
431.73	1273.60
432.09	1286.38
432.46	1304.29
432.83	1318.89
433.19	1334.81
433.56	1354.73
433.92	1375.63
434.29	1391.99
434.65	1413.94
435.02	1435.66
435.38	1461.85
435.75	1484.65
436.11	1520.72
436.48	1555.66
436.84	1589.53
437.21	1627.19
437.57	1669.36
437.94	1705.95
438.30	1746.79
438.67	1792.99
439.03	1842.33
439.40	1894.99
439.76	1953.72
440.13	2017.35
440.49	2083.40
440.86	2150.46
441.22	2223.37
441.59	2294.17
441.95	2372.65
442.32	2455.78
442.68	2555.07
443.05	2646.40
443.41	2754.53
443.78	2856.79
444.14	2962.93
444.51	3066.38
444.87	3206.91
445.24	3343.36
445.60	3499.29
445.96	3658.23
446.33	3831.41
446.69	3995.39
447.06	4175.23
447.42	4354.78
447.79	4542.39
448.15	4760.63
448.51	4987.03
448.88	5240.06
449.24	5491.32
449.61	5773.40
449.97	6043.80
450.33	6329.84
450.70	6590.83
451.06	6911.46
451.43	7224.04
451.79	7589.68
452.15	7992.63
452.52	8451.63
452.88	8932.35
453.24	9467.14
453.61	10054.52
453.97	10618.05
454.34	11171.00
454.70	11795.50
455.06	12423.61
455.43	13044.58
455.79	13639.12
456.15	14338.73
456.52	14995.53
456.88	15779.73
457.24	16503.94
457.61	17359.78
457.97	18151.98
458.33	18955.86
458.70	19743.28
459.06	20518.68
459.42	21357.65
459.79	22135.01
460.15	23048.89
460.51	23906.23
460.88	24829.71
461.24	25626.55
461.60	26575.19
461.96	27444.16
462.33	28290.73
462.69	29111.47
463.05	29992.40
463.42	30744.72
463.78	31419.12
464.14	31958.68
464.50	32547.04
464.87	33012.44
465.23	33362.67
465.59	33702.78
465.95	34029.24
466.32	34298.91
466.68	34541.77
467.04	34695.77
467.40	34842.17
467.77	35006.34
468.13	34981.72
468.49	34875.08
468.85	34779.94
469.22	34600.63
469.58	34237.87
469.94	33985.33
470.30	33700.62
470.66	33301.61
471.03	32710.41
471.39	32336.09
471.75	31707.28
472.11	31097.55
472.47	30751.85
472.84	30449.81
473.20	29966.81
473.56	29697.54
473.92	29292.53
474.28	28761.09
474.65	28273.09
475.01	27807.69
475.37	27243.60
475.73	26774.39
476.09	26268.63
476.45	25744.51
476.81	25229.97
477.18	24698.64
477.54	24227.35
477.90	23854.58
478.26	23445.45
478.62	23088.78
478.98	22781.98
479.34	22460.69
479.71	22019.60
480.07	21637.39
480.43	21233.67
480.79	20828.80
481.15	20462.20
481.51	20158.57
481.87	19899.68
482.23	19636.65
482.59	19406.36
482.96	19129.15
483.32	18857.25
483.68	18505.02
484.04	18166.56
484.40	17793.50
484.76	17410.38
485.12	17023.89
485.48	16690.99
485.84	16322.31
486.20	15954.57
486.56	15594.29
486.92	15283.82
487.28	14936.55
487.64	14595.09
488.00	14267.53
488.37	13943.98
488.73	13575.72
489.09	13218.39
489.45	12904.33
489.81	12581.55
490.17	12289.40
490.53	12007.28
490.89	11711.34
491.25	11415.71
491.61	11109.42
491.97	10787.95
492.33	10445.51
492.69	10147.60
493.05	9830.91
493.41	9543.93
493.77	9273.09
494.13	9020.05
494.49	8760.51
494.85	8522.19
495.21	8291.07
495.57	8060.20
495.93	7849.17
496.29	7646.41
496.64	7455.38
497.00	7262.78
497.36	7067.79
497.72	6877.59
498.08	6686.93
498.44	6498.43
498.80	6326.54
499.16	6169.18
499.52	6008.53
499.88	5877.44
500.24	5758.02
500.60	5634.02
500.96	5512.57
501.32	5396.57
501.68	5266.60
502.03	5138.11
502.39	5007.53
502.75	4868.17
503.11	4743.35
503.47	4623.85
503.83	4500.52
504.19	4379.05
504.55	4274.57
504.91	4179.61
505.26	4085.97
505.62	3997.85
505.98	3912.86
506.34	3825.00
506.70	3732.66
507.06	3640.87
507.42	3552.77
507.78	3470.10
508.13	3388.30
508.49	3310.90
508.85	3238.74
509.21	3172.32
509.57	3106.69
509.93	3043.07
510.28	2976.08
510.64	2910.62
511.00	2838.44
511.36	2772.95
511.72	2725.37
512.07	2678.37
512.43	2631.82
512.79	2588.98
513.15	2549.01
513.51	2494.64
513.86	2443.12
514.22	2397.83
514.58	2356.73
514.94	2314.74
515.30	2276.08
515.65	2239.49
516.01	2205.37
516.37	2173.70
516.73	2144.45
517.08	2115.66
517.44	2085.04
517.80	2058.03
518.16	2026.88
518.51	1998.70
518.87	1968.16
519.23	1940.49
519.59	1915.47
519.94	1891.81
520.30	1865.01
520.66	1843.52
521.01	1826.32
521.37	1801.28
521.73	1778.88
522.09	1761.84
522.44	1739.23
522.80	1716.57
523.16	1696.54
523.51	1677.72
523.87	1657.33
524.23	1636.27
524.58	1619.58
524.94	1603.01
525.30	1581.66
525.65	1562.73
526.01	1552.97
526.37	1539.70
526.72	1529.21
527.08	1520.60
527.44	1508.90
527.79	1494.83
528.15	1480.01
528.51	1466.58
528.86	1451.51
529.22	1436.08
529.58	1425.55
529.93	1414.13
530.29	1400.60
530.65	1393.44
531.00	1383.91
531.36	1368.53
531.71	1362.19
532.07	1354.56
532.43	1344.61
532.78	1336.91
533.14	1336.31
533.49	1328.53
533.85	1322.82
534.21	1317.89
534.56	1313.81
534.92	1304.33
535.27	1297.29
535.63	1289.82
535.98	1282.71
536.34	1277.70
536.69	1273.16
537.05	1264.12
537.41	1258.44
537.76	1253.97
538.12	1248.91
538.47	1242.22
538.83	1242.38
539.18	1237.07
539.54	1231.82
539.89	1226.96
540.25	1228.31
540.60	1222.58
540.96	1221.90
541.31	1219.07
541.67	1213.71
542.02	1205.91
542.38	1202.31
542.73	1200.46
543.09	1200.86
543.44	1202.24
543.80	1198.10
544.15	1195.76
544.51	1191.50
544.86	1185.13
545.22	1178.69
545.57	1176.80
545.93	1173.94
546.28	1174.46
546.64	1172.40
546.99	1170.90
547.35	1169.14
547.70	1164.09
548.05	1157.14
548.41	1151.89
548.76	1151.50
549.12	1150.44
549.47	1151.10
549.83	1148.78
550.18	1150.16
550.53	1146.98
550.89	1143.02
551.24	1141.39
551.60	1138.60
551.95	1136.17
552.30	1133.01
552.66	1134.41
553.01	1133.78
553.37	1133.59
553.72	1133.83
554.07	1137.22
554.43	1136.66
554.78	1135.67
555.13	1136.99
555.49	1132.80
555.84	1129.64
556.19	1129.57
556.55	1130.24
556.90	1126.99
557.26	1126.24
557.61	1122.17
557.96	1118.99
558.32	1116.39
558.67	1116.44
559.02	1116.22
559.37	1118.05
559.73	1114.70
560.08	1112.81
560.43	1113.67
560.79	1115.27
561.14	1114.31
561.49	1113.49
561.85	1111.85
562.20	1110.02
562.55	1108.99
562.90	1107.12
563.26	1110.02
563.61	1109.32
563.96	1106.09
564.32	1105.60
564.67	1106.16
565.02	1104.24
565.37	1103.91
565.73	1103.19
566.08	1101.13
566.43	1100.85
566.78	1100.87
567.14	1100.80
567.49	1103.33
567.84	1103.09
568.19	1101.48
568.54	1099.68
568.90	1101.48
569.25	1100.08
569.60	1100.59
569.95	1101.57
570.31	1101.99
570.66	1098.41
571.01	1097.41
571.36	1099.84
571.71	1102.21
572.06	1101.15
572.42	1101.64
572.77	1101.46
573.12	1097.73
573.47	1093.71
573.82	1097.69
574.18	1097.15
574.53	1096.75
574.88	1095.60
575.23	1094.11
575.58	1090.01
575.93	1088.91
576.28	1092.09
576.64	1091.60
576.99	1096.10
577.34	1095.00
577.69	1097.22
578.04	1093.62
578.39	1091.02
578.74	1089.05
579.09	1091.70
579.44	1090.85
579.80	1093.08
580.15	1095.75
580.50	1093.90
580.85	1091.72
581.20	1091.42
581.55	1090.43
581.90	1090.43
582.25	1092.26
582.60	1090.43
582.95	1092.80
583.30	1091.34
583.65	1090.34
584.00	1089.73
584.35	1092.66
584.71	1090.95
585.06	1091.88
585.41	1091.81
585.76	1089.73
586.11	1088.23
586.46	1088.49
586.81	1089.22
587.16	1089.78
587.51	1091.53
587.86	1093.76
588.21	1093.85
588.56	1091.79
588.91	1093.52
589.26	1092.59
589.61	1091.93
589.96	1088.98
590.31	1090.10
590.66	1086.22
591.01	1086.43
591.36	1085.77
591.71	1088.00
592.06	1087.88
592.41	1090.20
592.76	1091.44
593.10	1091.32
593.45	1090.13
593.80	1088.58
594.15	1086.48
594.50	1086.62
594.85	1086.29
595.20	1084.32
595.55	1086.48
595.90	1086.36
596.25	1081.84
596.60	1082.17
596.95	1084.51
597.30	1082.94
597.64	1093.83
597.99	1097.73
598.34	1097.10
598.69	1098.41
599.04	1100.03
599.39	1090.50
599.74	1086.99
600.09	1084.53
600.44	1086.13
600.78	1087.02
601.13	1088.16
601.48	1090.34
601.83	1093.64
602.18	1087.86
602.53	1087.09
602.88	1087.20
603.22	1085.03
603.57	1081.07
603.92	1085.14
604.27	1082.73
604.62	1079.85
604.97	1082.40
605.31	1086.69
605.66	1086.64
606.01	1085.47
606.36	1085.59
606.71	1086.62
607.05	1082.97
607.40	1082.03
607.75	1086.71
608.10	1088.72
608.44	1087.72
608.79	1088.51
609.14	1088.63
609.49	1084.77
609.84	1084.96
610.18	1087.93
610.53	1087.34
610.88	1087.51
611.23	1086.85
611.57	1084.11
611.92	1080.48
612.27	1081.91
612.62	1080.60
612.96	1082.97
613.31	1085.35
613.66	1084.67
614.00	1085.82
614.35	1086.36
614.70	1087.53
615.05	1086.66
615.39	1086.03
615.74	1086.03
616.09	1086.48
616.43	1085.19
616.78	1085.91
617.13	1088.84
617.47	1088.96
617.82	1090.34
618.17	1090.08
618.51	1091.77
618.86	1089.33
619.21	1088.51
619.55	1088.16
619.90	1085.87
620.25	1084.11
620.59	1086.10
620.94	1086.41
621.29	1082.87
621.63	1085.45
621.98	1085.40
622.32	1085.47
622.67	1086.31
623.02	1085.42
623.36	1084.56
623.71	1084.56
624.05	1081.56
624.40	1078.33
624.75	1080.98
625.09	1082.17
625.44	1082.38
625.78	1086.45
626.13	1090.53
626.48	1088.02
626.82	1087.37
627.17	1086.80
627.51	1084.11
627.86	1081.89
628.20	1086.20
628.55	1083.55
628.89	1085.80
629.24	1087.81
629.58	1087.32
629.93	1083.60
630.28	1081.63
630.62	1079.53
630.97	1079.13
631.31	1078.85
631.66	1079.17
632.00	1082.87
632.35	1084.51
632.69	1081.87
633.04	1081.37
633.38	1083.18
633.73	1081.28
634.07	1079.48
634.42	1081.12
634.76	1077.86
635.11	1076.44
635.45	1078.00
635.79	1077.28
636.14	1077.51
636.48	1080.95
636.83	1081.42
637.17	1082.92
637.52	1082.85
637.86	1081.05
638.21	1083.18
638.55	1085.07
638.89	1084.11
639.24	1084.21
639.58	1084.04
639.93	1082.12
640.27	1076.83
640.61	1074.84
640.96	1076.53
641.30	1077.33
641.65	1077.23
641.99	1079.78
642.33	1078.24
642.68	1075.71
643.02	1076.67
643.37	1077.72
643.71	1077.25
644.05	1076.86
644.40	1078.21
644.74	1078.85
645.08	1078.94
645.43	1081.75
645.77	1085.26
646.11	1086.94
646.46	1085.24
646.80	1085.82
647.14	1084.18
647.49	1083.39
647.83	1081.16
648.17	1080.88
648.52	1081.07
648.86	1080.30
649.20	1080.13
649.55	1082.57
649.89	1084.77
650.23	1083.53
650.57	1086.01
650.92	1087.06
651.26	1089.59
651.60	1090.20
651.95	1090.22
652.29	1087.65
652.63	1087.11
652.97	1081.54
653.32	1082.24
653.66	1081.98
654.00	1083.76
654.34	1082.29
654.69	1084.89
655.03	1082.15
655.37	1079.43
655.71	1077.82
656.05	1079.57
656.40	1078.10
656.74	1077.63
657.08	1080.81
657.42	1080.72
657.76	1079.06
658.11	1078.68
658.45	1077.93
658.79	1079.62
659.13	1082.94
659.47	1084.98
659.82	1085.49
660.16	1086.15
660.50	1083.50
660.84	1080.13
661.18	1079.01
661.52	1081.80
661.87	1083.04
662.21	1083.93
662.55	1084.56
662.89	1085.24
663.23	1078.38
663.57	1077.21
663.91	1076.11
664.25	1077.21
664.60	1076.62
664.94	1081.30
665.28	1082.54
665.62	1087.88
665.96	1087.55
666.30	1091.42
666.64	1091.02
666.98	1089.12
667.32	1082.97
667.66	1082.17
668.01	1078.45
668.35	1080.41
668.69	1080.81
669.03	1082.33
669.37	1083.36
669.71	1084.49
670.05	1083.43
670.39	1082.05
670.73	1081.82
671.07	1080.04
671.41	1078.78
671.75	1079.01
672.09	1082.12
672.43	1080.39
672.77	1081.91
673.11	1080.27
673.45	1082.01
673.79	1081.56
674.13	1082.71
674.47	1079.60
674.81	1082.12
675.15	1080.18
675.49	1079.20
675.83	1078.00
676.17	1081.47
676.51	1081.68
676.85	1079.57
677.19	1077.28
677.53	1078.40
677.87	1076.44
678.21	1076.01
678.55	1077.49
678.89	1081.12
679.23	1083.79
679.57	1087.30
679.90	1089.82
680.24	1090.06
680.58	1087.44
680.92	1083.67
681.26	1081.23
681.60	1080.53
681.94	1078.78
682.28	1080.32
682.62	1084.37
682.96	1083.43
683.29	1082.24
683.63	1086.43
683.97	1087.44
684.31	1087.16
684.65	1087.88
684.99	1085.05
685.33	1079.67
685.67	1075.87
686.00	1073.00
686.34	1071.15
686.68	1071.78
687.02	1074.00
687.36	1074.54
687.70	1074.52
688.03	1075.78
688.37	1078.75
688.71	1076.95
689.05	1080.56
689.39	1080.91
689.72	1083.29
690.06	1082.01
690.40	1084.39
690.74	1081.30
691.08	1080.53
691.41	1078.66
691.75	1081.00
692.09	1080.56
692.43	1083.53
692.76	1085.99
693.10	1085.82
693.44	1084.02
693.78	1082.19
694.11	1081.00
694.45	1080.79
694.79	1082.57
695.13	1079.38
695.46	1081.19
695.80	1082.31
696.14	1081.96
696.48	1081.26
696.81	1083.41
697.15	1080.70
697.49	1082.80
697.82	1084.96
698.16	1081.37
698.50	1081.07
698.83	1085.45
699.17	1082.80
699.51	1083.53
699.84	1085.31
700.18	1082.99
700.52	1079.17
700.85	1077.91
701.19	1075.36
701.53	1076.67
701.86	1078.50
702.20	1081.28
702.54	1081.56
702.87	1079.57
703.21	1079.06
703.55	1082.26
703.88	1081.87
704.22	1083.95
704.55	1084.98
704.89	1082.15
705.23	1081.96
705.56	1081.82
705.90	1079.43
706.23	1080.09
706.57	1084.98
706.91	1082.87
707.24	1082.85
707.58	1085.56
707.91	1084.98
708.25	1085.70
708.58	1085.26
708.92	1086.06
709.26	1083.32
709.59	1083.93
709.93	1081.07
710.26	1083.81
710.60	1080.91
710.93	1082.15
711.27	1082.26
711.60	1081.30
711.94	1083.29
712.27	1085.40
712.61	1083.69
712.94	1082.76
713.28	1084.16
713.61	1080.53
713.95	1079.74
714.28	1077.98
714.62	1077.58
714.95	1077.14
715.29	1075.31
715.62	1073.35
715.96	1076.11
716.29	1076.04
716.63	1071.29
716.96	1073.70
717.29	1075.24
717.63	1074.80
717.96	1072.92
718.30	1077.75
718.63	1076.65
718.97	1078.19
719.30	1079.24
719.63	1082.40
719.97	1080.18
720.30	1081.16
720.64	1078.82
720.97	1079.46
721.30	1078.14
721.64	1080.56
721.97	1076.65
722.31	1079.10
722.64	1078.28
722.97	1079.53
723.31	1080.06
723.64	1080.34
723.97	1077.65
724.31	1078.61
724.64	1076.72
724.98	1074.49
725.31	1076.67
725.64	1080.02
725.98	1078.75
726.31	1082.47
726.64	1080.95
726.97	1079.50
727.31	1074.63
727.64	1076.39
727.97	1073.91
728.31	1077.56
728.64	1078.82
728.97	1081.28
729.31	1078.05
729.64	1075.83
729.97	1076.18
730.30	1079.27
730.64	1080.02
730.97	1082.83
731.30	1084.51
731.63	1081.44
731.97	1081.00
732.30	1080.39
732.63	1080.58
732.96	1079.01
733.30	1082.92
733.63	1081.44
733.96	1082.97
734.29	1080.70
734.63	1083.90
734.96	1081.09
735.29	1080.56
735.62	1078.31
735.95	1077.61
736.29	1075.90
736.62	1075.78
736.95	1076.62
737.28	1079.90
737.61	1082.24
737.94	1081.96
738.28	1085.47
738.61	1083.20
738.94	1081.49
739.27	1079.24
739.60	1079.99
739.93	1075.83
740.27	1074.10
740.60	1074.98
740.93	1076.86
741.26	1077.44
741.59	1079.71
741.92	1081.80
742.25	1080.53
742.58	1080.11
742.91	1081.19
743.25	1080.09
743.58	1081.30
743.91	1082.76
744.24	1082.01
744.57	1082.08
744.90	1083.53
745.23	1083.55
745.56	1084.11
745.89	1085.89
746.22	1081.42
746.55	1078.94
746.88	1083.06
747.21	1081.19
747.54	1079.38
747.87	1081.61
748.20	1083.18
748.53	1081.94
748.87	1077.33
749.20	1077.54
749.53	1077.28
749.86	1078.66
750.19	1076.11
750.52	1078.94
750.85	1078.40
751.18	1078.50
751.51	1076.74
751.84	1075.45
752.16	1079.06
752.49	1077.98
752.82	1078.80
753.15	1079.69
753.48	1081.51
753.81	1082.22
754.14	1082.59
754.47	1083.22
754.80	1084.63
755.13	1083.39
755.46	1081.05
755.79	1082.83
756.12	1084.70
756.45	1081.87
756.78	1081.09
757.11	1082.50
757.43	1080.25
757.76	1077.07
758.09	1079.53
758.42	1080.20
758.75	1080.04
759.08	1079.81
759.41	1079.48
759.74	1082.54
760.07	1079.22
760.39	1075.73
760.72	1079.13
761.05	1079.85
761.38	1077.68
761.71	1080.98
762.04	1083.43
762.36	1081.58
762.69	1081.54
763.02	1079.57
763.35	1079.41
763.68	1077.82
764.01	1077.21
