SpectraSuite Data File
++++++++++++++++++++++++++++++++++++
Date: Mon Aug 26 10:21:51 PDT 2019
User: corrico
Dark Spectrum Present: No
Reference Spectrum Present: No
Number of Sampled Component Spectra: 1
Spectrometers: USB2+H06089
Integration Time (usec): 2000 (USB2+H06089)
Spectra Averaged: 20 (USB2+H06089)
Boxcar Smoothing: 2 (USB2+H06089)
Correct for Electrical Dark: No (USB2+H06089)
Strobe/Lamp Enabled: No (USB2+H06089)
Correct for Detector Non-linearity: No (USB2+H06089)
Correct for Stray Light: No (USB2+H06089)
Number of Pixels in Processed Spectrum: 2048
>>>>>Begin Processed Spectral Data<<<<<
339.70	1027.03
340.07	1027.03
340.45	995.69
340.82	975.63
341.19	952.69
341.57	927.32
341.94	915.69
342.31	906.30
342.69	900.19
343.06	897.57
343.43	896.54
343.81	897.29
344.18	899.66
344.55	903.10
344.93	905.37
345.30	914.10
345.67	917.44
346.04	925.45
346.42	931.74
346.79	943.94
347.16	953.79
347.54	966.43
347.91	973.19
348.28	981.67
348.65	987.52
349.03	990.75
349.40	1000.74
349.77	1009.64
350.14	1021.01
350.52	1029.30
350.89	1037.40
351.26	1040.27
351.63	1047.04
352.01	1052.91
352.38	1059.86
352.75	1065.67
353.12	1069.81
353.50	1076.69
353.87	1079.53
354.24	1079.95
354.61	1081.07
354.98	1084.00
355.36	1079.60
355.73	1074.54
356.10	1074.07
356.47	1071.92
356.84	1072.62
357.22	1074.33
357.59	1075.45
357.96	1079.60
358.33	1081.91
358.70	1081.00
359.08	1081.44
359.45	1083.86
359.82	1079.69
360.19	1081.14
360.56	1078.33
360.94	1076.81
361.31	1076.08
361.68	1075.45
362.05	1073.49
362.42	1076.67
362.79	1076.74
363.16	1074.31
363.54	1074.24
363.91	1076.88
364.28	1074.40
364.65	1071.33
365.02	1074.45
365.39	1073.58
365.76	1070.70
366.14	1071.99
366.51	1073.32
366.88	1070.94
367.25	1070.49
367.62	1070.54
367.99	1069.98
368.36	1070.91
368.73	1071.43
369.10	1070.96
369.48	1070.54
369.85	1067.52
370.22	1068.08
370.59	1068.57
370.96	1068.29
371.33	1069.09
371.70	1070.42
372.07	1067.26
372.44	1066.63
372.81	1067.38
373.18	1064.73
373.55	1067.66
373.93	1070.70
374.30	1070.16
374.67	1073.02
375.04	1075.05
375.41	1074.10
375.78	1073.39
376.15	1073.93
376.52	1070.49
376.89	1070.02
377.26	1070.70
377.63	1074.21
378.00	1073.44
378.37	1074.31
378.74	1074.63
379.11	1074.35
379.48	1075.34
379.85	1077.07
380.22	1079.76
380.59	1081.05
380.96	1082.97
381.33	1080.74
381.70	1078.80
382.07	1076.41
382.44	1074.66
382.81	1072.81
383.18	1071.47
383.55	1074.73
383.92	1074.84
384.29	1077.04
384.66	1077.91
385.03	1079.97
385.40	1078.59
385.77	1077.11
386.14	1076.18
386.51	1075.03
386.88	1074.47
387.25	1078.59
387.62	1082.87
387.99	1083.04
388.36	1082.24
388.73	1081.63
389.10	1078.68
389.46	1078.99
389.83	1078.66
390.20	1080.95
390.57	1080.48
390.94	1081.77
391.31	1080.95
391.68	1081.35
392.05	1083.34
392.42	1083.13
392.79	1084.58
393.16	1082.45
393.53	1081.89
393.89	1081.82
394.26	1082.97
394.63	1079.36
395.00	1080.27
395.37	1079.46
395.74	1077.00
396.11	1076.46
396.48	1077.30
396.84	1078.07
397.21	1080.41
397.58	1079.43
397.95	1078.28
398.32	1076.86
398.69	1077.58
399.06	1076.04
399.42	1079.41
399.79	1080.67
400.16	1085.35
400.53	1085.91
400.90	1087.34
401.27	1086.08
401.64	1085.84
402.00	1084.21
402.37	1086.34
402.74	1086.55
403.11	1086.06
403.48	1086.20
403.84	1085.89
404.21	1085.96
404.58	1088.09
404.95	1088.65
405.32	1089.17
405.68	1090.15
406.05	1085.87
406.42	1086.27
406.79	1084.18
407.16	1085.89
407.52	1084.07
407.89	1086.29
408.26	1084.28
408.63	1088.89
408.99	1087.27
409.36	1086.52
409.73	1086.90
410.10	1087.93
410.47	1085.05
410.83	1087.09
411.20	1087.25
411.57	1085.24
411.94	1083.22
412.30	1083.97
412.67	1083.20
413.04	1084.63
413.40	1089.36
413.77	1091.63
414.14	1092.84
414.51	1092.30
414.87	1092.98
415.24	1089.61
415.61	1089.03
415.97	1089.73
416.34	1089.64
416.71	1092.61
417.08	1095.46
417.44	1095.58
417.81	1096.61
418.18	1099.07
418.54	1097.52
418.91	1100.19
419.28	1099.19
419.64	1101.34
420.01	1102.56
420.38	1100.92
420.74	1097.55
421.11	1097.03
421.48	1095.82
421.84	1095.07
422.21	1099.05
422.58	1099.26
422.94	1100.59
423.31	1100.31
423.68	1101.69
424.04	1103.70
424.41	1106.42
424.77	1114.54
425.14	1117.70
425.51	1119.17
425.87	1119.41
426.24	1122.17
426.61	1122.59
426.97	1127.88
427.34	1136.10
427.70	1141.32
428.07	1144.48
428.44	1147.73
428.80	1150.89
429.17	1152.60
429.53	1156.04
429.90	1166.52
430.27	1176.84
430.63	1184.64
431.00	1191.59
431.36	1203.01
431.73	1208.49
432.09	1212.82
432.46	1223.80
432.83	1234.21
433.19	1244.77
433.56	1257.31
433.92	1271.36
434.29	1283.06
434.65	1300.14
435.02	1315.64
435.38	1334.43
435.75	1351.92
436.11	1371.83
436.48	1391.31
436.84	1413.19
437.21	1437.79
437.57	1462.18
437.94	1490.66
438.30	1520.29
438.67	1551.07
439.03	1587.09
439.40	1625.48
439.76	1662.34
440.13	1705.38
440.49	1750.65
440.86	1785.55
441.22	1831.54
441.59	1877.46
441.95	1925.49
442.32	1974.59
442.68	2036.66
443.05	2100.33
443.41	2167.31
443.78	2230.74
444.14	2309.45
444.51	2388.40
444.87	2483.78
445.24	2577.49
445.60	2686.91
445.96	2782.22
446.33	2894.21
446.69	2999.98
447.06	3119.49
447.42	3235.25
447.79	3366.58
448.15	3505.26
448.51	3646.65
448.88	3813.27
449.24	3968.82
449.61	4150.35
449.97	4336.92
450.33	4528.19
450.70	4717.91
451.06	4960.27
451.43	5191.66
451.79	5465.81
452.15	5746.88
452.52	6029.81
452.88	6316.87
453.24	6630.74
453.61	6949.33
453.97	7290.00
454.34	7630.38
454.70	8024.13
455.06	8409.08
455.43	8792.36
455.79	9154.82
456.15	9588.57
456.52	9997.04
456.88	10522.51
457.24	11039.04
457.61	11640.47
457.97	12231.71
458.33	12849.80
458.70	13442.31
459.06	14006.44
459.42	14612.10
459.79	15170.42
460.15	15759.86
460.51	16309.58
460.88	16888.65
461.24	17420.23
461.60	18002.37
461.96	18524.83
462.33	19013.79
462.69	19503.64
463.05	20005.21
463.42	20460.05
463.78	20912.57
464.14	21379.16
464.50	21887.85
464.87	22305.80
465.23	22675.93
465.59	23117.47
465.95	23486.85
466.32	23757.23
466.68	23994.56
467.04	24105.76
467.40	24101.39
467.77	24132.02
468.13	24142.04
468.49	24134.71
468.85	24117.35
469.22	24060.75
469.58	23844.54
469.94	23628.08
470.30	23316.72
470.66	23015.73
471.03	22635.16
471.39	22391.72
471.75	22018.89
472.11	21682.04
472.47	21428.42
472.84	21179.46
473.20	20761.09
473.56	20444.20
473.92	20017.55
474.28	19593.28
474.65	19186.96
475.01	18865.68
475.37	18500.65
475.73	18232.42
476.09	17910.32
476.45	17591.19
476.81	17275.10
477.18	16932.44
477.54	16615.88
477.90	16324.51
478.26	15974.81
478.62	15668.90
478.98	15461.58
479.34	15254.11
479.71	15029.68
480.07	14881.90
480.43	14693.51
480.79	14418.61
481.15	14145.45
481.51	13870.67
481.87	13632.24
482.23	13373.87
482.59	13167.32
482.96	13015.18
483.32	12905.01
483.68	12715.08
484.04	12574.20
484.40	12393.98
484.76	12175.89
485.12	11903.80
485.48	11674.03
485.84	11408.36
486.20	11143.67
486.56	10870.22
486.92	10642.72
487.28	10409.84
487.64	10183.88
488.00	9976.84
488.37	9781.89
488.73	9566.19
489.09	9311.07
489.45	9067.59
489.81	8822.39
490.17	8576.40
490.53	8360.81
490.89	8164.54
491.25	7961.66
491.61	7783.47
491.97	7611.19
492.33	7428.42
492.69	7252.31
493.05	7081.06
493.41	6896.95
493.77	6706.59
494.13	6516.66
494.49	6342.95
494.85	6174.87
495.21	6014.54
495.57	5855.55
495.93	5709.06
496.29	5563.57
496.64	5421.55
497.00	5285.44
497.36	5157.72
497.72	5016.80
498.08	4890.64
498.44	4775.65
498.80	4662.49
499.16	4550.19
499.52	4457.62
499.88	4362.57
500.24	4266.87
500.60	4169.10
500.96	4075.01
501.32	3982.35
501.68	3894.96
502.03	3800.52
502.39	3717.71
502.75	3640.96
503.11	3572.90
503.47	3495.85
503.83	3433.24
504.19	3362.83
504.55	3286.39
504.91	3219.15
505.26	3151.34
505.62	3075.21
505.98	3014.91
506.34	2958.60
506.70	2890.68
507.06	2829.26
507.42	2779.71
507.78	2726.49
508.13	2678.49
508.49	2629.10
508.85	2587.49
509.21	2539.55
509.57	2490.84
509.93	2447.83
510.28	2399.21
510.64	2349.69
511.00	2304.47
511.36	2257.21
511.72	2205.51
512.07	2163.71
512.43	2125.60
512.79	2089.93
513.15	2054.66
513.51	2026.39
513.86	2003.57
514.22	1978.62
514.58	1950.56
514.94	1928.91
515.30	1906.72
515.65	1874.86
516.01	1845.75
516.37	1819.46
516.73	1793.37
517.08	1769.12
517.44	1751.59
517.80	1731.43
518.16	1714.68
518.51	1696.65
518.87	1678.89
519.23	1655.27
519.59	1635.43
519.94	1617.80
520.30	1600.97
520.66	1584.61
521.01	1571.46
521.37	1560.44
521.73	1545.81
522.09	1535.58
522.44	1520.93
522.80	1507.66
523.16	1491.13
523.51	1476.22
523.87	1460.07
524.23	1453.45
524.58	1443.15
524.94	1434.23
525.30	1425.60
525.65	1416.54
526.01	1398.96
526.37	1387.66
526.72	1377.52
527.08	1367.93
527.44	1356.76
527.79	1349.55
528.15	1342.91
528.51	1335.49
528.86	1326.10
529.22	1318.80
529.58	1307.56
529.93	1297.73
530.29	1291.44
530.65	1284.88
531.00	1279.66
531.36	1278.24
531.71	1271.24
532.07	1262.39
532.43	1258.83
532.78	1251.09
533.14	1243.11
533.49	1240.32
533.85	1237.39
534.21	1229.93
534.56	1226.56
534.92	1223.70
535.27	1217.48
535.63	1216.28
535.98	1212.84
536.34	1209.12
536.69	1205.54
537.05	1203.13
537.41	1195.01
537.76	1193.37
538.12	1192.43
538.47	1189.18
538.83	1188.08
539.18	1187.00
539.54	1183.16
539.89	1180.59
540.25	1177.92
540.60	1176.35
540.96	1176.49
541.31	1174.97
541.67	1171.95
542.02	1169.31
542.38	1162.90
542.73	1157.58
543.09	1155.48
543.44	1151.89
543.80	1148.81
544.15	1150.05
544.51	1146.79
544.86	1144.45
545.22	1142.44
545.57	1143.47
545.93	1141.55
546.28	1142.35
546.64	1141.46
546.99	1142.25
547.35	1139.77
547.70	1140.05
548.05	1136.99
548.41	1133.19
548.76	1127.48
549.12	1126.10
549.47	1121.80
549.83	1122.05
550.18	1122.92
550.53	1125.91
550.89	1125.42
551.24	1124.16
551.60	1126.41
551.95	1121.28
552.30	1117.18
552.66	1113.79
553.01	1110.49
553.37	1104.62
553.72	1105.20
554.07	1107.14
554.43	1103.75
554.78	1107.03
555.13	1107.82
555.49	1112.29
555.84	1110.44
556.19	1112.95
556.55	1110.00
556.90	1107.75
557.26	1103.70
557.61	1105.29
557.96	1104.03
558.32	1104.66
558.67	1106.75
559.02	1105.51
559.37	1102.84
559.73	1101.11
560.08	1098.62
560.43	1094.74
560.79	1096.70
561.14	1095.30
561.49	1098.65
561.85	1097.97
562.20	1098.46
562.55	1096.31
562.90	1096.03
563.26	1094.95
563.61	1096.38
563.96	1097.73
564.32	1098.23
564.67	1097.38
565.02	1096.26
565.37	1094.60
565.73	1092.14
566.08	1088.28
566.43	1088.56
566.78	1087.51
567.14	1089.24
567.49	1090.43
567.84	1092.73
568.19	1093.26
568.54	1095.89
568.90	1092.54
569.25	1093.10
569.60	1092.77
569.95	1091.02
570.31	1089.22
570.66	1093.05
571.01	1090.69
571.36	1090.13
571.71	1093.08
572.06	1093.87
572.42	1092.05
572.77	1093.55
573.12	1090.85
573.47	1086.80
573.82	1085.59
574.18	1088.28
574.53	1087.32
574.88	1088.63
575.23	1086.92
575.58	1084.70
575.93	1082.69
576.28	1085.24
576.64	1085.87
576.99	1089.36
577.34	1090.10
577.69	1090.01
578.04	1087.93
578.39	1088.28
578.74	1088.26
579.09	1087.04
579.44	1086.57
579.80	1086.03
580.15	1087.53
580.50	1085.87
580.85	1089.24
581.20	1090.01
581.55	1090.50
581.90	1091.74
582.25	1091.86
582.60	1087.88
582.95	1085.91
583.30	1086.24
583.65	1084.84
584.00	1085.31
584.35	1089.96
584.71	1089.94
585.06	1088.79
585.41	1087.06
585.76	1081.84
586.11	1077.54
586.46	1076.34
586.81	1073.37
587.16	1072.39
587.51	1078.26
587.86	1079.85
588.21	1077.98
588.56	1080.63
588.91	1085.28
589.26	1084.79
589.61	1086.43
589.96	1087.11
590.31	1089.00
590.66	1084.63
591.01	1084.65
591.36	1081.80
591.71	1083.81
592.06	1081.02
592.41	1082.22
592.76	1082.61
593.10	1085.47
593.45	1084.21
593.80	1086.29
594.15	1086.55
594.50	1086.48
594.85	1083.74
595.20	1082.50
595.55	1079.71
595.90	1079.20
596.25	1077.54
596.60	1077.04
596.95	1082.76
597.30	1085.14
597.64	1097.64
597.99	1100.40
598.34	1098.67
598.69	1095.30
599.04	1093.64
599.39	1081.30
599.74	1079.46
600.09	1083.97
600.44	1081.68
600.78	1081.96
601.13	1080.70
601.48	1082.22
601.83	1078.54
602.18	1077.93
602.53	1078.33
602.88	1078.19
603.22	1078.75
603.57	1081.56
603.92	1084.93
604.27	1085.56
604.62	1087.81
604.97	1085.33
605.31	1084.63
605.66	1081.51
606.01	1082.10
606.36	1081.51
606.71	1079.41
607.05	1074.59
607.40	1077.93
607.75	1074.10
608.10	1071.97
608.44	1072.81
608.79	1077.44
609.14	1076.88
609.49	1080.81
609.84	1081.61
610.18	1086.20
610.53	1085.80
610.88	1084.74
611.23	1081.49
611.57	1079.99
611.92	1077.44
612.27	1077.02
612.62	1076.20
612.96	1077.33
613.31	1078.68
613.66	1074.45
614.00	1075.71
614.35	1079.50
614.70	1077.42
615.05	1077.70
615.39	1080.39
615.74	1080.63
616.09	1076.55
616.43	1080.02
616.78	1079.31
617.13	1079.50
617.47	1078.73
617.82	1080.27
618.17	1076.88
618.51	1081.12
618.86	1079.50
619.21	1077.89
619.55	1078.82
619.90	1080.67
620.25	1078.85
620.59	1082.19
620.94	1083.15
621.29	1080.39
621.63	1081.33
621.98	1079.69
622.32	1078.12
622.67	1080.46
623.02	1082.10
623.36	1080.70
623.71	1079.31
624.05	1077.96
624.40	1074.66
624.75	1074.66
625.09	1075.10
625.44	1078.43
625.78	1078.73
626.13	1078.89
626.48	1080.46
626.82	1079.83
627.17	1077.75
627.51	1080.60
627.86	1083.64
628.20	1081.33
628.55	1081.02
628.89	1080.16
629.24	1078.85
629.58	1077.54
629.93	1080.02
630.28	1082.24
630.62	1082.47
630.97	1080.81
631.31	1078.92
631.66	1081.98
632.00	1080.39
632.35	1082.99
632.69	1084.32
633.04	1085.99
633.38	1081.16
633.73	1080.65
634.07	1078.14
634.42	1077.07
634.76	1075.66
635.11	1074.77
635.45	1074.17
635.79	1073.93
636.14	1073.25
636.48	1075.10
636.83	1077.09
637.17	1080.74
637.52	1079.03
637.86	1084.30
638.21	1085.33
638.55	1083.88
638.89	1082.19
639.24	1083.83
639.58	1080.65
639.93	1078.57
640.27	1078.14
640.61	1078.75
640.96	1077.16
641.30	1078.85
641.65	1081.37
641.99	1080.60
642.33	1077.47
642.68	1080.63
643.02	1076.55
643.37	1072.15
643.71	1073.98
644.05	1080.65
644.40	1080.48
644.74	1083.08
645.08	1085.54
645.43	1085.56
645.77	1078.87
646.11	1079.20
646.46	1078.33
646.80	1079.01
647.14	1080.98
647.49	1082.97
647.83	1081.05
648.17	1084.18
648.52	1084.14
648.86	1080.18
649.20	1082.43
649.55	1083.67
649.89	1080.39
650.23	1080.56
650.57	1080.98
650.92	1079.01
651.26	1078.07
651.60	1078.38
651.95	1077.89
652.29	1079.85
652.63	1079.46
652.97	1081.00
653.32	1082.19
653.66	1083.53
654.00	1085.77
654.34	1085.70
654.69	1085.80
655.03	1083.76
655.37	1081.82
655.71	1078.82
656.05	1078.80
656.40	1078.61
656.74	1077.54
657.08	1078.57
657.42	1080.84
657.76	1082.85
658.11	1084.74
658.45	1087.46
658.79	1085.00
659.13	1082.80
659.47	1079.78
659.82	1079.57
660.16	1080.70
660.50	1079.92
660.84	1079.13
661.18	1080.06
661.52	1074.70
661.87	1072.27
662.21	1073.79
662.55	1073.16
662.89	1072.36
663.23	1077.09
663.57	1079.17
663.91	1081.54
664.25	1083.79
664.60	1084.39
664.94	1086.15
665.28	1080.98
665.62	1080.41
665.96	1080.56
666.30	1081.19
666.64	1077.49
666.98	1078.99
667.32	1074.94
667.66	1074.49
668.01	1072.60
668.35	1071.80
668.69	1074.35
669.03	1077.00
669.37	1074.96
669.71	1078.17
670.05	1079.27
670.39	1077.42
670.73	1079.34
671.07	1081.68
671.41	1081.09
671.75	1081.54
672.09	1081.61
672.43	1078.19
672.77	1074.75
673.11	1075.20
673.45	1075.22
673.79	1075.13
674.13	1079.03
674.47	1080.79
674.81	1080.09
675.15	1079.64
675.49	1082.22
675.83	1077.51
676.17	1078.47
676.51	1080.02
676.85	1082.17
677.19	1080.30
677.53	1083.86
677.87	1084.84
678.21	1085.66
678.55	1084.93
678.89	1085.75
679.23	1084.21
679.57	1081.94
679.90	1078.28
680.24	1078.94
680.58	1080.88
680.92	1081.98
681.26	1081.37
681.60	1082.54
681.94	1079.01
682.28	1074.68
682.62	1074.24
682.96	1072.76
683.29	1072.08
683.63	1075.38
683.97	1075.36
684.31	1073.93
684.65	1076.51
684.99	1078.54
685.33	1077.49
685.67	1081.33
686.00	1080.30
686.34	1082.52
686.68	1078.92
687.02	1078.96
687.36	1078.38
687.70	1083.46
688.03	1080.20
688.37	1081.28
688.71	1081.21
689.05	1078.00
689.39	1075.90
689.72	1075.92
690.06	1079.62
690.40	1078.10
690.74	1078.19
691.08	1074.56
691.41	1071.92
691.75	1068.57
692.09	1070.44
692.43	1072.08
692.76	1073.49
693.10	1079.62
693.44	1081.73
693.78	1080.04
694.11	1079.99
694.45	1080.79
694.79	1077.44
695.13	1075.83
695.46	1074.77
695.80	1073.79
696.14	1075.85
696.48	1077.14
696.81	1078.57
697.15	1078.07
697.49	1076.65
697.82	1075.59
698.16	1075.52
698.50	1072.22
698.83	1073.07
699.17	1074.73
699.51	1072.97
699.84	1071.36
700.18	1072.06
700.52	1074.03
700.85	1072.67
701.19	1073.84
701.53	1074.47
701.86	1075.45
702.20	1073.74
702.54	1080.44
702.87	1083.04
703.21	1083.79
703.55	1088.14
703.88	1091.46
704.22	1089.36
704.55	1087.13
704.89	1088.35
705.23	1083.67
705.56	1079.55
705.90	1077.33
706.23	1078.24
706.57	1077.33
706.91	1078.07
707.24	1078.89
707.58	1079.36
707.91	1077.28
708.25	1079.13
708.58	1078.52
708.92	1082.40
709.26	1080.86
709.59	1081.49
709.93	1080.67
710.26	1083.13
710.60	1083.39
710.93	1083.34
711.27	1082.31
711.60	1082.50
711.94	1081.70
712.27	1079.01
712.61	1081.16
712.94	1083.25
713.28	1083.57
713.61	1080.60
713.95	1080.37
714.28	1080.72
714.62	1078.68
714.95	1077.44
715.29	1078.99
715.62	1079.20
715.96	1073.18
716.29	1075.48
716.63	1074.14
716.96	1073.44
717.29	1072.39
717.63	1077.37
717.96	1076.41
718.30	1077.25
718.63	1077.82
718.97	1077.63
719.30	1079.24
719.63	1077.58
719.97	1076.15
720.30	1078.31
720.64	1075.20
720.97	1073.67
721.30	1077.93
721.64	1083.53
721.97	1081.51
722.31	1083.01
722.64	1083.81
722.97	1080.06
723.31	1075.17
723.64	1075.36
723.97	1079.53
724.31	1078.75
724.64	1076.48
724.98	1076.20
725.31	1071.64
725.64	1070.84
725.98	1068.67
726.31	1071.26
726.64	1071.19
726.97	1073.58
727.31	1072.20
727.64	1073.70
727.97	1075.76
728.31	1076.60
728.64	1076.58
728.97	1077.47
729.31	1075.90
729.64	1075.80
729.97	1076.83
730.30	1077.51
730.64	1074.75
730.97	1078.54
731.30	1075.29
731.63	1073.70
731.97	1075.03
732.30	1078.45
732.63	1075.80
732.96	1074.07
733.30	1076.76
733.63	1073.58
733.96	1068.99
734.29	1069.11
734.63	1074.63
734.96	1073.56
735.29	1075.41
735.62	1077.35
735.95	1078.31
736.29	1079.55
736.62	1076.95
736.95	1077.68
737.28	1076.65
737.61	1076.55
737.94	1073.07
738.28	1074.45
738.61	1077.21
738.94	1081.58
739.27	1081.51
739.60	1084.07
739.93	1087.53
740.27	1086.99
740.60	1085.28
740.93	1086.17
741.26	1085.28
741.59	1083.08
741.92	1080.95
742.25	1080.37
742.58	1081.33
742.91	1082.54
743.25	1081.07
743.58	1081.61
743.91	1078.80
744.24	1077.25
744.57	1076.32
744.90	1074.21
745.23	1076.18
745.56	1082.43
745.89	1080.34
746.22	1077.09
746.55	1081.23
746.88	1079.03
747.21	1076.72
747.54	1080.48
747.87	1081.28
748.20	1082.38
748.53	1079.88
748.87	1076.76
749.20	1073.86
749.53	1072.36
749.86	1068.90
750.19	1072.81
750.52	1074.28
750.85	1077.42
751.18	1082.29
751.51	1081.66
751.84	1081.40
752.16	1081.07
752.49	1079.15
752.82	1078.92
753.15	1079.97
753.48	1078.05
753.81	1077.98
754.14	1078.47
754.47	1075.94
754.80	1075.03
755.13	1076.53
755.46	1079.13
755.79	1075.94
756.12	1078.64
756.45	1080.60
756.78	1078.33
757.11	1076.46
757.43	1077.33
757.76	1076.06
758.09	1076.30
758.42	1078.36
758.75	1078.82
759.08	1079.06
759.41	1074.14
759.74	1075.08
760.07	1074.89
760.39	1075.38
760.72	1074.70
761.05	1079.55
761.38	1077.35
761.71	1078.82
762.04	1076.93
762.36	1080.30
762.69	1079.31
763.02	1080.13
763.35	1077.00
763.68	1079.99
764.01	1076.39
764.33	1076.65
764.66	1078.31
