SpectraSuite Data File
++++++++++++++++++++++++++++++++++++
Date: Mon Aug 26 10:22:26 PDT 2019
User: corrico
Dark Spectrum Present: No
Reference Spectrum Present: No
Number of Sampled Component Spectra: 1
Spectrometers: USB2+H06089
Integration Time (usec): 2000 (USB2+H06089)
Spectra Averaged: 20 (USB2+H06089)
Boxcar Smoothing: 2 (USB2+H06089)
Correct for Electrical Dark: No (USB2+H06089)
Strobe/Lamp Enabled: No (USB2+H06089)
Correct for Detector Non-linearity: No (USB2+H06089)
Correct for Stray Light: No (USB2+H06089)
Number of Pixels in Processed Spectrum: 2048
>>>>>Begin Processed Spectral Data<<<<<
339.70	1044.00
340.07	1044.00
340.45	1002.76
340.82	979.47
341.19	952.88
341.57	924.46
341.94	912.83
342.31	905.25
342.69	899.40
343.06	895.98
343.43	895.77
343.81	899.66
344.18	898.20
344.55	900.85
344.93	907.54
345.30	915.57
345.67	924.70
346.04	934.93
346.42	945.95
346.79	956.76
347.16	962.71
347.54	970.67
347.91	982.30
348.28	988.97
348.65	999.15
349.03	1009.15
349.40	1016.61
349.77	1021.50
350.14	1028.45
350.52	1031.33
350.89	1038.52
351.26	1044.51
351.63	1052.63
352.01	1057.17
352.38	1060.80
352.75	1062.16
353.12	1065.15
353.50	1066.93
353.87	1070.30
354.24	1073.30
354.61	1078.59
354.98	1080.04
355.36	1081.58
355.73	1083.01
356.10	1082.19
356.47	1081.61
356.84	1082.10
357.22	1082.15
357.59	1084.07
357.96	1085.94
358.33	1086.03
358.70	1083.83
359.08	1082.50
359.45	1081.35
359.82	1079.85
360.19	1077.86
360.56	1079.90
360.94	1081.02
361.31	1082.12
361.68	1082.54
362.05	1082.83
362.42	1082.29
362.79	1082.45
363.16	1080.98
363.54	1081.42
363.91	1081.82
364.28	1084.07
364.65	1083.57
365.02	1082.26
365.39	1079.99
365.76	1078.96
366.14	1073.79
366.51	1071.05
366.88	1071.31
367.25	1069.86
367.62	1069.58
367.99	1071.05
368.36	1072.43
368.73	1074.59
369.10	1077.75
369.48	1076.41
369.85	1074.38
370.22	1076.76
370.59	1074.35
370.96	1075.57
371.33	1076.60
371.70	1076.06
372.07	1075.27
372.44	1076.37
372.81	1072.06
373.18	1070.72
373.55	1075.13
373.93	1074.89
374.30	1073.51
374.67	1076.67
375.04	1078.75
375.41	1078.94
375.78	1076.06
376.15	1079.15
376.52	1080.65
376.89	1080.74
377.26	1080.44
377.63	1084.39
378.00	1082.38
378.37	1079.50
378.74	1078.89
379.11	1079.76
379.48	1080.63
379.85	1080.72
380.22	1084.63
380.59	1087.04
380.96	1084.23
381.33	1084.49
381.70	1083.97
382.07	1082.19
382.44	1081.61
382.81	1085.89
383.18	1085.31
383.55	1085.75
383.92	1083.62
384.29	1082.80
384.66	1078.75
385.03	1078.31
385.40	1077.54
385.77	1079.83
386.14	1080.20
386.51	1079.67
386.88	1080.09
387.25	1080.02
387.62	1076.53
387.99	1077.16
388.36	1079.36
388.73	1080.06
389.10	1083.25
389.46	1085.52
389.83	1085.49
390.20	1083.71
390.57	1082.52
390.94	1081.16
391.31	1079.95
391.68	1078.89
392.05	1080.70
392.42	1081.19
392.79	1080.41
393.16	1081.66
393.53	1084.37
393.89	1087.34
394.26	1089.73
394.63	1090.71
395.00	1091.49
395.37	1091.67
395.74	1088.37
396.11	1086.36
396.48	1087.93
396.84	1089.24
397.21	1091.42
397.58	1094.06
397.95	1093.33
398.32	1090.69
398.69	1089.52
399.06	1085.54
399.42	1083.60
399.79	1084.98
400.16	1085.66
400.53	1086.80
400.90	1090.99
401.27	1094.22
401.64	1095.00
402.00	1096.14
402.37	1097.48
402.74	1092.98
403.11	1087.72
403.48	1089.38
403.84	1090.43
404.21	1089.19
404.58	1093.78
404.95	1099.47
405.32	1099.14
405.68	1098.65
406.05	1097.29
406.42	1096.73
406.79	1097.10
407.16	1094.69
407.52	1096.24
407.89	1098.98
408.26	1097.41
408.63	1096.26
408.99	1097.85
409.36	1097.71
409.73	1099.93
410.10	1102.06
410.47	1098.95
410.83	1099.86
411.20	1099.96
411.57	1099.37
411.94	1099.58
412.30	1103.77
412.67	1098.58
413.04	1097.31
413.40	1097.48
413.77	1096.75
414.14	1097.73
414.51	1102.72
414.87	1104.57
415.24	1103.89
415.61	1104.66
415.97	1101.76
416.34	1103.84
416.71	1103.12
417.08	1103.68
417.44	1102.51
417.81	1103.63
418.18	1104.33
418.54	1106.46
418.91	1112.15
419.28	1112.55
419.64	1115.20
420.01	1112.41
420.38	1110.79
420.74	1105.04
421.11	1108.13
421.48	1107.54
421.84	1111.24
422.21	1112.95
422.58	1120.18
422.94	1122.01
423.31	1127.01
423.68	1130.31
424.04	1133.99
424.41	1135.04
424.77	1137.83
425.14	1141.25
425.51	1143.05
425.87	1149.76
426.24	1150.94
426.61	1157.96
426.97	1160.84
427.34	1167.97
427.70	1173.76
428.07	1181.46
428.44	1187.26
428.80	1193.53
429.17	1201.58
429.53	1208.49
429.90	1218.97
430.27	1230.77
430.63	1242.15
431.00	1253.10
431.36	1263.84
431.73	1275.38
432.09	1287.76
432.46	1302.32
432.83	1318.12
433.19	1334.22
433.56	1357.49
433.92	1378.46
434.29	1399.06
434.65	1419.84
435.02	1445.54
435.38	1467.63
435.75	1490.24
436.11	1520.44
436.48	1551.49
436.84	1586.93
437.21	1621.01
437.57	1659.14
437.94	1703.37
438.30	1749.20
438.67	1797.06
439.03	1846.03
439.40	1902.64
439.76	1954.82
440.13	2009.94
440.49	2076.06
440.86	2142.29
441.22	2213.94
441.59	2288.81
441.95	2373.89
442.32	2455.74
442.68	2551.23
443.05	2646.56
443.41	2745.52
443.78	2841.69
444.14	2948.26
444.51	3052.11
444.87	3192.21
445.24	3327.82
445.60	3485.27
445.96	3638.46
446.33	3821.11
446.69	3979.89
447.06	4162.69
447.42	4343.78
447.79	4531.93
448.15	4748.71
448.51	4977.55
448.88	5238.87
449.24	5481.21
449.61	5764.79
449.97	6040.36
450.33	6324.71
450.70	6588.63
451.06	6919.02
451.43	7223.95
451.79	7580.01
452.15	7969.92
452.52	8415.14
452.88	8865.29
453.24	9395.66
453.61	9972.32
453.97	10537.51
454.34	11096.18
454.70	11744.04
455.06	12365.10
455.43	12990.04
455.79	13596.13
456.15	14301.45
456.52	14965.48
456.88	15761.64
457.24	16488.93
457.61	17333.56
457.97	18095.17
458.33	18868.16
458.70	19635.22
459.06	20382.13
459.42	21211.81
459.79	21978.40
460.15	22884.56
460.51	23736.29
460.88	24672.27
461.24	25474.06
461.60	26446.81
461.96	27310.24
462.33	28148.50
462.69	28924.46
463.05	29754.11
463.42	30460.81
463.78	31091.79
464.14	31605.49
464.50	32210.62
464.87	32672.05
465.23	33015.64
465.59	33372.72
465.95	33720.40
466.32	33966.84
466.68	34217.18
467.04	34360.77
467.40	34517.19
467.77	34661.13
468.13	34648.57
468.49	34567.82
468.85	34526.83
469.22	34370.06
469.58	34035.81
469.94	33800.68
470.30	33488.31
470.66	33049.09
471.03	32443.97
471.39	32049.84
471.75	31404.37
472.11	30795.08
472.47	30427.17
472.84	30123.65
473.20	29646.00
473.56	29379.53
473.92	28953.25
474.28	28445.82
474.65	27942.13
475.01	27461.06
475.37	26871.39
475.73	26421.63
476.09	25889.11
476.45	25360.27
476.81	24839.61
477.18	24326.85
477.54	23874.45
477.90	23525.19
478.26	23113.38
478.62	22753.73
478.98	22448.57
479.34	22114.29
479.71	21690.54
480.07	21351.35
480.43	21009.63
480.79	20637.02
481.15	20287.11
481.51	19982.84
481.87	19723.02
482.23	19443.65
482.59	19196.07
482.96	18912.14
483.32	18636.63
483.68	18267.04
484.04	17914.27
484.40	17531.97
484.76	17173.05
485.12	16799.55
485.48	16485.61
485.84	16136.61
486.20	15791.27
486.56	15434.76
486.92	15129.08
487.28	14771.61
487.64	14416.41
488.00	14093.82
488.37	13777.49
488.73	13412.88
489.09	13061.45
489.45	12744.99
489.81	12436.86
490.17	12131.46
490.53	11843.77
490.89	11551.57
491.25	11261.58
491.61	10937.30
491.97	10622.66
492.33	10301.54
492.69	10003.22
493.05	9700.30
493.41	9426.55
493.77	9148.50
494.13	8894.64
494.49	8645.21
494.85	8410.95
495.21	8178.74
495.57	7959.81
495.93	7739.50
496.29	7535.40
496.64	7350.94
497.00	7157.85
497.36	6972.13
497.72	6785.96
498.08	6605.67
498.44	6416.27
498.80	6253.14
499.16	6083.15
499.52	5938.88
499.88	5814.87
500.24	5700.33
500.60	5569.61
500.96	5456.42
501.32	5336.49
501.68	5206.97
502.03	5071.66
502.39	4951.82
502.75	4817.45
503.11	4698.86
503.47	4587.38
503.83	4471.24
504.19	4351.24
504.55	4249.41
504.91	4149.35
505.26	4045.94
505.62	3957.14
505.98	3870.47
506.34	3778.12
506.70	3677.43
507.06	3597.03
507.42	3510.22
507.78	3433.17
508.13	3353.85
508.49	3285.90
508.85	3213.56
509.21	3147.97
509.57	3075.56
509.93	3012.67
510.28	2947.83
510.64	2881.13
511.00	2812.76
511.36	2753.10
511.72	2701.80
512.07	2656.25
512.43	2606.96
512.79	2557.60
513.15	2513.62
513.51	2463.46
513.86	2410.56
514.22	2368.39
514.58	2335.29
514.94	2297.82
515.30	2262.24
515.65	2231.07
516.01	2197.39
516.37	2158.82
516.73	2131.08
517.08	2104.19
517.44	2072.73
517.80	2039.26
518.16	2015.60
518.51	1983.30
518.87	1952.52
519.23	1925.82
519.59	1904.49
519.94	1878.82
520.30	1858.10
520.66	1836.78
521.01	1817.89
521.37	1797.39
521.73	1776.35
522.09	1754.70
522.44	1734.41
522.80	1713.23
523.16	1690.10
523.51	1670.18
523.87	1652.21
524.23	1633.39
524.58	1614.10
524.94	1597.39
525.30	1578.93
525.65	1561.14
526.01	1546.09
526.37	1529.17
526.72	1514.77
527.08	1504.08
527.44	1494.92
527.79	1485.58
528.15	1476.50
528.51	1463.61
528.86	1451.88
529.22	1434.51
529.58	1421.50
529.93	1409.89
530.29	1399.73
530.65	1389.39
531.00	1380.94
531.36	1369.59
531.71	1359.76
532.07	1353.32
532.43	1343.54
532.78	1339.39
533.14	1331.69
533.49	1325.16
533.85	1318.89
534.21	1313.56
534.56	1305.32
534.92	1298.30
535.27	1289.59
535.63	1283.01
535.98	1276.81
536.34	1272.97
536.69	1270.26
537.05	1269.32
537.41	1261.08
537.76	1256.10
538.12	1251.88
538.47	1246.80
538.83	1238.80
539.18	1236.88
539.54	1233.60
539.89	1227.28
540.25	1223.73
540.60	1220.59
540.96	1216.75
541.31	1212.49
541.67	1208.98
542.02	1207.48
542.38	1205.31
542.73	1203.20
543.09	1197.16
543.44	1193.11
543.80	1188.95
544.15	1184.43
544.51	1179.40
544.86	1182.27
545.22	1180.07
545.57	1173.40
545.93	1173.01
546.28	1173.78
546.64	1169.03
546.99	1169.03
547.35	1170.50
547.70	1167.46
548.05	1161.44
548.41	1159.24
548.76	1157.72
549.12	1155.34
549.47	1156.41
549.83	1156.95
550.18	1155.52
550.53	1153.42
550.89	1151.75
551.24	1147.94
551.60	1147.75
551.95	1146.53
552.30	1142.74
552.66	1141.78
553.01	1141.69
553.37	1137.87
553.72	1135.46
554.07	1136.40
554.43	1132.19
554.78	1130.08
555.13	1126.27
555.49	1128.35
555.84	1126.83
556.19	1128.42
556.55	1124.81
556.90	1130.62
557.26	1129.89
557.61	1125.28
557.96	1125.17
558.32	1126.83
558.67	1126.06
559.02	1122.31
559.37	1123.74
559.73	1120.37
560.08	1116.86
560.43	1110.61
560.79	1109.60
561.14	1110.72
561.49	1108.81
561.85	1107.92
562.20	1110.02
562.55	1113.09
562.90	1112.60
563.26	1113.07
563.61	1114.17
563.96	1110.47
564.32	1105.20
564.67	1101.25
565.02	1102.93
565.37	1104.36
565.73	1106.18
566.08	1105.90
566.43	1107.35
566.78	1108.57
567.14	1106.56
567.49	1106.00
567.84	1107.31
568.19	1107.92
568.54	1105.67
568.90	1103.31
569.25	1103.31
569.60	1104.29
569.95	1101.36
570.31	1101.03
570.66	1100.52
571.01	1098.41
571.36	1095.53
571.71	1093.66
572.06	1090.32
572.42	1089.12
572.77	1088.04
573.12	1085.24
573.47	1085.54
573.82	1088.70
574.18	1093.38
574.53	1095.25
574.88	1096.52
575.23	1098.55
575.58	1097.78
575.93	1092.80
576.28	1092.30
576.64	1096.78
576.99	1097.38
577.34	1096.10
577.69	1097.71
578.04	1099.28
578.39	1097.36
578.74	1094.01
579.09	1091.53
579.44	1092.94
579.80	1093.50
580.15	1089.85
580.50	1091.32
580.85	1092.49
581.20	1090.03
581.55	1087.09
581.90	1086.64
582.25	1085.91
582.60	1085.52
582.95	1083.29
583.30	1084.98
583.65	1088.12
584.00	1089.05
584.35	1091.81
584.71	1092.84
585.06	1091.42
585.41	1090.85
585.76	1090.29
586.11	1089.38
586.46	1087.44
586.81	1086.92
587.16	1086.41
587.51	1087.79
587.86	1087.51
588.21	1090.32
588.56	1092.45
588.91	1093.83
589.26	1094.62
589.61	1092.42
589.96	1092.80
590.31	1090.53
590.66	1089.99
591.01	1087.90
591.36	1094.06
591.71	1092.02
592.06	1093.52
592.41	1090.85
592.76	1090.29
593.10	1086.66
593.45	1090.97
593.80	1089.24
594.15	1089.26
594.50	1087.13
594.85	1085.28
595.20	1082.73
595.55	1082.59
595.90	1085.00
596.25	1088.68
596.60	1088.68
596.95	1086.66
597.30	1089.19
597.64	1097.76
597.99	1097.08
598.34	1096.31
598.69	1099.98
599.04	1100.29
599.39	1089.54
599.74	1089.99
600.09	1090.90
600.44	1089.47
600.78	1087.51
601.13	1087.76
601.48	1086.90
601.83	1086.52
602.18	1086.69
602.53	1088.96
602.88	1087.69
603.22	1086.76
603.57	1086.94
603.92	1087.41
604.27	1083.41
604.62	1083.01
604.97	1084.56
605.31	1087.65
605.66	1085.75
606.01	1088.42
606.36	1089.54
606.71	1085.03
607.05	1082.36
607.40	1082.71
607.75	1080.67
608.10	1082.36
608.44	1088.49
608.79	1088.77
609.14	1090.69
609.49	1091.77
609.84	1089.29
610.18	1086.08
610.53	1085.40
610.88	1083.69
611.23	1083.86
611.57	1088.07
611.92	1092.07
612.27	1093.19
612.62	1092.21
612.96	1092.33
613.31	1088.77
613.66	1085.24
614.00	1084.07
614.35	1086.55
614.70	1086.01
615.05	1085.96
615.39	1084.04
615.74	1084.58
616.09	1085.80
616.43	1085.96
616.78	1087.25
617.13	1089.71
617.47	1086.92
617.82	1082.38
618.17	1081.19
618.51	1077.51
618.86	1073.02
619.21	1074.42
619.55	1077.68
619.90	1076.58
620.25	1080.65
620.59	1084.63
620.94	1087.69
621.29	1086.76
621.63	1087.69
621.98	1087.97
622.32	1089.05
622.67	1087.02
623.02	1086.24
623.36	1086.94
623.71	1085.17
624.05	1084.56
624.40	1084.67
624.75	1086.66
625.09	1086.71
625.44	1086.71
625.78	1086.92
626.13	1086.71
626.48	1084.21
626.82	1083.50
627.17	1084.30
627.51	1082.71
627.86	1083.69
628.20	1084.46
628.55	1086.50
628.89	1085.84
629.24	1084.74
629.58	1084.84
629.93	1083.46
630.28	1082.76
630.62	1083.74
630.97	1083.36
631.31	1081.33
631.66	1083.83
632.00	1081.80
632.35	1083.11
632.69	1084.44
633.04	1085.19
633.38	1084.89
633.73	1086.64
634.07	1085.68
634.42	1086.03
634.76	1084.98
635.11	1083.43
635.45	1080.20
635.79	1077.51
636.14	1074.91
636.48	1075.05
636.83	1077.09
637.17	1082.12
637.52	1084.67
637.86	1087.69
638.21	1088.00
638.55	1087.83
638.89	1086.36
639.24	1086.31
639.58	1084.37
639.93	1083.74
640.27	1083.74
640.61	1081.00
640.96	1080.81
641.30	1083.86
641.65	1085.38
641.99	1084.44
642.33	1083.62
642.68	1082.08
643.02	1077.44
643.37	1075.08
643.71	1075.29
644.05	1078.36
644.40	1077.33
644.74	1079.78
645.08	1085.10
645.43	1084.00
645.77	1081.77
646.11	1080.41
646.46	1081.87
646.80	1081.37
647.14	1080.32
647.49	1081.47
647.83	1082.50
648.17	1082.59
648.52	1076.37
648.86	1075.64
649.20	1077.23
649.55	1076.23
649.89	1073.53
650.23	1077.89
650.57	1077.98
650.92	1077.54
651.26	1080.53
651.60	1080.65
651.95	1076.72
652.29	1079.41
652.63	1079.67
652.97	1078.12
653.32	1082.24
653.66	1085.12
654.00	1083.60
654.34	1084.11
654.69	1085.56
655.03	1083.08
655.37	1083.29
655.71	1083.36
656.05	1082.61
656.40	1082.69
656.74	1082.85
657.08	1080.86
657.42	1081.42
657.76	1082.17
658.11	1082.24
658.45	1082.52
658.79	1087.41
659.13	1087.23
659.47	1084.98
659.82	1085.63
660.16	1086.83
660.50	1082.19
660.84	1083.57
661.18	1086.08
661.52	1085.47
661.87	1078.96
662.21	1080.16
662.55	1079.55
662.89	1077.49
663.23	1079.99
663.57	1084.23
663.91	1084.44
664.25	1084.23
664.60	1084.49
664.94	1081.61
665.28	1079.78
665.62	1081.87
665.96	1079.17
666.30	1079.46
666.64	1078.94
666.98	1079.10
667.32	1076.20
667.66	1079.27
668.01	1077.18
668.35	1078.61
668.69	1079.95
669.03	1079.13
669.37	1078.03
669.71	1080.56
670.05	1081.02
670.39	1079.88
670.73	1081.94
671.07	1087.20
671.41	1088.61
671.75	1085.84
672.09	1085.73
672.43	1084.98
672.77	1082.40
673.11	1081.77
673.45	1084.67
673.79	1085.47
674.13	1084.74
674.47	1080.81
674.81	1077.49
675.15	1073.53
675.49	1072.25
675.83	1072.13
676.17	1073.04
676.51	1072.78
676.85	1074.33
677.19	1073.46
677.53	1072.71
677.87	1071.75
678.21	1072.69
678.55	1074.47
678.89	1078.61
679.23	1080.79
679.57	1082.15
679.90	1084.96
680.24	1088.12
680.58	1087.58
680.92	1086.85
681.26	1084.37
681.60	1079.97
681.94	1077.84
682.28	1075.08
682.62	1076.83
682.96	1080.56
683.29	1083.57
683.63	1083.46
683.97	1084.23
684.31	1082.08
684.65	1081.56
684.99	1081.02
685.33	1080.58
685.67	1079.97
686.00	1080.30
686.34	1078.19
686.68	1077.79
687.02	1074.96
687.36	1077.35
687.70	1077.93
688.03	1078.89
688.37	1082.52
688.71	1082.69
689.05	1081.82
689.39	1082.94
689.72	1082.19
690.06	1078.24
690.40	1076.46
690.74	1075.92
691.08	1073.60
691.41	1073.35
691.75	1071.90
692.09	1075.48
692.43	1076.39
692.76	1076.08
693.10	1075.29
693.44	1078.21
693.78	1076.32
694.11	1076.53
694.45	1077.84
694.79	1080.41
695.13	1078.96
695.46	1078.71
695.80	1079.41
696.14	1078.00
696.48	1075.34
696.81	1077.33
697.15	1078.54
697.49	1079.81
697.82	1080.13
698.16	1082.31
698.50	1079.10
698.83	1081.94
699.17	1081.02
699.51	1082.61
699.84	1082.45
700.18	1084.74
700.52	1082.71
700.85	1081.98
701.19	1083.74
701.53	1085.63
701.86	1083.83
702.20	1085.52
702.54	1085.24
702.87	1080.41
703.21	1082.66
703.55	1084.51
703.88	1081.21
704.22	1082.47
704.55	1084.02
704.89	1081.84
705.23	1079.08
705.56	1080.63
705.90	1081.51
706.23	1084.07
706.57	1081.07
706.91	1082.57
707.24	1081.87
707.58	1078.12
707.91	1076.97
708.25	1080.39
708.58	1081.47
708.92	1081.54
709.26	1084.65
709.59	1083.64
709.93	1083.20
710.26	1081.66
710.60	1081.68
710.93	1081.63
711.27	1084.51
711.60	1085.47
711.94	1089.57
712.27	1089.50
712.61	1086.06
712.94	1082.03
713.28	1078.47
713.61	1076.08
713.95	1078.43
714.28	1080.56
714.62	1082.08
714.95	1086.17
715.29	1084.04
715.62	1081.14
715.96	1083.57
716.29	1082.61
716.63	1079.15
716.96	1082.38
717.29	1082.40
717.63	1078.73
717.96	1079.81
718.30	1081.02
718.63	1079.43
718.97	1078.24
719.30	1079.69
719.63	1080.74
719.97	1079.62
720.30	1079.83
720.64	1081.26
720.97	1075.62
721.30	1073.51
721.64	1073.16
721.97	1074.61
722.31	1075.78
722.64	1082.50
722.97	1082.64
723.31	1083.62
723.64	1081.56
723.97	1080.91
724.31	1078.92
724.64	1080.63
724.98	1079.64
725.31	1081.37
725.64	1082.52
725.98	1085.94
726.31	1084.56
726.64	1084.21
726.97	1081.35
727.31	1081.77
727.64	1077.54
727.97	1080.16
728.31	1079.69
728.64	1080.84
728.97	1082.29
729.31	1084.81
729.64	1084.96
729.97	1087.23
730.30	1088.09
730.64	1084.21
730.97	1081.30
731.30	1079.43
731.63	1078.94
731.97	1080.32
732.30	1083.53
732.63	1084.00
732.96	1083.97
733.30	1083.55
733.63	1083.83
733.96	1083.13
734.29	1084.00
734.63	1083.95
734.96	1083.86
735.29	1079.62
735.62	1074.31
735.95	1075.90
736.29	1074.33
736.62	1075.36
736.95	1077.00
737.28	1078.94
737.61	1078.54
737.94	1079.29
738.28	1077.89
738.61	1079.10
738.94	1081.75
739.27	1080.27
739.60	1078.36
739.93	1075.59
740.27	1076.65
740.60	1076.11
740.93	1077.09
741.26	1079.08
741.59	1082.87
741.92	1081.51
742.25	1079.71
742.58	1080.16
742.91	1082.26
743.25	1079.20
743.58	1080.51
743.91	1078.99
744.24	1077.77
744.57	1074.28
744.90	1076.25
745.23	1075.10
745.56	1078.61
745.89	1077.70
746.22	1079.36
746.55	1080.41
746.88	1080.02
747.21	1078.71
747.54	1079.03
747.87	1079.20
748.20	1077.23
748.53	1078.36
748.87	1078.05
749.20	1080.46
749.53	1079.62
749.86	1079.81
750.19	1079.48
750.52	1077.21
750.85	1074.28
751.18	1075.41
751.51	1076.76
751.84	1074.52
752.16	1078.54
752.49	1076.90
752.82	1074.10
753.15	1074.40
753.48	1076.44
753.81	1074.77
754.14	1077.21
754.47	1079.95
754.80	1078.59
755.13	1075.92
755.46	1075.80
755.79	1075.41
756.12	1075.08
756.45	1078.89
756.78	1080.41
757.11	1082.24
757.43	1082.12
757.76	1083.86
758.09	1079.46
758.42	1082.92
758.75	1083.62
759.08	1082.47
759.41	1084.00
759.74	1087.44
760.07	1082.24
760.39	1081.73
760.72	1083.15
761.05	1079.15
761.38	1079.62
761.71	1079.71
762.04	1078.19
762.36	1079.57
762.69	1083.86
763.02	1081.33
763.35	1083.67
763.68	1084.18
764.01	1086.64
