SpectraSuite Data File
++++++++++++++++++++++++++++++++++++
Date: Mon Aug 26 10:21:56 PDT 2019
User: corrico
Dark Spectrum Present: No
Reference Spectrum Present: No
Number of Sampled Component Spectra: 1
Spectrometers: USB2+H06089
Integration Time (usec): 2000 (USB2+H06089)
Spectra Averaged: 20 (USB2+H06089)
Boxcar Smoothing: 2 (USB2+H06089)
Correct for Electrical Dark: No (USB2+H06089)
Strobe/Lamp Enabled: No (USB2+H06089)
Correct for Detector Non-linearity: No (USB2+H06089)
Correct for Stray Light: No (USB2+H06089)
Number of Pixels in Processed Spectrum: 2048
>>>>>Begin Processed Spectral Data<<<<<
339.70	1037.56
340.07	1037.56
340.45	1001.54
340.82	976.21
341.19	950.47
341.57	921.49
341.94	911.19
342.31	901.95
342.69	897.81
343.06	894.48
343.43	896.35
343.81	894.97
344.18	897.71
344.55	901.53
344.93	905.74
345.30	910.59
345.67	918.73
346.04	928.44
346.42	936.07
346.79	946.02
347.16	955.43
347.54	965.56
347.91	972.68
348.28	981.81
348.65	988.85
349.03	996.06
349.40	1001.82
349.77	1009.24
350.14	1017.45
350.52	1026.58
350.89	1032.71
351.26	1038.87
351.63	1043.62
352.01	1048.12
352.38	1050.15
352.75	1051.60
353.12	1055.89
353.50	1057.90
353.87	1059.26
354.24	1061.69
354.61	1068.88
354.98	1069.13
355.36	1073.86
355.73	1072.88
356.10	1075.85
356.47	1075.22
356.84	1075.15
357.22	1072.69
357.59	1077.16
357.96	1074.47
358.33	1073.00
358.70	1073.51
359.08	1070.05
359.45	1071.33
359.82	1074.47
360.19	1073.14
360.56	1070.94
360.94	1071.12
361.31	1064.76
361.68	1061.39
362.05	1063.35
362.42	1062.98
362.79	1065.72
363.16	1067.82
363.54	1067.73
363.91	1066.91
364.28	1067.71
364.65	1067.49
365.02	1067.99
365.39	1064.59
365.76	1064.48
366.14	1061.99
366.51	1059.44
366.88	1056.96
367.25	1059.47
367.62	1055.86
367.99	1055.44
368.36	1056.87
368.73	1060.73
369.10	1059.02
369.48	1059.28
369.85	1062.18
370.22	1060.99
370.59	1057.13
370.96	1059.21
371.33	1063.24
371.70	1060.45
372.07	1061.11
372.44	1063.80
372.81	1061.67
373.18	1062.32
373.55	1065.60
373.93	1068.01
374.30	1065.83
374.67	1068.06
375.04	1064.78
375.41	1063.47
375.78	1062.53
376.15	1066.07
376.52	1066.72
376.89	1066.25
377.26	1069.91
377.63	1070.16
378.00	1068.13
378.37	1069.39
378.74	1071.40
379.11	1066.89
379.48	1065.18
379.85	1065.74
380.22	1063.70
380.59	1062.42
380.96	1065.32
381.33	1064.66
381.70	1065.20
382.07	1064.45
382.44	1063.54
382.81	1063.68
383.18	1067.33
383.55	1068.27
383.92	1071.59
384.29	1072.53
384.66	1071.61
385.03	1072.08
385.40	1069.81
385.77	1068.24
386.14	1069.72
386.51	1070.00
386.88	1067.00
387.25	1069.55
387.62	1071.75
387.99	1071.80
388.36	1072.36
388.73	1072.57
389.10	1071.43
389.46	1068.20
389.83	1067.35
390.20	1069.18
390.57	1068.29
390.94	1066.63
391.31	1068.59
391.68	1068.62
392.05	1066.23
392.42	1070.75
392.79	1069.27
393.16	1068.95
393.53	1069.25
393.89	1070.12
394.26	1066.68
394.63	1070.56
395.00	1069.04
395.37	1070.51
395.74	1073.16
396.11	1074.40
396.48	1071.71
396.84	1073.56
397.21	1073.77
397.58	1069.25
397.95	1070.30
398.32	1071.59
398.69	1074.03
399.06	1073.67
399.42	1071.71
399.79	1070.07
400.16	1070.26
400.53	1068.57
400.90	1066.09
401.27	1069.51
401.64	1069.58
402.00	1071.43
402.37	1072.08
402.74	1076.08
403.11	1076.90
403.48	1076.81
403.84	1075.41
404.21	1075.03
404.58	1074.03
404.95	1075.17
405.32	1076.51
405.68	1077.89
406.05	1076.30
406.42	1075.73
406.79	1074.45
407.16	1075.45
407.52	1071.97
407.89	1072.04
408.26	1071.99
408.63	1072.48
408.99	1070.94
409.36	1070.56
409.73	1073.23
410.10	1072.83
410.47	1073.25
410.83	1071.94
411.20	1072.92
411.57	1070.51
411.94	1072.32
412.30	1070.35
412.67	1069.51
413.04	1071.68
413.40	1070.89
413.77	1068.69
414.14	1069.41
414.51	1072.01
414.87	1073.04
415.24	1072.53
415.61	1071.94
415.97	1070.96
416.34	1068.71
416.71	1066.65
417.08	1066.75
417.44	1067.92
417.81	1072.57
418.18	1076.06
418.54	1074.33
418.91	1077.77
419.28	1078.43
419.64	1078.31
420.01	1076.97
420.38	1075.69
420.74	1071.01
421.11	1073.44
421.48	1070.54
421.84	1073.37
422.21	1081.37
422.58	1084.77
422.94	1082.05
423.31	1083.62
423.68	1084.49
424.04	1080.04
424.41	1081.66
424.77	1085.42
425.14	1085.77
425.51	1079.81
425.87	1083.60
426.24	1084.23
426.61	1081.00
426.97	1080.20
427.34	1086.41
427.70	1090.53
428.07	1089.96
428.44	1092.54
428.80	1094.62
429.17	1094.67
429.53	1089.31
429.90	1090.41
430.27	1091.39
430.63	1091.37
431.00	1093.03
431.36	1098.74
431.73	1100.43
432.09	1099.65
432.46	1099.61
432.83	1096.89
433.19	1099.42
433.56	1099.89
433.92	1105.58
434.29	1108.50
434.65	1114.59
435.02	1109.67
435.38	1113.14
435.75	1113.51
436.11	1117.56
436.48	1121.00
436.84	1131.70
437.21	1139.37
437.57	1143.75
437.94	1149.41
438.30	1156.29
438.67	1157.82
439.03	1160.44
439.40	1168.09
439.76	1173.73
440.13	1178.41
440.49	1189.55
440.86	1198.24
441.22	1206.41
441.59	1215.72
441.95	1223.40
442.32	1232.01
442.68	1245.33
443.05	1255.49
443.41	1267.07
443.78	1281.56
444.14	1292.61
444.51	1299.18
444.87	1315.10
445.24	1332.28
445.60	1348.97
445.96	1363.03
446.33	1385.01
446.69	1402.94
447.06	1420.85
447.42	1441.72
447.79	1463.77
448.15	1483.97
448.51	1511.07
448.88	1541.31
449.24	1570.08
449.61	1603.22
449.97	1639.15
450.33	1671.54
450.70	1699.18
451.06	1731.79
451.43	1767.50
451.79	1812.77
452.15	1854.71
452.52	1901.19
452.88	1949.48
453.24	2003.15
453.61	2057.52
453.97	2116.69
454.34	2180.07
454.70	2255.64
455.06	2324.43
455.43	2384.28
455.79	2450.33
456.15	2526.02
456.52	2592.96
456.88	2673.27
457.24	2752.26
457.61	2837.22
457.97	2920.99
458.33	3008.36
458.70	3099.24
459.06	3199.00
459.42	3300.97
459.79	3391.20
460.15	3492.17
460.51	3586.52
460.88	3685.01
461.24	3765.38
461.60	3860.11
461.96	3947.38
462.33	4039.30
462.69	4120.40
463.05	4216.99
463.42	4312.67
463.78	4407.51
464.14	4482.83
464.50	4562.22
464.87	4625.37
465.23	4688.70
465.59	4750.37
465.95	4815.98
466.32	4865.27
466.68	4906.49
467.04	4923.11
467.40	4933.19
467.77	4935.86
468.13	4935.75
468.49	4939.68
468.85	4939.98
469.22	4927.83
469.58	4902.37
469.94	4888.40
470.30	4859.26
470.66	4827.73
471.03	4780.12
471.39	4749.11
471.75	4685.54
472.11	4621.25
472.47	4568.07
472.84	4513.86
473.20	4453.69
473.56	4415.54
473.92	4364.94
474.28	4311.69
474.65	4274.71
475.01	4228.58
475.37	4167.89
475.73	4122.99
476.09	4068.69
476.45	4014.49
476.81	3958.55
477.18	3906.54
477.54	3862.21
477.90	3826.59
478.26	3779.19
478.62	3738.98
478.98	3702.21
479.34	3665.72
479.71	3622.26
480.07	3582.38
480.43	3553.78
480.79	3528.31
481.15	3497.86
481.51	3468.95
481.87	3446.56
482.23	3406.93
482.59	3365.27
482.96	3325.95
483.32	3289.01
483.68	3236.75
484.04	3195.37
484.40	3154.36
484.76	3121.08
485.12	3071.53
485.48	3037.06
485.84	2995.58
486.20	2959.00
486.56	2910.36
486.92	2883.70
487.28	2841.43
487.64	2804.92
488.00	2765.90
488.37	2731.38
488.73	2686.23
489.09	2651.64
489.45	2612.55
489.81	2570.07
490.17	2524.95
490.53	2485.98
490.89	2442.70
491.25	2406.49
491.61	2372.79
491.97	2340.84
492.33	2305.64
492.69	2271.86
493.05	2233.57
493.41	2197.34
493.77	2165.84
494.13	2132.74
494.49	2101.66
494.85	2067.11
495.21	2039.75
495.57	2010.87
495.93	1980.51
496.29	1958.02
496.64	1938.43
497.00	1911.35
497.36	1887.48
497.72	1867.07
498.08	1839.80
498.44	1816.56
498.80	1792.59
499.16	1768.37
499.52	1750.81
499.88	1735.41
500.24	1717.74
500.60	1705.31
500.96	1689.73
501.32	1668.61
501.68	1647.06
502.03	1627.42
502.39	1604.93
502.75	1585.43
503.11	1569.63
503.47	1559.66
503.83	1549.83
504.19	1540.07
504.55	1527.97
504.91	1513.20
505.26	1494.34
505.62	1476.15
505.98	1461.24
506.34	1445.14
506.70	1433.48
507.06	1424.89
507.42	1414.76
507.78	1404.42
508.13	1395.73
508.49	1386.81
508.85	1376.05
509.21	1368.82
509.57	1358.35
509.93	1351.80
510.28	1340.96
510.64	1330.73
511.00	1315.10
511.36	1307.54
511.72	1296.94
512.07	1293.87
512.43	1291.67
512.79	1290.55
513.15	1285.70
513.51	1281.58
513.86	1272.74
514.22	1262.84
514.58	1255.58
514.94	1245.87
515.30	1240.18
515.65	1232.41
516.01	1230.00
516.37	1222.74
516.73	1217.57
517.08	1209.66
517.44	1206.36
517.80	1199.10
518.16	1197.54
518.51	1199.27
518.87	1199.59
519.23	1198.40
519.59	1194.77
519.94	1191.17
520.30	1183.82
520.66	1179.47
521.01	1174.60
521.37	1169.28
521.73	1167.08
522.09	1164.74
522.44	1162.22
522.80	1156.95
523.16	1157.28
523.51	1154.42
523.87	1152.39
524.23	1151.31
524.58	1152.95
524.94	1149.83
525.30	1147.52
525.65	1145.76
526.01	1141.22
526.37	1136.54
526.72	1133.80
527.08	1134.81
527.44	1130.67
527.79	1130.71
528.15	1127.86
528.51	1123.36
528.86	1120.58
529.22	1122.08
529.58	1119.76
529.93	1124.93
530.29	1125.33
530.65	1122.10
531.00	1119.31
531.36	1117.82
531.71	1110.98
532.07	1111.15
532.43	1110.44
532.78	1108.13
533.14	1109.79
533.49	1108.57
533.85	1109.53
534.21	1108.97
534.56	1111.45
534.92	1110.70
535.27	1111.68
535.63	1109.13
535.98	1107.33
536.34	1106.96
536.69	1102.93
537.05	1099.68
537.41	1101.41
537.76	1102.30
538.12	1098.86
538.47	1096.70
538.83	1094.29
539.18	1094.88
539.54	1094.18
539.89	1095.89
540.25	1097.03
540.60	1100.47
540.96	1098.53
541.31	1098.55
541.67	1100.03
542.02	1100.03
542.38	1100.26
542.73	1099.07
543.09	1099.12
543.44	1092.84
543.80	1093.45
544.15	1093.05
544.51	1092.77
544.86	1095.32
545.22	1100.26
545.57	1100.26
545.93	1100.40
546.28	1100.12
546.64	1094.55
546.99	1093.78
547.35	1092.14
547.70	1090.39
548.05	1091.98
548.41	1091.88
548.76	1092.00
549.12	1093.57
549.47	1094.20
549.83	1090.50
550.18	1090.43
550.53	1084.70
550.89	1080.53
551.24	1079.15
551.60	1079.60
551.95	1077.84
552.30	1081.70
552.66	1083.39
553.01	1084.58
553.37	1085.17
553.72	1086.71
554.07	1080.06
554.43	1076.34
554.78	1075.17
555.13	1076.18
555.49	1077.07
555.84	1081.54
556.19	1083.93
556.55	1083.36
556.90	1080.79
557.26	1078.47
557.61	1080.51
557.96	1080.51
558.32	1078.19
558.67	1076.11
559.02	1075.03
559.37	1075.34
559.73	1077.09
560.08	1080.30
560.43	1081.68
560.79	1082.87
561.14	1079.71
561.49	1074.96
561.85	1073.56
562.20	1076.39
562.55	1077.28
562.90	1078.87
563.26	1086.38
563.61	1085.56
563.96	1083.83
564.32	1084.91
564.67	1083.74
565.02	1077.23
565.37	1076.67
565.73	1077.21
566.08	1077.51
566.43	1077.82
566.78	1079.38
567.14	1078.47
567.49	1077.72
567.84	1074.66
568.19	1073.28
568.54	1071.92
568.90	1073.65
569.25	1071.87
569.60	1072.32
569.95	1070.82
570.31	1071.29
570.66	1071.61
571.01	1071.01
571.36	1070.70
571.71	1071.85
572.06	1074.21
572.42	1075.38
572.77	1076.58
573.12	1079.15
573.47	1078.31
573.82	1077.63
574.18	1077.35
574.53	1079.71
574.88	1077.77
575.23	1077.91
575.58	1075.24
575.93	1076.32
576.28	1076.97
576.64	1079.55
576.99	1080.79
577.34	1082.17
577.69	1081.12
578.04	1077.42
578.39	1070.47
578.74	1072.01
579.09	1072.22
579.44	1072.62
579.80	1075.13
580.15	1078.59
580.50	1079.24
580.85	1082.45
581.20	1082.45
581.55	1082.97
581.90	1086.73
582.25	1084.42
582.60	1082.57
582.95	1080.27
583.30	1079.55
583.65	1078.68
584.00	1080.32
584.35	1080.56
584.71	1082.66
585.06	1084.51
585.41	1080.79
585.76	1081.37
586.11	1081.40
586.46	1079.17
586.81	1077.02
587.16	1079.78
587.51	1078.45
587.86	1075.31
588.21	1075.50
588.56	1072.04
588.91	1067.94
589.26	1068.27
589.61	1072.08
589.96	1074.38
590.31	1076.62
590.66	1079.46
591.01	1079.24
591.36	1079.67
591.71	1078.52
592.06	1079.08
592.41	1077.35
592.76	1073.46
593.10	1067.17
593.45	1067.75
593.80	1066.23
594.15	1067.68
594.50	1070.65
594.85	1073.11
595.20	1075.76
595.55	1076.13
595.90	1076.60
596.25	1076.86
596.60	1078.78
596.95	1074.45
597.30	1074.61
597.64	1087.39
597.99	1091.63
598.34	1092.84
598.69	1094.34
599.04	1094.60
599.39	1084.14
599.74	1080.04
600.09	1076.67
600.44	1073.98
600.78	1077.07
601.13	1076.67
601.48	1076.86
601.83	1081.35
602.18	1081.56
602.53	1077.98
602.88	1075.10
603.22	1075.90
603.57	1072.13
603.92	1074.35
604.27	1076.27
604.62	1078.64
604.97	1077.37
605.31	1075.99
605.66	1077.37
606.01	1077.56
606.36	1075.45
606.71	1078.50
607.05	1079.34
607.40	1077.44
607.75	1074.61
608.10	1079.53
608.44	1075.69
608.79	1076.93
609.14	1077.58
609.49	1080.02
609.84	1076.60
610.18	1079.06
610.53	1082.59
610.88	1080.81
611.23	1081.70
611.57	1083.20
611.92	1084.39
612.27	1080.84
612.62	1081.51
612.96	1080.30
613.31	1076.93
613.66	1074.33
614.00	1074.45
614.35	1076.30
614.70	1075.55
615.05	1077.84
615.39	1075.87
615.74	1078.43
616.09	1078.17
616.43	1078.54
616.78	1077.70
617.13	1078.36
617.47	1076.06
617.82	1075.48
618.17	1074.21
618.51	1076.74
618.86	1078.73
619.21	1078.36
619.55	1082.80
619.90	1080.11
620.25	1078.10
620.59	1077.63
620.94	1077.54
621.29	1072.48
621.63	1076.44
621.98	1075.05
622.32	1075.78
622.67	1075.29
623.02	1074.12
623.36	1073.00
623.71	1073.77
624.05	1073.39
624.40	1071.40
624.75	1070.98
625.09	1071.24
625.44	1070.12
625.78	1070.14
626.13	1070.19
626.48	1074.59
626.82	1074.73
627.17	1076.11
627.51	1072.95
627.86	1075.78
628.20	1071.80
628.55	1072.90
628.89	1073.30
629.24	1077.25
629.58	1074.26
629.93	1076.08
630.28	1075.94
630.62	1075.90
630.97	1074.35
631.31	1077.28
631.66	1077.65
632.00	1079.92
632.35	1078.99
632.69	1079.78
633.04	1079.10
633.38	1076.32
633.73	1074.00
634.07	1076.13
634.42	1077.40
634.76	1077.47
635.11	1080.02
635.45	1080.98
635.79	1078.14
636.14	1078.61
636.48	1078.99
636.83	1076.53
637.17	1074.94
637.52	1071.33
637.86	1065.79
638.21	1064.03
638.55	1065.27
638.89	1067.35
639.24	1071.78
639.58	1076.34
639.93	1074.54
640.27	1075.52
640.61	1075.45
640.96	1074.94
641.30	1072.25
641.65	1078.66
641.99	1079.27
642.33	1077.91
642.68	1078.47
643.02	1078.36
643.37	1075.17
643.71	1072.20
644.05	1072.22
644.40	1071.10
644.74	1073.63
645.08	1075.55
645.43	1074.96
645.77	1075.66
646.11	1074.94
646.46	1073.25
646.80	1070.47
647.14	1074.33
647.49	1073.79
647.83	1077.37
648.17	1081.07
648.52	1082.57
648.86	1082.19
649.20	1084.49
649.55	1082.90
649.89	1079.74
650.23	1078.50
650.57	1078.57
650.92	1075.55
651.26	1075.31
651.60	1073.74
651.95	1075.24
652.29	1073.25
652.63	1070.56
652.97	1070.75
653.32	1072.04
653.66	1072.78
654.00	1072.08
654.34	1078.12
654.69	1075.90
655.03	1075.73
655.37	1073.98
655.71	1077.91
656.05	1073.44
656.40	1072.36
656.74	1074.56
657.08	1074.87
657.42	1070.40
657.76	1073.23
658.11	1077.23
658.45	1072.06
658.79	1072.50
659.13	1073.07
659.47	1070.02
659.82	1067.75
660.16	1069.18
660.50	1067.52
660.84	1070.26
661.18	1072.60
661.52	1073.67
661.87	1075.01
662.21	1079.41
662.55	1078.03
662.89	1076.97
663.23	1076.65
663.57	1078.03
663.91	1075.50
664.25	1074.10
664.60	1071.54
664.94	1068.34
665.28	1066.68
665.62	1067.14
665.96	1071.43
666.30	1075.57
666.64	1077.30
666.98	1078.19
667.32	1077.11
667.66	1076.18
668.01	1076.34
668.35	1076.90
668.69	1076.41
669.03	1075.87
669.37	1075.13
669.71	1070.54
670.05	1072.46
670.39	1073.63
670.73	1073.00
671.07	1070.19
671.41	1072.04
671.75	1072.11
672.09	1072.08
672.43	1072.39
672.77	1074.52
673.11	1072.15
673.45	1069.13
673.79	1068.10
674.13	1067.92
674.47	1068.74
674.81	1071.31
675.15	1072.48
675.49	1074.00
675.83	1075.90
676.17	1075.22
676.51	1077.84
676.85	1078.03
677.19	1076.55
677.53	1075.52
677.87	1075.62
678.21	1071.54
678.55	1071.31
678.89	1068.29
679.23	1066.49
679.57	1065.25
679.90	1066.86
680.24	1068.97
680.58	1073.11
680.92	1074.56
681.26	1076.74
681.60	1079.81
681.94	1078.59
682.28	1077.79
682.62	1079.10
682.96	1078.17
683.29	1075.64
683.63	1075.76
683.97	1075.78
684.31	1077.68
684.65	1077.65
684.99	1077.98
685.33	1078.00
685.67	1078.03
686.00	1075.97
686.34	1073.28
686.68	1073.60
687.02	1071.80
687.36	1072.90
687.70	1074.66
688.03	1078.57
688.37	1078.75
688.71	1080.63
689.05	1078.17
689.39	1073.74
689.72	1073.63
690.06	1073.09
690.40	1072.13
690.74	1072.92
691.08	1076.48
691.41	1075.83
691.75	1077.77
692.09	1078.59
692.43	1078.33
692.76	1078.43
693.10	1078.66
693.44	1077.16
693.78	1080.56
694.11	1080.30
694.45	1079.29
694.79	1077.18
695.13	1077.89
695.46	1073.60
695.80	1074.89
696.14	1076.51
696.48	1077.04
696.81	1075.73
697.15	1075.83
697.49	1078.64
697.82	1077.86
698.16	1078.10
698.50	1080.27
698.83	1081.05
699.17	1081.98
699.51	1079.34
699.84	1082.69
700.18	1080.34
700.52	1084.28
700.85	1078.43
701.19	1080.77
701.53	1076.39
701.86	1074.45
702.20	1069.98
702.54	1072.04
702.87	1070.96
703.21	1074.10
703.55	1075.99
703.88	1080.30
704.22	1079.36
704.55	1078.59
704.89	1073.91
705.23	1073.28
705.56	1065.62
705.90	1066.11
706.23	1066.49
706.57	1067.52
706.91	1070.65
707.24	1076.55
707.58	1077.21
707.91	1078.96
708.25	1080.11
708.58	1077.33
708.92	1074.70
709.26	1075.03
709.59	1071.64
709.93	1071.15
710.26	1072.27
710.60	1072.06
710.93	1073.53
711.27	1074.70
711.60	1074.52
711.94	1073.09
712.27	1073.07
712.61	1070.77
712.94	1069.53
713.28	1071.94
713.61	1075.50
713.95	1078.26
714.28	1076.25
714.62	1078.47
714.95	1074.26
715.29	1072.85
715.62	1072.71
715.96	1073.49
716.29	1073.35
716.63	1074.96
716.96	1072.36
717.29	1073.07
717.63	1074.19
717.96	1074.03
718.30	1075.73
718.63	1078.17
718.97	1075.94
719.30	1076.69
719.63	1079.81
719.97	1077.00
720.30	1076.32
720.64	1075.50
720.97	1077.30
721.30	1074.03
721.64	1073.00
721.97	1071.15
722.31	1072.34
722.64	1068.71
722.97	1070.63
723.31	1074.24
723.64	1076.97
723.97	1076.69
724.31	1075.92
724.64	1075.17
724.98	1071.66
725.31	1070.21
725.64	1068.27
725.98	1070.91
726.31	1069.06
726.64	1074.05
726.97	1074.12
727.31	1075.31
727.64	1076.01
727.97	1076.88
728.31	1075.36
728.64	1077.30
728.97	1078.47
729.31	1078.40
729.64	1080.34
729.97	1081.05
730.30	1080.95
730.64	1081.89
730.97	1081.87
731.30	1078.75
731.63	1077.77
731.97	1076.01
732.30	1076.58
732.63	1074.87
732.96	1072.48
733.30	1072.53
733.63	1075.41
733.96	1072.27
734.29	1075.92
734.63	1080.06
734.96	1084.96
735.29	1080.37
735.62	1082.10
735.95	1079.99
736.29	1079.10
736.62	1076.06
736.95	1078.78
737.28	1078.87
737.61	1076.06
737.94	1076.39
738.28	1074.91
738.61	1073.86
738.94	1075.38
739.27	1075.27
739.60	1076.27
739.93	1075.29
740.27	1075.59
740.60	1073.39
740.93	1075.31
741.26	1073.04
741.59	1078.26
741.92	1077.25
742.25	1076.88
742.58	1077.30
742.91	1078.82
743.25	1075.66
743.58	1076.93
743.91	1074.12
744.24	1073.58
744.57	1073.30
744.90	1069.95
745.23	1069.46
745.56	1072.20
745.89	1073.04
746.22	1072.62
746.55	1074.82
746.88	1074.75
747.21	1074.35
747.54	1071.54
747.87	1073.18
748.20	1071.68
748.53	1071.59
748.87	1072.67
749.20	1076.08
749.53	1075.85
749.86	1077.33
750.19	1077.47
750.52	1078.36
750.85	1076.34
751.18	1075.48
751.51	1074.47
751.84	1075.08
752.16	1073.32
752.49	1077.72
752.82	1079.31
753.15	1080.51
753.48	1081.23
753.81	1082.50
754.14	1075.64
754.47	1074.52
754.80	1074.98
755.13	1075.05
755.46	1073.65
755.79	1076.04
756.12	1074.38
756.45	1071.78
756.78	1069.18
757.11	1070.35
757.43	1070.65
757.76	1071.68
758.09	1073.98
758.42	1078.82
758.75	1078.14
759.08	1079.81
759.41	1079.15
759.74	1078.61
760.07	1075.71
760.39	1075.73
760.72	1075.22
761.05	1077.49
761.38	1075.71
761.71	1073.56
762.04	1072.36
762.36	1070.23
762.69	1068.08
763.02	1070.33
763.35	1069.65
763.68	1069.09
764.01	1069.16
764.33	1071.24
764.66	1069.81
764.99	1073.09
765.32	1077.09
765.65	1077.89
765.97	1074.45
766.30	1073.84
