SpectraSuite Data File
++++++++++++++++++++++++++++++++++++
Date: Mon Aug 26 10:21:50 PDT 2019
User: corrico
Dark Spectrum Present: No
Reference Spectrum Present: No
Number of Sampled Component Spectra: 1
Spectrometers: USB2+H06089
Integration Time (usec): 2000 (USB2+H06089)
Spectra Averaged: 20 (USB2+H06089)
Boxcar Smoothing: 2 (USB2+H06089)
Correct for Electrical Dark: No (USB2+H06089)
Strobe/Lamp Enabled: No (USB2+H06089)
Correct for Detector Non-linearity: No (USB2+H06089)
Correct for Stray Light: No (USB2+H06089)
Number of Pixels in Processed Spectrum: 2048
>>>>>Begin Processed Spectral Data<<<<<
339.70	1036.97
340.07	1036.97
340.45	999.22
340.82	976.96
341.19	950.82
341.57	924.30
341.94	914.03
342.31	906.86
342.69	902.39
343.06	899.98
343.43	898.93
343.81	897.62
344.18	898.18
344.55	901.90
344.93	908.74
345.30	912.25
345.67	919.97
346.04	931.02
346.42	937.92
346.79	944.57
347.16	956.88
347.54	964.42
347.91	972.70
348.28	980.54
348.65	990.21
349.03	998.00
349.40	1005.56
349.77	1012.12
350.14	1017.78
350.52	1023.59
350.89	1027.89
351.26	1036.67
351.63	1041.19
352.01	1047.67
352.38	1053.87
352.75	1056.12
353.12	1058.67
353.50	1060.89
353.87	1063.28
354.24	1063.35
354.61	1066.23
354.98	1069.34
355.36	1072.57
355.73	1075.38
356.10	1077.65
356.47	1079.38
356.84	1079.81
357.22	1077.89
357.59	1079.57
357.96	1078.87
358.33	1079.90
358.70	1077.04
359.08	1080.77
359.45	1078.05
359.82	1078.78
360.19	1078.64
360.56	1081.80
360.94	1078.87
361.31	1077.23
361.68	1077.21
362.05	1077.72
362.42	1076.18
362.79	1080.41
363.16	1081.84
363.54	1080.81
363.91	1078.21
364.28	1076.13
364.65	1069.91
365.02	1065.81
365.39	1065.46
365.76	1066.39
366.14	1062.91
366.51	1062.84
366.88	1065.01
367.25	1062.84
367.62	1063.07
367.99	1063.77
368.36	1064.66
368.73	1064.66
369.10	1066.09
369.48	1065.51
369.85	1067.40
370.22	1069.25
370.59	1067.52
370.96	1065.20
371.33	1066.25
371.70	1068.22
372.07	1065.39
372.44	1069.11
372.81	1070.44
373.18	1069.41
373.55	1071.17
373.93	1071.03
374.30	1067.17
374.67	1065.65
375.04	1066.72
375.41	1063.19
375.78	1064.76
376.15	1065.65
376.52	1067.71
376.89	1064.52
377.26	1069.39
377.63	1072.06
378.00	1073.53
378.37	1076.13
378.74	1076.62
379.11	1073.02
379.48	1069.58
379.85	1070.35
380.22	1064.80
380.59	1066.84
380.96	1063.98
381.33	1065.11
381.70	1062.98
382.07	1065.51
382.44	1066.98
382.81	1072.57
383.18	1073.32
383.55	1074.98
383.92	1076.18
384.29	1075.36
384.66	1072.32
385.03	1073.18
385.40	1075.34
385.77	1076.41
386.14	1074.03
386.51	1075.41
386.88	1074.70
387.25	1073.35
387.62	1074.56
387.99	1075.71
388.36	1076.39
388.73	1077.42
389.10	1072.74
389.46	1069.60
389.83	1068.50
390.20	1068.83
390.57	1067.75
390.94	1070.51
391.31	1073.25
391.68	1078.14
392.05	1076.30
392.42	1076.58
392.79	1078.82
393.16	1076.41
393.53	1073.07
393.89	1075.27
394.26	1078.19
394.63	1076.72
395.00	1079.29
395.37	1079.57
395.74	1076.15
396.11	1073.21
396.48	1075.22
396.84	1072.74
397.21	1075.48
397.58	1076.37
397.95	1077.09
398.32	1076.08
398.69	1078.07
399.06	1076.06
399.42	1077.93
399.79	1075.90
400.16	1077.14
400.53	1075.52
400.90	1076.13
401.27	1075.27
401.64	1075.20
402.00	1076.15
402.37	1077.75
402.74	1078.36
403.11	1078.52
403.48	1079.74
403.84	1076.74
404.21	1076.88
404.58	1078.31
404.95	1079.13
405.32	1082.01
405.68	1082.90
406.05	1082.66
406.42	1080.84
406.79	1082.22
407.16	1080.60
407.52	1078.05
407.89	1078.10
408.26	1079.74
408.63	1078.75
408.99	1081.58
409.36	1085.91
409.73	1082.80
410.10	1083.18
410.47	1083.43
410.83	1080.46
411.20	1077.14
411.57	1076.51
411.94	1075.76
412.30	1075.59
412.67	1076.06
413.04	1079.43
413.40	1081.70
413.77	1082.45
414.14	1082.40
414.51	1083.64
414.87	1082.76
415.24	1084.70
415.61	1083.86
415.97	1085.70
416.34	1086.34
416.71	1087.48
417.08	1086.34
417.44	1084.63
417.81	1084.14
418.18	1079.76
418.54	1077.82
418.91	1078.57
419.28	1078.05
419.64	1075.69
420.01	1081.23
420.38	1085.84
420.74	1086.10
421.11	1085.68
421.48	1089.29
421.84	1084.46
422.21	1082.43
422.58	1084.32
422.94	1088.07
423.31	1087.65
423.68	1090.78
424.04	1090.69
424.41	1091.49
424.77	1092.54
425.14	1094.67
425.51	1098.93
425.87	1101.71
426.24	1102.02
426.61	1103.16
426.97	1104.45
427.34	1100.66
427.70	1101.60
428.07	1105.51
428.44	1107.28
428.80	1109.48
429.17	1118.14
429.53	1120.81
429.90	1124.77
430.27	1128.84
430.63	1131.20
431.00	1136.47
431.36	1143.35
431.73	1146.56
432.09	1152.41
432.46	1156.93
432.83	1160.37
433.19	1165.21
433.56	1172.09
433.92	1175.84
434.29	1186.07
434.65	1193.18
435.02	1200.88
435.38	1206.76
435.75	1217.41
436.11	1227.70
436.48	1241.00
436.84	1253.61
437.21	1269.93
437.57	1281.70
437.94	1297.36
438.30	1308.01
438.67	1322.99
439.03	1340.03
439.40	1362.47
439.76	1380.59
440.13	1403.27
440.49	1424.94
440.86	1446.45
441.22	1467.47
441.59	1488.37
441.95	1516.97
442.32	1544.75
442.68	1578.53
443.05	1612.58
443.41	1654.48
443.78	1687.78
444.14	1727.25
444.51	1765.89
444.87	1816.30
445.24	1858.64
445.60	1911.14
445.96	1966.78
446.33	2024.33
446.69	2074.96
447.06	2131.88
447.42	2198.75
447.79	2265.40
448.15	2343.13
448.51	2429.64
448.88	2526.58
449.24	2613.18
449.61	2713.92
449.97	2814.24
450.33	2915.07
450.70	3009.81
451.06	3122.91
451.43	3228.32
451.79	3350.64
452.15	3485.22
452.52	3626.15
452.88	3771.31
453.24	3936.17
453.61	4112.91
453.97	4295.49
454.34	4483.76
454.70	4705.09
455.06	4924.49
455.43	5140.73
455.79	5340.82
456.15	5590.16
456.52	5816.47
456.88	6094.08
457.24	6361.60
457.61	6660.81
457.97	6935.15
458.33	7207.33
458.70	7455.71
459.06	7702.80
459.42	7986.26
459.79	8243.79
460.15	8549.16
460.51	8846.45
460.88	9200.37
461.24	9515.75
461.60	9881.46
461.96	10205.06
462.33	10514.95
462.69	10775.57
463.05	11061.44
463.42	11335.54
463.78	11591.67
464.14	11830.87
464.50	12080.09
464.87	12287.79
465.23	12409.73
465.59	12538.25
465.95	12627.17
466.32	12706.53
466.68	12773.47
467.04	12823.51
467.40	12869.65
467.77	12934.46
468.13	12904.57
468.49	12829.81
468.85	12771.02
469.22	12704.80
469.58	12601.98
469.94	12552.78
470.30	12505.69
470.66	12456.71
471.03	12346.05
471.39	12258.70
471.75	12090.06
472.11	11923.51
472.47	11791.48
472.84	11653.18
473.20	11464.39
473.56	11353.47
473.92	11183.43
474.28	10969.30
474.65	10744.00
475.01	10540.27
475.37	10272.47
475.73	10020.25
476.09	9762.87
476.45	9539.58
476.81	9314.54
477.18	9119.34
477.54	8980.82
477.90	8883.71
478.26	8744.38
478.62	8625.48
478.98	8528.56
479.34	8431.76
479.71	8300.85
480.07	8204.07
480.43	8095.12
480.79	7970.04
481.15	7835.22
481.51	7702.61
481.87	7581.09
482.23	7466.75
482.59	7380.34
482.96	7297.51
483.32	7222.35
483.68	7136.48
484.04	7065.80
484.40	6977.46
484.76	6886.63
485.12	6783.50
485.48	6679.87
485.84	6556.12
486.20	6435.79
486.56	6307.42
486.92	6199.59
487.28	6085.65
487.64	5961.02
488.00	5824.73
488.37	5689.63
488.73	5549.41
489.09	5409.70
489.45	5288.04
489.81	5169.10
490.17	5057.78
490.53	4953.86
490.89	4850.20
491.25	4746.44
491.61	4638.31
491.97	4525.64
492.33	4410.81
492.69	4306.14
493.05	4193.96
493.41	4087.68
493.77	3985.77
494.13	3882.90
494.49	3781.07
494.85	3705.04
495.21	3631.15
495.57	3557.45
495.93	3491.28
496.29	3426.64
496.64	3364.57
497.00	3300.93
497.36	3236.33
497.72	3172.48
498.08	3117.31
498.44	3050.35
498.80	2988.98
499.16	2935.80
499.52	2884.27
499.88	2833.71
500.24	2788.98
500.60	2747.25
500.96	2707.95
501.32	2655.08
501.68	2605.72
502.03	2557.48
502.39	2509.03
502.75	2460.11
503.11	2421.14
503.47	2378.62
503.83	2332.20
504.19	2293.42
504.55	2254.38
504.91	2217.59
505.26	2180.77
505.62	2147.51
505.98	2111.16
506.34	2077.04
506.70	2040.92
507.06	2010.85
507.42	1979.53
507.78	1949.50
508.13	1918.54
508.49	1889.47
508.85	1860.91
509.21	1834.86
509.57	1809.91
509.93	1783.96
510.28	1761.70
510.64	1742.29
511.00	1722.54
511.36	1704.38
511.72	1688.88
512.07	1669.22
512.43	1646.38
512.79	1625.06
513.15	1607.88
513.51	1588.73
513.86	1573.54
514.22	1554.75
514.58	1542.46
514.94	1526.03
515.30	1510.35
515.65	1500.00
516.01	1493.05
516.37	1481.56
516.73	1468.73
517.08	1458.46
517.44	1442.94
517.80	1431.52
518.16	1416.56
518.51	1409.47
518.87	1399.03
519.23	1391.54
519.59	1380.85
519.94	1375.91
520.30	1369.10
520.66	1359.01
521.01	1349.23
521.37	1341.41
521.73	1330.57
522.09	1318.28
522.44	1315.03
522.80	1305.32
523.16	1296.73
523.51	1290.52
523.87	1283.06
524.23	1275.47
524.58	1270.68
524.94	1263.66
525.30	1256.75
525.65	1253.82
526.01	1245.91
526.37	1239.52
526.72	1235.48
527.08	1230.23
527.44	1225.95
527.79	1222.41
528.15	1218.37
528.51	1213.24
528.86	1210.15
529.22	1205.21
529.58	1202.03
529.93	1198.45
530.29	1192.13
530.65	1190.12
531.00	1186.49
531.36	1182.46
531.71	1177.83
532.07	1178.58
532.43	1175.51
532.78	1171.74
533.14	1165.96
533.49	1164.86
533.85	1162.08
534.21	1159.92
534.56	1161.63
534.92	1161.94
535.27	1160.20
535.63	1156.11
535.98	1151.73
536.34	1142.91
536.69	1141.92
537.05	1138.55
537.41	1137.64
537.76	1134.93
538.12	1136.70
538.47	1134.36
538.83	1133.38
539.18	1133.03
539.54	1132.73
539.89	1129.85
540.25	1127.83
540.60	1127.88
540.96	1128.07
541.31	1124.44
541.67	1122.83
542.02	1122.01
542.38	1120.34
542.73	1116.86
543.09	1116.90
543.44	1116.13
543.80	1117.02
544.15	1116.74
544.51	1114.89
544.86	1117.04
545.22	1114.00
545.57	1109.02
545.93	1106.70
546.28	1109.25
546.64	1107.92
546.99	1108.13
547.35	1108.45
547.70	1111.36
548.05	1107.92
548.41	1108.90
548.76	1112.01
549.12	1111.03
549.47	1106.28
549.83	1105.76
550.18	1103.61
550.53	1098.18
550.89	1099.75
551.24	1102.11
551.60	1101.81
551.95	1101.60
552.30	1100.50
552.66	1100.75
553.01	1097.34
553.37	1097.45
553.72	1096.28
554.07	1098.39
554.43	1092.33
554.78	1091.06
555.13	1090.27
555.49	1088.51
555.84	1089.80
556.19	1093.05
556.55	1093.45
556.90	1095.67
557.26	1094.27
557.61	1091.37
557.96	1092.87
558.32	1094.65
558.67	1092.89
559.02	1095.32
559.37	1095.96
559.73	1094.11
560.08	1090.76
560.43	1088.72
560.79	1089.80
561.14	1089.78
561.49	1089.80
561.85	1090.90
562.20	1092.19
562.55	1087.53
562.90	1087.67
563.26	1090.10
563.61	1092.19
563.96	1094.46
564.32	1096.38
564.67	1094.04
565.02	1087.62
565.37	1085.21
565.73	1084.14
566.08	1084.93
566.43	1086.78
566.78	1086.59
567.14	1085.54
567.49	1085.35
567.84	1085.14
568.19	1082.57
568.54	1084.16
568.90	1084.30
569.25	1078.52
569.60	1077.61
569.95	1076.13
570.31	1076.46
570.66	1075.43
571.01	1075.48
571.36	1074.03
571.71	1080.53
572.06	1081.33
572.42	1083.76
572.77	1086.17
573.12	1089.19
573.47	1086.10
573.82	1087.30
574.18	1088.09
574.53	1087.53
574.88	1086.45
575.23	1081.98
575.58	1078.17
575.93	1078.19
576.28	1077.11
576.64	1076.27
576.99	1079.95
577.34	1083.25
577.69	1080.06
578.04	1081.84
578.39	1079.76
578.74	1079.53
579.09	1079.97
579.44	1082.47
579.80	1085.24
580.15	1086.80
580.50	1089.26
580.85	1090.17
581.20	1088.75
581.55	1085.17
581.90	1084.96
582.25	1084.04
582.60	1081.89
582.95	1076.72
583.30	1078.26
583.65	1079.15
584.00	1077.33
584.35	1075.99
584.71	1084.84
585.06	1083.97
585.41	1081.47
585.76	1081.35
586.11	1084.63
586.46	1080.27
586.81	1080.70
587.16	1082.29
587.51	1080.86
587.86	1079.50
588.21	1083.43
588.56	1084.35
588.91	1086.69
589.26	1085.24
589.61	1085.63
589.96	1083.34
590.31	1080.81
590.66	1080.25
591.01	1082.90
591.36	1083.32
591.71	1082.50
592.06	1085.77
592.41	1084.86
592.76	1085.24
593.10	1082.31
593.45	1081.58
593.80	1078.52
594.15	1075.31
594.50	1075.01
594.85	1076.01
595.20	1074.63
595.55	1074.68
595.90	1076.41
596.25	1078.47
596.60	1079.95
596.95	1078.85
597.30	1078.87
597.64	1091.46
597.99	1090.60
598.34	1088.02
598.69	1090.78
599.04	1091.06
599.39	1079.55
599.74	1078.92
600.09	1078.50
600.44	1078.96
600.78	1081.68
601.13	1079.78
601.48	1080.09
601.83	1081.16
602.18	1082.22
602.53	1079.53
602.88	1078.28
603.22	1076.74
603.57	1077.70
603.92	1075.99
604.27	1077.04
604.62	1077.14
604.97	1076.46
605.31	1072.34
605.66	1071.99
606.01	1070.72
606.36	1074.33
606.71	1076.48
607.05	1079.29
607.40	1082.26
607.75	1082.59
608.10	1080.25
608.44	1077.23
608.79	1077.11
609.14	1076.95
609.49	1074.89
609.84	1077.82
610.18	1079.57
610.53	1081.89
610.88	1081.28
611.23	1086.41
611.57	1086.90
611.92	1090.13
612.27	1086.94
612.62	1083.22
612.96	1080.37
613.31	1077.58
613.66	1074.59
614.00	1075.73
614.35	1076.76
614.70	1078.33
615.05	1079.24
615.39	1077.98
615.74	1078.33
616.09	1078.52
616.43	1076.51
616.78	1075.59
617.13	1073.11
617.47	1072.62
617.82	1071.59
618.17	1071.33
618.51	1072.34
618.86	1078.52
619.21	1076.72
619.55	1076.41
619.90	1075.24
620.25	1073.67
620.59	1070.21
620.94	1074.35
621.29	1077.23
621.63	1078.59
621.98	1080.02
622.32	1079.06
622.67	1075.66
623.02	1075.36
623.36	1073.72
623.71	1071.50
624.05	1075.10
624.40	1077.28
624.75	1076.86
625.09	1080.11
625.44	1082.26
625.78	1082.40
626.13	1081.00
626.48	1083.79
626.82	1081.07
627.17	1080.39
627.51	1074.96
627.86	1073.77
628.20	1070.82
628.55	1070.63
628.89	1067.66
629.24	1071.24
629.58	1069.16
629.93	1068.10
630.28	1071.97
630.62	1074.66
630.97	1072.20
631.31	1074.40
631.66	1075.90
632.00	1073.60
632.35	1074.91
632.69	1076.39
633.04	1076.37
633.38	1076.30
633.73	1075.73
634.07	1073.95
634.42	1075.94
634.76	1079.50
635.11	1079.03
635.45	1076.67
635.79	1075.94
636.14	1076.41
636.48	1071.47
636.83	1072.50
637.17	1074.87
637.52	1073.25
637.86	1071.38
638.21	1072.01
638.55	1068.74
638.89	1071.10
639.24	1072.48
639.58	1072.20
639.93	1071.03
640.27	1071.01
640.61	1071.33
640.96	1070.87
641.30	1073.95
641.65	1076.32
641.99	1078.54
642.33	1074.75
642.68	1076.74
643.02	1074.17
643.37	1074.61
643.71	1071.61
644.05	1070.42
644.40	1067.45
644.74	1068.50
645.08	1069.84
645.43	1074.03
645.77	1075.85
646.11	1076.58
646.46	1077.86
646.80	1076.86
647.14	1078.21
647.49	1078.96
647.83	1081.16
648.17	1081.16
648.52	1078.94
648.86	1077.44
649.20	1077.07
649.55	1076.65
649.89	1072.78
650.23	1073.23
650.57	1072.95
650.92	1072.22
651.26	1073.28
651.60	1076.69
651.95	1076.86
652.29	1074.96
652.63	1078.28
652.97	1077.65
653.32	1076.27
653.66	1077.37
654.00	1079.22
654.34	1075.52
654.69	1075.59
655.03	1075.64
655.37	1078.14
655.71	1076.23
656.05	1077.25
656.40	1074.49
656.74	1075.92
657.08	1071.85
657.42	1070.98
657.76	1070.96
658.11	1072.97
658.45	1071.33
658.79	1072.88
659.13	1076.30
659.47	1078.24
659.82	1079.99
660.16	1080.46
660.50	1079.99
660.84	1076.18
661.18	1074.89
661.52	1075.13
661.87	1073.67
662.21	1074.63
662.55	1077.54
662.89	1080.39
663.23	1080.48
663.57	1083.11
663.91	1083.25
664.25	1084.32
664.60	1083.97
664.94	1083.55
665.28	1081.49
665.62	1081.56
665.96	1079.41
666.30	1076.08
666.64	1073.42
666.98	1071.73
667.32	1071.94
667.66	1072.90
668.01	1072.46
668.35	1073.23
668.69	1075.29
669.03	1074.87
669.37	1076.76
669.71	1076.62
670.05	1078.19
670.39	1077.93
670.73	1076.27
671.07	1072.64
671.41	1075.34
671.75	1072.06
672.09	1074.28
672.43	1078.21
672.77	1082.01
673.11	1081.84
673.45	1083.04
673.79	1083.83
674.13	1081.98
674.47	1079.27
674.81	1078.33
675.15	1077.25
675.49	1074.49
675.83	1074.00
676.17	1074.70
676.51	1075.94
676.85	1076.67
677.19	1076.39
677.53	1078.33
677.87	1075.78
678.21	1073.51
678.55	1073.51
678.89	1072.01
679.23	1071.15
679.57	1072.71
679.90	1069.79
680.24	1069.06
680.58	1069.65
680.92	1072.57
681.26	1073.21
681.60	1077.11
681.94	1080.30
682.28	1080.72
682.62	1076.72
682.96	1077.56
683.29	1080.48
683.63	1082.47
683.97	1083.50
684.31	1084.53
684.65	1083.11
684.99	1078.82
685.33	1073.14
685.67	1072.55
686.00	1070.28
686.34	1073.67
686.68	1073.37
687.02	1076.30
687.36	1078.78
687.70	1077.58
688.03	1075.36
688.37	1077.98
688.71	1078.89
689.05	1073.84
689.39	1073.74
689.72	1072.97
690.06	1071.01
690.40	1068.74
690.74	1071.71
691.08	1070.84
691.41	1072.13
691.75	1070.28
692.09	1070.72
692.43	1068.99
692.76	1071.08
693.10	1070.89
693.44	1074.19
693.78	1072.78
694.11	1076.39
694.45	1078.73
694.79	1080.56
695.13	1080.11
695.46	1082.87
695.80	1082.01
696.14	1079.03
696.48	1078.03
696.81	1079.53
697.15	1082.29
697.49	1082.50
697.82	1085.38
698.16	1086.10
698.50	1085.47
698.83	1083.34
699.17	1083.60
699.51	1082.08
699.84	1077.86
700.18	1075.38
700.52	1075.03
700.85	1072.90
701.19	1075.41
701.53	1078.82
701.86	1077.63
702.20	1076.34
702.54	1076.72
702.87	1076.01
703.21	1072.97
703.55	1076.76
703.88	1078.26
704.22	1075.29
704.55	1075.87
704.89	1075.64
705.23	1073.11
705.56	1069.55
705.90	1072.92
706.23	1070.72
706.57	1068.59
706.91	1071.57
707.24	1072.48
707.58	1070.72
707.91	1071.10
708.25	1075.15
708.58	1074.35
708.92	1076.08
709.26	1076.90
709.59	1078.33
709.93	1076.27
710.26	1074.45
710.60	1072.55
710.93	1072.57
711.27	1072.32
711.60	1075.73
711.94	1075.62
712.27	1077.65
712.61	1075.73
712.94	1073.16
713.28	1071.33
713.61	1071.68
713.95	1070.75
714.28	1073.51
714.62	1075.64
714.95	1075.71
715.29	1079.43
715.62	1080.93
715.96	1080.44
716.29	1079.64
716.63	1079.55
716.96	1075.57
717.29	1073.21
717.63	1072.85
717.96	1073.14
718.30	1069.98
718.63	1070.33
718.97	1070.40
719.30	1069.62
719.63	1071.71
719.97	1075.34
720.30	1078.47
720.64	1078.68
720.97	1079.55
721.30	1079.83
721.64	1078.89
721.97	1078.45
722.31	1076.88
722.64	1078.00
722.97	1078.10
723.31	1077.11
723.64	1073.91
723.97	1079.69
724.31	1077.02
724.64	1074.45
724.98	1074.07
725.31	1075.62
725.64	1072.46
725.98	1075.59
726.31	1072.48
726.64	1073.63
726.97	1072.04
727.31	1067.78
727.64	1068.24
727.97	1069.79
728.31	1072.29
728.64	1075.52
728.97	1078.10
729.31	1079.15
729.64	1079.50
729.97	1077.42
730.30	1074.45
730.64	1077.51
730.97	1075.22
731.30	1078.57
731.63	1080.91
731.97	1079.15
732.30	1077.89
732.63	1076.86
732.96	1075.57
733.30	1072.90
733.63	1076.65
733.96	1077.63
734.29	1080.58
734.63	1079.50
734.96	1080.11
735.29	1079.81
735.62	1079.03
735.95	1075.45
736.29	1073.63
736.62	1073.30
736.95	1074.61
737.28	1074.00
737.61	1074.54
737.94	1074.94
738.28	1075.31
738.61	1077.47
738.94	1080.34
739.27	1085.33
739.60	1086.73
739.93	1084.28
740.27	1080.18
740.60	1076.97
740.93	1073.04
741.26	1071.82
741.59	1073.53
741.92	1074.54
742.25	1074.66
742.58	1076.27
742.91	1079.27
743.25	1079.34
743.58	1075.80
743.91	1077.07
744.24	1075.64
744.57	1075.10
744.90	1073.72
745.23	1075.31
745.56	1076.76
745.89	1077.18
746.22	1075.24
746.55	1077.44
746.88	1075.99
747.21	1073.58
747.54	1071.90
747.87	1071.03
748.20	1069.67
748.53	1072.20
748.87	1070.30
749.20	1072.62
749.53	1073.72
749.86	1073.53
750.19	1074.40
750.52	1074.75
750.85	1075.41
751.18	1074.70
751.51	1073.16
751.84	1071.73
752.16	1073.00
752.49	1069.02
752.82	1068.10
753.15	1070.14
753.48	1071.24
753.81	1071.05
754.14	1073.95
754.47	1076.83
754.80	1075.87
755.13	1076.58
755.46	1077.79
755.79	1077.49
756.12	1076.04
756.45	1075.85
756.78	1073.72
757.11	1073.86
757.43	1073.09
757.76	1074.77
758.09	1078.94
758.42	1080.67
758.75	1080.79
759.08	1079.38
759.41	1078.66
759.74	1077.79
760.07	1076.04
760.39	1074.31
760.72	1073.11
761.05	1076.25
761.38	1075.90
761.71	1077.09
762.04	1077.89
762.36	1079.48
762.69	1078.07
763.02	1075.69
763.35	1075.52
763.68	1075.20
764.01	1076.23
764.33	1073.00
764.66	1073.35
764.99	1075.36
765.32	1075.01
