SpectraSuite Data File
++++++++++++++++++++++++++++++++++++
Date: Mon Aug 26 10:22:28 PDT 2019
User: corrico
Dark Spectrum Present: No
Reference Spectrum Present: No
Number of Sampled Component Spectra: 1
Spectrometers: USB2+H06089
Integration Time (usec): 2000 (USB2+H06089)
Spectra Averaged: 20 (USB2+H06089)
Boxcar Smoothing: 2 (USB2+H06089)
Correct for Electrical Dark: No (USB2+H06089)
Strobe/Lamp Enabled: No (USB2+H06089)
Correct for Detector Non-linearity: No (USB2+H06089)
Correct for Stray Light: No (USB2+H06089)
Number of Pixels in Processed Spectrum: 2048
>>>>>Begin Processed Spectral Data<<<<<
339.70	1023.98
340.07	1023.98
340.45	989.34
340.82	968.56
341.19	947.26
341.57	925.07
341.94	916.74
342.31	910.77
342.69	907.17
343.06	901.34
343.43	900.97
343.81	901.55
344.18	905.83
344.55	907.94
344.93	915.78
345.30	916.86
345.67	924.18
346.04	929.82
346.42	936.38
346.79	944.13
347.16	954.96
347.54	961.52
347.91	970.11
348.28	984.55
348.65	992.83
349.03	1006.48
349.40	1019.58
349.77	1028.45
350.14	1034.31
350.52	1044.11
350.89	1045.82
351.26	1050.29
351.63	1057.17
352.01	1059.33
352.38	1061.29
352.75	1067.73
353.12	1069.81
353.50	1070.42
353.87	1072.83
354.24	1074.66
354.61	1073.32
354.98	1076.20
355.36	1078.10
355.73	1079.06
356.10	1077.61
356.47	1079.67
356.84	1078.96
357.22	1080.18
357.59	1082.99
357.96	1085.12
358.33	1084.46
358.70	1082.29
359.08	1079.62
359.45	1079.01
359.82	1078.47
360.19	1078.59
360.56	1082.17
360.94	1082.40
361.31	1079.22
361.68	1075.73
362.05	1073.67
362.42	1073.46
362.79	1075.73
363.16	1077.23
363.54	1082.47
363.91	1082.22
364.28	1081.56
364.65	1078.36
365.02	1078.89
365.39	1077.86
365.76	1079.38
366.14	1077.84
366.51	1077.98
366.88	1077.00
367.25	1077.25
367.62	1076.88
367.99	1075.83
368.36	1078.96
368.73	1081.40
369.10	1080.39
369.48	1083.93
369.85	1083.71
370.22	1081.56
370.59	1081.14
370.96	1080.06
371.33	1076.76
371.70	1078.45
372.07	1077.04
372.44	1076.20
372.81	1074.77
373.18	1073.49
373.55	1074.26
373.93	1072.85
374.30	1072.11
374.67	1076.15
375.04	1079.57
375.41	1077.86
375.78	1078.96
376.15	1078.78
376.52	1080.44
376.89	1077.61
377.26	1080.18
377.63	1080.51
378.00	1081.12
378.37	1077.79
378.74	1080.18
379.11	1079.78
379.48	1080.04
379.85	1080.30
380.22	1081.84
380.59	1082.38
380.96	1080.48
381.33	1083.11
381.70	1083.71
382.07	1082.69
382.44	1085.00
382.81	1086.48
383.18	1085.07
383.55	1081.77
383.92	1082.90
384.29	1078.21
384.66	1081.54
385.03	1082.38
385.40	1086.83
385.77	1086.83
386.14	1088.19
386.51	1083.95
386.88	1085.17
387.25	1084.65
387.62	1083.97
387.99	1085.99
388.36	1087.46
388.73	1085.63
389.10	1083.71
389.46	1086.03
389.83	1085.42
390.20	1084.56
390.57	1084.72
390.94	1086.45
391.31	1081.91
391.68	1080.93
392.05	1082.22
392.42	1084.02
392.79	1085.54
393.16	1086.87
393.53	1088.09
393.89	1086.69
394.26	1082.40
394.63	1080.77
395.00	1081.84
395.37	1082.54
395.74	1082.76
396.11	1085.80
396.48	1083.79
396.84	1085.49
397.21	1086.15
397.58	1089.12
397.95	1089.78
398.32	1094.93
398.69	1091.72
399.06	1088.44
399.42	1086.10
399.79	1086.80
400.16	1083.15
400.53	1086.01
400.90	1084.89
401.27	1086.36
401.64	1087.16
402.00	1086.34
402.37	1085.68
402.74	1090.55
403.11	1090.20
403.48	1091.65
403.84	1095.96
404.21	1095.37
404.58	1092.91
404.95	1093.05
405.32	1088.07
405.68	1087.23
406.05	1087.90
406.42	1089.66
406.79	1090.50
407.16	1092.47
407.52	1092.91
407.89	1094.20
408.26	1094.08
408.63	1094.11
408.99	1095.75
409.36	1093.80
409.73	1096.17
410.10	1097.36
410.47	1098.62
410.83	1096.19
411.20	1098.69
411.57	1098.88
411.94	1098.37
412.30	1098.60
412.67	1100.15
413.04	1101.03
413.40	1099.65
413.77	1100.82
414.14	1099.42
414.51	1104.73
414.87	1104.41
415.24	1104.90
415.61	1102.74
415.97	1104.87
416.34	1103.66
416.71	1102.44
417.08	1102.77
417.44	1105.95
417.81	1105.81
418.18	1105.11
418.54	1107.42
418.91	1111.71
419.28	1111.01
419.64	1113.07
420.01	1113.46
420.38	1114.28
420.74	1111.82
421.11	1115.29
421.48	1117.61
421.84	1119.13
422.21	1121.47
422.58	1123.90
422.94	1122.43
423.31	1119.13
423.68	1120.16
424.04	1121.19
424.41	1124.23
424.77	1130.92
425.14	1138.32
425.51	1141.20
425.87	1148.78
426.24	1153.74
426.61	1158.47
426.97	1164.49
427.34	1171.79
427.70	1176.47
428.07	1183.49
428.44	1188.24
428.80	1196.86
429.17	1205.59
429.53	1209.66
429.90	1219.51
430.27	1229.72
430.63	1236.36
431.00	1247.22
431.36	1261.95
431.73	1270.09
432.09	1285.00
432.46	1301.76
432.83	1318.94
433.19	1334.74
433.56	1357.14
433.92	1377.57
434.29	1397.84
434.65	1421.74
435.02	1447.79
435.38	1476.06
435.75	1499.60
436.11	1536.00
436.48	1563.81
436.84	1601.21
437.21	1632.78
437.57	1672.15
437.94	1710.72
438.30	1756.34
438.67	1794.37
439.03	1845.04
439.40	1897.85
439.76	1953.53
440.13	2012.37
440.49	2088.74
440.86	2156.90
441.22	2233.85
441.59	2302.48
441.95	2384.98
442.32	2464.72
442.68	2560.05
443.05	2653.70
443.41	2758.44
443.78	2861.56
444.14	2965.01
444.51	3077.57
444.87	3219.10
445.24	3360.96
445.60	3515.81
445.96	3677.64
446.33	3853.74
446.69	4014.02
447.06	4196.98
447.42	4382.37
447.79	4577.90
448.15	4796.97
448.51	5028.27
448.88	5289.56
449.24	5535.93
449.61	5817.75
449.97	6090.12
450.33	6375.88
450.70	6638.13
451.06	6959.47
451.43	7264.79
451.79	7632.18
452.15	8038.85
452.52	8487.04
452.88	8971.16
453.24	9518.07
453.61	10111.40
453.97	10681.46
454.34	11246.98
454.70	11898.07
455.06	12546.25
455.43	13161.56
455.79	13759.89
456.15	14470.53
456.52	15134.18
456.88	15907.99
457.24	16651.06
457.61	17511.61
457.97	18301.40
458.33	19080.54
458.70	19862.39
459.06	20628.45
459.42	21479.66
459.79	22249.34
460.15	23163.25
460.51	24014.86
460.88	24971.27
461.24	25765.30
461.60	26761.01
461.96	27637.63
462.33	28510.49
462.69	29284.34
463.05	30155.13
463.42	30858.86
463.78	31512.06
464.14	32047.08
464.50	32648.46
464.87	33096.11
465.23	33450.09
465.59	33813.18
465.95	34116.00
466.32	34377.51
466.68	34643.51
467.04	34792.25
467.40	34907.99
467.77	35078.66
468.13	35052.40
468.49	34926.11
468.85	34847.46
469.22	34681.66
469.58	34317.10
469.94	34064.25
470.30	33756.19
470.66	33329.18
471.03	32729.23
471.39	32323.66
471.75	31660.17
472.11	31035.76
472.47	30645.03
472.84	30334.51
473.20	29863.50
473.56	29617.63
473.92	29226.46
474.28	28747.07
474.65	28270.02
475.01	27783.35
475.37	27202.01
475.73	26724.70
476.09	26193.31
476.45	25657.12
476.81	25133.75
477.18	24589.62
477.54	24133.29
477.90	23760.09
478.26	23349.82
478.62	23018.79
478.98	22748.60
479.34	22419.64
479.71	22014.94
480.07	21645.11
480.43	21270.11
480.79	20851.08
481.15	20504.68
481.51	20180.87
481.87	19936.66
482.23	19640.30
482.59	19398.06
482.96	19120.54
483.32	18827.04
483.68	18441.64
484.04	18114.39
484.40	17748.66
484.76	17364.18
485.12	17000.08
485.48	16697.33
485.84	16332.38
486.20	15969.29
486.56	15618.54
486.92	15301.11
487.28	14924.36
487.64	14575.15
488.00	14256.83
488.37	13927.73
488.73	13553.78
489.09	13210.78
489.45	12893.54
489.81	12567.44
490.17	12251.74
490.53	11969.27
490.89	11659.21
491.25	11348.81
491.61	11033.45
491.97	10722.44
492.33	10393.08
492.69	10086.56
493.05	9784.77
493.41	9493.89
493.77	9210.57
494.13	8960.41
494.49	8718.92
494.85	8484.18
495.21	8260.99
495.57	8041.52
495.93	7820.29
496.29	7611.05
496.64	7415.47
497.00	7225.00
497.36	7040.47
497.72	6852.36
498.08	6679.51
498.44	6498.50
498.80	6317.97
499.16	6144.07
499.52	5982.53
499.88	5839.78
500.24	5708.45
500.60	5587.26
500.96	5474.68
501.32	5362.24
501.68	5237.21
502.03	5116.22
502.39	4993.53
502.75	4858.25
503.11	4732.96
503.47	4617.57
503.83	4497.32
504.19	4375.91
504.55	4269.89
504.91	4170.93
505.26	4079.20
505.62	3990.89
505.98	3907.06
506.34	3812.90
506.70	3721.31
507.06	3621.96
507.42	3530.42
507.78	3450.96
508.13	3380.44
508.49	3302.57
508.85	3234.41
509.21	3164.26
509.57	3094.87
509.93	3031.18
510.28	2974.75
510.64	2912.96
511.00	2852.95
511.36	2791.60
511.72	2732.20
512.07	2670.86
512.43	2622.52
512.79	2568.90
513.15	2518.30
513.51	2470.11
513.86	2430.90
514.22	2379.81
514.58	2339.93
514.94	2301.19
515.30	2262.24
515.65	2222.83
516.01	2197.13
516.37	2167.43
516.73	2140.84
517.08	2112.71
517.44	2081.91
517.80	2050.59
518.16	2027.79
518.51	1997.88
518.87	1971.53
519.23	1950.35
519.59	1920.60
519.94	1890.47
520.30	1864.26
520.66	1836.34
521.01	1810.08
521.37	1792.38
521.73	1775.88
522.09	1757.30
522.44	1742.62
522.80	1721.44
523.16	1700.77
523.51	1681.53
523.87	1664.54
524.23	1645.61
524.58	1627.61
524.94	1610.85
525.30	1592.80
525.65	1571.53
526.01	1555.57
526.37	1541.13
526.72	1528.09
527.08	1510.28
527.44	1498.90
527.79	1483.45
528.15	1471.52
528.51	1454.76
528.86	1444.88
529.22	1432.45
529.58	1423.94
529.93	1416.59
530.29	1405.87
530.65	1396.97
531.00	1388.94
531.36	1378.11
531.71	1366.05
532.07	1359.85
532.43	1348.92
532.78	1343.51
533.14	1336.94
533.49	1329.05
533.85	1323.27
534.21	1316.72
534.56	1308.15
534.92	1302.20
535.27	1295.04
535.63	1285.42
535.98	1280.39
536.34	1273.25
536.69	1266.93
537.05	1265.29
537.41	1260.73
537.76	1255.53
538.12	1251.74
538.47	1247.44
538.83	1242.29
539.18	1239.50
539.54	1238.14
539.89	1232.81
540.25	1231.89
540.60	1223.68
540.96	1220.54
541.31	1213.50
541.67	1211.27
542.02	1205.87
542.38	1207.72
542.73	1202.94
543.09	1201.16
543.44	1199.76
543.80	1192.71
544.15	1187.45
544.51	1189.30
544.86	1184.01
545.22	1179.96
545.57	1182.09
545.93	1181.22
546.28	1174.25
546.64	1172.80
546.99	1170.67
547.35	1168.16
547.70	1165.80
548.05	1165.28
548.41	1166.52
548.76	1166.57
549.12	1160.51
549.47	1156.04
549.83	1151.94
550.18	1148.50
550.53	1143.40
550.89	1142.91
551.24	1140.64
551.60	1138.09
551.95	1134.60
552.30	1134.74
552.66	1136.17
553.01	1136.21
553.37	1135.98
553.72	1136.56
554.07	1134.79
554.43	1133.80
554.78	1134.60
555.13	1135.70
555.49	1134.39
555.84	1132.66
556.19	1128.98
556.55	1127.08
556.90	1123.64
557.26	1123.08
557.61	1124.16
557.96	1123.18
558.32	1122.97
558.67	1124.02
559.02	1122.57
559.37	1122.45
559.73	1122.90
560.08	1118.99
560.43	1115.38
560.79	1116.22
561.14	1112.78
561.49	1111.64
561.85	1112.08
562.20	1114.40
562.55	1107.68
562.90	1107.26
563.26	1107.89
563.61	1108.90
563.96	1108.74
564.32	1111.47
564.67	1113.51
565.02	1114.07
565.37	1109.79
565.73	1108.22
566.08	1108.43
566.43	1104.83
566.78	1103.07
567.14	1104.78
567.49	1104.52
567.84	1104.57
568.19	1105.79
568.54	1104.15
568.90	1106.46
569.25	1107.52
569.60	1107.03
569.95	1104.83
570.31	1102.35
570.66	1101.11
571.01	1097.55
571.36	1097.66
571.71	1098.11
572.06	1098.34
572.42	1092.87
572.77	1093.83
573.12	1091.04
573.47	1090.57
573.82	1092.73
574.18	1095.42
574.53	1093.85
574.88	1097.48
575.23	1098.67
575.58	1097.29
575.93	1095.86
576.28	1098.86
576.64	1096.75
576.99	1094.11
577.34	1091.18
577.69	1092.77
578.04	1091.95
578.39	1093.31
578.74	1094.27
579.09	1097.15
579.44	1097.08
579.80	1093.71
580.15	1091.77
580.50	1090.39
580.85	1090.01
581.20	1086.38
581.55	1087.97
581.90	1087.37
582.25	1087.11
582.60	1086.48
582.95	1091.02
583.30	1090.48
583.65	1087.86
584.00	1089.12
584.35	1089.31
584.71	1087.06
585.06	1088.89
585.41	1091.98
585.76	1093.36
586.11	1095.37
586.46	1097.90
586.81	1098.48
587.16	1098.88
587.51	1099.42
587.86	1097.90
588.21	1094.53
588.56	1091.18
588.91	1090.81
589.26	1087.30
589.61	1086.29
589.96	1087.67
590.31	1090.53
590.66	1086.31
591.01	1085.91
591.36	1083.90
591.71	1082.76
592.06	1082.03
592.41	1083.25
592.76	1085.31
593.10	1089.71
593.45	1090.81
593.80	1091.11
594.15	1096.92
594.50	1095.25
594.85	1091.25
595.20	1088.44
595.55	1088.37
595.90	1083.97
596.25	1084.35
596.60	1085.99
596.95	1088.47
597.30	1085.49
597.64	1097.45
597.99	1097.76
598.34	1097.95
598.69	1096.61
599.04	1098.13
599.39	1088.89
599.74	1089.68
600.09	1087.46
600.44	1089.73
600.78	1088.89
601.13	1085.56
601.48	1084.14
601.83	1085.73
602.18	1085.49
602.53	1085.70
602.88	1087.93
603.22	1086.27
603.57	1085.82
603.92	1085.59
604.27	1087.53
604.62	1082.08
604.97	1085.26
605.31	1084.23
605.66	1085.40
606.01	1082.83
606.36	1085.61
606.71	1084.42
607.05	1086.22
607.40	1084.46
607.75	1086.87
608.10	1088.44
608.44	1090.92
608.79	1091.30
609.14	1089.26
609.49	1089.19
609.84	1089.47
610.18	1089.38
610.53	1089.45
610.88	1090.57
611.23	1089.85
611.57	1090.20
611.92	1090.36
612.27	1088.42
612.62	1090.01
612.96	1091.42
613.31	1090.71
613.66	1089.17
614.00	1090.67
614.35	1087.69
614.70	1083.69
615.05	1080.32
615.39	1080.70
615.74	1082.83
616.09	1084.30
616.43	1088.40
616.78	1090.95
617.13	1086.29
617.47	1083.43
617.82	1082.43
618.17	1080.98
618.51	1079.99
618.86	1080.58
619.21	1079.99
619.55	1081.14
619.90	1079.67
620.25	1081.19
620.59	1084.02
620.94	1086.36
621.29	1086.71
621.63	1088.33
621.98	1090.64
622.32	1092.87
622.67	1092.80
623.02	1094.90
623.36	1095.35
623.71	1094.48
624.05	1091.46
624.40	1089.66
624.75	1087.74
625.09	1084.96
625.44	1084.84
625.78	1085.26
626.13	1085.45
626.48	1086.13
626.82	1088.21
627.17	1085.19
627.51	1082.40
627.86	1082.36
628.20	1079.03
628.55	1078.73
628.89	1080.44
629.24	1083.27
629.58	1082.36
629.93	1086.43
630.28	1085.35
630.62	1085.77
630.97	1082.47
631.31	1083.60
631.66	1081.91
632.00	1082.01
632.35	1081.68
632.69	1085.26
633.04	1084.46
633.38	1083.95
633.73	1084.63
634.07	1080.88
634.42	1079.83
634.76	1082.19
635.11	1084.65
635.45	1084.63
635.79	1086.41
636.14	1087.55
636.48	1084.74
636.83	1079.88
637.17	1080.09
637.52	1080.60
637.86	1082.47
638.21	1081.19
638.55	1083.81
638.89	1083.01
639.24	1081.61
639.58	1080.53
639.93	1081.80
640.27	1083.25
640.61	1083.81
640.96	1084.04
641.30	1083.67
641.65	1081.98
641.99	1078.38
642.33	1077.40
642.68	1080.91
643.02	1082.40
643.37	1085.84
643.71	1088.84
644.05	1090.76
644.40	1088.84
644.74	1084.21
645.08	1082.36
645.43	1079.85
645.77	1081.49
646.11	1077.63
646.46	1077.82
646.80	1077.47
647.14	1081.82
647.49	1077.35
647.83	1080.46
648.17	1082.43
648.52	1081.63
648.86	1079.20
649.20	1081.23
649.55	1083.57
649.89	1082.43
650.23	1080.91
650.57	1079.57
650.92	1079.76
651.26	1077.86
651.60	1079.03
651.95	1078.43
652.29	1078.54
652.63	1077.00
652.97	1075.05
653.32	1074.87
653.66	1076.20
654.00	1078.03
654.34	1079.43
654.69	1081.54
655.03	1082.90
655.37	1086.22
655.71	1081.54
656.05	1082.19
656.40	1082.78
656.74	1080.48
657.08	1079.95
657.42	1084.91
657.76	1084.04
658.11	1081.26
658.45	1078.43
658.79	1077.54
659.13	1074.26
659.47	1074.33
659.82	1075.94
660.16	1077.89
660.50	1079.53
660.84	1083.86
661.18	1082.83
661.52	1084.21
661.87	1085.00
662.21	1082.87
662.55	1078.05
662.89	1076.81
663.23	1075.48
663.57	1081.16
663.91	1083.36
664.25	1088.86
664.60	1090.36
664.94	1092.35
665.28	1086.06
665.62	1086.48
665.96	1080.81
666.30	1080.18
666.64	1076.30
666.98	1078.50
667.32	1077.30
667.66	1078.52
668.01	1078.31
668.35	1078.40
668.69	1076.37
669.03	1076.13
669.37	1076.27
669.71	1080.91
670.05	1085.28
670.39	1085.40
670.73	1086.78
671.07	1086.83
671.41	1084.14
671.75	1079.36
672.09	1079.24
672.43	1079.01
672.77	1081.98
673.11	1079.60
673.45	1079.95
673.79	1083.88
674.13	1084.42
674.47	1084.21
674.81	1085.05
675.15	1086.06
675.49	1082.47
675.83	1081.19
676.17	1078.99
676.51	1078.66
676.85	1078.94
677.19	1080.20
677.53	1076.88
677.87	1078.07
678.21	1076.65
678.55	1074.84
678.89	1073.56
679.23	1077.33
679.57	1076.69
679.90	1079.15
680.24	1083.18
680.58	1083.22
680.92	1083.27
681.26	1079.74
681.60	1079.22
681.94	1076.79
682.28	1077.07
682.62	1074.59
682.96	1078.07
683.29	1080.25
683.63	1080.39
683.97	1079.10
684.31	1081.07
684.65	1081.37
684.99	1079.20
685.33	1079.92
685.67	1084.79
686.00	1083.64
686.34	1083.13
686.68	1084.79
687.02	1084.14
687.36	1080.60
687.70	1084.09
688.03	1082.38
688.37	1081.51
688.71	1079.36
689.05	1078.54
689.39	1077.16
689.72	1079.92
690.06	1077.61
690.40	1081.33
690.74	1083.55
691.08	1082.26
691.41	1080.58
691.75	1083.93
692.09	1083.11
692.43	1085.38
692.76	1083.18
693.10	1083.67
693.44	1082.03
693.78	1082.99
694.11	1081.89
694.45	1080.27
694.79	1079.27
695.13	1079.53
695.46	1078.59
695.80	1077.91
696.14	1081.33
696.48	1081.58
696.81	1081.09
697.15	1083.29
697.49	1081.63
697.82	1084.63
698.16	1085.68
698.50	1085.24
698.83	1082.85
699.17	1084.49
699.51	1080.72
699.84	1078.40
700.18	1080.18
700.52	1080.27
700.85	1077.56
701.19	1079.20
701.53	1082.80
701.86	1079.62
702.20	1078.96
702.54	1081.47
702.87	1079.48
703.21	1076.90
703.55	1078.21
703.88	1077.58
704.22	1074.84
704.55	1076.04
704.89	1076.06
705.23	1075.38
705.56	1075.10
705.90	1075.17
706.23	1077.11
706.57	1079.31
706.91	1078.94
707.24	1080.74
707.58	1083.04
707.91	1081.58
708.25	1080.79
708.58	1085.07
708.92	1086.34
709.26	1087.76
709.59	1086.66
709.93	1086.36
710.26	1085.63
710.60	1086.57
710.93	1082.08
711.27	1082.40
711.60	1082.87
711.94	1082.87
712.27	1081.14
712.61	1082.47
712.94	1082.17
713.28	1081.47
713.61	1080.67
713.95	1078.45
714.28	1079.81
714.62	1078.82
714.95	1079.97
715.29	1080.18
715.62	1085.05
715.96	1084.02
716.29	1087.20
716.63	1086.48
716.96	1085.68
717.29	1081.70
717.63	1083.48
717.96	1083.55
718.30	1084.77
718.63	1083.90
718.97	1082.12
719.30	1079.60
719.63	1078.40
719.97	1078.99
720.30	1078.57
720.64	1082.26
720.97	1082.29
721.30	1081.12
721.64	1078.36
721.97	1077.33
722.31	1073.37
722.64	1074.98
722.97	1073.37
723.31	1073.79
723.64	1075.71
723.97	1078.52
724.31	1077.49
724.64	1078.66
724.98	1078.17
725.31	1079.69
725.64	1077.30
725.98	1079.20
726.31	1081.70
726.64	1084.21
726.97	1080.25
727.31	1079.46
727.64	1077.61
727.97	1072.74
728.31	1070.98
728.64	1071.80
728.97	1073.32
729.31	1072.74
729.64	1078.85
729.97	1079.69
730.30	1080.16
730.64	1077.14
730.97	1077.93
731.30	1076.67
731.63	1079.31
731.97	1080.74
732.30	1085.35
732.63	1084.65
732.96	1083.27
733.30	1081.54
733.63	1082.90
733.96	1084.07
734.29	1085.21
734.63	1085.73
734.96	1082.08
735.29	1077.96
735.62	1075.45
735.95	1074.14
736.29	1073.44
736.62	1075.50
736.95	1077.65
737.28	1079.95
737.61	1078.45
737.94	1078.66
738.28	1076.97
738.61	1076.58
738.94	1075.80
739.27	1079.92
739.60	1080.51
739.93	1082.08
740.27	1080.32
740.60	1079.29
740.93	1078.71
741.26	1078.33
741.59	1078.68
741.92	1084.21
742.25	1085.26
742.58	1083.57
742.91	1083.93
743.25	1087.51
743.58	1086.36
743.91	1087.11
744.24	1089.59
744.57	1088.65
744.90	1084.72
745.23	1080.46
745.56	1079.13
745.89	1076.13
746.22	1077.21
746.55	1078.92
746.88	1082.87
747.21	1081.12
747.54	1081.70
747.87	1081.07
748.20	1081.84
748.53	1078.75
748.87	1080.18
749.20	1078.59
749.53	1077.75
749.86	1074.26
750.19	1076.93
750.52	1080.86
750.85	1082.31
751.18	1082.69
751.51	1083.64
751.84	1082.17
752.16	1078.28
752.49	1078.68
752.82	1079.03
753.15	1078.87
753.48	1077.77
753.81	1077.63
754.14	1077.63
754.47	1079.76
754.80	1081.14
755.13	1082.97
755.46	1079.55
755.79	1081.63
756.12	1080.58
756.45	1079.67
756.78	1077.77
757.11	1080.84
757.43	1076.51
757.76	1073.67
758.09	1071.87
758.42	1076.83
758.75	1077.68
759.08	1080.25
759.41	1076.88
759.74	1076.79
760.07	1075.66
760.39	1075.36
760.72	1075.57
761.05	1080.74
761.38	1080.70
761.71	1078.10
762.04	1077.35
762.36	1078.99
762.69	1078.07
763.02	1081.63
763.35	1082.69
763.68	1082.45
764.01	1081.61
