SpectraSuite Data File
++++++++++++++++++++++++++++++++++++
Date: Mon Aug 26 10:21:50 PDT 2019
User: corrico
Dark Spectrum Present: No
Reference Spectrum Present: No
Number of Sampled Component Spectra: 1
Spectrometers: USB2+H06089
Integration Time (usec): 2000 (USB2+H06089)
Spectra Averaged: 20 (USB2+H06089)
Boxcar Smoothing: 2 (USB2+H06089)
Correct for Electrical Dark: No (USB2+H06089)
Strobe/Lamp Enabled: No (USB2+H06089)
Correct for Detector Non-linearity: No (USB2+H06089)
Correct for Stray Light: No (USB2+H06089)
Number of Pixels in Processed Spectrum: 2048
>>>>>Begin Processed Spectral Data<<<<<
339.70	1011.70
340.07	1011.70
340.45	983.07
340.82	965.05
341.19	943.87
341.57	924.61
341.94	918.03
342.31	908.39
342.69	903.49
343.06	901.55
343.43	898.74
343.81	896.03
344.18	896.85
344.55	898.58
344.93	902.98
345.30	906.89
345.67	912.90
346.04	921.68
346.42	930.55
346.79	937.81
347.16	949.25
347.54	958.66
347.91	968.37
348.28	977.20
348.65	989.86
349.03	995.50
349.40	1006.24
349.77	1016.35
350.14	1024.83
350.52	1028.17
350.89	1038.24
351.26	1040.46
351.63	1046.83
352.01	1052.23
352.38	1056.35
352.75	1059.79
353.12	1065.39
353.50	1067.40
353.87	1069.23
354.24	1073.63
354.61	1073.39
354.98	1073.81
355.36	1074.14
355.73	1074.61
356.10	1078.50
356.47	1081.73
356.84	1086.10
357.22	1087.93
357.59	1088.58
357.96	1085.56
358.33	1084.56
358.70	1079.10
359.08	1078.24
359.45	1078.68
359.82	1080.46
360.19	1078.12
360.56	1081.70
360.94	1081.75
361.31	1079.78
361.68	1074.26
362.05	1072.39
362.42	1066.49
362.79	1063.89
363.16	1062.42
363.54	1066.89
363.91	1067.24
364.28	1070.54
364.65	1070.56
365.02	1070.51
365.39	1064.99
365.76	1062.60
366.14	1062.56
366.51	1061.60
366.88	1062.18
367.25	1062.23
367.62	1064.97
367.99	1062.18
368.36	1062.49
368.73	1061.48
369.10	1060.38
369.48	1059.89
369.85	1061.69
370.22	1059.44
370.59	1060.87
370.96	1064.17
371.33	1063.59
371.70	1063.56
372.07	1065.95
372.44	1069.55
372.81	1067.24
373.18	1068.71
373.55	1069.44
373.93	1069.60
374.30	1065.46
374.67	1067.61
375.04	1068.88
375.41	1068.03
375.78	1071.24
376.15	1072.85
376.52	1073.09
376.89	1072.41
377.26	1072.81
377.63	1068.64
378.00	1069.04
378.37	1067.85
378.74	1067.96
379.11	1068.55
379.48	1071.38
379.85	1069.34
380.22	1070.89
380.59	1071.33
380.96	1070.63
381.33	1066.47
381.70	1069.37
382.07	1068.55
382.44	1068.48
382.81	1072.55
383.18	1075.73
383.55	1075.24
383.92	1077.70
384.29	1076.55
384.66	1072.60
385.03	1073.25
385.40	1073.02
385.77	1074.87
386.14	1077.23
386.51	1079.67
386.88	1081.16
387.25	1080.58
387.62	1077.00
387.99	1075.55
388.36	1074.89
388.73	1072.78
389.10	1073.74
389.46	1076.34
389.83	1077.02
390.20	1077.04
390.57	1079.36
390.94	1076.90
391.31	1074.17
391.68	1075.45
392.05	1076.25
392.42	1079.29
392.79	1080.58
393.16	1082.78
393.53	1080.95
393.89	1078.24
394.26	1076.01
394.63	1075.69
395.00	1072.67
395.37	1072.29
395.74	1075.92
396.11	1072.11
396.48	1073.14
396.84	1077.77
397.21	1078.10
397.58	1078.40
397.95	1079.88
398.32	1082.12
398.69	1081.77
399.06	1084.37
399.42	1083.41
399.79	1083.48
400.16	1082.01
400.53	1079.97
400.90	1076.97
401.27	1074.61
401.64	1074.89
402.00	1074.33
402.37	1075.41
402.74	1076.88
403.11	1077.89
403.48	1078.31
403.84	1082.83
404.21	1082.12
404.58	1081.66
404.95	1081.09
405.32	1082.24
405.68	1078.33
406.05	1082.03
406.42	1085.73
406.79	1088.51
407.16	1088.84
407.52	1092.61
407.89	1090.36
408.26	1089.64
408.63	1092.54
408.99	1091.65
409.36	1085.75
409.73	1085.24
410.10	1083.79
410.47	1078.54
410.83	1079.64
411.20	1082.15
411.57	1081.61
411.94	1082.31
412.30	1084.18
412.67	1080.23
413.04	1079.92
413.40	1082.83
413.77	1083.01
414.14	1082.78
414.51	1086.99
414.87	1086.62
415.24	1085.49
415.61	1081.96
415.97	1081.42
416.34	1081.56
416.71	1083.04
417.08	1084.23
417.44	1085.94
417.81	1085.94
418.18	1085.63
418.54	1086.34
418.91	1084.79
419.28	1087.72
419.64	1091.70
420.01	1090.78
420.38	1090.57
420.74	1092.70
421.11	1094.74
421.48	1094.62
421.84	1093.05
422.21	1090.69
422.58	1092.98
422.94	1091.49
423.31	1091.20
423.68	1096.21
424.04	1104.94
424.41	1103.35
424.77	1105.83
425.14	1104.80
425.51	1105.67
425.87	1102.63
426.24	1106.65
426.61	1107.89
426.97	1115.22
427.34	1120.30
427.70	1125.59
428.07	1125.59
428.44	1129.99
428.80	1131.74
429.17	1132.23
429.53	1133.47
429.90	1140.82
430.27	1142.84
430.63	1147.00
431.00	1152.81
431.36	1159.20
431.73	1158.03
432.09	1163.57
432.46	1169.66
432.83	1175.58
433.19	1180.52
433.56	1192.01
433.92	1199.45
434.29	1205.28
434.65	1216.31
435.02	1224.94
435.38	1233.11
435.75	1242.54
436.11	1256.54
436.48	1266.25
436.84	1282.92
437.21	1299.54
437.57	1317.18
437.94	1333.01
438.30	1352.62
438.67	1367.55
439.03	1385.83
439.40	1406.62
439.76	1431.85
440.13	1453.82
440.49	1481.33
440.86	1507.45
441.22	1538.93
441.59	1567.13
441.95	1601.11
442.32	1634.75
442.68	1673.83
443.05	1711.80
443.41	1753.69
443.78	1795.68
444.14	1846.38
444.51	1891.69
444.87	1945.50
445.24	1998.07
445.60	2058.34
445.96	2114.11
446.33	2182.32
446.69	2246.91
447.06	2325.74
447.42	2401.27
447.79	2479.61
448.15	2561.72
448.51	2650.19
448.88	2748.16
449.24	2845.53
449.61	2959.00
449.97	3074.88
450.33	3196.26
450.70	3305.02
451.06	3438.62
451.43	3570.37
451.79	3728.68
452.15	3890.88
452.52	4072.44
452.88	4259.07
453.24	4459.26
453.61	4676.44
453.97	4892.47
454.34	5101.03
454.70	5342.18
455.06	5587.84
455.43	5823.44
455.79	6061.17
456.15	6344.14
456.52	6616.48
456.88	6935.69
457.24	7255.15
457.61	7602.90
457.97	7930.53
458.33	8265.91
458.70	8605.71
459.06	8933.50
459.42	9330.03
459.79	9694.38
460.15	10099.95
460.51	10455.83
460.88	10865.66
461.24	11186.64
461.60	11573.69
461.96	11923.06
462.33	12273.00
462.69	12563.15
463.05	12921.75
463.42	13255.55
463.78	13567.95
464.14	13866.34
464.50	14183.69
464.87	14399.35
465.23	14579.50
465.59	14774.07
465.95	14933.27
466.32	15069.98
466.68	15192.39
467.04	15236.84
467.40	15241.31
467.77	15268.30
468.13	15244.28
468.49	15249.64
468.85	15250.21
469.22	15231.13
469.58	15129.76
469.94	15054.04
470.30	14900.32
470.66	14750.52
471.03	14520.31
471.39	14374.03
471.75	14139.81
472.11	13929.89
472.47	13773.75
472.84	13647.55
473.20	13424.38
473.56	13279.05
473.92	13065.53
474.28	12821.55
474.65	12595.57
475.01	12405.35
475.37	12168.14
475.73	11957.49
476.09	11732.24
476.45	11500.78
476.81	11267.25
477.18	11050.84
477.54	10871.39
477.90	10725.62
478.26	10560.80
478.62	10419.46
478.98	10285.37
479.34	10159.96
479.71	10005.72
480.07	9869.13
480.43	9742.20
480.79	9621.22
481.15	9514.54
481.51	9403.29
481.87	9284.74
482.23	9138.22
482.59	8988.78
482.96	8812.02
483.32	8659.87
483.68	8523.44
484.04	8396.09
484.40	8264.15
484.76	8153.30
485.12	8024.71
485.48	7903.54
485.84	7766.93
486.20	7609.76
486.56	7433.17
486.92	7284.47
487.28	7115.67
487.64	6956.84
488.00	6820.39
488.37	6702.17
488.73	6559.12
489.09	6400.43
489.45	6255.78
489.81	6108.14
490.17	5958.47
490.53	5825.73
490.89	5699.72
491.25	5584.82
491.61	5464.73
491.97	5346.49
492.33	5215.49
492.69	5098.69
493.05	4958.78
493.41	4835.01
493.77	4719.83
494.13	4617.53
494.49	4512.83
494.85	4414.51
495.21	4311.81
495.57	4207.58
495.93	4099.12
496.29	3993.66
496.64	3899.10
497.00	3820.60
497.36	3741.35
497.72	3669.02
498.08	3602.41
498.44	3538.77
498.80	3471.74
499.16	3404.71
499.52	3328.12
499.88	3259.27
500.24	3196.19
500.60	3126.07
500.96	3065.73
501.32	3011.52
501.68	2956.31
502.03	2898.05
502.39	2841.11
502.75	2782.34
503.11	2729.74
503.47	2678.91
503.83	2623.01
504.19	2575.57
504.55	2525.98
504.91	2480.57
505.26	2444.27
505.62	2413.49
505.98	2373.91
506.34	2332.53
506.70	2292.60
507.06	2251.74
507.42	2207.15
507.78	2164.62
508.13	2132.74
508.49	2091.85
508.85	2056.49
509.21	2025.43
509.57	1999.45
509.93	1970.12
510.28	1947.58
510.64	1919.89
511.00	1893.61
511.36	1863.49
511.72	1835.52
512.07	1804.55
512.43	1774.15
512.79	1747.91
513.15	1725.89
513.51	1704.38
513.86	1682.94
514.22	1665.27
514.58	1648.86
514.94	1632.48
515.30	1614.41
515.65	1599.19
516.01	1590.75
516.37	1572.61
516.73	1557.11
517.08	1546.42
517.44	1533.54
517.80	1514.96
518.16	1501.92
518.51	1490.50
518.87	1474.26
519.23	1464.10
519.59	1453.29
519.94	1443.85
520.30	1431.68
520.66	1419.35
521.01	1407.79
521.37	1397.35
521.73	1386.98
522.09	1379.61
522.44	1374.39
522.80	1365.40
523.16	1356.76
523.51	1347.70
523.87	1336.98
524.23	1325.61
524.58	1316.22
524.94	1308.59
525.30	1300.47
525.65	1294.55
526.01	1289.99
526.37	1283.92
526.72	1278.94
527.08	1274.70
527.44	1269.11
527.79	1260.64
528.15	1255.11
528.51	1248.18
528.86	1243.95
529.22	1237.11
529.58	1233.60
529.93	1228.87
530.29	1221.48
530.65	1213.76
531.00	1209.57
531.36	1208.70
531.71	1206.64
532.07	1206.10
532.43	1206.22
532.78	1199.71
533.14	1192.81
533.49	1189.81
533.85	1186.00
534.21	1176.47
534.56	1180.12
534.92	1179.04
535.27	1175.21
535.63	1170.92
535.98	1172.07
536.34	1166.08
536.69	1161.37
537.05	1156.04
537.41	1153.72
537.76	1150.07
538.12	1145.41
538.47	1143.84
538.83	1143.70
539.18	1141.99
539.54	1140.29
539.89	1140.36
540.25	1140.12
540.60	1137.31
540.96	1135.02
541.31	1138.02
541.67	1135.67
542.02	1134.11
542.38	1133.43
542.73	1136.56
543.09	1134.62
543.44	1136.24
543.80	1132.94
544.15	1133.57
544.51	1128.35
544.86	1123.39
545.22	1123.48
545.57	1124.84
545.93	1123.18
546.28	1120.72
546.64	1118.24
546.99	1113.51
547.35	1108.85
547.70	1103.73
548.05	1103.87
548.41	1104.03
548.76	1104.26
549.12	1106.35
549.47	1107.33
549.83	1107.75
550.18	1108.62
550.53	1108.15
550.89	1106.63
551.24	1107.64
551.60	1108.59
551.95	1107.10
552.30	1104.50
552.66	1103.82
553.01	1103.07
553.37	1099.28
553.72	1099.35
554.07	1101.08
554.43	1101.57
554.78	1100.99
555.13	1103.45
555.49	1103.80
555.84	1105.22
556.19	1103.28
556.55	1099.40
556.90	1094.93
557.26	1091.63
557.61	1087.27
557.96	1088.02
558.32	1090.69
558.67	1093.17
559.02	1096.28
559.37	1096.78
559.73	1095.00
560.08	1093.33
560.43	1094.46
560.79	1092.00
561.14	1093.29
561.49	1093.01
561.85	1093.62
562.20	1091.53
562.55	1091.13
562.90	1089.54
563.26	1090.36
563.61	1088.26
563.96	1086.76
564.32	1089.19
564.67	1089.61
565.02	1087.06
565.37	1088.56
565.73	1089.05
566.08	1088.65
566.43	1087.18
566.78	1090.15
567.14	1091.77
567.49	1091.95
567.84	1091.16
568.19	1089.66
568.54	1088.23
568.90	1087.09
569.25	1087.13
569.60	1082.24
569.95	1082.73
570.31	1083.50
570.66	1082.61
571.01	1083.01
571.36	1084.63
571.71	1086.10
572.06	1086.29
572.42	1085.42
572.77	1082.52
573.12	1082.85
573.47	1082.38
573.82	1079.88
574.18	1083.81
574.53	1083.64
574.88	1085.00
575.23	1083.79
575.58	1083.60
575.93	1080.09
576.28	1080.53
576.64	1081.40
576.99	1080.34
577.34	1079.48
577.69	1080.44
578.04	1081.47
578.39	1078.78
578.74	1080.34
579.09	1083.88
579.44	1086.73
579.80	1087.67
580.15	1089.73
580.50	1091.13
580.85	1087.04
581.20	1083.18
581.55	1085.26
581.90	1085.45
582.25	1084.74
582.60	1087.32
582.95	1084.93
583.30	1078.57
583.65	1077.51
584.00	1077.11
584.35	1077.70
584.71	1079.29
585.06	1082.57
585.41	1081.33
585.76	1080.53
586.11	1077.33
586.46	1077.58
586.81	1077.49
587.16	1080.02
587.51	1081.02
587.86	1084.53
588.21	1083.79
588.56	1082.29
588.91	1081.00
589.26	1079.97
589.61	1077.82
589.96	1080.44
590.31	1081.68
590.66	1080.65
591.01	1084.58
591.36	1083.39
591.71	1082.40
592.06	1082.15
592.41	1081.80
592.76	1077.82
593.10	1078.31
593.45	1077.61
593.80	1076.69
594.15	1079.69
594.50	1076.76
594.85	1079.53
595.20	1079.90
595.55	1078.17
595.90	1075.17
596.25	1077.91
596.60	1075.62
596.95	1076.20
597.30	1083.36
597.64	1093.47
597.99	1095.93
598.34	1093.80
598.69	1093.22
599.04	1086.85
599.39	1079.20
599.74	1074.96
600.09	1077.49
600.44	1076.53
600.78	1078.47
601.13	1078.19
601.48	1080.58
601.83	1079.92
602.18	1082.54
602.53	1080.02
602.88	1080.02
603.22	1079.74
603.57	1078.36
603.92	1076.34
604.27	1077.47
604.62	1075.66
604.97	1074.05
605.31	1077.42
605.66	1077.18
606.01	1080.86
606.36	1081.02
606.71	1085.31
607.05	1081.73
607.40	1083.11
607.75	1082.90
608.10	1084.42
608.44	1081.82
608.79	1082.52
609.14	1085.14
609.49	1082.22
609.84	1082.45
610.18	1081.80
610.53	1082.47
610.88	1078.40
611.23	1079.55
611.57	1080.48
611.92	1080.70
612.27	1080.34
612.62	1081.26
612.96	1079.34
613.31	1077.68
613.66	1075.80
614.00	1077.02
614.35	1073.44
614.70	1075.87
615.05	1074.07
615.39	1078.64
615.74	1077.56
616.09	1080.06
616.43	1081.63
616.78	1082.85
617.13	1081.70
617.47	1082.90
617.82	1085.38
618.17	1082.76
618.51	1081.84
618.86	1078.80
619.21	1077.86
619.55	1076.65
619.90	1076.67
620.25	1076.18
620.59	1075.85
620.94	1076.76
621.29	1073.58
621.63	1074.98
621.98	1075.90
622.32	1078.94
622.67	1076.69
623.02	1078.31
623.36	1078.92
623.71	1077.61
624.05	1076.11
624.40	1079.27
624.75	1077.11
625.09	1074.82
625.44	1077.09
625.78	1075.05
626.13	1071.90
626.48	1072.43
626.82	1070.89
627.17	1068.15
627.51	1070.68
627.86	1075.34
628.20	1077.09
628.55	1078.50
628.89	1081.35
629.24	1079.34
629.58	1077.54
629.93	1079.27
630.28	1081.82
630.62	1080.04
630.97	1082.08
631.31	1081.84
631.66	1081.98
632.00	1081.89
632.35	1081.19
632.69	1081.75
633.04	1080.86
633.38	1078.80
633.73	1075.66
634.07	1077.18
634.42	1075.78
634.76	1075.08
635.11	1076.34
635.45	1078.68
635.79	1077.16
636.14	1079.29
636.48	1079.38
636.83	1080.04
637.17	1079.06
637.52	1078.50
637.86	1079.50
638.21	1078.71
638.55	1077.89
638.89	1077.25
639.24	1080.25
639.58	1075.94
639.93	1073.51
640.27	1071.33
640.61	1071.05
640.96	1070.19
641.30	1072.60
641.65	1073.63
641.99	1077.56
642.33	1079.55
642.68	1081.80
643.02	1083.13
643.37	1084.60
643.71	1085.99
644.05	1083.86
644.40	1079.36
644.74	1076.67
645.08	1077.98
645.43	1071.92
645.77	1068.76
646.11	1072.69
646.46	1076.30
646.80	1076.20
647.14	1079.43
647.49	1084.00
647.83	1083.32
648.17	1081.12
648.52	1083.41
648.86	1082.26
649.20	1082.22
649.55	1079.48
649.89	1079.48
650.23	1078.61
650.57	1075.64
650.92	1074.84
651.26	1075.17
651.60	1074.24
651.95	1070.33
652.29	1073.60
652.63	1073.07
652.97	1074.19
653.32	1072.95
653.66	1077.18
654.00	1076.97
654.34	1079.62
654.69	1079.83
655.03	1084.35
655.37	1083.20
655.71	1080.79
656.05	1079.46
656.40	1079.13
656.74	1077.72
657.08	1077.02
657.42	1082.80
657.76	1081.26
658.11	1082.15
658.45	1080.53
658.79	1082.01
659.13	1079.22
659.47	1077.00
659.82	1076.11
660.16	1081.05
660.50	1077.98
660.84	1076.76
661.18	1080.30
661.52	1077.89
661.87	1073.95
662.21	1077.02
662.55	1079.69
662.89	1076.79
663.23	1079.01
663.57	1079.50
663.91	1076.27
664.25	1076.37
664.60	1075.13
664.94	1073.44
665.28	1071.10
665.62	1073.51
665.96	1069.30
666.30	1073.09
666.64	1072.29
666.98	1073.88
667.32	1077.72
667.66	1080.95
668.01	1079.57
668.35	1083.95
668.69	1085.21
669.03	1080.32
669.37	1079.17
669.71	1079.46
670.05	1078.12
670.39	1074.73
670.73	1073.49
671.07	1073.98
671.41	1074.24
671.75	1073.16
672.09	1074.42
672.43	1077.96
672.77	1077.96
673.11	1078.28
673.45	1078.78
673.79	1075.62
674.13	1072.15
674.47	1072.60
674.81	1073.35
675.15	1073.56
675.49	1077.56
675.83	1080.63
676.17	1081.33
676.51	1082.94
676.85	1082.01
677.19	1081.66
677.53	1077.47
677.87	1076.34
678.21	1075.52
678.55	1077.44
678.89	1074.63
679.23	1076.44
679.57	1074.91
679.90	1077.96
680.24	1076.18
680.58	1079.22
680.92	1081.16
681.26	1082.15
681.60	1075.41
681.94	1072.97
682.28	1069.34
682.62	1070.14
682.96	1072.92
683.29	1076.97
683.63	1082.15
683.97	1084.14
684.31	1082.90
684.65	1079.43
684.99	1077.61
685.33	1076.48
685.67	1076.37
686.00	1076.39
686.34	1076.95
686.68	1076.04
687.02	1073.95
687.36	1074.94
687.70	1073.53
688.03	1072.92
688.37	1072.32
688.71	1074.56
689.05	1075.64
689.39	1074.14
689.72	1073.42
690.06	1075.05
690.40	1073.67
690.74	1070.58
691.08	1074.05
691.41	1077.11
691.75	1078.31
692.09	1078.59
692.43	1080.60
692.76	1079.76
693.10	1077.96
693.44	1077.40
693.78	1077.28
694.11	1078.99
694.45	1079.10
694.79	1081.40
695.13	1078.82
695.46	1078.66
695.80	1079.22
696.14	1078.78
696.48	1076.37
696.81	1078.96
697.15	1080.46
697.49	1078.87
697.82	1075.62
698.16	1078.31
698.50	1076.60
698.83	1078.43
699.17	1080.46
699.51	1084.91
699.84	1082.64
700.18	1083.88
700.52	1080.48
700.85	1073.88
701.19	1071.12
701.53	1073.04
701.86	1072.55
702.20	1074.87
702.54	1076.88
702.87	1076.90
703.21	1075.43
703.55	1074.70
703.88	1072.78
704.22	1072.43
704.55	1076.37
704.89	1074.66
705.23	1076.08
705.56	1080.60
705.90	1085.70
706.23	1081.49
706.57	1082.36
706.91	1082.12
707.24	1079.50
707.58	1077.54
707.91	1077.49
708.25	1077.04
708.58	1077.49
708.92	1076.15
709.26	1076.81
709.59	1078.75
709.93	1078.82
710.26	1079.13
710.60	1078.68
710.93	1079.83
711.27	1082.50
711.60	1080.88
711.94	1080.02
712.27	1078.85
712.61	1076.74
712.94	1072.81
713.28	1072.67
713.61	1070.14
713.95	1069.41
714.28	1070.82
714.62	1067.99
714.95	1068.88
715.29	1073.09
715.62	1074.84
715.96	1072.69
716.29	1078.54
716.63	1076.30
716.96	1073.09
717.29	1075.57
717.63	1075.57
717.96	1072.25
718.30	1074.77
718.63	1077.16
718.97	1073.81
719.30	1074.45
719.63	1075.22
719.97	1074.03
720.30	1071.99
720.64	1074.21
720.97	1071.66
721.30	1071.92
721.64	1074.42
721.97	1075.87
722.31	1073.53
722.64	1074.28
722.97	1076.74
723.31	1075.85
723.64	1078.14
723.97	1077.14
724.31	1078.71
724.64	1077.84
724.98	1079.24
725.31	1077.11
725.64	1078.00
725.98	1077.37
726.31	1076.34
726.64	1075.85
726.97	1078.59
727.31	1080.18
727.64	1078.36
727.97	1076.65
728.31	1076.55
728.64	1071.78
728.97	1071.59
729.31	1072.11
729.64	1073.32
729.97	1074.61
730.30	1076.30
730.64	1077.23
730.97	1080.34
731.30	1082.97
731.63	1082.29
731.97	1083.46
732.30	1080.91
732.63	1076.13
732.96	1075.62
733.30	1073.09
733.63	1070.87
733.96	1072.08
734.29	1076.62
734.63	1075.13
734.96	1077.28
735.29	1077.44
735.62	1076.13
735.95	1076.95
736.29	1078.14
736.62	1076.15
736.95	1074.33
737.28	1073.60
737.61	1072.06
737.94	1070.96
738.28	1074.03
738.61	1077.82
738.94	1076.95
739.27	1075.08
739.60	1074.77
739.93	1075.20
740.27	1075.92
740.60	1078.78
740.93	1082.38
741.26	1085.73
741.59	1085.24
741.92	1083.11
742.25	1081.44
742.58	1079.99
742.91	1076.30
743.25	1073.98
743.58	1074.33
743.91	1074.82
744.24	1074.00
744.57	1075.05
744.90	1073.74
745.23	1073.88
745.56	1076.58
745.89	1076.39
746.22	1076.83
746.55	1078.38
746.88	1078.92
747.21	1076.32
747.54	1077.00
747.87	1075.41
748.20	1075.55
748.53	1076.01
748.87	1078.82
749.20	1075.92
749.53	1075.55
749.86	1076.72
750.19	1075.87
750.52	1075.87
750.85	1078.61
751.18	1078.78
751.51	1076.97
751.84	1077.00
752.16	1077.11
752.49	1074.96
752.82	1074.10
753.15	1074.03
753.48	1074.17
753.81	1073.23
754.14	1078.03
754.47	1078.61
754.80	1079.03
755.13	1074.75
755.46	1074.40
755.79	1070.65
756.12	1069.58
756.45	1071.05
756.78	1076.23
757.11	1074.59
757.43	1075.27
757.76	1076.01
758.09	1076.20
758.42	1070.80
758.75	1073.35
759.08	1073.04
759.41	1072.81
759.74	1069.93
760.07	1074.66
760.39	1074.80
760.72	1072.81
761.05	1075.15
761.38	1077.33
761.71	1077.16
762.04	1075.85
762.36	1079.22
762.69	1078.03
763.02	1078.82
763.35	1078.21
763.68	1078.31
764.01	1077.75
764.33	1077.00
764.66	1076.30
764.99	1076.53
