SpectraSuite Data File
++++++++++++++++++++++++++++++++++++
Date: Mon Aug 26 10:22:25 PDT 2019
User: corrico
Dark Spectrum Present: No
Reference Spectrum Present: No
Number of Sampled Component Spectra: 1
Spectrometers: USB2+H06089
Integration Time (usec): 2000 (USB2+H06089)
Spectra Averaged: 20 (USB2+H06089)
Boxcar Smoothing: 2 (USB2+H06089)
Correct for Electrical Dark: No (USB2+H06089)
Strobe/Lamp Enabled: No (USB2+H06089)
Correct for Detector Non-linearity: No (USB2+H06089)
Correct for Stray Light: No (USB2+H06089)
Number of Pixels in Processed Spectrum: 2048
>>>>>Begin Processed Spectral Data<<<<<
339.70	1029.95
340.07	1029.95
340.45	991.36
340.82	970.81
341.19	947.82
341.57	923.20
341.94	913.91
342.31	909.88
342.69	904.29
343.06	902.53
343.43	901.20
343.81	902.60
344.18	903.28
344.55	906.61
344.93	909.42
345.30	915.95
345.67	925.42
346.04	933.41
346.42	943.80
346.79	952.20
347.16	961.56
347.54	966.57
347.91	975.25
348.28	980.26
348.65	991.01
349.03	1000.34
349.40	1007.58
349.77	1015.89
350.14	1025.15
350.52	1027.59
350.89	1034.17
351.26	1039.78
351.63	1047.72
352.01	1053.31
352.38	1058.46
352.75	1061.01
353.12	1068.45
353.50	1067.89
353.87	1071.99
354.24	1075.22
354.61	1077.75
354.98	1079.92
355.36	1083.08
355.73	1083.32
356.10	1087.76
356.47	1086.52
356.84	1086.52
357.22	1088.75
357.59	1087.25
357.96	1086.29
358.33	1088.04
358.70	1086.64
359.08	1085.17
359.45	1088.16
359.82	1088.40
360.19	1087.76
360.56	1084.21
360.94	1082.90
361.31	1078.66
361.68	1077.56
362.05	1077.28
362.42	1081.02
362.79	1081.00
363.16	1083.86
363.54	1082.24
363.91	1079.24
364.28	1078.82
364.65	1074.66
365.02	1068.50
365.39	1066.89
365.76	1067.28
366.14	1066.82
366.51	1070.00
366.88	1074.14
367.25	1074.70
367.62	1072.04
367.99	1072.95
368.36	1073.28
368.73	1072.78
369.10	1072.67
369.48	1076.53
369.85	1074.56
370.22	1074.24
370.59	1071.15
370.96	1071.43
371.33	1070.94
371.70	1069.79
372.07	1067.85
372.44	1071.68
372.81	1074.73
373.18	1073.14
373.55	1074.77
373.93	1073.72
374.30	1073.16
374.67	1072.20
375.04	1071.38
375.41	1071.54
375.78	1076.20
376.15	1075.43
376.52	1074.89
376.89	1077.98
377.26	1078.03
377.63	1077.79
378.00	1081.35
378.37	1082.33
378.74	1083.50
379.11	1082.61
379.48	1085.35
379.85	1081.68
380.22	1080.34
380.59	1076.51
380.96	1078.33
381.33	1079.53
381.70	1081.70
382.07	1084.60
382.44	1089.71
382.81	1091.79
383.18	1089.03
383.55	1090.74
383.92	1090.03
384.29	1089.43
384.66	1089.61
385.03	1090.22
385.40	1086.76
385.77	1083.74
386.14	1084.04
386.51	1081.40
386.88	1078.78
387.25	1078.36
387.62	1079.74
387.99	1079.29
388.36	1077.37
388.73	1079.29
389.10	1083.18
389.46	1082.66
389.83	1082.54
390.20	1085.05
390.57	1085.03
390.94	1081.91
391.31	1083.41
391.68	1083.60
392.05	1081.80
392.42	1083.46
392.79	1084.32
393.16	1083.22
393.53	1081.33
393.89	1084.16
394.26	1082.92
394.63	1084.35
395.00	1085.42
395.37	1087.39
395.74	1087.93
396.11	1087.62
396.48	1087.90
396.84	1088.44
397.21	1089.17
397.58	1091.16
397.95	1093.92
398.32	1094.90
398.69	1093.50
399.06	1091.86
399.42	1086.10
399.79	1085.80
400.16	1083.53
400.53	1084.70
400.90	1086.06
401.27	1084.35
401.64	1081.19
402.00	1080.67
402.37	1081.49
402.74	1085.03
403.11	1090.76
403.48	1090.85
403.84	1089.14
404.21	1089.03
404.58	1086.52
404.95	1081.94
405.32	1081.61
405.68	1087.02
406.05	1087.58
406.42	1088.82
406.79	1094.36
407.16	1097.20
407.52	1096.12
407.89	1096.05
408.26	1096.33
408.63	1095.32
408.99	1095.96
409.36	1095.07
409.73	1098.02
410.10	1095.56
410.47	1095.32
410.83	1093.45
411.20	1093.62
411.57	1091.04
411.94	1094.79
412.30	1095.96
412.67	1097.66
413.04	1095.84
413.40	1098.02
413.77	1096.40
414.14	1098.27
414.51	1097.36
414.87	1103.77
415.24	1102.06
415.61	1103.31
415.97	1102.02
416.34	1102.63
416.71	1098.37
417.08	1099.26
417.44	1099.35
417.81	1098.27
418.18	1101.29
418.54	1106.04
418.91	1107.38
419.28	1110.00
419.64	1112.62
420.01	1110.75
420.38	1110.37
420.74	1111.97
421.11	1112.48
421.48	1116.22
421.84	1120.65
422.21	1121.96
422.58	1123.48
422.94	1124.53
423.31	1127.01
423.68	1126.69
424.04	1127.46
424.41	1130.15
424.77	1133.45
425.14	1135.00
425.51	1141.46
425.87	1148.03
426.24	1152.64
426.61	1156.46
426.97	1159.22
427.34	1166.31
427.70	1175.07
428.07	1180.05
428.44	1187.10
428.80	1197.84
429.17	1203.32
429.53	1208.21
429.90	1216.94
430.27	1227.54
430.63	1236.08
431.00	1246.52
431.36	1258.11
431.73	1272.24
432.09	1283.76
432.46	1293.33
432.83	1305.27
433.19	1322.82
433.56	1341.01
433.92	1360.81
434.29	1384.08
434.65	1408.93
435.02	1431.80
435.38	1456.28
435.75	1480.74
436.11	1508.29
436.48	1540.03
436.84	1575.48
437.21	1608.56
437.57	1648.06
437.94	1693.12
438.30	1739.18
438.67	1781.29
439.03	1832.83
439.40	1889.07
439.76	1945.08
440.13	2004.67
440.49	2068.24
440.86	2130.61
441.22	2200.60
441.59	2268.92
441.95	2345.29
442.32	2427.35
442.68	2521.20
443.05	2608.85
443.41	2705.89
443.78	2801.18
444.14	2907.04
444.51	3015.05
444.87	3152.96
445.24	3294.87
445.60	3448.92
445.96	3603.79
446.33	3775.94
446.69	3935.42
447.06	4105.35
447.42	4284.51
447.79	4473.33
448.15	4689.26
448.51	4919.78
448.88	5181.99
449.24	5419.79
449.61	5695.81
449.97	5967.50
450.33	6247.40
450.70	6508.05
451.06	6829.59
451.43	7132.24
451.79	7476.63
452.15	7859.78
452.52	8289.48
452.88	8740.96
453.24	9251.32
453.61	9815.48
453.97	10357.39
454.34	10901.00
454.70	11539.59
455.06	12184.48
455.43	12817.83
455.79	13420.14
456.15	14124.50
456.52	14756.09
456.88	15508.48
457.24	16219.84
457.61	17060.52
457.97	17803.92
458.33	18578.70
458.70	19327.07
459.06	20047.95
459.42	20856.21
459.79	21625.17
460.15	22510.31
460.51	23343.10
460.88	24263.28
461.24	25040.10
461.60	25981.61
461.96	26825.79
462.33	27638.64
462.69	28382.60
463.05	29239.10
463.42	29957.36
463.78	30576.92
464.14	31124.44
464.50	31732.28
464.87	32172.68
465.23	32499.27
465.59	32872.17
465.95	33205.81
466.32	33453.67
466.68	33674.20
467.04	33806.72
467.40	33951.48
467.77	34070.41
468.13	34064.74
468.49	34004.80
468.85	33975.57
469.22	33792.37
469.58	33458.15
469.94	33191.04
470.30	32857.00
470.66	32410.31
471.03	31864.40
471.39	31499.96
471.75	30904.85
472.11	30330.42
472.47	29995.09
472.84	29663.83
473.20	29190.39
473.56	28933.63
473.92	28531.27
474.28	28014.71
474.65	27507.08
475.01	27036.14
475.37	26442.81
475.73	25952.56
476.09	25417.91
476.45	24917.98
476.81	24382.74
477.18	23874.77
477.54	23446.20
477.90	23105.39
478.26	22695.36
478.62	22350.15
478.98	22059.01
479.34	21740.23
479.71	21329.30
480.07	21003.03
480.43	20673.62
480.79	20293.50
481.15	19946.58
481.51	19644.14
481.87	19388.13
482.23	19097.91
482.59	18835.09
482.96	18556.28
483.32	18261.35
483.68	17888.60
484.04	17554.98
484.40	17215.30
484.76	16878.23
485.12	16541.48
485.48	16229.86
485.84	15899.47
486.20	15567.93
486.56	15206.37
486.92	14903.92
487.28	14570.96
487.64	14223.30
488.00	13898.19
488.37	13576.14
488.73	13217.03
489.09	12876.93
489.45	12578.27
489.81	12276.13
490.17	11980.80
490.53	11694.25
490.89	11401.19
491.25	11103.74
491.61	10797.83
491.97	10491.17
492.33	10184.56
492.69	9887.90
493.05	9581.66
493.41	9277.98
493.77	8999.66
494.13	8744.38
494.49	8500.52
494.85	8271.90
495.21	8066.56
495.57	7855.24
495.93	7643.74
496.29	7444.14
496.64	7260.95
497.00	7064.51
497.36	6879.63
497.72	6690.68
498.08	6515.14
498.44	6331.34
498.80	6170.28
499.16	6017.96
499.52	5878.58
499.88	5757.34
500.24	5643.15
500.60	5530.69
500.96	5411.88
501.32	5294.29
501.68	5167.90
502.03	5039.22
502.39	4908.57
502.75	4773.08
503.11	4649.57
503.47	4527.02
503.83	4407.42
504.19	4288.03
504.55	4188.34
504.91	4093.41
505.26	4004.38
505.62	3923.32
505.98	3836.86
506.34	3752.98
506.70	3663.50
507.06	3571.84
507.42	3481.13
507.78	3406.72
508.13	3327.21
508.49	3252.92
508.85	3183.46
509.21	3120.45
509.57	3053.51
509.93	2987.93
510.28	2918.37
510.64	2851.62
511.00	2783.79
511.36	2722.07
511.72	2664.33
512.07	2617.82
512.43	2573.02
512.79	2528.04
513.15	2482.37
513.51	2434.95
513.86	2386.67
514.22	2342.78
514.58	2301.96
514.94	2264.54
515.30	2229.71
515.65	2195.52
516.01	2167.45
516.37	2135.55
516.73	2109.90
517.08	2083.83
517.44	2058.88
517.80	2032.33
518.16	2007.90
518.51	1976.63
518.87	1947.56
519.23	1919.87
519.59	1893.47
519.94	1868.99
520.30	1845.65
520.66	1826.91
521.01	1806.40
521.37	1783.79
521.73	1762.33
522.09	1742.53
522.44	1723.48
522.80	1703.61
523.16	1680.06
523.51	1662.81
523.87	1646.10
524.23	1624.33
524.58	1604.65
524.94	1588.33
525.30	1569.24
525.65	1554.77
526.01	1537.61
526.37	1525.14
526.72	1511.71
527.08	1502.02
527.44	1487.27
527.79	1479.73
528.15	1463.86
528.51	1452.23
528.86	1435.01
529.22	1423.47
529.58	1409.75
529.93	1402.21
530.29	1396.83
530.65	1388.20
531.00	1381.10
531.36	1373.05
531.71	1360.11
532.07	1345.15
532.43	1336.17
532.78	1322.64
533.14	1314.66
533.49	1312.50
533.85	1308.59
534.21	1303.91
534.56	1301.45
534.92	1298.39
535.27	1291.20
535.63	1286.22
535.98	1278.87
536.34	1272.20
536.69	1267.49
537.05	1263.59
537.41	1255.84
537.76	1250.57
538.12	1246.27
538.47	1241.75
538.83	1236.58
539.18	1232.10
539.54	1232.81
539.89	1228.92
540.25	1225.67
540.60	1223.33
540.96	1219.93
541.31	1214.36
541.67	1208.89
542.02	1202.68
542.38	1196.34
542.73	1193.35
543.09	1189.58
543.44	1186.84
543.80	1185.55
544.15	1184.52
544.51	1179.63
544.86	1177.24
545.22	1177.52
545.57	1172.16
545.93	1170.50
546.28	1172.82
546.64	1173.52
546.99	1170.06
547.35	1168.54
547.70	1166.15
548.05	1161.63
548.41	1155.83
548.76	1154.07
549.12	1150.07
549.47	1145.81
549.83	1144.12
550.18	1142.77
550.53	1140.26
550.89	1140.80
551.24	1141.13
551.60	1143.12
551.95	1139.21
552.30	1137.34
552.66	1132.82
553.01	1129.96
553.37	1127.01
553.72	1129.64
554.07	1129.87
554.43	1133.43
554.78	1133.52
555.13	1133.45
555.49	1132.30
555.84	1129.96
556.19	1127.72
556.55	1126.27
556.90	1122.90
557.26	1119.81
557.61	1118.64
557.96	1114.12
558.32	1113.04
558.67	1111.85
559.02	1114.07
559.37	1114.52
559.73	1116.76
560.08	1115.34
560.43	1117.93
560.79	1115.31
561.14	1114.10
561.49	1115.22
561.85	1117.65
562.20	1113.30
562.55	1115.97
562.90	1116.79
563.26	1111.82
563.61	1110.89
563.96	1112.74
564.32	1108.85
564.67	1105.90
565.02	1108.50
565.37	1108.29
565.73	1105.65
566.08	1102.46
566.43	1105.95
566.78	1103.12
567.14	1099.98
567.49	1100.47
567.84	1101.83
568.19	1096.75
568.54	1099.26
568.90	1099.30
569.25	1099.51
569.60	1099.79
569.95	1100.75
570.31	1100.43
570.66	1100.45
571.01	1097.59
571.36	1098.88
571.71	1100.19
572.06	1097.03
572.42	1096.33
572.77	1098.53
573.12	1096.75
573.47	1095.14
573.82	1096.12
574.18	1096.47
574.53	1095.93
574.88	1093.90
575.23	1092.23
575.58	1092.82
575.93	1091.95
576.28	1092.33
576.64	1091.63
576.99	1090.46
577.34	1091.72
577.69	1091.53
578.04	1090.48
578.39	1090.03
578.74	1092.16
579.09	1090.46
579.44	1088.77
579.80	1087.23
580.15	1092.96
580.50	1092.23
580.85	1092.30
581.20	1095.42
581.55	1095.65
581.90	1091.32
582.25	1091.88
582.60	1091.30
582.95	1091.09
583.30	1092.40
583.65	1093.17
584.00	1094.69
584.35	1094.18
584.71	1094.72
585.06	1094.08
585.41	1093.19
585.76	1090.83
586.11	1093.12
586.46	1093.19
586.81	1093.24
587.16	1093.85
587.51	1091.93
587.86	1087.30
588.21	1086.17
588.56	1083.76
588.91	1085.66
589.26	1087.11
589.61	1088.93
589.96	1089.33
590.31	1092.45
590.66	1092.33
591.01	1095.14
591.36	1093.73
591.71	1094.06
592.06	1091.02
592.41	1088.23
592.76	1085.68
593.10	1088.89
593.45	1088.54
593.80	1086.64
594.15	1087.18
594.50	1089.43
594.85	1085.40
595.20	1084.51
595.55	1088.93
595.90	1087.81
596.25	1085.99
596.60	1087.74
596.95	1086.17
597.30	1085.05
597.64	1098.30
597.99	1099.12
598.34	1099.40
598.69	1098.95
599.04	1100.50
599.39	1088.98
599.74	1088.02
600.09	1087.72
600.44	1087.93
600.78	1085.59
601.13	1086.06
601.48	1082.76
601.83	1081.73
602.18	1083.81
602.53	1082.61
602.88	1082.69
603.22	1085.03
603.57	1085.19
603.92	1082.40
604.27	1083.22
604.62	1082.40
604.97	1082.71
605.31	1084.51
605.66	1083.08
606.01	1083.43
606.36	1081.87
606.71	1084.53
607.05	1085.03
607.40	1088.42
607.75	1088.68
608.10	1088.77
608.44	1085.07
608.79	1085.21
609.14	1083.34
609.49	1085.07
609.84	1087.25
610.18	1088.91
610.53	1086.62
610.88	1086.52
611.23	1087.83
611.57	1087.09
611.92	1083.08
612.27	1082.19
612.62	1085.47
612.96	1086.41
613.31	1085.56
613.66	1087.81
614.00	1091.06
614.35	1089.19
614.70	1083.97
615.05	1082.40
615.39	1083.86
615.74	1079.15
616.09	1079.13
616.43	1077.25
616.78	1078.45
617.13	1077.16
617.47	1078.54
617.82	1077.40
618.17	1078.14
618.51	1079.74
618.86	1079.43
619.21	1080.30
619.55	1082.15
619.90	1086.08
620.25	1085.77
620.59	1086.59
620.94	1085.87
621.29	1084.72
621.63	1083.36
621.98	1082.29
622.32	1081.02
622.67	1082.12
623.02	1080.02
623.36	1081.07
623.71	1081.19
624.05	1083.90
624.40	1085.19
624.75	1088.00
625.09	1083.34
625.44	1084.23
625.78	1080.41
626.13	1078.05
626.48	1077.86
626.82	1080.70
627.17	1081.19
627.51	1083.25
627.86	1082.66
628.20	1080.13
628.55	1077.86
628.89	1076.65
629.24	1077.86
629.58	1082.08
629.93	1084.74
630.28	1086.13
630.62	1084.74
630.97	1081.73
631.31	1077.63
631.66	1079.78
632.00	1082.38
632.35	1084.56
632.69	1084.67
633.04	1085.61
633.38	1081.56
633.73	1080.72
634.07	1081.16
634.42	1082.36
634.76	1082.85
635.11	1084.37
635.45	1084.30
635.79	1082.47
636.14	1081.40
636.48	1081.16
636.83	1081.54
637.17	1081.91
637.52	1083.22
637.86	1084.58
638.21	1082.22
638.55	1082.64
638.89	1079.10
639.24	1077.82
639.58	1076.20
639.93	1075.73
640.27	1077.47
640.61	1079.46
640.96	1076.90
641.30	1080.58
641.65	1082.38
641.99	1077.68
642.33	1075.48
642.68	1077.44
643.02	1077.61
643.37	1080.04
643.71	1081.49
644.05	1083.01
644.40	1083.50
644.74	1081.89
645.08	1077.33
645.43	1076.51
645.77	1075.05
646.11	1075.94
646.46	1077.11
646.80	1080.56
647.14	1083.27
647.49	1088.44
647.83	1085.47
648.17	1084.77
648.52	1086.13
648.86	1086.55
649.20	1087.86
649.55	1092.91
649.89	1093.08
650.23	1090.32
650.57	1088.65
650.92	1083.90
651.26	1079.08
651.60	1077.56
651.95	1079.13
652.29	1079.85
652.63	1080.37
652.97	1080.06
653.32	1082.01
653.66	1082.03
654.00	1080.02
654.34	1080.04
654.69	1081.61
655.03	1077.79
655.37	1077.72
655.71	1077.00
656.05	1075.80
656.40	1076.44
656.74	1081.16
657.08	1075.20
657.42	1074.35
657.76	1076.11
658.11	1076.41
658.45	1072.78
658.79	1080.16
659.13	1082.50
659.47	1081.70
659.82	1080.30
660.16	1081.82
660.50	1079.08
660.84	1079.50
661.18	1081.14
661.52	1083.69
661.87	1084.96
662.21	1087.04
662.55	1086.90
662.89	1085.70
663.23	1083.55
663.57	1081.70
663.91	1079.60
664.25	1078.64
664.60	1078.12
664.94	1078.07
665.28	1077.89
665.62	1077.21
665.96	1076.62
666.30	1076.20
666.64	1074.54
666.98	1075.22
667.32	1079.29
667.66	1081.75
668.01	1081.19
668.35	1084.25
668.69	1083.29
669.03	1076.81
669.37	1078.24
669.71	1079.81
670.05	1078.82
670.39	1079.10
670.73	1082.69
671.07	1080.86
671.41	1078.47
671.75	1077.70
672.09	1079.88
672.43	1082.10
672.77	1081.14
673.11	1082.01
673.45	1083.74
673.79	1083.22
674.13	1082.80
674.47	1083.50
674.81	1083.81
675.15	1084.21
675.49	1082.17
675.83	1077.68
676.17	1075.94
676.51	1076.97
676.85	1076.41
677.19	1076.20
677.53	1078.73
677.87	1079.31
678.21	1078.36
678.55	1076.58
678.89	1077.54
679.23	1079.78
679.57	1079.31
679.90	1080.98
680.24	1079.15
680.58	1080.65
680.92	1075.94
681.26	1078.80
681.60	1079.92
681.94	1084.67
682.28	1082.29
682.62	1085.03
682.96	1082.05
683.29	1080.56
683.63	1080.23
683.97	1080.51
684.31	1080.48
684.65	1079.74
684.99	1078.38
685.33	1077.09
685.67	1079.88
686.00	1081.51
686.34	1082.45
686.68	1084.89
687.02	1083.95
687.36	1080.60
687.70	1078.96
688.03	1079.34
688.37	1076.93
688.71	1075.66
689.05	1077.00
689.39	1074.94
689.72	1078.03
690.06	1078.26
690.40	1079.92
690.74	1082.22
691.08	1083.93
691.41	1078.24
691.75	1081.56
692.09	1082.12
692.43	1079.36
692.76	1082.40
693.10	1087.16
693.44	1084.28
693.78	1082.12
694.11	1082.22
694.45	1081.05
694.79	1080.09
695.13	1080.23
695.46	1082.87
695.80	1084.49
696.14	1083.32
696.48	1085.84
696.81	1086.20
697.15	1087.02
697.49	1086.08
697.82	1085.21
698.16	1079.99
698.50	1078.36
698.83	1075.78
699.17	1073.74
699.51	1074.70
699.84	1075.55
700.18	1075.48
700.52	1074.28
700.85	1077.79
701.19	1078.24
701.53	1079.06
701.86	1078.50
702.20	1082.22
702.54	1080.93
702.87	1080.84
703.21	1082.50
703.55	1085.91
703.88	1083.97
704.22	1085.59
704.55	1085.24
704.89	1084.70
705.23	1084.98
705.56	1085.96
705.90	1086.06
706.23	1085.26
706.57	1085.10
706.91	1082.57
707.24	1081.73
707.58	1078.89
707.91	1081.96
708.25	1080.91
708.58	1082.26
708.92	1083.64
709.26	1081.89
709.59	1079.29
709.93	1081.00
710.26	1080.16
710.60	1073.32
710.93	1076.08
711.27	1077.02
711.60	1075.62
711.94	1075.43
712.27	1082.59
712.61	1082.69
712.94	1079.78
713.28	1078.31
713.61	1079.76
713.95	1077.02
714.28	1074.91
714.62	1078.28
714.95	1081.47
715.29	1080.81
715.62	1085.00
715.96	1085.45
716.29	1086.64
716.63	1084.42
716.96	1086.76
717.29	1082.80
717.63	1084.86
717.96	1083.01
718.30	1085.61
718.63	1082.66
718.97	1082.97
719.30	1083.48
719.63	1084.53
719.97	1083.43
720.30	1084.58
720.64	1085.70
720.97	1086.13
721.30	1086.20
721.64	1084.44
721.97	1082.33
722.31	1080.34
722.64	1078.87
722.97	1076.65
723.31	1079.24
723.64	1078.73
723.97	1078.21
724.31	1078.45
724.64	1077.75
724.98	1073.21
725.31	1075.59
725.64	1077.75
725.98	1075.13
726.31	1076.72
726.64	1080.30
726.97	1077.54
727.31	1076.65
727.64	1077.33
727.97	1074.17
728.31	1073.51
728.64	1074.77
728.97	1076.15
729.31	1081.42
729.64	1086.48
729.97	1090.15
730.30	1090.74
730.64	1089.94
730.97	1086.10
731.30	1084.70
731.63	1082.05
731.97	1083.64
732.30	1081.75
732.63	1082.15
732.96	1082.43
733.30	1081.26
733.63	1082.45
733.96	1082.15
734.29	1080.65
734.63	1078.19
734.96	1081.23
735.29	1076.39
735.62	1074.45
735.95	1076.79
736.29	1078.68
736.62	1075.71
736.95	1078.26
737.28	1080.32
737.61	1080.37
737.94	1079.34
738.28	1081.77
738.61	1082.73
738.94	1086.01
739.27	1083.04
739.60	1083.36
739.93	1081.94
740.27	1079.62
740.60	1077.18
740.93	1080.74
741.26	1079.97
741.59	1078.92
741.92	1080.79
742.25	1080.34
742.58	1076.20
742.91	1075.38
743.25	1076.25
743.58	1076.32
743.91	1077.70
744.24	1080.20
744.57	1081.54
744.90	1081.09
745.23	1082.43
745.56	1083.81
745.89	1085.75
746.22	1084.86
746.55	1083.74
746.88	1083.22
747.21	1082.61
747.54	1081.68
747.87	1084.81
748.20	1086.59
748.53	1087.55
748.87	1086.17
749.20	1086.78
749.53	1085.19
749.86	1082.85
750.19	1078.28
750.52	1080.58
750.85	1079.97
751.18	1080.34
751.51	1080.70
751.84	1082.80
752.16	1082.03
752.49	1078.71
752.82	1079.03
753.15	1077.11
753.48	1079.76
753.81	1077.42
754.14	1075.27
754.47	1074.24
754.80	1074.80
755.13	1070.96
755.46	1073.04
755.79	1077.14
756.12	1077.18
756.45	1074.38
756.78	1075.48
757.11	1072.08
757.43	1072.97
757.76	1075.10
758.09	1081.14
758.42	1079.38
758.75	1082.05
759.08	1081.16
759.41	1077.40
759.74	1077.75
760.07	1077.65
760.39	1077.47
760.72	1077.61
761.05	1080.37
761.38	1081.09
761.71	1084.42
762.04	1085.47
762.36	1086.41
762.69	1085.96
763.02	1083.39
763.35	1079.64
763.68	1079.53
764.01	1078.00
