SpectraSuite Data File
++++++++++++++++++++++++++++++++++++
Date: Mon Aug 26 10:22:27 PDT 2019
User: corrico
Dark Spectrum Present: No
Reference Spectrum Present: No
Number of Sampled Component Spectra: 1
Spectrometers: USB2+H06089
Integration Time (usec): 2000 (USB2+H06089)
Spectra Averaged: 20 (USB2+H06089)
Boxcar Smoothing: 2 (USB2+H06089)
Correct for Electrical Dark: No (USB2+H06089)
Strobe/Lamp Enabled: No (USB2+H06089)
Correct for Detector Non-linearity: No (USB2+H06089)
Correct for Stray Light: No (USB2+H06089)
Number of Pixels in Processed Spectrum: 2048
>>>>>Begin Processed Spectral Data<<<<<
339.70	1020.12
340.07	1020.12
340.45	992.93
340.82	972.84
341.19	951.10
341.57	926.10
341.94	911.17
342.31	902.84
342.69	894.79
343.06	893.97
343.43	892.31
343.81	896.31
344.18	898.13
344.55	906.00
344.93	908.85
345.30	917.40
345.67	926.55
346.04	931.91
346.42	939.23
346.79	948.29
347.16	956.90
347.54	965.26
347.91	976.40
348.28	987.00
348.65	995.94
349.03	1005.45
349.40	1011.23
349.77	1019.49
350.14	1024.05
350.52	1030.28
350.89	1036.83
351.26	1043.90
351.63	1047.72
352.01	1055.37
352.38	1060.31
352.75	1065.32
353.12	1067.80
353.50	1072.41
353.87	1075.71
354.24	1077.65
354.61	1079.50
354.98	1082.40
355.36	1083.15
355.73	1083.43
356.10	1084.02
356.47	1082.94
356.84	1085.66
357.22	1086.48
357.59	1088.26
357.96	1090.85
358.33	1091.84
358.70	1088.84
359.08	1090.15
359.45	1092.54
359.82	1090.39
360.19	1090.29
360.56	1091.04
360.94	1087.65
361.31	1079.46
361.68	1078.05
362.05	1076.69
362.42	1075.24
362.79	1072.69
363.16	1075.31
363.54	1075.45
363.91	1076.58
364.28	1075.50
364.65	1077.82
365.02	1075.59
365.39	1072.06
365.76	1071.12
366.14	1071.08
366.51	1074.31
366.88	1076.86
367.25	1079.50
367.62	1078.75
367.99	1080.77
368.36	1075.78
368.73	1073.16
369.10	1075.03
369.48	1074.05
369.85	1069.74
370.22	1073.18
370.59	1073.25
370.96	1070.51
371.33	1072.18
371.70	1075.05
372.07	1073.84
372.44	1075.36
372.81	1079.38
373.18	1077.40
373.55	1075.92
373.93	1075.29
374.30	1074.21
374.67	1069.67
375.04	1068.38
375.41	1070.44
375.78	1072.20
376.15	1070.94
376.52	1073.58
376.89	1077.65
377.26	1078.73
377.63	1077.82
378.00	1077.84
378.37	1079.62
378.74	1080.41
379.11	1079.22
379.48	1076.46
379.85	1080.53
380.22	1079.92
380.59	1078.17
380.96	1080.30
381.33	1084.21
381.70	1083.86
382.07	1084.74
382.44	1085.40
382.81	1081.87
383.18	1080.56
383.55	1078.73
383.92	1079.20
384.29	1077.25
384.66	1079.22
385.03	1079.41
385.40	1079.64
385.77	1080.51
386.14	1084.93
386.51	1083.11
386.88	1084.07
387.25	1084.98
387.62	1080.63
387.99	1077.75
388.36	1081.00
388.73	1077.84
389.10	1079.43
389.46	1080.27
389.83	1079.81
390.20	1076.46
390.57	1076.51
390.94	1074.38
391.31	1075.73
391.68	1077.40
392.05	1081.35
392.42	1087.37
392.79	1089.71
393.16	1090.03
393.53	1086.85
393.89	1086.90
394.26	1088.19
394.63	1086.48
395.00	1088.02
395.37	1091.81
395.74	1091.49
396.11	1089.38
396.48	1090.46
396.84	1090.06
397.21	1090.03
397.58	1092.16
397.95	1091.09
398.32	1088.02
398.69	1089.99
399.06	1087.30
399.42	1084.04
399.79	1086.27
400.16	1089.80
400.53	1087.65
400.90	1090.67
401.27	1090.76
401.64	1091.74
402.00	1089.52
402.37	1090.39
402.74	1092.14
403.11	1091.67
403.48	1087.93
403.84	1091.86
404.21	1091.23
404.58	1092.12
404.95	1093.40
405.32	1093.40
405.68	1089.78
406.05	1089.92
406.42	1088.63
406.79	1091.67
407.16	1092.82
407.52	1097.76
407.89	1098.53
408.26	1096.99
408.63	1095.51
408.99	1096.85
409.36	1095.30
409.73	1096.75
410.10	1097.55
410.47	1095.23
410.83	1095.35
411.20	1098.13
411.57	1094.20
411.94	1097.20
412.30	1102.30
412.67	1101.60
413.04	1097.24
413.40	1096.96
413.77	1094.41
414.14	1092.40
414.51	1090.20
414.87	1093.43
415.24	1098.02
415.61	1100.03
415.97	1099.58
416.34	1102.09
416.71	1100.15
417.08	1099.47
417.44	1098.16
417.81	1099.07
418.18	1102.67
418.54	1106.70
418.91	1109.55
419.28	1110.79
419.64	1110.75
420.01	1109.51
420.38	1109.23
420.74	1109.60
421.11	1112.27
421.48	1112.99
421.84	1116.34
422.21	1119.55
422.58	1122.54
422.94	1123.22
423.31	1129.31
423.68	1132.12
424.04	1134.97
424.41	1136.12
424.77	1142.42
425.14	1145.32
425.51	1147.38
425.87	1150.82
426.24	1157.65
426.61	1160.27
426.97	1167.53
427.34	1175.81
427.70	1182.06
428.07	1184.33
428.44	1192.11
428.80	1195.62
429.17	1200.88
429.53	1209.82
429.90	1220.78
430.27	1230.44
430.63	1242.24
431.00	1249.00
431.36	1255.56
431.73	1265.39
432.09	1277.25
432.46	1292.51
432.83	1311.85
433.19	1333.33
433.56	1352.83
433.92	1373.43
434.29	1390.63
434.65	1416.59
435.02	1438.07
435.38	1468.85
435.75	1490.64
436.11	1521.96
436.48	1552.17
436.84	1590.04
437.21	1624.66
437.57	1668.15
437.94	1711.91
438.30	1752.41
438.67	1796.08
439.03	1845.00
439.40	1900.94
439.76	1955.70
440.13	2018.10
440.49	2078.54
440.86	2142.85
441.22	2215.29
441.59	2287.90
441.95	2367.78
442.32	2454.54
442.68	2549.90
443.05	2642.77
443.41	2740.81
443.78	2836.82
444.14	2944.96
444.51	3052.50
444.87	3188.84
445.24	3330.65
445.60	3495.10
445.96	3651.31
446.33	3829.65
446.69	3990.82
447.06	4168.70
447.42	4341.81
447.79	4533.45
448.15	4748.50
448.51	4974.50
448.88	5236.60
449.24	5483.41
449.61	5768.67
449.97	6038.28
450.33	6324.71
450.70	6583.74
451.06	6898.71
451.43	7194.88
451.79	7561.87
452.15	7957.73
452.52	8403.39
452.88	8884.65
453.24	9415.23
453.61	9985.19
453.97	10549.10
454.34	11088.33
454.70	11734.04
455.06	12373.55
455.43	12998.75
455.79	13601.91
456.15	14323.56
456.52	14964.50
456.88	15746.19
457.24	16473.70
457.61	17312.64
457.97	18087.19
458.33	18856.50
458.70	19595.29
459.06	20351.00
459.42	21182.71
459.79	21956.57
460.15	22869.19
460.51	23741.76
460.88	24665.27
461.24	25461.73
461.60	26444.29
461.96	27307.52
462.33	28150.91
462.69	28933.23
463.05	29775.94
463.42	30466.68
463.78	31095.80
464.14	31626.91
464.50	32213.52
464.87	32688.02
465.23	33037.97
465.59	33401.60
465.95	33719.07
466.32	33979.13
466.68	34200.47
467.04	34325.78
467.40	34475.44
467.77	34612.92
468.13	34608.96
468.49	34515.55
468.85	34453.25
469.22	34285.52
469.58	33954.36
469.94	33696.90
470.30	33392.68
470.66	32977.02
471.03	32395.94
471.39	32031.92
471.75	31406.81
472.11	30822.98
472.47	30468.91
472.84	30162.41
473.20	29674.74
473.56	29381.89
473.92	28972.46
474.28	28451.69
474.65	27941.90
475.01	27446.29
475.37	26868.09
475.73	26371.12
476.09	25846.33
476.45	25321.81
476.81	24805.93
477.18	24291.11
477.54	23846.52
477.90	23470.14
478.26	23056.08
478.62	22710.76
478.98	22428.35
479.34	22101.75
479.71	21696.41
480.07	21355.73
480.43	21009.19
480.79	20606.08
481.15	20254.88
481.51	19954.10
481.87	19700.34
482.23	19381.91
482.59	19119.51
482.96	18837.10
483.32	18529.90
483.68	18140.06
484.04	17811.90
484.40	17473.57
484.76	17103.56
485.12	16738.04
485.48	16421.88
485.84	16075.81
486.20	15720.16
486.56	15368.61
486.92	15057.77
487.28	14710.31
487.64	14350.88
488.00	14017.09
488.37	13686.28
488.73	13330.76
489.09	12980.63
489.45	12689.50
489.81	12368.16
490.17	12074.64
490.53	11806.81
490.89	11517.19
491.25	11203.89
491.61	10914.85
491.97	10605.60
492.33	10276.17
492.69	9975.62
493.05	9671.63
493.41	9380.82
493.77	9104.80
494.13	8851.88
494.49	8609.08
494.85	8377.99
495.21	8154.52
495.57	7940.60
495.93	7720.21
496.29	7513.00
496.64	7327.61
497.00	7128.36
497.36	6932.15
497.72	6749.66
498.08	6566.65
498.44	6384.05
498.80	6215.34
499.16	6058.13
499.52	5910.70
499.88	5780.84
500.24	5664.99
500.60	5547.77
500.96	5440.60
501.32	5331.74
501.68	5214.92
502.03	5077.82
502.39	4949.88
502.75	4804.89
503.11	4672.13
503.47	4554.52
503.83	4436.84
504.19	4324.30
504.55	4223.80
504.91	4129.15
505.26	4033.05
505.62	3953.82
505.98	3866.64
506.34	3772.87
506.70	3677.05
507.06	3584.23
507.42	3497.13
507.78	3421.75
508.13	3354.43
508.49	3282.95
508.85	3214.21
509.21	3146.38
509.57	3074.50
509.93	3004.59
510.28	2942.24
510.64	2880.87
511.00	2814.61
511.36	2755.14
511.72	2705.50
512.07	2653.28
512.43	2599.35
512.79	2549.52
513.15	2503.98
513.51	2455.71
513.86	2407.40
514.22	2367.85
514.58	2331.83
514.94	2293.70
515.30	2255.53
515.65	2221.78
516.01	2194.02
516.37	2161.60
516.73	2132.27
517.08	2103.70
517.44	2077.06
517.80	2047.24
518.16	2020.23
518.51	1990.91
518.87	1958.82
519.23	1928.34
519.59	1899.60
519.94	1869.71
520.30	1847.53
520.66	1826.30
521.01	1804.88
521.37	1781.94
521.73	1764.48
522.09	1740.91
522.44	1721.35
522.80	1701.22
523.16	1680.43
523.51	1654.81
523.87	1643.78
524.23	1626.39
524.58	1608.21
524.94	1593.55
525.30	1580.31
525.65	1560.88
526.01	1545.85
526.37	1533.43
526.72	1522.21
527.08	1510.79
527.44	1495.65
527.79	1485.23
528.15	1472.78
528.51	1453.29
528.86	1441.93
529.22	1429.76
529.58	1416.07
529.93	1407.18
530.29	1401.11
530.65	1392.38
531.00	1385.57
531.36	1377.57
531.71	1364.20
532.07	1354.30
532.43	1344.17
532.78	1335.56
533.14	1326.43
533.49	1319.62
533.85	1313.44
534.21	1306.51
534.56	1300.57
534.92	1296.70
535.27	1294.53
535.63	1288.00
535.98	1281.44
536.34	1272.99
536.69	1264.10
537.05	1256.45
537.41	1251.48
537.76	1247.62
538.12	1240.25
538.47	1237.58
538.83	1232.15
539.18	1227.99
539.54	1224.64
539.89	1223.30
540.25	1221.48
540.60	1219.84
540.96	1217.34
541.31	1213.57
541.67	1211.32
542.02	1207.81
542.38	1204.93
542.73	1202.47
543.09	1198.42
543.44	1195.15
543.80	1192.50
544.15	1189.06
544.51	1185.81
544.86	1179.93
545.22	1176.42
545.57	1169.54
545.93	1166.97
546.28	1164.11
546.64	1163.95
546.99	1163.50
547.35	1163.55
547.70	1163.27
548.05	1160.30
548.41	1159.64
548.76	1158.85
549.12	1157.44
549.47	1153.35
549.83	1151.15
550.18	1149.60
550.53	1147.38
550.89	1145.95
551.24	1144.29
551.60	1143.87
551.95	1142.63
552.30	1139.51
552.66	1133.19
553.01	1131.51
553.37	1129.12
553.72	1124.96
554.07	1123.97
554.43	1129.43
554.78	1126.38
555.13	1126.62
555.49	1129.05
555.84	1127.95
556.19	1125.19
556.55	1126.97
556.90	1124.21
557.26	1123.04
557.61	1124.07
557.96	1121.91
558.32	1121.89
558.67	1122.83
559.02	1121.02
559.37	1115.97
559.73	1115.15
560.08	1112.43
560.43	1116.06
560.79	1116.30
561.14	1116.04
561.49	1117.72
561.85	1118.57
562.20	1113.53
562.55	1111.71
562.90	1113.98
563.26	1110.91
563.61	1107.26
563.96	1108.36
564.32	1109.91
564.67	1107.14
565.02	1108.01
565.37	1108.92
565.73	1104.73
566.08	1100.61
566.43	1100.87
566.78	1097.92
567.14	1098.67
567.49	1097.69
567.84	1101.20
568.19	1101.53
568.54	1103.00
568.90	1102.09
569.25	1106.02
569.60	1102.84
569.95	1103.70
570.31	1101.06
570.66	1100.03
571.01	1098.39
571.36	1100.12
571.71	1097.06
572.06	1097.17
572.42	1098.20
572.77	1097.27
573.12	1098.65
573.47	1102.67
573.82	1103.73
574.18	1099.51
574.53	1095.30
574.88	1091.70
575.23	1086.01
575.58	1087.39
575.93	1088.75
576.28	1094.36
576.64	1096.05
576.99	1099.96
577.34	1097.78
577.69	1103.07
578.04	1101.74
578.39	1097.64
578.74	1094.83
579.09	1095.91
579.44	1094.20
579.80	1095.25
580.15	1095.67
580.50	1094.46
580.85	1095.04
581.20	1091.81
581.55	1090.15
581.90	1090.29
582.25	1092.19
582.60	1089.89
582.95	1092.94
583.30	1090.81
583.65	1092.33
584.00	1091.23
584.35	1092.00
584.71	1089.94
585.06	1093.05
585.41	1091.25
585.76	1090.46
586.11	1087.53
586.46	1089.03
586.81	1088.93
587.16	1090.43
587.51	1089.47
587.86	1090.15
588.21	1087.88
588.56	1084.44
588.91	1085.66
589.26	1087.90
589.61	1089.47
589.96	1090.01
590.31	1091.46
590.66	1087.86
591.01	1088.00
591.36	1086.66
591.71	1085.42
592.06	1084.70
592.41	1083.86
592.76	1082.97
593.10	1084.09
593.45	1084.09
593.80	1082.92
594.15	1084.93
594.50	1085.56
594.85	1083.29
595.20	1081.58
595.55	1082.59
595.90	1079.78
596.25	1078.89
596.60	1083.53
596.95	1085.66
597.30	1087.37
597.64	1100.64
597.99	1105.44
598.34	1101.81
598.69	1097.85
599.04	1094.90
599.39	1086.17
599.74	1079.71
600.09	1081.44
600.44	1085.66
600.78	1087.83
601.13	1085.89
601.48	1089.14
601.83	1085.75
602.18	1087.32
602.53	1087.34
602.88	1086.31
603.22	1084.09
603.57	1085.07
603.92	1083.06
604.27	1083.69
604.62	1083.93
604.97	1083.53
605.31	1084.74
605.66	1082.45
606.01	1078.68
606.36	1079.69
606.71	1079.31
607.05	1079.53
607.40	1081.28
607.75	1083.15
608.10	1081.91
608.44	1080.06
608.79	1079.88
609.14	1080.67
609.49	1081.07
609.84	1084.60
610.18	1089.10
610.53	1086.34
610.88	1086.69
611.23	1086.48
611.57	1084.02
611.92	1080.44
612.27	1080.51
612.62	1080.79
612.96	1082.43
613.31	1085.07
613.66	1084.21
614.00	1087.27
614.35	1084.25
614.70	1080.93
615.05	1078.54
615.39	1081.02
615.74	1077.51
616.09	1079.85
616.43	1079.50
616.78	1080.91
617.13	1079.85
617.47	1082.64
617.82	1080.25
618.17	1080.06
618.51	1078.92
618.86	1080.30
619.21	1078.87
619.55	1077.44
619.90	1079.46
620.25	1079.20
620.59	1081.02
620.94	1079.24
621.29	1081.91
621.63	1084.44
621.98	1086.13
622.32	1081.94
622.67	1085.61
623.02	1087.37
623.36	1085.82
623.71	1084.60
624.05	1088.96
624.40	1087.69
624.75	1086.71
625.09	1088.58
625.44	1086.80
625.78	1084.93
626.13	1084.58
626.48	1086.50
626.82	1083.55
627.17	1086.52
627.51	1084.67
627.86	1086.20
628.20	1082.31
628.55	1081.35
628.89	1080.77
629.24	1083.20
629.58	1083.60
629.93	1086.92
630.28	1088.16
630.62	1089.29
630.97	1087.83
631.31	1086.73
631.66	1084.18
632.00	1082.17
632.35	1081.68
632.69	1082.43
633.04	1082.05
633.38	1082.22
633.73	1083.13
634.07	1082.64
634.42	1082.22
634.76	1083.32
635.11	1083.95
635.45	1085.56
635.79	1081.66
636.14	1080.46
636.48	1078.85
636.83	1077.23
637.17	1076.83
637.52	1077.37
637.86	1078.75
638.21	1080.32
638.55	1081.77
638.89	1081.63
639.24	1082.12
639.58	1082.45
639.93	1081.63
640.27	1080.74
640.61	1079.38
640.96	1079.62
641.30	1079.03
641.65	1080.11
641.99	1080.56
642.33	1080.11
642.68	1082.90
643.02	1084.18
643.37	1085.99
643.71	1088.26
644.05	1088.40
644.40	1087.65
644.74	1089.94
645.08	1085.19
645.43	1082.45
645.77	1082.31
646.11	1081.84
646.46	1077.40
646.80	1078.12
647.14	1077.75
647.49	1078.12
647.83	1078.10
648.17	1077.77
648.52	1081.33
648.86	1081.37
649.20	1085.35
649.55	1081.84
649.89	1082.99
650.23	1077.89
650.57	1079.10
650.92	1080.09
651.26	1082.43
651.60	1081.82
651.95	1084.25
652.29	1083.34
652.63	1080.06
652.97	1081.12
653.32	1079.10
653.66	1082.61
654.00	1084.04
654.34	1083.08
654.69	1080.34
655.03	1084.91
655.37	1083.04
655.71	1081.23
656.05	1082.40
656.40	1085.40
656.74	1081.70
657.08	1079.01
657.42	1080.74
657.76	1077.16
658.11	1076.08
658.45	1080.09
658.79	1081.94
659.13	1083.64
659.47	1085.35
659.82	1085.42
660.16	1083.69
660.50	1080.63
660.84	1079.46
661.18	1075.78
661.52	1075.52
661.87	1075.92
662.21	1080.16
662.55	1078.59
662.89	1083.53
663.23	1083.95
663.57	1083.74
663.91	1082.71
664.25	1082.99
664.60	1081.33
664.94	1081.58
665.28	1080.30
665.62	1077.02
665.96	1077.35
666.30	1078.28
666.64	1081.51
666.98	1079.60
667.32	1081.44
667.66	1081.63
668.01	1079.29
668.35	1074.28
668.69	1074.52
669.03	1076.46
669.37	1076.88
669.71	1082.50
670.05	1087.72
670.39	1090.43
670.73	1089.33
671.07	1086.57
671.41	1085.40
671.75	1080.98
672.09	1079.36
672.43	1077.54
672.77	1082.61
673.11	1082.80
673.45	1080.32
673.79	1080.27
674.13	1081.58
674.47	1077.47
674.81	1075.83
675.15	1077.54
675.49	1078.36
675.83	1075.01
676.17	1074.24
676.51	1077.54
676.85	1079.41
677.19	1076.06
677.53	1080.65
677.87	1084.91
678.21	1083.50
678.55	1083.43
678.89	1087.46
679.23	1084.37
679.57	1083.18
679.90	1079.67
680.24	1080.84
680.58	1081.80
680.92	1081.12
681.26	1077.91
681.60	1078.10
681.94	1079.64
682.28	1077.35
682.62	1082.57
682.96	1083.60
683.29	1082.33
683.63	1079.53
683.97	1080.79
684.31	1075.99
684.65	1078.17
684.99	1081.28
685.33	1080.39
685.67	1083.01
686.00	1087.72
686.34	1084.65
686.68	1084.18
687.02	1083.06
687.36	1078.54
687.70	1076.69
688.03	1078.75
688.37	1081.21
688.71	1082.90
689.05	1084.86
689.39	1082.73
689.72	1082.59
690.06	1080.48
690.40	1081.35
690.74	1081.16
691.08	1080.58
691.41	1081.26
691.75	1079.85
692.09	1081.84
692.43	1084.09
692.76	1086.64
693.10	1085.66
693.44	1085.68
693.78	1081.84
694.11	1079.97
694.45	1080.48
694.79	1080.77
695.13	1080.84
695.46	1084.35
695.80	1083.50
696.14	1085.42
696.48	1083.55
696.81	1082.78
697.15	1083.62
697.49	1081.89
697.82	1077.18
698.16	1076.48
698.50	1077.79
698.83	1074.19
699.17	1077.02
699.51	1078.10
699.84	1078.47
700.18	1080.27
700.52	1077.56
700.85	1077.47
701.19	1080.18
701.53	1083.41
701.86	1081.30
702.20	1084.02
702.54	1079.71
702.87	1076.83
703.21	1074.91
703.55	1073.63
703.88	1072.36
704.22	1075.73
704.55	1078.33
704.89	1078.57
705.23	1078.94
705.56	1081.51
705.90	1079.24
706.23	1077.00
706.57	1076.51
706.91	1078.07
707.24	1077.14
707.58	1082.54
707.91	1084.86
708.25	1084.86
708.58	1085.59
708.92	1085.70
709.26	1083.57
709.59	1081.23
709.93	1082.52
710.26	1081.49
710.60	1081.75
710.93	1079.92
711.27	1078.66
711.60	1077.47
711.94	1080.67
712.27	1081.44
712.61	1081.75
712.94	1084.39
713.28	1086.13
713.61	1082.59
713.95	1080.34
714.28	1081.12
714.62	1079.85
714.95	1078.45
715.29	1079.48
715.62	1082.01
715.96	1079.43
716.29	1081.56
716.63	1082.66
716.96	1083.88
717.29	1080.86
717.63	1081.89
717.96	1078.59
718.30	1077.56
718.63	1075.27
718.97	1077.14
719.30	1078.82
719.63	1079.43
719.97	1082.05
720.30	1082.61
720.64	1078.28
720.97	1076.88
721.30	1076.06
721.64	1072.29
721.97	1071.68
722.31	1075.08
722.64	1074.82
722.97	1076.01
723.31	1077.33
723.64	1076.20
723.97	1075.17
724.31	1075.52
724.64	1079.50
724.98	1080.11
725.31	1081.49
725.64	1083.25
725.98	1084.00
726.31	1083.50
726.64	1082.57
726.97	1080.91
727.31	1079.78
727.64	1080.51
727.97	1077.75
728.31	1078.43
728.64	1079.95
728.97	1080.09
729.31	1079.88
729.64	1080.88
729.97	1080.39
730.30	1083.57
730.64	1084.28
730.97	1083.50
731.30	1081.51
731.63	1080.27
731.97	1079.13
732.30	1080.41
732.63	1083.46
732.96	1083.13
733.30	1086.38
733.63	1081.42
733.96	1082.45
734.29	1083.27
734.63	1082.85
734.96	1082.33
735.29	1085.38
735.62	1082.52
735.95	1079.57
736.29	1081.12
736.62	1080.98
736.95	1081.37
737.28	1083.15
737.61	1082.59
737.94	1080.74
738.28	1078.28
738.61	1077.82
738.94	1074.73
739.27	1074.61
739.60	1076.39
739.93	1078.05
740.27	1079.08
740.60	1081.61
740.93	1081.94
741.26	1081.14
741.59	1078.73
741.92	1076.08
742.25	1076.11
742.58	1075.10
742.91	1076.79
743.25	1079.13
743.58	1083.81
743.91	1079.36
744.24	1080.67
744.57	1081.37
744.90	1078.43
745.23	1073.81
745.56	1074.03
745.89	1073.60
746.22	1071.17
746.55	1073.53
746.88	1076.79
747.21	1078.85
747.54	1079.50
747.87	1078.54
748.20	1079.36
748.53	1079.97
748.87	1080.39
749.20	1077.30
749.53	1080.18
749.86	1082.15
750.19	1079.50
750.52	1080.23
750.85	1083.69
751.18	1082.50
751.51	1079.06
751.84	1081.42
752.16	1079.46
752.49	1076.76
752.82	1076.18
753.15	1076.13
753.48	1071.75
753.81	1072.92
754.14	1071.54
754.47	1072.88
754.80	1076.41
755.13	1078.21
755.46	1080.98
755.79	1086.71
756.12	1087.11
756.45	1083.22
756.78	1082.94
757.11	1081.66
757.43	1083.11
757.76	1081.68
758.09	1085.49
758.42	1084.96
758.75	1084.86
759.08	1079.92
759.41	1079.13
759.74	1076.74
760.07	1078.73
760.39	1075.03
760.72	1075.85
761.05	1074.94
761.38	1073.39
761.71	1075.24
762.04	1078.94
762.36	1077.98
762.69	1078.78
763.02	1079.46
763.35	1077.00
763.68	1075.22
764.01	1077.77
