SpectraSuite Data File
++++++++++++++++++++++++++++++++++++
Date: Mon Aug 26 10:22:21 PDT 2019
User: corrico
Dark Spectrum Present: No
Reference Spectrum Present: No
Number of Sampled Component Spectra: 1
Spectrometers: USB2+H06089
Integration Time (usec): 2000 (USB2+H06089)
Spectra Averaged: 20 (USB2+H06089)
Boxcar Smoothing: 2 (USB2+H06089)
Correct for Electrical Dark: No (USB2+H06089)
Strobe/Lamp Enabled: No (USB2+H06089)
Correct for Detector Non-linearity: No (USB2+H06089)
Correct for Stray Light: No (USB2+H06089)
Number of Pixels in Processed Spectrum: 2048
>>>>>Begin Processed Spectral Data<<<<<
339.70	1011.81
340.07	1011.81
340.45	984.01
340.82	965.68
341.19	947.43
341.57	926.27
341.94	917.12
342.31	909.72
342.69	905.74
343.06	901.18
343.43	896.94
343.81	897.13
344.18	902.11
344.55	902.18
344.93	905.76
345.30	913.60
345.67	918.17
346.04	924.21
346.42	936.03
346.79	944.10
347.16	950.14
347.54	961.73
347.91	974.76
348.28	984.08
348.65	993.23
349.03	1006.10
349.40	1012.00
349.77	1017.36
350.14	1023.82
350.52	1032.01
350.89	1039.36
351.26	1045.45
351.63	1049.43
352.01	1056.42
352.38	1062.95
352.75	1065.15
353.12	1068.74
353.50	1071.61
353.87	1069.58
354.24	1071.26
354.61	1069.23
354.98	1071.92
355.36	1075.17
355.73	1079.08
356.10	1080.86
356.47	1086.90
356.84	1088.56
357.22	1086.85
357.59	1085.21
357.96	1083.39
358.33	1083.39
358.70	1082.05
359.08	1081.33
359.45	1081.30
359.82	1080.44
360.19	1080.09
360.56	1080.58
360.94	1080.27
361.31	1080.84
361.68	1079.97
362.05	1076.11
362.42	1073.79
362.79	1073.18
363.16	1075.41
363.54	1075.62
363.91	1079.55
364.28	1078.40
364.65	1079.99
365.02	1077.79
365.39	1076.39
365.76	1076.53
366.14	1076.41
366.51	1073.30
366.88	1070.75
367.25	1071.33
367.62	1069.65
367.99	1070.05
368.36	1070.21
368.73	1074.33
369.10	1074.96
369.48	1074.14
369.85	1073.16
370.22	1074.80
370.59	1073.88
370.96	1074.21
371.33	1075.29
371.70	1076.88
372.07	1075.48
372.44	1073.11
372.81	1073.02
373.18	1072.48
373.55	1072.15
373.93	1071.47
374.30	1070.96
374.67	1070.94
375.04	1069.62
375.41	1068.10
375.78	1071.26
376.15	1075.38
376.52	1076.06
376.89	1079.03
377.26	1082.31
377.63	1079.57
378.00	1076.83
378.37	1077.82
378.74	1075.62
379.11	1075.52
379.48	1079.81
379.85	1082.69
380.22	1082.54
380.59	1083.60
380.96	1083.86
381.33	1081.58
381.70	1077.72
382.07	1074.66
382.44	1074.33
382.81	1075.57
383.18	1075.85
383.55	1079.78
383.92	1081.84
384.29	1084.91
384.66	1084.07
385.03	1086.52
385.40	1083.83
385.77	1084.37
386.14	1081.05
386.51	1081.07
386.88	1077.33
387.25	1078.05
387.62	1079.31
387.99	1082.85
388.36	1081.68
388.73	1081.75
389.10	1081.73
389.46	1082.76
389.83	1082.64
390.20	1083.97
390.57	1089.14
390.94	1089.31
391.31	1086.85
391.68	1087.18
392.05	1088.33
392.42	1087.51
392.79	1086.13
393.16	1087.34
393.53	1083.60
393.89	1082.15
394.26	1078.40
394.63	1081.37
395.00	1083.46
395.37	1085.00
395.74	1087.02
396.11	1088.84
396.48	1090.20
396.84	1085.91
397.21	1086.90
397.58	1084.86
397.95	1084.98
398.32	1085.24
398.69	1089.00
399.06	1088.72
399.42	1087.23
399.79	1087.62
400.16	1085.91
400.53	1086.01
400.90	1085.91
401.27	1088.98
401.64	1091.37
402.00	1095.23
402.37	1093.52
402.74	1093.31
403.11	1094.01
403.48	1091.16
403.84	1087.32
404.21	1085.80
404.58	1088.49
404.95	1088.68
405.32	1090.50
405.68	1089.73
406.05	1092.09
406.42	1092.28
406.79	1091.09
407.16	1091.58
407.52	1095.79
407.89	1094.57
408.26	1095.51
408.63	1095.96
408.99	1095.35
409.36	1094.74
409.73	1097.69
410.10	1097.01
410.47	1100.47
410.83	1102.13
411.20	1098.62
411.57	1096.38
411.94	1093.83
412.30	1092.47
412.67	1092.84
413.04	1098.81
413.40	1099.37
413.77	1101.76
414.14	1101.43
414.51	1099.84
414.87	1095.42
415.24	1097.03
415.61	1099.09
415.97	1101.06
416.34	1104.08
416.71	1109.98
417.08	1111.52
417.44	1111.05
417.81	1107.49
418.18	1108.66
418.54	1102.32
418.91	1103.66
419.28	1103.21
419.64	1108.41
420.01	1109.55
420.38	1115.01
420.74	1113.88
421.11	1117.21
421.48	1117.58
421.84	1115.12
422.21	1116.86
422.58	1121.73
422.94	1123.43
423.31	1125.40
423.68	1130.62
424.04	1131.63
424.41	1131.39
424.77	1134.22
425.14	1139.26
425.51	1144.01
425.87	1151.12
426.24	1158.89
426.61	1162.99
426.97	1168.68
427.34	1172.94
427.70	1179.79
428.07	1182.39
428.44	1189.06
428.80	1195.41
429.17	1206.38
429.53	1211.86
429.90	1227.70
430.27	1238.31
430.63	1248.93
431.00	1257.99
431.36	1269.62
431.73	1276.97
432.09	1287.93
432.46	1298.74
432.83	1313.02
433.19	1328.25
433.56	1346.28
433.92	1369.40
434.29	1391.03
434.65	1415.42
435.02	1445.56
435.38	1476.04
435.75	1500.63
436.11	1532.96
436.48	1563.57
436.84	1595.45
437.21	1629.81
437.57	1667.61
437.94	1708.26
438.30	1750.30
438.67	1795.85
439.03	1842.31
439.40	1904.28
439.76	1958.61
440.13	2018.83
440.49	2085.25
440.86	2153.95
441.22	2220.65
441.59	2296.39
441.95	2378.76
442.32	2460.21
442.68	2557.04
443.05	2649.88
443.41	2753.38
443.78	2852.57
444.14	2961.43
444.51	3069.12
444.87	3208.99
445.24	3351.67
445.60	3508.84
445.96	3665.14
446.33	3836.02
446.69	3997.63
447.06	4169.20
447.42	4350.35
447.79	4545.30
448.15	4765.71
448.51	5001.89
448.88	5268.03
449.24	5520.13
449.61	5801.67
449.97	6073.60
450.33	6357.97
450.70	6614.33
451.06	6934.42
451.43	7238.69
451.79	7606.20
452.15	8000.00
452.52	8461.36
452.88	8932.44
453.24	9475.07
453.61	10049.68
453.97	10628.14
454.34	11177.49
454.70	11822.54
455.06	12458.23
455.43	13104.40
455.79	13700.00
456.15	14412.32
456.52	15081.22
456.88	15848.89
457.24	16574.48
457.61	17430.44
457.97	18218.36
458.33	19005.76
458.70	19781.62
459.06	20545.64
459.42	21381.99
459.79	22151.39
460.15	23047.89
460.51	23917.93
460.88	24856.14
461.24	25673.24
461.60	26649.90
461.96	27531.46
462.33	28382.88
462.69	29192.71
463.05	30047.75
463.42	30778.30
463.78	31443.72
464.14	31988.94
464.50	32582.62
464.87	33044.06
465.23	33375.81
465.59	33723.61
465.95	34060.97
466.32	34301.53
466.68	34543.62
467.04	34713.68
467.40	34843.39
467.77	34983.99
468.13	34966.95
468.49	34864.22
468.85	34783.15
469.22	34638.17
469.58	34295.50
469.94	34039.70
470.30	33739.69
470.66	33319.75
471.03	32721.60
471.39	32325.23
471.75	31721.68
472.11	31135.84
472.47	30794.92
472.84	30465.04
473.20	29978.99
473.56	29713.36
473.92	29278.30
474.28	28743.60
474.65	28277.58
475.01	27813.19
475.37	27225.56
475.73	26779.03
476.09	26259.83
476.45	25746.52
476.81	25231.70
477.18	24693.89
477.54	24226.53
477.90	23871.08
478.26	23430.38
478.62	23083.00
478.98	22798.99
479.34	22488.34
479.71	22054.40
480.07	21690.12
480.43	21316.50
480.79	20925.44
481.15	20536.54
481.51	20232.13
481.87	19992.58
482.23	19711.69
482.59	19458.44
482.96	19193.47
483.32	18905.14
483.68	18522.44
484.04	18172.95
484.40	17805.16
484.76	17439.19
485.12	17054.55
485.48	16714.37
485.84	16366.13
486.20	15988.43
486.56	15612.50
486.92	15307.43
487.28	14968.40
487.64	14604.01
488.00	14278.79
488.37	13951.09
488.73	13581.61
489.09	13233.06
489.45	12920.44
489.81	12606.15
490.17	12310.94
490.53	12033.21
490.89	11730.48
491.25	11419.66
491.61	11105.61
491.97	10772.32
492.33	10427.39
492.69	10130.61
493.05	9831.14
493.41	9541.45
493.77	9268.33
494.13	9021.22
494.49	8759.22
494.85	8507.89
495.21	8272.88
495.57	8056.66
495.93	7840.28
496.29	7637.57
496.64	7457.86
497.00	7261.75
497.36	7063.53
497.72	6871.25
498.08	6681.22
498.44	6490.91
498.80	6319.66
499.16	6154.25
499.52	6003.64
499.88	5870.34
500.24	5749.64
500.60	5624.40
500.96	5505.36
501.32	5374.29
501.68	5255.46
502.03	5123.69
502.39	4998.71
502.75	4865.15
503.11	4741.67
503.47	4616.73
503.83	4495.40
504.19	4382.11
504.55	4279.27
504.91	4185.51
505.26	4096.41
505.62	4009.76
505.98	3920.56
506.34	3827.62
506.70	3729.55
507.06	3634.90
507.42	3543.78
507.78	3465.58
508.13	3390.06
508.49	3322.46
508.85	3249.72
509.21	3185.63
509.57	3111.37
509.93	3045.08
510.28	2976.65
510.64	2909.50
511.00	2841.62
511.36	2783.44
511.72	2723.70
512.07	2672.33
512.43	2626.62
512.79	2577.47
513.15	2524.90
513.51	2480.80
513.86	2435.33
514.22	2391.11
514.58	2349.90
514.94	2316.40
515.30	2280.95
515.65	2242.42
516.01	2211.71
516.37	2183.60
516.73	2152.17
517.08	2123.54
517.44	2094.97
517.80	2063.32
518.16	2034.04
518.51	2005.39
518.87	1973.54
519.23	1945.90
519.59	1919.85
519.94	1891.95
520.30	1865.88
520.66	1839.45
521.01	1816.72
521.37	1794.79
521.73	1773.12
522.09	1749.53
522.44	1734.76
522.80	1713.83
523.16	1695.41
523.51	1676.17
523.87	1661.29
524.23	1641.30
524.58	1622.93
524.94	1605.94
525.30	1589.06
525.65	1569.02
526.01	1549.43
526.37	1536.40
526.72	1519.97
527.08	1506.91
527.44	1498.06
527.79	1486.38
528.15	1474.68
528.51	1463.77
528.86	1452.26
529.22	1435.52
529.58	1424.96
529.93	1411.06
530.29	1400.67
530.65	1389.83
531.00	1383.09
531.36	1373.73
531.71	1367.18
532.07	1356.93
532.43	1347.45
532.78	1339.89
533.14	1333.26
533.49	1321.77
533.85	1316.39
534.21	1310.11
534.56	1303.98
534.92	1298.30
535.27	1296.17
535.63	1290.55
535.98	1285.45
536.34	1279.69
536.69	1273.35
537.05	1263.42
537.41	1257.85
537.76	1253.08
538.12	1246.45
538.47	1241.21
538.83	1240.06
539.18	1236.53
539.54	1232.55
539.89	1231.40
540.25	1229.20
540.60	1223.47
540.96	1219.72
541.31	1214.93
541.67	1208.04
542.02	1201.35
542.38	1200.32
542.73	1195.43
543.09	1193.13
543.44	1194.14
543.80	1192.53
544.15	1187.87
544.51	1185.88
544.86	1183.82
545.22	1178.23
545.57	1176.87
545.93	1176.45
546.28	1173.26
546.64	1171.11
546.99	1172.05
547.35	1170.46
547.70	1169.43
548.05	1168.16
548.41	1166.27
548.76	1165.35
549.12	1161.98
549.47	1157.79
549.83	1155.80
550.18	1154.12
550.53	1147.89
550.89	1142.32
551.24	1138.81
551.60	1136.68
551.95	1133.71
552.30	1133.43
552.66	1138.16
553.01	1136.59
553.37	1133.01
553.72	1133.15
554.07	1131.74
554.43	1131.63
554.78	1130.95
555.13	1132.14
555.49	1124.86
555.84	1122.90
556.19	1119.13
556.55	1119.78
556.90	1117.35
557.26	1122.61
557.61	1123.11
557.96	1120.18
558.32	1120.06
558.67	1118.71
559.02	1119.97
559.37	1119.20
559.73	1122.15
560.08	1120.18
560.43	1120.98
560.79	1119.41
561.14	1120.20
561.49	1118.52
561.85	1121.37
562.20	1121.63
562.55	1119.01
562.90	1115.83
563.26	1113.81
563.61	1108.06
563.96	1106.14
564.32	1106.07
564.67	1104.45
565.02	1104.80
565.37	1104.29
565.73	1102.86
566.08	1101.88
566.43	1098.69
566.78	1097.24
567.14	1097.99
567.49	1098.09
567.84	1098.09
568.19	1101.22
568.54	1100.80
568.90	1102.56
569.25	1101.48
569.60	1099.75
569.95	1097.80
570.31	1100.00
570.66	1099.28
571.01	1099.51
571.36	1096.96
571.71	1098.93
572.06	1095.44
572.42	1093.69
572.77	1092.37
573.12	1094.81
573.47	1093.03
573.82	1094.34
574.18	1095.63
574.53	1098.18
574.88	1096.42
575.23	1096.96
575.58	1096.31
575.93	1094.36
576.28	1095.65
576.64	1096.05
576.99	1095.25
577.34	1094.22
577.69	1094.46
578.04	1091.23
578.39	1091.67
578.74	1092.37
579.09	1090.99
579.44	1089.87
579.80	1089.31
580.15	1088.12
580.50	1089.14
580.85	1093.29
581.20	1096.68
581.55	1098.39
581.90	1099.72
582.25	1099.75
582.60	1096.45
582.95	1092.91
583.30	1092.35
583.65	1091.34
584.00	1091.60
584.35	1091.13
584.71	1093.22
585.06	1092.12
585.41	1090.41
585.76	1090.34
586.11	1090.50
586.46	1086.17
586.81	1086.73
587.16	1086.59
587.51	1084.96
587.86	1086.17
588.21	1089.26
588.56	1090.43
588.91	1090.74
589.26	1089.12
589.61	1086.99
589.96	1084.67
590.31	1084.35
590.66	1088.86
591.01	1091.42
591.36	1090.17
591.71	1088.61
592.06	1086.15
592.41	1082.36
592.76	1081.33
593.10	1083.18
593.45	1087.41
593.80	1086.08
594.15	1084.07
594.50	1084.32
594.85	1084.56
595.20	1084.07
595.55	1085.17
595.90	1087.30
596.25	1085.21
596.60	1081.94
596.95	1081.33
597.30	1080.81
597.64	1091.09
597.99	1092.56
598.34	1095.56
598.69	1094.86
599.04	1095.56
599.39	1087.60
599.74	1088.21
600.09	1088.21
600.44	1089.50
600.78	1088.26
601.13	1086.76
601.48	1084.04
601.83	1084.44
602.18	1083.41
602.53	1086.85
602.88	1086.27
603.22	1088.35
603.57	1089.05
603.92	1091.77
604.27	1092.61
604.62	1091.32
604.97	1092.47
605.31	1094.25
605.66	1091.81
606.01	1090.97
606.36	1091.23
606.71	1090.34
607.05	1090.20
607.40	1087.83
607.75	1084.74
608.10	1082.43
608.44	1078.54
608.79	1077.25
609.14	1077.65
609.49	1076.69
609.84	1078.64
610.18	1083.06
610.53	1082.76
610.88	1085.47
611.23	1086.22
611.57	1088.09
611.92	1085.82
612.27	1084.89
612.62	1085.56
612.96	1086.29
613.31	1085.17
613.66	1083.76
614.00	1080.98
614.35	1079.50
614.70	1078.66
615.05	1074.75
615.39	1076.81
615.74	1078.17
616.09	1075.87
616.43	1079.74
616.78	1083.57
617.13	1084.32
617.47	1084.42
617.82	1085.28
618.17	1084.11
618.51	1084.30
618.86	1083.46
619.21	1083.62
619.55	1084.42
619.90	1084.93
620.25	1082.47
620.59	1084.44
620.94	1084.14
621.29	1080.86
621.63	1077.96
621.98	1078.75
622.32	1076.34
622.67	1077.04
623.02	1082.15
623.36	1083.79
623.71	1085.26
624.05	1083.55
624.40	1084.96
624.75	1084.81
625.09	1080.58
625.44	1076.15
625.78	1078.03
626.13	1077.00
626.48	1076.30
626.82	1079.92
627.17	1084.63
627.51	1084.91
627.86	1086.55
628.20	1086.24
628.55	1085.28
628.89	1086.41
629.24	1084.86
629.58	1081.09
629.93	1080.70
630.28	1078.21
630.62	1074.61
630.97	1076.44
631.31	1075.03
631.66	1073.70
632.00	1078.31
632.35	1079.62
632.69	1080.44
633.04	1082.29
633.38	1085.19
633.73	1085.42
634.07	1082.61
634.42	1080.46
634.76	1082.03
635.11	1076.90
635.45	1075.22
635.79	1076.79
636.14	1079.85
636.48	1079.46
636.83	1082.01
637.17	1077.89
637.52	1081.98
637.86	1082.45
638.21	1084.18
638.55	1085.17
638.89	1089.64
639.24	1087.04
639.58	1084.98
639.93	1081.05
640.27	1078.78
640.61	1080.27
640.96	1083.25
641.30	1083.13
641.65	1083.64
641.99	1086.83
642.33	1086.48
642.68	1084.28
643.02	1084.28
643.37	1084.81
643.71	1083.39
644.05	1080.48
644.40	1080.39
644.74	1080.53
645.08	1080.60
645.43	1080.37
645.77	1080.79
646.11	1080.02
646.46	1079.31
646.80	1081.40
647.14	1082.50
647.49	1082.71
647.83	1082.12
648.17	1083.01
648.52	1081.14
648.86	1082.43
649.20	1082.15
649.55	1083.27
649.89	1082.08
650.23	1081.12
650.57	1080.86
650.92	1082.83
651.26	1081.91
651.60	1080.11
651.95	1082.36
652.29	1081.21
652.63	1081.14
652.97	1082.80
653.32	1085.80
653.66	1085.61
654.00	1086.29
654.34	1087.48
654.69	1091.25
655.03	1089.19
655.37	1086.62
655.71	1084.04
656.05	1084.02
656.40	1080.37
656.74	1080.46
657.08	1081.68
657.42	1082.87
657.76	1080.20
658.11	1077.91
658.45	1079.01
658.79	1081.87
659.13	1081.40
659.47	1083.15
659.82	1081.21
660.16	1082.05
660.50	1080.91
660.84	1084.04
661.18	1082.83
661.52	1083.64
661.87	1081.23
662.21	1081.33
662.55	1077.09
662.89	1077.84
663.23	1077.96
663.57	1081.42
663.91	1080.88
664.25	1080.32
664.60	1080.56
664.94	1083.50
665.28	1082.40
665.62	1080.53
665.96	1081.26
666.30	1081.66
666.64	1080.37
666.98	1083.53
667.32	1084.18
667.66	1085.61
668.01	1080.95
668.35	1079.67
668.69	1073.56
669.03	1074.31
669.37	1073.53
669.71	1079.29
670.05	1079.76
670.39	1082.40
670.73	1081.05
671.07	1078.73
671.41	1075.10
671.75	1079.03
672.09	1078.47
672.43	1080.51
672.77	1086.24
673.11	1086.94
673.45	1087.06
673.79	1085.47
674.13	1083.76
674.47	1081.96
674.81	1080.93
675.15	1079.38
675.49	1082.69
675.83	1081.91
676.17	1079.03
676.51	1079.08
676.85	1081.12
677.19	1080.02
677.53	1077.63
677.87	1077.56
678.21	1079.22
678.55	1075.13
678.89	1075.83
679.23	1079.71
679.57	1081.21
679.90	1079.71
680.24	1080.18
680.58	1079.29
680.92	1079.53
681.26	1077.51
681.60	1077.28
681.94	1077.86
682.28	1078.94
682.62	1078.92
682.96	1084.53
683.29	1084.74
683.63	1084.72
683.97	1085.07
684.31	1086.13
684.65	1082.24
684.99	1080.51
685.33	1079.03
685.67	1075.97
686.00	1073.23
686.34	1074.89
686.68	1075.78
687.02	1076.11
687.36	1077.35
687.70	1080.20
688.03	1081.44
688.37	1085.52
688.71	1085.66
689.05	1085.45
689.39	1085.56
689.72	1085.91
690.06	1084.72
690.40	1085.12
690.74	1085.35
691.08	1084.93
691.41	1082.92
691.75	1081.05
692.09	1080.02
692.43	1079.76
692.76	1078.73
693.10	1078.14
693.44	1078.31
693.78	1080.70
694.11	1080.81
694.45	1081.87
694.79	1084.74
695.13	1085.00
695.46	1083.22
695.80	1083.11
696.14	1084.79
696.48	1086.41
696.81	1085.33
697.15	1088.37
697.49	1088.26
697.82	1084.44
698.16	1079.60
698.50	1082.33
698.83	1079.69
699.17	1080.32
699.51	1080.30
699.84	1079.29
700.18	1079.15
700.52	1080.67
700.85	1078.92
701.19	1080.23
701.53	1082.78
701.86	1080.70
702.20	1082.08
702.54	1086.48
702.87	1085.91
703.21	1083.69
703.55	1083.29
703.88	1077.56
704.22	1073.53
704.55	1075.01
704.89	1077.82
705.23	1080.04
705.56	1079.71
705.90	1080.86
706.23	1079.48
706.57	1079.74
706.91	1077.75
707.24	1082.31
707.58	1082.99
707.91	1078.99
708.25	1076.44
708.58	1078.31
708.92	1076.53
709.26	1074.59
709.59	1075.59
709.93	1078.31
710.26	1078.52
710.60	1077.75
710.93	1077.72
711.27	1082.31
711.60	1079.17
711.94	1076.81
712.27	1077.23
712.61	1079.20
712.94	1078.59
713.28	1079.01
713.61	1081.51
713.95	1082.26
714.28	1084.18
714.62	1083.76
714.95	1085.28
715.29	1086.17
715.62	1087.11
715.96	1087.65
716.29	1087.83
716.63	1087.16
716.96	1086.71
717.29	1087.44
717.63	1082.78
717.96	1084.53
718.30	1084.58
718.63	1082.73
718.97	1080.88
719.30	1080.74
719.63	1076.01
719.97	1076.13
720.30	1076.34
720.64	1077.23
720.97	1075.99
721.30	1080.09
721.64	1077.14
721.97	1075.20
722.31	1075.55
722.64	1079.41
722.97	1077.35
723.31	1079.78
723.64	1081.37
723.97	1082.26
724.31	1080.46
724.64	1081.70
724.98	1081.00
725.31	1082.50
725.64	1080.67
725.98	1083.34
726.31	1081.87
726.64	1082.10
726.97	1078.73
727.31	1079.03
727.64	1077.21
727.97	1077.28
728.31	1075.15
728.64	1078.78
728.97	1075.27
729.31	1073.95
729.64	1072.76
729.97	1074.05
730.30	1071.45
730.64	1072.83
730.97	1074.70
731.30	1076.48
731.63	1075.45
731.97	1075.05
732.30	1077.30
732.63	1076.95
732.96	1077.35
733.30	1078.85
733.63	1082.29
733.96	1083.29
734.29	1081.19
734.63	1078.21
734.96	1078.12
735.29	1077.21
735.62	1072.41
735.95	1072.18
736.29	1073.86
736.62	1073.00
736.95	1070.70
737.28	1074.24
737.61	1075.36
737.94	1078.45
738.28	1077.93
738.61	1076.48
738.94	1074.19
739.27	1075.41
739.60	1072.01
739.93	1075.01
740.27	1075.52
740.60	1077.21
740.93	1078.26
741.26	1077.21
741.59	1075.92
741.92	1078.66
742.25	1081.26
742.58	1082.40
742.91	1085.03
743.25	1085.42
743.58	1086.57
743.91	1084.70
744.24	1079.15
744.57	1080.60
744.90	1081.47
745.23	1079.60
745.56	1079.13
745.89	1079.08
746.22	1076.97
746.55	1077.25
746.88	1074.54
747.21	1072.15
747.54	1077.49
747.87	1079.53
748.20	1078.36
748.53	1082.45
748.87	1083.97
749.20	1080.65
749.53	1078.92
749.86	1079.22
750.19	1077.82
750.52	1077.72
750.85	1079.01
751.18	1077.98
751.51	1077.16
751.84	1079.43
752.16	1079.85
752.49	1081.73
752.82	1083.50
753.15	1083.97
753.48	1079.06
753.81	1077.96
754.14	1074.77
754.47	1073.60
754.80	1072.64
755.13	1074.40
755.46	1076.60
755.79	1079.15
756.12	1079.99
756.45	1084.14
756.78	1085.54
757.11	1084.25
757.43	1083.13
757.76	1084.81
758.09	1083.64
758.42	1082.03
758.75	1082.71
759.08	1084.81
759.41	1079.69
759.74	1076.81
760.07	1076.58
760.39	1077.02
760.72	1073.21
761.05	1076.55
761.38	1077.37
761.71	1076.58
762.04	1073.23
762.36	1073.46
762.69	1074.98
763.02	1075.62
763.35	1076.46
763.68	1078.73
764.01	1077.42
