SpectraSuite Data File
++++++++++++++++++++++++++++++++++++
Date: Mon Aug 26 10:22:23 PDT 2019
User: corrico
Dark Spectrum Present: No
Reference Spectrum Present: No
Number of Sampled Component Spectra: 1
Spectrometers: USB2+H06089
Integration Time (usec): 2000 (USB2+H06089)
Spectra Averaged: 20 (USB2+H06089)
Boxcar Smoothing: 2 (USB2+H06089)
Correct for Electrical Dark: No (USB2+H06089)
Strobe/Lamp Enabled: No (USB2+H06089)
Correct for Detector Non-linearity: No (USB2+H06089)
Correct for Stray Light: No (USB2+H06089)
Number of Pixels in Processed Spectrum: 2048
>>>>>Begin Processed Spectral Data<<<<<
339.70	1031.24
340.07	1031.24
340.45	996.97
340.82	971.51
341.19	946.07
341.57	920.04
341.94	910.66
342.31	901.08
342.69	900.10
343.06	896.89
343.43	896.28
343.81	896.03
344.18	897.64
344.55	904.27
344.93	912.60
345.30	919.41
345.67	929.01
346.04	937.36
346.42	942.44
346.79	949.46
347.16	958.87
347.54	963.79
347.91	972.52
348.28	981.18
348.65	990.05
349.03	998.47
349.40	1009.08
349.77	1019.77
350.14	1027.80
350.52	1037.37
350.89	1043.06
351.26	1048.56
351.63	1053.31
352.01	1059.72
352.38	1061.95
352.75	1067.40
353.12	1074.40
353.50	1077.37
353.87	1080.58
354.24	1083.81
354.61	1085.19
354.98	1084.67
355.36	1087.79
355.73	1086.83
356.10	1087.76
356.47	1089.14
356.84	1090.81
357.22	1086.99
357.59	1085.26
357.96	1086.64
358.33	1087.34
358.70	1084.84
359.08	1085.03
359.45	1085.05
359.82	1084.56
360.19	1080.02
360.56	1080.18
360.94	1081.51
361.31	1081.63
361.68	1078.26
362.05	1079.08
362.42	1077.47
362.79	1076.18
363.16	1073.81
363.54	1074.12
363.91	1073.25
364.28	1074.47
364.65	1071.78
365.02	1073.00
365.39	1072.81
365.76	1073.18
366.14	1071.19
366.51	1070.87
366.88	1072.76
367.25	1073.37
367.62	1075.94
367.99	1078.07
368.36	1081.35
368.73	1077.00
369.10	1074.35
369.48	1074.26
369.85	1075.87
370.22	1074.31
370.59	1077.82
370.96	1078.24
371.33	1075.66
371.70	1070.02
372.07	1071.19
372.44	1070.87
372.81	1070.80
373.18	1069.91
373.55	1073.74
373.93	1074.42
374.30	1076.27
374.67	1078.66
375.04	1080.06
375.41	1079.13
375.78	1077.28
376.15	1078.03
376.52	1080.13
376.89	1082.26
377.26	1083.11
377.63	1087.25
378.00	1087.62
378.37	1085.19
378.74	1083.76
379.11	1084.67
379.48	1084.11
379.85	1080.86
380.22	1081.05
380.59	1083.90
380.96	1081.05
381.33	1078.47
381.70	1078.14
382.07	1073.93
382.44	1070.21
382.81	1071.22
383.18	1069.86
383.55	1072.76
383.92	1076.37
384.29	1076.46
384.66	1080.16
385.03	1081.68
385.40	1081.70
385.77	1082.99
386.14	1088.30
386.51	1085.10
386.88	1087.25
387.25	1086.31
387.62	1087.67
387.99	1084.28
388.36	1081.77
388.73	1081.33
389.10	1081.49
389.46	1080.39
389.83	1076.97
390.20	1084.09
390.57	1082.78
390.94	1081.49
391.31	1080.39
391.68	1083.41
392.05	1083.15
392.42	1085.33
392.79	1085.61
393.16	1080.95
393.53	1079.29
393.89	1077.35
394.26	1074.31
394.63	1077.00
395.00	1082.36
395.37	1083.95
395.74	1085.96
396.11	1086.01
396.48	1085.28
396.84	1083.46
397.21	1082.94
397.58	1079.78
397.95	1081.12
398.32	1082.85
398.69	1088.47
399.06	1092.77
399.42	1093.22
399.79	1094.76
400.16	1093.12
400.53	1090.78
400.90	1088.68
401.27	1090.57
401.64	1092.14
402.00	1092.89
402.37	1093.55
402.74	1091.51
403.11	1090.50
403.48	1091.23
403.84	1093.45
404.21	1094.08
404.58	1095.93
404.95	1095.53
405.32	1093.05
405.68	1091.72
406.05	1090.64
406.42	1093.90
406.79	1096.92
407.16	1097.66
407.52	1096.21
407.89	1093.78
408.26	1092.47
408.63	1091.81
408.99	1092.98
409.36	1096.89
409.73	1103.75
410.10	1104.62
410.47	1104.97
410.83	1103.94
411.20	1100.92
411.57	1098.62
411.94	1097.31
412.30	1095.07
412.67	1095.75
413.04	1098.83
413.40	1096.89
413.77	1097.43
414.14	1099.14
414.51	1099.19
414.87	1097.69
415.24	1096.52
415.61	1097.66
415.97	1097.97
416.34	1098.51
416.71	1098.58
417.08	1100.99
417.44	1102.42
417.81	1103.31
418.18	1104.01
418.54	1103.28
418.91	1106.79
419.28	1105.18
419.64	1109.20
420.01	1111.94
420.38	1118.85
420.74	1118.26
421.11	1118.66
421.48	1118.42
421.84	1119.43
422.21	1119.55
422.58	1123.74
422.94	1128.86
423.31	1132.87
423.68	1134.18
424.04	1132.12
424.41	1134.74
424.77	1139.21
425.14	1143.23
425.51	1145.25
425.87	1152.13
426.24	1158.80
426.61	1161.70
426.97	1166.85
427.34	1175.74
427.70	1182.53
428.07	1187.94
428.44	1194.80
428.80	1200.18
429.17	1206.69
429.53	1214.97
429.90	1222.23
430.27	1232.46
430.63	1241.79
431.00	1254.22
431.36	1265.53
431.73	1278.92
432.09	1294.36
432.46	1309.39
432.83	1325.19
433.19	1337.43
433.56	1352.13
433.92	1368.18
434.29	1390.47
434.65	1412.56
435.02	1439.08
435.38	1466.37
435.75	1492.86
436.11	1521.35
436.48	1552.29
436.84	1590.07
437.21	1622.16
437.57	1663.04
437.94	1705.69
438.30	1749.39
438.67	1794.37
439.03	1846.82
439.40	1900.14
439.76	1955.45
440.13	2017.87
440.49	2084.93
440.86	2152.52
441.22	2222.06
441.59	2291.81
441.95	2373.14
442.32	2455.99
442.68	2551.63
443.05	2646.21
443.41	2749.66
443.78	2847.33
444.14	2957.48
444.51	3067.25
444.87	3204.52
445.24	3346.45
445.60	3500.93
445.96	3656.57
446.33	3828.02
446.69	3989.79
447.06	4162.83
447.42	4340.41
447.79	4532.96
448.15	4753.23
448.51	4984.99
448.88	5260.54
449.24	5514.91
449.61	5794.84
449.97	6067.96
450.33	6345.10
450.70	6593.48
451.06	6917.64
451.43	7221.33
451.79	7589.37
452.15	8007.86
452.52	8470.73
452.88	8938.48
453.24	9464.89
453.61	10037.53
453.97	10596.07
454.34	11134.58
454.70	11775.00
455.06	12421.04
455.43	13051.67
455.79	13647.06
456.15	14366.96
456.52	15023.73
456.88	15793.28
457.24	16500.19
457.61	17348.87
457.97	18124.17
458.33	18909.09
458.70	19678.85
459.06	20464.24
459.42	21307.70
459.79	22095.20
460.15	23010.67
460.51	23885.21
460.88	24819.49
461.24	25626.64
461.60	26576.29
461.96	27451.86
462.33	28283.83
462.69	29075.19
463.05	29921.48
463.42	30656.38
463.78	31295.21
464.14	31819.49
464.50	32393.22
464.87	32856.77
465.23	33200.80
465.59	33539.57
465.95	33898.40
466.32	34173.72
466.68	34421.65
467.04	34576.99
467.40	34730.83
467.77	34872.93
468.13	34855.49
468.49	34768.85
468.85	34679.86
469.22	34517.54
469.58	34160.05
469.94	33913.80
470.30	33602.44
470.66	33190.01
471.03	32594.04
471.39	32213.17
471.75	31574.46
472.11	30966.69
472.47	30611.98
472.84	30307.22
473.20	29841.46
473.56	29586.24
473.92	29162.91
474.28	28634.28
474.65	28144.82
475.01	27653.45
475.37	27076.32
475.73	26608.10
476.09	26077.20
476.45	25554.91
476.81	25047.17
477.18	24494.74
477.54	24042.36
477.90	23688.70
478.26	23264.25
478.62	22887.26
478.98	22607.00
479.34	22274.53
479.71	21857.87
480.07	21506.55
480.43	21153.06
480.79	20759.36
481.15	20404.49
481.51	20085.12
481.87	19837.40
482.23	19549.77
482.59	19300.64
482.96	19035.13
483.32	18761.24
483.68	18374.59
484.04	18033.06
484.40	17668.10
484.76	17289.82
485.12	16890.50
485.48	16573.15
485.84	16232.39
486.20	15868.83
486.56	15493.64
486.92	15197.64
487.28	14842.62
487.64	14481.39
488.00	14162.58
488.37	13856.35
488.73	13496.28
489.09	13150.25
489.45	12843.92
489.81	12523.39
490.17	12210.01
490.53	11933.39
490.89	11619.29
491.25	11313.80
491.61	11002.18
491.97	10692.22
492.33	10359.19
492.69	10084.90
493.05	9774.55
493.41	9481.07
493.77	9196.85
494.13	8943.28
494.49	8675.38
494.85	8431.71
495.21	8209.12
495.57	7998.24
495.93	7789.02
496.29	7590.12
496.64	7415.03
497.00	7211.61
497.36	7022.96
497.72	6825.84
498.08	6640.47
498.44	6447.03
498.80	6287.08
499.16	6124.67
499.52	5969.51
499.88	5839.87
500.24	5727.99
500.60	5604.74
500.96	5483.10
501.32	5362.94
501.68	5241.58
502.03	5103.33
502.39	4975.04
502.75	4838.21
503.11	4719.81
503.47	4594.92
503.83	4475.39
504.19	4355.06
504.55	4250.72
504.91	4149.70
505.26	4052.26
505.62	3972.29
505.98	3885.10
506.34	3793.54
506.70	3701.21
507.06	3611.42
507.42	3520.89
507.78	3445.22
508.13	3371.49
508.49	3297.49
508.85	3229.33
509.21	3160.05
509.57	3090.33
509.93	3020.25
510.28	2955.68
510.64	2892.36
511.00	2828.02
511.36	2766.33
511.72	2710.69
512.07	2656.48
512.43	2602.77
512.79	2549.45
513.15	2500.37
513.51	2451.59
513.86	2406.91
514.22	2367.71
514.58	2330.28
514.94	2297.17
515.30	2268.75
515.65	2232.26
516.01	2198.56
516.37	2170.89
516.73	2137.66
517.08	2106.62
517.44	2076.80
517.80	2046.54
518.16	2014.83
518.51	1986.48
518.87	1958.86
519.23	1931.29
519.59	1908.19
519.94	1883.99
520.30	1862.08
520.66	1836.45
521.01	1817.17
521.37	1790.63
521.73	1768.72
522.09	1746.74
522.44	1725.70
522.80	1708.47
523.16	1689.75
523.51	1668.57
523.87	1650.87
524.23	1633.88
524.58	1613.26
524.94	1600.55
525.30	1585.74
525.65	1569.70
526.01	1553.55
526.37	1538.69
526.72	1523.20
527.08	1509.34
527.44	1493.96
527.79	1481.07
528.15	1467.05
528.51	1453.85
528.86	1441.07
529.22	1431.59
529.58	1421.03
529.93	1410.52
530.29	1397.63
530.65	1388.99
531.00	1377.62
531.36	1368.75
531.71	1360.32
532.07	1353.67
532.43	1342.46
532.78	1333.40
533.14	1326.52
533.49	1319.20
533.85	1315.29
534.21	1312.76
534.56	1308.85
534.92	1301.08
535.27	1294.48
535.63	1288.39
535.98	1280.62
536.34	1274.98
536.69	1267.28
537.05	1261.57
537.41	1253.19
537.76	1251.13
538.12	1248.02
538.47	1245.89
538.83	1244.25
539.18	1241.89
539.54	1233.67
539.89	1228.57
540.25	1228.48
540.60	1221.50
540.96	1217.22
541.31	1218.83
541.67	1215.53
542.02	1209.64
542.38	1206.73
542.73	1199.17
543.09	1191.75
543.44	1186.23
543.80	1182.53
544.15	1181.24
544.51	1182.06
544.86	1181.62
545.22	1177.90
545.57	1174.79
545.93	1172.44
546.28	1170.67
546.64	1170.22
546.99	1170.38
547.35	1169.05
547.70	1164.67
548.05	1162.59
548.41	1159.20
548.76	1158.89
549.12	1153.37
549.47	1152.90
549.83	1150.19
550.18	1146.04
550.53	1141.55
550.89	1144.10
551.24	1143.02
551.60	1141.97
551.95	1141.46
552.30	1142.37
552.66	1139.44
553.01	1137.83
553.37	1135.89
553.72	1136.10
554.07	1135.60
554.43	1134.57
554.78	1132.84
555.13	1132.98
555.49	1130.69
555.84	1126.59
556.19	1125.75
556.55	1123.74
556.90	1123.93
557.26	1122.73
557.61	1123.81
557.96	1121.40
558.32	1121.40
558.67	1118.03
559.02	1118.85
559.37	1115.62
559.73	1116.01
560.08	1115.97
560.43	1119.90
560.79	1122.26
561.14	1123.74
561.49	1125.33
561.85	1124.88
562.20	1118.52
562.55	1112.41
562.90	1108.76
563.26	1106.16
563.61	1104.52
563.96	1107.38
564.32	1106.42
564.67	1111.57
565.02	1110.21
565.37	1109.58
565.73	1106.75
566.08	1107.33
566.43	1103.77
566.78	1103.80
567.14	1104.73
567.49	1104.50
567.84	1102.74
568.19	1100.96
568.54	1099.98
568.90	1100.52
569.25	1102.11
569.60	1104.48
569.95	1105.62
570.31	1104.43
570.66	1102.65
571.01	1100.08
571.36	1101.01
571.71	1101.48
572.06	1104.78
572.42	1103.38
572.77	1102.16
573.12	1096.33
573.47	1093.03
573.82	1090.50
574.18	1094.53
574.53	1094.97
574.88	1095.98
575.23	1096.85
575.58	1094.08
575.93	1091.42
576.28	1092.02
576.64	1094.32
576.99	1095.98
577.34	1100.03
577.69	1098.95
578.04	1099.58
578.39	1099.51
578.74	1097.97
579.09	1096.45
579.44	1099.37
579.80	1098.20
580.15	1100.87
580.50	1102.23
580.85	1102.09
581.20	1099.42
581.55	1098.95
581.90	1093.85
582.25	1091.53
582.60	1092.49
582.95	1092.00
583.30	1090.92
583.65	1089.73
584.00	1090.36
584.35	1091.70
584.71	1088.35
585.06	1086.48
585.41	1085.63
585.76	1086.20
586.11	1084.49
586.46	1088.75
586.81	1093.69
587.16	1096.56
587.51	1093.90
587.86	1093.17
588.21	1092.19
588.56	1089.17
588.91	1087.79
589.26	1089.07
589.61	1088.89
589.96	1085.56
590.31	1086.22
590.66	1089.80
591.01	1086.48
591.36	1085.61
591.71	1089.00
592.06	1089.07
592.41	1087.79
592.76	1094.08
593.10	1093.64
593.45	1092.68
593.80	1092.40
594.15	1091.06
594.50	1088.75
594.85	1090.15
595.20	1090.60
595.55	1089.82
595.90	1090.97
596.25	1090.22
596.60	1090.95
596.95	1087.34
597.30	1087.23
597.64	1096.89
597.99	1098.37
598.34	1092.45
598.69	1096.00
599.04	1096.00
599.39	1084.56
599.74	1081.23
600.09	1084.32
600.44	1081.96
600.78	1080.25
601.13	1080.51
601.48	1079.38
601.83	1081.30
602.18	1082.80
602.53	1082.52
602.88	1082.12
603.22	1085.07
603.57	1084.91
603.92	1085.56
604.27	1088.68
604.62	1088.49
604.97	1087.25
605.31	1086.55
605.66	1085.96
606.01	1083.34
606.36	1086.10
606.71	1086.66
607.05	1086.43
607.40	1087.60
607.75	1088.37
608.10	1085.63
608.44	1088.00
608.79	1090.06
609.14	1089.00
609.49	1090.95
609.84	1092.16
610.18	1088.75
610.53	1083.71
610.88	1085.21
611.23	1081.37
611.57	1081.77
611.92	1080.81
612.27	1082.66
612.62	1081.40
612.96	1083.69
613.31	1082.08
613.66	1086.71
614.00	1088.33
614.35	1085.73
614.70	1088.51
615.05	1088.02
615.39	1087.81
615.74	1089.36
616.09	1089.40
616.43	1088.00
616.78	1088.65
617.13	1085.63
617.47	1084.18
617.82	1087.34
618.17	1083.11
618.51	1083.29
618.86	1082.45
619.21	1080.48
619.55	1082.87
619.90	1082.08
620.25	1081.87
620.59	1082.26
620.94	1086.43
621.29	1084.28
621.63	1088.42
621.98	1086.80
622.32	1088.70
622.67	1087.32
623.02	1086.99
623.36	1083.46
623.71	1089.89
624.05	1085.70
624.40	1083.95
624.75	1083.46
625.09	1090.32
625.44	1085.59
625.78	1089.43
626.13	1089.54
626.48	1088.98
626.82	1088.23
627.17	1089.96
627.51	1089.07
627.86	1091.46
628.20	1092.59
628.55	1089.03
628.89	1086.13
629.24	1085.75
629.58	1083.08
629.93	1079.90
630.28	1080.70
630.62	1080.70
630.97	1083.39
631.31	1082.76
631.66	1085.77
632.00	1086.36
632.35	1086.43
632.69	1084.72
633.04	1085.75
633.38	1085.40
633.73	1083.18
634.07	1082.47
634.42	1082.10
634.76	1086.10
635.11	1086.22
635.45	1087.37
635.79	1090.53
636.14	1088.21
636.48	1079.64
636.83	1080.20
637.17	1078.82
637.52	1076.60
637.86	1079.60
638.21	1083.27
638.55	1080.88
638.89	1077.49
639.24	1078.78
639.58	1075.78
639.93	1076.11
640.27	1076.08
640.61	1083.34
640.96	1084.35
641.30	1085.03
641.65	1086.08
641.99	1086.29
642.33	1083.60
642.68	1080.41
643.02	1080.51
643.37	1078.66
643.71	1079.76
644.05	1079.34
644.40	1081.00
644.74	1078.61
645.08	1082.59
645.43	1080.44
645.77	1077.30
646.11	1076.11
646.46	1081.14
646.80	1077.35
647.14	1078.52
647.49	1081.75
647.83	1082.76
648.17	1082.08
648.52	1083.08
648.86	1085.19
649.20	1086.64
649.55	1084.39
649.89	1084.67
650.23	1081.80
650.57	1080.27
650.92	1081.02
651.26	1082.64
651.60	1081.58
651.95	1084.72
652.29	1084.81
652.63	1084.09
652.97	1083.11
653.32	1082.19
653.66	1085.31
654.00	1084.46
654.34	1082.26
654.69	1084.77
655.03	1088.14
655.37	1082.45
655.71	1080.67
656.05	1080.44
656.40	1076.72
656.74	1076.90
657.08	1077.33
657.42	1080.48
657.76	1080.72
658.11	1085.07
658.45	1084.42
658.79	1087.72
659.13	1087.88
659.47	1092.68
659.82	1089.43
660.16	1086.97
660.50	1086.64
660.84	1088.86
661.18	1084.16
661.52	1084.72
661.87	1083.55
662.21	1081.19
662.55	1079.81
662.89	1080.27
663.23	1077.07
663.57	1078.28
663.91	1081.96
664.25	1081.91
664.60	1080.30
664.94	1082.90
665.28	1083.81
665.62	1081.21
665.96	1080.09
666.30	1081.66
666.64	1085.31
666.98	1086.08
667.32	1083.32
667.66	1084.58
668.01	1086.59
668.35	1082.47
668.69	1082.94
669.03	1084.37
669.37	1083.36
669.71	1080.23
670.05	1083.32
670.39	1080.65
670.73	1082.29
671.07	1081.44
671.41	1081.80
671.75	1081.58
672.09	1083.27
672.43	1083.48
672.77	1082.22
673.11	1080.13
673.45	1080.98
673.79	1078.40
674.13	1076.69
674.47	1074.68
674.81	1075.31
675.15	1072.83
675.49	1072.67
675.83	1073.49
676.17	1076.88
676.51	1077.84
676.85	1078.64
677.19	1082.43
677.53	1081.49
677.87	1080.93
678.21	1082.33
678.55	1082.12
678.89	1082.12
679.23	1080.72
679.57	1079.99
679.90	1082.31
680.24	1083.62
680.58	1082.29
680.92	1085.70
681.26	1084.56
681.60	1082.66
681.94	1081.82
682.28	1080.23
682.62	1077.42
682.96	1078.54
683.29	1080.37
683.63	1080.04
683.97	1079.38
684.31	1078.89
684.65	1079.22
684.99	1078.47
685.33	1074.73
685.67	1080.30
686.00	1083.86
686.34	1083.08
686.68	1082.99
687.02	1087.06
687.36	1083.97
687.70	1081.89
688.03	1081.98
688.37	1080.86
688.71	1081.80
689.05	1081.58
689.39	1082.22
689.72	1083.62
690.06	1081.66
690.40	1077.82
690.74	1074.84
691.08	1074.35
691.41	1074.03
691.75	1074.54
692.09	1081.47
692.43	1084.65
692.76	1086.10
693.10	1089.47
693.44	1090.60
693.78	1084.77
694.11	1084.70
694.45	1083.43
694.79	1079.15
695.13	1081.98
695.46	1082.22
695.80	1081.42
696.14	1080.30
696.48	1081.82
696.81	1079.76
697.15	1080.77
697.49	1081.75
697.82	1085.38
698.16	1085.84
698.50	1085.14
698.83	1085.42
699.17	1085.91
699.51	1083.90
699.84	1083.57
700.18	1083.97
700.52	1084.07
700.85	1080.93
701.19	1081.28
701.53	1081.14
701.86	1081.14
702.20	1081.77
702.54	1083.04
702.87	1084.86
703.21	1085.42
703.55	1084.81
703.88	1083.67
704.22	1081.56
704.55	1079.10
704.89	1079.15
705.23	1079.20
705.56	1081.82
705.90	1083.29
706.23	1082.12
706.57	1083.71
706.91	1087.46
707.24	1085.14
707.58	1086.87
707.91	1088.82
708.25	1086.97
708.58	1082.50
708.92	1081.68
709.26	1081.07
709.59	1081.09
709.93	1078.07
710.26	1077.23
710.60	1079.08
710.93	1080.65
711.27	1080.41
711.60	1082.08
711.94	1083.60
712.27	1082.12
712.61	1080.02
712.94	1081.07
713.28	1080.53
713.61	1082.83
713.95	1081.54
714.28	1081.94
714.62	1080.63
714.95	1082.10
715.29	1080.56
715.62	1081.56
715.96	1078.26
716.29	1078.61
716.63	1079.43
716.96	1079.60
717.29	1079.36
717.63	1084.14
717.96	1083.62
718.30	1080.60
718.63	1077.18
718.97	1076.30
719.30	1072.60
719.63	1070.56
719.97	1071.52
720.30	1073.23
720.64	1073.93
720.97	1075.99
721.30	1080.20
721.64	1083.11
721.97	1081.89
722.31	1082.15
722.64	1081.98
722.97	1077.93
723.31	1075.92
723.64	1077.02
723.97	1078.54
724.31	1080.67
724.64	1081.94
724.98	1081.28
725.31	1082.05
725.64	1083.11
725.98	1083.01
726.31	1086.06
726.64	1086.83
726.97	1089.61
727.31	1087.60
727.64	1084.07
727.97	1080.95
728.31	1079.50
728.64	1076.15
728.97	1075.69
729.31	1075.43
729.64	1075.48
729.97	1077.04
730.30	1076.30
730.64	1074.82
730.97	1079.03
731.30	1079.57
731.63	1078.64
731.97	1080.30
732.30	1082.66
732.63	1080.77
732.96	1082.08
733.30	1082.01
733.63	1081.51
733.96	1080.37
734.29	1077.96
734.63	1074.17
734.96	1078.28
735.29	1078.78
735.62	1077.65
735.95	1079.60
736.29	1082.97
736.62	1079.88
736.95	1078.82
737.28	1082.22
737.61	1082.94
737.94	1083.11
738.28	1082.31
738.61	1083.04
738.94	1081.09
739.27	1082.12
739.60	1081.70
739.93	1079.62
740.27	1078.64
740.60	1077.28
740.93	1074.56
741.26	1075.52
741.59	1076.41
741.92	1078.50
742.25	1082.10
742.58	1082.99
742.91	1079.97
743.25	1080.23
743.58	1077.98
743.91	1074.03
744.24	1075.08
744.57	1075.94
744.90	1077.56
745.23	1076.11
745.56	1078.10
745.89	1075.34
746.22	1077.33
746.55	1076.81
746.88	1082.36
747.21	1084.44
747.54	1088.72
747.87	1081.56
748.20	1082.99
748.53	1080.65
748.87	1077.25
749.20	1077.77
749.53	1083.64
749.86	1080.81
750.19	1082.64
750.52	1085.77
750.85	1082.40
751.18	1081.12
751.51	1079.48
751.84	1077.35
752.16	1074.66
752.49	1077.47
752.82	1076.67
753.15	1080.39
753.48	1077.93
753.81	1075.57
754.14	1072.46
754.47	1075.01
754.80	1074.68
755.13	1075.36
755.46	1077.93
755.79	1080.41
756.12	1081.40
756.45	1081.19
756.78	1083.06
757.11	1080.67
757.43	1077.23
757.76	1077.58
758.09	1078.05
758.42	1074.66
758.75	1076.51
759.08	1075.34
759.41	1070.12
759.74	1069.41
760.07	1073.11
760.39	1072.41
760.72	1076.93
761.05	1079.99
761.38	1080.72
761.71	1078.54
762.04	1078.54
762.36	1075.48
762.69	1074.10
763.02	1074.12
763.35	1075.13
763.68	1076.58
764.01	1075.87
