SpectraSuite Data File
++++++++++++++++++++++++++++++++++++
Date: Mon Aug 26 10:22:16 PDT 2019
User: corrico
Dark Spectrum Present: No
Reference Spectrum Present: No
Number of Sampled Component Spectra: 1
Spectrometers: USB2+H06089
Integration Time (usec): 2000 (USB2+H06089)
Spectra Averaged: 20 (USB2+H06089)
Boxcar Smoothing: 2 (USB2+H06089)
Correct for Electrical Dark: No (USB2+H06089)
Strobe/Lamp Enabled: No (USB2+H06089)
Correct for Detector Non-linearity: No (USB2+H06089)
Correct for Stray Light: No (USB2+H06089)
Number of Pixels in Processed Spectrum: 2048
>>>>>Begin Processed Spectral Data<<<<<
339.70	1027.14
340.07	1027.14
340.45	996.67
340.82	974.29
341.19	952.41
341.57	927.93
341.94	917.42
342.31	909.51
342.69	904.13
343.06	901.25
343.43	902.30
343.81	899.87
344.18	898.51
344.55	900.99
344.93	904.48
345.30	906.47
345.67	912.74
346.04	923.76
346.42	932.31
346.79	940.66
347.16	953.14
347.54	963.01
347.91	970.95
348.28	983.00
348.65	994.10
349.03	1001.54
349.40	1013.15
349.77	1022.11
350.14	1031.12
350.52	1038.21
350.89	1043.88
351.26	1043.90
351.63	1048.00
352.01	1050.46
352.38	1050.81
352.75	1054.86
353.12	1061.81
353.50	1066.02
353.87	1067.96
354.24	1071.19
354.61	1071.59
354.98	1071.59
355.36	1071.94
355.73	1073.63
356.10	1076.48
356.47	1079.83
356.84	1083.79
357.22	1084.23
357.59	1083.93
357.96	1080.16
358.33	1079.48
358.70	1077.86
359.08	1081.68
359.45	1081.68
359.82	1085.56
360.19	1085.07
360.56	1083.39
360.94	1082.45
361.31	1084.89
361.68	1082.38
362.05	1083.81
362.42	1083.83
362.79	1081.05
363.16	1076.32
363.54	1076.18
363.91	1070.70
364.28	1071.45
364.65	1071.05
365.02	1070.35
365.39	1071.90
365.76	1077.49
366.14	1076.04
366.51	1075.99
366.88	1079.38
367.25	1079.88
367.62	1075.55
367.99	1074.00
368.36	1074.31
368.73	1072.81
369.10	1072.67
369.48	1074.87
369.85	1078.71
370.22	1078.85
370.59	1079.99
370.96	1077.37
371.33	1074.87
371.70	1071.01
372.07	1069.72
372.44	1067.80
372.81	1068.78
373.18	1071.01
373.55	1072.39
373.93	1074.17
374.30	1075.36
374.67	1071.97
375.04	1070.19
375.41	1070.40
375.78	1069.16
376.15	1065.15
376.52	1069.91
376.89	1070.47
377.26	1070.47
377.63	1073.32
378.00	1074.98
378.37	1072.08
378.74	1071.36
379.11	1072.53
379.48	1070.98
379.85	1072.39
380.22	1074.56
380.59	1076.25
380.96	1078.10
381.33	1076.95
381.70	1078.87
382.07	1078.80
382.44	1081.66
382.81	1082.57
383.18	1084.79
383.55	1086.52
383.92	1088.77
384.29	1089.38
384.66	1087.74
385.03	1086.85
385.40	1086.34
385.77	1085.03
386.14	1080.93
386.51	1079.60
386.88	1077.35
387.25	1076.74
387.62	1078.85
387.99	1080.58
388.36	1083.48
388.73	1084.98
389.10	1083.13
389.46	1082.26
389.83	1084.32
390.20	1084.86
390.57	1087.74
390.94	1091.18
391.31	1091.11
391.68	1088.14
392.05	1085.89
392.42	1084.53
392.79	1084.11
393.16	1085.26
393.53	1085.17
393.89	1084.25
394.26	1085.80
394.63	1083.43
395.00	1082.24
395.37	1082.43
395.74	1084.63
396.11	1082.76
396.48	1085.00
396.84	1085.17
397.21	1088.49
397.58	1086.78
397.95	1086.45
398.32	1088.37
398.69	1089.19
399.06	1088.54
399.42	1089.52
399.79	1090.76
400.16	1087.39
400.53	1088.26
400.90	1086.76
401.27	1087.30
401.64	1087.58
402.00	1088.58
402.37	1087.62
402.74	1089.64
403.11	1089.12
403.48	1089.57
403.84	1092.68
404.21	1090.69
404.58	1088.23
404.95	1087.88
405.32	1088.40
405.68	1085.66
406.05	1085.87
406.42	1089.73
406.79	1090.29
407.16	1092.45
407.52	1091.95
407.89	1092.96
408.26	1093.47
408.63	1095.91
408.99	1094.34
409.36	1097.22
409.73	1100.59
410.10	1096.87
410.47	1092.47
410.83	1089.87
411.20	1087.41
411.57	1086.43
411.94	1088.23
412.30	1092.45
412.67	1095.77
413.04	1097.52
413.40	1098.20
413.77	1102.46
414.14	1102.28
414.51	1101.15
414.87	1099.70
415.24	1098.32
415.61	1095.70
415.97	1093.69
416.34	1099.23
416.71	1101.64
417.08	1102.23
417.44	1104.05
417.81	1106.35
418.18	1100.94
418.54	1100.94
418.91	1104.36
419.28	1104.10
419.64	1105.39
420.01	1110.54
420.38	1111.87
420.74	1110.02
421.11	1111.29
421.48	1114.45
421.84	1112.55
422.21	1116.20
422.58	1118.45
422.94	1120.65
423.31	1123.13
423.68	1128.42
424.04	1132.94
424.41	1137.90
424.77	1139.14
425.14	1142.37
425.51	1147.80
425.87	1151.66
426.24	1153.06
426.61	1160.13
426.97	1164.30
427.34	1166.90
427.70	1172.75
428.07	1182.91
428.44	1191.01
428.80	1201.09
429.17	1210.01
429.53	1216.49
429.90	1226.11
430.27	1233.25
430.63	1239.01
431.00	1249.40
431.36	1259.82
431.73	1270.37
432.09	1284.67
432.46	1299.07
432.83	1313.06
433.19	1328.89
433.56	1344.19
433.92	1360.37
434.29	1383.21
434.65	1406.73
435.02	1434.91
435.38	1463.44
435.75	1492.37
436.11	1521.77
436.48	1553.55
436.84	1581.34
437.21	1612.63
437.57	1650.26
437.94	1687.74
438.30	1727.74
438.67	1774.76
439.03	1827.07
439.40	1879.78
439.76	1933.68
440.13	1993.34
440.49	2056.54
440.86	2117.08
441.22	2185.85
441.59	2255.22
441.95	2332.51
442.32	2414.94
442.68	2510.72
443.05	2602.89
443.41	2707.48
443.78	2810.68
444.14	2917.20
444.51	3022.76
444.87	3158.97
445.24	3291.45
445.60	3440.96
445.96	3592.49
446.33	3765.78
446.69	3926.93
447.06	4105.74
447.42	4281.73
447.79	4472.23
448.15	4686.24
448.51	4907.80
448.88	5166.66
449.24	5411.79
449.61	5684.32
449.97	5946.51
450.33	6225.99
450.70	6477.99
451.06	6792.73
451.43	7090.02
451.79	7452.64
452.15	7850.16
452.52	8291.61
452.88	8755.05
453.24	9287.53
453.61	9850.78
453.97	10408.90
454.34	10945.75
454.70	11581.58
455.06	12197.30
455.43	12803.29
455.79	13368.84
456.15	14060.86
456.52	14677.08
456.88	15417.65
457.24	16108.85
457.61	16949.11
457.97	17703.39
458.33	18492.15
458.70	19267.06
459.06	20039.03
459.42	20845.51
459.79	21628.47
460.15	22506.29
460.51	23326.29
460.88	24227.99
461.24	25010.68
461.60	25929.98
461.96	26786.85
462.33	27624.34
462.69	28421.34
463.05	29297.91
463.42	30059.87
463.78	30711.20
464.14	31255.84
464.50	31816.87
464.87	32251.76
465.23	32565.35
465.59	32912.78
465.95	33227.56
466.32	33492.04
466.68	33712.14
467.04	33843.42
467.40	33983.62
467.77	34151.69
468.13	34144.25
468.49	34066.10
468.85	34011.80
469.22	33853.46
469.58	33510.20
469.94	33262.87
470.30	32976.42
470.66	32573.10
471.03	31974.34
471.39	31595.69
471.75	30989.02
472.11	30420.60
472.47	30068.60
472.84	29789.05
473.20	29312.21
473.56	29044.69
473.92	28612.14
474.28	28121.35
474.65	27649.75
475.01	27201.21
475.37	26656.53
475.73	26227.65
476.09	25719.35
476.45	25220.21
476.81	24711.70
477.18	24192.57
477.54	23731.32
477.90	23367.56
478.26	22938.75
478.62	22593.12
478.98	22285.15
479.34	21957.69
479.71	21531.17
480.07	21174.48
480.43	20805.96
480.79	20435.29
481.15	20081.49
481.51	19772.49
481.87	19517.35
482.23	19230.31
482.59	18972.87
482.96	18699.90
483.32	18419.74
483.68	18054.45
484.04	17721.39
484.40	17348.71
484.76	16989.62
485.12	16635.01
485.48	16309.20
485.84	15965.47
486.20	15623.59
486.56	15267.22
486.92	14946.71
487.28	14615.26
487.64	14267.65
488.00	13957.06
488.37	13634.28
488.73	13284.32
489.09	12934.97
489.45	12632.74
489.81	12314.73
490.17	12021.13
490.53	11749.28
490.89	11452.48
491.25	11156.21
491.61	10852.20
491.97	10538.96
492.33	10221.96
492.69	9925.77
493.05	9627.75
493.41	9352.31
493.77	9087.81
494.13	8835.99
494.49	8595.17
494.85	8351.41
495.21	8119.27
495.57	7894.28
495.93	7667.17
496.29	7467.27
496.64	7287.59
497.00	7102.54
497.36	6917.71
497.72	6732.20
498.08	6551.74
498.44	6376.11
498.80	6205.13
499.16	6046.00
499.52	5898.83
499.88	5763.22
500.24	5631.38
500.60	5505.24
500.96	5391.82
501.32	5275.50
501.68	5160.30
502.03	5039.71
502.39	4924.51
502.75	4790.63
503.11	4663.47
503.47	4536.96
503.83	4414.72
504.19	4288.12
504.55	4180.66
504.91	4085.69
505.26	4001.52
505.62	3919.77
505.98	3837.78
506.34	3755.72
506.70	3668.53
507.06	3580.62
507.42	3497.16
507.78	3421.28
508.13	3347.11
508.49	3276.63
508.85	3205.67
509.21	3138.21
509.57	3074.60
509.93	3013.84
510.28	2946.57
510.64	2885.76
511.00	2823.88
511.36	2764.45
511.72	2701.35
512.07	2653.42
512.43	2601.74
512.79	2551.98
513.15	2499.95
513.51	2457.66
513.86	2406.96
514.22	2363.12
514.58	2322.02
514.94	2286.80
515.30	2252.16
515.65	2222.29
516.01	2187.91
516.37	2151.96
516.73	2123.80
517.08	2092.28
517.44	2059.27
517.80	2032.40
518.16	2005.72
518.51	1975.27
518.87	1948.61
519.23	1924.51
519.59	1900.84
519.94	1878.68
520.30	1858.85
520.66	1832.80
521.01	1810.50
521.37	1790.04
521.73	1768.04
522.09	1744.14
522.44	1727.15
522.80	1705.03
523.16	1682.75
523.51	1661.99
523.87	1641.46
524.23	1619.18
524.58	1601.53
524.94	1583.61
525.30	1571.30
525.65	1557.16
526.01	1540.66
526.37	1530.90
526.72	1518.52
527.08	1505.15
527.44	1494.55
527.79	1487.39
528.15	1474.35
528.51	1461.50
528.86	1448.25
529.22	1436.69
529.58	1423.54
529.93	1412.44
530.29	1403.01
530.65	1393.27
531.00	1379.65
531.36	1370.38
531.71	1359.62
532.07	1349.27
532.43	1341.60
532.78	1339.23
533.14	1329.68
533.49	1324.88
533.85	1319.71
534.21	1313.84
534.56	1304.33
534.92	1301.81
535.27	1291.44
535.63	1284.65
535.98	1276.36
536.34	1271.17
536.69	1264.52
537.05	1259.51
537.41	1255.21
537.76	1252.19
538.12	1246.34
538.47	1239.41
538.83	1235.57
539.18	1232.92
539.54	1226.70
539.89	1224.33
540.25	1221.46
540.60	1217.64
540.96	1212.40
541.31	1209.59
541.67	1205.00
542.02	1201.26
542.38	1197.93
542.73	1195.87
543.09	1192.57
543.44	1188.08
543.80	1183.94
544.15	1181.34
544.51	1176.24
544.86	1175.32
545.22	1175.56
545.57	1179.65
545.93	1179.37
546.28	1177.73
546.64	1175.86
546.99	1173.69
547.35	1168.42
547.70	1166.08
548.05	1164.11
548.41	1159.78
548.76	1158.40
549.12	1155.76
549.47	1154.73
549.83	1149.13
550.18	1147.14
550.53	1143.70
550.89	1142.09
551.24	1137.90
551.60	1140.80
551.95	1142.70
552.30	1140.05
552.66	1139.93
553.01	1142.39
553.37	1141.50
553.72	1136.12
554.07	1135.70
554.43	1133.99
554.78	1128.86
555.13	1126.27
555.49	1125.61
555.84	1123.06
556.19	1122.54
556.55	1121.51
556.90	1118.14
557.26	1117.30
557.61	1120.09
557.96	1119.50
558.32	1121.16
558.67	1119.48
559.02	1117.98
559.37	1114.47
559.73	1112.92
560.08	1111.08
560.43	1115.52
560.79	1116.97
561.14	1115.24
561.49	1114.91
561.85	1114.12
562.20	1115.38
562.55	1114.40
562.90	1117.47
563.26	1117.04
563.61	1114.61
563.96	1111.47
564.32	1107.49
564.67	1102.84
565.02	1099.19
565.37	1100.43
565.73	1099.47
566.08	1103.00
566.43	1103.02
566.78	1104.66
567.14	1104.01
567.49	1103.73
567.84	1102.74
568.19	1107.03
568.54	1107.26
568.90	1107.85
569.25	1107.19
569.60	1105.27
569.95	1103.89
570.31	1103.19
570.66	1099.40
571.01	1098.11
571.36	1096.89
571.71	1093.03
572.06	1092.87
572.42	1093.05
572.77	1090.39
573.12	1090.39
573.47	1090.74
573.82	1087.11
574.18	1089.31
574.53	1091.84
574.88	1092.96
575.23	1091.67
575.58	1091.93
575.93	1090.50
576.28	1091.34
576.64	1089.22
576.99	1088.91
577.34	1092.77
577.69	1093.55
578.04	1092.68
578.39	1093.90
578.74	1095.37
579.09	1093.31
579.44	1092.05
579.80	1091.95
580.15	1093.24
580.50	1095.23
580.85	1095.67
581.20	1094.79
581.55	1095.77
581.90	1096.07
582.25	1094.72
582.60	1094.20
582.95	1094.83
583.30	1091.06
583.65	1088.12
584.00	1087.32
584.35	1089.94
584.71	1090.57
585.06	1092.30
585.41	1091.13
585.76	1089.26
586.11	1085.82
586.46	1084.32
586.81	1083.76
587.16	1084.07
587.51	1087.06
587.86	1088.44
588.21	1092.05
588.56	1091.86
588.91	1093.90
589.26	1092.16
589.61	1091.46
589.96	1087.97
590.31	1086.76
590.66	1087.86
591.01	1085.77
591.36	1085.07
591.71	1083.36
592.06	1083.69
592.41	1082.73
592.76	1084.35
593.10	1084.93
593.45	1087.81
593.80	1090.85
594.15	1093.97
594.50	1092.66
594.85	1090.76
595.20	1091.49
595.55	1088.40
595.90	1085.63
596.25	1087.86
596.60	1088.40
596.95	1087.23
597.30	1088.37
597.64	1094.97
597.99	1097.31
598.34	1098.86
598.69	1097.92
599.04	1096.73
599.39	1090.13
599.74	1089.38
600.09	1087.02
600.44	1088.30
600.78	1088.84
601.13	1087.74
601.48	1087.93
601.83	1091.09
602.18	1088.91
602.53	1089.40
602.88	1091.49
603.22	1089.92
603.57	1086.57
603.92	1088.91
604.27	1087.06
604.62	1087.67
604.97	1085.45
605.31	1085.59
605.66	1085.70
606.01	1088.14
606.36	1085.89
606.71	1089.03
607.05	1091.04
607.40	1088.77
607.75	1088.40
608.10	1087.65
608.44	1083.81
608.79	1082.83
609.14	1084.74
609.49	1086.87
609.84	1088.51
610.18	1089.07
610.53	1089.64
610.88	1087.90
611.23	1083.86
611.57	1080.60
611.92	1081.05
612.27	1078.75
612.62	1080.11
612.96	1082.24
613.31	1083.01
613.66	1085.49
614.00	1087.13
614.35	1088.61
614.70	1086.43
615.05	1085.05
615.39	1084.11
615.74	1084.25
616.09	1080.77
616.43	1080.23
616.78	1082.76
617.13	1082.33
617.47	1081.26
617.82	1081.73
618.17	1085.05
618.51	1084.70
618.86	1083.71
619.21	1080.84
619.55	1084.72
619.90	1082.78
620.25	1085.03
620.59	1085.63
620.94	1087.37
621.29	1086.13
621.63	1085.03
621.98	1083.71
622.32	1083.18
622.67	1083.93
623.02	1080.95
623.36	1082.12
623.71	1083.69
624.05	1085.59
624.40	1089.14
624.75	1090.46
625.09	1089.92
625.44	1087.25
625.78	1084.37
626.13	1083.15
626.48	1081.89
626.82	1081.21
627.17	1083.36
627.51	1082.97
627.86	1081.91
628.20	1083.08
628.55	1083.39
628.89	1080.81
629.24	1082.45
629.58	1081.89
629.93	1081.66
630.28	1082.08
630.62	1083.50
630.97	1083.86
631.31	1084.42
631.66	1083.43
632.00	1082.73
632.35	1083.01
632.69	1082.22
633.04	1081.54
633.38	1082.57
633.73	1085.99
634.07	1083.32
634.42	1085.33
634.76	1085.42
635.11	1081.80
635.45	1079.69
635.79	1082.94
636.14	1081.47
636.48	1081.19
636.83	1085.31
637.17	1083.69
637.52	1082.66
637.86	1079.38
638.21	1079.13
638.55	1076.41
638.89	1079.71
639.24	1078.54
639.58	1081.23
639.93	1082.03
640.27	1084.72
640.61	1085.19
640.96	1085.12
641.30	1084.39
641.65	1082.50
641.99	1080.91
642.33	1076.72
642.68	1077.07
643.02	1079.24
643.37	1080.46
643.71	1081.96
644.05	1086.66
644.40	1084.18
644.74	1085.35
645.08	1086.15
645.43	1088.89
645.77	1084.60
646.11	1087.88
646.46	1085.07
646.80	1083.46
647.14	1079.17
647.49	1078.33
647.83	1072.81
648.17	1071.75
648.52	1071.43
648.86	1072.22
649.20	1074.96
649.55	1076.74
649.89	1075.66
650.23	1074.75
650.57	1075.17
650.92	1075.41
651.26	1079.48
651.60	1082.38
651.95	1082.47
652.29	1079.55
652.63	1079.85
652.97	1079.64
653.32	1077.93
653.66	1078.64
654.00	1080.06
654.34	1081.12
654.69	1080.09
655.03	1081.28
655.37	1082.99
655.71	1083.15
656.05	1079.41
656.40	1079.85
656.74	1080.37
657.08	1081.19
657.42	1082.26
657.76	1084.86
658.11	1082.71
658.45	1082.08
658.79	1083.22
659.13	1083.69
659.47	1085.40
659.82	1087.32
660.16	1088.89
660.50	1084.86
660.84	1082.19
661.18	1078.12
661.52	1076.44
661.87	1072.55
662.21	1071.26
662.55	1073.35
662.89	1074.17
663.23	1072.39
663.57	1070.89
663.91	1076.65
664.25	1076.27
664.60	1078.54
664.94	1078.78
665.28	1081.28
665.62	1077.42
665.96	1079.22
666.30	1076.34
666.64	1080.91
666.98	1083.79
667.32	1083.97
667.66	1083.01
668.01	1083.50
668.35	1080.20
668.69	1075.66
669.03	1074.61
669.37	1075.41
669.71	1077.18
670.05	1078.92
670.39	1083.36
670.73	1084.09
671.07	1084.25
671.41	1081.80
671.75	1080.88
672.09	1077.00
672.43	1074.07
672.77	1071.92
673.11	1072.88
673.45	1074.00
673.79	1076.25
674.13	1080.25
674.47	1082.29
674.81	1085.56
675.15	1087.18
675.49	1089.57
675.83	1087.83
676.17	1085.75
676.51	1080.41
676.85	1078.36
677.19	1078.03
677.53	1080.56
677.87	1081.58
678.21	1085.31
678.55	1085.47
678.89	1084.09
679.23	1081.47
679.57	1080.02
679.90	1075.92
680.24	1077.18
680.58	1077.91
680.92	1079.34
681.26	1080.16
681.60	1084.18
681.94	1082.92
682.28	1080.98
682.62	1080.88
682.96	1078.87
683.29	1076.32
683.63	1076.37
683.97	1077.00
684.31	1076.93
684.65	1079.36
684.99	1078.31
685.33	1077.98
685.67	1079.31
686.00	1079.03
686.34	1076.27
686.68	1078.85
687.02	1080.84
687.36	1078.71
687.70	1080.51
688.03	1083.76
688.37	1081.75
688.71	1078.57
689.05	1080.06
689.39	1079.31
689.72	1078.12
690.06	1079.95
690.40	1081.54
690.74	1079.31
691.08	1077.42
691.41	1076.74
691.75	1077.72
692.09	1078.14
692.43	1080.32
692.76	1079.29
693.10	1077.09
693.44	1075.22
693.78	1076.34
694.11	1075.90
694.45	1080.41
694.79	1083.79
695.13	1087.32
695.46	1085.45
695.80	1083.32
696.14	1081.73
696.48	1082.85
696.81	1079.24
697.15	1079.03
697.49	1080.48
697.82	1078.59
698.16	1081.26
698.50	1080.98
698.83	1081.42
699.17	1081.12
699.51	1083.64
699.84	1078.19
700.18	1078.61
700.52	1077.25
700.85	1076.25
701.19	1072.57
701.53	1075.20
701.86	1076.60
702.20	1075.80
702.54	1078.21
702.87	1081.89
703.21	1078.59
703.55	1075.83
703.88	1076.79
704.22	1076.01
704.55	1077.40
704.89	1077.82
705.23	1083.18
705.56	1084.02
705.90	1084.35
706.23	1082.66
706.57	1084.67
706.91	1078.50
707.24	1078.10
707.58	1074.31
707.91	1072.85
708.25	1071.33
708.58	1072.08
708.92	1076.11
709.26	1078.47
709.59	1082.40
709.93	1083.97
710.26	1085.61
710.60	1081.30
710.93	1082.87
711.27	1077.61
711.60	1076.34
711.94	1078.05
712.27	1079.99
712.61	1078.59
712.94	1080.65
713.28	1083.50
713.61	1083.76
713.95	1084.72
714.28	1086.94
714.62	1087.88
714.95	1084.93
715.29	1085.31
715.62	1079.95
715.96	1078.40
716.29	1076.81
716.63	1077.84
716.96	1073.25
717.29	1075.50
717.63	1075.34
717.96	1077.02
718.30	1076.62
718.63	1076.51
718.97	1075.17
719.30	1074.80
719.63	1075.92
719.97	1078.54
720.30	1082.99
720.64	1086.03
720.97	1086.55
721.30	1083.15
721.64	1081.82
721.97	1079.95
722.31	1079.48
722.64	1081.12
722.97	1082.47
723.31	1079.17
723.64	1077.72
723.97	1081.16
724.31	1079.10
724.64	1080.30
724.98	1082.01
725.31	1084.14
725.64	1078.85
725.98	1079.17
726.31	1079.71
726.64	1077.58
726.97	1076.04
727.31	1078.43
727.64	1077.98
727.97	1075.13
728.31	1075.94
728.64	1074.87
728.97	1076.25
729.31	1075.38
729.64	1074.61
729.97	1075.22
730.30	1075.64
730.64	1073.67
730.97	1074.89
731.30	1076.01
731.63	1075.80
731.97	1076.25
732.30	1077.63
732.63	1078.47
732.96	1078.36
733.30	1076.62
733.63	1075.85
733.96	1073.28
734.29	1075.08
734.63	1076.53
734.96	1079.83
735.29	1083.08
735.62	1084.65
735.95	1082.59
736.29	1084.18
736.62	1083.55
736.95	1081.94
737.28	1080.32
737.61	1084.02
737.94	1080.18
738.28	1080.44
738.61	1080.37
738.94	1079.74
739.27	1077.11
739.60	1077.65
739.93	1079.88
740.27	1079.90
740.60	1079.15
740.93	1078.36
741.26	1078.28
741.59	1077.11
741.92	1078.78
742.25	1082.15
742.58	1082.22
742.91	1084.63
743.25	1081.51
743.58	1080.41
743.91	1076.88
744.24	1079.15
744.57	1077.30
744.90	1081.58
745.23	1080.60
745.56	1082.52
745.89	1077.49
746.22	1078.85
746.55	1079.01
746.88	1079.88
747.21	1079.24
747.54	1080.32
747.87	1081.98
748.20	1081.49
748.53	1078.71
748.87	1076.04
749.20	1078.00
749.53	1074.73
749.86	1072.85
750.19	1074.00
750.52	1077.75
750.85	1075.24
751.18	1076.37
751.51	1075.83
751.84	1077.02
752.16	1075.03
752.49	1075.59
752.82	1075.20
753.15	1075.36
753.48	1073.46
753.81	1072.83
754.14	1075.80
754.47	1075.85
754.80	1076.08
755.13	1077.77
755.46	1078.05
755.79	1076.30
756.12	1077.33
756.45	1075.17
756.78	1075.05
757.11	1079.34
757.43	1076.55
757.76	1076.93
758.09	1079.85
758.42	1080.23
758.75	1076.83
759.08	1078.59
759.41	1077.84
759.74	1075.10
760.07	1076.23
760.39	1079.71
760.72	1081.51
761.05	1079.20
761.38	1080.02
761.71	1078.85
762.04	1076.39
762.36	1077.33
762.69	1078.66
763.02	1079.60
763.35	1077.84
763.68	1076.67
764.01	1076.20
