SpectraSuite Data File
++++++++++++++++++++++++++++++++++++
Date: Mon Aug 26 10:22:25 PDT 2019
User: corrico
Dark Spectrum Present: No
Reference Spectrum Present: No
Number of Sampled Component Spectra: 1
Spectrometers: USB2+H06089
Integration Time (usec): 2000 (USB2+H06089)
Spectra Averaged: 20 (USB2+H06089)
Boxcar Smoothing: 2 (USB2+H06089)
Correct for Electrical Dark: No (USB2+H06089)
Strobe/Lamp Enabled: No (USB2+H06089)
Correct for Detector Non-linearity: No (USB2+H06089)
Correct for Stray Light: No (USB2+H06089)
Number of Pixels in Processed Spectrum: 2048
>>>>>Begin Processed Spectral Data<<<<<
339.70	1021.29
340.07	1021.29
340.45	991.26
340.82	970.99
341.19	949.13
341.57	924.61
341.94	911.50
342.31	905.95
342.69	902.77
343.06	899.70
343.43	898.39
343.81	898.04
344.18	898.63
344.55	900.24
344.93	905.46
345.30	910.30
345.67	919.20
346.04	928.19
346.42	936.94
346.79	945.30
347.16	956.20
347.54	964.53
347.91	974.48
348.28	983.42
348.65	993.28
349.03	1005.56
349.40	1014.27
349.77	1022.04
350.14	1030.42
350.52	1037.35
350.89	1040.84
351.26	1046.59
351.63	1052.19
352.01	1054.18
352.38	1057.66
352.75	1062.79
353.12	1068.36
353.50	1070.16
353.87	1074.26
354.24	1077.23
354.61	1079.43
354.98	1081.07
355.36	1085.26
355.73	1089.50
356.10	1091.84
356.47	1090.20
356.84	1089.07
357.22	1087.60
357.59	1091.58
357.96	1091.81
358.33	1094.76
358.70	1094.18
359.08	1094.29
359.45	1086.62
359.82	1082.52
360.19	1079.88
360.56	1081.87
360.94	1079.78
361.31	1084.51
361.68	1085.59
362.05	1086.17
362.42	1085.87
362.79	1087.48
363.16	1085.70
363.54	1083.41
363.91	1083.62
364.28	1082.45
364.65	1083.48
365.02	1081.30
365.39	1084.00
365.76	1082.57
366.14	1079.95
366.51	1080.98
366.88	1082.05
367.25	1079.83
367.62	1077.16
367.99	1075.92
368.36	1069.60
368.73	1068.76
369.10	1072.46
369.48	1073.72
369.85	1073.25
370.22	1074.17
370.59	1068.76
370.96	1063.89
371.33	1065.29
371.70	1067.73
372.07	1069.84
372.44	1076.04
372.81	1081.02
373.18	1080.04
373.55	1080.93
373.93	1081.58
374.30	1078.36
374.67	1072.85
375.04	1072.46
375.41	1073.74
375.78	1072.71
376.15	1072.69
376.52	1075.87
376.89	1078.73
377.26	1077.44
377.63	1077.72
378.00	1078.36
378.37	1079.10
378.74	1078.52
379.11	1077.02
379.48	1080.39
379.85	1080.32
380.22	1083.22
380.59	1080.88
380.96	1079.62
381.33	1077.02
381.70	1079.03
382.07	1079.43
382.44	1079.88
382.81	1080.86
383.18	1081.70
383.55	1081.87
383.92	1077.63
384.29	1080.46
384.66	1082.24
385.03	1084.09
385.40	1084.23
385.77	1085.63
386.14	1085.49
386.51	1087.53
386.88	1084.72
387.25	1083.71
387.62	1082.71
387.99	1079.60
388.36	1080.56
388.73	1083.32
389.10	1084.79
389.46	1084.58
389.83	1088.14
390.20	1085.91
390.57	1084.86
390.94	1084.49
391.31	1088.51
391.68	1086.66
392.05	1085.49
392.42	1084.39
392.79	1086.01
393.16	1083.48
393.53	1087.48
393.89	1089.45
394.26	1090.69
394.63	1090.22
395.00	1089.87
395.37	1087.48
395.74	1085.89
396.11	1084.74
396.48	1085.26
396.84	1084.04
397.21	1084.25
397.58	1087.79
397.95	1088.72
398.32	1086.94
398.69	1087.48
399.06	1086.59
399.42	1085.89
399.79	1084.46
400.16	1086.24
400.53	1089.10
400.90	1089.59
401.27	1089.17
401.64	1088.86
402.00	1086.80
402.37	1087.34
402.74	1089.03
403.11	1087.34
403.48	1090.15
403.84	1092.49
404.21	1092.02
404.58	1093.22
404.95	1093.01
405.32	1092.73
405.68	1091.72
406.05	1094.53
406.42	1093.38
406.79	1095.77
407.16	1094.50
407.52	1093.05
407.89	1091.72
408.26	1092.28
408.63	1093.24
408.99	1094.97
409.36	1099.16
409.73	1098.32
410.10	1096.12
410.47	1097.13
410.83	1096.38
411.20	1093.94
411.57	1095.72
411.94	1103.38
412.30	1100.82
412.67	1101.62
413.04	1104.57
413.40	1102.60
413.77	1096.73
414.14	1097.22
414.51	1097.41
414.87	1098.27
415.24	1099.26
415.61	1100.87
415.97	1102.93
416.34	1103.98
416.71	1102.02
417.08	1103.42
417.44	1103.91
417.81	1106.70
418.18	1107.00
418.54	1113.21
418.91	1114.24
419.28	1116.51
419.64	1114.87
420.01	1116.06
420.38	1113.02
420.74	1115.85
421.11	1114.42
421.48	1112.95
421.84	1116.60
422.21	1120.02
422.58	1120.18
422.94	1124.16
423.31	1126.59
423.68	1124.16
424.04	1126.31
424.41	1128.26
424.77	1128.14
425.14	1134.11
425.51	1142.04
425.87	1144.52
426.24	1147.89
426.61	1157.42
426.97	1160.44
427.34	1163.15
427.70	1168.54
428.07	1176.10
428.44	1179.77
428.80	1187.89
429.17	1198.19
429.53	1206.45
429.90	1217.31
430.27	1228.36
430.63	1243.18
431.00	1255.60
431.36	1270.98
431.73	1281.93
432.09	1296.49
432.46	1309.48
432.83	1324.70
433.19	1338.93
433.56	1356.04
433.92	1372.96
434.29	1390.51
434.65	1410.76
435.02	1434.68
435.38	1462.11
435.75	1490.78
436.11	1518.70
436.48	1550.60
436.84	1585.48
437.21	1620.14
437.57	1656.40
437.94	1702.76
438.30	1745.59
438.67	1789.20
439.03	1835.59
439.40	1891.11
439.76	1942.39
440.13	2002.80
440.49	2064.80
440.86	2129.89
441.22	2197.46
441.59	2270.97
441.95	2352.19
442.32	2431.21
442.68	2524.15
443.05	2620.91
443.41	2717.69
443.78	2809.27
444.14	2920.47
444.51	3035.00
444.87	3168.13
445.24	3312.61
445.60	3476.05
445.96	3632.18
446.33	3801.01
446.69	3961.68
447.06	4129.29
447.42	4300.41
447.79	4489.85
448.15	4699.61
448.51	4924.14
448.88	5188.76
449.24	5433.55
449.61	5718.75
449.97	5998.44
450.33	6277.36
450.70	6532.29
451.06	6847.45
451.43	7135.61
451.79	7491.91
452.15	7893.43
452.52	8340.43
452.88	8800.44
453.24	9329.84
453.61	9890.05
453.97	10433.62
454.34	10962.74
454.70	11606.27
455.06	12247.70
455.43	12875.52
455.79	13488.46
456.15	14206.05
456.52	14858.94
456.88	15623.59
457.24	16325.07
457.61	17155.10
457.97	17908.35
458.33	18672.12
458.70	19417.97
459.06	20189.23
459.42	21001.60
459.79	21787.32
460.15	22659.17
460.51	23499.80
460.88	24410.87
461.24	25204.90
461.60	26131.66
461.96	27003.39
462.33	27824.80
462.69	28581.15
463.05	29415.31
463.42	30144.74
463.78	30780.22
464.14	31312.41
464.50	31917.84
464.87	32386.67
465.23	32703.93
465.59	33068.98
465.95	33395.09
466.32	33631.23
466.68	33848.80
467.04	33996.91
467.40	34120.33
467.77	34272.68
468.13	34275.20
468.49	34209.04
468.85	34142.03
469.22	33970.75
469.58	33619.78
469.94	33353.31
470.30	33029.55
470.66	32623.39
471.03	32040.20
471.39	31662.67
471.75	31080.47
472.11	30504.37
472.47	30136.55
472.84	29854.66
473.20	29384.93
473.56	29108.35
473.92	28682.75
474.28	28183.54
474.65	27678.71
475.01	27195.81
475.37	26615.07
475.73	26158.53
476.09	25637.64
476.45	25108.00
476.81	24595.33
477.18	24069.79
477.54	23612.24
477.90	23248.82
478.26	22846.93
478.62	22507.64
478.98	22203.49
479.34	21887.38
479.71	21491.57
480.07	21164.18
480.43	20811.44
480.79	20445.75
481.15	20093.10
481.51	19780.03
481.87	19517.80
482.23	19225.86
482.59	18952.91
482.96	18681.95
483.32	18381.19
483.68	18005.67
484.04	17683.59
484.40	17331.50
484.76	16968.93
485.12	16617.20
485.48	16310.00
485.84	15974.37
486.20	15653.25
486.56	15289.15
486.92	14981.14
487.28	14630.81
487.64	14275.93
488.00	13940.46
488.37	13633.53
488.73	13282.56
489.09	12937.73
489.45	12628.69
489.81	12308.01
490.17	12006.34
490.53	11723.84
490.89	11434.06
491.25	11135.38
491.61	10834.92
491.97	10528.38
492.33	10209.98
492.69	9917.29
493.05	9610.85
493.41	9328.32
493.77	9055.25
494.13	8806.27
494.49	8560.44
494.85	8338.53
495.21	8119.97
495.57	7905.46
495.93	7688.68
496.29	7479.93
496.64	7288.08
497.00	7087.52
497.36	6888.90
497.72	6701.05
498.08	6527.38
498.44	6348.26
498.80	6187.58
499.16	6040.60
499.52	5905.83
499.88	5780.91
500.24	5668.92
500.60	5547.35
500.96	5426.13
501.32	5307.47
501.68	5185.08
502.03	5053.75
502.39	4925.21
502.75	4792.36
503.11	4663.03
503.47	4546.94
503.83	4422.58
504.19	4310.56
504.55	4214.18
504.91	4115.53
505.26	4015.54
505.62	3933.74
505.98	3848.68
506.34	3756.68
506.70	3672.21
507.06	3590.59
507.42	3509.73
507.78	3431.58
508.13	3351.04
508.49	3275.23
508.85	3201.03
509.21	3125.06
509.57	3057.37
509.93	2992.70
510.28	2919.00
510.64	2850.37
511.00	2789.59
511.36	2729.67
511.72	2674.65
512.07	2634.48
512.43	2588.12
512.79	2539.04
513.15	2497.21
513.51	2455.53
513.86	2406.37
514.22	2363.19
514.58	2325.72
514.94	2288.53
515.30	2251.85
515.65	2217.26
516.01	2187.44
516.37	2154.81
516.73	2119.96
517.08	2090.89
517.44	2062.18
517.80	2033.39
518.16	2007.78
518.51	1981.15
518.87	1950.74
519.23	1922.87
519.59	1896.72
519.94	1868.17
520.30	1841.04
520.66	1818.92
521.01	1796.52
521.37	1776.89
521.73	1757.48
522.09	1742.72
522.44	1723.94
522.80	1707.26
523.16	1685.86
523.51	1662.69
523.87	1638.59
524.23	1620.96
524.58	1601.30
524.94	1585.03
525.30	1570.50
525.65	1558.14
526.01	1540.70
526.37	1525.35
526.72	1512.74
527.08	1498.08
527.44	1482.73
527.79	1470.54
528.15	1460.75
528.51	1448.84
528.86	1439.15
529.22	1427.54
529.58	1417.22
529.93	1405.98
530.29	1394.26
530.65	1383.47
531.00	1373.17
531.36	1363.15
531.71	1353.79
532.07	1343.68
532.43	1336.70
532.78	1333.08
533.14	1327.86
533.49	1322.08
533.85	1316.95
534.21	1308.29
534.56	1300.54
534.92	1293.82
535.27	1286.64
535.63	1278.70
535.98	1276.36
536.34	1269.53
536.69	1262.98
537.05	1257.43
537.41	1249.24
537.76	1242.29
538.12	1237.91
538.47	1231.94
538.83	1228.64
539.18	1227.63
539.54	1222.49
539.89	1217.31
540.25	1215.67
540.60	1212.30
540.96	1211.74
541.31	1213.83
541.67	1211.58
542.02	1207.20
542.38	1202.54
542.73	1198.12
543.09	1192.18
543.44	1190.42
543.80	1188.08
544.15	1187.56
544.51	1185.46
544.86	1183.14
545.22	1182.39
545.57	1183.26
545.93	1179.58
546.28	1173.61
546.64	1172.84
546.99	1166.83
547.35	1161.05
547.70	1156.74
548.05	1157.63
548.41	1155.41
548.76	1155.17
549.12	1153.30
549.47	1153.35
549.83	1155.01
550.18	1153.14
550.53	1151.12
550.89	1151.71
551.24	1151.22
551.60	1146.70
551.95	1145.06
552.30	1141.01
552.66	1135.98
553.01	1134.53
553.37	1134.43
553.72	1127.97
554.07	1126.27
554.43	1124.67
554.78	1122.57
555.13	1120.79
555.49	1124.46
555.84	1126.48
556.19	1128.89
556.55	1131.02
556.90	1130.34
557.26	1129.38
557.61	1130.60
557.96	1129.40
558.32	1126.76
558.67	1123.95
559.02	1122.68
559.37	1118.10
559.73	1118.03
560.08	1118.52
560.43	1121.00
560.79	1121.98
561.14	1121.58
561.49	1120.72
561.85	1118.10
562.20	1116.65
562.55	1113.88
562.90	1114.73
563.26	1110.07
563.61	1107.03
563.96	1108.13
564.32	1109.25
564.67	1108.06
565.02	1109.23
565.37	1110.75
565.73	1106.35
566.08	1102.63
566.43	1103.05
566.78	1103.35
567.14	1102.37
567.49	1099.47
567.84	1101.78
568.19	1104.08
568.54	1102.49
568.90	1102.44
569.25	1104.22
569.60	1102.16
569.95	1099.12
570.31	1098.58
570.66	1094.93
571.01	1093.43
571.36	1092.84
571.71	1091.18
572.06	1091.58
572.42	1095.98
572.77	1094.53
573.12	1094.15
573.47	1093.15
573.82	1095.56
574.18	1093.92
574.53	1095.32
574.88	1093.55
575.23	1092.49
575.58	1091.02
575.93	1087.62
576.28	1088.42
576.64	1092.94
576.99	1093.92
577.34	1093.29
577.69	1096.14
578.04	1097.59
578.39	1095.56
578.74	1095.56
579.09	1094.39
579.44	1092.80
579.80	1089.57
580.15	1091.53
580.50	1091.27
580.85	1093.97
581.20	1097.06
581.55	1101.97
581.90	1099.84
582.25	1102.30
582.60	1099.00
582.95	1096.40
583.30	1095.32
583.65	1094.15
584.00	1092.54
584.35	1093.45
584.71	1096.63
585.06	1091.84
585.41	1091.18
585.76	1091.37
586.11	1093.12
586.46	1091.02
586.81	1090.81
587.16	1090.10
587.51	1089.03
587.86	1086.80
588.21	1084.46
588.56	1083.34
588.91	1084.60
589.26	1085.26
589.61	1084.37
589.96	1086.85
590.31	1087.27
590.66	1085.07
591.01	1083.50
591.36	1082.26
591.71	1081.49
592.06	1081.91
592.41	1083.74
592.76	1087.72
593.10	1087.16
593.45	1086.92
593.80	1090.20
594.15	1088.51
594.50	1085.59
594.85	1089.43
595.20	1090.92
595.55	1089.61
595.90	1090.71
596.25	1090.24
596.60	1086.78
596.95	1086.27
597.30	1087.79
597.64	1100.17
597.99	1100.33
598.34	1101.48
598.69	1102.28
599.04	1101.34
599.39	1087.55
599.74	1083.88
600.09	1083.74
600.44	1080.70
600.78	1080.16
601.13	1083.41
601.48	1088.44
601.83	1087.25
602.18	1088.07
602.53	1088.21
602.88	1082.99
603.22	1079.64
603.57	1081.58
603.92	1083.48
604.27	1081.96
604.62	1084.28
604.97	1087.18
605.31	1085.61
605.66	1084.72
606.01	1087.34
606.36	1088.26
606.71	1087.39
607.05	1089.26
607.40	1084.49
607.75	1082.87
608.10	1082.10
608.44	1083.93
608.79	1084.42
609.14	1086.57
609.49	1089.24
609.84	1090.76
610.18	1087.27
610.53	1087.04
610.88	1088.82
611.23	1082.83
611.57	1085.52
611.92	1086.64
612.27	1084.30
612.62	1086.41
612.96	1089.64
613.31	1088.26
613.66	1088.82
614.00	1088.14
614.35	1082.90
614.70	1082.38
615.05	1081.30
615.39	1079.95
615.74	1077.09
616.09	1078.64
616.43	1078.28
616.78	1076.53
617.13	1075.83
617.47	1081.49
617.82	1082.92
618.17	1083.27
618.51	1083.46
618.86	1083.36
619.21	1079.31
619.55	1077.96
619.90	1076.74
620.25	1078.80
620.59	1079.10
620.94	1083.67
621.29	1085.24
621.63	1085.87
621.98	1084.96
622.32	1085.94
622.67	1082.94
623.02	1082.50
623.36	1083.32
623.71	1084.46
624.05	1083.88
624.40	1086.20
624.75	1083.90
625.09	1082.80
625.44	1079.74
625.78	1081.00
626.13	1082.38
626.48	1084.60
626.82	1083.71
627.17	1085.35
627.51	1087.41
627.86	1085.75
628.20	1085.77
628.55	1082.87
628.89	1081.23
629.24	1078.19
629.58	1077.63
629.93	1075.48
630.28	1078.31
630.62	1077.63
630.97	1076.15
631.31	1078.14
631.66	1080.84
632.00	1082.40
632.35	1085.61
632.69	1085.77
633.04	1081.82
633.38	1080.91
633.73	1080.95
634.07	1077.58
634.42	1078.50
634.76	1080.13
635.11	1079.90
635.45	1081.89
635.79	1082.40
636.14	1082.78
636.48	1082.29
636.83	1082.97
637.17	1081.82
637.52	1082.47
637.86	1079.92
638.21	1079.74
638.55	1079.03
638.89	1075.87
639.24	1075.20
639.58	1078.00
639.93	1082.01
640.27	1080.95
640.61	1083.06
640.96	1080.16
641.30	1079.24
641.65	1076.32
641.99	1076.88
642.33	1076.93
642.68	1083.48
643.02	1084.60
643.37	1082.80
643.71	1083.13
644.05	1083.60
644.40	1080.34
644.74	1077.98
645.08	1081.42
645.43	1083.34
645.77	1083.06
646.11	1084.72
646.46	1085.84
646.80	1082.17
647.14	1079.88
647.49	1078.54
647.83	1077.25
648.17	1080.63
648.52	1084.14
648.86	1084.30
649.20	1086.69
649.55	1084.81
649.89	1083.62
650.23	1079.06
650.57	1077.89
650.92	1074.42
651.26	1078.31
651.60	1075.34
651.95	1083.81
652.29	1086.64
652.63	1087.34
652.97	1085.84
653.32	1088.16
653.66	1081.96
654.00	1079.55
654.34	1083.29
654.69	1081.82
655.03	1079.92
655.37	1081.23
655.71	1080.84
656.05	1078.92
656.40	1080.74
656.74	1081.66
657.08	1083.34
657.42	1081.26
657.76	1079.71
658.11	1080.79
658.45	1080.34
658.79	1078.10
659.13	1079.90
659.47	1081.12
659.82	1079.29
660.16	1076.11
660.50	1076.11
660.84	1077.04
661.18	1076.67
661.52	1076.46
661.87	1079.76
662.21	1081.05
662.55	1079.60
662.89	1082.17
663.23	1077.82
663.57	1079.15
663.91	1077.58
664.25	1077.44
664.60	1074.70
664.94	1078.07
665.28	1075.62
665.62	1076.76
665.96	1078.03
666.30	1078.96
666.64	1081.02
666.98	1082.31
667.32	1081.98
667.66	1083.36
668.01	1080.67
668.35	1081.63
668.69	1080.39
669.03	1077.02
669.37	1075.92
669.71	1079.76
670.05	1077.58
670.39	1078.59
670.73	1079.74
671.07	1080.39
671.41	1079.62
671.75	1078.26
672.09	1076.53
672.43	1075.22
672.77	1077.35
673.11	1077.86
673.45	1076.04
673.79	1075.22
674.13	1079.27
674.47	1074.84
674.81	1073.67
675.15	1078.85
675.49	1078.71
675.83	1075.99
676.17	1077.04
676.51	1078.82
676.85	1077.70
677.19	1081.42
677.53	1083.18
677.87	1082.50
678.21	1080.70
678.55	1080.23
678.89	1080.20
679.23	1080.60
679.57	1083.62
679.90	1081.26
680.24	1079.83
680.58	1076.60
680.92	1076.39
681.26	1076.88
681.60	1080.46
681.94	1082.92
682.28	1085.26
682.62	1084.23
682.96	1082.29
683.29	1078.89
683.63	1079.99
683.97	1080.23
684.31	1083.57
684.65	1084.86
684.99	1088.14
685.33	1085.77
685.67	1083.97
686.00	1082.45
686.34	1082.05
686.68	1082.71
687.02	1078.52
687.36	1081.16
687.70	1078.45
688.03	1079.50
688.37	1080.34
688.71	1085.10
689.05	1081.16
689.39	1080.81
689.72	1080.72
690.06	1079.17
690.40	1079.99
690.74	1083.27
691.08	1085.24
691.41	1081.47
691.75	1081.07
692.09	1081.33
692.43	1083.27
692.76	1084.51
693.10	1087.37
693.44	1085.63
693.78	1086.90
694.11	1087.53
694.45	1085.73
694.79	1088.19
695.13	1088.02
695.46	1087.34
695.80	1083.50
696.14	1084.02
696.48	1080.41
696.81	1079.17
697.15	1075.71
697.49	1076.90
697.82	1077.82
698.16	1078.10
698.50	1079.71
698.83	1082.15
699.17	1080.39
699.51	1078.07
699.84	1076.83
700.18	1078.45
700.52	1076.13
700.85	1079.60
701.19	1081.51
701.53	1082.10
701.86	1081.91
702.20	1085.19
702.54	1083.11
702.87	1087.18
703.21	1088.14
703.55	1088.75
703.88	1089.40
704.22	1092.26
704.55	1087.16
704.89	1086.13
705.23	1083.57
705.56	1080.79
705.90	1077.18
706.23	1078.61
706.57	1082.47
706.91	1082.99
707.24	1083.34
707.58	1086.71
707.91	1084.51
708.25	1082.03
708.58	1083.74
708.92	1082.66
709.26	1078.50
709.59	1080.37
709.93	1081.30
710.26	1080.81
710.60	1083.79
710.93	1085.45
711.27	1084.81
711.60	1084.04
711.94	1083.18
712.27	1083.01
712.61	1084.04
712.94	1085.28
713.28	1085.91
713.61	1084.42
713.95	1080.84
714.28	1080.58
714.62	1080.77
714.95	1078.38
715.29	1079.55
715.62	1078.26
715.96	1075.83
716.29	1073.72
716.63	1073.91
716.96	1074.24
717.29	1074.56
717.63	1075.76
717.96	1075.90
718.30	1076.34
718.63	1077.04
718.97	1079.31
719.30	1081.70
719.63	1084.37
719.97	1084.51
720.30	1084.28
720.64	1080.34
720.97	1077.47
721.30	1078.45
721.64	1080.25
721.97	1080.41
722.31	1086.94
722.64	1084.72
722.97	1080.91
723.31	1081.14
723.64	1084.04
723.97	1080.84
724.31	1082.71
724.64	1085.75
724.98	1085.42
725.31	1082.36
725.64	1081.94
725.98	1083.83
726.31	1080.65
726.64	1077.28
726.97	1075.48
727.31	1077.35
727.64	1076.93
727.97	1077.82
728.31	1080.93
728.64	1082.90
728.97	1084.00
729.31	1083.90
729.64	1081.51
729.97	1078.78
730.30	1076.65
730.64	1073.93
730.97	1070.09
731.30	1072.57
731.63	1072.95
731.97	1074.38
732.30	1074.42
732.63	1076.88
732.96	1078.17
733.30	1080.20
733.63	1082.69
733.96	1085.19
734.29	1087.37
734.63	1085.68
734.96	1086.87
735.29	1085.14
735.62	1085.24
735.95	1083.64
736.29	1083.53
736.62	1081.89
736.95	1082.05
737.28	1079.48
737.61	1078.52
737.94	1075.69
738.28	1076.06
738.61	1074.94
738.94	1073.74
739.27	1076.15
739.60	1077.18
739.93	1075.10
740.27	1076.79
740.60	1077.42
740.93	1077.91
741.26	1078.54
741.59	1080.09
741.92	1080.18
742.25	1082.03
742.58	1079.76
742.91	1079.88
743.25	1078.89
743.58	1080.11
743.91	1081.33
744.24	1080.02
744.57	1082.40
744.90	1084.44
745.23	1082.33
745.56	1080.23
745.89	1085.05
746.22	1082.22
746.55	1080.70
746.88	1081.98
747.21	1083.20
747.54	1083.32
747.87	1083.22
748.20	1083.79
748.53	1082.03
748.87	1081.05
749.20	1078.64
749.53	1079.88
749.86	1075.62
750.19	1076.04
750.52	1076.81
750.85	1077.40
751.18	1075.85
751.51	1081.73
751.84	1081.98
752.16	1083.36
752.49	1082.97
752.82	1083.43
753.15	1079.71
753.48	1080.81
753.81	1078.12
754.14	1079.13
754.47	1082.50
754.80	1085.42
755.13	1081.94
755.46	1083.81
755.79	1080.06
756.12	1080.84
756.45	1080.65
756.78	1081.63
757.11	1082.59
757.43	1085.12
757.76	1081.66
758.09	1079.60
758.42	1080.91
758.75	1077.47
759.08	1076.65
759.41	1077.28
759.74	1077.47
760.07	1079.03
760.39	1080.84
760.72	1080.77
761.05	1081.16
761.38	1081.28
761.71	1077.11
762.04	1073.04
762.36	1071.59
762.69	1070.58
763.02	1070.56
763.35	1070.51
763.68	1076.06
764.01	1079.01
