SpectraSuite Data File
++++++++++++++++++++++++++++++++++++
Date: Mon Aug 26 10:21:52 PDT 2019
User: corrico
Dark Spectrum Present: No
Reference Spectrum Present: No
Number of Sampled Component Spectra: 1
Spectrometers: USB2+H06089
Integration Time (usec): 2000 (USB2+H06089)
Spectra Averaged: 20 (USB2+H06089)
Boxcar Smoothing: 2 (USB2+H06089)
Correct for Electrical Dark: No (USB2+H06089)
Strobe/Lamp Enabled: No (USB2+H06089)
Correct for Detector Non-linearity: No (USB2+H06089)
Correct for Stray Light: No (USB2+H06089)
Number of Pixels in Processed Spectrum: 2048
>>>>>Begin Processed Spectral Data<<<<<
339.70	1025.74
340.07	1025.74
340.45	991.12
340.82	970.64
341.19	950.12
341.57	923.04
341.94	914.31
342.31	907.85
342.69	902.35
343.06	894.06
343.43	896.03
343.81	892.77
344.18	892.89
344.55	894.95
344.93	902.74
345.30	909.39
345.67	920.30
346.04	928.23
346.42	938.95
346.79	949.13
347.16	957.65
347.54	965.73
347.91	975.37
348.28	984.41
348.65	991.01
349.03	999.41
349.40	1006.92
349.77	1014.95
350.14	1018.81
350.52	1026.40
350.89	1032.74
351.26	1037.96
351.63	1042.76
352.01	1047.02
352.38	1049.24
352.75	1051.13
353.12	1053.03
353.50	1057.59
353.87	1062.60
354.24	1066.98
354.61	1070.19
354.98	1075.17
355.36	1073.32
355.73	1071.78
356.10	1071.47
356.47	1068.67
356.84	1068.45
357.22	1071.01
357.59	1074.73
357.96	1070.68
358.33	1073.23
358.70	1071.57
359.08	1068.29
359.45	1065.95
359.82	1070.05
360.19	1068.31
360.56	1069.13
360.94	1071.52
361.31	1070.98
361.68	1071.80
362.05	1073.16
362.42	1073.11
362.79	1073.23
363.16	1074.35
363.54	1071.40
363.91	1069.65
364.28	1067.61
364.65	1065.65
365.02	1062.91
365.39	1061.08
365.76	1059.61
366.14	1059.40
366.51	1060.15
366.88	1063.12
367.25	1063.07
367.62	1064.57
367.99	1066.04
368.36	1067.73
368.73	1065.18
369.10	1067.10
369.48	1067.87
369.85	1065.90
370.22	1064.71
370.59	1065.79
370.96	1064.57
371.33	1063.84
371.70	1066.96
372.07	1068.29
372.44	1066.75
372.81	1067.28
373.18	1064.03
373.55	1062.37
373.93	1059.28
374.30	1060.05
374.67	1059.26
375.04	1059.21
375.41	1057.76
375.78	1060.12
376.15	1060.54
376.52	1064.78
376.89	1069.95
377.26	1067.99
377.63	1066.09
378.00	1065.97
378.37	1062.65
378.74	1060.85
379.11	1066.91
379.48	1065.41
379.85	1064.52
380.22	1065.18
380.59	1067.03
380.96	1065.53
381.33	1067.92
381.70	1068.57
382.07	1067.82
382.44	1066.47
382.81	1066.42
383.18	1067.00
383.55	1067.66
383.92	1068.48
384.29	1071.75
384.66	1069.98
385.03	1069.41
385.40	1069.48
385.77	1070.26
386.14	1068.06
386.51	1070.26
386.88	1068.29
387.25	1070.58
387.62	1073.77
387.99	1075.03
388.36	1070.94
388.73	1072.95
389.10	1070.96
389.46	1069.91
389.83	1068.59
390.20	1070.65
390.57	1073.56
390.94	1073.51
391.31	1072.90
391.68	1073.18
392.05	1076.62
392.42	1073.51
392.79	1072.15
393.16	1070.00
393.53	1067.28
393.89	1062.49
394.26	1062.53
394.63	1065.15
395.00	1066.82
395.37	1071.59
395.74	1075.17
396.11	1077.28
396.48	1077.75
396.84	1076.01
397.21	1077.23
397.58	1078.00
397.95	1076.32
398.32	1075.01
398.69	1077.75
399.06	1072.74
399.42	1070.98
399.79	1070.07
400.16	1067.54
400.53	1067.75
400.90	1070.40
401.27	1070.77
401.64	1072.15
402.00	1076.41
402.37	1072.64
402.74	1072.04
403.11	1073.18
403.48	1070.21
403.84	1072.46
404.21	1075.08
404.58	1072.97
404.95	1070.05
405.32	1074.00
405.68	1070.07
406.05	1070.77
406.42	1070.80
406.79	1073.02
407.16	1072.43
407.52	1069.53
407.89	1067.89
408.26	1068.81
408.63	1067.59
408.99	1066.47
409.36	1071.01
409.73	1071.82
410.10	1072.11
410.47	1074.80
410.83	1074.63
411.20	1073.98
411.57	1072.36
411.94	1074.68
412.30	1071.97
412.67	1073.09
413.04	1073.09
413.40	1072.78
413.77	1072.01
414.14	1074.17
414.51	1076.41
414.87	1076.23
415.24	1080.04
415.61	1079.34
415.97	1079.22
416.34	1076.86
416.71	1076.95
417.08	1076.69
417.44	1077.61
417.81	1076.62
418.18	1074.52
418.54	1073.77
418.91	1071.26
419.28	1072.39
419.64	1074.00
420.01	1075.52
420.38	1076.08
420.74	1078.12
421.11	1077.75
421.48	1075.41
421.84	1077.40
422.21	1079.67
422.58	1080.16
422.94	1078.26
423.31	1081.21
423.68	1081.89
424.04	1078.33
424.41	1077.35
424.77	1078.40
425.14	1075.64
425.51	1076.41
425.87	1078.52
426.24	1079.88
426.61	1078.59
426.97	1084.23
427.34	1082.10
427.70	1083.48
428.07	1082.85
428.44	1085.19
428.80	1083.48
429.17	1085.59
429.53	1087.95
429.90	1087.69
430.27	1090.27
430.63	1087.32
431.00	1086.59
431.36	1083.76
431.73	1086.59
432.09	1085.87
432.46	1088.33
432.83	1091.42
433.19	1098.79
433.56	1101.20
433.92	1102.49
434.29	1106.25
434.65	1109.98
435.02	1108.06
435.38	1108.62
435.75	1109.93
436.11	1110.30
436.48	1111.59
436.84	1118.31
437.21	1120.77
437.57	1125.40
437.94	1129.19
438.30	1129.36
438.67	1129.03
439.03	1133.08
439.40	1137.92
439.76	1143.73
440.13	1149.62
440.49	1153.95
440.86	1158.82
441.22	1164.74
441.59	1170.38
441.95	1177.76
442.32	1184.19
442.68	1189.72
443.05	1193.70
443.41	1199.83
443.78	1205.35
444.14	1213.76
444.51	1226.30
444.87	1239.13
445.24	1250.17
445.60	1263.84
445.96	1275.55
446.33	1285.02
446.69	1295.91
447.06	1306.44
447.42	1314.09
447.79	1325.05
448.15	1340.45
448.51	1356.18
448.88	1374.97
449.24	1394.73
449.61	1419.16
449.97	1438.19
450.33	1457.01
450.70	1478.70
451.06	1502.90
451.43	1519.10
451.79	1542.16
452.15	1571.46
452.52	1599.19
452.88	1632.69
453.24	1671.33
453.61	1709.78
453.97	1748.17
454.34	1786.25
454.70	1824.96
455.06	1862.22
455.43	1898.36
455.79	1931.25
456.15	1974.01
456.52	2011.18
456.88	2060.61
457.24	2109.69
457.61	2169.91
457.97	2223.77
458.33	2284.08
458.70	2335.34
459.06	2388.12
459.42	2441.13
459.79	2485.86
460.15	2541.52
460.51	2602.09
460.88	2664.07
461.24	2725.81
461.60	2797.10
461.96	2856.13
462.33	2907.53
462.69	2958.30
463.05	3003.38
463.42	3054.54
463.78	3103.71
464.14	3149.17
464.50	3192.63
464.87	3229.54
465.23	3244.10
465.59	3257.58
465.95	3277.87
466.32	3294.84
466.68	3307.18
467.04	3326.16
467.40	3342.47
467.77	3346.47
468.13	3347.27
468.49	3351.88
468.85	3349.49
469.22	3340.34
469.58	3328.57
469.94	3320.38
470.30	3298.73
470.66	3272.30
471.03	3241.10
471.39	3213.60
471.75	3164.22
472.11	3127.38
472.47	3101.35
472.84	3076.68
473.20	3050.86
473.56	3038.16
473.92	3005.22
474.28	2968.38
474.65	2935.15
475.01	2899.34
475.37	2858.26
475.73	2825.94
476.09	2794.65
476.45	2765.81
476.81	2738.94
477.18	2715.72
477.54	2699.25
477.90	2680.31
478.26	2646.23
478.62	2617.47
478.98	2597.13
479.34	2569.42
479.71	2547.39
480.07	2532.83
480.43	2516.12
480.79	2491.41
481.15	2468.19
481.51	2439.94
481.87	2422.55
482.23	2395.19
482.59	2372.02
482.96	2351.77
483.32	2335.04
483.68	2308.59
484.04	2294.73
484.40	2272.43
484.76	2252.74
485.12	2237.27
485.48	2219.04
485.84	2194.28
486.20	2179.81
486.56	2159.47
486.92	2132.44
487.28	2106.22
487.64	2079.64
488.00	2055.79
488.37	2034.14
488.73	2008.79
489.09	1989.92
489.45	1974.41
489.81	1952.19
490.17	1929.82
490.53	1908.17
490.89	1888.11
491.25	1864.61
491.61	1838.89
491.97	1816.02
492.33	1798.02
492.69	1776.26
493.05	1755.05
493.41	1736.35
493.77	1713.97
494.13	1694.92
494.49	1675.52
494.85	1657.36
495.21	1641.93
495.57	1626.49
495.93	1607.27
496.29	1593.39
496.64	1578.53
497.00	1561.37
497.36	1551.14
497.72	1537.52
498.08	1521.75
498.44	1508.33
498.80	1497.90
499.16	1484.84
499.52	1480.55
499.88	1473.39
500.24	1467.12
500.60	1460.54
500.96	1454.15
501.32	1439.13
501.68	1428.52
502.03	1417.22
502.39	1407.06
502.75	1390.93
503.11	1383.70
503.47	1375.32
503.83	1366.15
504.19	1354.94
504.55	1349.95
504.91	1341.55
505.26	1331.41
505.62	1321.72
505.98	1313.58
506.34	1309.58
506.70	1301.27
507.06	1294.95
507.42	1289.61
507.78	1282.78
508.13	1270.23
508.49	1264.12
508.85	1257.94
509.21	1249.49
509.57	1245.26
509.93	1241.47
510.28	1234.40
510.64	1230.91
511.00	1228.73
511.36	1223.61
511.72	1218.58
512.07	1216.94
512.43	1211.09
512.79	1204.81
513.15	1199.15
513.51	1193.13
513.86	1186.53
514.22	1180.43
514.58	1179.44
514.94	1176.54
515.30	1174.83
515.65	1173.31
516.01	1173.66
516.37	1170.20
516.73	1169.03
517.08	1165.96
517.44	1164.35
517.80	1159.71
518.16	1154.59
518.51	1154.00
518.87	1156.06
519.23	1153.28
519.59	1151.59
519.94	1151.52
520.30	1146.23
520.66	1140.50
521.01	1140.05
521.37	1142.25
521.73	1141.60
522.09	1140.99
522.44	1139.65
522.80	1135.65
523.16	1128.72
523.51	1123.76
523.87	1119.03
524.23	1117.79
524.58	1117.21
524.94	1118.96
525.30	1121.54
525.65	1122.19
526.01	1123.13
526.37	1121.75
526.72	1119.24
527.08	1114.26
527.44	1111.99
527.79	1108.01
528.15	1106.02
528.51	1104.29
528.86	1105.22
529.22	1101.67
529.58	1101.50
529.93	1100.24
530.29	1100.89
530.65	1099.70
531.00	1100.89
531.36	1098.39
531.71	1095.93
532.07	1092.84
532.43	1093.90
532.78	1099.05
533.14	1102.04
533.49	1105.32
533.85	1107.19
534.21	1106.28
534.56	1101.99
534.92	1100.33
535.27	1098.11
535.63	1098.27
535.98	1098.20
536.34	1098.62
536.69	1096.10
537.05	1095.16
537.41	1091.44
537.76	1091.11
538.12	1090.32
538.47	1089.33
538.83	1088.19
539.18	1085.66
539.54	1082.59
539.89	1082.64
540.25	1086.08
540.60	1084.25
540.96	1083.64
541.31	1082.66
541.67	1082.78
542.02	1082.19
542.38	1086.34
542.73	1088.77
543.09	1090.34
543.44	1090.67
543.80	1091.46
544.15	1089.71
544.51	1089.36
544.86	1090.10
545.22	1084.67
545.57	1082.38
545.93	1080.98
546.28	1079.48
546.64	1079.69
546.99	1083.90
547.35	1084.81
547.70	1085.07
548.05	1086.99
548.41	1086.69
548.76	1082.73
549.12	1079.83
549.47	1079.99
549.83	1077.63
550.18	1078.33
550.53	1083.41
550.89	1085.91
551.24	1087.60
551.60	1089.87
551.95	1089.17
552.30	1088.40
552.66	1085.10
553.01	1084.72
553.37	1083.13
553.72	1083.57
554.07	1077.49
554.43	1078.73
554.78	1078.21
555.13	1077.96
555.49	1074.91
555.84	1077.16
556.19	1078.31
556.55	1076.90
556.90	1080.30
557.26	1080.63
557.61	1080.70
557.96	1076.58
558.32	1074.80
558.67	1073.79
559.02	1073.56
559.37	1073.74
559.73	1076.11
560.08	1081.66
560.43	1081.94
560.79	1083.20
561.14	1086.48
561.49	1087.48
561.85	1084.96
562.20	1081.87
562.55	1079.20
562.90	1076.27
563.26	1073.21
563.61	1072.62
563.96	1071.87
564.32	1074.84
564.67	1072.71
565.02	1074.05
565.37	1074.77
565.73	1079.38
566.08	1079.60
566.43	1083.46
566.78	1082.99
567.14	1081.35
567.49	1082.33
567.84	1079.34
568.19	1075.45
568.54	1075.01
568.90	1078.52
569.25	1077.25
569.60	1080.44
569.95	1083.97
570.31	1086.76
570.66	1082.12
571.01	1080.95
571.36	1078.64
571.71	1077.72
572.06	1079.10
572.42	1078.71
572.77	1078.26
573.12	1078.82
573.47	1080.63
573.82	1078.36
574.18	1080.04
574.53	1077.72
574.88	1078.24
575.23	1076.44
575.58	1076.08
575.93	1075.97
576.28	1078.85
576.64	1076.06
576.99	1074.24
577.34	1073.70
577.69	1072.01
578.04	1070.80
578.39	1073.65
578.74	1079.97
579.09	1079.60
579.44	1079.55
579.80	1077.70
580.15	1075.20
580.50	1072.04
580.85	1070.94
581.20	1076.93
581.55	1079.06
581.90	1079.92
582.25	1079.90
582.60	1083.79
582.95	1076.37
583.30	1076.67
583.65	1074.31
584.00	1075.05
584.35	1077.09
584.71	1079.36
585.06	1078.50
585.41	1081.54
585.76	1077.86
586.11	1073.37
586.46	1076.60
586.81	1076.53
587.16	1074.00
587.51	1072.15
587.86	1074.28
588.21	1071.54
588.56	1072.60
588.91	1074.26
589.26	1079.67
589.61	1077.14
589.96	1076.62
590.31	1076.18
590.66	1082.38
591.01	1081.58
591.36	1080.02
591.71	1079.27
592.06	1078.78
592.41	1072.67
592.76	1068.85
593.10	1070.89
593.45	1075.71
593.80	1077.37
594.15	1078.17
594.50	1080.95
594.85	1079.22
595.20	1075.55
595.55	1070.87
595.90	1068.76
596.25	1070.72
596.60	1073.00
596.95	1075.64
597.30	1078.03
597.64	1090.20
597.99	1088.30
598.34	1088.91
598.69	1085.31
599.04	1086.41
599.39	1077.30
599.74	1076.46
600.09	1075.71
600.44	1076.67
600.78	1073.51
601.13	1069.09
601.48	1071.94
601.83	1071.17
602.18	1072.83
602.53	1076.74
602.88	1080.39
603.22	1079.31
603.57	1080.88
603.92	1079.22
604.27	1078.80
604.62	1074.00
604.97	1070.96
605.31	1070.02
605.66	1071.15
606.01	1071.12
606.36	1074.47
606.71	1076.95
607.05	1075.71
607.40	1074.66
607.75	1074.12
608.10	1076.81
608.44	1075.36
608.79	1075.90
609.14	1075.03
609.49	1075.43
609.84	1073.25
610.18	1074.87
610.53	1078.78
610.88	1080.04
611.23	1081.35
611.57	1084.46
611.92	1083.06
612.27	1080.41
612.62	1081.54
612.96	1082.94
613.31	1076.67
613.66	1080.18
614.00	1082.45
614.35	1078.89
614.70	1075.03
615.05	1078.21
615.39	1074.35
615.74	1072.41
616.09	1075.62
616.43	1076.30
616.78	1078.10
617.13	1079.92
617.47	1080.91
617.82	1081.40
618.17	1081.16
618.51	1079.46
618.86	1078.64
619.21	1077.11
619.55	1074.94
619.90	1074.63
620.25	1071.78
620.59	1070.12
620.94	1071.75
621.29	1072.50
621.63	1073.86
621.98	1079.55
622.32	1079.29
622.67	1076.23
623.02	1077.23
623.36	1079.81
623.71	1074.75
624.05	1077.82
624.40	1078.45
624.75	1078.17
625.09	1074.70
625.44	1077.37
625.78	1077.70
626.13	1075.41
626.48	1075.08
626.82	1074.63
627.17	1072.74
627.51	1071.68
627.86	1076.62
628.20	1077.33
628.55	1076.74
628.89	1078.54
629.24	1079.76
629.58	1081.82
629.93	1083.39
630.28	1086.31
630.62	1087.88
630.97	1088.37
631.31	1084.65
631.66	1081.33
632.00	1078.45
632.35	1075.52
632.69	1071.05
633.04	1068.48
633.38	1068.08
633.73	1069.41
634.07	1071.38
634.42	1075.62
634.76	1078.38
635.11	1078.00
635.45	1074.94
635.79	1072.43
636.14	1072.13
636.48	1072.95
636.83	1072.92
637.17	1072.76
637.52	1073.60
637.86	1070.14
638.21	1067.87
638.55	1072.81
638.89	1074.89
639.24	1076.34
639.58	1077.33
639.93	1075.94
640.27	1072.32
640.61	1075.92
640.96	1075.69
641.30	1076.51
641.65	1079.34
641.99	1080.88
642.33	1078.36
642.68	1079.24
643.02	1076.88
643.37	1075.36
643.71	1075.08
644.05	1074.89
644.40	1073.74
644.74	1072.67
645.08	1072.64
645.43	1071.29
645.77	1070.54
646.11	1070.19
646.46	1072.92
646.80	1074.28
647.14	1073.21
647.49	1077.30
647.83	1076.95
648.17	1076.93
648.52	1079.60
648.86	1081.89
649.20	1078.61
649.55	1077.37
649.89	1078.75
650.23	1078.00
650.57	1076.37
650.92	1074.26
651.26	1077.16
651.60	1077.02
651.95	1073.74
652.29	1075.38
652.63	1075.57
652.97	1073.00
653.32	1071.80
653.66	1074.47
654.00	1073.63
654.34	1075.64
654.69	1077.16
655.03	1078.52
655.37	1073.81
655.71	1073.72
656.05	1075.73
656.40	1074.00
656.74	1071.33
657.08	1075.22
657.42	1077.58
657.76	1075.94
658.11	1075.92
658.45	1076.53
658.79	1075.22
659.13	1071.03
659.47	1072.27
659.82	1073.14
660.16	1072.13
660.50	1072.08
660.84	1072.92
661.18	1073.25
661.52	1076.27
661.87	1076.88
662.21	1077.93
662.55	1079.08
662.89	1075.97
663.23	1073.88
663.57	1072.88
663.91	1073.04
664.25	1072.78
664.60	1073.23
664.94	1071.64
665.28	1072.13
665.62	1073.93
665.96	1075.22
666.30	1077.89
666.64	1081.80
666.98	1085.87
667.32	1083.97
667.66	1082.64
668.01	1077.98
668.35	1075.52
668.69	1073.56
669.03	1074.59
669.37	1075.31
669.71	1076.69
670.05	1075.90
670.39	1075.62
670.73	1074.49
671.07	1074.14
671.41	1075.92
671.75	1078.28
672.09	1078.54
672.43	1076.53
672.77	1077.11
673.11	1078.43
673.45	1076.53
673.79	1077.91
674.13	1079.13
674.47	1077.28
674.81	1074.07
675.15	1077.16
675.49	1076.01
675.83	1075.01
676.17	1077.40
676.51	1079.36
676.85	1077.91
677.19	1077.96
677.53	1081.37
677.87	1082.92
678.21	1084.70
678.55	1085.35
678.89	1086.10
679.23	1084.04
679.57	1081.82
679.90	1081.37
680.24	1079.67
680.58	1076.93
680.92	1074.07
681.26	1073.23
681.60	1070.72
681.94	1069.46
682.28	1069.60
682.62	1073.25
682.96	1072.78
683.29	1074.35
683.63	1077.70
683.97	1078.73
684.31	1078.17
684.65	1079.60
684.99	1077.91
685.33	1076.25
685.67	1074.66
686.00	1073.86
686.34	1073.02
686.68	1073.02
687.02	1072.39
687.36	1073.79
687.70	1071.78
688.03	1071.01
688.37	1070.91
688.71	1072.67
689.05	1072.48
689.39	1074.49
689.72	1075.15
690.06	1075.90
690.40	1074.73
690.74	1073.37
691.08	1073.32
691.41	1075.10
691.75	1074.87
692.09	1075.76
692.43	1078.52
692.76	1077.04
693.10	1075.87
693.44	1074.42
693.78	1072.46
694.11	1069.81
694.45	1073.21
694.79	1072.32
695.13	1076.46
695.46	1075.87
695.80	1079.64
696.14	1078.26
696.48	1077.21
696.81	1073.23
697.15	1073.74
697.49	1071.73
697.82	1072.69
698.16	1072.15
698.50	1071.80
698.83	1072.53
699.17	1075.80
699.51	1076.20
699.84	1078.68
700.18	1082.19
700.52	1082.73
700.85	1079.64
701.19	1079.13
701.53	1080.86
701.86	1080.04
702.20	1077.77
702.54	1079.74
702.87	1079.10
703.21	1076.90
703.55	1077.25
703.88	1081.35
704.22	1077.98
704.55	1079.34
704.89	1079.81
705.23	1076.90
705.56	1074.87
705.90	1076.79
706.23	1072.76
706.57	1072.74
706.91	1076.27
707.24	1074.63
707.58	1074.94
707.91	1078.96
708.25	1077.30
708.58	1078.24
708.92	1083.74
709.26	1084.00
709.59	1083.32
709.93	1084.42
710.26	1081.77
710.60	1078.73
710.93	1078.92
711.27	1079.15
711.60	1080.11
711.94	1078.78
712.27	1077.09
712.61	1075.59
712.94	1075.85
713.28	1073.09
713.61	1074.56
713.95	1074.59
714.28	1075.97
714.62	1072.53
714.95	1075.13
715.29	1076.37
715.62	1076.90
715.96	1077.96
716.29	1082.52
716.63	1079.41
716.96	1078.57
717.29	1079.17
717.63	1078.03
717.96	1072.18
718.30	1074.10
718.63	1070.68
718.97	1070.21
719.30	1070.70
719.63	1077.93
719.97	1080.60
720.30	1083.81
720.64	1084.35
720.97	1083.29
721.30	1082.61
721.64	1081.49
721.97	1079.34
722.31	1077.91
722.64	1076.27
722.97	1071.87
723.31	1070.44
723.64	1073.60
723.97	1074.38
724.31	1072.76
724.64	1073.46
724.98	1073.39
725.31	1071.33
725.64	1069.81
725.98	1073.53
726.31	1073.91
726.64	1074.21
726.97	1076.46
727.31	1077.61
727.64	1076.18
727.97	1073.09
728.31	1074.84
728.64	1073.00
728.97	1074.31
729.31	1073.32
729.64	1079.20
729.97	1078.12
730.30	1076.32
730.64	1075.34
730.97	1076.97
731.30	1073.18
731.63	1074.75
731.97	1076.72
732.30	1075.78
732.63	1072.15
732.96	1073.72
733.30	1074.45
733.63	1076.06
733.96	1078.47
734.29	1082.31
734.63	1078.99
734.96	1075.22
735.29	1073.70
735.62	1071.52
735.95	1069.23
736.29	1074.91
736.62	1075.31
736.95	1072.81
737.28	1074.94
737.61	1075.55
737.94	1074.31
738.28	1072.95
738.61	1076.67
738.94	1074.17
739.27	1076.41
739.60	1071.68
739.93	1072.34
740.27	1071.71
740.60	1074.63
740.93	1074.56
741.26	1077.23
741.59	1079.01
741.92	1076.97
742.25	1075.55
742.58	1074.94
742.91	1075.34
743.25	1076.20
743.58	1075.22
743.91	1074.87
744.24	1075.15
744.57	1071.85
744.90	1070.47
745.23	1072.41
745.56	1073.98
745.89	1075.22
746.22	1077.91
746.55	1075.92
746.88	1076.60
747.21	1073.25
747.54	1071.50
747.87	1074.89
748.20	1078.10
748.53	1076.37
748.87	1078.59
749.20	1080.13
749.53	1076.51
749.86	1073.39
750.19	1073.63
750.52	1073.28
750.85	1073.11
751.18	1075.31
751.51	1075.76
751.84	1075.80
752.16	1074.66
752.49	1069.95
752.82	1069.67
753.15	1067.75
753.48	1067.14
753.81	1069.02
754.14	1071.87
754.47	1072.53
754.80	1072.18
755.13	1071.31
755.46	1071.47
755.79	1073.63
756.12	1069.77
756.45	1075.76
756.78	1079.97
757.11	1080.25
757.43	1077.44
757.76	1079.85
758.09	1077.54
758.42	1075.50
758.75	1076.13
759.08	1078.57
759.41	1078.33
759.74	1075.99
760.07	1073.95
760.39	1072.69
760.72	1071.61
761.05	1069.74
761.38	1069.04
761.71	1072.55
762.04	1071.33
762.36	1071.80
762.69	1073.32
763.02	1078.96
763.35	1077.96
763.68	1078.07
764.01	1077.04
764.33	1076.93
764.66	1072.92
764.99	1075.29
765.32	1076.81
765.65	1076.62
765.97	1075.50
766.30	1079.01
