SpectraSuite Data File
++++++++++++++++++++++++++++++++++++
Date: Mon Aug 26 10:21:56 PDT 2019
User: corrico
Dark Spectrum Present: No
Reference Spectrum Present: No
Number of Sampled Component Spectra: 1
Spectrometers: USB2+H06089
Integration Time (usec): 2000 (USB2+H06089)
Spectra Averaged: 20 (USB2+H06089)
Boxcar Smoothing: 2 (USB2+H06089)
Correct for Electrical Dark: No (USB2+H06089)
Strobe/Lamp Enabled: No (USB2+H06089)
Correct for Detector Non-linearity: No (USB2+H06089)
Correct for Stray Light: No (USB2+H06089)
Number of Pixels in Processed Spectrum: 2048
>>>>>Begin Processed Spectral Data<<<<<
339.70	1020.12
340.07	1020.12
340.45	988.15
340.82	970.74
341.19	948.71
341.57	923.01
341.94	912.90
342.31	902.53
342.69	896.28
343.06	892.98
343.43	893.52
343.81	894.18
344.18	896.00
344.55	896.89
344.93	901.55
345.30	905.93
345.67	914.17
346.04	923.20
346.42	931.16
346.79	938.53
347.16	949.63
347.54	956.62
347.91	964.35
348.28	973.19
348.65	984.43
349.03	992.06
349.40	1000.30
349.77	1012.35
350.14	1019.23
350.52	1026.84
350.89	1032.93
351.26	1037.30
351.63	1041.40
352.01	1046.71
352.38	1047.23
352.75	1050.06
353.12	1053.92
353.50	1052.59
353.87	1057.55
354.24	1059.49
354.61	1063.26
354.98	1067.00
355.36	1073.88
355.73	1071.94
356.10	1074.80
356.47	1073.25
356.84	1072.69
357.22	1069.93
357.59	1072.27
357.96	1074.33
358.33	1074.14
358.70	1072.22
359.08	1070.77
359.45	1067.31
359.82	1063.49
360.19	1063.96
360.56	1063.14
360.94	1064.87
361.31	1066.30
361.68	1068.06
362.05	1070.12
362.42	1070.96
362.79	1071.99
363.16	1069.32
363.54	1067.59
363.91	1065.55
364.28	1065.04
364.65	1063.40
365.02	1063.19
365.39	1064.08
365.76	1064.36
366.14	1064.94
366.51	1063.52
366.88	1067.38
367.25	1067.05
367.62	1066.18
367.99	1066.42
368.36	1065.58
368.73	1061.76
369.10	1060.71
369.48	1060.22
369.85	1060.45
370.22	1061.46
370.59	1062.14
370.96	1062.67
371.33	1061.06
371.70	1058.60
372.07	1056.35
372.44	1057.92
372.81	1057.76
373.18	1061.97
373.55	1066.09
373.93	1067.87
374.30	1068.45
374.67	1067.24
375.04	1066.04
375.41	1063.89
375.78	1063.33
376.15	1063.54
376.52	1063.12
376.89	1061.15
377.26	1061.97
377.63	1060.66
378.00	1061.83
378.37	1064.43
378.74	1066.89
379.11	1070.02
379.48	1073.42
379.85	1072.57
380.22	1071.59
380.59	1070.30
380.96	1069.51
381.33	1069.44
381.70	1068.29
382.07	1066.37
382.44	1067.61
382.81	1060.75
383.18	1058.11
383.55	1056.99
383.92	1058.98
384.29	1059.05
384.66	1062.28
385.03	1066.89
385.40	1069.41
385.77	1069.37
386.14	1069.46
386.51	1070.84
386.88	1068.15
387.25	1065.46
387.62	1067.31
387.99	1068.99
388.36	1069.72
388.73	1070.23
389.10	1070.61
389.46	1068.88
389.83	1066.39
390.20	1064.85
390.57	1065.18
390.94	1067.66
391.31	1066.47
391.68	1066.56
392.05	1066.42
392.42	1064.59
392.79	1064.64
393.16	1066.65
393.53	1066.11
393.89	1068.99
394.26	1070.89
394.63	1070.23
395.00	1068.97
395.37	1070.72
395.74	1067.42
396.11	1066.93
396.48	1068.22
396.84	1067.12
397.21	1066.39
397.58	1069.32
397.95	1070.94
398.32	1070.80
398.69	1072.13
399.06	1072.39
399.42	1070.98
399.79	1070.21
400.16	1066.91
400.53	1068.20
400.90	1067.64
401.27	1068.31
401.64	1070.05
402.00	1073.42
402.37	1071.19
402.74	1070.26
403.11	1068.41
403.48	1067.71
403.84	1066.49
404.21	1066.89
404.58	1069.86
404.95	1071.82
405.32	1070.94
405.68	1071.01
406.05	1075.71
406.42	1073.07
406.79	1070.89
407.16	1072.46
407.52	1075.24
407.89	1068.10
408.26	1068.15
408.63	1069.04
408.99	1068.48
409.36	1064.41
409.73	1067.42
410.10	1069.72
410.47	1068.29
410.83	1067.52
411.20	1067.12
411.57	1068.48
411.94	1066.44
412.30	1067.73
412.67	1068.83
413.04	1072.88
413.40	1069.65
413.77	1071.75
414.14	1072.06
414.51	1071.22
414.87	1072.32
415.24	1075.24
415.61	1073.44
415.97	1073.79
416.34	1074.21
416.71	1070.58
417.08	1070.09
417.44	1071.19
417.81	1070.51
418.18	1069.98
418.54	1070.23
418.91	1071.97
419.28	1073.04
419.64	1072.81
420.01	1071.38
420.38	1072.39
420.74	1075.08
421.11	1073.77
421.48	1076.04
421.84	1077.61
422.21	1077.30
422.58	1073.16
422.94	1071.64
423.31	1070.37
423.68	1071.38
424.04	1073.11
424.41	1074.52
424.77	1077.30
425.14	1077.04
425.51	1076.79
425.87	1074.80
426.24	1075.85
426.61	1075.92
426.97	1077.42
427.34	1080.02
427.70	1080.63
428.07	1080.39
428.44	1079.24
428.80	1076.58
429.17	1072.20
429.53	1069.95
429.90	1068.76
430.27	1070.98
430.63	1074.56
431.00	1076.27
431.36	1077.58
431.73	1077.61
432.09	1075.38
432.46	1075.80
432.83	1076.93
433.19	1079.97
433.56	1081.37
433.92	1080.70
434.29	1082.40
434.65	1084.98
435.02	1085.07
435.38	1088.47
435.75	1093.47
436.11	1095.28
436.48	1095.70
436.84	1097.83
437.21	1095.00
437.57	1095.11
437.94	1094.48
438.30	1094.29
438.67	1094.18
439.03	1096.14
439.40	1099.09
439.76	1100.31
440.13	1101.74
440.49	1106.51
440.86	1110.98
441.22	1115.01
441.59	1119.67
441.95	1125.24
442.32	1125.33
442.68	1128.91
443.05	1132.59
443.41	1134.06
443.78	1135.04
444.14	1140.24
444.51	1144.64
444.87	1148.34
445.24	1152.69
445.60	1157.79
445.96	1165.61
446.33	1172.37
446.69	1177.10
447.06	1187.59
447.42	1195.85
447.79	1200.91
448.15	1206.03
448.51	1211.06
448.88	1218.95
449.24	1231.80
449.61	1241.26
449.97	1249.40
450.33	1261.17
450.70	1266.32
451.06	1272.81
451.43	1282.71
451.79	1295.23
452.15	1309.11
452.52	1327.79
452.88	1342.23
453.24	1357.93
453.61	1372.16
453.97	1387.61
454.34	1399.45
454.70	1417.08
455.06	1435.26
455.43	1456.23
455.79	1478.24
456.15	1501.01
456.52	1522.54
456.88	1543.72
457.24	1567.95
457.61	1590.86
457.97	1613.24
458.33	1634.44
458.70	1663.33
459.06	1688.39
459.42	1713.41
459.79	1740.05
460.15	1774.69
460.51	1801.63
460.88	1826.04
461.24	1854.03
461.60	1881.32
461.96	1900.75
462.33	1922.35
462.69	1949.97
463.05	1973.24
463.42	1999.57
463.78	2024.31
464.14	2039.75
464.50	2055.32
464.87	2068.92
465.23	2074.11
465.59	2083.36
465.95	2102.41
466.32	2114.09
466.68	2126.99
467.04	2140.84
467.40	2145.01
467.77	2146.72
468.13	2148.59
468.49	2144.84
468.85	2138.90
469.22	2138.99
469.58	2136.89
469.94	2130.87
470.30	2122.98
470.66	2118.28
471.03	2107.89
471.39	2092.30
471.75	2075.68
472.11	2057.64
472.47	2038.98
472.84	2022.08
473.20	2000.29
473.56	1988.54
473.92	1967.22
474.28	1955.31
474.65	1942.06
475.01	1932.44
475.37	1918.30
475.73	1915.45
476.09	1902.67
476.45	1890.68
476.81	1879.57
477.18	1865.99
477.54	1850.64
477.90	1839.87
478.26	1824.52
478.62	1810.92
478.98	1798.21
479.34	1791.61
479.71	1775.48
480.07	1764.81
480.43	1754.96
480.79	1747.94
481.15	1739.18
481.51	1735.95
481.87	1729.98
482.23	1720.34
482.59	1708.29
482.96	1693.64
483.32	1675.57
483.68	1660.19
484.04	1653.49
484.40	1642.99
484.76	1632.36
485.12	1628.10
485.48	1622.60
485.84	1611.62
486.20	1606.80
486.56	1599.85
486.92	1589.06
487.28	1580.35
487.64	1565.28
488.00	1547.75
488.37	1539.60
488.73	1527.36
489.09	1512.66
489.45	1504.26
489.81	1495.44
490.17	1479.83
490.53	1466.84
490.89	1457.99
491.25	1447.08
491.61	1437.58
491.97	1431.35
492.33	1422.39
492.69	1411.23
493.05	1401.19
493.41	1390.18
493.77	1374.53
494.13	1366.92
494.49	1358.94
494.85	1355.59
495.21	1350.07
495.57	1344.08
495.93	1338.46
496.29	1329.82
496.64	1317.96
497.00	1310.19
497.36	1304.83
497.72	1296.26
498.08	1291.93
498.44	1289.54
498.80	1285.05
499.16	1279.06
499.52	1274.00
499.88	1270.37
500.24	1263.19
500.60	1255.86
500.96	1255.23
501.32	1250.52
501.68	1243.71
502.03	1238.45
502.39	1237.14
502.75	1231.36
503.11	1225.29
503.47	1219.04
503.83	1214.62
504.19	1205.98
504.55	1200.77
504.91	1196.90
505.26	1193.79
505.62	1190.49
505.98	1189.39
506.34	1184.29
506.70	1182.79
507.06	1178.65
507.42	1176.70
507.78	1170.01
508.13	1168.23
508.49	1163.90
508.85	1161.63
509.21	1158.47
509.57	1156.55
509.93	1152.06
510.28	1148.81
510.64	1148.99
511.00	1145.15
511.36	1142.72
511.72	1140.19
512.07	1138.62
512.43	1131.39
512.79	1128.56
513.15	1128.93
513.51	1128.51
513.86	1127.30
514.22	1128.91
514.58	1129.78
514.94	1127.55
515.30	1124.35
515.65	1120.13
516.01	1118.12
516.37	1117.96
516.73	1117.47
517.08	1117.84
517.44	1119.97
517.80	1120.20
518.16	1115.73
518.51	1112.99
518.87	1112.74
519.23	1112.27
519.59	1112.13
519.94	1110.87
520.30	1112.55
520.66	1109.39
521.01	1106.42
521.37	1104.36
521.73	1103.42
522.09	1096.05
522.44	1095.56
522.80	1095.14
523.16	1090.41
523.51	1085.00
523.87	1087.48
524.23	1088.19
524.58	1085.84
524.94	1084.25
525.30	1088.33
525.65	1090.24
526.01	1088.02
526.37	1087.81
526.72	1089.68
527.08	1091.79
527.44	1091.95
527.79	1092.54
528.15	1093.94
528.51	1095.42
528.86	1093.12
529.22	1092.05
529.58	1090.74
529.93	1091.51
530.29	1093.03
530.65	1090.99
531.00	1089.99
531.36	1092.40
531.71	1091.46
532.07	1088.63
532.43	1088.30
532.78	1084.44
533.14	1079.95
533.49	1078.85
533.85	1081.47
534.21	1079.64
534.56	1082.26
534.92	1083.95
535.27	1085.91
535.63	1080.23
535.98	1082.85
536.34	1080.30
536.69	1078.92
537.05	1074.82
537.41	1076.53
537.76	1077.11
538.12	1077.93
538.47	1076.51
538.83	1074.61
539.18	1078.66
539.54	1079.99
539.89	1080.46
540.25	1081.05
540.60	1084.53
540.96	1082.15
541.31	1075.38
541.67	1075.66
542.02	1078.28
542.38	1077.68
542.73	1077.11
543.09	1081.84
543.44	1081.21
543.80	1080.13
544.15	1080.74
544.51	1078.89
544.86	1075.34
545.22	1075.03
545.57	1074.77
545.93	1073.28
546.28	1073.23
546.64	1074.35
546.99	1077.18
547.35	1076.44
547.70	1077.75
548.05	1079.06
548.41	1079.57
548.76	1077.11
549.12	1077.75
549.47	1078.12
549.83	1077.61
550.18	1076.93
550.53	1077.25
550.89	1075.22
551.24	1075.22
551.60	1074.12
551.95	1072.76
552.30	1074.75
552.66	1077.49
553.01	1078.68
553.37	1081.28
553.72	1083.97
554.07	1082.73
554.43	1080.72
554.78	1079.17
555.13	1077.91
555.49	1081.12
555.84	1081.80
556.19	1086.50
556.55	1086.76
556.90	1084.89
557.26	1083.18
557.61	1082.52
557.96	1076.88
558.32	1076.13
558.67	1077.56
559.02	1075.57
559.37	1074.77
559.73	1076.11
560.08	1075.34
560.43	1076.55
560.79	1077.28
561.14	1077.35
561.49	1078.50
561.85	1080.84
562.20	1078.17
562.55	1076.25
562.90	1075.92
563.26	1074.59
563.61	1074.21
563.96	1075.94
564.32	1076.72
564.67	1075.83
565.02	1077.35
565.37	1074.38
565.73	1069.91
566.08	1070.87
566.43	1072.48
566.78	1072.85
567.14	1074.89
567.49	1079.53
567.84	1078.64
568.19	1076.79
568.54	1076.93
568.90	1076.46
569.25	1075.10
569.60	1074.89
569.95	1075.13
570.31	1072.22
570.66	1070.77
571.01	1070.75
571.36	1074.66
571.71	1076.01
572.06	1077.65
572.42	1079.27
572.77	1078.82
573.12	1074.19
573.47	1074.40
573.82	1070.63
574.18	1069.72
574.53	1066.21
574.88	1066.86
575.23	1065.25
575.58	1067.71
575.93	1067.71
576.28	1068.67
576.64	1069.70
576.99	1069.13
577.34	1067.28
577.69	1067.49
578.04	1071.59
578.39	1070.09
578.74	1072.18
579.09	1073.81
579.44	1072.60
579.80	1073.04
580.15	1075.59
580.50	1075.69
580.85	1077.98
581.20	1078.68
581.55	1078.31
581.90	1079.85
582.25	1078.19
582.60	1076.13
582.95	1074.89
583.30	1075.17
583.65	1074.89
584.00	1075.57
584.35	1078.61
584.71	1082.47
585.06	1082.17
585.41	1078.89
585.76	1080.27
586.11	1075.08
586.46	1073.00
586.81	1072.01
587.16	1073.11
587.51	1071.54
587.86	1074.03
588.21	1072.32
588.56	1073.46
588.91	1072.97
589.26	1074.49
589.61	1074.33
589.96	1074.98
590.31	1074.21
590.66	1074.05
591.01	1074.82
591.36	1077.61
591.71	1078.73
592.06	1078.68
592.41	1081.14
592.76	1079.27
593.10	1076.86
593.45	1077.33
593.80	1075.17
594.15	1072.90
594.50	1073.98
594.85	1076.23
595.20	1075.97
595.55	1075.78
595.90	1076.67
596.25	1075.01
596.60	1072.41
596.95	1073.28
597.30	1074.84
597.64	1084.16
597.99	1086.13
598.34	1086.06
598.69	1086.43
599.04	1084.96
599.39	1074.49
599.74	1074.77
600.09	1074.54
600.44	1072.92
600.78	1073.84
601.13	1072.97
601.48	1070.07
601.83	1070.44
602.18	1069.91
602.53	1070.56
602.88	1069.41
603.22	1073.16
603.57	1073.46
603.92	1075.76
604.27	1073.95
604.62	1078.14
604.97	1075.73
605.31	1074.03
605.66	1072.64
606.01	1077.70
606.36	1075.41
606.71	1074.96
607.05	1075.92
607.40	1078.57
607.75	1076.04
608.10	1078.82
608.44	1079.20
608.79	1077.07
609.14	1075.22
609.49	1070.89
609.84	1069.88
610.18	1069.23
610.53	1070.35
610.88	1069.77
611.23	1073.81
611.57	1075.17
611.92	1074.63
612.27	1076.30
612.62	1077.84
612.96	1079.08
613.31	1076.46
613.66	1076.65
614.00	1075.78
614.35	1073.32
614.70	1072.88
615.05	1073.77
615.39	1074.35
615.74	1076.81
616.09	1077.21
616.43	1078.73
616.78	1074.89
617.13	1076.06
617.47	1072.27
617.82	1070.23
618.17	1070.23
618.51	1072.39
618.86	1067.87
619.21	1070.72
619.55	1074.05
619.90	1071.10
620.25	1071.97
620.59	1074.89
620.94	1075.59
621.29	1074.82
621.63	1073.37
621.98	1075.03
622.32	1075.22
622.67	1074.63
623.02	1071.99
623.36	1074.07
623.71	1073.91
624.05	1075.45
624.40	1074.98
624.75	1076.46
625.09	1078.26
625.44	1078.21
625.78	1077.61
626.13	1077.63
626.48	1078.89
626.82	1077.47
627.17	1076.08
627.51	1074.82
627.86	1072.18
628.20	1072.71
628.55	1072.62
628.89	1074.17
629.24	1075.55
629.58	1076.01
629.93	1074.82
630.28	1072.41
630.62	1071.03
630.97	1070.70
631.31	1073.91
631.66	1073.35
632.00	1074.61
632.35	1073.35
632.69	1073.72
633.04	1072.64
633.38	1072.46
633.73	1073.88
634.07	1074.42
634.42	1071.38
634.76	1071.87
635.11	1072.78
635.45	1071.82
635.79	1072.20
636.14	1072.04
636.48	1071.26
636.83	1071.90
637.17	1074.35
637.52	1071.40
637.86	1073.37
638.21	1075.71
638.55	1073.35
638.89	1069.88
639.24	1071.52
639.58	1072.18
639.93	1069.84
640.27	1070.14
640.61	1068.36
640.96	1070.21
641.30	1070.14
641.65	1071.19
641.99	1072.20
642.33	1074.33
642.68	1073.84
643.02	1074.70
643.37	1073.98
643.71	1074.38
644.05	1072.06
644.40	1073.65
644.74	1074.03
645.08	1071.75
645.43	1074.49
645.77	1076.34
646.11	1075.83
646.46	1075.43
646.80	1078.24
647.14	1076.53
647.49	1077.44
647.83	1077.91
648.17	1075.76
648.52	1075.29
648.86	1074.66
649.20	1074.56
649.55	1074.31
649.89	1074.87
650.23	1073.18
650.57	1069.98
650.92	1070.63
651.26	1070.54
651.60	1070.87
651.95	1073.18
652.29	1076.83
652.63	1075.01
652.97	1076.34
653.32	1075.87
653.66	1075.36
654.00	1077.07
654.34	1080.20
654.69	1081.30
655.03	1082.29
655.37	1081.75
655.71	1079.95
656.05	1079.22
656.40	1075.99
656.74	1075.50
657.08	1072.36
657.42	1070.14
657.76	1069.09
658.11	1068.83
658.45	1070.05
658.79	1070.49
659.13	1073.91
659.47	1074.42
659.82	1075.13
660.16	1073.53
660.50	1074.28
660.84	1071.75
661.18	1074.31
661.52	1074.96
661.87	1077.35
662.21	1078.05
662.55	1077.79
662.89	1076.01
663.23	1073.42
663.57	1072.53
663.91	1073.35
664.25	1073.53
664.60	1072.90
664.94	1073.09
665.28	1073.16
665.62	1077.58
665.96	1077.11
666.30	1079.22
666.64	1081.16
666.98	1080.98
667.32	1077.33
667.66	1079.01
668.01	1074.77
668.35	1073.95
668.69	1073.00
669.03	1073.35
669.37	1071.45
669.71	1072.71
670.05	1072.57
670.39	1073.65
670.73	1072.62
671.07	1070.56
671.41	1071.97
671.75	1073.00
672.09	1073.39
672.43	1072.22
672.77	1074.77
673.11	1073.53
673.45	1071.92
673.79	1067.64
674.13	1069.16
674.47	1068.71
674.81	1071.38
675.15	1073.46
675.49	1076.62
675.83	1075.99
676.17	1079.43
676.51	1077.44
676.85	1078.21
677.19	1075.76
677.53	1077.02
677.87	1075.22
678.21	1074.66
678.55	1073.58
678.89	1075.83
679.23	1073.30
679.57	1073.70
679.90	1070.94
680.24	1071.08
680.58	1070.49
680.92	1071.71
681.26	1073.28
681.60	1076.06
681.94	1077.02
682.28	1078.28
682.62	1079.83
682.96	1078.00
683.29	1078.52
683.63	1077.14
683.97	1078.92
684.31	1075.97
684.65	1077.18
684.99	1077.14
685.33	1075.15
685.67	1073.07
686.00	1075.45
686.34	1074.75
686.68	1074.03
687.02	1077.40
687.36	1076.15
687.70	1073.88
688.03	1074.87
688.37	1074.00
688.71	1073.11
689.05	1072.76
689.39	1075.83
689.72	1073.74
690.06	1073.67
690.40	1071.50
690.74	1073.98
691.08	1073.70
691.41	1073.77
691.75	1074.49
692.09	1074.59
692.43	1075.38
692.76	1075.38
693.10	1078.40
693.44	1078.71
693.78	1080.70
694.11	1080.18
694.45	1082.61
694.79	1082.29
695.13	1082.80
695.46	1083.36
695.80	1083.15
696.14	1080.02
696.48	1078.14
696.81	1078.05
697.15	1076.72
697.49	1076.69
697.82	1078.26
698.16	1076.34
698.50	1079.99
698.83	1080.91
699.17	1080.18
699.51	1078.33
699.84	1078.99
700.18	1074.94
700.52	1075.24
700.85	1074.63
701.19	1072.95
701.53	1071.71
701.86	1071.22
702.20	1068.36
702.54	1068.43
702.87	1070.37
703.21	1074.42
703.55	1074.33
703.88	1075.13
704.22	1077.25
704.55	1076.83
704.89	1076.69
705.23	1079.92
705.56	1077.00
705.90	1074.40
706.23	1073.23
706.57	1073.46
706.91	1068.64
707.24	1070.77
707.58	1070.35
707.91	1073.91
708.25	1069.70
708.58	1072.48
708.92	1072.67
709.26	1072.43
709.59	1070.70
709.93	1071.85
710.26	1070.68
710.60	1070.51
710.93	1072.50
711.27	1072.29
711.60	1072.78
711.94	1071.99
712.27	1073.91
712.61	1072.46
712.94	1073.70
713.28	1076.08
713.61	1079.57
713.95	1078.38
714.28	1079.46
714.62	1077.47
714.95	1076.90
715.29	1075.41
715.62	1075.48
715.96	1075.57
716.29	1075.80
716.63	1074.21
716.96	1072.39
717.29	1074.21
717.63	1075.20
717.96	1073.95
718.30	1074.24
718.63	1076.53
718.97	1076.65
719.30	1074.31
719.63	1076.44
719.97	1075.22
720.30	1074.63
720.64	1072.83
720.97	1076.27
721.30	1075.50
721.64	1076.51
721.97	1075.90
722.31	1078.21
722.64	1075.13
722.97	1074.47
723.31	1072.83
723.64	1074.59
723.97	1072.74
724.31	1071.61
724.64	1072.55
724.98	1073.44
725.31	1073.60
725.64	1071.73
725.98	1074.14
726.31	1072.06
726.64	1072.53
726.97	1073.72
727.31	1076.69
727.64	1076.60
727.97	1077.16
728.31	1078.38
728.64	1071.57
728.97	1068.48
729.31	1068.13
729.64	1066.82
729.97	1066.00
730.30	1069.88
730.64	1072.46
730.97	1074.31
731.30	1077.61
731.63	1075.69
731.97	1075.92
732.30	1074.19
732.63	1066.86
732.96	1065.58
733.30	1066.51
733.63	1068.78
733.96	1070.84
734.29	1077.51
734.63	1077.44
734.96	1077.28
735.29	1075.83
735.62	1074.70
735.95	1076.04
736.29	1076.83
736.62	1076.95
736.95	1077.51
737.28	1078.05
737.61	1073.63
737.94	1073.70
738.28	1075.29
738.61	1074.68
738.94	1074.33
739.27	1076.53
739.60	1076.97
739.93	1077.35
740.27	1073.91
740.60	1073.91
740.93	1073.46
741.26	1073.09
741.59	1070.00
741.92	1072.18
742.25	1069.53
742.58	1070.42
742.91	1071.19
743.25	1074.10
743.58	1072.92
743.91	1077.33
744.24	1078.50
744.57	1078.26
744.90	1074.96
745.23	1077.14
745.56	1075.01
745.89	1073.00
746.22	1077.04
746.55	1078.36
746.88	1078.99
747.21	1081.19
747.54	1082.19
747.87	1075.27
748.20	1075.76
748.53	1074.82
748.87	1070.89
749.20	1069.77
749.53	1071.31
749.86	1072.46
750.19	1075.05
750.52	1076.18
750.85	1076.48
751.18	1073.37
751.51	1075.43
751.84	1072.46
752.16	1074.70
752.49	1074.56
752.82	1076.55
753.15	1075.43
753.48	1074.31
753.81	1070.68
754.14	1070.77
754.47	1072.25
754.80	1072.95
755.13	1074.38
755.46	1077.61
755.79	1078.61
756.12	1079.27
756.45	1075.76
756.78	1076.60
757.11	1079.69
757.43	1079.13
757.76	1078.94
758.09	1081.91
758.42	1082.12
758.75	1079.60
759.08	1077.35
759.41	1077.49
759.74	1072.36
760.07	1070.87
760.39	1067.33
760.72	1068.10
761.05	1067.71
761.38	1070.82
761.71	1072.53
762.04	1075.36
762.36	1077.14
762.69	1077.42
763.02	1077.11
763.35	1076.37
763.68	1073.79
764.01	1070.35
764.33	1070.12
764.66	1068.15
764.99	1068.67
765.32	1070.05
765.65	1072.29
765.97	1071.31
766.30	1072.92
