SpectraSuite Data File
++++++++++++++++++++++++++++++++++++
Date: Mon Aug 26 10:22:20 PDT 2019
User: corrico
Dark Spectrum Present: No
Reference Spectrum Present: No
Number of Sampled Component Spectra: 1
Spectrometers: USB2+H06089
Integration Time (usec): 2000 (USB2+H06089)
Spectra Averaged: 20 (USB2+H06089)
Boxcar Smoothing: 2 (USB2+H06089)
Correct for Electrical Dark: No (USB2+H06089)
Strobe/Lamp Enabled: No (USB2+H06089)
Correct for Detector Non-linearity: No (USB2+H06089)
Correct for Stray Light: No (USB2+H06089)
Number of Pixels in Processed Spectrum: 2048
>>>>>Begin Processed Spectral Data<<<<<
339.70	1020.36
340.07	1020.36
340.45	984.31
340.82	961.40
341.19	942.11
341.57	917.54
341.94	908.22
342.31	902.91
342.69	901.46
343.06	896.75
343.43	895.96
343.81	897.97
344.18	902.07
344.55	904.90
344.93	910.47
345.30	917.33
345.67	922.97
346.04	930.48
346.42	937.08
346.79	944.13
347.16	952.46
347.54	961.84
347.91	970.39
348.28	980.92
348.65	993.14
349.03	1003.62
349.40	1011.30
349.77	1017.78
350.14	1026.42
350.52	1030.80
350.89	1034.66
351.26	1042.15
351.63	1052.30
352.01	1055.72
352.38	1057.59
352.75	1064.59
353.12	1067.64
353.50	1068.55
353.87	1075.90
354.24	1082.50
354.61	1083.27
354.98	1086.66
355.36	1089.57
355.73	1088.93
356.10	1087.95
356.47	1083.32
356.84	1081.35
357.22	1080.60
357.59	1078.45
357.96	1078.00
358.33	1083.11
358.70	1081.44
359.08	1079.43
359.45	1080.88
359.82	1078.73
360.19	1078.28
360.56	1080.04
360.94	1082.03
361.31	1080.23
361.68	1083.46
362.05	1084.67
362.42	1081.44
362.79	1083.18
363.16	1082.22
363.54	1077.58
363.91	1076.67
364.28	1078.45
364.65	1073.63
365.02	1073.63
365.39	1074.35
365.76	1073.58
366.14	1072.04
366.51	1071.66
366.88	1071.54
367.25	1070.49
367.62	1069.67
367.99	1070.19
368.36	1073.42
368.73	1071.92
369.10	1073.35
369.48	1073.88
369.85	1072.60
370.22	1068.17
370.59	1069.20
370.96	1068.85
371.33	1070.42
371.70	1069.77
372.07	1075.34
372.44	1074.49
372.81	1077.02
373.18	1075.71
373.55	1078.26
373.93	1076.62
374.30	1076.81
374.67	1073.74
375.04	1071.80
375.41	1070.40
375.78	1070.02
376.15	1070.49
376.52	1076.06
376.89	1079.10
377.26	1082.08
377.63	1084.30
378.00	1084.74
378.37	1083.22
378.74	1082.19
379.11	1081.12
379.48	1078.80
379.85	1081.61
380.22	1080.13
380.59	1078.80
380.96	1078.03
381.33	1078.33
381.70	1078.28
382.07	1078.28
382.44	1080.02
382.81	1082.03
383.18	1081.73
383.55	1080.72
383.92	1080.81
384.29	1081.28
384.66	1082.85
385.03	1082.38
385.40	1082.59
385.77	1082.01
386.14	1083.08
386.51	1080.37
386.88	1080.84
387.25	1083.20
387.62	1086.52
387.99	1087.02
388.36	1087.34
388.73	1086.50
389.10	1082.36
389.46	1080.44
389.83	1078.05
390.20	1078.96
390.57	1079.55
390.94	1082.33
391.31	1081.33
391.68	1083.46
392.05	1081.98
392.42	1082.26
392.79	1082.19
393.16	1082.59
393.53	1081.68
393.89	1081.70
394.26	1083.04
394.63	1081.89
395.00	1079.64
395.37	1079.97
395.74	1080.91
396.11	1079.01
396.48	1081.28
396.84	1085.70
397.21	1087.83
397.58	1088.79
397.95	1088.84
398.32	1087.81
398.69	1088.49
399.06	1085.03
399.42	1083.01
399.79	1084.96
400.16	1084.63
400.53	1084.98
400.90	1089.68
401.27	1092.21
401.64	1091.72
402.00	1091.81
402.37	1089.26
402.74	1085.75
403.11	1089.03
403.48	1090.13
403.84	1090.10
404.21	1092.77
404.58	1092.68
404.95	1091.44
405.32	1092.07
405.68	1093.50
406.05	1089.82
406.42	1090.99
406.79	1090.17
407.16	1087.09
407.52	1087.58
407.89	1090.41
408.26	1091.70
408.63	1093.71
408.99	1097.95
409.36	1099.63
409.73	1102.02
410.10	1102.84
410.47	1099.44
410.83	1094.74
411.20	1092.84
411.57	1091.18
411.94	1087.13
412.30	1090.17
412.67	1090.43
413.04	1091.42
413.40	1093.90
413.77	1097.10
414.14	1097.78
414.51	1103.23
414.87	1102.18
415.24	1099.89
415.61	1100.99
415.97	1100.38
416.34	1098.04
416.71	1101.11
417.08	1101.01
417.44	1100.89
417.81	1100.24
418.18	1100.33
418.54	1102.30
418.91	1107.17
419.28	1106.61
419.64	1107.56
420.01	1111.57
420.38	1111.78
420.74	1111.10
421.11	1114.05
421.48	1118.87
421.84	1123.27
422.21	1125.42
422.58	1124.09
422.94	1126.38
423.31	1128.00
423.68	1125.84
424.04	1127.83
424.41	1131.63
424.77	1137.17
425.14	1140.40
425.51	1142.70
425.87	1144.08
426.24	1151.61
426.61	1155.78
426.97	1161.05
427.34	1168.47
427.70	1174.83
428.07	1181.29
428.44	1187.00
428.80	1193.21
429.17	1200.91
429.53	1209.21
429.90	1216.49
430.27	1224.05
430.63	1232.71
431.00	1242.80
431.36	1255.91
431.73	1266.30
432.09	1282.61
432.46	1298.18
432.83	1315.43
433.19	1330.45
433.56	1351.38
433.92	1370.27
434.29	1392.45
434.65	1417.17
435.02	1441.07
435.38	1464.75
435.75	1491.44
436.11	1522.73
436.48	1551.07
436.84	1586.23
437.21	1624.57
437.57	1661.27
437.94	1700.89
438.30	1743.70
438.67	1787.30
439.03	1835.10
439.40	1892.39
439.76	1947.37
440.13	2006.28
440.49	2073.78
440.86	2142.08
441.22	2209.56
441.59	2280.41
441.95	2363.80
442.32	2439.45
442.68	2535.29
443.05	2628.23
443.41	2727.96
443.78	2826.31
444.14	2932.93
444.51	3039.75
444.87	3179.17
445.24	3316.21
445.60	3471.44
445.96	3631.18
446.33	3802.32
446.69	3956.98
447.06	4137.79
447.42	4309.86
447.79	4497.15
448.15	4712.60
448.51	4941.03
448.88	5204.67
449.24	5454.88
449.61	5735.53
449.97	6004.18
450.33	6293.19
450.70	6545.82
451.06	6870.24
451.43	7174.49
451.79	7540.74
452.15	7933.64
452.52	8379.82
452.88	8851.51
453.24	9379.35
453.61	9951.21
453.97	10503.88
454.34	11041.24
454.70	11661.09
455.06	12307.08
455.43	12930.41
455.79	13535.36
456.15	14256.11
456.52	14906.47
456.88	15667.73
457.24	16383.19
457.61	17229.85
457.97	17985.24
458.33	18786.73
458.70	19543.73
459.06	20296.21
459.42	21114.23
459.79	21911.04
460.15	22796.35
460.51	23654.83
460.88	24580.35
461.24	25391.21
461.60	26336.01
461.96	27200.98
462.33	28052.51
462.69	28850.45
463.05	29695.97
463.42	30429.47
463.78	31090.86
464.14	31613.19
464.50	32212.09
464.87	32681.04
465.23	33000.15
465.59	33353.55
465.95	33715.51
466.32	33989.40
466.68	34213.55
467.04	34388.72
467.40	34541.65
467.77	34680.75
468.13	34665.60
468.49	34580.71
468.85	34513.80
469.22	34353.07
469.58	34005.50
469.94	33752.87
470.30	33456.13
470.66	33049.18
471.03	32460.52
471.39	32083.17
471.75	31460.78
472.11	30878.85
472.47	30523.86
472.84	30227.27
473.20	29742.87
473.56	29474.62
473.92	29053.05
474.28	28538.67
474.65	28030.16
475.01	27564.93
475.37	26996.58
475.73	26553.47
476.09	26033.40
476.45	25528.06
476.81	25036.76
477.18	24498.41
477.54	24023.73
477.90	23658.91
478.26	23222.05
478.62	22854.28
478.98	22574.12
479.34	22258.52
479.71	21836.85
480.07	21484.97
480.43	21116.90
480.79	20712.83
481.15	20341.97
481.51	20022.56
481.87	19785.53
482.23	19492.89
482.59	19243.25
482.96	18992.65
483.32	18709.45
483.68	18334.47
484.04	18009.74
484.40	17640.57
484.76	17253.31
485.12	16894.38
485.48	16560.55
485.84	16198.78
486.20	15855.49
486.56	15491.19
486.92	15172.10
487.28	14839.30
487.64	14485.22
488.00	14152.17
488.37	13833.74
488.73	13479.96
489.09	13116.69
489.45	12802.66
489.81	12486.17
490.17	12195.64
490.53	11908.51
490.89	11610.79
491.25	11315.79
491.61	11008.83
491.97	10680.10
492.33	10350.22
492.69	10054.47
493.05	9757.06
493.41	9469.29
493.77	9200.08
494.13	8953.11
494.49	8705.72
494.85	8456.45
495.21	8230.77
495.57	8015.61
495.93	7799.69
496.29	7597.24
496.64	7413.16
497.00	7220.41
497.36	7027.55
497.72	6831.84
498.08	6646.82
498.44	6458.99
498.80	6285.02
499.16	6118.37
499.52	5964.60
499.88	5831.96
500.24	5714.21
500.60	5592.24
500.96	5476.50
501.32	5364.65
501.68	5241.23
502.03	5106.04
502.39	4978.60
502.75	4842.64
503.11	4717.58
503.47	4601.14
503.83	4484.19
504.19	4367.88
504.55	4263.92
504.91	4170.25
505.26	4070.68
505.62	3986.31
505.98	3901.63
506.34	3809.57
506.70	3716.26
507.06	3622.40
507.42	3533.88
507.78	3458.94
508.13	3383.88
508.49	3306.92
508.85	3237.15
509.21	3164.10
509.57	3090.09
509.93	3024.72
510.28	2957.13
510.64	2897.02
511.00	2838.65
511.36	2776.27
511.72	2722.09
512.07	2674.62
512.43	2622.80
512.79	2572.90
513.15	2526.91
513.51	2475.70
513.86	2428.12
514.22	2383.20
514.58	2340.68
514.94	2299.90
515.30	2266.08
515.65	2227.30
516.01	2198.84
516.37	2170.24
516.73	2141.99
517.08	2112.24
517.44	2086.03
517.80	2050.38
518.16	2021.54
518.51	1992.24
518.87	1961.56
519.23	1930.29
519.59	1910.09
519.94	1879.52
520.30	1856.07
520.66	1831.54
521.01	1808.37
521.37	1786.46
521.73	1769.28
522.09	1751.07
522.44	1732.30
522.80	1714.91
523.16	1691.06
523.51	1672.52
523.87	1650.29
524.23	1634.35
524.58	1617.99
524.94	1602.66
525.30	1584.24
525.65	1569.28
526.01	1552.78
526.37	1538.55
526.72	1528.07
527.08	1512.10
527.44	1498.67
527.79	1485.12
528.15	1468.55
528.51	1450.73
528.86	1439.50
529.22	1427.63
529.58	1416.80
529.93	1407.64
530.29	1402.03
530.65	1390.68
531.00	1380.47
531.36	1374.01
531.71	1367.53
532.07	1354.44
532.43	1346.98
532.78	1343.40
533.14	1331.55
533.49	1319.34
533.85	1316.62
534.21	1311.61
534.56	1303.02
534.92	1297.76
535.27	1296.02
535.63	1290.55
535.98	1285.40
536.34	1277.58
536.69	1271.43
537.05	1263.12
537.41	1257.15
537.76	1250.76
538.12	1246.10
538.47	1243.92
538.83	1238.54
539.18	1233.39
539.54	1227.89
539.89	1226.37
540.25	1221.08
540.60	1219.96
540.96	1215.96
541.31	1211.20
541.67	1206.76
542.02	1202.40
542.38	1199.50
542.73	1199.03
543.09	1198.33
543.44	1191.92
543.80	1190.91
544.15	1186.72
544.51	1182.02
544.86	1181.13
545.22	1181.50
545.57	1177.34
545.93	1177.52
546.28	1171.79
546.64	1167.62
546.99	1165.35
547.35	1164.79
547.70	1158.61
548.05	1157.58
548.41	1157.44
548.76	1155.50
549.12	1153.65
549.47	1157.68
549.83	1157.00
550.18	1151.57
550.53	1148.97
550.89	1150.23
551.24	1146.68
551.60	1142.72
551.95	1142.93
552.30	1143.16
552.66	1137.64
553.01	1137.01
553.37	1138.02
553.72	1136.28
554.07	1134.50
554.43	1133.43
554.78	1126.73
555.13	1125.56
555.49	1122.87
555.84	1120.27
556.19	1119.55
556.55	1122.75
556.90	1119.62
557.26	1122.03
557.61	1121.61
557.96	1122.36
558.32	1120.13
558.67	1120.86
559.02	1120.18
559.37	1118.96
559.73	1115.22
560.08	1113.65
560.43	1113.95
560.79	1112.18
561.14	1114.59
561.49	1114.07
561.85	1114.54
562.20	1114.33
562.55	1115.01
562.90	1111.54
563.26	1111.82
563.61	1112.85
563.96	1111.64
564.32	1108.57
564.67	1108.99
565.02	1108.29
565.37	1104.55
565.73	1103.42
566.08	1105.48
566.43	1103.00
566.78	1105.15
567.14	1105.81
567.49	1101.20
567.84	1097.38
568.19	1101.06
568.54	1098.83
568.90	1097.59
569.25	1102.13
569.60	1104.19
569.95	1100.43
570.31	1102.77
570.66	1106.18
571.01	1104.24
571.36	1106.35
571.71	1105.76
572.06	1100.08
572.42	1096.49
572.77	1096.52
573.12	1092.80
573.47	1092.63
573.82	1095.09
574.18	1094.69
574.53	1091.11
574.88	1093.24
575.23	1094.72
575.58	1094.46
575.93	1094.57
576.28	1097.48
576.64	1095.49
576.99	1095.28
577.34	1095.75
577.69	1091.13
578.04	1092.14
578.39	1090.78
578.74	1086.38
579.09	1084.00
579.44	1089.14
579.80	1085.45
580.15	1085.24
580.50	1088.93
580.85	1089.68
581.20	1087.53
581.55	1090.95
581.90	1094.25
582.25	1093.05
582.60	1092.19
582.95	1093.19
583.30	1091.18
583.65	1086.78
584.00	1085.70
584.35	1086.83
584.71	1089.36
585.06	1087.60
585.41	1088.42
585.76	1088.49
586.11	1085.59
586.46	1084.60
586.81	1083.81
587.16	1085.07
587.51	1085.24
587.86	1087.93
588.21	1086.27
588.56	1087.55
588.91	1088.02
589.26	1087.39
589.61	1087.41
589.96	1087.65
590.31	1088.23
590.66	1086.38
591.01	1089.50
591.36	1086.17
591.71	1086.78
592.06	1085.94
592.41	1086.50
592.76	1085.21
593.10	1086.92
593.45	1087.02
593.80	1088.47
594.15	1089.89
594.50	1089.82
594.85	1090.90
595.20	1087.69
595.55	1090.17
595.90	1089.00
596.25	1087.06
596.60	1086.08
596.95	1084.18
597.30	1082.29
597.64	1090.08
597.99	1093.36
598.34	1094.95
598.69	1096.78
599.04	1096.38
599.39	1086.73
599.74	1085.45
600.09	1083.39
600.44	1085.12
600.78	1082.78
601.13	1086.41
601.48	1084.84
601.83	1083.95
602.18	1086.22
602.53	1088.21
602.88	1083.46
603.22	1087.39
603.57	1087.27
603.92	1085.66
604.27	1085.17
604.62	1084.96
604.97	1080.48
605.31	1080.25
605.66	1077.35
606.01	1076.41
606.36	1077.07
606.71	1081.54
607.05	1083.50
607.40	1083.41
607.75	1085.03
608.10	1088.12
608.44	1082.52
608.79	1081.30
609.14	1081.28
609.49	1080.48
609.84	1079.24
610.18	1083.06
610.53	1086.38
610.88	1087.72
611.23	1090.55
611.57	1089.87
611.92	1088.19
612.27	1088.07
612.62	1088.37
612.96	1084.74
613.31	1084.42
613.66	1084.56
614.00	1084.37
614.35	1089.54
614.70	1091.95
615.05	1094.15
615.39	1091.49
615.74	1088.28
616.09	1085.33
616.43	1085.26
616.78	1085.59
617.13	1089.17
617.47	1089.94
617.82	1085.52
618.17	1085.84
618.51	1083.25
618.86	1081.82
619.21	1079.69
619.55	1080.67
619.90	1077.23
620.25	1078.92
620.59	1080.04
620.94	1083.13
621.29	1085.80
621.63	1087.60
621.98	1086.31
622.32	1084.07
622.67	1086.22
623.02	1083.64
623.36	1084.58
623.71	1084.70
624.05	1086.34
624.40	1083.08
624.75	1086.15
625.09	1086.10
625.44	1086.55
625.78	1084.77
626.13	1086.27
626.48	1083.60
626.82	1081.89
627.17	1080.98
627.51	1082.87
627.86	1082.71
628.20	1079.50
628.55	1078.50
628.89	1076.34
629.24	1073.93
629.58	1074.63
629.93	1078.78
630.28	1079.03
630.62	1079.17
630.97	1079.60
631.31	1079.74
631.66	1077.40
632.00	1079.31
632.35	1082.40
632.69	1082.22
633.04	1080.56
633.38	1080.11
633.73	1081.84
634.07	1078.40
634.42	1080.93
634.76	1082.22
635.11	1084.81
635.45	1079.17
635.79	1079.43
636.14	1077.04
636.48	1073.70
636.83	1070.35
637.17	1072.20
637.52	1075.48
637.86	1075.80
638.21	1077.00
638.55	1079.83
638.89	1080.77
639.24	1079.46
639.58	1078.47
639.93	1079.48
640.27	1081.16
640.61	1081.87
640.96	1082.19
641.30	1083.57
641.65	1081.54
641.99	1079.43
642.33	1079.74
642.68	1080.93
643.02	1082.85
643.37	1083.86
643.71	1085.03
644.05	1083.69
644.40	1083.71
644.74	1082.47
645.08	1082.19
645.43	1080.91
645.77	1080.86
646.11	1077.51
646.46	1078.82
646.80	1079.46
647.14	1082.76
647.49	1081.16
647.83	1081.98
648.17	1081.00
648.52	1079.46
648.86	1076.76
649.20	1078.50
649.55	1082.19
649.89	1080.04
650.23	1082.15
650.57	1081.19
650.92	1081.33
651.26	1080.58
651.60	1081.30
651.95	1081.05
652.29	1082.64
652.63	1081.89
652.97	1077.91
653.32	1078.64
653.66	1081.35
654.00	1081.98
654.34	1081.26
654.69	1082.66
655.03	1082.31
655.37	1078.71
655.71	1076.44
656.05	1079.01
656.40	1081.98
656.74	1082.01
657.08	1083.69
657.42	1084.02
657.76	1082.64
658.11	1081.58
658.45	1084.53
658.79	1084.21
659.13	1084.28
659.47	1086.27
659.82	1088.75
660.16	1085.19
660.50	1084.60
660.84	1084.53
661.18	1079.95
661.52	1074.14
661.87	1075.43
662.21	1072.25
662.55	1072.53
662.89	1077.28
663.23	1080.53
663.57	1082.31
663.91	1085.77
664.25	1087.90
664.60	1084.63
664.94	1082.85
665.28	1078.45
665.62	1076.37
665.96	1071.38
666.30	1071.17
666.64	1071.15
666.98	1071.59
667.32	1074.96
667.66	1077.33
668.01	1076.30
668.35	1077.14
668.69	1078.50
669.03	1074.59
669.37	1077.23
669.71	1080.72
670.05	1081.51
670.39	1082.64
670.73	1086.48
671.07	1085.26
671.41	1085.63
671.75	1082.87
672.09	1080.46
672.43	1077.68
672.77	1079.85
673.11	1077.82
673.45	1079.50
673.79	1081.87
674.13	1083.67
674.47	1082.47
674.81	1081.58
675.15	1078.52
675.49	1079.48
675.83	1080.46
676.17	1078.89
676.51	1080.18
676.85	1083.25
677.19	1080.79
677.53	1079.08
677.87	1075.17
678.21	1074.70
678.55	1074.73
678.89	1079.48
679.23	1080.13
679.57	1083.29
679.90	1085.82
680.24	1085.47
680.58	1080.23
680.92	1079.64
681.26	1085.61
681.60	1084.49
681.94	1083.13
682.28	1083.32
682.62	1081.82
682.96	1074.75
683.29	1072.81
683.63	1070.72
683.97	1073.98
684.31	1076.44
684.65	1080.58
684.99	1083.27
685.33	1084.42
685.67	1083.01
686.00	1083.25
686.34	1081.51
686.68	1079.60
687.02	1080.39
687.36	1078.26
687.70	1077.30
688.03	1075.71
688.37	1078.36
688.71	1081.66
689.05	1082.10
689.39	1080.39
689.72	1082.71
690.06	1082.05
690.40	1079.01
690.74	1080.44
691.08	1078.14
691.41	1074.87
691.75	1076.46
692.09	1077.07
692.43	1077.44
692.76	1081.61
693.10	1081.77
693.44	1081.42
693.78	1083.50
694.11	1083.34
694.45	1084.74
694.79	1089.54
695.13	1087.06
695.46	1084.65
695.80	1085.24
696.14	1080.13
696.48	1075.45
696.81	1074.35
697.15	1074.42
697.49	1074.70
697.82	1073.42
698.16	1075.87
698.50	1075.52
698.83	1076.48
699.17	1075.22
699.51	1077.82
699.84	1076.67
700.18	1079.57
700.52	1079.62
700.85	1078.82
701.19	1080.81
701.53	1082.73
701.86	1080.79
702.20	1079.46
702.54	1082.43
702.87	1082.94
703.21	1081.51
703.55	1082.76
703.88	1083.25
704.22	1082.05
704.55	1084.65
704.89	1085.14
705.23	1082.01
705.56	1082.17
705.90	1078.31
706.23	1073.79
706.57	1070.75
706.91	1071.97
707.24	1070.63
707.58	1073.39
707.91	1072.34
708.25	1074.73
708.58	1076.39
708.92	1080.25
709.26	1079.71
709.59	1081.14
709.93	1080.70
710.26	1078.54
710.60	1075.50
710.93	1075.73
711.27	1078.85
711.60	1078.78
711.94	1081.35
712.27	1081.40
712.61	1084.18
712.94	1081.33
713.28	1085.14
713.61	1086.41
713.95	1090.36
714.28	1090.13
714.62	1088.16
714.95	1085.26
715.29	1081.66
715.62	1077.54
715.96	1078.00
716.29	1081.35
716.63	1080.27
716.96	1079.50
717.29	1082.80
717.63	1079.69
717.96	1077.70
718.30	1078.66
718.63	1081.12
718.97	1078.31
719.30	1075.45
719.63	1077.72
719.97	1075.50
720.30	1077.61
720.64	1078.57
720.97	1082.69
721.30	1084.98
721.64	1086.85
721.97	1086.55
722.31	1084.51
722.64	1082.61
722.97	1080.48
723.31	1080.30
723.64	1081.07
723.97	1079.74
724.31	1080.79
724.64	1080.34
724.98	1080.34
725.31	1079.10
725.64	1082.61
725.98	1079.95
726.31	1077.65
726.64	1078.36
726.97	1075.45
727.31	1075.08
727.64	1075.22
727.97	1078.36
728.31	1076.01
728.64	1077.75
728.97	1078.17
729.31	1083.22
729.64	1083.39
729.97	1083.81
730.30	1081.44
730.64	1079.22
730.97	1078.57
731.30	1077.11
731.63	1078.68
731.97	1080.56
732.30	1079.99
732.63	1076.62
732.96	1079.83
733.30	1078.57
733.63	1080.11
733.96	1083.36
734.29	1084.21
734.63	1080.16
734.96	1080.25
735.29	1076.48
735.62	1075.62
735.95	1077.28
736.29	1074.82
736.62	1076.62
736.95	1078.59
737.28	1081.09
737.61	1077.77
737.94	1080.11
738.28	1079.41
738.61	1077.44
738.94	1075.01
739.27	1077.51
739.60	1076.72
739.93	1077.21
740.27	1080.09
740.60	1081.14
740.93	1081.30
741.26	1084.16
741.59	1080.53
741.92	1080.06
742.25	1080.41
742.58	1078.96
742.91	1076.11
743.25	1078.10
743.58	1079.01
743.91	1074.96
744.24	1073.93
744.57	1077.65
744.90	1076.95
745.23	1075.48
745.56	1078.10
745.89	1079.81
746.22	1076.58
746.55	1075.99
746.88	1075.38
747.21	1074.75
747.54	1074.96
747.87	1076.04
748.20	1077.16
748.53	1077.44
748.87	1078.80
749.20	1077.58
749.53	1077.70
749.86	1078.94
750.19	1081.12
750.52	1080.37
750.85	1081.23
751.18	1083.20
751.51	1085.07
751.84	1083.15
752.16	1083.25
752.49	1083.57
752.82	1080.60
753.15	1078.75
753.48	1079.53
753.81	1076.90
754.14	1073.93
754.47	1076.41
754.80	1078.24
755.13	1078.31
755.46	1080.34
755.79	1082.78
756.12	1084.70
756.45	1082.22
756.78	1081.82
757.11	1082.05
757.43	1081.77
757.76	1077.70
758.09	1076.93
758.42	1075.41
758.75	1075.13
759.08	1073.28
759.41	1073.25
759.74	1075.03
760.07	1077.11
760.39	1076.69
760.72	1078.17
761.05	1079.46
761.38	1078.54
761.71	1075.57
762.04	1076.06
762.36	1078.66
762.69	1078.94
763.02	1077.09
763.35	1079.10
763.68	1082.47
764.01	1083.27
