SpectraSuite Data File
++++++++++++++++++++++++++++++++++++
Date: Mon Aug 26 10:22:27 PDT 2019
User: corrico
Dark Spectrum Present: No
Reference Spectrum Present: No
Number of Sampled Component Spectra: 1
Spectrometers: USB2+H06089
Integration Time (usec): 2000 (USB2+H06089)
Spectra Averaged: 20 (USB2+H06089)
Boxcar Smoothing: 2 (USB2+H06089)
Correct for Electrical Dark: No (USB2+H06089)
Strobe/Lamp Enabled: No (USB2+H06089)
Correct for Detector Non-linearity: No (USB2+H06089)
Correct for Stray Light: No (USB2+H06089)
Number of Pixels in Processed Spectrum: 2048
>>>>>Begin Processed Spectral Data<<<<<
339.70	1030.30
340.07	1030.30
340.45	992.95
340.82	969.92
341.19	946.51
341.57	918.92
341.94	906.93
342.31	901.04
342.69	894.37
343.06	889.29
343.43	892.45
343.81	895.47
344.18	896.87
344.55	904.50
344.93	910.94
345.30	915.83
345.67	920.02
346.04	931.16
346.42	937.34
346.79	946.09
347.16	954.31
347.54	963.65
347.91	974.01
348.28	988.48
348.65	997.86
349.03	1006.97
349.40	1018.09
349.77	1024.57
350.14	1026.40
350.52	1033.96
350.89	1040.49
351.26	1048.84
351.63	1053.12
352.01	1057.06
352.38	1059.70
352.75	1065.60
353.12	1064.85
353.50	1066.93
353.87	1070.84
354.24	1073.23
354.61	1074.00
354.98	1078.21
355.36	1081.63
355.73	1082.76
356.10	1084.04
356.47	1085.05
356.84	1085.33
357.22	1084.96
357.59	1085.89
357.96	1084.98
358.33	1082.52
358.70	1080.51
359.08	1076.51
359.45	1073.02
359.82	1076.60
360.19	1075.43
360.56	1075.80
360.94	1080.77
361.31	1083.46
361.68	1080.13
362.05	1084.39
362.42	1085.19
362.79	1081.75
363.16	1080.16
363.54	1078.80
363.91	1074.31
364.28	1073.79
364.65	1072.06
365.02	1073.18
365.39	1072.27
365.76	1076.04
366.14	1073.37
366.51	1073.84
366.88	1072.48
367.25	1075.31
367.62	1071.45
367.99	1074.49
368.36	1076.30
368.73	1076.20
369.10	1072.97
369.48	1073.42
369.85	1072.01
370.22	1071.57
370.59	1072.67
370.96	1074.26
371.33	1072.50
371.70	1070.68
372.07	1069.95
372.44	1070.72
372.81	1073.32
373.18	1076.20
373.55	1076.32
373.93	1076.62
374.30	1076.83
374.67	1075.59
375.04	1074.94
375.41	1078.89
375.78	1080.25
376.15	1079.67
376.52	1079.69
376.89	1080.56
377.26	1080.84
377.63	1081.26
378.00	1083.34
378.37	1085.47
378.74	1086.15
379.11	1082.64
379.48	1084.00
379.85	1082.26
380.22	1082.29
380.59	1082.64
380.96	1084.81
381.33	1081.98
381.70	1081.35
382.07	1079.57
382.44	1080.70
382.81	1081.19
383.18	1083.62
383.55	1084.28
383.92	1084.89
384.29	1083.46
384.66	1083.83
385.03	1083.76
385.40	1086.08
385.77	1087.23
386.14	1087.11
386.51	1086.97
386.88	1087.46
387.25	1088.12
387.62	1082.99
387.99	1084.16
388.36	1082.83
388.73	1081.30
389.10	1077.37
389.46	1078.57
389.83	1078.31
390.20	1079.88
390.57	1080.46
390.94	1085.73
391.31	1086.55
391.68	1085.56
392.05	1084.77
392.42	1084.84
392.79	1080.11
393.16	1081.91
393.53	1082.43
393.89	1080.86
394.26	1081.54
394.63	1086.03
395.00	1085.99
395.37	1086.43
395.74	1087.90
396.11	1087.34
396.48	1086.06
396.84	1088.86
397.21	1088.51
397.58	1087.74
397.95	1090.36
398.32	1087.41
398.69	1086.85
399.06	1086.41
399.42	1091.02
399.79	1090.62
400.16	1091.42
400.53	1089.22
400.90	1089.52
401.27	1087.60
401.64	1087.32
402.00	1089.89
402.37	1091.67
402.74	1094.50
403.11	1091.74
403.48	1091.39
403.84	1091.51
404.21	1091.86
404.58	1090.36
404.95	1090.17
405.32	1087.65
405.68	1084.56
406.05	1083.48
406.42	1084.11
406.79	1088.42
407.16	1093.36
407.52	1095.16
407.89	1097.83
408.26	1099.26
408.63	1096.66
408.99	1093.50
409.36	1092.68
409.73	1091.18
410.10	1090.53
410.47	1091.46
410.83	1092.96
411.20	1096.94
411.57	1095.58
411.94	1093.83
412.30	1093.47
412.67	1093.12
413.04	1094.32
413.40	1095.04
413.77	1096.17
414.14	1099.12
414.51	1096.80
414.87	1094.48
415.24	1097.57
415.61	1096.52
415.97	1096.03
416.34	1097.52
416.71	1097.06
417.08	1095.70
417.44	1099.49
417.81	1100.00
418.18	1105.01
418.54	1104.97
418.91	1109.37
419.28	1110.42
419.64	1110.40
420.01	1108.20
420.38	1111.29
420.74	1112.90
421.11	1116.11
421.48	1120.51
421.84	1122.36
422.21	1126.08
422.58	1124.00
422.94	1123.29
423.31	1121.21
423.68	1124.11
424.04	1127.32
424.41	1130.53
424.77	1136.07
425.14	1142.93
425.51	1147.73
425.87	1149.44
426.24	1156.04
426.61	1156.29
426.97	1161.14
427.34	1168.11
427.70	1174.76
428.07	1179.84
428.44	1190.56
428.80	1196.08
429.17	1204.11
429.53	1213.15
429.90	1220.64
430.27	1228.10
430.63	1236.15
431.00	1243.67
431.36	1255.67
431.73	1269.32
432.09	1284.95
432.46	1303.40
432.83	1318.52
433.19	1332.96
433.56	1352.17
433.92	1371.18
434.29	1393.84
434.65	1419.02
435.02	1443.31
435.38	1470.49
435.75	1496.19
436.11	1524.32
436.48	1555.68
436.84	1591.82
437.21	1626.86
437.57	1665.64
437.94	1705.45
438.30	1748.54
438.67	1791.87
439.03	1838.61
439.40	1891.27
439.76	1942.76
440.13	2005.56
440.49	2070.32
440.86	2135.97
441.22	2204.93
441.59	2282.16
441.95	2356.05
442.32	2436.08
442.68	2534.31
443.05	2631.09
443.41	2725.37
443.78	2823.83
444.14	2934.87
444.51	3041.41
444.87	3174.63
445.24	3317.64
445.60	3475.65
445.96	3632.46
446.33	3801.59
446.69	3964.82
447.06	4143.08
447.42	4314.36
447.79	4501.29
448.15	4725.31
448.51	4946.65
448.88	5210.15
449.24	5463.49
449.61	5739.70
449.97	5996.24
450.33	6282.49
450.70	6533.51
451.06	6848.24
451.43	7150.08
451.79	7520.89
452.15	7919.60
452.52	8371.02
452.88	8839.31
453.24	9362.94
453.61	9932.91
453.97	10486.77
454.34	11007.09
454.70	11643.21
455.06	12278.45
455.43	12892.98
455.79	13479.82
456.15	14200.15
456.52	14843.79
456.88	15615.40
457.24	16333.87
457.61	17182.95
457.97	17948.63
458.33	18735.75
458.70	19473.82
459.06	20225.81
459.42	21057.26
459.79	21842.16
460.15	22726.11
460.51	23590.99
460.88	24529.45
461.24	25311.91
461.60	26251.19
461.96	27115.29
462.33	27934.72
462.69	28672.50
463.05	29506.10
463.42	30226.36
463.78	30849.34
464.14	31384.78
464.50	31978.20
464.87	32452.35
465.23	32787.72
465.59	33148.73
465.95	33479.12
466.32	33734.59
466.68	33941.11
467.04	34056.08
467.40	34190.24
467.77	34328.33
468.13	34314.66
468.49	34229.70
468.85	34193.92
469.22	34020.69
469.58	33677.87
469.94	33434.79
470.30	33157.41
470.66	32727.27
471.03	32156.57
471.39	31782.46
471.75	31169.12
472.11	30558.36
472.47	30211.99
472.84	29917.15
473.20	29438.58
473.56	29176.49
473.92	28769.70
474.28	28234.61
474.65	27707.36
475.01	27214.18
475.37	26642.81
475.73	26158.18
476.09	25645.30
476.45	25136.84
476.81	24629.27
477.18	24084.65
477.54	23647.70
477.90	23294.18
478.26	22895.71
478.62	22556.91
478.98	22263.81
479.34	21943.06
479.71	21532.23
480.07	21191.30
480.43	20845.82
480.79	20476.22
481.15	20128.26
481.51	19813.03
481.87	19547.73
482.23	19257.53
482.59	19003.04
482.96	18713.50
483.32	18425.19
483.68	18049.30
484.04	17704.89
484.40	17353.27
484.76	17002.33
485.12	16649.12
485.48	16336.38
485.84	15991.57
486.20	15633.40
486.56	15281.26
486.92	14965.74
487.28	14622.94
487.64	14277.76
488.00	13944.40
488.37	13613.89
488.73	13266.67
489.09	12919.99
489.45	12608.63
489.81	12299.56
490.17	12007.37
490.53	11724.56
490.89	11425.16
491.25	11120.94
491.61	10826.66
491.97	10509.64
492.33	10181.05
492.69	9885.02
493.05	9594.00
493.41	9299.44
493.77	9024.64
494.13	8773.94
494.49	8529.61
494.85	8296.19
495.21	8085.33
495.57	7872.44
495.93	7664.74
496.29	7468.95
496.64	7295.78
497.00	7095.80
497.36	6904.86
497.72	6722.16
498.08	6547.04
498.44	6356.33
498.80	6187.77
499.16	6039.07
499.52	5892.70
499.88	5769.23
500.24	5652.74
500.60	5534.59
500.96	5412.09
501.32	5298.76
501.68	5175.37
502.03	5046.36
502.39	4922.83
502.75	4796.55
503.11	4671.41
503.47	4543.78
503.83	4430.10
504.19	4314.89
504.55	4210.39
504.91	4111.34
505.26	4024.71
505.62	3936.06
505.98	3849.99
506.34	3758.25
506.70	3665.91
507.06	3570.56
507.42	3486.79
507.78	3407.96
508.13	3333.06
508.49	3260.39
508.85	3200.12
509.21	3128.34
509.57	3058.71
509.93	2996.73
510.28	2928.20
510.64	2852.74
511.00	2795.23
511.36	2739.39
511.72	2680.57
512.07	2631.39
512.43	2586.92
512.79	2536.13
513.15	2486.16
513.51	2441.88
513.86	2399.56
514.22	2357.81
514.58	2314.86
514.94	2281.60
515.30	2245.60
515.65	2211.24
516.01	2180.54
516.37	2150.06
516.73	2122.35
517.08	2092.63
517.44	2064.77
517.80	2038.84
518.16	2014.24
518.51	1979.77
518.87	1951.66
519.23	1926.21
519.59	1898.08
519.94	1871.12
520.30	1850.71
520.66	1825.78
521.01	1798.26
521.37	1774.17
521.73	1752.94
522.09	1736.05
522.44	1717.81
522.80	1700.26
523.16	1682.00
523.51	1663.91
523.87	1642.10
524.23	1625.31
524.58	1607.92
524.94	1589.22
525.30	1567.67
525.65	1553.39
526.01	1538.22
526.37	1522.89
526.72	1512.97
527.08	1504.40
527.44	1491.46
527.79	1482.12
528.15	1472.92
528.51	1457.64
528.86	1445.51
529.22	1432.71
529.58	1416.54
529.93	1402.82
530.29	1391.45
530.65	1378.20
531.00	1367.46
531.36	1358.84
531.71	1355.57
532.07	1349.20
532.43	1344.36
532.78	1337.36
533.14	1330.71
533.49	1321.51
533.85	1316.15
534.21	1310.40
534.56	1304.94
534.92	1297.41
535.27	1292.23
535.63	1283.83
535.98	1280.72
536.34	1272.15
536.69	1267.31
537.05	1257.41
537.41	1255.32
537.76	1247.08
538.12	1244.77
538.47	1240.65
538.83	1240.20
539.18	1236.11
539.54	1232.85
539.89	1225.83
540.25	1221.62
540.60	1215.16
540.96	1211.98
541.31	1206.15
541.67	1205.35
542.02	1202.87
542.38	1198.99
542.73	1192.50
543.09	1189.98
543.44	1185.22
543.80	1180.19
544.15	1180.07
544.51	1178.46
544.86	1178.93
545.22	1179.44
545.57	1179.47
545.93	1176.24
546.28	1173.69
546.64	1167.83
546.99	1162.57
547.35	1159.36
547.70	1157.02
548.05	1153.70
548.41	1151.66
548.76	1152.34
549.12	1154.16
549.47	1151.57
549.83	1154.63
550.18	1153.44
550.53	1150.84
550.89	1145.65
551.24	1145.22
551.60	1141.22
551.95	1139.12
552.30	1139.93
552.66	1136.61
553.01	1134.36
553.37	1134.15
553.72	1132.70
554.07	1131.41
554.43	1133.71
554.78	1132.70
555.13	1128.65
555.49	1129.54
555.84	1125.61
556.19	1123.83
556.55	1125.07
556.90	1125.82
557.26	1123.74
557.61	1123.76
557.96	1123.97
558.32	1122.40
558.67	1120.95
559.02	1122.54
559.37	1124.16
559.73	1119.76
560.08	1119.55
560.43	1117.00
560.79	1115.01
561.14	1113.65
561.49	1115.76
561.85	1114.26
562.20	1113.65
562.55	1111.85
562.90	1110.00
563.26	1109.02
563.61	1110.82
563.96	1113.74
564.32	1114.00
564.67	1110.23
565.02	1110.84
565.37	1107.78
565.73	1106.49
566.08	1105.67
566.43	1108.74
566.78	1107.28
567.14	1105.62
567.49	1103.89
567.84	1104.57
568.19	1101.22
568.54	1098.95
568.90	1099.47
569.25	1097.83
569.60	1096.85
569.95	1098.74
570.31	1098.95
570.66	1098.76
571.01	1099.28
571.36	1099.02
571.71	1099.02
572.06	1097.03
572.42	1097.71
572.77	1097.34
573.12	1093.10
573.47	1093.01
573.82	1094.08
574.18	1092.40
574.53	1092.94
574.88	1094.46
575.23	1092.63
575.58	1092.61
575.93	1090.83
576.28	1090.24
576.64	1091.46
576.99	1091.13
577.34	1091.77
577.69	1095.37
578.04	1096.70
578.39	1093.29
578.74	1094.15
579.09	1089.61
579.44	1088.12
579.80	1085.10
580.15	1089.14
580.50	1089.73
580.85	1095.49
581.20	1096.75
581.55	1096.19
581.90	1092.30
582.25	1090.27
582.60	1084.58
582.95	1082.59
583.30	1084.74
583.65	1085.77
584.00	1086.27
584.35	1088.02
584.71	1089.31
585.06	1089.03
585.41	1091.74
585.76	1092.30
586.11	1094.13
586.46	1089.59
586.81	1089.92
587.16	1089.85
587.51	1088.89
587.86	1087.53
588.21	1090.83
588.56	1089.99
588.91	1089.68
589.26	1090.81
589.61	1092.70
589.96	1093.24
590.31	1094.62
590.66	1093.57
591.01	1090.24
591.36	1089.36
591.71	1087.53
592.06	1085.66
592.41	1085.14
592.76	1088.02
593.10	1088.79
593.45	1088.42
593.80	1084.84
594.15	1083.11
594.50	1079.01
594.85	1078.24
595.20	1081.02
595.55	1085.99
595.90	1088.98
596.25	1092.19
596.60	1089.61
596.95	1086.48
597.30	1086.03
597.64	1094.55
597.99	1099.26
598.34	1102.21
598.69	1103.82
599.04	1100.57
599.39	1090.99
599.74	1084.89
600.09	1082.71
600.44	1081.26
600.78	1080.98
601.13	1080.39
601.48	1084.30
601.83	1084.23
602.18	1083.36
602.53	1087.32
602.88	1088.79
603.22	1087.37
603.57	1087.34
603.92	1085.96
604.27	1086.69
604.62	1087.18
604.97	1084.39
605.31	1085.84
605.66	1087.93
606.01	1085.59
606.36	1083.41
606.71	1090.92
607.05	1088.84
607.40	1088.93
607.75	1091.91
608.10	1094.29
608.44	1088.07
608.79	1092.59
609.14	1092.02
609.49	1087.97
609.84	1086.62
610.18	1088.07
610.53	1086.85
610.88	1088.70
611.23	1088.96
611.57	1089.75
611.92	1089.80
612.27	1088.44
612.62	1088.77
612.96	1091.20
613.31	1090.22
613.66	1089.52
614.00	1092.96
614.35	1091.67
614.70	1090.20
615.05	1088.30
615.39	1087.90
615.74	1085.96
616.09	1088.47
616.43	1089.38
616.78	1092.82
617.13	1094.13
617.47	1091.88
617.82	1086.87
618.17	1085.19
618.51	1083.01
618.86	1079.36
619.21	1080.25
619.55	1082.05
619.90	1083.15
620.25	1083.15
620.59	1088.37
620.94	1088.21
621.29	1087.11
621.63	1085.68
621.98	1085.00
622.32	1080.81
622.67	1080.95
623.02	1081.63
623.36	1082.97
623.71	1085.59
624.05	1084.53
624.40	1081.96
624.75	1083.13
625.09	1081.98
625.44	1079.53
625.78	1080.51
626.13	1083.69
626.48	1082.15
626.82	1081.47
627.17	1083.48
627.51	1082.99
627.86	1080.67
628.20	1081.42
628.55	1080.95
628.89	1078.31
629.24	1082.40
629.58	1082.80
629.93	1082.97
630.28	1085.35
630.62	1086.20
630.97	1083.20
631.31	1085.77
631.66	1085.77
632.00	1084.37
632.35	1086.34
632.69	1087.13
633.04	1086.06
633.38	1089.52
633.73	1090.46
634.07	1090.22
634.42	1087.74
634.76	1088.16
635.11	1082.50
635.45	1082.78
635.79	1081.26
636.14	1084.60
636.48	1088.09
636.83	1089.52
637.17	1089.57
637.52	1088.75
637.86	1086.52
638.21	1081.00
638.55	1080.77
638.89	1077.56
639.24	1079.31
639.58	1077.30
639.93	1077.40
640.27	1080.16
640.61	1082.08
640.96	1080.46
641.30	1085.33
641.65	1087.20
641.99	1086.66
642.33	1087.27
642.68	1089.14
643.02	1086.50
643.37	1085.31
643.71	1086.43
644.05	1087.67
644.40	1087.27
644.74	1090.48
645.08	1088.98
645.43	1085.38
645.77	1082.47
646.11	1077.00
646.46	1072.53
646.80	1073.21
647.14	1074.91
647.49	1078.28
647.83	1080.95
648.17	1080.88
648.52	1081.16
648.86	1081.47
649.20	1082.54
649.55	1082.24
649.89	1085.28
650.23	1084.63
650.57	1082.80
650.92	1078.73
651.26	1078.80
651.60	1078.17
651.95	1077.16
652.29	1077.21
652.63	1077.02
652.97	1081.26
653.32	1078.10
653.66	1081.56
654.00	1081.42
654.34	1084.58
654.69	1081.75
655.03	1086.78
655.37	1086.90
655.71	1088.47
656.05	1084.11
656.40	1083.18
656.74	1081.70
657.08	1082.76
657.42	1081.80
657.76	1082.85
658.11	1085.10
658.45	1083.06
658.79	1080.48
659.13	1081.19
659.47	1081.87
659.82	1080.32
660.16	1083.08
660.50	1084.21
660.84	1081.73
661.18	1081.94
661.52	1083.57
661.87	1084.11
662.21	1080.37
662.55	1081.82
662.89	1080.81
663.23	1080.48
663.57	1078.96
663.91	1081.40
664.25	1081.30
664.60	1079.20
664.94	1077.75
665.28	1074.03
665.62	1078.17
665.96	1078.12
666.30	1084.16
666.64	1086.59
666.98	1086.83
667.32	1083.06
667.66	1084.39
668.01	1080.77
668.35	1079.01
668.69	1083.32
669.03	1082.29
669.37	1081.28
669.71	1082.12
670.05	1080.84
670.39	1077.56
670.73	1078.38
671.07	1083.36
671.41	1082.36
671.75	1084.72
672.09	1086.45
672.43	1086.83
672.77	1084.42
673.11	1086.34
673.45	1084.23
673.79	1084.02
674.13	1080.30
674.47	1077.14
674.81	1072.34
675.15	1073.39
675.49	1073.56
675.83	1080.06
676.17	1082.31
676.51	1087.72
676.85	1085.96
677.19	1085.38
677.53	1083.50
677.87	1081.19
678.21	1081.87
678.55	1084.16
678.89	1084.46
679.23	1083.93
679.57	1084.60
679.90	1085.17
680.24	1086.36
680.58	1085.68
680.92	1085.49
681.26	1086.99
681.60	1087.51
681.94	1086.36
682.28	1086.34
682.62	1085.61
682.96	1083.43
683.29	1077.65
683.63	1079.83
683.97	1080.91
684.31	1079.13
684.65	1080.11
684.99	1081.49
685.33	1080.27
685.67	1079.34
686.00	1077.35
686.34	1078.24
686.68	1081.07
687.02	1080.34
687.36	1084.02
687.70	1090.01
688.03	1092.73
688.37	1090.97
688.71	1088.42
689.05	1085.56
689.39	1083.11
689.72	1079.57
690.06	1081.54
690.40	1082.24
690.74	1079.76
691.08	1081.89
691.41	1080.09
691.75	1078.94
692.09	1081.16
692.43	1085.73
692.76	1084.11
693.10	1083.06
693.44	1083.62
693.78	1082.15
694.11	1078.82
694.45	1076.79
694.79	1075.76
695.13	1075.59
695.46	1074.75
695.80	1075.73
696.14	1074.35
696.48	1075.36
696.81	1072.74
697.15	1073.91
697.49	1073.37
697.82	1078.43
698.16	1080.72
698.50	1082.69
698.83	1083.34
699.17	1084.58
699.51	1081.91
699.84	1083.60
700.18	1084.07
700.52	1081.14
700.85	1081.05
701.19	1080.46
701.53	1076.88
701.86	1075.57
702.20	1075.92
702.54	1077.44
702.87	1079.55
703.21	1080.74
703.55	1083.67
703.88	1087.30
704.22	1086.34
704.55	1087.86
704.89	1089.03
705.23	1086.85
705.56	1086.36
705.90	1086.59
706.23	1083.04
706.57	1080.88
706.91	1080.39
707.24	1078.57
707.58	1078.45
707.91	1076.46
708.25	1078.38
708.58	1076.65
708.92	1073.23
709.26	1072.25
709.59	1075.83
709.93	1076.18
710.26	1080.13
710.60	1081.51
710.93	1080.84
711.27	1078.64
711.60	1077.28
711.94	1077.33
712.27	1078.85
712.61	1077.65
712.94	1077.98
713.28	1079.76
713.61	1075.99
713.95	1076.95
714.28	1077.61
714.62	1077.79
714.95	1077.44
715.29	1078.26
715.62	1080.20
715.96	1084.16
716.29	1084.49
716.63	1086.41
716.96	1088.28
717.29	1082.85
717.63	1078.71
717.96	1079.64
718.30	1080.39
718.63	1079.03
718.97	1084.21
719.30	1085.80
719.63	1085.82
719.97	1081.54
720.30	1082.33
720.64	1081.49
720.97	1081.49
721.30	1082.12
721.64	1082.29
721.97	1082.76
722.31	1082.54
722.64	1079.50
722.97	1078.03
723.31	1080.11
723.64	1079.24
723.97	1080.67
724.31	1084.42
724.64	1086.50
724.98	1084.79
725.31	1083.83
725.64	1081.82
725.98	1080.74
726.31	1077.75
726.64	1080.95
726.97	1080.70
727.31	1077.00
727.64	1073.42
727.97	1075.73
728.31	1073.95
728.64	1071.61
728.97	1074.45
729.31	1080.30
729.64	1078.05
729.97	1078.50
730.30	1081.00
730.64	1080.27
730.97	1079.03
731.30	1081.49
731.63	1078.26
731.97	1080.37
732.30	1081.23
732.63	1081.35
732.96	1080.25
733.30	1082.90
733.63	1082.57
733.96	1085.54
734.29	1083.50
734.63	1084.09
734.96	1083.83
735.29	1082.83
735.62	1080.63
735.95	1082.10
736.29	1079.88
736.62	1079.81
736.95	1081.07
737.28	1081.40
737.61	1079.78
737.94	1079.95
738.28	1079.67
738.61	1076.81
738.94	1074.75
739.27	1076.60
739.60	1078.31
739.93	1079.01
740.27	1080.16
740.60	1082.05
740.93	1081.40
741.26	1079.55
741.59	1080.23
741.92	1082.69
742.25	1083.60
742.58	1081.23
742.91	1081.40
743.25	1078.47
743.58	1077.72
743.91	1078.43
744.24	1078.68
744.57	1078.17
744.90	1078.24
745.23	1079.20
745.56	1081.07
745.89	1082.08
746.22	1087.41
746.55	1090.78
746.88	1089.31
747.21	1085.77
747.54	1086.27
747.87	1084.02
748.20	1082.61
748.53	1082.76
748.87	1084.11
749.20	1086.48
749.53	1085.42
749.86	1086.52
750.19	1087.44
750.52	1086.24
750.85	1086.59
751.18	1086.87
751.51	1082.52
751.84	1080.70
752.16	1077.93
752.49	1073.11
752.82	1073.32
753.15	1076.46
753.48	1076.51
753.81	1078.07
754.14	1079.34
754.47	1075.73
754.80	1075.92
755.13	1076.08
755.46	1080.39
755.79	1081.07
756.12	1084.42
756.45	1082.45
756.78	1081.47
757.11	1079.99
757.43	1078.73
757.76	1076.04
758.09	1078.07
758.42	1078.33
758.75	1073.93
759.08	1077.14
759.41	1079.24
759.74	1080.53
760.07	1078.89
760.39	1080.02
760.72	1077.40
761.05	1075.90
761.38	1075.43
761.71	1078.47
762.04	1080.88
762.36	1080.46
762.69	1081.87
763.02	1082.47
763.35	1083.06
763.68	1083.11
764.01	1085.49
