SpectraSuite Data File
++++++++++++++++++++++++++++++++++++
Date: Mon Aug 26 10:21:49 PDT 2019
User: corrico
Dark Spectrum Present: No
Reference Spectrum Present: No
Number of Sampled Component Spectra: 1
Spectrometers: USB2+H06089
Integration Time (usec): 2000 (USB2+H06089)
Spectra Averaged: 20 (USB2+H06089)
Boxcar Smoothing: 2 (USB2+H06089)
Correct for Electrical Dark: No (USB2+H06089)
Strobe/Lamp Enabled: No (USB2+H06089)
Correct for Detector Non-linearity: No (USB2+H06089)
Correct for Stray Light: No (USB2+H06089)
Number of Pixels in Processed Spectrum: 2048
>>>>>Begin Processed Spectral Data<<<<<
339.70	1035.69
340.07	1035.69
340.45	998.10
340.82	970.20
341.19	945.32
341.57	917.30
341.94	909.02
342.31	903.24
342.69	904.13
343.06	901.20
343.43	900.87
343.81	898.81
344.18	898.98
344.55	900.03
344.93	903.17
345.30	906.02
345.67	911.40
346.04	916.09
346.42	925.54
346.79	937.36
347.16	949.39
347.54	963.43
347.91	976.12
348.28	985.34
348.65	991.80
349.03	1003.15
349.40	1009.08
349.77	1017.27
350.14	1024.34
350.52	1032.29
350.89	1036.60
351.26	1041.30
351.63	1045.40
352.01	1050.81
352.38	1055.98
352.75	1060.85
353.12	1064.59
353.50	1066.54
353.87	1068.03
354.24	1066.82
354.61	1066.98
354.98	1067.47
355.36	1069.60
355.73	1071.40
356.10	1075.34
356.47	1074.10
356.84	1075.97
357.22	1079.62
357.59	1081.21
357.96	1078.07
358.33	1078.17
358.70	1076.76
359.08	1074.63
359.45	1074.19
359.82	1074.40
360.19	1080.20
360.56	1081.23
360.94	1080.02
361.31	1079.34
361.68	1080.23
362.05	1074.68
362.42	1074.54
362.79	1074.49
363.16	1071.05
363.54	1068.57
363.91	1072.06
364.28	1069.74
364.65	1070.63
365.02	1071.33
365.39	1071.80
365.76	1064.80
366.14	1063.77
366.51	1061.01
366.88	1058.98
367.25	1057.92
367.62	1061.01
367.99	1061.53
368.36	1062.65
368.73	1067.73
369.10	1071.36
369.48	1070.87
369.85	1072.22
370.22	1071.19
370.59	1067.33
370.96	1066.63
371.33	1067.35
371.70	1065.18
372.07	1068.81
372.44	1069.44
372.81	1070.07
373.18	1071.64
373.55	1071.68
373.93	1068.20
374.30	1070.26
374.67	1069.55
375.04	1069.95
375.41	1073.11
375.78	1073.42
376.15	1071.45
376.52	1069.09
376.89	1068.81
377.26	1069.16
377.63	1069.51
378.00	1065.13
378.37	1067.10
378.74	1063.98
379.11	1063.52
379.48	1062.70
379.85	1067.35
380.22	1068.31
380.59	1072.69
380.96	1073.51
381.33	1074.47
381.70	1076.04
382.07	1075.48
382.44	1072.67
382.81	1068.27
383.18	1070.37
383.55	1072.64
383.92	1070.33
384.29	1074.73
384.66	1076.88
385.03	1075.36
385.40	1073.63
385.77	1077.11
386.14	1073.18
386.51	1077.23
386.88	1076.79
387.25	1075.78
387.62	1076.01
387.99	1077.35
388.36	1074.96
388.73	1073.49
389.10	1074.87
389.46	1073.37
389.83	1069.72
390.20	1069.93
390.57	1070.58
390.94	1071.59
391.31	1073.32
391.68	1078.71
392.05	1076.72
392.42	1077.51
392.79	1074.45
393.16	1072.57
393.53	1071.05
393.89	1071.08
394.26	1069.74
394.63	1071.97
395.00	1071.87
395.37	1070.75
395.74	1070.61
396.11	1073.30
396.48	1070.80
396.84	1072.27
397.21	1072.53
397.58	1076.30
397.95	1075.71
398.32	1077.02
398.69	1077.23
399.06	1077.77
399.42	1075.01
399.79	1074.98
400.16	1076.39
400.53	1075.45
400.90	1074.45
401.27	1074.12
401.64	1074.84
402.00	1072.15
402.37	1070.49
402.74	1067.66
403.11	1067.82
403.48	1066.02
403.84	1065.06
404.21	1066.89
404.58	1071.15
404.95	1072.85
405.32	1075.87
405.68	1078.73
406.05	1080.51
406.42	1081.49
406.79	1082.76
407.16	1081.14
407.52	1083.15
407.89	1079.55
408.26	1079.13
408.63	1076.97
408.99	1074.98
409.36	1072.01
409.73	1071.40
410.10	1069.25
410.47	1074.12
410.83	1076.83
411.20	1077.16
411.57	1081.98
411.94	1081.00
412.30	1075.52
412.67	1077.40
413.04	1078.80
413.40	1076.23
413.77	1077.56
414.14	1079.41
414.51	1079.27
414.87	1078.89
415.24	1081.70
415.61	1084.91
415.97	1085.84
416.34	1082.94
416.71	1083.64
417.08	1081.61
417.44	1080.30
417.81	1078.66
418.18	1083.36
418.54	1084.30
418.91	1085.84
419.28	1086.06
419.64	1086.78
420.01	1083.32
420.38	1085.26
420.74	1085.59
421.11	1088.19
421.48	1089.47
421.84	1090.95
422.21	1090.39
422.58	1088.93
422.94	1087.18
423.31	1090.08
423.68	1090.81
424.04	1090.10
424.41	1095.93
424.77	1098.27
425.14	1097.22
425.51	1097.29
425.87	1100.47
426.24	1097.62
426.61	1096.28
426.97	1097.20
427.34	1099.12
427.70	1100.15
428.07	1100.50
428.44	1106.46
428.80	1107.45
429.17	1112.32
429.53	1115.59
429.90	1117.89
430.27	1115.87
430.63	1118.38
431.00	1118.94
431.36	1115.97
431.73	1121.56
432.09	1123.53
432.46	1128.35
432.83	1133.87
433.19	1143.49
433.56	1149.06
433.92	1156.53
434.29	1160.46
434.65	1162.75
435.02	1166.78
435.38	1171.41
435.75	1176.54
436.11	1185.65
436.48	1192.01
436.84	1198.17
437.21	1204.63
437.57	1214.18
437.94	1224.17
438.30	1236.93
438.67	1247.29
439.03	1262.06
439.40	1275.22
439.76	1285.68
440.13	1300.50
440.49	1315.36
440.86	1331.84
441.22	1349.88
441.59	1369.05
441.95	1388.05
442.32	1410.45
442.68	1430.79
443.05	1452.79
443.41	1477.25
443.78	1500.63
444.14	1527.74
444.51	1549.48
444.87	1583.16
445.24	1612.07
445.60	1646.75
445.96	1678.14
446.33	1721.32
446.69	1757.39
447.06	1800.06
447.42	1844.34
447.79	1894.34
448.15	1949.06
448.51	1997.53
448.88	2055.36
449.24	2103.74
449.61	2162.42
449.97	2221.19
450.33	2295.64
450.70	2360.43
451.06	2440.99
451.43	2511.51
451.79	2590.08
452.15	2674.06
452.52	2774.03
452.88	2874.44
453.24	2988.28
453.61	3120.07
453.97	3251.54
454.34	3370.30
454.70	3510.01
455.06	3649.76
455.43	3779.05
455.79	3900.62
456.15	4054.91
456.52	4209.20
456.88	4390.03
457.24	4565.47
457.61	4773.48
457.97	4960.44
458.33	5137.80
458.70	5319.22
459.06	5504.87
459.42	5706.79
459.79	5900.84
460.15	6127.55
460.51	6331.08
460.88	6547.48
461.24	6735.17
461.60	6942.57
461.96	7129.48
462.33	7315.32
462.69	7483.61
463.05	7665.49
463.42	7862.44
463.78	8063.03
464.14	8225.74
464.50	8405.40
464.87	8549.72
465.23	8652.59
465.59	8752.71
465.95	8852.30
466.32	8935.46
466.68	9014.71
467.04	9046.29
467.40	9052.72
467.77	9084.04
468.13	9076.11
468.49	9057.52
468.85	9073.39
469.22	9070.54
469.58	9027.87
469.94	8998.52
470.30	8941.64
470.66	8844.70
471.03	8739.47
471.39	8634.38
471.75	8496.59
472.11	8370.62
472.47	8292.10
472.84	8182.56
473.20	8063.43
473.56	7967.28
473.92	7833.09
474.28	7684.80
474.65	7568.05
475.01	7451.87
475.37	7342.33
475.73	7244.87
476.09	7128.10
476.45	7023.48
476.81	6916.89
477.18	6792.00
477.54	6693.21
477.90	6623.20
478.26	6523.96
478.62	6456.20
478.98	6387.30
479.34	6324.57
479.71	6234.86
480.07	6141.45
480.43	6052.20
480.79	5973.49
481.15	5896.02
481.51	5836.62
481.87	5787.91
482.23	5706.34
482.59	5634.30
482.96	5559.94
483.32	5478.63
483.68	5393.51
484.04	5332.79
484.40	5255.70
484.76	5181.17
485.12	5102.06
485.48	5036.48
485.84	4949.06
486.20	4845.31
486.56	4741.22
486.92	4662.02
487.28	4581.32
487.64	4501.41
488.00	4443.16
488.37	4377.04
488.73	4292.36
489.09	4202.36
489.45	4124.26
489.81	4044.38
490.17	3962.55
490.53	3894.77
490.89	3819.08
491.25	3741.60
491.61	3658.75
491.97	3587.25
492.33	3502.00
492.69	3424.48
493.05	3347.43
493.41	3279.35
493.77	3211.36
494.13	3149.24
494.49	3081.83
494.85	3027.69
495.21	2969.55
495.57	2909.47
495.93	2851.94
496.29	2801.62
496.64	2752.84
497.00	2709.19
497.36	2671.79
497.72	2629.71
498.08	2592.63
498.44	2552.68
498.80	2512.14
499.16	2468.45
499.52	2424.79
499.88	2383.84
500.24	2335.53
500.60	2296.00
500.96	2254.45
501.32	2216.00
501.68	2178.20
502.03	2147.56
502.39	2114.00
502.75	2081.77
503.11	2056.18
503.47	2027.35
503.83	1999.36
504.19	1969.63
504.55	1944.82
504.91	1917.32
505.26	1900.26
505.62	1876.03
505.98	1855.97
506.34	1828.71
506.70	1802.07
507.06	1772.21
507.42	1750.44
507.78	1725.30
508.13	1707.77
508.49	1687.27
508.85	1665.97
509.21	1643.34
509.57	1625.13
509.93	1604.48
510.28	1587.91
510.64	1572.14
511.00	1558.05
511.36	1544.29
511.72	1528.88
512.07	1514.37
512.43	1498.18
512.79	1481.77
513.15	1469.88
513.51	1453.22
513.86	1443.97
514.22	1431.82
514.58	1423.12
514.94	1411.02
515.30	1403.55
515.65	1389.22
516.01	1383.42
516.37	1371.48
516.73	1357.72
517.08	1351.80
517.44	1346.77
517.80	1333.68
518.16	1328.86
518.51	1326.22
518.87	1316.01
519.23	1308.03
519.59	1304.19
519.94	1292.40
520.30	1281.05
520.66	1276.67
521.01	1267.31
521.37	1261.53
521.73	1262.20
522.09	1261.01
522.44	1252.70
522.80	1249.68
523.16	1244.79
523.51	1236.88
523.87	1229.11
524.23	1224.78
524.58	1221.10
524.94	1214.57
525.30	1210.95
525.65	1205.68
526.01	1201.72
526.37	1198.00
526.72	1194.33
527.08	1190.23
527.44	1188.59
527.79	1187.05
528.15	1180.33
528.51	1174.48
528.86	1172.54
529.22	1169.12
529.58	1163.85
529.93	1166.05
530.29	1165.17
530.65	1161.77
531.00	1158.35
531.36	1157.47
531.71	1152.48
532.07	1154.66
532.43	1152.60
532.78	1152.69
533.14	1149.86
533.49	1149.67
533.85	1146.82
534.21	1145.53
534.56	1144.66
534.92	1148.15
535.27	1143.96
535.63	1140.45
535.98	1137.13
536.34	1132.96
536.69	1127.48
537.05	1128.00
537.41	1128.68
537.76	1130.69
538.12	1131.41
538.47	1130.69
538.83	1127.79
539.18	1125.59
539.54	1122.52
539.89	1119.20
540.25	1116.30
540.60	1114.12
540.96	1112.62
541.31	1110.54
541.67	1111.38
542.02	1111.36
542.38	1111.89
542.73	1111.47
543.09	1111.47
543.44	1109.02
543.80	1108.41
544.15	1103.80
544.51	1101.11
544.86	1099.16
545.22	1100.61
545.57	1099.02
545.93	1100.43
546.28	1101.90
546.64	1102.13
546.99	1099.84
547.35	1100.96
547.70	1102.11
548.05	1101.41
548.41	1102.51
548.76	1102.06
549.12	1097.90
549.47	1095.44
549.83	1094.48
550.18	1096.10
550.53	1093.45
550.89	1096.42
551.24	1098.23
551.60	1101.32
551.95	1094.69
552.30	1096.31
552.66	1097.06
553.01	1095.46
553.37	1088.09
553.72	1091.27
554.07	1089.45
554.43	1088.72
554.78	1091.25
555.13	1093.40
555.49	1093.92
555.84	1093.78
556.19	1090.41
556.55	1089.82
556.90	1090.99
557.26	1084.79
557.61	1086.01
557.96	1085.91
558.32	1082.26
558.67	1081.30
559.02	1087.20
559.37	1087.55
559.73	1086.57
560.08	1088.02
560.43	1087.81
560.79	1083.97
561.14	1083.93
561.49	1086.66
561.85	1083.88
562.20	1080.02
562.55	1079.03
562.90	1079.60
563.26	1081.12
563.61	1081.94
563.96	1086.06
564.32	1086.73
564.67	1083.34
565.02	1079.95
565.37	1081.12
565.73	1081.87
566.08	1083.95
566.43	1083.86
566.78	1085.91
567.14	1082.73
567.49	1082.15
567.84	1079.95
568.19	1079.34
568.54	1078.96
568.90	1084.25
569.25	1082.38
569.60	1084.42
569.95	1084.93
570.31	1083.41
570.66	1079.92
571.01	1080.88
571.36	1082.01
571.71	1082.50
572.06	1081.84
572.42	1083.36
572.77	1084.60
573.12	1084.16
573.47	1081.98
573.82	1085.28
574.18	1082.03
574.53	1079.90
574.88	1076.93
575.23	1076.72
575.58	1073.70
575.93	1079.85
576.28	1080.04
576.64	1083.46
576.99	1085.91
577.34	1086.69
577.69	1084.14
578.04	1084.11
578.39	1080.04
578.74	1079.76
579.09	1077.91
579.44	1076.34
579.80	1076.11
580.15	1079.36
580.50	1077.16
580.85	1079.53
581.20	1078.40
581.55	1079.43
581.90	1078.17
582.25	1079.50
582.60	1078.99
582.95	1080.34
583.30	1078.17
583.65	1079.20
584.00	1081.35
584.35	1082.29
584.71	1080.74
585.06	1081.16
585.41	1081.63
585.76	1082.31
586.11	1080.91
586.46	1081.91
586.81	1082.36
587.16	1080.30
587.51	1077.98
587.86	1074.84
588.21	1073.16
588.56	1071.08
588.91	1070.63
589.26	1072.41
589.61	1073.74
589.96	1074.54
590.31	1077.07
590.66	1077.02
591.01	1075.24
591.36	1076.93
591.71	1077.11
592.06	1075.90
592.41	1074.14
592.76	1073.72
593.10	1075.20
593.45	1078.14
593.80	1077.49
594.15	1081.63
594.50	1082.97
594.85	1078.28
595.20	1076.30
595.55	1075.13
595.90	1070.84
596.25	1070.80
596.60	1072.27
596.95	1071.90
597.30	1075.73
597.64	1088.51
597.99	1088.04
598.34	1088.30
598.69	1089.00
599.04	1087.27
599.39	1077.40
599.74	1077.07
600.09	1074.24
600.44	1074.68
600.78	1075.50
601.13	1075.01
601.48	1074.84
601.83	1079.22
602.18	1078.80
602.53	1077.72
602.88	1079.10
603.22	1080.30
603.57	1080.30
603.92	1077.47
604.27	1077.37
604.62	1078.03
604.97	1079.01
605.31	1077.96
605.66	1080.58
606.01	1083.36
606.36	1080.70
606.71	1080.53
607.05	1081.70
607.40	1082.19
607.75	1082.12
608.10	1081.12
608.44	1079.48
608.79	1078.26
609.14	1077.93
609.49	1075.17
609.84	1078.89
610.18	1078.80
610.53	1080.30
610.88	1079.17
611.23	1080.25
611.57	1080.77
611.92	1081.28
612.27	1080.72
612.62	1080.56
612.96	1080.41
613.31	1077.11
613.66	1077.72
614.00	1076.23
614.35	1076.44
614.70	1075.38
615.05	1078.85
615.39	1079.50
615.74	1079.69
616.09	1082.38
616.43	1083.57
616.78	1078.87
617.13	1075.24
617.47	1074.89
617.82	1071.15
618.17	1071.17
618.51	1070.96
618.86	1072.90
619.21	1075.87
619.55	1077.44
619.90	1077.16
620.25	1080.04
620.59	1080.79
620.94	1079.69
621.29	1077.23
621.63	1075.27
621.98	1073.21
622.32	1072.95
622.67	1070.72
623.02	1074.89
623.36	1077.68
623.71	1079.15
624.05	1078.78
624.40	1083.76
624.75	1080.86
625.09	1080.13
625.44	1078.54
625.78	1076.01
626.13	1073.79
626.48	1074.96
626.82	1076.01
627.17	1075.85
627.51	1077.63
627.86	1077.07
628.20	1076.20
628.55	1076.13
628.89	1077.04
629.24	1081.28
629.58	1080.86
629.93	1081.47
630.28	1077.28
630.62	1080.20
630.97	1075.17
631.31	1076.30
631.66	1076.67
632.00	1078.96
632.35	1077.16
632.69	1078.33
633.04	1077.72
633.38	1078.85
633.73	1077.79
634.07	1075.99
634.42	1074.63
634.76	1076.30
635.11	1072.41
635.45	1075.10
635.79	1078.47
636.14	1081.14
636.48	1080.41
636.83	1081.49
637.17	1080.20
637.52	1079.34
637.86	1076.51
638.21	1077.98
638.55	1079.34
638.89	1078.52
639.24	1075.13
639.58	1076.90
639.93	1077.75
640.27	1078.99
640.61	1080.34
640.96	1077.54
641.30	1076.51
641.65	1073.37
641.99	1070.91
642.33	1069.25
642.68	1075.10
643.02	1077.65
643.37	1073.95
643.71	1075.36
644.05	1078.19
644.40	1077.63
644.74	1078.57
645.08	1081.28
645.43	1080.98
645.77	1079.20
646.11	1077.04
646.46	1070.54
646.80	1072.48
647.14	1071.85
647.49	1072.29
647.83	1074.75
648.17	1078.10
648.52	1073.18
648.86	1075.03
649.20	1075.62
649.55	1073.53
649.89	1072.32
650.23	1074.66
650.57	1071.82
650.92	1071.71
651.26	1070.51
651.60	1072.92
651.95	1075.48
652.29	1080.95
652.63	1079.10
652.97	1080.56
653.32	1080.13
653.66	1077.68
654.00	1071.10
654.34	1073.49
654.69	1076.76
655.03	1075.94
655.37	1076.74
655.71	1080.18
656.05	1077.82
656.40	1076.60
656.74	1076.86
657.08	1075.38
657.42	1073.44
657.76	1076.90
658.11	1076.08
658.45	1078.89
658.79	1081.89
659.13	1080.46
659.47	1077.44
659.82	1076.13
660.16	1072.55
660.50	1066.70
660.84	1069.37
661.18	1070.89
661.52	1070.58
661.87	1068.50
662.21	1074.26
662.55	1074.80
662.89	1072.22
663.23	1075.31
663.57	1078.12
663.91	1077.47
664.25	1077.79
664.60	1079.01
664.94	1077.93
665.28	1077.23
665.62	1074.68
665.96	1077.58
666.30	1078.14
666.64	1074.19
666.98	1075.22
667.32	1076.62
667.66	1074.03
668.01	1073.93
668.35	1077.72
668.69	1078.94
669.03	1082.01
669.37	1081.23
669.71	1082.66
670.05	1082.12
670.39	1083.20
670.73	1080.30
671.07	1079.27
671.41	1080.09
671.75	1080.46
672.09	1078.31
672.43	1080.39
672.77	1082.22
673.11	1082.29
673.45	1082.26
673.79	1079.74
674.13	1079.36
674.47	1078.28
674.81	1074.35
675.15	1072.01
675.49	1074.49
675.83	1071.50
676.17	1071.38
676.51	1074.10
676.85	1077.96
677.19	1076.30
677.53	1078.00
677.87	1076.08
678.21	1075.64
678.55	1070.94
678.89	1072.36
679.23	1074.49
679.57	1075.87
679.90	1076.67
680.24	1081.91
680.58	1081.21
680.92	1078.40
681.26	1079.10
681.60	1075.99
681.94	1073.28
682.28	1073.28
682.62	1074.24
682.96	1073.14
683.29	1075.08
683.63	1074.52
683.97	1073.91
684.31	1074.59
684.65	1076.97
684.99	1074.56
685.33	1076.51
685.67	1080.86
686.00	1082.05
686.34	1079.95
686.68	1080.67
687.02	1082.15
687.36	1081.42
687.70	1078.38
688.03	1077.37
688.37	1076.88
688.71	1075.17
689.05	1074.82
689.39	1076.69
689.72	1077.84
690.06	1079.15
690.40	1078.24
690.74	1074.19
691.08	1071.03
691.41	1073.72
691.75	1075.87
692.09	1074.21
692.43	1078.12
692.76	1080.56
693.10	1081.33
693.44	1081.94
693.78	1085.38
694.11	1081.58
694.45	1081.70
694.79	1081.12
695.13	1080.41
695.46	1081.84
695.80	1087.74
696.14	1086.57
696.48	1082.80
696.81	1084.32
697.15	1079.95
697.49	1074.89
697.82	1075.97
698.16	1072.85
698.50	1067.59
698.83	1069.06
699.17	1070.68
699.51	1069.79
699.84	1073.65
700.18	1077.14
700.52	1076.48
700.85	1074.40
701.19	1072.11
701.53	1072.55
701.86	1072.55
702.20	1072.22
702.54	1077.47
702.87	1079.83
703.21	1083.64
703.55	1081.37
703.88	1081.26
704.22	1076.30
704.55	1073.56
704.89	1068.03
705.23	1069.11
705.56	1069.48
705.90	1071.38
706.23	1075.31
706.57	1078.45
706.91	1078.17
707.24	1081.54
707.58	1081.40
707.91	1080.53
708.25	1081.70
708.58	1081.12
708.92	1080.93
709.26	1076.97
709.59	1073.72
709.93	1070.72
710.26	1070.30
710.60	1068.99
710.93	1071.85
711.27	1075.15
711.60	1075.31
711.94	1076.48
712.27	1075.59
712.61	1080.02
712.94	1081.35
713.28	1077.04
713.61	1075.50
713.95	1074.59
714.28	1071.47
714.62	1072.67
714.95	1078.21
715.29	1081.58
715.62	1081.00
715.96	1081.73
716.29	1075.45
716.63	1074.21
716.96	1071.54
717.29	1071.36
717.63	1068.92
717.96	1073.77
718.30	1074.00
718.63	1072.83
718.97	1072.18
719.30	1071.75
719.63	1070.51
719.97	1071.45
720.30	1072.11
720.64	1071.61
720.97	1074.38
721.30	1077.25
721.64	1077.84
721.97	1077.16
722.31	1080.32
722.64	1079.95
722.97	1076.79
723.31	1074.42
723.64	1079.34
723.97	1081.07
724.31	1078.24
724.64	1078.28
724.98	1078.38
725.31	1075.45
725.64	1074.26
725.98	1077.70
726.31	1077.79
726.64	1080.65
726.97	1080.34
727.31	1076.34
727.64	1076.39
727.97	1076.20
728.31	1075.94
728.64	1078.00
728.97	1079.10
729.31	1078.89
729.64	1079.88
729.97	1077.14
730.30	1075.97
730.64	1073.28
730.97	1070.65
731.30	1070.23
731.63	1071.73
731.97	1069.58
732.30	1071.87
732.63	1071.03
732.96	1074.17
733.30	1073.14
733.63	1077.14
733.96	1080.04
734.29	1083.39
734.63	1081.16
734.96	1081.44
735.29	1079.53
735.62	1077.07
735.95	1073.60
736.29	1070.75
736.62	1071.68
736.95	1072.01
737.28	1072.20
737.61	1076.08
737.94	1076.51
738.28	1078.61
738.61	1079.31
738.94	1080.51
739.27	1080.11
739.60	1082.57
739.93	1078.80
740.27	1078.31
740.60	1078.47
740.93	1077.09
741.26	1076.39
741.59	1080.37
741.92	1079.06
742.25	1079.15
742.58	1080.53
742.91	1080.56
743.25	1076.01
743.58	1076.39
743.91	1075.55
744.24	1075.13
744.57	1076.13
744.90	1075.80
745.23	1075.87
745.56	1079.81
745.89	1078.21
746.22	1078.38
746.55	1080.11
746.88	1076.62
747.21	1071.38
747.54	1069.95
747.87	1067.42
748.20	1068.20
748.53	1071.78
748.87	1073.09
749.20	1076.65
749.53	1079.57
749.86	1078.71
750.19	1076.58
750.52	1076.93
750.85	1075.69
751.18	1072.81
751.51	1070.82
751.84	1071.17
752.16	1071.26
752.49	1066.89
752.82	1068.10
753.15	1071.45
753.48	1072.69
753.81	1073.21
754.14	1079.83
754.47	1077.09
754.80	1078.36
755.13	1079.95
755.46	1079.64
755.79	1075.57
756.12	1077.16
756.45	1072.76
756.78	1070.26
757.11	1072.69
757.43	1076.32
757.76	1077.25
758.09	1080.13
758.42	1082.71
758.75	1077.14
759.08	1073.88
759.41	1071.99
759.74	1069.55
760.07	1068.88
760.39	1073.49
760.72	1076.62
761.05	1078.45
761.38	1079.95
761.71	1082.31
762.04	1079.46
762.36	1078.26
762.69	1076.74
763.02	1073.72
763.35	1071.68
763.68	1073.88
764.01	1073.58
764.33	1071.71
764.66	1077.37
764.99	1075.62
765.32	1075.24
765.65	1076.20
765.97	1078.54
766.30	1072.13
