SpectraSuite Data File
++++++++++++++++++++++++++++++++++++
Date: Mon Aug 26 10:21:49 PDT 2019
User: corrico
Dark Spectrum Present: No
Reference Spectrum Present: No
Number of Sampled Component Spectra: 1
Spectrometers: USB2+H06089
Integration Time (usec): 2000 (USB2+H06089)
Spectra Averaged: 20 (USB2+H06089)
Boxcar Smoothing: 2 (USB2+H06089)
Correct for Electrical Dark: No (USB2+H06089)
Strobe/Lamp Enabled: No (USB2+H06089)
Correct for Detector Non-linearity: No (USB2+H06089)
Correct for Stray Light: No (USB2+H06089)
Number of Pixels in Processed Spectrum: 2048
>>>>>Begin Processed Spectral Data<<<<<
339.70	1008.89
340.07	1008.89
340.45	975.28
340.82	956.51
341.19	936.66
341.57	912.74
341.94	909.16
342.31	899.94
342.69	895.09
343.06	892.94
343.43	893.08
343.81	893.66
344.18	899.44
344.55	906.70
344.93	908.97
345.30	915.80
345.67	921.40
346.04	930.27
346.42	935.21
346.79	943.87
347.16	954.24
347.54	962.57
347.91	970.55
348.28	978.84
348.65	988.03
349.03	996.90
349.40	1004.63
349.77	1009.85
350.14	1014.08
350.52	1019.47
350.89	1024.29
351.26	1031.45
351.63	1037.00
352.01	1043.01
352.38	1048.65
352.75	1053.99
353.12	1058.23
353.50	1061.99
353.87	1066.89
354.24	1071.29
354.61	1073.21
354.98	1073.63
355.36	1075.31
355.73	1075.69
356.10	1075.87
356.47	1077.28
356.84	1078.73
357.22	1082.66
357.59	1083.93
357.96	1083.79
358.33	1079.01
358.70	1078.85
359.08	1073.56
359.45	1075.24
359.82	1073.39
360.19	1074.82
360.56	1073.35
360.94	1071.64
361.31	1065.32
361.68	1064.22
362.05	1062.37
362.42	1064.03
362.79	1064.34
363.16	1064.64
363.54	1067.57
363.91	1072.15
364.28	1069.39
364.65	1068.81
365.02	1071.68
365.39	1070.94
365.76	1066.98
366.14	1067.45
366.51	1070.09
366.88	1068.17
367.25	1066.65
367.62	1067.57
367.99	1068.74
368.36	1067.54
368.73	1069.53
369.10	1067.17
369.48	1067.54
369.85	1066.21
370.22	1066.39
370.59	1063.70
370.96	1065.46
371.33	1065.88
371.70	1067.33
372.07	1068.13
372.44	1069.16
372.81	1070.75
373.18	1070.23
373.55	1070.19
373.93	1068.24
374.30	1070.82
374.67	1072.04
375.04	1072.08
375.41	1070.02
375.78	1069.37
376.15	1068.06
376.52	1065.83
376.89	1065.95
377.26	1067.78
377.63	1071.24
378.00	1070.02
378.37	1069.72
378.74	1068.90
379.11	1067.12
379.48	1066.21
379.85	1065.13
380.22	1064.99
380.59	1063.73
380.96	1062.84
381.33	1061.39
381.70	1065.76
382.07	1066.91
382.44	1067.89
382.81	1067.31
383.18	1068.24
383.55	1066.82
383.92	1069.18
384.29	1069.41
384.66	1070.02
385.03	1068.50
385.40	1068.81
385.77	1066.30
386.14	1064.92
386.51	1068.08
386.88	1069.77
387.25	1071.45
387.62	1072.97
387.99	1079.34
388.36	1079.06
388.73	1080.04
389.10	1078.89
389.46	1079.13
389.83	1076.25
390.20	1074.17
390.57	1074.26
390.94	1075.22
391.31	1075.01
391.68	1076.62
392.05	1078.45
392.42	1079.31
392.79	1079.29
393.16	1079.99
393.53	1076.67
393.89	1075.64
394.26	1071.75
394.63	1070.02
395.00	1070.16
395.37	1071.26
395.74	1070.72
396.11	1071.90
396.48	1072.71
396.84	1072.88
397.21	1073.11
397.58	1076.13
397.95	1078.19
398.32	1079.13
398.69	1078.07
399.06	1074.24
399.42	1072.32
399.79	1071.03
400.16	1065.97
400.53	1067.10
400.90	1072.20
401.27	1072.95
401.64	1072.13
402.00	1075.99
402.37	1072.41
402.74	1069.84
403.11	1068.85
403.48	1071.68
403.84	1073.32
404.21	1078.82
404.58	1082.57
404.95	1088.00
405.32	1085.68
405.68	1086.36
406.05	1081.70
406.42	1080.32
406.79	1078.38
407.16	1081.23
407.52	1078.31
407.89	1078.96
408.26	1079.15
408.63	1077.09
408.99	1074.75
409.36	1077.33
409.73	1080.77
410.10	1082.71
410.47	1079.46
410.83	1081.12
411.20	1078.40
411.57	1077.02
411.94	1075.36
412.30	1078.00
412.67	1077.77
413.04	1080.98
413.40	1083.67
413.77	1083.53
414.14	1087.09
414.51	1090.36
414.87	1090.83
415.24	1087.06
415.61	1088.40
415.97	1089.73
416.34	1084.16
416.71	1085.33
417.08	1087.74
417.44	1085.31
417.81	1082.76
418.18	1088.93
418.54	1087.95
418.91	1086.76
419.28	1089.03
419.64	1092.30
420.01	1091.77
420.38	1090.10
420.74	1091.98
421.11	1092.07
421.48	1092.12
421.84	1090.67
422.21	1092.05
422.58	1091.86
422.94	1095.98
423.31	1096.66
423.68	1099.30
424.04	1101.25
424.41	1102.25
424.77	1103.19
425.14	1105.79
425.51	1104.66
425.87	1107.33
426.24	1110.77
426.61	1109.41
426.97	1109.20
427.34	1112.06
427.70	1114.24
428.07	1116.76
428.44	1121.96
428.80	1125.98
429.17	1128.51
429.53	1133.43
429.90	1138.88
430.27	1143.49
430.63	1148.06
431.00	1155.41
431.36	1158.64
431.73	1166.36
432.09	1172.35
432.46	1177.90
432.83	1187.05
433.19	1196.86
433.56	1204.39
433.92	1211.51
434.29	1223.28
434.65	1236.86
435.02	1245.87
435.38	1257.85
435.75	1275.59
436.11	1289.31
436.48	1300.24
436.84	1320.30
437.21	1335.42
437.57	1351.05
437.94	1371.62
438.30	1394.16
438.67	1415.84
439.03	1439.20
439.40	1464.64
439.76	1487.69
440.13	1515.24
440.49	1542.44
440.86	1572.25
441.22	1605.84
441.59	1643.43
441.95	1683.52
442.32	1725.58
442.68	1772.91
443.05	1817.45
443.41	1864.33
443.78	1909.10
444.14	1960.46
444.51	2012.77
444.87	2077.20
445.24	2141.17
445.60	2214.43
445.96	2285.88
446.33	2364.25
446.69	2442.07
447.06	2526.23
447.42	2614.47
447.79	2704.96
448.15	2808.13
448.51	2917.38
448.88	3045.83
449.24	3169.67
449.61	3315.91
449.97	3457.58
450.33	3597.05
450.70	3726.04
451.06	3883.21
451.43	4027.01
451.79	4204.42
452.15	4399.43
452.52	4603.83
452.88	4814.90
453.24	5048.70
453.61	5295.79
453.97	5548.85
454.34	5796.17
454.70	6084.95
455.06	6384.72
455.43	6680.17
455.79	6960.85
456.15	7315.46
456.52	7651.66
456.88	8037.17
457.24	8406.71
457.61	8816.26
457.97	9201.09
458.33	9593.86
458.70	9989.36
459.06	10372.44
459.42	10839.28
459.79	11257.98
460.15	11727.16
460.51	12164.54
460.88	12650.27
461.24	13030.82
461.60	13461.54
461.96	13868.28
462.33	14248.06
462.69	14602.18
463.05	15033.24
463.42	15467.76
463.78	15849.50
464.14	16222.53
464.50	16613.05
464.87	16892.07
465.23	17089.70
465.59	17268.03
465.95	17410.10
466.32	17530.36
466.68	17612.72
467.04	17657.07
467.40	17736.04
467.77	17803.87
468.13	17743.58
468.49	17703.27
468.85	17654.57
469.22	17558.68
469.58	17400.43
469.94	17316.90
470.30	17218.31
470.66	17124.62
471.03	16938.25
471.39	16840.39
471.75	16646.26
472.11	16408.72
472.47	16229.18
472.84	16053.29
473.20	15789.07
473.56	15580.01
473.92	15313.28
474.28	14983.74
474.65	14652.62
475.01	14333.16
475.37	13987.67
475.73	13677.06
476.09	13363.52
476.45	13090.64
476.81	12813.96
477.18	12535.98
477.54	12323.55
477.90	12171.00
478.26	11970.41
478.62	11811.28
478.98	11687.23
479.34	11575.92
479.71	11390.50
480.07	11234.99
480.43	11059.38
480.79	10874.15
481.15	10700.88
481.51	10549.87
481.87	10399.66
482.23	10246.33
482.59	10128.08
482.96	9969.28
483.32	9812.98
483.68	9668.00
484.04	9544.24
484.40	9386.62
484.76	9236.85
485.12	9091.65
485.48	8943.77
485.84	8773.54
486.20	8606.85
486.56	8419.02
486.92	8246.25
487.28	8068.81
487.64	7874.17
488.00	7694.02
488.37	7529.50
488.73	7351.58
489.09	7160.94
489.45	7001.55
489.81	6828.91
490.17	6661.84
490.53	6515.42
490.89	6361.34
491.25	6223.53
491.61	6074.98
491.97	5929.86
492.33	5761.44
492.69	5622.53
493.05	5455.79
493.41	5312.45
493.77	5166.59
494.13	5046.12
494.49	4920.70
494.85	4811.30
495.21	4692.61
495.57	4588.22
495.93	4468.46
496.29	4359.11
496.64	4270.14
497.00	4184.06
497.36	4091.02
497.72	4015.19
498.08	3943.83
498.44	3863.87
498.80	3792.67
499.16	3724.03
499.52	3639.44
499.88	3561.71
500.24	3485.22
500.60	3411.96
500.96	3346.40
501.32	3286.21
501.68	3218.21
502.03	3147.48
502.39	3078.34
502.75	3002.77
503.11	2941.23
503.47	2880.75
503.83	2822.87
504.19	2763.66
504.55	2708.26
504.91	2655.50
505.26	2607.17
505.62	2565.55
505.98	2526.16
506.34	2484.13
506.70	2432.85
507.06	2382.41
507.42	2330.45
507.78	2284.36
508.13	2244.43
508.49	2206.52
508.85	2178.73
509.21	2148.03
509.57	2116.48
509.93	2085.25
510.28	2052.56
510.64	2016.21
511.00	1982.08
511.36	1949.99
511.72	1918.02
512.07	1892.70
512.43	1862.39
512.79	1835.45
513.15	1809.33
513.51	1786.39
513.86	1761.63
514.22	1743.39
514.58	1723.36
514.94	1703.79
515.30	1684.65
515.65	1665.69
516.01	1648.51
516.37	1631.14
516.73	1614.76
517.08	1596.76
517.44	1581.15
517.80	1564.09
518.16	1550.56
518.51	1536.77
518.87	1525.37
519.23	1512.59
519.59	1499.02
519.94	1483.97
520.30	1470.98
520.66	1455.56
521.01	1445.28
521.37	1433.30
521.73	1427.45
522.09	1420.56
522.44	1410.20
522.80	1398.10
523.16	1391.94
523.51	1378.39
523.87	1366.80
524.23	1358.10
524.58	1344.54
524.94	1331.32
525.30	1323.78
525.65	1313.63
526.01	1306.53
526.37	1303.42
526.72	1301.06
527.08	1296.24
527.44	1289.07
527.79	1280.23
528.15	1275.66
528.51	1268.50
528.86	1262.32
529.22	1258.25
529.58	1254.81
529.93	1250.43
530.29	1245.96
530.65	1237.18
531.00	1231.07
531.36	1226.14
531.71	1220.85
532.07	1213.43
532.43	1210.95
532.78	1208.28
533.14	1204.11
533.49	1197.23
533.85	1194.73
534.21	1193.74
534.56	1189.65
534.92	1185.83
535.27	1182.91
535.63	1177.90
535.98	1171.32
536.34	1167.08
536.69	1168.14
537.05	1164.49
537.41	1160.95
537.76	1159.43
538.12	1157.00
538.47	1150.94
538.83	1151.12
539.18	1154.77
539.54	1154.33
539.89	1154.42
540.25	1154.59
540.60	1150.54
540.96	1146.70
541.31	1146.28
541.67	1142.67
542.02	1140.80
542.38	1141.17
542.73	1139.19
543.09	1136.75
543.44	1135.16
543.80	1132.80
544.15	1128.91
544.51	1126.87
544.86	1124.25
545.22	1122.92
545.57	1121.00
545.93	1124.18
546.28	1124.44
546.64	1122.71
546.99	1125.75
547.35	1129.03
547.70	1126.43
548.05	1122.33
548.41	1122.68
548.76	1118.17
549.12	1115.99
549.47	1116.67
549.83	1117.51
550.18	1116.76
550.53	1115.94
550.89	1112.55
551.24	1107.07
551.60	1106.35
551.95	1102.58
552.30	1099.00
552.66	1098.23
553.01	1097.92
553.37	1094.79
553.72	1097.85
554.07	1098.93
554.43	1095.14
554.78	1097.43
555.13	1097.97
555.49	1093.97
555.84	1095.51
556.19	1098.46
556.55	1097.55
556.90	1098.18
557.26	1099.98
557.61	1101.18
557.96	1097.66
558.32	1096.56
558.67	1094.01
559.02	1092.68
559.37	1090.97
559.73	1091.93
560.08	1091.51
560.43	1094.18
560.79	1090.15
561.14	1086.55
561.49	1088.00
561.85	1086.10
562.20	1086.15
562.55	1090.24
562.90	1091.06
563.26	1089.59
563.61	1090.95
563.96	1085.82
564.32	1085.89
564.67	1087.41
565.02	1090.08
565.37	1088.09
565.73	1091.53
566.08	1089.64
566.43	1086.73
566.78	1084.02
567.14	1084.53
567.49	1083.86
567.84	1086.06
568.19	1087.30
568.54	1086.17
568.90	1086.06
569.25	1087.97
569.60	1086.87
569.95	1086.87
570.31	1087.69
570.66	1088.63
571.01	1085.91
571.36	1083.39
571.71	1084.91
572.06	1085.80
572.42	1085.03
572.77	1085.73
573.12	1087.86
573.47	1086.34
573.82	1084.58
574.18	1083.20
574.53	1083.18
574.88	1082.01
575.23	1083.81
575.58	1084.04
575.93	1085.54
576.28	1083.06
576.64	1081.05
576.99	1078.21
577.34	1074.33
577.69	1073.07
578.04	1073.51
578.39	1074.91
578.74	1073.21
579.09	1076.67
579.44	1077.00
579.80	1076.46
580.15	1079.81
580.50	1082.17
580.85	1084.44
581.20	1086.41
581.55	1088.49
581.90	1085.54
582.25	1083.39
582.60	1082.10
582.95	1079.31
583.30	1081.68
583.65	1082.29
584.00	1082.76
584.35	1082.08
584.71	1082.08
585.06	1081.33
585.41	1079.74
585.76	1079.31
586.11	1076.30
586.46	1077.18
586.81	1076.76
587.16	1079.50
587.51	1080.16
587.86	1082.54
588.21	1081.58
588.56	1081.12
588.91	1079.41
589.26	1083.01
589.61	1083.04
589.96	1082.76
590.31	1082.64
590.66	1084.70
591.01	1081.80
591.36	1083.71
591.71	1082.76
592.06	1079.36
592.41	1076.44
592.76	1075.69
593.10	1076.27
593.45	1078.87
593.80	1080.86
594.15	1084.42
594.50	1084.14
594.85	1080.86
595.20	1078.66
595.55	1078.99
595.90	1077.61
596.25	1078.59
596.60	1078.38
596.95	1079.20
597.30	1079.71
597.64	1088.89
597.99	1092.30
598.34	1091.11
598.69	1092.21
599.04	1091.74
599.39	1078.94
599.74	1073.39
600.09	1076.32
600.44	1075.78
600.78	1074.89
601.13	1075.83
601.48	1076.83
601.83	1079.36
602.18	1081.16
602.53	1080.63
602.88	1084.00
603.22	1087.34
603.57	1083.46
603.92	1080.48
604.27	1084.46
604.62	1079.43
604.97	1074.80
605.31	1077.00
605.66	1078.17
606.01	1074.42
606.36	1074.07
606.71	1075.27
607.05	1070.84
607.40	1070.63
607.75	1069.18
608.10	1072.55
608.44	1072.01
608.79	1073.46
609.14	1072.81
609.49	1077.25
609.84	1076.69
610.18	1080.18
610.53	1083.22
610.88	1083.01
611.23	1079.60
611.57	1079.41
611.92	1076.69
612.27	1075.76
612.62	1076.23
612.96	1078.40
613.31	1078.89
613.66	1078.40
614.00	1079.22
614.35	1078.38
614.70	1078.89
615.05	1080.32
615.39	1080.63
615.74	1078.68
616.09	1080.02
616.43	1077.18
616.78	1073.46
617.13	1072.76
617.47	1070.37
617.82	1067.42
618.17	1068.01
618.51	1069.67
618.86	1072.20
619.21	1074.00
619.55	1075.22
619.90	1074.31
620.25	1074.94
620.59	1075.55
620.94	1076.23
621.29	1076.18
621.63	1075.34
621.98	1074.59
622.32	1072.34
622.67	1073.11
623.02	1077.04
623.36	1077.44
623.71	1080.06
624.05	1080.16
624.40	1078.47
624.75	1074.47
625.09	1074.63
625.44	1073.28
625.78	1075.01
626.13	1074.82
626.48	1074.33
626.82	1075.97
627.17	1077.09
627.51	1076.93
627.86	1078.64
628.20	1084.98
628.55	1084.42
628.89	1081.94
629.24	1082.94
629.58	1082.50
629.93	1076.90
630.28	1076.69
630.62	1077.16
630.97	1075.92
631.31	1076.37
631.66	1080.06
632.00	1079.76
632.35	1079.48
632.69	1079.29
633.04	1077.47
633.38	1074.40
633.73	1073.60
634.07	1074.56
634.42	1075.41
634.76	1077.58
635.11	1077.68
635.45	1078.45
635.79	1078.12
636.14	1078.87
636.48	1075.36
636.83	1077.33
637.17	1078.52
637.52	1079.01
637.86	1076.37
638.21	1078.07
638.55	1075.50
638.89	1074.84
639.24	1071.87
639.58	1072.71
639.93	1072.60
640.27	1075.45
640.61	1072.78
640.96	1075.64
641.30	1070.40
641.65	1068.55
641.99	1066.58
642.33	1071.24
642.68	1071.45
643.02	1077.47
643.37	1080.06
643.71	1079.90
644.05	1078.03
644.40	1076.69
644.74	1077.18
645.08	1079.95
645.43	1079.74
645.77	1079.55
646.11	1084.02
646.46	1081.35
646.80	1077.54
647.14	1077.72
647.49	1077.40
647.83	1075.59
648.17	1076.72
648.52	1079.17
648.86	1078.71
649.20	1082.57
649.55	1078.73
649.89	1076.53
650.23	1073.93
650.57	1075.76
650.92	1071.99
651.26	1074.45
651.60	1077.61
651.95	1077.98
652.29	1078.05
652.63	1080.09
652.97	1078.19
653.32	1078.45
653.66	1078.75
654.00	1079.43
654.34	1077.86
654.69	1078.78
655.03	1076.46
655.37	1075.55
655.71	1073.60
656.05	1076.37
656.40	1078.10
656.74	1080.51
657.08	1081.77
657.42	1082.50
657.76	1081.02
658.11	1079.48
658.45	1077.72
658.79	1075.64
659.13	1072.92
659.47	1069.16
659.82	1071.19
660.16	1072.97
660.50	1071.99
660.84	1070.42
661.18	1073.91
661.52	1073.11
661.87	1072.57
662.21	1074.91
662.55	1077.35
662.89	1074.03
663.23	1070.72
663.57	1072.69
663.91	1072.20
664.25	1070.14
664.60	1074.33
664.94	1076.20
665.28	1077.33
665.62	1079.90
665.96	1083.04
666.30	1081.37
666.64	1080.27
666.98	1077.63
667.32	1076.13
667.66	1075.92
668.01	1074.19
668.35	1077.02
668.69	1075.69
669.03	1074.56
669.37	1075.48
669.71	1079.46
670.05	1077.56
670.39	1078.10
670.73	1080.02
671.07	1080.86
671.41	1079.36
671.75	1082.15
672.09	1078.19
672.43	1079.34
672.77	1078.71
673.11	1077.65
673.45	1074.84
673.79	1077.70
674.13	1076.32
674.47	1079.24
674.81	1078.21
675.15	1078.80
675.49	1077.63
675.83	1076.04
676.17	1073.04
676.51	1074.56
676.85	1076.39
677.19	1082.19
677.53	1083.29
677.87	1082.83
678.21	1083.86
678.55	1082.66
678.89	1078.73
679.23	1079.08
679.57	1081.82
679.90	1081.23
680.24	1079.99
680.58	1080.13
680.92	1080.06
681.26	1080.09
681.60	1081.70
681.94	1082.33
682.28	1079.81
682.62	1078.07
682.96	1074.03
683.29	1070.42
683.63	1070.42
683.97	1072.36
684.31	1074.80
684.65	1078.99
684.99	1079.15
685.33	1079.78
685.67	1080.79
686.00	1081.51
686.34	1080.09
686.68	1079.31
687.02	1075.78
687.36	1075.15
687.70	1074.87
688.03	1071.59
688.37	1072.22
688.71	1074.17
689.05	1072.18
689.39	1070.37
689.72	1073.42
690.06	1076.46
690.40	1077.02
690.74	1077.16
691.08	1079.24
691.41	1079.31
691.75	1079.67
692.09	1079.64
692.43	1084.32
692.76	1079.95
693.10	1079.95
693.44	1076.83
693.78	1076.97
694.11	1075.38
694.45	1080.34
694.79	1078.87
695.13	1076.95
695.46	1076.53
695.80	1075.78
696.14	1074.00
696.48	1075.41
696.81	1078.33
697.15	1079.01
697.49	1079.01
697.82	1078.73
698.16	1076.93
698.50	1076.60
698.83	1077.79
699.17	1077.35
699.51	1079.67
699.84	1081.26
700.18	1078.03
700.52	1077.91
700.85	1077.33
701.19	1074.70
701.53	1072.67
701.86	1074.80
702.20	1076.23
702.54	1074.45
702.87	1074.94
703.21	1075.36
703.55	1076.97
703.88	1073.16
704.22	1073.49
704.55	1073.32
704.89	1075.29
705.23	1076.83
705.56	1077.93
705.90	1081.05
706.23	1081.91
706.57	1080.25
706.91	1076.55
707.24	1078.10
707.58	1076.93
707.91	1073.95
708.25	1073.39
708.58	1076.41
708.92	1073.02
709.26	1074.10
709.59	1075.48
709.93	1072.34
710.26	1069.27
710.60	1071.38
710.93	1068.64
711.27	1067.87
711.60	1070.72
711.94	1070.35
712.27	1069.13
712.61	1071.24
712.94	1071.73
713.28	1070.65
713.61	1073.28
713.95	1076.67
714.28	1077.25
714.62	1080.34
714.95	1080.79
715.29	1080.16
715.62	1077.44
715.96	1076.86
716.29	1077.14
716.63	1076.20
716.96	1075.78
717.29	1077.98
717.63	1075.41
717.96	1071.15
718.30	1073.21
718.63	1075.31
718.97	1074.87
719.30	1080.63
719.63	1082.33
719.97	1079.74
720.30	1076.79
720.64	1074.84
720.97	1070.96
721.30	1068.92
721.64	1069.65
721.97	1071.43
722.31	1072.32
722.64	1071.08
722.97	1075.01
723.31	1075.43
723.64	1075.36
723.97	1073.32
724.31	1072.88
724.64	1072.01
724.98	1072.22
725.31	1070.89
725.64	1072.48
725.98	1074.45
726.31	1075.03
726.64	1076.34
726.97	1075.50
727.31	1077.16
727.64	1078.17
727.97	1076.83
728.31	1076.95
728.64	1076.97
728.97	1076.51
729.31	1074.61
729.64	1074.82
729.97	1073.37
730.30	1075.50
730.64	1075.83
730.97	1077.96
731.30	1078.85
731.63	1080.39
731.97	1080.46
732.30	1076.86
732.63	1074.54
732.96	1074.38
733.30	1073.98
733.63	1070.14
733.96	1070.94
734.29	1071.15
734.63	1067.35
734.96	1069.60
735.29	1073.35
735.62	1075.90
735.95	1078.85
736.29	1085.84
736.62	1085.05
736.95	1082.17
737.28	1081.19
737.61	1080.06
737.94	1078.21
738.28	1079.83
738.61	1084.70
738.94	1085.96
739.27	1086.13
739.60	1081.37
739.93	1080.65
740.27	1078.89
740.60	1077.82
740.93	1077.49
741.26	1077.42
741.59	1075.29
741.92	1075.41
742.25	1076.01
742.58	1074.52
742.91	1077.79
743.25	1079.03
743.58	1079.95
743.91	1077.98
744.24	1076.69
744.57	1077.14
744.90	1074.33
745.23	1071.08
745.56	1072.18
745.89	1073.77
746.22	1069.04
746.55	1069.77
746.88	1071.33
747.21	1071.38
747.54	1069.09
747.87	1071.73
748.20	1072.06
748.53	1073.49
748.87	1075.08
749.20	1076.32
749.53	1078.64
749.86	1080.46
750.19	1081.66
750.52	1080.95
750.85	1081.28
751.18	1078.26
751.51	1077.72
751.84	1077.35
752.16	1074.33
752.49	1073.18
752.82	1074.59
753.15	1075.03
753.48	1072.57
753.81	1074.14
754.14	1075.71
754.47	1075.59
754.80	1074.52
755.13	1073.67
755.46	1075.20
755.79	1074.61
756.12	1073.21
756.45	1072.20
756.78	1073.23
757.11	1073.35
757.43	1072.92
757.76	1074.82
758.09	1076.86
758.42	1075.99
758.75	1073.56
759.08	1075.36
759.41	1074.73
759.74	1071.57
760.07	1071.47
760.39	1074.33
760.72	1075.97
761.05	1077.61
761.38	1077.68
761.71	1078.33
762.04	1077.56
762.36	1075.71
762.69	1074.49
763.02	1075.01
763.35	1077.40
763.68	1076.11
764.01	1074.35
764.33	1074.24
764.66	1075.69
764.99	1073.63
