SpectraSuite Data File
++++++++++++++++++++++++++++++++++++
Date: Mon Aug 26 10:21:49 PDT 2019
User: corrico
Dark Spectrum Present: No
Reference Spectrum Present: No
Number of Sampled Component Spectra: 1
Spectrometers: USB2+H06089
Integration Time (usec): 2000 (USB2+H06089)
Spectra Averaged: 20 (USB2+H06089)
Boxcar Smoothing: 2 (USB2+H06089)
Correct for Electrical Dark: No (USB2+H06089)
Strobe/Lamp Enabled: No (USB2+H06089)
Correct for Detector Non-linearity: No (USB2+H06089)
Correct for Stray Light: No (USB2+H06089)
Number of Pixels in Processed Spectrum: 2048
>>>>>Begin Processed Spectral Data<<<<<
339.70	1030.89
340.07	1030.89
340.45	995.50
340.82	973.17
341.19	947.33
341.57	921.33
341.94	907.29
342.31	898.02
342.69	891.91
343.06	889.64
343.43	887.84
343.81	890.08
344.18	895.47
344.55	901.25
344.93	908.50
345.30	914.96
345.67	919.97
346.04	927.46
346.42	934.39
346.79	938.58
347.16	947.45
347.54	957.21
347.91	965.75
348.28	974.72
348.65	985.74
349.03	995.52
349.40	1003.83
349.77	1010.81
350.14	1014.62
350.52	1019.63
350.89	1024.55
351.26	1031.83
351.63	1039.31
352.01	1049.68
352.38	1055.16
352.75	1057.88
353.12	1062.60
353.50	1061.25
353.87	1060.85
354.24	1063.14
354.61	1067.54
354.98	1064.99
355.36	1069.67
355.73	1070.16
356.10	1071.08
356.47	1070.61
356.84	1072.97
357.22	1074.31
357.59	1077.79
357.96	1081.73
358.33	1083.29
358.70	1085.26
359.08	1082.19
359.45	1083.20
359.82	1078.75
360.19	1075.80
360.56	1075.62
360.94	1076.46
361.31	1072.97
361.68	1071.22
362.05	1074.14
362.42	1070.47
362.79	1068.52
363.16	1068.01
363.54	1070.56
363.91	1066.42
364.28	1066.91
364.65	1068.06
365.02	1068.15
365.39	1065.11
365.76	1064.59
366.14	1065.55
366.51	1067.49
366.88	1065.46
367.25	1068.20
367.62	1067.96
367.99	1066.32
368.36	1061.53
368.73	1064.15
369.10	1060.08
369.48	1061.34
369.85	1064.17
370.22	1067.45
370.59	1067.33
370.96	1069.04
371.33	1065.58
371.70	1062.81
372.07	1062.53
372.44	1061.69
372.81	1063.16
373.18	1065.32
373.55	1067.45
373.93	1067.64
374.30	1068.78
374.67	1067.26
375.04	1070.65
375.41	1071.59
375.78	1069.95
376.15	1068.88
376.52	1072.62
376.89	1071.26
377.26	1067.94
377.63	1069.62
378.00	1068.52
378.37	1067.87
378.74	1067.03
379.11	1069.70
379.48	1068.03
379.85	1069.58
380.22	1069.74
380.59	1072.55
380.96	1068.88
381.33	1074.24
381.70	1073.98
382.07	1069.84
382.44	1065.67
382.81	1068.17
383.18	1063.77
383.55	1065.27
383.92	1069.02
384.29	1073.07
384.66	1072.57
385.03	1074.84
385.40	1072.29
385.77	1069.55
386.14	1068.06
386.51	1069.25
386.88	1068.08
387.25	1070.91
387.62	1074.96
387.99	1073.21
388.36	1079.08
388.73	1078.47
389.10	1077.18
389.46	1075.85
389.83	1078.12
390.20	1074.17
390.57	1075.34
390.94	1075.03
391.31	1078.54
391.68	1078.10
392.05	1076.79
392.42	1077.25
392.79	1074.07
393.16	1070.65
393.53	1071.90
393.89	1070.09
394.26	1070.91
394.63	1076.46
395.00	1077.11
395.37	1075.99
395.74	1079.78
396.11	1081.73
396.48	1080.95
396.84	1077.28
397.21	1077.35
397.58	1077.14
397.95	1075.64
398.32	1073.77
398.69	1077.25
399.06	1080.27
399.42	1079.10
399.79	1075.69
400.16	1077.44
400.53	1077.65
400.90	1074.14
401.27	1071.97
401.64	1072.83
402.00	1072.74
402.37	1075.24
402.74	1078.54
403.11	1080.02
403.48	1082.57
403.84	1081.05
404.21	1075.52
404.58	1073.86
404.95	1074.82
405.32	1074.98
405.68	1080.11
406.05	1083.29
406.42	1084.46
406.79	1083.18
407.16	1079.55
407.52	1079.20
407.89	1080.32
408.26	1076.81
408.63	1076.69
408.99	1080.34
409.36	1077.84
409.73	1076.81
410.10	1079.95
410.47	1082.01
410.83	1081.91
411.20	1081.23
411.57	1079.53
411.94	1079.97
412.30	1078.54
412.67	1075.13
413.04	1074.12
413.40	1076.41
413.77	1077.00
414.14	1076.27
414.51	1080.41
414.87	1080.51
415.24	1078.38
415.61	1077.16
415.97	1078.05
416.34	1077.79
416.71	1080.56
417.08	1081.19
417.44	1084.32
417.81	1086.45
418.18	1086.22
418.54	1086.34
418.91	1089.75
419.28	1086.83
419.64	1087.25
420.01	1089.03
420.38	1087.95
420.74	1085.89
421.11	1086.20
421.48	1087.69
421.84	1086.01
422.21	1088.54
422.58	1089.73
422.94	1092.84
423.31	1094.76
423.68	1097.36
424.04	1096.05
424.41	1098.98
424.77	1100.71
425.14	1100.47
425.51	1098.46
425.87	1100.05
426.24	1100.36
426.61	1099.89
426.97	1102.67
427.34	1106.75
427.70	1109.91
428.07	1110.79
428.44	1114.42
428.80	1113.93
429.17	1115.62
429.53	1119.71
429.90	1129.61
430.27	1130.76
430.63	1136.96
431.00	1142.37
431.36	1144.99
431.73	1144.40
432.09	1148.03
432.46	1150.82
432.83	1157.79
433.19	1165.52
433.56	1172.37
433.92	1182.70
434.29	1189.60
434.65	1195.71
435.02	1203.36
435.38	1210.06
435.75	1220.82
436.11	1234.73
436.48	1246.78
436.84	1260.19
437.21	1276.22
437.57	1291.11
437.94	1306.28
438.30	1323.99
438.67	1339.00
439.03	1356.48
439.40	1372.89
439.76	1394.26
440.13	1414.41
440.49	1438.24
440.86	1459.86
441.22	1483.90
441.59	1507.28
441.95	1539.04
442.32	1568.93
442.68	1604.88
443.05	1640.95
443.41	1678.40
443.78	1709.67
444.14	1751.56
444.51	1794.61
444.87	1843.05
445.24	1895.79
445.60	1954.07
445.96	2007.41
446.33	2067.58
446.69	2125.89
447.06	2185.17
447.42	2248.58
447.79	2311.86
448.15	2381.50
448.51	2459.04
448.88	2551.82
449.24	2633.88
449.61	2738.85
449.97	2840.19
450.33	2949.19
450.70	3041.01
451.06	3160.33
451.43	3270.90
451.79	3410.23
452.15	3550.94
452.52	3718.29
452.88	3880.30
453.24	4061.34
453.61	4247.84
453.97	4435.67
454.34	4616.38
454.70	4823.63
455.06	5028.76
455.43	5238.10
455.79	5447.71
456.15	5696.30
456.52	5934.85
456.88	6222.29
457.24	6488.67
457.61	6785.73
457.97	7060.09
458.33	7367.09
458.70	7665.89
459.06	7961.40
459.42	8314.66
459.79	8644.70
460.15	8992.27
460.51	9304.87
460.88	9657.24
461.24	9937.66
461.60	10246.91
461.96	10528.97
462.33	10806.44
462.69	11060.76
463.05	11336.10
463.42	11638.29
463.78	11916.46
464.14	12180.31
464.50	12464.03
464.87	12690.97
465.23	12854.08
465.59	13001.47
465.95	13135.32
466.32	13234.56
466.68	13323.64
467.04	13333.45
467.40	13348.40
467.77	13331.53
468.13	13269.39
468.49	13227.80
468.85	13228.85
469.22	13206.89
469.58	13171.01
469.94	13120.27
470.30	13032.01
470.66	12916.43
471.03	12743.56
471.39	12610.99
471.75	12444.51
472.11	12240.56
472.47	12093.22
472.84	11956.18
473.20	11719.18
473.56	11546.61
473.92	11358.13
474.28	11128.24
474.65	10901.00
475.01	10744.72
475.37	10557.01
475.73	10375.08
476.09	10205.65
476.45	10024.19
476.81	9814.97
477.18	9611.36
477.54	9471.45
477.90	9331.01
478.26	9192.10
478.62	9091.62
478.98	8997.89
479.34	8884.44
479.71	8749.13
480.07	8629.79
480.43	8516.04
480.79	8384.34
481.15	8278.71
481.51	8182.70
481.87	8088.75
482.23	7958.99
482.59	7852.94
482.96	7717.43
483.32	7587.81
483.68	7459.19
484.04	7350.94
484.40	7228.74
484.76	7112.51
485.12	7005.74
485.48	6907.76
485.84	6782.10
486.20	6643.75
486.56	6500.30
486.92	6358.42
487.28	6212.91
487.64	6081.09
488.00	5972.53
488.37	5867.54
488.73	5751.33
489.09	5626.55
489.45	5512.80
489.81	5395.31
490.17	5276.46
490.53	5167.36
490.89	5058.62
491.25	4953.51
491.61	4832.29
491.97	4722.90
492.33	4605.33
492.69	4488.16
493.05	4366.97
493.41	4264.39
493.77	4165.05
494.13	4069.04
494.49	3977.86
494.85	3900.74
495.21	3819.22
495.57	3729.62
495.93	3645.55
496.29	3566.37
496.64	3494.00
497.00	3426.99
497.36	3357.03
497.72	3293.18
498.08	3230.74
498.44	3168.83
498.80	3103.95
499.16	3044.43
499.52	2980.32
499.88	2924.66
500.24	2864.58
500.60	2812.79
500.96	2759.42
501.32	2716.29
501.68	2670.04
502.03	2619.39
502.39	2567.15
502.75	2518.98
503.11	2472.21
503.47	2430.95
503.83	2389.92
504.19	2344.37
504.55	2305.90
504.91	2267.42
505.26	2227.53
505.62	2201.02
505.98	2171.76
506.34	2135.15
506.70	2104.17
507.06	2068.10
507.42	2027.54
507.78	1995.52
508.13	1965.51
508.49	1926.96
508.85	1902.48
509.21	1876.34
509.57	1851.11
509.93	1826.98
510.28	1804.46
510.64	1780.96
511.00	1757.16
511.36	1730.57
511.72	1705.83
512.07	1685.23
512.43	1663.91
512.79	1639.69
513.15	1621.78
513.51	1605.98
513.86	1589.81
514.22	1576.02
514.58	1559.34
514.94	1541.87
515.30	1530.27
515.65	1518.12
516.01	1496.37
516.37	1484.18
516.73	1474.28
517.08	1460.40
517.44	1445.54
517.80	1438.87
518.16	1432.92
518.51	1423.28
518.87	1412.58
519.23	1400.34
519.59	1391.33
519.94	1378.29
520.30	1368.39
520.66	1360.93
521.01	1358.77
521.37	1352.36
521.73	1347.38
522.09	1341.10
522.44	1330.64
522.80	1318.33
523.16	1306.25
523.51	1294.81
523.87	1283.95
524.23	1280.13
524.58	1273.04
524.94	1267.68
525.30	1266.04
525.65	1260.92
526.01	1252.28
526.37	1250.69
526.72	1245.80
527.08	1239.45
527.44	1233.18
527.79	1226.67
528.15	1219.61
528.51	1217.24
528.86	1213.73
529.22	1214.86
529.58	1211.39
529.93	1205.84
530.29	1198.89
530.65	1192.85
531.00	1187.75
531.36	1184.99
531.71	1182.60
532.07	1179.33
532.43	1177.87
532.78	1171.18
533.14	1170.88
533.49	1168.33
533.85	1166.92
534.21	1163.01
534.56	1162.94
534.92	1158.68
535.27	1154.80
535.63	1150.63
535.98	1146.84
536.34	1144.80
536.69	1140.89
537.05	1139.93
537.41	1139.89
537.76	1141.36
538.12	1139.72
538.47	1142.74
538.83	1139.02
539.18	1138.62
539.54	1137.27
539.89	1134.74
540.25	1132.73
540.60	1133.29
540.96	1130.71
541.31	1125.40
541.67	1126.01
542.02	1123.13
542.38	1121.89
542.73	1121.51
543.09	1126.13
543.44	1125.05
543.80	1126.73
544.15	1124.81
544.51	1122.85
544.86	1114.82
545.22	1112.53
545.57	1113.18
545.93	1113.28
546.28	1113.79
546.64	1114.14
546.99	1113.39
547.35	1106.68
547.70	1105.08
548.05	1105.86
548.41	1108.06
548.76	1106.84
549.12	1107.05
549.47	1106.96
549.83	1101.29
550.18	1097.90
550.53	1098.60
550.89	1100.92
551.24	1100.87
551.60	1102.84
551.95	1105.15
552.30	1105.74
552.66	1104.83
553.01	1102.86
553.37	1103.89
553.72	1101.81
554.07	1099.05
554.43	1098.69
554.78	1098.27
555.13	1094.88
555.49	1094.97
555.84	1096.78
556.19	1094.06
556.55	1094.01
556.90	1094.97
557.26	1091.63
557.61	1088.44
557.96	1090.83
558.32	1089.10
558.67	1087.48
559.02	1087.76
559.37	1088.02
559.73	1082.97
560.08	1083.01
560.43	1081.33
560.79	1085.45
561.14	1082.83
561.49	1083.01
561.85	1083.93
562.20	1084.89
562.55	1083.08
562.90	1086.45
563.26	1090.15
563.61	1090.06
563.96	1090.95
564.32	1090.17
564.67	1090.01
565.02	1088.77
565.37	1088.37
565.73	1086.31
566.08	1086.87
566.43	1082.29
566.78	1079.60
567.14	1077.77
567.49	1077.96
567.84	1078.24
568.19	1080.91
568.54	1083.08
568.90	1085.66
569.25	1085.47
569.60	1082.78
569.95	1083.95
570.31	1083.39
570.66	1080.04
571.01	1080.04
571.36	1080.56
571.71	1081.16
572.06	1079.85
572.42	1080.88
572.77	1081.63
573.12	1081.63
573.47	1080.06
573.82	1081.70
574.18	1082.05
574.53	1081.87
574.88	1083.62
575.23	1084.07
575.58	1081.89
575.93	1084.25
576.28	1085.77
576.64	1082.08
576.99	1078.38
577.34	1077.21
577.69	1078.99
578.04	1081.75
578.39	1084.32
578.74	1085.94
579.09	1089.07
579.44	1087.25
579.80	1084.37
580.15	1082.17
580.50	1085.00
580.85	1083.79
581.20	1081.61
581.55	1082.10
581.90	1085.40
582.25	1083.74
582.60	1083.60
582.95	1084.11
583.30	1082.80
583.65	1080.79
584.00	1080.95
584.35	1080.20
584.71	1079.95
585.06	1080.74
585.41	1077.70
585.76	1075.34
586.11	1074.94
586.46	1075.52
586.81	1075.50
587.16	1077.47
587.51	1082.10
587.86	1084.18
588.21	1085.61
588.56	1085.33
588.91	1086.43
589.26	1083.69
589.61	1084.28
589.96	1080.32
590.31	1079.31
590.66	1082.24
591.01	1081.80
591.36	1080.51
591.71	1081.35
592.06	1080.98
592.41	1077.75
592.76	1075.94
593.10	1074.26
593.45	1074.10
593.80	1073.25
594.15	1074.96
594.50	1076.81
594.85	1077.47
595.20	1080.88
595.55	1080.79
595.90	1079.10
596.25	1077.16
596.60	1078.40
596.95	1075.83
597.30	1077.63
597.64	1087.25
597.99	1088.91
598.34	1087.51
598.69	1089.59
599.04	1089.54
599.39	1079.76
599.74	1080.09
600.09	1078.92
600.44	1073.67
600.78	1071.78
601.13	1072.18
601.48	1071.01
601.83	1071.40
602.18	1073.44
602.53	1070.56
602.88	1069.23
603.22	1069.51
603.57	1068.13
603.92	1068.38
604.27	1072.27
604.62	1072.95
604.97	1076.13
605.31	1079.50
605.66	1079.60
606.01	1079.01
606.36	1079.78
606.71	1075.43
607.05	1076.72
607.40	1076.93
607.75	1078.64
608.10	1077.93
608.44	1078.80
608.79	1076.60
609.14	1076.06
609.49	1074.28
609.84	1075.34
610.18	1076.79
610.53	1075.85
610.88	1079.27
611.23	1081.82
611.57	1082.10
611.92	1082.73
612.27	1084.65
612.62	1081.37
612.96	1081.21
613.31	1082.71
613.66	1082.57
614.00	1080.27
614.35	1080.56
614.70	1079.43
615.05	1075.69
615.39	1076.86
615.74	1078.28
616.09	1079.22
616.43	1079.08
616.78	1079.99
617.13	1077.40
617.47	1078.64
617.82	1078.82
618.17	1078.73
618.51	1075.59
618.86	1078.00
619.21	1076.62
619.55	1074.33
619.90	1075.22
620.25	1078.40
620.59	1076.58
620.94	1076.34
621.29	1078.47
621.63	1079.97
621.98	1079.38
622.32	1079.90
622.67	1077.42
623.02	1074.87
623.36	1069.37
623.71	1070.49
624.05	1068.27
624.40	1071.94
624.75	1075.20
625.09	1074.38
625.44	1073.23
625.78	1074.73
626.13	1074.21
626.48	1073.49
626.82	1075.15
627.17	1075.99
627.51	1080.04
627.86	1079.69
628.20	1079.90
628.55	1081.37
628.89	1082.40
629.24	1077.21
629.58	1076.30
629.93	1077.58
630.28	1077.25
630.62	1074.17
630.97	1078.45
631.31	1079.24
631.66	1077.70
632.00	1076.74
632.35	1079.22
632.69	1074.89
633.04	1074.40
633.38	1073.65
633.73	1075.24
634.07	1074.12
634.42	1078.00
634.76	1079.20
635.11	1078.45
635.45	1077.30
635.79	1078.52
636.14	1075.31
636.48	1075.73
636.83	1077.49
637.17	1078.75
637.52	1078.80
637.86	1080.48
638.21	1078.36
638.55	1079.08
638.89	1078.54
639.24	1076.04
639.58	1076.41
639.93	1074.75
640.27	1074.45
640.61	1074.19
640.96	1076.25
641.30	1074.54
641.65	1079.69
641.99	1077.75
642.33	1077.40
642.68	1076.41
643.02	1077.93
643.37	1074.68
643.71	1075.15
644.05	1077.79
644.40	1079.36
644.74	1077.37
645.08	1077.11
645.43	1075.41
645.77	1073.53
646.11	1073.44
646.46	1074.80
646.80	1073.86
647.14	1076.48
647.49	1075.27
647.83	1074.98
648.17	1075.13
648.52	1077.23
648.86	1079.34
649.20	1081.56
649.55	1082.64
649.89	1080.79
650.23	1079.78
650.57	1075.59
650.92	1072.34
651.26	1072.64
651.60	1074.82
651.95	1073.88
652.29	1074.56
652.63	1077.56
652.97	1074.94
653.32	1073.67
653.66	1076.39
654.00	1074.03
654.34	1076.39
654.69	1076.86
655.03	1078.24
655.37	1076.88
655.71	1081.98
656.05	1079.74
656.40	1078.71
656.74	1080.20
657.08	1081.19
657.42	1078.89
657.76	1075.80
658.11	1074.49
658.45	1074.77
658.79	1073.95
659.13	1074.59
659.47	1075.71
659.82	1077.77
660.16	1073.11
660.50	1072.06
660.84	1071.64
661.18	1071.36
661.52	1069.70
661.87	1068.06
662.21	1068.55
662.55	1066.68
662.89	1065.39
663.23	1065.20
663.57	1068.97
663.91	1064.92
664.25	1065.88
664.60	1069.27
664.94	1072.74
665.28	1070.65
665.62	1076.08
665.96	1079.46
666.30	1078.07
666.64	1075.83
666.98	1080.04
667.32	1078.21
667.66	1076.20
668.01	1075.34
668.35	1078.43
668.69	1075.52
669.03	1076.34
669.37	1075.94
669.71	1080.86
670.05	1077.68
670.39	1079.17
670.73	1079.46
671.07	1080.44
671.41	1076.23
671.75	1077.63
672.09	1075.52
672.43	1076.60
672.77	1076.41
673.11	1078.33
673.45	1076.95
673.79	1079.06
674.13	1076.25
674.47	1074.66
674.81	1072.81
675.15	1074.38
675.49	1074.94
675.83	1078.94
676.17	1079.67
676.51	1083.46
676.85	1081.51
677.19	1077.37
677.53	1076.15
677.87	1077.70
678.21	1076.44
678.55	1076.67
678.89	1079.48
679.23	1079.50
679.57	1081.00
679.90	1079.90
680.24	1081.51
680.58	1079.34
680.92	1078.78
681.26	1076.11
681.60	1077.40
681.94	1075.43
682.28	1079.36
682.62	1078.82
682.96	1077.42
683.29	1075.31
683.63	1076.69
683.97	1076.08
684.31	1074.59
684.65	1073.09
684.99	1071.64
685.33	1074.07
685.67	1072.92
686.00	1072.78
686.34	1077.63
686.68	1081.58
687.02	1076.81
687.36	1077.47
687.70	1077.09
688.03	1074.77
688.37	1072.13
688.71	1077.42
689.05	1076.41
689.39	1079.69
689.72	1079.34
690.06	1080.67
690.40	1079.13
690.74	1079.62
691.08	1076.04
691.41	1075.71
691.75	1073.02
692.09	1070.23
692.43	1073.00
692.76	1076.01
693.10	1079.03
693.44	1081.47
693.78	1085.99
694.11	1084.84
694.45	1084.70
694.79	1084.74
695.13	1083.50
695.46	1078.07
695.80	1073.35
696.14	1073.39
696.48	1070.21
696.81	1069.30
697.15	1072.83
697.49	1073.00
697.82	1076.48
698.16	1078.36
698.50	1079.10
698.83	1076.37
699.17	1079.31
699.51	1076.60
699.84	1073.16
700.18	1071.57
700.52	1073.44
700.85	1072.18
701.19	1069.91
701.53	1073.51
701.86	1074.03
702.20	1072.06
702.54	1072.90
702.87	1075.15
703.21	1075.45
703.55	1075.03
703.88	1075.71
704.22	1076.01
704.55	1073.56
704.89	1071.52
705.23	1074.12
705.56	1078.21
705.90	1076.41
706.23	1076.18
706.57	1073.86
706.91	1072.04
707.24	1066.89
707.58	1068.69
707.91	1067.35
708.25	1071.26
708.58	1071.92
708.92	1073.84
709.26	1073.56
709.59	1074.98
709.93	1073.58
710.26	1073.16
710.60	1072.18
710.93	1073.58
711.27	1074.45
711.60	1075.57
711.94	1073.25
712.27	1076.67
712.61	1076.08
712.94	1074.49
713.28	1077.25
713.61	1081.02
713.95	1079.78
714.28	1077.96
714.62	1080.84
714.95	1079.97
715.29	1080.93
715.62	1082.69
715.96	1086.01
716.29	1086.50
716.63	1082.99
716.96	1083.34
717.29	1080.70
717.63	1076.97
717.96	1075.73
718.30	1072.39
718.63	1070.54
718.97	1071.45
719.30	1070.16
719.63	1070.98
719.97	1078.10
720.30	1077.77
720.64	1078.64
720.97	1081.35
721.30	1079.13
721.64	1075.97
721.97	1077.14
722.31	1075.08
722.64	1075.22
722.97	1076.18
723.31	1076.58
723.64	1079.06
723.97	1078.47
724.31	1077.23
724.64	1078.38
724.98	1081.09
725.31	1080.27
725.64	1082.36
725.98	1084.49
726.31	1085.80
726.64	1082.90
726.97	1081.44
727.31	1081.56
727.64	1078.96
727.97	1077.84
728.31	1076.15
728.64	1074.70
728.97	1072.85
729.31	1074.96
729.64	1072.53
729.97	1075.69
730.30	1078.28
730.64	1077.44
730.97	1079.69
731.30	1082.94
731.63	1080.09
731.97	1076.53
732.30	1076.44
732.63	1075.52
732.96	1072.46
733.30	1070.61
733.63	1073.79
733.96	1075.22
734.29	1073.74
734.63	1076.39
734.96	1082.57
735.29	1080.79
735.62	1078.92
735.95	1077.14
736.29	1075.80
736.62	1072.53
736.95	1074.91
737.28	1076.95
737.61	1076.06
737.94	1076.72
738.28	1081.19
738.61	1079.69
738.94	1080.39
739.27	1082.05
739.60	1078.75
739.93	1072.41
740.27	1069.84
740.60	1068.69
740.93	1070.75
741.26	1075.94
741.59	1079.38
741.92	1083.57
742.25	1085.45
742.58	1085.31
742.91	1081.23
743.25	1079.50
743.58	1076.23
743.91	1075.52
744.24	1074.89
744.57	1076.30
744.90	1076.72
745.23	1079.38
745.56	1076.86
745.89	1078.03
746.22	1080.02
746.55	1079.38
746.88	1078.94
747.21	1081.14
747.54	1077.65
747.87	1076.08
748.20	1078.17
748.53	1074.91
748.87	1075.71
749.20	1077.37
749.53	1078.47
749.86	1078.43
750.19	1080.56
750.52	1082.05
750.85	1081.58
751.18	1080.18
751.51	1079.69
751.84	1081.12
752.16	1077.82
752.49	1077.16
752.82	1077.65
753.15	1073.60
753.48	1071.52
753.81	1074.03
754.14	1076.01
754.47	1077.11
754.80	1078.31
755.13	1080.11
755.46	1077.54
755.79	1075.85
756.12	1075.20
756.45	1080.27
756.78	1078.92
757.11	1080.34
757.43	1079.76
757.76	1077.16
758.09	1071.80
758.42	1071.47
758.75	1069.86
759.08	1069.39
759.41	1071.26
759.74	1071.57
760.07	1071.01
760.39	1072.69
760.72	1072.71
761.05	1070.19
761.38	1072.60
761.71	1074.63
762.04	1075.20
762.36	1077.96
762.69	1080.02
763.02	1079.43
763.35	1079.48
763.68	1077.51
764.01	1077.09
764.33	1074.94
764.66	1076.04
764.99	1071.61
765.32	1074.61
