SpectraSuite Data File
++++++++++++++++++++++++++++++++++++
Date: Mon Aug 26 10:22:21 PDT 2019
User: corrico
Dark Spectrum Present: No
Reference Spectrum Present: No
Number of Sampled Component Spectra: 1
Spectrometers: USB2+H06089
Integration Time (usec): 2000 (USB2+H06089)
Spectra Averaged: 20 (USB2+H06089)
Boxcar Smoothing: 2 (USB2+H06089)
Correct for Electrical Dark: No (USB2+H06089)
Strobe/Lamp Enabled: No (USB2+H06089)
Correct for Detector Non-linearity: No (USB2+H06089)
Correct for Stray Light: No (USB2+H06089)
Number of Pixels in Processed Spectrum: 2048
>>>>>Begin Processed Spectral Data<<<<<
339.70	1033.58
340.07	1033.58
340.45	998.59
340.82	975.84
341.19	950.96
341.57	923.72
341.94	913.70
342.31	903.54
342.69	900.19
343.06	899.30
343.43	898.23
343.81	898.93
344.18	900.76
344.55	902.23
344.93	904.27
345.30	914.61
345.67	923.93
346.04	930.27
346.42	938.95
346.79	949.91
347.16	953.67
347.54	962.08
347.91	974.90
348.28	985.53
348.65	992.39
349.03	1003.90
349.40	1010.97
349.77	1017.66
350.14	1026.91
350.52	1035.99
350.89	1040.16
351.26	1046.50
351.63	1053.90
352.01	1053.99
352.38	1058.23
352.75	1062.51
353.12	1065.62
353.50	1067.66
353.87	1072.90
354.24	1077.47
354.61	1080.09
354.98	1082.45
355.36	1085.07
355.73	1085.49
356.10	1086.24
356.47	1087.16
356.84	1087.97
357.22	1085.52
357.59	1088.40
357.96	1084.09
358.33	1085.26
358.70	1083.11
359.08	1080.74
359.45	1076.34
359.82	1079.29
360.19	1079.17
360.56	1080.67
360.94	1083.48
361.31	1085.45
361.68	1082.85
362.05	1082.45
362.42	1080.13
362.79	1080.11
363.16	1076.86
363.54	1077.37
363.91	1077.11
364.28	1077.54
364.65	1078.71
365.02	1082.83
365.39	1083.90
365.76	1080.56
366.14	1080.79
366.51	1075.87
366.88	1074.00
367.25	1072.69
367.62	1077.42
367.99	1077.42
368.36	1079.97
368.73	1077.18
369.10	1075.62
369.48	1072.92
369.85	1072.95
370.22	1073.02
370.59	1073.58
370.96	1074.75
371.33	1074.98
371.70	1074.77
372.07	1075.13
372.44	1078.07
372.81	1076.83
373.18	1076.53
373.55	1075.78
373.93	1072.83
374.30	1071.03
374.67	1073.67
375.04	1074.87
375.41	1075.36
375.78	1080.60
376.15	1084.72
376.52	1084.63
376.89	1083.55
377.26	1082.03
377.63	1075.08
378.00	1072.53
378.37	1071.24
378.74	1069.95
379.11	1072.18
379.48	1076.46
379.85	1076.32
380.22	1077.47
380.59	1078.94
380.96	1079.46
381.33	1081.73
381.70	1084.49
382.07	1083.13
382.44	1083.95
382.81	1085.42
383.18	1084.04
383.55	1082.40
383.92	1084.46
384.29	1084.23
384.66	1080.67
385.03	1080.63
385.40	1079.97
385.77	1080.63
386.14	1083.50
386.51	1085.14
386.88	1086.78
387.25	1088.84
387.62	1087.11
387.99	1084.81
388.36	1087.23
388.73	1083.22
389.10	1081.00
389.46	1081.09
389.83	1081.66
390.20	1080.67
390.57	1083.95
390.94	1083.39
391.31	1081.33
391.68	1081.73
392.05	1082.40
392.42	1083.29
392.79	1086.08
393.16	1089.85
393.53	1088.93
393.89	1089.50
394.26	1089.12
394.63	1088.75
395.00	1088.98
395.37	1087.41
395.74	1087.90
396.11	1089.07
396.48	1084.60
396.84	1085.45
397.21	1087.27
397.58	1086.36
397.95	1083.90
398.32	1083.34
398.69	1080.41
399.06	1081.61
399.42	1080.67
399.79	1081.87
400.16	1084.16
400.53	1088.16
400.90	1088.82
401.27	1091.44
401.64	1092.21
402.00	1092.89
402.37	1088.84
402.74	1089.78
403.11	1087.13
403.48	1087.44
403.84	1088.86
404.21	1090.99
404.58	1089.19
404.95	1089.78
405.32	1089.59
405.68	1089.66
406.05	1086.64
406.42	1088.37
406.79	1090.78
407.16	1088.56
407.52	1088.65
407.89	1093.76
408.26	1095.11
408.63	1093.87
408.99	1094.60
409.36	1095.07
409.73	1092.96
410.10	1091.74
410.47	1090.85
410.83	1090.83
411.20	1091.58
411.57	1091.27
411.94	1090.88
412.30	1092.66
412.67	1097.01
413.04	1099.07
413.40	1101.90
413.77	1101.03
414.14	1100.64
414.51	1098.48
414.87	1100.33
415.24	1099.79
415.61	1103.19
415.97	1104.92
416.34	1105.55
416.71	1102.72
417.08	1103.47
417.44	1102.35
417.81	1105.29
418.18	1104.29
418.54	1104.66
418.91	1107.33
419.28	1109.46
419.64	1107.99
420.01	1113.58
420.38	1114.45
420.74	1112.39
421.11	1115.08
421.48	1116.76
421.84	1117.56
422.21	1120.53
422.58	1124.72
422.94	1125.45
423.31	1129.45
423.68	1131.63
424.04	1136.63
424.41	1137.45
424.77	1142.46
425.14	1142.13
425.51	1146.14
425.87	1151.78
426.24	1156.88
426.61	1155.36
426.97	1162.31
427.34	1167.18
427.70	1166.78
428.07	1172.61
428.44	1184.45
428.80	1192.88
429.17	1199.69
429.53	1211.32
429.90	1221.03
430.27	1229.11
430.63	1236.36
431.00	1249.12
431.36	1260.54
431.73	1271.92
432.09	1284.86
432.46	1302.51
432.83	1317.65
433.19	1330.73
433.56	1352.29
433.92	1371.48
434.29	1391.45
434.65	1413.85
435.02	1442.73
435.38	1469.97
435.75	1496.28
436.11	1527.69
436.48	1558.56
436.84	1593.44
437.21	1625.10
437.57	1666.30
437.94	1706.13
438.30	1753.25
438.67	1799.68
439.03	1852.65
439.40	1907.86
439.76	1967.50
440.13	2025.17
440.49	2087.90
440.86	2155.33
441.22	2225.80
441.59	2297.19
441.95	2376.86
442.32	2462.03
442.68	2561.55
443.05	2657.51
443.41	2761.04
443.78	2869.15
444.14	2981.80
444.51	3090.54
444.87	3230.17
445.24	3364.80
445.60	3516.37
445.96	3665.37
446.33	3834.08
446.69	3991.71
447.06	4172.78
447.42	4348.55
447.79	4545.74
448.15	4766.78
448.51	5001.02
448.88	5267.00
449.24	5518.87
449.61	5803.05
449.97	6073.27
450.33	6358.16
450.70	6624.75
451.06	6951.55
451.43	7253.41
451.79	7621.30
452.15	8027.94
452.52	8482.90
452.88	8953.98
453.24	9506.55
453.61	10085.37
453.97	10648.31
454.34	11201.57
454.70	11857.32
455.06	12502.63
455.43	13134.52
455.79	13740.09
456.15	14441.95
456.52	15094.09
456.88	15866.68
457.24	16601.96
457.61	17463.09
457.97	18241.83
458.33	19045.59
458.70	19816.99
459.06	20594.54
459.42	21438.07
459.79	22243.84
460.15	23137.04
460.51	24011.18
460.88	24937.38
461.24	25729.84
461.60	26693.81
461.96	27604.14
462.33	28443.71
462.69	29265.08
463.05	30144.65
463.42	30886.79
463.78	31537.22
464.14	32086.87
464.50	32672.54
464.87	33131.52
465.23	33463.81
465.59	33807.21
465.95	34143.38
466.32	34419.24
466.68	34661.51
467.04	34812.05
467.40	34964.89
467.77	35109.70
468.13	35066.16
468.49	34975.21
468.85	34910.87
469.22	34726.50
469.58	34378.89
469.94	34142.63
470.30	33831.11
470.66	33402.58
471.03	32790.37
471.39	32417.92
471.75	31775.28
472.11	31178.14
472.47	30832.18
472.84	30545.33
473.20	30052.15
473.56	29782.40
473.92	29344.35
474.28	28816.37
474.65	28326.82
475.01	27829.23
475.37	27267.15
475.73	26836.96
476.09	26315.49
476.45	25784.86
476.81	25283.31
477.18	24747.42
477.54	24269.76
477.90	23917.02
478.26	23489.31
478.62	23134.96
478.98	22820.04
479.34	22502.71
479.71	22058.19
480.07	21692.58
480.43	21310.13
480.79	20909.88
481.15	20529.70
481.51	20212.30
481.87	19962.12
482.23	19671.83
482.59	19446.13
482.96	19172.17
483.32	18885.31
483.68	18504.79
484.04	18164.13
484.40	17786.76
484.76	17421.75
485.12	17056.56
485.48	16758.89
485.84	16412.61
486.20	16054.67
486.56	15690.69
486.92	15374.82
487.28	15030.34
487.64	14680.40
488.00	14360.90
488.37	14027.79
488.73	13649.98
489.09	13280.88
489.45	12964.74
489.81	12627.82
490.17	12335.16
490.53	12058.79
490.89	11755.18
491.25	11442.18
491.61	11116.28
491.97	10788.72
492.33	10455.31
492.69	10148.38
493.05	9846.10
493.41	9569.89
493.77	9292.98
494.13	9044.84
494.49	8790.19
494.85	8543.56
495.21	8321.21
495.57	8096.08
495.93	7870.40
496.29	7662.38
496.64	7475.06
497.00	7270.90
497.36	7072.70
497.72	6888.29
498.08	6706.13
498.44	6519.54
498.80	6349.43
499.16	6184.35
499.52	6024.28
499.88	5887.97
500.24	5756.22
500.60	5623.23
500.96	5502.93
501.32	5380.45
501.68	5256.82
502.03	5138.74
502.39	5018.72
502.75	4885.73
503.11	4765.26
503.47	4641.80
503.83	4517.09
504.19	4394.52
504.55	4289.64
504.91	4187.76
505.26	4097.04
505.62	4007.07
505.98	3915.44
506.34	3823.34
506.70	3730.09
507.06	3634.36
507.42	3548.70
507.78	3475.16
508.13	3397.33
508.49	3327.45
508.85	3261.68
509.21	3190.08
509.57	3120.68
509.93	3058.96
510.28	2986.27
510.64	2920.97
511.00	2857.30
511.36	2797.60
511.72	2736.84
512.07	2692.62
512.43	2641.36
512.79	2592.89
513.15	2539.50
513.51	2496.65
513.86	2450.33
514.22	2403.96
514.58	2358.14
514.94	2324.53
515.30	2282.37
515.65	2244.20
516.01	2215.18
516.37	2187.49
516.73	2155.87
517.08	2129.40
517.44	2094.17
517.80	2061.73
518.16	2032.38
518.51	2000.57
518.87	1972.65
519.23	1948.92
519.59	1921.25
519.94	1897.05
520.30	1876.29
520.66	1845.91
521.01	1821.01
521.37	1799.31
521.73	1775.65
522.09	1755.21
522.44	1737.22
522.80	1716.36
523.16	1698.76
523.51	1681.00
523.87	1659.02
524.23	1641.49
524.58	1622.83
524.94	1601.53
525.30	1580.35
525.65	1567.60
526.01	1548.99
526.37	1534.01
526.72	1521.40
527.08	1513.60
527.44	1497.31
527.79	1490.94
528.15	1479.94
528.51	1464.80
528.86	1449.45
529.22	1435.38
529.58	1422.53
529.93	1411.48
530.29	1404.86
530.65	1392.74
531.00	1385.55
531.36	1374.53
531.71	1364.72
532.07	1353.46
532.43	1346.84
532.78	1340.85
533.14	1335.37
533.49	1325.91
533.85	1323.15
534.21	1318.05
534.56	1309.39
534.92	1301.29
535.27	1297.57
535.63	1288.32
535.98	1281.96
536.34	1278.38
536.69	1273.93
537.05	1268.06
537.41	1263.19
537.76	1256.75
538.12	1247.72
538.47	1239.85
538.83	1236.65
539.18	1229.51
539.54	1224.45
539.89	1222.63
540.25	1220.00
540.60	1215.28
540.96	1215.86
541.31	1211.93
541.67	1210.67
542.02	1208.56
542.38	1207.81
542.73	1202.85
543.09	1205.26
543.44	1202.29
543.80	1196.53
544.15	1192.50
544.51	1193.32
544.86	1185.76
545.22	1183.26
545.57	1180.75
545.93	1175.79
546.28	1168.44
546.64	1168.14
546.99	1163.18
547.35	1162.08
547.70	1163.36
548.05	1160.84
548.41	1158.68
548.76	1157.09
549.12	1157.72
549.47	1154.19
549.83	1153.88
550.18	1153.32
550.53	1151.24
550.89	1150.02
551.24	1147.03
551.60	1144.10
551.95	1139.51
552.30	1138.20
552.66	1135.98
553.01	1138.97
553.37	1138.62
553.72	1137.48
554.07	1137.41
554.43	1134.81
554.78	1129.54
555.13	1130.71
555.49	1130.55
555.84	1128.98
556.19	1127.46
556.55	1127.06
556.90	1119.69
557.26	1116.74
557.61	1114.70
557.96	1115.31
558.32	1115.48
558.67	1120.06
559.02	1118.10
559.37	1117.18
559.73	1116.06
560.08	1114.26
560.43	1110.65
560.79	1111.40
561.14	1112.95
561.49	1112.11
561.85	1110.02
562.20	1110.37
562.55	1111.08
562.90	1108.57
563.26	1107.35
563.61	1107.31
563.96	1105.18
564.32	1103.80
564.67	1103.45
565.02	1102.98
565.37	1105.79
565.73	1107.07
566.08	1106.44
566.43	1105.90
566.78	1106.18
567.14	1103.82
567.49	1103.38
567.84	1104.62
568.19	1100.40
568.54	1096.17
568.90	1094.81
569.25	1092.26
569.60	1089.26
569.95	1092.84
570.31	1097.71
570.66	1098.39
571.01	1100.50
571.36	1100.96
571.71	1096.87
572.06	1094.81
572.42	1094.67
572.77	1094.60
573.12	1098.48
573.47	1101.15
573.82	1099.84
574.18	1099.72
574.53	1099.89
574.88	1096.78
575.23	1098.23
575.58	1097.13
575.93	1095.28
576.28	1096.42
576.64	1096.45
576.99	1097.08
577.34	1099.35
577.69	1099.77
578.04	1099.28
578.39	1102.25
578.74	1099.14
579.09	1097.41
579.44	1096.96
579.80	1095.46
580.15	1093.08
580.50	1092.02
580.85	1091.06
581.20	1092.23
581.55	1091.20
581.90	1086.92
582.25	1088.86
582.60	1089.54
582.95	1089.87
583.30	1087.74
583.65	1088.65
584.00	1085.84
584.35	1085.94
584.71	1084.84
585.06	1085.94
585.41	1088.49
585.76	1089.12
586.11	1087.93
586.46	1087.13
586.81	1089.89
587.16	1088.63
587.51	1089.10
587.86	1087.23
588.21	1088.65
588.56	1083.90
588.91	1081.94
589.26	1082.01
589.61	1081.89
589.96	1080.11
590.31	1084.30
590.66	1085.31
591.01	1084.93
591.36	1087.16
591.71	1088.82
592.06	1085.17
592.41	1083.86
592.76	1083.74
593.10	1084.28
593.45	1082.24
593.80	1082.10
594.15	1085.84
594.50	1086.15
594.85	1088.30
595.20	1088.07
595.55	1089.78
595.90	1087.81
596.25	1087.95
596.60	1087.95
596.95	1088.28
597.30	1084.91
597.64	1096.19
597.99	1094.88
598.34	1090.64
598.69	1088.89
599.04	1092.40
599.39	1080.67
599.74	1082.17
600.09	1084.70
600.44	1087.02
600.78	1089.17
601.13	1090.24
601.48	1088.26
601.83	1088.09
602.18	1090.39
602.53	1088.93
602.88	1089.99
603.22	1093.97
603.57	1090.36
603.92	1086.62
604.27	1087.72
604.62	1085.35
604.97	1083.06
605.31	1085.63
605.66	1087.09
606.01	1086.87
606.36	1087.81
606.71	1086.66
607.05	1085.89
607.40	1083.67
607.75	1082.36
608.10	1079.81
608.44	1078.89
608.79	1080.53
609.14	1082.99
609.49	1079.22
609.84	1079.83
610.18	1081.66
610.53	1080.41
610.88	1080.02
611.23	1085.75
611.57	1088.30
611.92	1085.75
612.27	1085.96
612.62	1086.76
612.96	1086.71
613.31	1088.04
613.66	1091.79
614.00	1091.18
614.35	1093.52
614.70	1090.13
615.05	1087.30
615.39	1088.44
615.74	1088.09
616.09	1084.60
616.43	1086.36
616.78	1087.60
617.13	1083.20
617.47	1083.53
617.82	1082.15
618.17	1082.33
618.51	1080.70
618.86	1081.54
619.21	1083.83
619.55	1084.81
619.90	1082.19
620.25	1081.84
620.59	1084.18
620.94	1081.37
621.29	1078.59
621.63	1077.25
621.98	1078.75
622.32	1077.77
622.67	1079.50
623.02	1082.17
623.36	1085.47
623.71	1086.52
624.05	1086.13
624.40	1083.39
624.75	1084.18
625.09	1083.60
625.44	1084.51
625.78	1084.25
626.13	1088.54
626.48	1090.29
626.82	1089.03
627.17	1086.15
627.51	1085.70
627.86	1084.28
628.20	1083.11
628.55	1085.07
628.89	1085.40
629.24	1087.88
629.58	1087.20
629.93	1083.43
630.28	1079.57
630.62	1077.07
630.97	1073.98
631.31	1074.40
631.66	1077.63
632.00	1082.24
632.35	1083.32
632.69	1086.03
633.04	1087.25
633.38	1089.45
633.73	1088.35
634.07	1089.99
634.42	1089.61
634.76	1090.34
635.11	1088.93
635.45	1087.65
635.79	1089.50
636.14	1089.26
636.48	1086.08
636.83	1084.30
637.17	1085.19
637.52	1082.26
637.86	1083.15
638.21	1084.84
638.55	1084.56
638.89	1085.89
639.24	1088.30
639.58	1085.45
639.93	1086.52
640.27	1084.46
640.61	1083.71
640.96	1080.88
641.30	1082.99
641.65	1078.96
641.99	1079.60
642.33	1076.11
642.68	1076.60
643.02	1076.25
643.37	1078.14
643.71	1080.74
644.05	1084.21
644.40	1084.60
644.74	1083.64
645.08	1082.97
645.43	1084.16
645.77	1081.30
646.11	1082.01
646.46	1084.02
646.80	1086.34
647.14	1081.58
647.49	1081.70
647.83	1080.25
648.17	1076.62
648.52	1075.97
648.86	1079.76
649.20	1080.32
649.55	1082.66
649.89	1084.02
650.23	1083.34
650.57	1080.46
650.92	1077.98
651.26	1078.40
651.60	1079.01
651.95	1077.44
652.29	1078.28
652.63	1083.46
652.97	1081.14
653.32	1081.19
653.66	1082.29
654.00	1083.62
654.34	1083.69
654.69	1086.15
655.03	1085.56
655.37	1085.21
655.71	1088.02
656.05	1085.96
656.40	1083.46
656.74	1085.05
657.08	1087.04
657.42	1083.88
657.76	1082.40
658.11	1083.29
658.45	1081.68
658.79	1079.43
659.13	1077.40
659.47	1080.91
659.82	1080.86
660.16	1083.97
660.50	1084.98
660.84	1086.06
661.18	1084.56
661.52	1084.46
661.87	1084.04
662.21	1084.46
662.55	1084.60
662.89	1085.89
663.23	1084.32
663.57	1080.32
663.91	1083.04
664.25	1083.62
664.60	1082.22
664.94	1083.86
665.28	1084.44
665.62	1080.79
665.96	1080.56
666.30	1080.79
666.64	1079.60
666.98	1083.41
667.32	1082.38
667.66	1081.77
668.01	1083.25
668.35	1083.60
668.69	1080.70
669.03	1083.50
669.37	1081.28
669.71	1080.30
670.05	1080.93
670.39	1079.55
670.73	1079.06
671.07	1083.34
671.41	1081.75
671.75	1078.71
672.09	1081.16
672.43	1078.92
672.77	1077.63
673.11	1077.11
673.45	1079.29
673.79	1077.93
674.13	1077.04
674.47	1078.36
674.81	1075.43
675.15	1071.75
675.49	1073.30
675.83	1075.36
676.17	1071.50
676.51	1076.08
676.85	1078.36
677.19	1078.89
677.53	1079.27
677.87	1080.23
678.21	1079.78
678.55	1079.01
678.89	1077.28
679.23	1078.14
679.57	1076.37
679.90	1077.23
680.24	1080.95
680.58	1080.04
680.92	1075.92
681.26	1082.17
681.60	1078.85
681.94	1078.43
682.28	1081.02
682.62	1082.94
682.96	1079.71
683.29	1081.28
683.63	1080.41
683.97	1079.48
684.31	1083.62
684.65	1086.83
684.99	1086.66
685.33	1084.91
685.67	1084.58
686.00	1082.85
686.34	1076.58
686.68	1078.36
687.02	1079.50
687.36	1079.83
687.70	1080.79
688.03	1082.29
688.37	1081.94
688.71	1081.91
689.05	1082.80
689.39	1080.53
689.72	1081.30
690.06	1081.12
690.40	1082.31
690.74	1080.63
691.08	1079.13
691.41	1079.92
691.75	1081.14
692.09	1079.90
692.43	1081.56
692.76	1083.79
693.10	1084.07
693.44	1081.91
693.78	1081.23
694.11	1080.65
694.45	1078.19
694.79	1080.56
695.13	1083.39
695.46	1080.95
695.80	1079.95
696.14	1080.65
696.48	1076.65
696.81	1074.35
697.15	1079.27
697.49	1078.21
697.82	1077.54
698.16	1079.27
698.50	1078.94
698.83	1077.37
699.17	1081.89
699.51	1081.51
699.84	1081.70
700.18	1082.12
700.52	1080.77
700.85	1081.84
701.19	1083.81
701.53	1080.77
701.86	1080.60
702.20	1082.36
702.54	1077.02
702.87	1078.47
703.21	1082.66
703.55	1083.18
703.88	1081.84
704.22	1086.48
704.55	1085.61
704.89	1085.03
705.23	1084.35
705.56	1084.70
705.90	1078.73
706.23	1074.59
706.57	1071.57
706.91	1070.21
707.24	1070.82
707.58	1072.67
707.91	1076.08
708.25	1078.00
708.58	1080.34
708.92	1078.31
709.26	1079.48
709.59	1079.27
709.93	1077.65
710.26	1077.11
710.60	1078.89
710.93	1079.43
711.27	1077.98
711.60	1080.84
711.94	1082.59
712.27	1084.74
712.61	1082.22
712.94	1083.29
713.28	1079.62
713.61	1078.36
713.95	1077.65
714.28	1075.50
714.62	1074.73
714.95	1074.12
715.29	1071.15
715.62	1072.67
715.96	1076.90
716.29	1077.77
716.63	1080.16
716.96	1082.40
717.29	1080.79
717.63	1080.86
717.96	1081.70
718.30	1082.73
718.63	1083.32
718.97	1082.92
719.30	1083.50
719.63	1079.20
719.97	1082.50
720.30	1084.42
720.64	1083.50
720.97	1082.80
721.30	1089.94
721.64	1087.86
721.97	1085.77
722.31	1089.00
722.64	1087.39
722.97	1086.13
723.31	1084.51
723.64	1085.14
723.97	1083.79
724.31	1084.28
724.64	1079.15
724.98	1077.56
725.31	1076.46
725.64	1075.36
725.98	1074.73
726.31	1076.23
726.64	1078.03
726.97	1078.96
727.31	1080.44
727.64	1080.11
727.97	1082.40
728.31	1081.09
728.64	1079.92
728.97	1080.13
729.31	1082.97
729.64	1080.95
729.97	1081.98
730.30	1080.16
730.64	1077.58
730.97	1074.21
731.30	1076.39
731.63	1074.94
731.97	1077.21
732.30	1078.54
732.63	1079.69
732.96	1078.80
733.30	1080.51
733.63	1080.02
733.96	1081.40
734.29	1083.08
734.63	1087.16
734.96	1087.65
735.29	1087.81
735.62	1086.52
735.95	1081.54
736.29	1078.64
736.62	1079.76
736.95	1080.34
737.28	1079.64
737.61	1086.10
737.94	1087.18
738.28	1084.14
738.61	1085.82
738.94	1088.21
739.27	1085.59
739.60	1081.09
739.93	1082.12
740.27	1080.74
740.60	1078.14
740.93	1080.63
741.26	1082.52
741.59	1081.42
741.92	1080.34
742.25	1079.83
742.58	1079.17
742.91	1078.28
743.25	1080.13
743.58	1080.37
743.91	1080.56
744.24	1078.92
744.57	1081.02
744.90	1077.04
745.23	1078.85
745.56	1080.65
745.89	1078.33
746.22	1080.48
746.55	1082.29
746.88	1080.98
747.21	1081.30
747.54	1086.80
747.87	1085.05
748.20	1086.27
748.53	1087.04
748.87	1087.06
749.20	1082.99
749.53	1079.78
749.86	1082.36
750.19	1083.36
750.52	1084.58
750.85	1084.60
751.18	1088.44
751.51	1085.91
751.84	1082.94
752.16	1081.14
752.49	1082.52
752.82	1077.04
753.15	1077.07
753.48	1079.22
753.81	1077.30
754.14	1076.88
754.47	1077.33
754.80	1076.58
755.13	1073.65
755.46	1074.14
755.79	1074.21
756.12	1077.82
756.45	1079.01
756.78	1079.60
757.11	1078.78
757.43	1080.30
757.76	1083.27
758.09	1083.55
758.42	1084.14
758.75	1086.24
759.08	1085.35
759.41	1081.82
759.74	1076.93
760.07	1077.65
760.39	1076.20
760.72	1074.03
761.05	1074.91
761.38	1080.02
761.71	1078.19
762.04	1079.43
762.36	1080.51
762.69	1077.63
763.02	1074.54
763.35	1074.89
763.68	1072.29
764.01	1071.97
