SpectraSuite Data File
++++++++++++++++++++++++++++++++++++
Date: Mon Aug 26 10:22:09 PDT 2019
User: corrico
Dark Spectrum Present: No
Reference Spectrum Present: No
Number of Sampled Component Spectra: 1
Spectrometers: USB2+H06089
Integration Time (usec): 2000 (USB2+H06089)
Spectra Averaged: 20 (USB2+H06089)
Boxcar Smoothing: 2 (USB2+H06089)
Correct for Electrical Dark: No (USB2+H06089)
Strobe/Lamp Enabled: No (USB2+H06089)
Correct for Detector Non-linearity: No (USB2+H06089)
Correct for Stray Light: No (USB2+H06089)
Number of Pixels in Processed Spectrum: 2048
>>>>>Begin Processed Spectral Data<<<<<
339.70	1018.84
340.07	1018.84
340.45	987.38
340.82	965.73
341.19	941.39
341.57	915.57
341.94	903.19
342.31	895.14
342.69	891.42
343.06	891.53
343.43	893.36
343.81	895.58
344.18	894.93
344.55	898.77
344.93	905.32
345.30	910.33
345.67	918.71
346.04	928.94
346.42	938.32
346.79	944.69
347.16	955.31
347.54	965.05
347.91	971.86
348.28	979.56
348.65	987.12
349.03	995.22
349.40	1001.40
349.77	1012.63
350.14	1020.64
350.52	1029.93
350.89	1035.01
351.26	1041.82
351.63	1047.20
352.01	1053.15
352.38	1056.66
352.75	1062.95
353.12	1066.93
353.50	1068.74
353.87	1073.88
354.24	1078.80
354.61	1083.39
354.98	1086.43
355.36	1090.81
355.73	1088.14
356.10	1087.83
356.47	1084.14
356.84	1083.74
357.22	1085.33
357.59	1087.58
357.96	1085.00
358.33	1084.67
358.70	1083.81
359.08	1080.20
359.45	1080.34
359.82	1083.04
360.19	1086.64
360.56	1086.90
360.94	1087.79
361.31	1085.19
361.68	1081.61
362.05	1076.60
362.42	1075.45
362.79	1074.96
363.16	1076.88
363.54	1079.29
363.91	1078.99
364.28	1078.78
364.65	1077.44
365.02	1075.87
365.39	1073.84
365.76	1075.52
366.14	1075.80
366.51	1073.88
366.88	1072.48
367.25	1072.29
367.62	1069.04
367.99	1067.24
368.36	1067.47
368.73	1067.26
369.10	1066.91
369.48	1070.96
369.85	1074.54
370.22	1076.48
370.59	1078.75
370.96	1081.23
371.33	1078.75
371.70	1076.30
372.07	1075.03
372.44	1071.75
372.81	1067.68
373.18	1068.13
373.55	1071.33
373.93	1076.01
374.30	1078.78
374.67	1081.19
375.04	1083.39
375.41	1079.29
375.78	1075.24
376.15	1074.31
376.52	1073.95
376.89	1076.69
377.26	1078.50
377.63	1080.77
378.00	1083.86
378.37	1085.38
378.74	1080.51
379.11	1082.59
379.48	1082.38
379.85	1080.23
380.22	1081.44
380.59	1083.20
380.96	1081.56
381.33	1080.34
381.70	1080.48
382.07	1077.93
382.44	1081.37
382.81	1082.52
383.18	1084.74
383.55	1084.89
383.92	1086.06
384.29	1082.33
384.66	1081.40
385.03	1078.45
385.40	1077.00
385.77	1077.51
386.14	1079.60
386.51	1080.53
386.88	1082.31
387.25	1084.93
387.62	1085.40
387.99	1084.07
388.36	1082.47
388.73	1083.32
389.10	1084.09
389.46	1082.59
389.83	1084.53
390.20	1087.81
390.57	1084.72
390.94	1085.82
391.31	1088.98
391.68	1088.02
392.05	1087.39
392.42	1090.34
392.79	1088.75
393.16	1085.33
393.53	1085.40
393.89	1083.86
394.26	1084.70
394.63	1083.43
395.00	1084.89
395.37	1083.64
395.74	1085.26
396.11	1084.98
396.48	1086.85
396.84	1087.62
397.21	1087.93
397.58	1091.56
397.95	1092.61
398.32	1090.57
398.69	1094.50
399.06	1096.33
399.42	1091.58
399.79	1089.05
400.16	1089.22
400.53	1086.52
400.90	1086.57
401.27	1086.59
401.64	1089.54
402.00	1089.24
402.37	1089.29
402.74	1087.79
403.11	1087.83
403.48	1086.69
403.84	1088.56
404.21	1088.02
404.58	1087.34
404.95	1088.68
405.32	1088.61
405.68	1087.79
406.05	1088.04
406.42	1089.59
406.79	1092.45
407.16	1095.18
407.52	1094.83
407.89	1097.34
408.26	1099.96
408.63	1097.88
408.99	1095.86
409.36	1096.17
409.73	1098.69
410.10	1100.22
410.47	1102.42
410.83	1101.62
411.20	1103.73
411.57	1097.10
411.94	1096.24
412.30	1091.67
412.67	1093.64
413.04	1095.32
413.40	1099.05
413.77	1098.18
414.14	1101.62
414.51	1101.01
414.87	1096.89
415.24	1098.23
415.61	1098.18
415.97	1101.03
416.34	1103.56
416.71	1111.87
417.08	1110.84
417.44	1110.21
417.81	1108.06
418.18	1109.81
418.54	1107.40
418.91	1108.41
419.28	1112.78
419.64	1113.35
420.01	1115.36
420.38	1116.51
420.74	1118.52
421.11	1118.26
421.48	1124.23
421.84	1124.79
422.21	1128.79
422.58	1131.11
422.94	1136.33
423.31	1137.20
423.68	1142.04
424.04	1145.46
424.41	1148.64
424.77	1152.99
425.14	1156.44
425.51	1160.51
425.87	1161.94
426.24	1170.38
426.61	1172.61
426.97	1179.65
427.34	1185.65
427.70	1194.38
428.07	1200.06
428.44	1211.63
428.80	1221.17
429.17	1229.09
429.53	1238.45
429.90	1254.13
430.27	1263.73
430.63	1280.93
431.00	1295.25
431.36	1311.10
431.73	1323.71
432.09	1342.23
432.46	1355.26
432.83	1372.91
433.19	1391.05
433.56	1410.13
433.92	1433.18
434.29	1458.83
434.65	1490.06
435.02	1518.91
435.38	1554.72
435.75	1591.26
436.11	1632.48
436.48	1671.19
436.84	1721.51
437.21	1766.52
437.57	1814.59
437.94	1867.79
438.30	1923.83
438.67	1979.20
439.03	2041.37
439.40	2109.78
439.76	2175.20
440.13	2247.41
440.49	2325.58
440.86	2401.46
441.22	2480.76
441.59	2565.65
441.95	2666.71
442.32	2772.06
442.68	2897.56
443.05	3024.25
443.41	3160.31
443.78	3291.68
444.14	3430.38
444.51	3563.65
444.87	3729.69
445.24	3892.22
445.60	4071.78
445.96	4255.12
446.33	4476.06
446.69	4671.17
447.06	4896.19
447.42	5118.70
447.79	5354.75
448.15	5614.01
448.51	5903.18
448.88	6218.94
449.24	6524.88
449.61	6879.47
449.97	7222.38
450.33	7597.36
450.70	7958.06
451.06	8389.88
451.43	8796.83
451.79	9275.80
452.15	9766.14
452.52	10301.84
452.88	10856.90
453.24	11488.99
453.61	12183.49
453.97	12883.22
454.34	13582.41
454.70	14411.12
455.06	15217.32
455.43	15980.15
455.79	16667.82
456.15	17493.59
456.52	18247.03
456.88	19164.10
457.24	20064.71
457.61	21215.76
457.97	22267.51
458.33	23342.51
458.70	24387.00
459.06	25399.52
459.42	26410.84
459.79	27328.31
460.15	28400.08
460.51	29426.97
460.88	30537.84
461.24	31520.77
461.60	32687.27
461.96	33725.81
462.33	34734.23
462.69	35757.37
463.05	36889.98
463.42	37935.15
463.78	38882.50
464.14	39637.39
464.50	40390.16
464.87	40910.88
465.23	41220.65
465.59	41637.97
465.95	41964.12
466.32	42208.24
466.68	42445.50
467.04	42604.12
467.40	42595.57
467.77	42733.64
468.13	42628.15
468.49	42469.35
468.85	42384.83
469.22	42284.12
469.58	42007.28
469.94	41885.62
470.30	41659.38
470.66	41268.47
471.03	40741.71
471.39	40382.36
471.75	39650.83
472.11	38958.29
472.47	38498.70
472.84	37984.55
473.20	37275.18
473.56	36891.15
473.92	36316.48
474.28	35682.71
474.65	35014.91
475.01	34326.72
475.37	33505.12
475.73	32824.68
476.09	32099.51
476.45	31449.24
476.81	30891.42
477.18	30322.65
477.54	29833.24
477.90	29385.61
478.26	28815.97
478.62	28303.82
478.98	27856.63
479.34	27410.13
479.71	26843.74
480.07	26422.57
480.43	25972.53
480.79	25497.33
481.15	25023.49
481.51	24633.55
481.87	24294.92
482.23	23933.99
482.59	23609.29
482.96	23285.73
483.32	22978.65
483.68	22589.31
484.04	22230.55
484.40	21803.52
484.76	21362.70
485.12	20901.24
485.48	20459.23
485.84	19959.90
486.20	19520.58
486.56	19105.63
486.92	18730.49
487.28	18337.49
487.64	17947.84
488.00	17567.66
488.37	17162.33
488.73	16726.05
489.09	16257.57
489.45	15828.22
489.81	15369.39
490.17	14942.38
490.53	14536.27
490.89	14137.49
491.25	13711.82
491.61	13315.47
491.97	12897.12
492.33	12476.37
492.69	12109.60
493.05	11783.92
493.41	11463.38
493.77	11157.68
494.13	10864.98
494.49	10573.00
494.85	10284.85
495.21	10009.86
495.57	9752.73
495.93	9487.38
496.29	9236.83
496.64	9002.66
497.00	8754.17
497.36	8489.66
497.72	8257.67
498.08	8029.77
498.44	7799.30
498.80	7590.45
499.16	7390.17
499.52	7184.11
499.88	7006.81
500.24	6833.97
500.60	6669.59
500.96	6519.75
501.32	6362.02
501.68	6193.15
502.03	6014.99
502.39	5846.17
502.75	5677.23
503.11	5523.10
503.47	5379.70
503.83	5256.87
504.19	5127.58
504.55	5005.21
504.91	4892.98
505.26	4771.93
505.62	4649.26
505.98	4537.41
506.34	4422.91
506.70	4301.11
507.06	4196.00
507.42	4094.53
507.78	3995.86
508.13	3899.94
508.49	3824.32
508.85	3746.66
509.21	3665.09
509.57	3585.51
509.93	3507.78
510.28	3419.59
510.64	3331.40
511.00	3255.40
511.36	3181.37
511.72	3114.86
512.07	3054.47
512.43	2993.52
512.79	2927.28
513.15	2864.89
513.51	2802.16
513.86	2746.29
514.22	2698.97
514.58	2652.22
514.94	2599.05
515.30	2548.87
515.65	2500.32
516.01	2453.23
516.37	2411.48
516.73	2375.39
517.08	2340.54
517.44	2299.67
517.80	2263.44
518.16	2223.56
518.51	2189.22
518.87	2157.48
519.23	2125.21
519.59	2092.93
519.94	2065.83
520.30	2037.18
520.66	2004.76
521.01	1979.86
521.37	1954.89
521.73	1927.41
522.09	1901.24
522.44	1878.16
522.80	1854.13
523.16	1828.89
523.51	1804.18
523.87	1782.83
524.23	1764.41
524.58	1745.90
524.94	1725.19
525.30	1705.97
525.65	1689.59
526.01	1669.64
526.37	1648.37
526.72	1633.67
527.08	1613.45
527.44	1595.24
527.79	1578.55
528.15	1565.54
528.51	1548.36
528.86	1537.71
529.22	1524.65
529.58	1509.65
529.93	1493.71
530.29	1479.41
530.65	1465.67
531.00	1454.13
531.36	1439.01
531.71	1428.76
532.07	1419.56
532.43	1409.56
532.78	1396.95
533.14	1392.76
533.49	1380.28
533.85	1370.97
534.21	1359.94
534.56	1349.44
534.92	1340.61
535.27	1338.90
535.63	1329.68
535.98	1326.31
536.34	1319.73
536.69	1310.63
537.05	1299.84
537.41	1295.49
537.76	1285.89
538.12	1282.50
538.47	1279.50
538.83	1275.80
539.18	1268.99
539.54	1264.97
539.89	1257.45
540.25	1250.45
540.60	1244.51
540.96	1241.72
541.31	1238.33
541.67	1233.86
542.02	1231.17
542.38	1229.51
542.73	1224.85
543.09	1220.45
543.44	1221.15
543.80	1216.84
544.15	1209.40
544.51	1206.01
544.86	1203.67
545.22	1195.29
545.57	1193.37
545.93	1190.65
546.28	1189.53
546.64	1185.50
546.99	1188.08
547.35	1186.84
547.70	1183.63
548.05	1177.94
548.41	1178.06
548.76	1170.48
549.12	1165.54
549.47	1168.49
549.83	1169.12
550.18	1166.41
550.53	1167.34
550.89	1168.40
551.24	1162.47
551.60	1159.81
551.95	1158.75
552.30	1155.99
552.66	1151.10
553.01	1151.43
553.37	1150.75
553.72	1148.95
554.07	1149.83
554.43	1147.75
554.78	1143.91
555.13	1140.80
555.49	1135.93
555.84	1132.75
556.19	1133.22
556.55	1133.69
556.90	1134.29
557.26	1134.50
557.61	1132.49
557.96	1131.53
558.32	1131.09
558.67	1126.64
559.02	1125.94
559.37	1125.17
559.73	1125.10
560.08	1122.36
560.43	1124.28
560.79	1123.13
561.14	1121.14
561.49	1117.82
561.85	1117.04
562.20	1114.45
562.55	1117.02
562.90	1116.74
563.26	1117.16
563.61	1115.22
563.96	1114.24
564.32	1112.15
564.67	1110.96
565.02	1107.64
565.37	1108.69
565.73	1108.81
566.08	1110.26
566.43	1110.98
566.78	1115.01
567.14	1117.16
567.49	1120.70
567.84	1116.04
568.19	1112.74
568.54	1107.42
568.90	1103.05
569.25	1099.37
569.60	1099.02
569.95	1102.32
570.31	1102.84
570.66	1102.70
571.01	1100.52
571.36	1101.85
571.71	1102.18
572.06	1103.70
572.42	1102.93
572.77	1103.35
573.12	1100.50
573.47	1098.65
573.82	1098.60
574.18	1098.20
574.53	1097.03
574.88	1098.25
575.23	1097.90
575.58	1098.30
575.93	1098.72
576.28	1100.96
576.64	1100.05
576.99	1101.20
577.34	1096.75
577.69	1097.99
578.04	1097.20
578.39	1098.18
578.74	1097.20
579.09	1098.27
579.44	1095.39
579.80	1096.80
580.15	1095.72
580.50	1094.29
580.85	1095.11
581.20	1097.52
581.55	1095.23
581.90	1093.15
582.25	1092.30
582.60	1090.62
582.95	1090.74
583.30	1086.71
583.65	1089.03
584.00	1088.00
584.35	1090.99
584.71	1089.99
585.06	1093.26
585.41	1094.11
585.76	1095.96
586.11	1093.76
586.46	1094.65
586.81	1094.22
587.16	1090.06
587.51	1090.90
587.86	1092.54
588.21	1090.55
588.56	1092.42
588.91	1093.40
589.26	1094.20
589.61	1092.68
589.96	1094.83
590.31	1093.59
590.66	1095.16
591.01	1094.60
591.36	1094.11
591.71	1091.32
592.06	1091.25
592.41	1089.80
592.76	1086.01
593.10	1085.94
593.45	1087.37
593.80	1086.55
594.15	1088.00
594.50	1093.45
594.85	1092.96
595.20	1094.13
595.55	1095.82
595.90	1090.27
596.25	1085.03
596.60	1086.50
596.95	1083.76
597.30	1082.10
597.64	1097.92
597.99	1101.25
598.34	1100.85
598.69	1099.58
599.04	1099.44
599.39	1085.87
599.74	1084.89
600.09	1084.74
600.44	1086.38
600.78	1087.09
601.13	1089.43
601.48	1087.97
601.83	1086.34
602.18	1085.75
602.53	1082.57
602.88	1083.53
603.22	1086.87
603.57	1087.69
603.92	1084.84
604.27	1085.21
604.62	1085.42
604.97	1080.84
605.31	1080.98
605.66	1084.67
606.01	1088.58
606.36	1086.38
606.71	1086.08
607.05	1088.14
607.40	1089.52
607.75	1088.56
608.10	1090.81
608.44	1091.51
608.79	1090.36
609.14	1086.78
609.49	1086.24
609.84	1081.02
610.18	1083.34
610.53	1082.78
610.88	1084.25
611.23	1085.63
611.57	1091.44
611.92	1090.69
612.27	1090.15
612.62	1094.13
612.96	1092.77
613.31	1091.77
613.66	1089.07
614.00	1090.85
614.35	1087.18
614.70	1085.99
615.05	1084.00
615.39	1087.06
615.74	1087.27
616.09	1086.90
616.43	1089.89
616.78	1091.95
617.13	1087.60
617.47	1086.87
617.82	1088.30
618.17	1083.48
618.51	1082.24
618.86	1087.69
619.21	1089.94
619.55	1089.66
619.90	1089.78
620.25	1087.34
620.59	1086.43
620.94	1084.70
621.29	1084.84
621.63	1086.17
621.98	1088.61
622.32	1087.02
622.67	1086.27
623.02	1084.74
623.36	1087.79
623.71	1088.77
624.05	1087.34
624.40	1085.54
624.75	1084.32
625.09	1081.28
625.44	1079.81
625.78	1080.51
626.13	1082.36
626.48	1084.53
626.82	1088.02
627.17	1086.36
627.51	1087.09
627.86	1088.23
628.20	1086.99
628.55	1084.18
628.89	1086.08
629.24	1089.07
629.58	1086.13
629.93	1086.55
630.28	1089.64
630.62	1089.71
630.97	1087.53
631.31	1091.16
631.66	1090.22
632.00	1086.13
632.35	1087.04
632.69	1087.37
633.04	1085.07
633.38	1082.94
633.73	1081.87
634.07	1084.28
634.42	1082.85
634.76	1084.23
635.11	1088.09
635.45	1087.97
635.79	1083.48
636.14	1083.76
636.48	1081.68
636.83	1083.11
637.17	1086.13
637.52	1086.85
637.86	1087.06
638.21	1087.55
638.55	1087.06
638.89	1087.27
639.24	1091.53
639.58	1089.82
639.93	1088.84
640.27	1086.22
640.61	1085.49
640.96	1081.68
641.30	1080.41
641.65	1077.70
641.99	1078.14
642.33	1076.11
642.68	1076.93
643.02	1081.09
643.37	1082.69
643.71	1082.15
644.05	1078.21
644.40	1075.05
644.74	1076.55
645.08	1077.02
645.43	1079.50
645.77	1086.43
646.11	1089.78
646.46	1088.86
646.80	1088.82
647.14	1086.85
647.49	1084.25
647.83	1081.61
648.17	1079.90
648.52	1081.37
648.86	1081.49
649.20	1082.52
649.55	1078.03
649.89	1076.65
650.23	1075.99
650.57	1075.99
650.92	1075.50
651.26	1079.38
651.60	1081.42
651.95	1082.01
652.29	1082.97
652.63	1084.39
652.97	1088.23
653.32	1086.83
653.66	1085.63
654.00	1082.99
654.34	1083.55
654.69	1083.74
655.03	1084.46
655.37	1087.20
655.71	1087.69
656.05	1084.84
656.40	1082.45
656.74	1080.32
657.08	1077.54
657.42	1078.52
657.76	1078.40
658.11	1077.49
658.45	1079.60
658.79	1076.44
659.13	1077.65
659.47	1077.40
659.82	1076.81
660.16	1077.86
660.50	1081.42
660.84	1081.33
661.18	1081.68
661.52	1081.98
661.87	1078.21
662.21	1078.68
662.55	1077.61
662.89	1080.53
663.23	1082.99
663.57	1082.71
663.91	1084.02
664.25	1083.18
664.60	1082.90
664.94	1077.63
665.28	1079.20
665.62	1076.11
665.96	1078.26
666.30	1076.44
666.64	1079.34
666.98	1079.55
667.32	1079.48
667.66	1079.88
668.01	1079.71
668.35	1078.89
668.69	1078.17
669.03	1077.68
669.37	1074.54
669.71	1072.97
670.05	1072.74
670.39	1075.90
670.73	1078.26
671.07	1077.84
671.41	1078.78
671.75	1079.27
672.09	1077.07
672.43	1076.72
672.77	1079.15
673.11	1078.31
673.45	1082.05
673.79	1083.13
674.13	1081.98
674.47	1081.61
674.81	1083.97
675.15	1078.43
675.49	1081.23
675.83	1081.94
676.17	1078.85
676.51	1077.96
676.85	1077.35
677.19	1072.20
677.53	1073.98
677.87	1077.82
678.21	1076.20
678.55	1080.09
678.89	1077.49
679.23	1076.01
679.57	1073.95
679.90	1077.79
680.24	1076.83
680.58	1080.23
680.92	1079.64
681.26	1079.55
681.60	1079.95
681.94	1079.88
682.28	1080.51
682.62	1078.24
682.96	1079.31
683.29	1075.34
683.63	1078.54
683.97	1081.42
684.31	1084.37
684.65	1083.97
684.99	1086.03
685.33	1085.00
685.67	1081.96
686.00	1080.72
686.34	1079.99
686.68	1082.10
687.02	1081.44
687.36	1082.97
687.70	1084.42
688.03	1086.57
688.37	1084.81
688.71	1086.48
689.05	1080.86
689.39	1079.29
689.72	1078.45
690.06	1079.50
690.40	1075.94
690.74	1082.08
691.08	1080.23
691.41	1078.57
691.75	1072.06
692.09	1076.08
692.43	1072.64
692.76	1074.68
693.10	1077.86
693.44	1082.22
693.78	1077.49
694.11	1080.41
694.45	1079.74
694.79	1078.12
695.13	1076.46
695.46	1080.91
695.80	1079.46
696.14	1078.43
696.48	1076.81
696.81	1078.73
697.15	1075.15
697.49	1074.35
697.82	1078.54
698.16	1081.42
698.50	1081.51
698.83	1082.45
699.17	1086.50
699.51	1082.76
699.84	1081.91
700.18	1082.26
700.52	1082.94
700.85	1082.52
701.19	1086.17
701.53	1085.89
701.86	1081.19
702.20	1079.95
702.54	1078.07
702.87	1076.88
703.21	1075.64
703.55	1078.07
703.88	1081.21
704.22	1083.74
704.55	1081.84
704.89	1082.64
705.23	1082.12
705.56	1079.48
705.90	1076.20
706.23	1077.49
706.57	1078.66
706.91	1080.98
707.24	1082.94
707.58	1080.88
707.91	1082.31
708.25	1082.57
708.58	1081.77
708.92	1083.15
709.26	1084.63
709.59	1082.73
709.93	1081.02
710.26	1083.34
710.60	1078.82
710.93	1080.23
711.27	1084.02
711.60	1083.97
711.94	1082.92
712.27	1083.08
712.61	1084.00
712.94	1081.49
713.28	1081.98
713.61	1081.61
713.95	1080.98
714.28	1078.21
714.62	1076.58
714.95	1077.75
715.29	1077.30
715.62	1078.26
715.96	1080.58
716.29	1081.19
716.63	1082.08
716.96	1082.50
717.29	1083.06
717.63	1081.35
717.96	1081.94
718.30	1081.87
718.63	1084.25
718.97	1085.26
719.30	1084.86
719.63	1083.43
719.97	1080.91
720.30	1077.75
720.64	1075.22
720.97	1077.18
721.30	1076.62
721.64	1077.09
721.97	1076.97
722.31	1077.51
722.64	1076.97
722.97	1078.28
723.31	1075.55
723.64	1075.01
723.97	1074.56
724.31	1073.39
724.64	1073.58
724.98	1077.68
725.31	1079.27
725.64	1080.48
725.98	1078.92
726.31	1077.93
726.64	1078.17
726.97	1077.56
727.31	1078.00
727.64	1078.36
727.97	1080.06
728.31	1077.84
728.64	1077.63
728.97	1076.95
729.31	1081.05
729.64	1085.40
729.97	1084.02
730.30	1081.30
730.64	1081.33
730.97	1080.11
731.30	1076.20
731.63	1077.68
731.97	1080.74
732.30	1082.01
732.63	1080.70
732.96	1078.14
733.30	1078.45
733.63	1080.04
733.96	1078.96
734.29	1079.83
734.63	1082.08
734.96	1080.39
735.29	1078.24
735.62	1081.77
735.95	1079.88
736.29	1078.78
736.62	1081.89
736.95	1084.44
737.28	1081.28
737.61	1081.73
737.94	1081.26
738.28	1079.48
738.61	1074.45
738.94	1073.02
739.27	1074.68
739.60	1075.17
739.93	1076.06
740.27	1078.82
740.60	1079.60
740.93	1076.41
741.26	1075.15
741.59	1073.39
741.92	1075.05
742.25	1075.87
742.58	1077.82
742.91	1084.16
743.25	1087.72
743.58	1086.90
743.91	1087.76
744.24	1088.47
744.57	1082.38
744.90	1076.95
745.23	1075.10
745.56	1075.69
745.89	1074.59
746.22	1076.08
746.55	1078.68
746.88	1078.10
747.21	1076.74
747.54	1076.60
747.87	1075.31
748.20	1078.05
748.53	1079.15
748.87	1077.09
749.20	1080.02
749.53	1078.45
749.86	1077.98
750.19	1078.21
750.52	1078.00
750.85	1075.69
751.18	1076.83
751.51	1076.20
751.84	1073.65
752.16	1076.39
752.49	1077.77
752.82	1078.19
753.15	1078.26
753.48	1080.39
753.81	1081.40
754.14	1081.94
754.47	1085.80
754.80	1085.70
755.13	1088.21
755.46	1085.19
755.79	1082.40
756.12	1077.54
756.45	1074.68
756.78	1075.71
757.11	1075.24
757.43	1077.96
757.76	1079.97
758.09	1079.20
758.42	1075.20
758.75	1075.27
759.08	1071.78
759.41	1073.91
759.74	1076.79
760.07	1077.51
760.39	1079.62
760.72	1079.99
761.05	1076.88
761.38	1078.21
761.71	1078.99
762.04	1077.49
762.36	1078.59
762.69	1078.73
763.02	1076.74
763.35	1076.27
763.68	1078.57
