SpectraSuite Data File
++++++++++++++++++++++++++++++++++++
Date: Mon Aug 26 10:22:08 PDT 2019
User: corrico
Dark Spectrum Present: No
Reference Spectrum Present: No
Number of Sampled Component Spectra: 1
Spectrometers: USB2+H06089
Integration Time (usec): 2000 (USB2+H06089)
Spectra Averaged: 20 (USB2+H06089)
Boxcar Smoothing: 2 (USB2+H06089)
Correct for Electrical Dark: No (USB2+H06089)
Strobe/Lamp Enabled: No (USB2+H06089)
Correct for Detector Non-linearity: No (USB2+H06089)
Correct for Stray Light: No (USB2+H06089)
Number of Pixels in Processed Spectrum: 2048
>>>>>Begin Processed Spectral Data<<<<<
339.70	1035.34
340.07	1035.34
340.45	997.30
340.82	974.41
341.19	949.44
341.57	922.31
341.94	910.54
342.31	901.86
342.69	897.06
343.06	893.66
343.43	892.91
343.81	893.55
344.18	897.29
344.55	900.71
344.93	908.08
345.30	917.30
345.67	924.79
346.04	931.91
346.42	939.51
346.79	947.29
347.16	950.12
347.54	959.29
347.91	968.79
348.28	981.67
348.65	989.44
349.03	1002.24
349.40	1011.63
349.77	1018.65
350.14	1026.77
350.52	1036.08
350.89	1042.73
351.26	1050.29
351.63	1056.80
352.01	1057.90
352.38	1060.64
352.75	1061.15
353.12	1064.73
353.50	1067.89
353.87	1071.92
354.24	1074.10
354.61	1082.38
354.98	1082.19
355.36	1087.16
355.73	1083.71
356.10	1084.58
356.47	1081.40
356.84	1081.05
357.22	1078.45
357.59	1083.46
357.96	1083.32
358.33	1085.73
358.70	1085.59
359.08	1088.21
359.45	1085.68
359.82	1088.33
360.19	1086.83
360.56	1088.14
360.94	1082.40
361.31	1081.26
361.68	1078.28
362.05	1075.71
362.42	1073.30
362.79	1076.79
363.16	1079.01
363.54	1078.10
363.91	1079.17
364.28	1080.67
364.65	1081.28
365.02	1078.40
365.39	1077.82
365.76	1079.20
366.14	1076.90
366.51	1074.56
366.88	1074.80
367.25	1073.98
367.62	1070.61
367.99	1072.39
368.36	1074.63
368.73	1075.38
369.10	1077.16
369.48	1076.69
369.85	1077.84
370.22	1075.10
370.59	1077.47
370.96	1075.52
371.33	1077.89
371.70	1077.11
372.07	1075.97
372.44	1073.60
372.81	1075.94
373.18	1075.52
373.55	1076.51
373.93	1078.99
374.30	1078.73
374.67	1080.02
375.04	1081.49
375.41	1077.49
375.78	1075.20
376.15	1075.34
376.52	1073.86
376.89	1074.05
377.26	1078.40
377.63	1081.19
378.00	1083.76
378.37	1084.18
378.74	1081.87
379.11	1081.37
379.48	1079.03
379.85	1077.68
380.22	1078.52
380.59	1082.24
380.96	1081.91
381.33	1081.49
381.70	1083.55
382.07	1082.22
382.44	1083.62
382.81	1083.32
383.18	1085.35
383.55	1082.94
383.92	1083.62
384.29	1080.93
384.66	1077.86
385.03	1077.84
385.40	1079.95
385.77	1081.98
386.14	1081.89
386.51	1085.66
386.88	1086.76
387.25	1085.66
387.62	1082.15
387.99	1080.56
388.36	1079.20
388.73	1078.12
389.10	1080.39
389.46	1078.45
389.83	1079.38
390.20	1080.86
390.57	1078.85
390.94	1079.85
391.31	1086.87
391.68	1086.73
392.05	1086.90
392.42	1089.99
392.79	1089.80
393.16	1085.35
393.53	1089.33
393.89	1091.25
394.26	1091.84
394.63	1090.67
395.00	1093.66
395.37	1089.71
395.74	1086.59
396.11	1087.20
396.48	1087.51
396.84	1087.65
397.21	1090.78
397.58	1090.57
397.95	1091.95
398.32	1093.01
398.69	1093.31
399.06	1090.57
399.42	1094.04
399.79	1093.50
400.16	1090.46
400.53	1091.16
400.90	1092.28
401.27	1090.62
401.64	1089.19
402.00	1090.74
402.37	1086.50
402.74	1088.82
403.11	1091.04
403.48	1091.70
403.84	1092.47
404.21	1096.31
404.58	1091.25
404.95	1088.72
405.32	1090.78
405.68	1087.81
406.05	1087.93
406.42	1089.99
406.79	1094.06
407.16	1093.03
407.52	1096.07
407.89	1096.12
408.26	1097.99
408.63	1097.43
408.99	1102.04
409.36	1104.94
409.73	1104.01
410.10	1101.76
410.47	1102.49
410.83	1099.91
411.20	1099.47
411.57	1097.10
411.94	1101.50
412.30	1101.08
412.67	1100.50
413.04	1098.41
413.40	1103.87
413.77	1104.01
414.14	1104.33
414.51	1104.29
414.87	1102.37
415.24	1101.32
415.61	1099.89
415.97	1103.14
416.34	1100.10
416.71	1104.97
417.08	1107.59
417.44	1110.14
417.81	1106.25
418.18	1109.84
418.54	1109.25
418.91	1111.31
419.28	1111.50
419.64	1115.15
420.01	1118.26
420.38	1121.21
420.74	1121.73
421.11	1123.27
421.48	1124.11
421.84	1125.42
422.21	1126.13
422.58	1130.24
422.94	1134.88
423.31	1138.46
423.68	1143.84
424.04	1150.68
424.41	1151.57
424.77	1153.93
425.14	1157.54
425.51	1159.17
425.87	1164.21
426.24	1171.18
426.61	1177.78
426.97	1183.49
427.34	1193.44
427.70	1197.04
428.07	1197.79
428.44	1205.82
428.80	1214.46
429.17	1220.66
429.53	1234.96
429.90	1252.33
430.27	1263.73
430.63	1277.75
431.00	1293.64
431.36	1306.21
431.73	1322.87
432.09	1340.00
432.46	1357.14
432.83	1375.56
433.19	1390.40
433.56	1412.58
433.92	1437.67
434.29	1463.70
434.65	1491.83
435.02	1528.79
435.38	1559.71
435.75	1589.41
436.11	1631.21
436.48	1670.04
436.84	1709.83
437.21	1753.04
437.57	1803.24
437.94	1849.44
438.30	1902.93
438.67	1959.89
439.03	2026.32
439.40	2102.29
439.76	2172.51
440.13	2252.46
440.49	2336.72
440.86	2414.64
441.22	2494.03
441.59	2584.00
441.95	2684.99
442.32	2786.76
442.68	2905.70
443.05	3027.39
443.41	3157.36
443.78	3283.72
444.14	3421.32
444.51	3554.95
444.87	3724.73
445.24	3890.86
445.60	4070.68
445.96	4254.11
446.33	4470.42
446.69	4664.73
447.06	4885.92
447.42	5113.72
447.79	5358.80
448.15	5621.15
448.51	5904.45
448.88	6228.96
449.24	6537.61
449.61	6884.97
449.97	7244.26
450.33	7624.48
450.70	7981.91
451.06	8411.60
451.43	8823.40
451.79	9286.50
452.15	9778.88
452.52	10310.95
452.88	10852.90
453.24	11489.85
453.61	12190.40
453.97	12887.81
454.34	13589.50
454.70	14423.93
455.06	15226.47
455.43	15986.09
455.79	16692.91
456.15	17504.94
456.52	18253.88
456.88	19181.06
457.24	20102.16
457.61	21229.31
457.97	22300.67
458.33	23417.86
458.70	24468.57
459.06	25482.96
459.42	26500.13
459.79	27424.97
460.15	28475.45
460.51	29472.14
460.88	30558.17
461.24	31547.14
461.60	32719.43
461.96	33762.13
462.33	34815.00
462.69	35877.30
463.05	37017.33
463.42	38027.99
463.78	38962.15
464.14	39728.72
464.50	40452.25
464.87	40959.02
465.23	41315.18
465.59	41720.59
465.95	42011.56
466.32	42250.91
466.68	42495.54
467.04	42658.30
467.40	42707.80
467.77	42834.50
468.13	42745.58
468.49	42589.68
468.85	42475.69
469.22	42318.08
469.58	42083.04
469.94	41947.10
470.30	41749.19
470.66	41393.99
471.03	40882.16
471.39	40498.66
471.75	39778.57
472.11	39054.13
472.47	38542.98
472.84	38020.55
473.20	37305.12
473.56	36910.30
473.92	36336.54
474.28	35715.08
474.65	35061.79
475.01	34355.30
475.37	33517.10
475.73	32832.47
476.09	32124.30
476.45	31475.17
476.81	30929.90
477.18	30371.66
477.54	29878.27
477.90	29397.81
478.26	28814.99
478.62	28286.33
478.98	27854.55
479.34	27416.36
479.71	26861.32
480.07	26441.66
480.43	26021.40
480.79	25541.03
481.15	25071.68
481.51	24703.77
481.87	24387.91
482.23	24015.00
482.59	23700.08
482.96	23385.65
483.32	23084.75
483.68	22665.35
484.04	22304.65
484.40	21883.54
484.76	21449.09
485.12	20989.29
485.48	20566.80
485.84	20073.21
486.20	19638.59
486.56	19187.13
486.92	18781.89
487.28	18382.22
487.64	17991.39
488.00	17587.74
488.37	17213.66
488.73	16785.03
489.09	16312.60
489.45	15880.91
489.81	15434.87
490.17	14979.99
490.53	14570.21
490.89	14170.77
491.25	13745.54
491.61	13337.57
491.97	12935.74
492.33	12523.46
492.69	12173.55
493.05	11846.97
493.41	11528.24
493.77	11212.48
494.13	10922.58
494.49	10619.62
494.85	10328.90
495.21	10048.43
495.57	9780.02
495.93	9502.01
496.29	9240.20
496.64	9010.73
497.00	8762.08
497.36	8512.72
497.72	8281.99
498.08	8054.27
498.44	7810.98
498.80	7601.50
499.16	7405.13
499.52	7199.72
499.88	7022.17
500.24	6855.99
500.60	6688.55
500.96	6534.14
501.32	6384.02
501.68	6213.63
502.03	6032.33
502.39	5871.26
502.75	5697.10
503.11	5535.81
503.47	5396.08
503.83	5278.54
504.19	5146.88
504.55	5030.51
504.91	4914.96
505.26	4793.44
505.62	4665.13
505.98	4553.93
506.34	4433.12
506.70	4311.43
507.06	4204.09
507.42	4099.05
507.78	4000.12
508.13	3913.38
508.49	3840.91
508.85	3766.67
509.21	3687.54
509.57	3599.02
509.93	3512.47
510.28	3416.97
510.64	3329.08
511.00	3253.95
511.36	3182.01
511.72	3108.02
512.07	3054.05
512.43	2991.79
512.79	2926.93
513.15	2866.78
513.51	2808.64
513.86	2747.74
514.22	2697.42
514.58	2646.33
514.94	2597.04
515.30	2557.92
515.65	2514.20
516.01	2473.69
516.37	2434.88
516.73	2397.43
517.08	2356.59
517.44	2310.72
517.80	2269.57
518.16	2230.88
518.51	2189.81
518.87	2156.01
519.23	2130.78
519.59	2095.15
519.94	2065.48
520.30	2045.84
520.66	2011.69
521.01	1982.97
521.37	1954.49
521.73	1926.17
522.09	1897.64
522.44	1874.07
522.80	1850.12
523.16	1832.34
523.51	1808.27
523.87	1788.03
524.23	1769.91
524.58	1748.43
524.94	1726.96
525.30	1708.22
525.65	1684.90
526.01	1665.69
526.37	1646.54
526.72	1630.39
527.08	1614.92
527.44	1598.19
527.79	1581.64
528.15	1566.73
528.51	1552.38
528.86	1539.91
529.22	1525.70
529.58	1512.41
529.93	1498.90
530.29	1482.47
530.65	1467.07
531.00	1455.09
531.36	1444.51
531.71	1435.40
532.07	1420.73
532.43	1407.67
532.78	1396.62
533.14	1383.09
533.49	1372.09
533.85	1367.67
534.21	1361.56
534.56	1356.22
534.92	1353.84
535.27	1345.34
535.63	1336.96
535.98	1326.90
536.34	1319.95
536.69	1311.14
537.05	1304.76
537.41	1298.22
537.76	1295.00
538.12	1287.46
538.47	1275.92
538.83	1269.46
539.18	1264.61
539.54	1259.35
539.89	1252.65
540.25	1252.54
540.60	1249.12
540.96	1246.99
541.31	1243.29
541.67	1241.86
542.02	1237.30
542.38	1234.40
542.73	1228.64
543.09	1223.70
543.44	1219.19
543.80	1217.36
544.15	1214.64
544.51	1213.38
544.86	1212.09
545.22	1209.43
545.57	1205.38
545.93	1202.99
546.28	1202.40
546.64	1199.92
546.99	1194.63
547.35	1192.48
547.70	1191.43
548.05	1187.68
548.41	1182.06
548.76	1180.22
549.12	1178.69
549.47	1171.98
549.83	1167.55
550.18	1165.00
550.53	1163.22
550.89	1157.09
551.24	1155.57
551.60	1154.12
551.95	1154.47
552.30	1151.59
552.66	1151.87
553.01	1151.99
553.37	1149.25
553.72	1145.93
554.07	1146.04
554.43	1143.80
554.78	1140.54
555.13	1138.74
555.49	1135.91
555.84	1135.67
556.19	1133.78
556.55	1133.24
556.90	1133.54
557.26	1135.39
557.61	1134.36
557.96	1134.41
558.32	1132.16
558.67	1130.41
559.02	1127.46
559.37	1126.15
559.73	1124.37
560.08	1123.95
560.43	1122.05
560.79	1121.37
561.14	1118.54
561.49	1114.70
561.85	1117.72
562.20	1117.37
562.55	1117.00
562.90	1116.32
563.26	1120.88
563.61	1117.02
563.96	1117.68
564.32	1116.93
564.67	1116.04
565.02	1112.34
565.37	1109.41
565.73	1107.73
566.08	1108.69
566.43	1107.12
566.78	1107.59
567.14	1106.58
567.49	1103.84
567.84	1103.42
568.19	1104.45
568.54	1104.26
568.90	1107.40
569.25	1106.65
569.60	1108.34
569.95	1104.94
570.31	1102.35
570.66	1100.45
571.01	1102.81
571.36	1097.55
571.71	1100.29
572.06	1101.55
572.42	1098.95
572.77	1095.39
573.12	1097.03
573.47	1097.38
573.82	1097.90
574.18	1099.40
574.53	1102.67
574.88	1098.16
575.23	1100.64
575.58	1102.67
575.93	1101.34
576.28	1099.63
576.64	1101.29
576.99	1096.85
577.34	1096.38
577.69	1099.58
578.04	1098.51
578.39	1099.89
578.74	1100.08
579.09	1095.89
579.44	1091.63
579.80	1092.09
580.15	1090.62
580.50	1092.07
580.85	1092.05
581.20	1091.88
581.55	1089.96
581.90	1089.45
582.25	1087.44
582.60	1088.37
582.95	1088.75
583.30	1091.34
583.65	1088.54
584.00	1087.46
584.35	1086.69
584.71	1087.37
585.06	1088.84
585.41	1090.78
585.76	1089.19
586.11	1090.13
586.46	1088.68
586.81	1087.23
587.16	1087.60
587.51	1086.99
587.86	1085.26
588.21	1085.05
588.56	1083.15
588.91	1084.02
589.26	1089.82
589.61	1092.30
589.96	1094.74
590.31	1095.70
590.66	1097.29
591.01	1093.94
591.36	1089.92
591.71	1088.98
592.06	1088.07
592.41	1087.81
592.76	1091.02
593.10	1093.08
593.45	1093.47
593.80	1093.45
594.15	1092.75
594.50	1087.23
594.85	1090.34
595.20	1089.05
595.55	1089.78
595.90	1087.25
596.25	1089.36
596.60	1090.15
596.95	1091.67
597.30	1091.72
597.64	1105.72
597.99	1105.69
598.34	1101.88
598.69	1098.67
599.04	1097.71
599.39	1083.86
599.74	1085.96
600.09	1086.15
600.44	1087.93
600.78	1086.73
601.13	1086.87
601.48	1088.07
601.83	1087.27
602.18	1089.38
602.53	1087.53
602.88	1090.20
603.22	1085.45
603.57	1085.00
603.92	1082.05
604.27	1086.15
604.62	1085.24
604.97	1086.76
605.31	1087.55
605.66	1089.52
606.01	1087.32
606.36	1087.37
606.71	1085.28
607.05	1084.14
607.40	1082.52
607.75	1084.77
608.10	1083.04
608.44	1085.26
608.79	1088.30
609.14	1085.75
609.49	1085.28
609.84	1086.34
610.18	1083.64
610.53	1083.55
610.88	1084.98
611.23	1084.16
611.57	1084.79
611.92	1088.23
612.27	1084.32
612.62	1088.49
612.96	1088.75
613.31	1085.70
613.66	1086.08
614.00	1087.53
614.35	1085.87
614.70	1084.96
615.05	1086.38
615.39	1086.31
615.74	1084.37
616.09	1081.37
616.43	1081.05
616.78	1081.26
617.13	1078.50
617.47	1081.77
617.82	1084.60
618.17	1083.04
618.51	1083.13
618.86	1085.47
619.21	1083.34
619.55	1084.07
619.90	1086.85
620.25	1085.28
620.59	1086.59
620.94	1086.59
621.29	1085.12
621.63	1085.03
621.98	1087.13
622.32	1084.07
622.67	1087.60
623.02	1088.16
623.36	1087.44
623.71	1085.59
624.05	1087.02
624.40	1082.85
624.75	1082.05
625.09	1082.05
625.44	1086.55
625.78	1086.92
626.13	1087.06
626.48	1086.20
626.82	1083.71
627.17	1079.13
627.51	1075.24
627.86	1070.87
628.20	1069.44
628.55	1071.73
628.89	1072.90
629.24	1077.86
629.58	1082.85
629.93	1085.56
630.28	1085.24
630.62	1085.38
630.97	1080.27
631.31	1079.38
631.66	1079.06
632.00	1074.87
632.35	1075.97
632.69	1080.09
633.04	1084.53
633.38	1084.53
633.73	1089.87
634.07	1090.57
634.42	1090.69
634.76	1088.23
635.11	1084.58
635.45	1084.44
635.79	1081.42
636.14	1079.03
636.48	1081.12
636.83	1083.08
637.17	1080.37
637.52	1080.37
637.86	1080.86
638.21	1075.71
638.55	1078.28
638.89	1082.50
639.24	1085.28
639.58	1086.38
639.93	1090.41
640.27	1089.47
640.61	1087.34
640.96	1088.75
641.30	1090.22
641.65	1087.86
641.99	1088.35
642.33	1088.47
642.68	1086.38
643.02	1082.01
643.37	1083.22
643.71	1081.66
644.05	1083.13
644.40	1083.97
644.74	1084.96
645.08	1082.76
645.43	1085.66
645.77	1084.30
646.11	1079.60
646.46	1079.41
646.80	1078.82
647.14	1073.46
647.49	1073.65
647.83	1078.54
648.17	1080.27
648.52	1082.61
648.86	1087.23
649.20	1086.13
649.55	1085.12
649.89	1087.53
650.23	1085.33
650.57	1084.98
650.92	1083.76
651.26	1081.66
651.60	1081.23
651.95	1082.31
652.29	1081.28
652.63	1084.44
652.97	1089.47
653.32	1086.03
653.66	1086.94
654.00	1085.82
654.34	1082.78
654.69	1080.77
655.03	1083.32
655.37	1082.50
655.71	1081.82
656.05	1083.86
656.40	1078.07
656.74	1073.98
657.08	1073.25
657.42	1074.98
657.76	1075.24
658.11	1078.45
658.45	1079.31
658.79	1079.01
659.13	1075.48
659.47	1072.71
659.82	1074.66
660.16	1076.62
660.50	1077.79
660.84	1079.78
661.18	1084.58
661.52	1084.93
661.87	1082.54
662.21	1084.89
662.55	1083.95
662.89	1079.01
663.23	1077.25
663.57	1077.54
663.91	1073.30
664.25	1076.32
664.60	1080.16
664.94	1077.07
665.28	1079.22
665.62	1081.42
665.96	1079.34
666.30	1074.10
666.64	1079.46
666.98	1081.00
667.32	1082.08
667.66	1086.36
668.01	1091.23
668.35	1090.03
668.69	1088.56
669.03	1088.49
669.37	1084.86
669.71	1083.01
670.05	1083.08
670.39	1081.00
670.73	1080.86
671.07	1080.02
671.41	1080.72
671.75	1079.74
672.09	1079.20
672.43	1077.44
672.77	1075.10
673.11	1071.40
673.45	1071.71
673.79	1075.69
674.13	1077.49
674.47	1080.65
674.81	1082.43
675.15	1082.61
675.49	1082.26
675.83	1080.51
676.17	1083.71
676.51	1088.23
676.85	1088.12
677.19	1085.59
677.53	1086.17
677.87	1082.73
678.21	1080.72
678.55	1079.15
678.89	1077.58
679.23	1075.45
679.57	1078.36
679.90	1079.03
680.24	1082.29
680.58	1083.71
680.92	1086.22
681.26	1084.63
681.60	1080.65
681.94	1077.82
682.28	1079.36
682.62	1080.06
682.96	1080.32
683.29	1083.95
683.63	1085.84
683.97	1083.60
684.31	1081.98
684.65	1083.15
684.99	1078.33
685.33	1077.00
685.67	1075.83
686.00	1079.38
686.34	1075.57
686.68	1081.02
687.02	1081.56
687.36	1086.64
687.70	1082.90
688.03	1084.39
688.37	1081.35
688.71	1081.63
689.05	1078.64
689.39	1078.92
689.72	1079.24
690.06	1082.45
690.40	1082.15
690.74	1082.19
691.08	1085.07
691.41	1083.93
691.75	1081.91
692.09	1082.59
692.43	1081.70
692.76	1078.38
693.10	1079.38
693.44	1078.05
693.78	1076.51
694.11	1078.38
694.45	1078.89
694.79	1079.36
695.13	1079.81
695.46	1079.85
695.80	1078.66
696.14	1077.96
696.48	1076.06
696.81	1081.07
697.15	1080.63
697.49	1077.70
697.82	1079.53
698.16	1080.32
698.50	1073.00
698.83	1073.44
699.17	1073.98
699.51	1073.65
699.84	1075.41
700.18	1076.13
700.52	1080.77
700.85	1083.48
701.19	1084.32
701.53	1082.97
701.86	1084.79
702.20	1081.77
702.54	1084.23
702.87	1085.17
703.21	1085.82
703.55	1087.81
703.88	1086.97
704.22	1086.20
704.55	1082.10
704.89	1081.30
705.23	1077.35
705.56	1077.47
705.90	1075.41
706.23	1077.98
706.57	1077.47
706.91	1079.48
707.24	1078.00
707.58	1077.18
707.91	1075.69
708.25	1078.99
708.58	1077.68
708.92	1077.82
709.26	1081.00
709.59	1080.95
709.93	1080.84
710.26	1082.71
710.60	1084.37
710.93	1080.32
711.27	1081.49
711.60	1079.01
711.94	1080.41
712.27	1078.50
712.61	1084.14
712.94	1081.26
713.28	1080.53
713.61	1078.21
713.95	1079.13
714.28	1075.38
714.62	1078.64
714.95	1080.25
715.29	1078.00
715.62	1079.38
715.96	1079.13
716.29	1080.04
716.63	1079.97
716.96	1082.52
717.29	1082.61
717.63	1084.98
717.96	1084.23
718.30	1085.45
718.63	1085.87
718.97	1085.33
719.30	1083.69
719.63	1081.37
719.97	1080.13
720.30	1081.56
720.64	1079.85
720.97	1079.69
721.30	1082.59
721.64	1079.43
721.97	1080.04
722.31	1083.48
722.64	1085.73
722.97	1083.27
723.31	1086.85
723.64	1085.35
723.97	1082.71
724.31	1079.99
724.64	1082.45
724.98	1079.88
725.31	1078.17
725.64	1074.47
725.98	1073.79
726.31	1074.03
726.64	1073.93
726.97	1073.63
727.31	1074.98
727.64	1077.68
727.97	1075.64
728.31	1077.65
728.64	1077.56
728.97	1078.59
729.31	1075.43
729.64	1078.57
729.97	1077.75
730.30	1077.96
730.64	1080.67
730.97	1080.16
731.30	1078.07
731.63	1078.00
731.97	1078.71
732.30	1076.30
732.63	1079.48
732.96	1076.13
733.30	1076.13
733.63	1078.45
733.96	1077.07
734.29	1074.00
734.63	1078.14
734.96	1080.09
735.29	1080.23
735.62	1082.12
735.95	1084.21
736.29	1082.97
736.62	1079.46
736.95	1078.61
737.28	1078.10
737.61	1076.97
737.94	1078.26
738.28	1079.36
738.61	1080.04
738.94	1080.58
739.27	1080.88
739.60	1075.87
739.93	1074.07
740.27	1069.81
740.60	1071.19
740.93	1074.33
741.26	1076.88
741.59	1081.94
741.92	1084.58
742.25	1085.03
742.58	1083.86
742.91	1086.55
743.25	1084.37
743.58	1083.62
743.91	1082.78
744.24	1081.49
744.57	1079.41
744.90	1082.01
745.23	1084.11
745.56	1082.19
745.89	1082.19
746.22	1082.97
746.55	1080.30
746.88	1080.79
747.21	1083.29
747.54	1083.46
747.87	1080.48
748.20	1077.86
748.53	1076.20
748.87	1075.83
749.20	1075.87
749.53	1081.40
749.86	1084.86
750.19	1084.56
750.52	1082.97
750.85	1082.24
751.18	1079.13
751.51	1079.20
751.84	1080.16
752.16	1080.13
752.49	1077.33
752.82	1077.75
753.15	1076.95
753.48	1077.72
753.81	1080.20
754.14	1083.46
754.47	1080.44
754.80	1084.07
755.13	1080.95
755.46	1079.81
755.79	1078.57
756.12	1082.54
756.45	1075.57
756.78	1076.15
757.11	1074.07
757.43	1075.71
757.76	1074.45
758.09	1078.92
758.42	1078.03
758.75	1079.03
759.08	1077.56
759.41	1076.11
759.74	1073.72
760.07	1077.18
760.39	1078.73
760.72	1079.03
761.05	1080.34
761.38	1077.75
761.71	1076.23
762.04	1077.51
762.36	1078.36
762.69	1075.64
763.02	1078.96
763.35	1081.09
763.68	1078.54
