SpectraSuite Data File
++++++++++++++++++++++++++++++++++++
Date: Mon Aug 26 10:22:18 PDT 2019
User: corrico
Dark Spectrum Present: No
Reference Spectrum Present: No
Number of Sampled Component Spectra: 1
Spectrometers: USB2+H06089
Integration Time (usec): 2000 (USB2+H06089)
Spectra Averaged: 20 (USB2+H06089)
Boxcar Smoothing: 2 (USB2+H06089)
Correct for Electrical Dark: No (USB2+H06089)
Strobe/Lamp Enabled: No (USB2+H06089)
Correct for Detector Non-linearity: No (USB2+H06089)
Correct for Stray Light: No (USB2+H06089)
Number of Pixels in Processed Spectrum: 2048
>>>>>Begin Processed Spectral Data<<<<<
339.70	1029.02
340.07	1029.02
340.45	995.78
340.82	974.15
341.19	950.05
341.57	927.37
341.94	913.35
342.31	905.81
342.69	902.28
343.06	900.45
343.43	893.45
343.81	898.58
344.18	903.07
344.55	907.24
344.93	910.28
345.30	922.26
345.67	928.33
346.04	936.35
346.42	942.67
346.79	950.84
347.16	959.27
347.54	966.73
347.91	971.86
348.28	981.71
348.65	991.57
349.03	1000.42
349.40	1006.43
349.77	1016.73
350.14	1024.62
350.52	1033.44
350.89	1037.75
351.26	1046.78
351.63	1053.31
352.01	1056.49
352.38	1061.92
352.75	1065.76
353.12	1066.11
353.50	1068.36
353.87	1068.17
354.24	1067.59
354.61	1073.28
354.98	1078.99
355.36	1079.55
355.73	1084.74
356.10	1085.19
356.47	1082.50
356.84	1080.81
357.22	1080.34
357.59	1081.66
357.96	1083.01
358.33	1080.39
358.70	1080.46
359.08	1081.58
359.45	1077.16
359.82	1077.68
360.19	1078.80
360.56	1077.49
360.94	1078.31
361.31	1078.45
361.68	1076.88
362.05	1077.25
362.42	1079.10
362.79	1075.85
363.16	1076.58
363.54	1076.53
363.91	1075.97
364.28	1072.60
364.65	1073.00
365.02	1075.10
365.39	1075.55
365.76	1077.35
366.14	1079.62
366.51	1079.24
366.88	1078.52
367.25	1078.03
367.62	1074.38
367.99	1076.11
368.36	1074.03
368.73	1074.05
369.10	1073.09
369.48	1075.01
369.85	1072.41
370.22	1075.64
370.59	1073.79
370.96	1074.94
371.33	1074.70
371.70	1074.35
372.07	1074.47
372.44	1073.70
372.81	1073.93
373.18	1073.04
373.55	1074.77
373.93	1074.35
374.30	1074.26
374.67	1073.91
375.04	1075.05
375.41	1072.95
375.78	1072.46
376.15	1073.67
376.52	1074.61
376.89	1075.03
377.26	1075.80
377.63	1076.83
378.00	1076.23
378.37	1075.03
378.74	1075.87
379.11	1079.31
379.48	1078.33
379.85	1079.34
380.22	1080.88
380.59	1082.90
380.96	1079.22
381.33	1081.49
381.70	1080.51
382.07	1078.80
382.44	1074.17
382.81	1075.10
383.18	1072.01
383.55	1074.10
383.92	1077.33
384.29	1082.12
384.66	1083.06
385.03	1086.97
385.40	1088.00
385.77	1084.84
386.14	1082.59
386.51	1083.39
386.88	1078.94
387.25	1074.00
387.62	1073.79
387.99	1074.33
388.36	1072.57
388.73	1074.98
389.10	1079.41
389.46	1079.97
389.83	1079.03
390.20	1081.05
390.57	1084.32
390.94	1084.35
391.31	1082.57
391.68	1084.04
392.05	1084.70
392.42	1084.91
392.79	1084.70
393.16	1088.70
393.53	1087.46
393.89	1087.41
394.26	1082.61
394.63	1083.13
395.00	1083.71
395.37	1084.14
395.74	1087.16
396.11	1089.68
396.48	1092.98
396.84	1096.94
397.21	1096.70
397.58	1093.94
397.95	1094.86
398.32	1092.33
398.69	1089.57
399.06	1089.78
399.42	1088.51
399.79	1087.88
400.16	1085.99
400.53	1088.63
400.90	1091.51
401.27	1094.83
401.64	1092.33
402.00	1095.93
402.37	1090.85
402.74	1086.43
403.11	1086.15
403.48	1087.34
403.84	1084.56
404.21	1085.03
404.58	1086.41
404.95	1085.89
405.32	1090.27
405.68	1089.75
406.05	1091.16
406.42	1095.07
406.79	1094.15
407.16	1094.34
407.52	1096.03
407.89	1096.14
408.26	1095.51
408.63	1096.73
408.99	1094.57
409.36	1096.42
409.73	1094.95
410.10	1092.73
410.47	1094.95
410.83	1096.35
411.20	1095.02
411.57	1098.76
411.94	1100.15
412.30	1098.02
412.67	1098.48
413.04	1099.00
413.40	1099.42
413.77	1103.33
414.14	1102.23
414.51	1101.81
414.87	1103.87
415.24	1102.51
415.61	1101.18
415.97	1103.00
416.34	1104.62
416.71	1102.04
417.08	1101.69
417.44	1102.72
417.81	1101.99
418.18	1102.81
418.54	1104.94
418.91	1109.18
419.28	1106.58
419.64	1111.08
420.01	1112.46
420.38	1115.55
420.74	1117.00
421.11	1121.61
421.48	1123.67
421.84	1122.73
422.21	1125.07
422.58	1122.52
422.94	1124.53
423.31	1128.42
423.68	1130.62
424.04	1133.12
424.41	1140.26
424.77	1143.42
425.14	1143.80
425.51	1149.72
425.87	1151.96
426.24	1155.87
426.61	1160.25
426.97	1163.46
427.34	1166.10
427.70	1175.09
428.07	1177.94
428.44	1186.35
428.80	1194.54
429.17	1205.45
429.53	1211.48
429.90	1223.52
430.27	1232.92
430.63	1243.22
431.00	1254.55
431.36	1269.06
431.73	1282.40
432.09	1294.95
432.46	1310.21
432.83	1326.29
433.19	1342.77
433.56	1359.99
433.92	1383.30
434.29	1403.74
434.65	1425.32
435.02	1448.18
435.38	1476.27
435.75	1498.81
436.11	1532.09
436.48	1565.47
436.84	1601.11
437.21	1631.80
437.57	1667.66
437.94	1708.71
438.30	1751.52
438.67	1792.20
439.03	1845.21
439.40	1904.14
439.76	1959.00
440.13	2022.06
440.49	2091.01
440.86	2155.89
441.22	2230.67
441.59	2301.17
441.95	2379.04
442.32	2462.15
442.68	2568.06
443.05	2659.95
443.41	2763.89
443.78	2865.80
444.14	2976.20
444.51	3076.47
444.87	3216.46
445.24	3364.47
445.60	3522.81
445.96	3685.01
446.33	3867.48
446.69	4033.40
447.06	4209.10
447.42	4392.69
447.79	4588.99
448.15	4799.29
448.51	5036.11
448.88	5304.17
449.24	5550.16
449.61	5835.03
449.97	6120.69
450.33	6404.03
450.70	6661.56
451.06	6995.46
451.43	7299.45
451.79	7665.14
452.15	8069.21
452.52	8535.54
452.88	9019.02
453.24	9566.19
453.61	10162.93
453.97	10743.08
454.34	11305.28
454.70	11954.03
455.06	12600.77
455.43	13226.37
455.79	13825.19
456.15	14532.34
456.52	15192.21
456.88	15975.00
457.24	16706.04
457.61	17574.31
457.97	18360.96
458.33	19168.24
458.70	19970.41
459.06	20745.03
459.42	21603.59
459.79	22399.84
460.15	23311.53
460.51	24175.11
460.88	25126.96
461.24	25925.60
461.60	26896.24
461.96	27772.28
462.33	28612.14
462.69	29441.36
463.05	30345.23
463.42	31098.21
463.78	31798.89
464.14	32383.23
464.50	32981.66
464.87	33425.52
465.23	33775.24
465.59	34099.92
465.95	34409.55
466.32	34675.46
466.68	34929.03
467.04	35085.47
467.40	35248.98
467.77	35423.73
468.13	35402.76
468.49	35305.34
468.85	35237.98
469.22	35062.89
469.58	34685.41
469.94	34416.13
470.30	34099.19
470.66	33660.98
471.03	33066.04
471.39	32702.27
471.75	32088.65
472.11	31506.26
472.47	31184.78
472.84	30883.65
473.20	30378.89
473.56	30104.88
473.92	29676.57
474.28	29128.32
474.65	28649.61
475.01	28195.99
475.37	27645.59
475.73	27200.09
476.09	26703.76
476.45	26179.62
476.81	25661.10
477.18	25119.87
477.54	24643.88
477.90	24259.49
478.26	23810.95
478.62	23443.88
478.98	23121.61
479.34	22784.37
479.71	22339.38
480.07	21958.74
480.43	21583.30
480.79	21174.78
481.15	20786.20
481.51	20467.77
481.87	20215.75
482.23	19908.53
482.59	19661.62
482.96	19388.39
483.32	19098.77
483.68	18725.78
484.04	18386.97
484.40	17995.61
484.76	17615.22
485.12	17231.91
485.48	16901.83
485.84	16536.68
486.20	16175.02
486.56	15812.14
486.92	15509.44
487.28	15159.39
487.64	14811.17
488.00	14495.50
488.37	14160.05
488.73	13775.18
489.09	13399.05
489.45	13071.56
489.81	12736.00
490.17	12435.99
490.53	12152.01
490.89	11859.07
491.25	11551.67
491.61	11232.46
491.97	10903.46
492.33	10569.70
492.69	10260.96
493.05	9937.14
493.41	9646.14
493.77	9369.80
494.13	9114.14
494.49	8859.00
494.85	8621.64
495.21	8396.51
495.57	8180.62
495.93	7952.86
496.29	7743.52
496.64	7554.17
497.00	7350.66
497.36	7152.35
497.72	6963.75
498.08	6779.48
498.44	6591.49
498.80	6419.83
499.16	6242.68
499.52	6083.99
499.88	5945.19
500.24	5821.85
500.60	5684.01
500.96	5562.17
501.32	5440.48
501.68	5316.74
502.03	5184.71
502.39	5070.33
502.75	4932.44
503.11	4799.50
503.47	4671.66
503.83	4543.94
504.19	4416.45
504.55	4310.56
504.91	4213.74
505.26	4122.92
505.62	4038.62
505.98	3953.91
506.34	3861.23
506.70	3762.76
507.06	3665.49
507.42	3573.09
507.78	3486.67
508.13	3408.41
508.49	3338.47
508.85	3266.43
509.21	3197.05
509.57	3130.82
509.93	3064.30
510.28	2990.71
510.64	2925.69
511.00	2859.46
511.36	2799.54
511.72	2744.58
512.07	2697.77
512.43	2645.48
512.79	2600.71
513.15	2548.98
513.51	2500.11
513.86	2449.91
514.22	2411.08
514.58	2369.23
514.94	2333.79
515.30	2301.96
515.65	2268.12
516.01	2231.77
516.37	2194.60
516.73	2162.44
517.08	2130.54
517.44	2099.53
517.80	2071.33
518.16	2043.66
518.51	2011.71
518.87	1981.31
519.23	1955.73
519.59	1927.88
519.94	1905.38
520.30	1881.91
520.66	1856.12
521.01	1835.52
521.37	1813.12
521.73	1788.43
522.09	1768.04
522.44	1750.65
522.80	1726.82
523.16	1706.63
523.51	1687.57
523.87	1666.77
524.23	1642.26
524.58	1623.91
524.94	1604.09
525.30	1587.47
525.65	1574.43
526.01	1564.58
526.37	1553.44
526.72	1541.38
527.08	1529.10
527.44	1513.44
527.79	1499.16
528.15	1487.90
528.51	1474.33
528.86	1459.53
529.22	1450.13
529.58	1440.04
529.93	1427.07
530.29	1417.08
530.65	1408.09
531.00	1395.38
531.36	1384.19
531.71	1372.70
532.07	1363.64
532.43	1355.80
532.78	1349.53
533.14	1343.14
533.49	1336.38
533.85	1328.70
534.21	1321.14
534.56	1315.10
534.92	1310.75
535.27	1306.67
535.63	1305.18
535.98	1298.83
536.34	1290.43
536.69	1280.18
537.05	1269.41
537.41	1256.98
537.76	1247.95
538.12	1243.32
538.47	1241.91
538.83	1242.24
539.18	1241.16
539.54	1239.90
539.89	1237.35
540.25	1230.63
540.60	1223.40
540.96	1219.42
541.31	1214.95
541.67	1208.70
542.02	1205.45
542.38	1202.17
542.73	1197.68
543.09	1195.22
543.44	1193.37
543.80	1192.62
544.15	1192.46
544.51	1190.44
544.86	1186.63
545.22	1184.57
545.57	1179.26
545.93	1176.75
546.28	1175.23
546.64	1173.78
546.99	1169.57
547.35	1169.68
547.70	1163.69
548.05	1163.01
548.41	1163.01
548.76	1159.03
549.12	1153.93
549.47	1152.13
549.83	1145.39
550.18	1143.05
550.53	1144.10
550.89	1141.62
551.24	1141.85
551.60	1141.92
551.95	1138.20
552.30	1137.64
552.66	1138.20
553.01	1138.09
553.37	1138.23
553.72	1140.43
554.07	1139.86
554.43	1139.79
554.78	1136.66
555.13	1137.41
555.49	1135.04
555.84	1133.66
556.19	1130.99
556.55	1132.89
556.90	1129.75
557.26	1125.26
557.61	1122.43
557.96	1120.86
558.32	1115.90
558.67	1113.77
559.02	1116.37
559.37	1118.03
559.73	1116.76
560.08	1118.42
560.43	1119.20
560.79	1113.95
561.14	1113.39
561.49	1113.77
561.85	1113.09
562.20	1111.94
562.55	1111.26
562.90	1107.49
563.26	1112.43
563.61	1110.07
563.96	1104.73
564.32	1108.90
564.67	1108.50
565.02	1104.01
565.37	1105.69
565.73	1109.84
566.08	1108.48
566.43	1108.08
566.78	1105.76
567.14	1106.75
567.49	1104.26
567.84	1103.70
568.19	1101.76
568.54	1100.50
568.90	1097.06
569.25	1097.76
569.60	1098.51
569.95	1103.00
570.31	1105.01
570.66	1108.36
571.01	1109.32
571.36	1106.44
571.71	1102.79
572.06	1100.87
572.42	1096.12
572.77	1096.63
573.12	1094.67
573.47	1095.98
573.82	1095.53
574.18	1093.08
574.53	1090.83
574.88	1097.29
575.23	1093.73
575.58	1094.81
575.93	1100.45
576.28	1099.28
576.64	1095.30
576.99	1095.56
577.34	1098.41
577.69	1094.29
578.04	1094.74
578.39	1092.56
578.74	1095.39
579.09	1093.26
579.44	1098.83
579.80	1100.08
580.15	1103.35
580.50	1101.29
580.85	1097.15
581.20	1092.05
581.55	1092.89
581.90	1091.91
582.25	1090.50
582.60	1093.38
582.95	1097.64
583.30	1094.25
583.65	1087.79
584.00	1089.03
584.35	1088.12
584.71	1082.47
585.06	1086.36
585.41	1089.89
585.76	1089.92
586.11	1088.21
586.46	1088.84
586.81	1088.65
587.16	1089.99
587.51	1090.32
587.86	1090.36
588.21	1093.47
588.56	1091.37
588.91	1090.69
589.26	1089.73
589.61	1091.25
589.96	1088.21
590.31	1086.31
590.66	1085.33
591.01	1089.50
591.36	1091.58
591.71	1093.45
592.06	1092.75
592.41	1094.86
592.76	1090.13
593.10	1089.64
593.45	1087.90
593.80	1090.78
594.15	1092.37
594.50	1093.40
594.85	1088.61
595.20	1088.47
595.55	1087.83
595.90	1086.22
596.25	1085.96
596.60	1088.61
596.95	1091.42
597.30	1090.01
597.64	1097.85
597.99	1098.74
598.34	1097.08
598.69	1091.25
599.04	1088.70
599.39	1078.12
599.74	1076.81
600.09	1077.37
600.44	1080.53
600.78	1083.04
601.13	1086.38
601.48	1086.13
601.83	1086.78
602.18	1086.20
602.53	1085.40
602.88	1082.24
603.22	1080.70
603.57	1082.87
603.92	1082.59
604.27	1083.97
604.62	1082.19
604.97	1081.42
605.31	1077.23
605.66	1075.69
606.01	1074.12
606.36	1078.24
606.71	1080.41
607.05	1082.80
607.40	1085.75
607.75	1085.26
608.10	1085.70
608.44	1088.00
608.79	1087.95
609.14	1090.36
609.49	1092.49
609.84	1089.50
610.18	1087.93
610.53	1088.09
610.88	1083.79
611.23	1086.71
611.57	1085.63
611.92	1082.83
612.27	1083.01
612.62	1085.75
612.96	1081.73
613.31	1081.47
613.66	1084.07
614.00	1084.56
614.35	1082.19
614.70	1084.04
615.05	1088.42
615.39	1088.98
615.74	1087.18
616.09	1085.96
616.43	1084.39
616.78	1080.81
617.13	1083.90
617.47	1082.01
617.82	1084.96
618.17	1084.77
618.51	1086.03
618.86	1085.45
619.21	1087.62
619.55	1087.20
619.90	1087.62
620.25	1087.86
620.59	1084.67
620.94	1085.07
621.29	1085.82
621.63	1086.76
621.98	1087.37
622.32	1087.32
622.67	1087.25
623.02	1087.16
623.36	1087.62
623.71	1086.80
624.05	1084.18
624.40	1082.47
624.75	1081.42
625.09	1081.28
625.44	1079.81
625.78	1081.66
626.13	1084.89
626.48	1082.43
626.82	1082.38
627.17	1085.68
627.51	1087.41
627.86	1084.93
628.20	1086.38
628.55	1086.17
628.89	1084.89
629.24	1083.27
629.58	1084.89
629.93	1085.07
630.28	1082.83
630.62	1081.14
630.97	1080.93
631.31	1078.89
631.66	1077.98
632.00	1080.74
632.35	1081.21
632.69	1081.47
633.04	1084.51
633.38	1085.91
633.73	1083.86
634.07	1083.32
634.42	1083.22
634.76	1083.43
635.11	1080.41
635.45	1083.04
635.79	1085.19
636.14	1084.42
636.48	1081.19
636.83	1083.25
637.17	1080.30
637.52	1077.35
637.86	1080.58
638.21	1082.73
638.55	1080.53
638.89	1081.49
639.24	1084.37
639.58	1081.44
639.93	1081.54
640.27	1086.31
640.61	1086.59
640.96	1087.04
641.30	1086.03
641.65	1084.58
641.99	1085.42
642.33	1083.39
642.68	1081.19
643.02	1081.94
643.37	1081.30
643.71	1077.23
644.05	1076.69
644.40	1076.95
644.74	1076.04
645.08	1075.97
645.43	1077.63
645.77	1078.87
646.11	1078.14
646.46	1077.09
646.80	1076.97
647.14	1075.45
647.49	1076.88
647.83	1079.71
648.17	1083.93
648.52	1085.54
648.86	1086.17
649.20	1085.21
649.55	1080.02
649.89	1075.66
650.23	1077.63
650.57	1081.68
650.92	1079.17
651.26	1081.09
651.60	1085.07
651.95	1082.61
652.29	1079.13
652.63	1079.88
652.97	1078.00
653.32	1077.18
653.66	1076.93
654.00	1074.82
654.34	1078.17
654.69	1083.43
655.03	1082.69
655.37	1084.42
655.71	1086.01
656.05	1086.66
656.40	1083.34
656.74	1084.11
657.08	1084.02
657.42	1084.46
657.76	1083.27
658.11	1084.37
658.45	1083.79
658.79	1084.53
659.13	1082.24
659.47	1079.43
659.82	1080.51
660.16	1078.87
660.50	1077.51
660.84	1082.03
661.18	1082.54
661.52	1079.64
661.87	1081.77
662.21	1082.08
662.55	1079.20
662.89	1079.29
663.23	1081.56
663.57	1079.97
663.91	1079.50
664.25	1083.53
664.60	1086.34
664.94	1087.58
665.28	1087.83
665.62	1087.81
665.96	1083.90
666.30	1081.12
666.64	1080.67
666.98	1081.05
667.32	1077.49
667.66	1078.26
668.01	1079.62
668.35	1076.60
668.69	1078.82
669.03	1081.96
669.37	1079.88
669.71	1079.78
670.05	1081.75
670.39	1079.69
670.73	1077.09
671.07	1078.26
671.41	1076.08
671.75	1076.34
672.09	1075.80
672.43	1077.56
672.77	1077.84
673.11	1079.57
673.45	1076.90
673.79	1077.77
674.13	1075.57
674.47	1074.73
674.81	1073.93
675.15	1076.39
675.49	1076.41
675.83	1080.02
676.17	1083.04
676.51	1084.04
676.85	1083.95
677.19	1086.17
677.53	1086.71
677.87	1084.30
678.21	1082.17
678.55	1080.91
678.89	1078.87
679.23	1076.37
679.57	1074.40
679.90	1077.84
680.24	1078.68
680.58	1078.80
680.92	1079.60
681.26	1082.90
681.60	1079.48
681.94	1079.95
682.28	1079.08
682.62	1079.38
682.96	1078.00
683.29	1081.33
683.63	1083.20
683.97	1084.30
684.31	1083.50
684.65	1082.10
684.99	1079.76
685.33	1075.31
685.67	1073.07
686.00	1074.84
686.34	1075.05
686.68	1076.25
687.02	1079.48
687.36	1083.60
687.70	1081.49
688.03	1082.19
688.37	1082.22
688.71	1078.82
689.05	1079.78
689.39	1081.14
689.72	1080.93
690.06	1078.94
690.40	1079.15
690.74	1073.09
691.08	1073.84
691.41	1074.98
691.75	1075.73
692.09	1075.17
692.43	1079.64
692.76	1080.16
693.10	1079.53
693.44	1082.57
693.78	1085.66
694.11	1087.13
694.45	1084.42
694.79	1082.19
695.13	1082.59
695.46	1081.42
695.80	1078.78
696.14	1078.24
696.48	1080.74
696.81	1079.13
697.15	1078.45
697.49	1076.90
697.82	1077.72
698.16	1078.50
698.50	1076.76
698.83	1079.60
699.17	1081.75
699.51	1078.57
699.84	1074.14
700.18	1073.65
700.52	1071.97
700.85	1071.29
701.19	1074.40
701.53	1075.69
701.86	1077.30
702.20	1078.47
702.54	1080.30
702.87	1079.81
703.21	1082.45
703.55	1079.95
703.88	1079.31
704.22	1078.00
704.55	1080.41
704.89	1081.23
705.23	1085.19
705.56	1087.81
705.90	1085.94
706.23	1084.28
706.57	1080.70
706.91	1076.44
707.24	1072.46
707.58	1072.60
707.91	1073.72
708.25	1075.29
708.58	1078.50
708.92	1079.22
709.26	1081.84
709.59	1081.21
709.93	1085.07
710.26	1086.92
710.60	1086.87
710.93	1085.47
711.27	1082.01
711.60	1080.39
711.94	1079.97
712.27	1080.04
712.61	1078.12
712.94	1080.37
713.28	1079.06
713.61	1075.69
713.95	1075.66
714.28	1076.88
714.62	1080.11
714.95	1079.74
715.29	1079.31
715.62	1078.99
715.96	1077.21
716.29	1075.13
716.63	1079.62
716.96	1078.57
717.29	1077.00
717.63	1077.54
717.96	1079.76
718.30	1076.88
718.63	1081.75
718.97	1082.54
719.30	1084.02
719.63	1083.04
719.97	1080.04
720.30	1075.24
720.64	1076.74
720.97	1079.78
721.30	1080.93
721.64	1083.01
721.97	1084.28
722.31	1085.42
722.64	1081.58
722.97	1079.95
723.31	1077.61
723.64	1077.75
723.97	1075.78
724.31	1076.51
724.64	1077.77
724.98	1078.28
725.31	1081.49
725.64	1083.01
725.98	1084.51
726.31	1083.04
726.64	1084.44
726.97	1084.51
727.31	1086.38
727.64	1083.76
727.97	1083.81
728.31	1082.36
728.64	1081.23
728.97	1080.63
729.31	1080.13
729.64	1080.32
729.97	1082.40
730.30	1082.08
730.64	1080.88
730.97	1081.02
731.30	1080.67
731.63	1080.25
731.97	1078.87
732.30	1079.57
732.63	1081.30
732.96	1080.25
733.30	1080.16
733.63	1079.57
733.96	1075.76
734.29	1075.90
734.63	1076.41
734.96	1076.86
735.29	1076.37
735.62	1079.95
735.95	1079.97
736.29	1079.60
736.62	1077.84
736.95	1080.98
737.28	1080.09
737.61	1080.74
737.94	1081.87
738.28	1083.18
738.61	1081.12
738.94	1079.34
739.27	1079.88
739.60	1078.94
739.93	1078.52
740.27	1080.65
740.60	1081.14
740.93	1079.17
741.26	1078.92
741.59	1078.85
741.92	1079.29
742.25	1079.38
742.58	1079.78
742.91	1081.66
743.25	1083.13
743.58	1080.25
743.91	1080.58
744.24	1079.78
744.57	1079.08
744.90	1078.12
745.23	1082.01
745.56	1084.11
745.89	1086.59
746.22	1087.58
746.55	1086.43
746.88	1083.08
747.21	1081.07
747.54	1080.27
747.87	1078.33
748.20	1080.32
748.53	1082.45
748.87	1078.82
749.20	1078.61
749.53	1079.46
749.86	1076.39
750.19	1076.06
750.52	1080.39
750.85	1078.31
751.18	1073.58
751.51	1075.80
751.84	1073.11
752.16	1072.78
752.49	1072.88
752.82	1076.83
753.15	1076.46
753.48	1076.44
753.81	1074.49
754.14	1076.58
754.47	1078.10
754.80	1077.37
755.13	1075.66
755.46	1074.84
755.79	1073.63
756.12	1070.96
756.45	1073.16
756.78	1077.07
757.11	1078.14
757.43	1076.83
757.76	1079.50
758.09	1077.33
758.42	1073.79
758.75	1072.78
759.08	1073.98
759.41	1070.42
759.74	1070.23
760.07	1072.32
760.39	1077.96
760.72	1076.95
761.05	1077.42
761.38	1077.02
761.71	1077.51
762.04	1075.97
762.36	1077.51
762.69	1078.50
763.02	1082.45
763.35	1082.90
763.68	1082.10
764.01	1081.28
