SpectraSuite Data File
++++++++++++++++++++++++++++++++++++
Date: Mon Aug 26 10:22:22 PDT 2019
User: corrico
Dark Spectrum Present: No
Reference Spectrum Present: No
Number of Sampled Component Spectra: 1
Spectrometers: USB2+H06089
Integration Time (usec): 2000 (USB2+H06089)
Spectra Averaged: 20 (USB2+H06089)
Boxcar Smoothing: 2 (USB2+H06089)
Correct for Electrical Dark: No (USB2+H06089)
Strobe/Lamp Enabled: No (USB2+H06089)
Correct for Detector Non-linearity: No (USB2+H06089)
Correct for Stray Light: No (USB2+H06089)
Number of Pixels in Processed Spectrum: 2048
>>>>>Begin Processed Spectral Data<<<<<
339.70	1025.15
340.07	1025.15
340.45	988.92
340.82	968.70
341.19	943.98
341.57	916.46
341.94	907.22
342.31	904.13
342.69	900.52
343.06	896.99
343.43	899.61
343.81	899.77
344.18	899.63
344.55	904.29
344.93	914.40
345.30	923.18
345.67	931.53
346.04	939.02
346.42	944.13
346.79	951.26
347.16	957.96
347.54	966.24
347.91	974.34
348.28	983.28
348.65	991.26
349.03	1000.30
349.40	1009.00
349.77	1021.76
350.14	1032.46
350.52	1041.42
350.89	1045.63
351.26	1056.00
351.63	1057.36
352.01	1059.09
352.38	1062.79
352.75	1066.54
353.12	1067.68
353.50	1072.22
353.87	1074.94
354.24	1078.92
354.61	1082.69
354.98	1081.61
355.36	1083.74
355.73	1084.56
356.10	1084.74
356.47	1085.26
356.84	1088.07
357.22	1086.48
357.59	1088.58
357.96	1086.55
358.33	1086.03
358.70	1083.22
359.08	1083.48
359.45	1081.47
359.82	1081.02
360.19	1080.60
360.56	1080.60
360.94	1078.80
361.31	1078.24
361.68	1077.51
362.05	1074.77
362.42	1075.97
362.79	1077.72
363.16	1080.39
363.54	1077.96
363.91	1080.67
364.28	1080.32
364.65	1078.47
365.02	1075.27
365.39	1076.60
365.76	1075.55
366.14	1072.71
366.51	1075.62
366.88	1073.51
367.25	1075.27
367.62	1074.28
367.99	1075.36
368.36	1073.07
368.73	1074.33
369.10	1073.11
369.48	1075.41
369.85	1077.44
370.22	1079.48
370.59	1079.57
370.96	1080.37
371.33	1083.57
371.70	1078.78
372.07	1076.81
372.44	1078.21
372.81	1079.90
373.18	1074.28
373.55	1079.34
373.93	1076.44
374.30	1077.51
374.67	1074.68
375.04	1077.49
375.41	1076.44
375.78	1079.41
376.15	1077.91
376.52	1079.69
376.89	1079.53
377.26	1080.16
377.63	1079.06
378.00	1078.36
378.37	1079.06
378.74	1076.86
379.11	1077.91
379.48	1079.71
379.85	1079.50
380.22	1079.95
380.59	1081.00
380.96	1077.44
381.33	1075.20
381.70	1076.18
382.07	1076.15
382.44	1075.29
382.81	1077.14
383.18	1079.99
383.55	1080.44
383.92	1080.27
384.29	1082.66
384.66	1084.35
385.03	1086.55
385.40	1089.10
385.77	1091.32
386.14	1089.29
386.51	1088.86
386.88	1085.80
387.25	1082.38
387.62	1080.70
387.99	1085.21
388.36	1083.81
388.73	1084.49
389.10	1087.13
389.46	1086.31
389.83	1085.21
390.20	1087.44
390.57	1088.19
390.94	1089.75
391.31	1089.05
391.68	1088.56
392.05	1087.04
392.42	1087.69
392.79	1083.79
393.16	1086.55
393.53	1086.48
393.89	1086.29
394.26	1084.93
394.63	1088.75
395.00	1087.09
395.37	1086.66
395.74	1086.22
396.11	1086.83
396.48	1087.41
396.84	1087.53
397.21	1088.21
397.58	1088.44
397.95	1089.96
398.32	1087.79
398.69	1086.92
399.06	1086.03
399.42	1086.22
399.79	1084.32
400.16	1083.39
400.53	1083.81
400.90	1086.29
401.27	1088.51
401.64	1091.60
402.00	1094.13
402.37	1095.44
402.74	1092.45
403.11	1092.77
403.48	1091.13
403.84	1089.29
404.21	1091.72
404.58	1094.34
404.95	1094.74
405.32	1093.66
405.68	1094.90
406.05	1092.37
406.42	1089.17
406.79	1086.73
407.16	1089.05
407.52	1088.30
407.89	1088.91
408.26	1093.76
408.63	1096.96
408.99	1097.17
409.36	1101.27
409.73	1104.43
410.10	1104.87
410.47	1103.75
410.83	1106.02
411.20	1106.56
411.57	1103.94
411.94	1102.72
412.30	1103.68
412.67	1103.45
413.04	1101.76
413.40	1101.60
413.77	1100.08
414.14	1102.81
414.51	1101.06
414.87	1100.99
415.24	1100.08
415.61	1103.00
415.97	1097.69
416.34	1096.61
416.71	1097.50
417.08	1098.98
417.44	1099.44
417.81	1101.13
418.18	1103.54
418.54	1102.56
418.91	1103.98
419.28	1105.34
419.64	1106.89
420.01	1109.98
420.38	1112.83
420.74	1117.30
421.11	1121.14
421.48	1124.14
421.84	1123.11
422.21	1123.78
422.58	1124.07
422.94	1123.81
423.31	1127.65
423.68	1132.94
424.04	1138.60
424.41	1141.99
424.77	1142.44
425.14	1144.50
425.51	1146.79
425.87	1150.28
426.24	1151.78
426.61	1158.96
426.97	1166.41
427.34	1173.80
427.70	1178.30
428.07	1186.14
428.44	1190.79
428.80	1193.60
429.17	1199.34
429.53	1207.88
429.90	1215.16
430.27	1224.54
430.63	1239.48
431.00	1249.21
431.36	1262.51
431.73	1273.13
432.09	1287.29
432.46	1299.51
432.83	1315.36
433.19	1328.61
433.56	1348.27
433.92	1366.76
434.29	1387.70
434.65	1407.95
435.02	1431.35
435.38	1454.60
435.75	1482.40
436.11	1507.40
436.48	1534.85
436.84	1570.15
437.21	1606.57
437.57	1642.33
437.94	1684.27
438.30	1734.03
438.67	1778.03
439.03	1830.86
439.40	1880.11
439.76	1936.25
440.13	1991.44
440.49	2051.85
440.86	2112.31
441.22	2186.67
441.59	2255.50
441.95	2331.81
442.32	2414.52
442.68	2505.99
443.05	2597.69
443.41	2695.90
443.78	2794.65
444.14	2902.29
444.51	3011.78
444.87	3145.63
445.24	3280.24
445.60	3432.77
445.96	3585.07
446.33	3746.52
446.69	3903.59
447.06	4072.20
447.42	4243.98
447.79	4422.35
448.15	4645.96
448.51	4868.13
448.88	5127.43
449.24	5372.18
449.61	5658.08
449.97	5919.21
450.33	6198.67
450.70	6452.04
451.06	6768.22
451.43	7055.24
451.79	7417.74
452.15	7806.34
452.52	8240.14
452.88	8691.81
453.24	9195.12
453.61	9755.77
453.97	10300.53
454.34	10836.38
454.70	11456.27
455.06	12103.96
455.43	12698.72
455.79	13289.16
456.15	13986.67
456.52	14627.93
456.88	15367.61
457.24	16076.37
457.61	16898.20
457.97	17653.47
458.33	18409.55
458.70	19156.00
459.06	19886.62
459.42	20690.27
459.79	21439.12
460.15	22309.38
460.51	23122.83
460.88	24012.00
461.24	24768.93
461.60	25670.48
461.96	26500.34
462.33	27301.51
462.69	28060.33
463.05	28903.42
463.42	29657.61
463.78	30310.90
464.14	30850.16
464.50	31430.38
464.87	31895.58
465.23	32217.24
465.59	32566.68
465.95	32907.11
466.32	33187.51
466.68	33397.88
467.04	33524.41
467.40	33650.70
467.77	33784.58
468.13	33790.34
468.49	33735.10
468.85	33685.79
469.22	33529.88
469.58	33192.99
469.94	32931.22
470.30	32604.29
470.66	32191.92
471.03	31624.55
471.39	31270.33
471.75	30648.10
472.11	30091.17
472.47	29756.63
472.84	29471.37
473.20	29007.87
473.56	28768.98
473.92	28350.82
474.28	27845.63
474.65	27339.75
475.01	26849.01
475.37	26271.18
475.73	25808.74
476.09	25276.26
476.45	24782.86
476.81	24294.53
477.18	23765.00
477.54	23327.11
477.90	22981.39
478.26	22569.55
478.62	22233.54
478.98	21962.02
479.34	21657.73
479.71	21261.99
480.07	20941.62
480.43	20601.89
480.79	20242.78
481.15	19895.96
481.51	19593.79
481.87	19323.44
482.23	19031.39
482.59	18763.86
482.96	18481.13
483.32	18207.12
483.68	17859.48
484.04	17537.17
484.40	17207.45
484.76	16878.77
485.12	16530.64
485.48	16223.49
485.84	15887.81
486.20	15540.24
486.56	15180.76
486.92	14859.71
487.28	14524.33
487.64	14177.21
488.00	13855.15
488.37	13532.74
488.73	13199.26
489.09	12853.87
489.45	12551.85
489.81	12244.26
490.17	11967.79
490.53	11678.73
490.89	11378.44
491.25	11085.76
491.61	10781.68
491.97	10459.64
492.33	10142.83
492.69	9851.90
493.05	9546.13
493.41	9267.87
493.77	8996.20
494.13	8742.77
494.49	8501.29
494.85	8279.79
495.21	8047.35
495.57	7833.77
495.93	7627.34
496.29	7429.56
496.64	7243.44
497.00	7061.51
497.36	6871.60
497.72	6686.84
498.08	6504.91
498.44	6325.02
498.80	6161.39
499.16	6007.34
499.52	5867.91
499.88	5745.36
500.24	5626.09
500.60	5515.12
500.96	5404.41
501.32	5288.11
501.68	5167.43
502.03	5036.74
502.39	4900.19
502.75	4765.82
503.11	4635.29
503.47	4511.66
503.83	4397.45
504.19	4291.23
504.55	4197.07
504.91	4105.18
505.26	4012.92
505.62	3933.15
505.98	3844.73
506.34	3746.73
506.70	3657.58
507.06	3569.13
507.42	3473.36
507.78	3393.31
508.13	3321.31
508.49	3249.37
508.85	3186.50
509.21	3127.10
509.57	3056.22
509.93	2987.09
510.28	2918.02
510.64	2848.13
511.00	2781.09
511.36	2722.56
511.72	2665.10
512.07	2616.72
512.43	2573.28
512.79	2525.63
513.15	2486.09
513.51	2441.65
513.86	2394.16
514.22	2348.45
514.58	2309.45
514.94	2269.31
515.30	2234.86
515.65	2199.78
516.01	2166.12
516.37	2135.20
516.73	2102.41
517.08	2074.49
517.44	2049.30
517.80	2026.08
518.16	2002.33
518.51	1977.40
518.87	1950.32
519.23	1926.00
519.59	1898.88
519.94	1870.77
520.30	1848.70
520.66	1823.44
521.01	1796.88
521.37	1775.23
521.73	1753.06
522.09	1731.62
522.44	1714.91
522.80	1697.59
523.16	1680.76
523.51	1665.17
523.87	1641.68
524.23	1621.06
524.58	1602.14
524.94	1583.02
525.30	1562.80
525.65	1550.51
526.01	1541.45
526.37	1525.37
526.72	1513.76
527.08	1500.77
527.44	1489.00
527.79	1472.34
528.15	1465.60
528.51	1449.87
528.86	1439.85
529.22	1427.56
529.58	1414.55
529.93	1403.67
530.29	1397.51
530.65	1386.32
531.00	1375.42
531.36	1368.58
531.71	1356.90
532.07	1343.84
532.43	1333.61
532.78	1329.45
533.14	1323.10
533.49	1319.50
533.85	1316.62
534.21	1316.95
534.56	1311.99
534.92	1306.32
535.27	1294.95
535.63	1285.40
535.98	1276.72
536.34	1270.72
536.69	1263.75
537.05	1261.97
537.41	1258.20
537.76	1253.01
538.12	1247.76
538.47	1242.78
538.83	1238.12
539.18	1232.50
539.54	1225.86
539.89	1220.21
540.25	1218.41
540.60	1216.66
540.96	1215.25
541.31	1212.75
541.67	1208.70
542.02	1206.08
542.38	1201.96
542.73	1200.30
543.09	1198.78
543.44	1197.70
543.80	1192.64
544.15	1191.17
544.51	1185.55
544.86	1182.35
545.22	1178.37
545.57	1176.40
545.93	1171.53
546.28	1171.13
546.64	1171.58
546.99	1169.61
547.35	1167.55
547.70	1164.74
548.05	1164.42
548.41	1158.40
548.76	1157.61
549.12	1156.18
549.47	1151.10
549.83	1149.86
550.18	1147.45
550.53	1144.19
550.89	1143.07
551.24	1143.98
551.60	1139.86
551.95	1142.77
552.30	1142.53
552.66	1140.71
553.01	1141.36
553.37	1141.41
553.72	1136.12
554.07	1134.41
554.43	1135.04
554.78	1135.16
555.13	1131.93
555.49	1133.69
555.84	1130.81
556.19	1126.55
556.55	1123.41
556.90	1124.51
557.26	1124.93
557.61	1125.14
557.96	1127.08
558.32	1127.04
558.67	1124.32
559.02	1119.01
559.37	1120.93
559.73	1114.82
560.08	1113.77
560.43	1112.67
560.79	1110.84
561.14	1107.47
561.49	1113.16
561.85	1110.75
562.20	1111.40
562.55	1115.76
562.90	1116.58
563.26	1109.48
563.61	1108.83
563.96	1110.16
564.32	1108.08
564.67	1106.72
565.02	1110.70
565.37	1114.96
565.73	1110.21
566.08	1112.11
566.43	1111.52
566.78	1110.07
567.14	1106.49
567.49	1108.31
567.84	1105.29
568.19	1103.07
568.54	1103.07
568.90	1101.95
569.25	1099.05
569.60	1099.21
569.95	1098.79
570.31	1095.49
570.66	1093.55
571.01	1097.36
571.36	1095.82
571.71	1094.88
572.06	1095.14
572.42	1094.74
572.77	1093.50
573.12	1095.09
573.47	1098.27
573.82	1099.96
574.18	1102.02
574.53	1101.90
574.88	1101.97
575.23	1102.70
575.58	1104.01
575.93	1106.18
576.28	1105.79
576.64	1101.74
576.99	1099.51
577.34	1096.80
577.69	1095.46
578.04	1090.97
578.39	1094.22
578.74	1094.04
579.09	1095.04
579.44	1096.10
579.80	1097.95
580.15	1099.09
580.50	1097.92
580.85	1094.18
581.20	1089.31
581.55	1087.95
581.90	1086.73
582.25	1085.35
582.60	1090.17
582.95	1088.84
583.30	1091.30
583.65	1090.83
584.00	1093.29
584.35	1093.22
584.71	1095.79
585.06	1095.63
585.41	1093.57
585.76	1091.86
586.11	1088.21
586.46	1085.12
586.81	1085.54
587.16	1085.05
587.51	1085.19
587.86	1086.52
588.21	1087.27
588.56	1083.39
588.91	1086.27
589.26	1089.89
589.61	1089.92
589.96	1090.39
590.31	1092.49
590.66	1092.23
591.01	1086.06
591.36	1086.20
591.71	1089.87
592.06	1087.02
592.41	1084.35
592.76	1088.65
593.10	1087.53
593.45	1087.13
593.80	1089.94
594.15	1093.17
594.50	1092.42
594.85	1094.67
595.20	1093.94
595.55	1094.88
595.90	1092.28
596.25	1093.26
596.60	1094.20
596.95	1091.93
597.30	1089.50
597.64	1099.49
597.99	1096.31
598.34	1091.49
598.69	1094.39
599.04	1094.60
599.39	1084.44
599.74	1086.90
600.09	1089.73
600.44	1088.49
600.78	1088.04
601.13	1084.70
601.48	1083.29
601.83	1082.08
602.18	1079.08
602.53	1083.08
602.88	1087.23
603.22	1086.57
603.57	1087.51
603.92	1089.71
604.27	1085.24
604.62	1082.05
604.97	1084.67
605.31	1082.52
605.66	1081.49
606.01	1083.13
606.36	1083.86
606.71	1082.80
607.05	1082.97
607.40	1084.67
607.75	1086.31
608.10	1088.21
608.44	1087.76
608.79	1087.67
609.14	1089.66
609.49	1088.58
609.84	1088.70
610.18	1090.01
610.53	1093.99
610.88	1093.03
611.23	1092.96
611.57	1091.20
611.92	1089.12
612.27	1085.14
612.62	1083.97
612.96	1085.26
613.31	1085.19
613.66	1085.73
614.00	1088.51
614.35	1089.43
614.70	1090.22
615.05	1092.45
615.39	1092.07
615.74	1092.21
616.09	1089.87
616.43	1087.02
616.78	1087.27
617.13	1085.31
617.47	1080.72
617.82	1083.32
618.17	1081.75
618.51	1083.62
618.86	1087.72
619.21	1091.93
619.55	1093.17
619.90	1093.99
620.25	1089.96
620.59	1087.93
620.94	1085.12
621.29	1081.80
621.63	1081.26
621.98	1081.82
622.32	1081.54
622.67	1080.32
623.02	1078.21
623.36	1077.00
623.71	1079.74
624.05	1077.56
624.40	1078.07
624.75	1081.42
625.09	1080.37
625.44	1076.11
625.78	1080.79
626.13	1082.29
626.48	1080.44
626.82	1083.53
627.17	1085.45
627.51	1084.21
627.86	1082.69
628.20	1081.56
628.55	1081.49
628.89	1081.42
629.24	1081.37
629.58	1080.60
629.93	1080.93
630.28	1079.81
630.62	1078.05
630.97	1077.37
631.31	1081.98
631.66	1082.99
632.00	1085.96
632.35	1086.97
632.69	1083.57
633.04	1081.73
633.38	1082.90
633.73	1081.58
634.07	1081.30
634.42	1081.61
634.76	1078.96
635.11	1074.56
635.45	1073.42
635.79	1073.16
636.14	1077.68
636.48	1083.43
636.83	1089.03
637.17	1090.24
637.52	1089.50
637.86	1085.38
638.21	1080.91
638.55	1076.76
638.89	1077.42
639.24	1079.15
639.58	1083.79
639.93	1087.67
640.27	1088.98
640.61	1089.52
640.96	1090.06
641.30	1086.64
641.65	1083.41
641.99	1083.88
642.33	1080.06
642.68	1078.28
643.02	1078.00
643.37	1078.10
643.71	1078.47
644.05	1082.03
644.40	1083.88
644.74	1085.70
645.08	1085.61
645.43	1083.90
645.77	1079.03
646.11	1080.48
646.46	1081.91
646.80	1082.80
647.14	1086.03
647.49	1090.74
647.83	1085.24
648.17	1082.85
648.52	1081.75
648.86	1076.79
649.20	1076.18
649.55	1078.64
649.89	1076.48
650.23	1074.98
650.57	1077.09
650.92	1076.58
651.26	1076.20
651.60	1078.50
651.95	1084.21
652.29	1086.50
652.63	1085.19
652.97	1084.56
653.32	1084.77
653.66	1084.09
654.00	1082.29
654.34	1081.00
654.69	1082.99
655.03	1084.00
655.37	1081.94
655.71	1084.32
656.05	1088.12
656.40	1088.96
656.74	1086.64
657.08	1085.77
657.42	1082.17
657.76	1079.99
658.11	1076.27
658.45	1077.11
658.79	1074.68
659.13	1078.07
659.47	1078.47
659.82	1079.99
660.16	1079.31
660.50	1082.47
660.84	1082.54
661.18	1081.51
661.52	1082.87
661.87	1083.32
662.21	1080.51
662.55	1077.65
662.89	1079.95
663.23	1079.03
663.57	1079.60
663.91	1083.36
664.25	1081.80
664.60	1081.07
664.94	1083.11
665.28	1081.49
665.62	1079.60
665.96	1082.54
666.30	1080.88
666.64	1079.27
666.98	1082.54
667.32	1083.97
667.66	1086.08
668.01	1089.22
668.35	1087.23
668.69	1086.52
669.03	1084.32
669.37	1084.23
669.71	1084.46
670.05	1087.60
670.39	1083.50
670.73	1085.47
671.07	1082.33
671.41	1080.13
671.75	1082.71
672.09	1085.54
672.43	1085.56
672.77	1089.05
673.11	1090.20
673.45	1087.60
673.79	1087.37
674.13	1087.97
674.47	1085.73
674.81	1085.68
675.15	1085.52
675.49	1084.30
675.83	1082.78
676.17	1081.73
676.51	1082.78
676.85	1081.47
677.19	1082.92
677.53	1082.76
677.87	1084.25
678.21	1081.84
678.55	1082.40
678.89	1083.36
679.23	1083.62
679.57	1081.98
679.90	1080.93
680.24	1079.62
680.58	1078.10
680.92	1075.59
681.26	1077.18
681.60	1080.72
681.94	1082.40
682.28	1085.31
682.62	1087.51
682.96	1085.07
683.29	1085.87
683.63	1085.94
683.97	1083.08
684.31	1083.22
684.65	1087.20
684.99	1082.43
685.33	1082.26
685.67	1079.83
686.00	1079.64
686.34	1077.63
686.68	1078.92
687.02	1077.25
687.36	1081.23
687.70	1077.63
688.03	1075.90
688.37	1077.96
688.71	1079.69
689.05	1079.36
689.39	1082.29
689.72	1087.30
690.06	1087.86
690.40	1083.76
690.74	1082.78
691.08	1084.25
691.41	1078.43
691.75	1076.53
692.09	1080.23
692.43	1083.88
692.76	1082.87
693.10	1085.70
693.44	1085.35
693.78	1086.57
694.11	1079.64
694.45	1077.56
694.79	1075.62
695.13	1075.24
695.46	1070.00
695.80	1072.69
696.14	1075.24
696.48	1075.59
696.81	1076.67
697.15	1079.29
697.49	1081.16
697.82	1079.31
698.16	1081.61
698.50	1082.12
698.83	1082.12
699.17	1083.20
699.51	1084.25
699.84	1081.54
700.18	1083.67
700.52	1086.10
700.85	1083.74
701.19	1084.93
701.53	1087.04
701.86	1081.30
702.20	1078.80
702.54	1078.40
702.87	1075.80
703.21	1074.49
703.55	1080.70
703.88	1082.19
704.22	1083.81
704.55	1083.90
704.89	1084.02
705.23	1080.63
705.56	1082.57
705.90	1083.18
706.23	1085.49
706.57	1084.72
706.91	1086.78
707.24	1082.83
707.58	1079.34
707.91	1076.08
708.25	1077.18
708.58	1076.48
708.92	1076.67
709.26	1075.66
709.59	1076.79
709.93	1079.92
710.26	1075.59
710.60	1075.78
710.93	1075.92
711.27	1080.18
711.60	1079.41
711.94	1083.32
712.27	1082.26
712.61	1083.81
712.94	1082.87
713.28	1080.98
713.61	1079.34
713.95	1084.79
714.28	1085.94
714.62	1084.72
714.95	1084.63
715.29	1085.28
715.62	1080.46
715.96	1081.91
716.29	1080.86
716.63	1082.99
716.96	1082.22
717.29	1087.16
717.63	1085.40
717.96	1084.28
718.30	1080.30
718.63	1078.78
718.97	1077.44
719.30	1075.90
719.63	1077.37
719.97	1079.88
720.30	1085.99
720.64	1083.67
720.97	1084.84
721.30	1087.13
721.64	1086.41
721.97	1084.84
722.31	1087.95
722.64	1088.28
722.97	1087.20
723.31	1086.73
723.64	1084.56
723.97	1080.13
724.31	1082.22
724.64	1079.38
724.98	1079.36
725.31	1080.13
725.64	1081.02
725.98	1078.78
726.31	1081.37
726.64	1080.74
726.97	1080.16
727.31	1078.94
727.64	1077.14
727.97	1075.10
728.31	1077.65
728.64	1078.21
728.97	1078.19
729.31	1080.16
729.64	1078.85
729.97	1076.88
730.30	1075.57
730.64	1074.68
730.97	1074.75
731.30	1075.90
731.63	1073.77
731.97	1076.79
732.30	1083.04
732.63	1081.98
732.96	1084.35
733.30	1087.81
733.63	1085.59
733.96	1082.50
734.29	1082.22
734.63	1081.19
734.96	1079.78
735.29	1080.91
735.62	1080.88
735.95	1083.36
736.29	1081.66
736.62	1080.88
736.95	1080.58
737.28	1076.25
737.61	1072.27
737.94	1075.87
738.28	1078.28
738.61	1078.43
738.94	1078.12
739.27	1079.99
739.60	1077.49
739.93	1077.75
740.27	1076.08
740.60	1080.98
740.93	1080.65
741.26	1081.73
741.59	1082.33
741.92	1083.86
742.25	1085.35
742.58	1086.99
742.91	1084.58
743.25	1082.85
743.58	1081.47
743.91	1076.88
744.24	1077.23
744.57	1077.84
744.90	1077.77
745.23	1076.39
745.56	1078.21
745.89	1079.71
746.22	1081.07
746.55	1078.52
746.88	1079.43
747.21	1079.85
747.54	1075.50
747.87	1076.37
748.20	1077.96
748.53	1077.02
748.87	1076.72
749.20	1078.78
749.53	1077.75
749.86	1080.70
750.19	1082.66
750.52	1082.31
750.85	1081.80
751.18	1080.11
751.51	1076.90
751.84	1077.63
752.16	1075.27
752.49	1073.35
752.82	1073.81
753.15	1072.06
753.48	1073.56
753.81	1076.90
754.14	1079.99
754.47	1080.39
754.80	1083.36
755.13	1076.83
755.46	1075.50
755.79	1074.75
756.12	1077.07
756.45	1079.13
756.78	1082.36
757.11	1081.94
757.43	1081.28
757.76	1080.98
758.09	1078.57
758.42	1076.34
758.75	1079.57
759.08	1078.12
759.41	1074.80
759.74	1074.42
760.07	1078.57
760.39	1077.54
760.72	1082.10
761.05	1082.69
761.38	1084.51
761.71	1083.79
762.04	1084.11
762.36	1081.23
762.69	1084.02
763.02	1078.28
763.35	1075.34
763.68	1073.02
764.01	1074.70
