SpectraSuite Data File
++++++++++++++++++++++++++++++++++++
Date: Mon Aug 26 10:22:01 PDT 2019
User: corrico
Dark Spectrum Present: No
Reference Spectrum Present: No
Number of Sampled Component Spectra: 1
Spectrometers: USB2+H06089
Integration Time (usec): 2000 (USB2+H06089)
Spectra Averaged: 20 (USB2+H06089)
Boxcar Smoothing: 2 (USB2+H06089)
Correct for Electrical Dark: No (USB2+H06089)
Strobe/Lamp Enabled: No (USB2+H06089)
Correct for Detector Non-linearity: No (USB2+H06089)
Correct for Stray Light: No (USB2+H06089)
Number of Pixels in Processed Spectrum: 2048
>>>>>Begin Processed Spectral Data<<<<<
339.70	1035.57
340.07	1035.57
340.45	1004.49
340.82	981.08
341.19	953.67
341.57	928.35
341.94	911.94
342.31	903.03
342.69	900.59
343.06	901.06
343.43	898.53
343.81	900.43
344.18	904.22
344.55	906.63
344.93	911.69
345.30	918.03
345.67	921.94
346.04	928.79
346.42	938.20
346.79	946.79
347.16	959.39
347.54	972.82
347.91	982.58
348.28	990.44
348.65	1000.65
349.03	1004.65
349.40	1011.16
349.77	1018.55
350.14	1025.53
350.52	1028.83
350.89	1035.01
351.26	1038.64
351.63	1046.06
352.01	1054.86
352.38	1062.18
352.75	1068.62
353.12	1073.42
353.50	1073.77
353.87	1071.45
354.24	1072.32
354.61	1074.21
354.98	1077.37
355.36	1081.23
355.73	1087.02
356.10	1090.48
356.47	1090.03
356.84	1089.54
357.22	1087.30
357.59	1085.75
357.96	1086.90
358.33	1090.39
358.70	1093.22
359.08	1092.66
359.45	1088.89
359.82	1084.49
360.19	1081.94
360.56	1078.00
360.94	1080.72
361.31	1081.66
361.68	1080.02
362.05	1076.93
362.42	1074.38
362.79	1073.04
363.16	1070.33
363.54	1072.01
363.91	1073.44
364.28	1077.18
364.65	1077.11
365.02	1077.96
365.39	1074.28
365.76	1073.93
366.14	1071.99
366.51	1070.44
366.88	1073.00
367.25	1073.81
367.62	1072.71
367.99	1073.51
368.36	1077.49
368.73	1075.38
369.10	1078.10
369.48	1078.47
369.85	1081.33
370.22	1078.59
370.59	1077.28
370.96	1077.65
371.33	1075.27
371.70	1071.97
372.07	1071.52
372.44	1072.18
372.81	1073.81
373.18	1077.04
373.55	1079.03
373.93	1077.51
374.30	1076.32
374.67	1073.21
375.04	1071.26
375.41	1068.01
375.78	1070.35
376.15	1074.05
376.52	1075.69
376.89	1079.01
377.26	1084.30
377.63	1081.37
378.00	1079.15
378.37	1078.85
378.74	1079.53
379.11	1078.05
379.48	1081.30
379.85	1082.36
380.22	1085.40
380.59	1084.35
380.96	1081.73
381.33	1080.91
381.70	1079.85
382.07	1077.14
382.44	1074.49
382.81	1073.91
383.18	1075.29
383.55	1076.93
383.92	1075.83
384.29	1077.28
384.66	1077.79
385.03	1076.46
385.40	1076.27
385.77	1076.25
386.14	1079.36
386.51	1082.31
386.88	1082.03
387.25	1082.87
387.62	1080.77
387.99	1080.86
388.36	1080.53
388.73	1083.06
389.10	1084.96
389.46	1090.48
389.83	1088.63
390.20	1087.32
390.57	1086.83
390.94	1086.43
391.31	1084.25
391.68	1085.33
392.05	1084.70
392.42	1085.82
392.79	1083.50
393.16	1081.87
393.53	1081.14
393.89	1081.23
394.26	1079.22
394.63	1083.39
395.00	1084.65
395.37	1087.60
395.74	1089.24
396.11	1093.64
396.48	1089.03
396.84	1089.87
397.21	1089.64
397.58	1089.00
397.95	1086.50
398.32	1088.51
398.69	1086.71
399.06	1084.63
399.42	1085.40
399.79	1082.87
400.16	1083.83
400.53	1086.06
400.90	1083.57
401.27	1084.04
401.64	1085.10
402.00	1083.06
402.37	1083.39
402.74	1089.03
403.11	1088.89
403.48	1091.44
403.84	1096.03
404.21	1096.89
404.58	1094.50
404.95	1094.04
405.32	1093.83
405.68	1093.08
406.05	1089.80
406.42	1089.82
406.79	1093.38
407.16	1093.33
407.52	1093.64
407.89	1098.09
408.26	1099.09
408.63	1093.76
408.99	1090.90
409.36	1088.65
409.73	1087.41
410.10	1085.17
410.47	1089.10
410.83	1089.64
411.20	1089.73
411.57	1087.93
411.94	1087.27
412.30	1087.27
412.67	1090.64
413.04	1090.10
413.40	1091.77
413.77	1094.74
414.14	1094.81
414.51	1095.02
414.87	1096.05
415.24	1098.65
415.61	1096.75
415.97	1097.71
416.34	1097.36
416.71	1098.62
417.08	1098.18
417.44	1100.45
417.81	1101.69
418.18	1102.84
418.54	1105.58
418.91	1103.77
419.28	1109.88
419.64	1109.06
420.01	1107.56
420.38	1108.81
420.74	1112.43
421.11	1107.45
421.48	1108.81
421.84	1115.24
422.21	1116.67
422.58	1116.86
422.94	1122.15
423.31	1123.86
423.68	1121.26
424.04	1121.37
424.41	1126.10
424.77	1128.16
425.14	1131.60
425.51	1135.91
425.87	1141.78
426.24	1143.68
426.61	1150.02
426.97	1158.89
427.34	1165.40
427.70	1169.14
428.07	1175.18
428.44	1177.24
428.80	1182.20
429.17	1186.86
429.53	1194.09
429.90	1205.52
430.27	1218.32
430.63	1224.92
431.00	1238.19
431.36	1254.04
431.73	1264.17
432.09	1276.08
432.46	1290.38
432.83	1303.12
433.19	1312.27
433.56	1329.26
433.92	1348.99
434.29	1368.04
434.65	1390.02
435.02	1416.80
435.38	1442.50
435.75	1465.20
436.11	1493.94
436.48	1523.95
436.84	1552.20
437.21	1585.41
437.57	1618.95
437.94	1654.10
438.30	1691.46
438.67	1732.93
439.03	1776.28
439.40	1831.91
439.76	1884.06
440.13	1943.77
440.49	2009.00
440.86	2073.81
441.22	2133.75
441.59	2206.61
441.95	2287.19
442.32	2362.77
442.68	2448.25
443.05	2542.01
443.41	2635.23
443.78	2726.40
444.14	2831.77
444.51	2944.32
444.87	3071.46
445.24	3197.57
445.60	3336.18
445.96	3470.52
446.33	3616.13
446.69	3764.03
447.06	3931.30
447.42	4103.83
447.79	4286.41
448.15	4495.72
448.51	4697.43
448.88	4919.29
449.24	5128.68
449.61	5389.95
449.97	5652.67
450.33	5935.13
450.70	6205.37
451.06	6550.57
451.43	6856.25
451.79	7194.88
452.15	7551.97
452.52	7939.19
452.88	8317.09
453.24	8755.05
453.61	9237.23
453.97	9720.15
454.34	10205.27
454.70	10764.05
455.06	11321.41
455.43	11843.70
455.79	12363.48
456.15	12999.34
456.52	13593.32
456.88	14321.01
457.24	15073.12
457.61	15917.96
457.97	16680.69
458.33	17480.57
458.70	18247.21
459.06	18969.95
459.42	19742.37
459.79	20477.25
460.15	21288.58
460.51	22017.49
460.88	22788.37
461.24	23491.63
461.60	24322.52
461.96	25002.14
462.33	25640.40
462.69	26312.49
463.05	27065.74
463.42	27759.78
463.78	28448.46
464.14	29118.77
464.50	29789.22
464.87	30275.39
465.23	30562.88
465.59	30891.56
465.95	31158.31
466.32	31361.07
466.68	31567.72
467.04	31749.06
467.40	31843.11
467.77	31951.66
468.13	31939.65
468.49	31772.70
468.85	31655.42
469.22	31582.35
469.58	31386.40
469.94	31248.84
470.30	31109.96
470.66	30794.92
471.03	30278.01
471.39	29863.50
471.75	29206.14
472.11	28573.26
472.47	28121.98
472.84	27679.43
473.20	27070.89
473.56	26677.17
473.92	26165.46
474.28	25657.05
474.65	25174.92
475.01	24774.17
475.37	24275.38
475.73	23896.35
476.09	23452.50
476.45	23040.96
476.81	22642.81
477.18	22212.15
477.54	21810.19
477.90	21464.02
478.26	21061.47
478.62	20685.47
478.98	20445.66
479.34	20235.94
479.71	19964.30
480.07	19707.76
480.43	19453.92
480.79	19075.46
481.15	18659.45
481.51	18287.54
481.87	17965.09
482.23	17613.44
482.59	17321.58
482.96	17035.19
483.32	16748.55
483.68	16423.94
484.04	16126.76
484.40	15814.51
484.76	15527.93
485.12	15247.84
485.48	15023.81
485.84	14773.65
486.20	14523.98
486.56	14235.02
486.92	13948.28
487.28	13626.32
487.64	13292.86
488.00	12981.29
488.37	12652.40
488.73	12305.27
489.09	11949.56
489.45	11649.88
489.81	11338.44
490.17	11057.02
490.53	10778.68
490.89	10478.79
491.25	10169.72
491.61	9858.29
491.97	9569.58
492.33	9299.25
492.69	9073.48
493.05	8855.35
493.41	8649.24
493.77	8423.45
494.13	8189.09
494.49	7957.38
494.85	7735.00
495.21	7518.95
495.57	7338.70
495.93	7149.38
496.29	6957.50
496.64	6778.24
497.00	6596.40
497.36	6414.28
497.72	6264.84
498.08	6125.02
498.44	5971.81
498.80	5819.44
499.16	5646.96
499.52	5477.32
499.88	5320.53
500.24	5171.32
500.60	5039.62
500.96	4933.55
501.32	4828.48
501.68	4719.06
502.03	4618.58
502.39	4510.68
502.75	4407.56
503.11	4304.69
503.47	4213.90
503.83	4119.65
504.19	4024.86
504.55	3928.54
504.91	3838.36
505.26	3750.69
505.62	3663.64
505.98	3581.56
506.34	3500.11
506.70	3416.36
507.06	3336.22
507.42	3256.97
507.78	3188.37
508.13	3123.44
508.49	3057.28
508.85	2989.99
509.21	2929.32
509.57	2869.08
509.93	2807.40
510.28	2751.25
510.64	2701.19
511.00	2645.34
511.36	2593.43
511.72	2548.68
512.07	2504.28
512.43	2458.52
512.79	2422.74
513.15	2386.60
513.51	2344.56
513.86	2311.68
514.22	2270.60
514.58	2226.34
514.94	2183.09
515.30	2142.32
515.65	2098.76
516.01	2063.44
516.37	2032.64
516.73	2007.71
517.08	1981.31
517.44	1954.39
517.80	1935.13
518.16	1907.28
518.51	1879.89
518.87	1857.31
519.23	1838.80
519.59	1812.96
519.94	1792.73
520.30	1770.92
520.66	1748.40
521.01	1728.67
521.37	1710.07
521.73	1690.57
522.09	1670.56
522.44	1655.27
522.80	1636.15
523.16	1623.35
523.51	1606.08
523.87	1588.64
524.23	1571.62
524.58	1555.82
524.94	1537.50
525.30	1525.98
525.65	1513.46
526.01	1500.82
526.37	1485.84
526.72	1472.83
527.08	1460.33
527.44	1447.88
527.79	1437.58
528.15	1430.00
528.51	1417.73
528.86	1409.26
529.22	1399.57
529.58	1387.54
529.93	1382.16
530.29	1376.94
530.65	1366.33
531.00	1359.45
531.36	1350.35
531.71	1336.14
532.07	1326.38
532.43	1319.03
532.78	1309.90
533.14	1304.22
533.49	1296.89
533.85	1293.12
534.21	1285.89
534.56	1281.28
534.92	1279.31
535.27	1276.81
535.63	1266.93
535.98	1261.08
536.34	1256.33
536.69	1246.45
537.05	1239.50
537.41	1235.03
537.76	1233.81
538.12	1226.53
538.47	1223.59
538.83	1218.04
539.18	1220.43
539.54	1215.86
539.89	1216.07
540.25	1214.57
540.60	1212.94
540.96	1204.42
541.31	1201.98
541.67	1196.46
542.02	1190.70
542.38	1187.12
542.73	1185.39
543.09	1181.88
543.44	1182.23
543.80	1179.65
544.15	1179.75
544.51	1176.73
544.86	1172.19
545.22	1168.04
545.57	1163.78
545.93	1160.79
546.28	1159.08
546.64	1159.55
546.99	1156.72
547.35	1157.18
547.70	1155.08
548.05	1152.60
548.41	1148.41
548.76	1147.59
549.12	1146.65
549.47	1142.58
549.83	1142.74
550.18	1140.47
550.53	1136.73
550.89	1134.72
551.24	1136.28
551.60	1134.34
551.95	1133.66
552.30	1132.61
552.66	1133.05
553.01	1131.56
553.37	1133.90
553.72	1134.74
554.07	1137.80
554.43	1131.81
554.78	1127.67
555.13	1123.60
555.49	1117.84
555.84	1113.02
556.19	1113.84
556.55	1113.09
556.90	1110.84
557.26	1112.06
557.61	1113.46
557.96	1112.69
558.32	1112.67
558.67	1115.64
559.02	1116.65
559.37	1112.92
559.73	1112.20
560.08	1110.87
560.43	1104.55
560.79	1104.69
561.14	1104.59
561.49	1106.09
561.85	1107.99
562.20	1104.80
562.55	1105.06
562.90	1104.08
563.26	1099.49
563.61	1098.67
563.96	1101.92
564.32	1097.73
564.67	1097.36
565.02	1098.25
565.37	1098.83
565.73	1099.44
566.08	1100.61
566.43	1099.58
566.78	1101.92
567.14	1099.02
567.49	1097.50
567.84	1098.13
568.19	1101.32
568.54	1100.94
568.90	1102.49
569.25	1105.36
569.60	1105.18
569.95	1100.94
570.31	1098.41
570.66	1096.07
571.01	1095.63
571.36	1093.19
571.71	1096.28
572.06	1097.17
572.42	1098.74
572.77	1095.14
573.12	1095.89
573.47	1096.63
573.82	1092.66
574.18	1092.42
574.53	1091.44
574.88	1090.62
575.23	1091.18
575.58	1094.60
575.93	1096.03
576.28	1097.97
576.64	1096.56
576.99	1095.28
577.34	1094.18
577.69	1092.59
578.04	1091.32
578.39	1093.08
578.74	1094.62
579.09	1095.79
579.44	1095.42
579.80	1096.35
580.15	1095.25
580.50	1090.62
580.85	1090.64
581.20	1088.28
581.55	1087.83
581.90	1086.92
582.25	1086.71
582.60	1085.28
582.95	1088.79
583.30	1085.70
583.65	1087.58
584.00	1089.66
584.35	1088.44
584.71	1084.65
585.06	1088.65
585.41	1089.52
585.76	1086.78
586.11	1086.66
586.46	1090.01
586.81	1089.33
587.16	1085.96
587.51	1087.93
587.86	1091.25
588.21	1089.61
588.56	1088.77
588.91	1091.51
589.26	1093.57
589.61	1088.96
589.96	1088.19
590.31	1090.36
590.66	1091.25
591.01	1087.04
591.36	1089.50
591.71	1089.05
592.06	1086.10
592.41	1081.75
592.76	1084.23
593.10	1085.17
593.45	1083.60
593.80	1081.44
594.15	1082.97
594.50	1081.28
594.85	1077.84
595.20	1075.80
595.55	1078.03
595.90	1077.21
596.25	1078.82
596.60	1079.10
596.95	1079.71
597.30	1078.03
597.64	1091.74
597.99	1091.11
598.34	1092.26
598.69	1096.68
599.04	1096.80
599.39	1083.74
599.74	1085.26
600.09	1087.97
600.44	1084.84
600.78	1086.80
601.13	1088.61
601.48	1084.79
601.83	1083.71
602.18	1083.69
602.53	1082.66
602.88	1083.22
603.22	1085.99
603.57	1083.69
603.92	1085.75
604.27	1085.99
604.62	1081.61
604.97	1079.22
605.31	1083.36
605.66	1080.98
606.01	1083.32
606.36	1086.48
606.71	1086.97
607.05	1081.68
607.40	1082.24
607.75	1081.77
608.10	1081.26
608.44	1083.36
608.79	1088.72
609.14	1088.33
609.49	1088.16
609.84	1086.15
610.18	1084.23
610.53	1081.89
610.88	1084.02
611.23	1085.59
611.57	1090.15
611.92	1091.56
612.27	1091.11
612.62	1091.65
612.96	1087.09
613.31	1084.46
613.66	1081.44
614.00	1080.23
614.35	1079.64
614.70	1081.16
615.05	1082.99
615.39	1084.16
615.74	1083.50
616.09	1084.21
616.43	1085.03
616.78	1085.05
617.13	1086.15
617.47	1087.90
617.82	1088.23
618.17	1087.93
618.51	1083.71
618.86	1083.67
619.21	1081.58
619.55	1077.00
619.90	1076.93
620.25	1080.23
620.59	1078.75
620.94	1077.77
621.29	1081.02
621.63	1083.36
621.98	1082.22
622.32	1082.01
622.67	1081.19
623.02	1081.23
623.36	1081.19
623.71	1081.98
624.05	1084.79
624.40	1088.58
624.75	1086.15
625.09	1083.41
625.44	1084.53
625.78	1083.18
626.13	1080.70
626.48	1080.20
626.82	1079.15
627.17	1077.14
627.51	1080.20
627.86	1084.11
628.20	1086.08
628.55	1087.16
628.89	1085.47
629.24	1082.73
629.58	1081.44
629.93	1082.17
630.28	1080.32
630.62	1083.43
630.97	1083.83
631.31	1083.93
631.66	1085.12
632.00	1085.35
632.35	1086.08
632.69	1085.91
633.04	1085.14
633.38	1083.76
633.73	1083.06
634.07	1082.03
634.42	1080.41
634.76	1081.28
635.11	1084.28
635.45	1087.30
635.79	1086.24
636.14	1087.34
636.48	1085.54
636.83	1086.41
637.17	1084.60
637.52	1084.74
637.86	1081.05
638.21	1084.07
638.55	1078.45
638.89	1081.28
639.24	1083.27
639.58	1088.37
639.93	1087.39
640.27	1088.04
640.61	1086.29
640.96	1085.00
641.30	1084.67
641.65	1082.83
641.99	1084.00
642.33	1082.94
642.68	1080.51
643.02	1078.73
643.37	1080.18
643.71	1078.96
644.05	1082.78
644.40	1081.75
644.74	1084.51
645.08	1084.16
645.43	1084.81
645.77	1083.08
646.11	1084.89
646.46	1082.08
646.80	1082.61
647.14	1084.18
647.49	1079.95
647.83	1079.64
648.17	1079.74
648.52	1077.23
648.86	1075.15
649.20	1077.04
649.55	1076.48
649.89	1075.57
650.23	1078.19
650.57	1077.68
650.92	1079.88
651.26	1078.45
651.60	1080.13
651.95	1080.91
652.29	1081.70
652.63	1079.36
652.97	1080.93
653.32	1082.05
653.66	1079.85
654.00	1080.32
654.34	1081.05
654.69	1081.84
655.03	1082.08
655.37	1082.22
655.71	1080.74
656.05	1081.73
656.40	1084.96
656.74	1083.57
657.08	1084.00
657.42	1085.28
657.76	1084.02
658.11	1079.64
658.45	1077.91
658.79	1079.08
659.13	1078.21
659.47	1075.57
659.82	1079.53
660.16	1082.36
660.50	1081.73
660.84	1086.06
661.18	1087.32
661.52	1085.42
661.87	1083.74
662.21	1083.20
662.55	1080.67
662.89	1081.30
663.23	1081.26
663.57	1082.85
663.91	1083.81
664.25	1082.36
664.60	1081.56
664.94	1079.90
665.28	1078.07
665.62	1075.17
665.96	1075.99
666.30	1078.40
666.64	1079.67
666.98	1079.08
667.32	1079.46
667.66	1075.48
668.01	1077.42
668.35	1078.17
668.69	1078.73
669.03	1080.44
669.37	1085.24
669.71	1084.46
670.05	1084.77
670.39	1084.44
670.73	1084.30
671.07	1084.91
671.41	1081.91
671.75	1077.49
672.09	1078.33
672.43	1079.34
672.77	1078.36
673.11	1081.23
673.45	1083.97
673.79	1085.94
674.13	1086.03
674.47	1087.46
674.81	1086.20
675.15	1087.09
675.49	1084.60
675.83	1082.80
676.17	1081.98
676.51	1083.74
676.85	1084.89
677.19	1084.14
677.53	1084.60
677.87	1081.61
678.21	1081.30
678.55	1078.19
678.89	1079.99
679.23	1079.43
679.57	1081.75
679.90	1080.04
680.24	1083.34
680.58	1082.97
680.92	1082.47
681.26	1084.32
681.60	1086.31
681.94	1084.86
682.28	1085.12
682.62	1085.42
682.96	1079.50
683.29	1079.36
683.63	1078.59
683.97	1077.82
684.31	1078.31
684.65	1079.27
684.99	1078.10
685.33	1077.61
685.67	1078.75
686.00	1077.98
686.34	1081.58
686.68	1082.31
687.02	1081.37
687.36	1079.71
687.70	1078.87
688.03	1080.67
688.37	1081.61
688.71	1084.72
689.05	1085.99
689.39	1088.77
689.72	1085.12
690.06	1082.59
690.40	1082.24
690.74	1081.07
691.08	1079.88
691.41	1079.01
691.75	1081.82
692.09	1084.53
692.43	1087.37
692.76	1090.48
693.10	1094.22
693.44	1091.39
693.78	1087.37
694.11	1084.28
694.45	1079.55
694.79	1079.53
695.13	1080.58
695.46	1080.09
695.80	1081.54
696.14	1086.31
696.48	1084.53
696.81	1085.49
697.15	1086.43
697.49	1084.37
697.82	1081.14
698.16	1080.25
698.50	1079.31
698.83	1080.56
699.17	1082.40
699.51	1085.99
699.84	1084.39
700.18	1084.18
700.52	1081.35
700.85	1079.83
701.19	1076.86
701.53	1075.17
701.86	1076.69
702.20	1081.61
702.54	1084.58
702.87	1086.27
703.21	1091.98
703.55	1090.57
703.88	1087.32
704.22	1084.49
704.55	1084.53
704.89	1081.91
705.23	1080.95
705.56	1079.62
705.90	1080.20
706.23	1079.60
706.57	1080.53
706.91	1082.90
707.24	1083.01
707.58	1081.94
707.91	1081.51
708.25	1079.90
708.58	1077.02
708.92	1079.27
709.26	1085.24
709.59	1082.57
709.93	1084.56
710.26	1084.21
710.60	1082.12
710.93	1078.66
711.27	1082.01
711.60	1081.05
711.94	1081.47
712.27	1081.87
712.61	1082.33
712.94	1079.31
713.28	1077.44
713.61	1075.99
713.95	1076.04
714.28	1075.41
714.62	1077.98
714.95	1079.99
715.29	1084.21
715.62	1087.16
715.96	1087.18
716.29	1086.06
716.63	1084.44
716.96	1081.47
717.29	1078.28
717.63	1075.87
717.96	1074.38
718.30	1078.28
718.63	1079.69
718.97	1078.19
719.30	1080.27
719.63	1080.18
719.97	1079.74
720.30	1079.46
720.64	1081.75
720.97	1084.35
721.30	1087.97
721.64	1087.02
721.97	1083.81
722.31	1083.60
722.64	1081.84
722.97	1080.23
723.31	1080.79
723.64	1083.39
723.97	1085.47
724.31	1083.41
724.64	1081.42
724.98	1078.73
725.31	1078.57
725.64	1077.16
725.98	1076.41
726.31	1078.31
726.64	1079.53
726.97	1079.41
727.31	1077.96
727.64	1080.18
727.97	1080.37
728.31	1082.59
728.64	1083.88
728.97	1084.86
729.31	1084.35
729.64	1085.89
729.97	1083.34
730.30	1082.38
730.64	1081.19
730.97	1079.83
731.30	1075.78
731.63	1074.21
731.97	1076.27
732.30	1079.06
732.63	1082.61
732.96	1085.00
733.30	1087.04
733.63	1087.55
733.96	1085.26
734.29	1081.42
734.63	1080.13
734.96	1081.09
735.29	1079.17
735.62	1079.90
735.95	1079.64
736.29	1079.36
736.62	1078.75
736.95	1078.07
737.28	1078.14
737.61	1079.83
737.94	1080.60
738.28	1079.41
738.61	1079.88
738.94	1081.26
739.27	1081.51
739.60	1083.64
739.93	1085.31
740.27	1086.31
740.60	1085.87
740.93	1085.75
741.26	1081.73
741.59	1080.48
741.92	1079.34
742.25	1077.75
742.58	1078.31
742.91	1080.34
743.25	1082.50
743.58	1081.37
743.91	1083.69
744.24	1081.51
744.57	1081.80
744.90	1078.73
745.23	1077.37
745.56	1075.80
745.89	1076.08
746.22	1074.54
746.55	1076.55
746.88	1079.24
747.21	1076.67
747.54	1077.61
747.87	1079.29
748.20	1077.40
748.53	1079.06
748.87	1084.39
749.20	1088.65
749.53	1088.58
749.86	1089.73
750.19	1086.17
750.52	1082.15
750.85	1075.13
751.18	1076.83
751.51	1076.18
751.84	1079.62
752.16	1080.18
752.49	1080.88
752.82	1079.81
753.15	1077.98
753.48	1075.20
753.81	1076.34
754.14	1077.00
754.47	1075.03
754.80	1077.28
755.13	1076.13
755.46	1076.11
755.79	1077.98
756.12	1082.64
756.45	1083.06
756.78	1086.62
757.11	1083.88
757.43	1085.38
757.76	1082.50
758.09	1081.00
758.42	1080.46
758.75	1080.13
759.08	1076.23
759.41	1075.45
759.74	1080.72
760.07	1078.17
760.39	1080.18
760.72	1083.79
761.05	1082.61
761.38	1079.99
761.71	1083.41
762.04	1084.37
762.36	1084.32
762.69	1087.13
763.02	1086.97
763.35	1085.94
763.68	1084.02
764.01	1080.93
