SpectraSuite Data File
++++++++++++++++++++++++++++++++++++
Date: Mon Aug 26 10:22:06 PDT 2019
User: corrico
Dark Spectrum Present: No
Reference Spectrum Present: No
Number of Sampled Component Spectra: 1
Spectrometers: USB2+H06089
Integration Time (usec): 2000 (USB2+H06089)
Spectra Averaged: 20 (USB2+H06089)
Boxcar Smoothing: 2 (USB2+H06089)
Correct for Electrical Dark: No (USB2+H06089)
Strobe/Lamp Enabled: No (USB2+H06089)
Correct for Detector Non-linearity: No (USB2+H06089)
Correct for Stray Light: No (USB2+H06089)
Number of Pixels in Processed Spectrum: 2048
>>>>>Begin Processed Spectral Data<<<<<
339.70	1025.39
340.07	1025.39
340.45	992.64
340.82	972.02
341.19	947.38
341.57	921.47
341.94	909.30
342.31	901.39
342.69	895.25
343.06	889.36
343.43	888.49
343.81	889.52
344.18	893.59
344.55	898.27
344.93	908.71
345.30	915.45
345.67	922.01
346.04	929.66
346.42	935.77
346.79	942.63
347.16	952.29
347.54	962.19
347.91	968.84
348.28	982.07
348.65	996.04
349.03	1003.60
349.40	1011.56
349.77	1021.76
350.14	1027.40
350.52	1031.78
350.89	1042.31
351.26	1047.81
351.63	1052.63
352.01	1060.78
352.38	1064.41
352.75	1067.10
353.12	1069.44
353.50	1074.00
353.87	1074.24
354.24	1075.20
354.61	1076.39
354.98	1082.22
355.36	1082.78
355.73	1084.56
356.10	1088.75
356.47	1090.67
356.84	1090.13
357.22	1091.60
357.59	1092.54
357.96	1089.03
358.33	1084.79
358.70	1082.40
359.08	1081.14
359.45	1074.70
359.82	1077.86
360.19	1080.53
360.56	1082.43
360.94	1082.45
361.31	1086.01
361.68	1084.44
362.05	1081.75
362.42	1077.79
362.79	1074.19
363.16	1074.75
363.54	1072.74
363.91	1072.25
364.28	1074.19
364.65	1078.45
365.02	1079.01
365.39	1077.61
365.76	1078.05
366.14	1076.62
366.51	1075.13
366.88	1071.90
367.25	1072.55
367.62	1075.62
367.99	1079.01
368.36	1076.90
368.73	1077.84
369.10	1077.49
369.48	1075.55
369.85	1071.57
370.22	1073.07
370.59	1073.16
370.96	1075.36
371.33	1076.27
371.70	1078.14
372.07	1079.27
372.44	1082.92
372.81	1082.61
373.18	1081.54
373.55	1081.19
373.93	1080.34
374.30	1074.80
374.67	1073.07
375.04	1073.16
375.41	1070.80
375.78	1069.02
376.15	1072.18
376.52	1073.56
376.89	1071.43
377.26	1074.12
377.63	1078.78
378.00	1077.77
378.37	1080.91
378.74	1083.86
379.11	1083.50
379.48	1078.59
379.85	1082.69
380.22	1077.18
380.59	1079.17
380.96	1078.19
381.33	1080.98
381.70	1078.05
382.07	1081.02
382.44	1081.77
382.81	1084.09
383.18	1086.36
383.55	1086.38
383.92	1087.76
384.29	1085.40
384.66	1084.74
385.03	1081.73
385.40	1080.34
385.77	1081.07
386.14	1079.15
386.51	1079.64
386.88	1080.48
387.25	1081.35
387.62	1080.48
387.99	1084.02
388.36	1085.47
388.73	1087.09
389.10	1087.86
389.46	1082.40
389.83	1081.30
390.20	1082.76
390.57	1082.45
390.94	1083.71
391.31	1088.93
391.68	1089.66
392.05	1088.02
392.42	1085.91
392.79	1087.09
393.16	1087.51
393.53	1088.70
393.89	1090.20
394.26	1090.64
394.63	1088.63
395.00	1089.92
395.37	1087.34
395.74	1087.95
396.11	1091.09
396.48	1091.51
396.84	1089.85
397.21	1090.53
397.58	1088.61
397.95	1087.93
398.32	1089.92
398.69	1092.91
399.06	1093.62
399.42	1094.74
399.79	1091.77
400.16	1092.54
400.53	1090.71
400.90	1091.79
401.27	1092.42
401.64	1095.82
402.00	1093.15
402.37	1089.64
402.74	1089.43
403.11	1090.48
403.48	1089.59
403.84	1093.73
404.21	1099.21
404.58	1099.35
404.95	1098.65
405.32	1098.13
405.68	1097.90
406.05	1094.86
406.42	1095.04
406.79	1094.43
407.16	1095.51
407.52	1091.95
407.89	1094.81
408.26	1095.14
408.63	1096.82
408.99	1100.96
409.36	1098.67
409.73	1099.28
410.10	1100.66
410.47	1104.45
410.83	1100.89
411.20	1106.25
411.57	1104.59
411.94	1105.93
412.30	1101.78
412.67	1103.26
413.04	1102.09
413.40	1103.59
413.77	1102.21
414.14	1102.37
414.51	1102.23
414.87	1104.87
415.24	1106.63
415.61	1109.30
415.97	1109.55
416.34	1112.11
416.71	1111.08
417.08	1110.82
417.44	1112.46
417.81	1115.03
418.18	1114.49
418.54	1115.20
418.91	1115.45
419.28	1111.24
419.64	1112.62
420.01	1114.66
420.38	1117.14
420.74	1119.10
421.11	1121.94
421.48	1124.02
421.84	1123.48
422.21	1121.65
422.58	1126.50
422.94	1129.45
423.31	1132.21
423.68	1136.26
424.04	1144.80
424.41	1145.41
424.77	1150.61
425.14	1152.20
425.51	1157.18
425.87	1160.53
426.24	1165.82
426.61	1172.42
426.97	1176.12
427.34	1185.43
427.70	1194.23
428.07	1205.26
428.44	1211.27
428.80	1225.88
429.17	1232.81
429.53	1241.35
429.90	1253.57
430.27	1266.07
430.63	1274.49
431.00	1290.99
431.36	1306.65
431.73	1319.83
432.09	1338.67
432.46	1359.43
432.83	1376.82
433.19	1392.67
433.56	1412.12
433.92	1437.56
434.29	1464.68
434.65	1491.37
435.02	1525.30
435.38	1559.15
435.75	1587.84
436.11	1625.60
436.48	1666.11
436.84	1707.73
437.21	1752.27
437.57	1800.46
437.94	1848.18
438.30	1901.57
438.67	1959.57
439.03	2027.30
439.40	2101.47
439.76	2175.41
440.13	2250.68
440.49	2333.35
440.86	2409.84
441.22	2490.66
441.59	2580.37
441.95	2684.36
442.32	2786.34
442.68	2904.44
443.05	3028.82
443.41	3152.35
443.78	3278.79
444.14	3417.44
444.51	3555.51
444.87	3716.49
445.24	3886.81
445.60	4074.59
445.96	4262.26
446.33	4474.50
446.69	4679.06
447.06	4897.78
447.42	5119.97
447.79	5353.74
448.15	5627.16
448.51	5906.97
448.88	6229.80
449.24	6539.36
449.61	6893.88
449.97	7243.33
450.33	7625.61
450.70	7989.68
451.06	8424.03
451.43	8835.64
451.79	9296.02
452.15	9791.79
452.52	10320.26
452.88	10872.09
453.24	11500.62
453.61	12198.50
453.97	12899.91
454.34	13602.80
454.70	14416.25
455.06	15227.31
455.43	15988.95
455.79	16692.93
456.15	17517.58
456.52	18275.25
456.88	19189.65
457.24	20093.57
457.61	21191.56
457.97	22243.59
458.33	23317.12
458.70	24352.97
459.06	25350.16
459.42	26363.33
459.79	27273.35
460.15	28348.36
460.51	29366.49
460.88	30470.17
461.24	31451.72
461.60	32632.19
461.96	33671.81
462.33	34687.51
462.69	35738.88
463.05	36891.03
463.42	37905.40
463.78	38868.27
464.14	39629.58
464.50	40339.48
464.87	40842.47
465.23	41154.04
465.59	41528.97
465.95	41867.18
466.32	42138.49
466.68	42440.16
467.04	42654.30
467.40	42692.54
467.77	42816.08
468.13	42732.45
468.49	42539.26
468.85	42411.26
469.22	42311.17
469.58	42062.52
469.94	41937.39
470.30	41736.99
470.66	41388.14
471.03	40848.83
471.39	40461.75
471.75	39716.34
472.11	38963.74
472.47	38432.32
472.84	37885.15
473.20	37172.41
473.56	36778.48
473.92	36231.94
474.28	35623.21
474.65	34981.90
475.01	34297.46
475.37	33483.73
475.73	32807.41
476.09	32097.08
476.45	31466.47
476.81	30917.03
477.18	30350.15
477.54	29881.13
477.90	29432.75
478.26	28852.30
478.62	28336.12
478.98	27919.36
479.34	27478.08
479.71	26916.14
480.07	26492.41
480.43	26046.51
480.79	25568.69
481.15	25080.90
481.51	24695.72
481.87	24361.44
482.23	24005.35
482.59	23681.73
482.96	23365.01
483.32	23075.67
483.68	22679.02
484.04	22326.93
484.40	21892.67
484.76	21450.42
485.12	20989.15
485.48	20569.17
485.84	20080.46
486.20	19645.99
486.56	19204.19
486.92	18812.57
487.28	18407.24
487.64	17986.85
488.00	17595.59
488.37	17219.37
488.73	16771.04
489.09	16298.44
489.45	15862.04
489.81	15406.16
490.17	14952.61
490.53	14554.50
490.89	14150.25
491.25	13749.01
491.61	13354.32
491.97	12957.32
492.33	12552.81
492.69	12202.31
493.05	11875.50
493.41	11553.96
493.77	11235.65
494.13	10943.88
494.49	10641.55
494.85	10344.89
495.21	10060.39
495.57	9799.10
495.93	9515.47
496.29	9253.14
496.64	9016.82
497.00	8757.23
497.36	8492.82
497.72	8252.49
498.08	8035.32
498.44	7806.30
498.80	7603.75
499.16	7408.61
499.52	7214.37
499.88	7028.75
500.24	6854.35
500.60	6693.44
500.96	6544.21
501.32	6383.65
501.68	6216.51
502.03	6043.03
502.39	5872.71
502.75	5695.18
503.11	5543.40
503.47	5399.55
503.83	5268.55
504.19	5137.92
504.55	5027.00
504.91	4911.29
505.26	4794.00
505.62	4677.02
505.98	4571.25
506.34	4450.11
506.70	4329.99
507.06	4219.21
507.42	4113.96
507.78	4016.22
508.13	3923.88
508.49	3841.76
508.85	3763.63
509.21	3680.70
509.57	3593.00
509.93	3508.56
510.28	3416.36
510.64	3333.23
511.00	3255.61
511.36	3183.34
511.72	3111.48
512.07	3057.09
512.43	2994.18
512.79	2931.40
513.15	2868.82
513.51	2813.68
513.86	2758.44
514.22	2704.33
514.58	2650.70
514.94	2607.08
515.30	2558.25
515.65	2505.08
516.01	2466.25
516.37	2426.57
516.73	2383.23
517.08	2347.02
517.44	2304.26
517.80	2262.64
518.16	2222.85
518.51	2184.02
518.87	2150.39
519.23	2126.59
519.59	2093.75
519.94	2063.42
520.30	2037.55
520.66	2004.86
521.01	1975.44
521.37	1949.17
521.73	1925.56
522.09	1899.46
522.44	1882.12
522.80	1859.84
523.16	1832.69
523.51	1810.24
523.87	1789.97
524.23	1767.50
524.58	1744.82
524.94	1726.94
525.30	1706.23
525.65	1683.64
526.01	1662.27
526.37	1643.85
526.72	1627.89
527.08	1612.98
527.44	1598.89
527.79	1582.04
528.15	1566.01
528.51	1550.18
528.86	1533.64
529.22	1520.11
529.58	1508.41
529.93	1496.21
530.29	1484.06
530.65	1470.35
531.00	1456.91
531.36	1442.40
531.71	1433.30
532.07	1420.99
532.43	1411.30
532.78	1403.62
533.14	1390.82
533.49	1376.56
533.85	1371.91
534.21	1364.51
534.56	1352.92
534.92	1345.13
535.27	1339.47
535.63	1330.52
535.98	1322.17
536.34	1313.84
536.69	1312.24
537.05	1304.87
537.41	1296.17
537.76	1290.85
538.12	1283.90
538.47	1276.06
538.83	1270.30
539.18	1266.09
539.54	1262.95
539.89	1261.06
540.25	1257.41
540.60	1252.30
540.96	1248.42
541.31	1242.43
541.67	1236.01
542.02	1230.33
542.38	1228.52
542.73	1219.37
543.09	1215.63
543.44	1212.51
543.80	1207.60
544.15	1203.99
544.51	1207.62
544.86	1204.81
545.22	1202.61
545.57	1201.58
545.93	1198.21
546.28	1195.08
546.64	1193.53
546.99	1192.41
547.35	1189.34
547.70	1185.57
548.05	1182.20
548.41	1176.87
548.76	1171.56
549.12	1172.00
549.47	1170.62
549.83	1168.18
550.18	1168.25
550.53	1169.71
550.89	1163.13
551.24	1162.12
551.60	1159.88
551.95	1158.31
552.30	1153.37
552.66	1155.99
553.01	1157.11
553.37	1154.42
553.72	1150.05
554.07	1148.78
554.43	1144.29
554.78	1138.32
555.13	1134.29
555.49	1135.02
555.84	1134.88
556.19	1135.32
556.55	1133.01
556.90	1133.66
557.26	1131.46
557.61	1132.96
557.96	1128.93
558.32	1133.45
558.67	1133.01
559.02	1132.30
559.37	1127.51
559.73	1129.00
560.08	1126.69
560.43	1126.43
560.79	1125.98
561.14	1126.80
561.49	1124.25
561.85	1120.46
562.20	1120.20
562.55	1119.95
562.90	1116.60
563.26	1115.50
563.61	1114.94
563.96	1112.71
564.32	1107.42
564.67	1108.99
565.02	1109.55
565.37	1109.77
565.73	1110.19
566.08	1112.50
566.43	1110.12
566.78	1107.21
567.14	1106.63
567.49	1106.44
567.84	1102.44
568.19	1103.89
568.54	1105.62
568.90	1105.81
569.25	1104.26
569.60	1108.15
569.95	1108.17
570.31	1107.05
570.66	1103.63
571.01	1101.57
571.36	1098.98
571.71	1097.22
572.06	1098.67
572.42	1100.73
572.77	1100.64
573.12	1102.09
573.47	1099.54
573.82	1094.97
574.18	1091.74
574.53	1092.91
574.88	1091.98
575.23	1094.81
575.58	1099.47
575.93	1102.60
576.28	1101.06
576.64	1101.01
576.99	1100.19
577.34	1095.79
577.69	1095.00
578.04	1095.42
578.39	1094.48
578.74	1094.32
579.09	1096.42
579.44	1093.90
579.80	1095.86
580.15	1097.10
580.50	1094.39
580.85	1094.13
581.20	1097.20
581.55	1094.39
581.90	1093.01
582.25	1091.95
582.60	1094.86
582.95	1094.83
583.30	1094.18
583.65	1091.60
584.00	1093.43
584.35	1092.12
584.71	1089.89
585.06	1095.93
585.41	1096.07
585.76	1096.66
586.11	1094.48
586.46	1095.11
586.81	1087.25
587.16	1090.78
587.51	1088.30
587.86	1088.02
588.21	1084.32
588.56	1085.84
588.91	1084.37
589.26	1086.34
589.61	1086.43
589.96	1091.42
590.31	1091.86
590.66	1090.55
591.01	1090.39
591.36	1089.82
591.71	1087.88
592.06	1088.23
592.41	1089.29
592.76	1089.96
593.10	1089.26
593.45	1088.91
593.80	1090.71
594.15	1086.97
594.50	1086.78
594.85	1087.16
595.20	1086.52
595.55	1087.55
595.90	1093.36
596.25	1093.43
596.60	1092.33
596.95	1093.90
597.30	1088.82
597.64	1094.67
597.99	1093.83
598.34	1093.59
598.69	1089.66
599.04	1091.88
599.39	1081.96
599.74	1081.84
600.09	1082.38
600.44	1085.47
600.78	1082.01
601.13	1086.22
601.48	1088.47
601.83	1090.78
602.18	1090.85
602.53	1093.05
602.88	1090.62
603.22	1090.27
603.57	1090.20
603.92	1089.36
604.27	1090.17
604.62	1088.56
604.97	1086.64
605.31	1084.42
605.66	1083.53
606.01	1083.71
606.36	1085.70
606.71	1089.29
607.05	1090.22
607.40	1091.98
607.75	1090.83
608.10	1086.31
608.44	1082.73
608.79	1084.77
609.14	1084.25
609.49	1087.67
609.84	1090.17
610.18	1091.77
610.53	1091.04
610.88	1089.10
611.23	1086.64
611.57	1086.73
611.92	1085.66
612.27	1086.97
612.62	1091.60
612.96	1091.44
613.31	1091.18
613.66	1093.05
614.00	1093.36
614.35	1091.23
614.70	1091.06
615.05	1089.64
615.39	1084.16
615.74	1082.97
616.09	1083.55
616.43	1080.70
616.78	1084.04
617.13	1088.56
617.47	1086.15
617.82	1086.08
618.17	1088.26
618.51	1084.51
618.86	1081.73
619.21	1080.95
619.55	1082.22
619.90	1080.93
620.25	1082.94
620.59	1082.24
620.94	1085.66
621.29	1079.67
621.63	1082.50
621.98	1081.89
622.32	1082.97
622.67	1079.99
623.02	1086.13
623.36	1086.03
623.71	1086.36
624.05	1084.72
624.40	1084.96
624.75	1083.57
625.09	1082.19
625.44	1083.83
625.78	1085.28
626.13	1084.18
626.48	1083.46
626.82	1084.53
627.17	1083.22
627.51	1084.46
627.86	1086.13
628.20	1084.25
628.55	1082.01
628.89	1080.06
629.24	1078.43
629.58	1078.28
629.93	1078.89
630.28	1080.02
630.62	1083.55
630.97	1085.89
631.31	1083.34
631.66	1082.24
632.00	1082.57
632.35	1081.21
632.69	1080.56
633.04	1084.42
633.38	1083.18
633.73	1083.11
634.07	1084.60
634.42	1084.23
634.76	1085.21
635.11	1090.17
635.45	1090.85
635.79	1085.75
636.14	1086.48
636.48	1084.04
636.83	1083.95
637.17	1081.21
637.52	1084.28
637.86	1083.41
638.21	1085.26
638.55	1080.53
638.89	1083.04
639.24	1083.11
639.58	1078.64
639.93	1078.43
640.27	1081.66
640.61	1081.21
640.96	1081.58
641.30	1085.45
641.65	1084.72
641.99	1083.29
642.33	1083.04
642.68	1085.77
643.02	1082.85
643.37	1078.92
643.71	1079.76
644.05	1083.60
644.40	1079.48
644.74	1081.51
645.08	1084.46
645.43	1085.35
645.77	1081.91
646.11	1083.11
646.46	1084.51
646.80	1083.13
647.14	1081.23
647.49	1080.77
647.83	1080.98
648.17	1081.09
648.52	1083.79
648.86	1082.59
649.20	1082.80
649.55	1082.33
649.89	1081.75
650.23	1080.77
650.57	1083.27
650.92	1081.00
651.26	1084.72
651.60	1085.59
651.95	1083.22
652.29	1081.87
652.63	1082.33
652.97	1076.60
653.32	1074.47
653.66	1077.70
654.00	1077.04
654.34	1079.83
654.69	1081.84
655.03	1084.25
655.37	1083.93
655.71	1087.55
656.05	1083.41
656.40	1084.49
656.74	1081.12
657.08	1078.40
657.42	1073.86
657.76	1076.93
658.11	1074.84
658.45	1077.35
658.79	1080.56
659.13	1083.50
659.47	1083.43
659.82	1083.79
660.16	1082.64
660.50	1083.11
660.84	1079.15
661.18	1079.53
661.52	1079.01
661.87	1078.73
662.21	1078.14
662.55	1080.74
662.89	1077.44
663.23	1077.28
663.57	1080.74
663.91	1078.68
664.25	1078.87
664.60	1082.73
664.94	1082.38
665.28	1081.82
665.62	1083.95
665.96	1084.18
666.30	1083.15
666.64	1084.93
666.98	1082.76
667.32	1082.03
667.66	1081.37
668.01	1080.65
668.35	1082.59
668.69	1085.00
669.03	1085.77
669.37	1086.97
669.71	1087.72
670.05	1086.66
670.39	1083.93
670.73	1078.92
671.07	1076.46
671.41	1078.26
671.75	1078.57
672.09	1076.55
672.43	1080.60
672.77	1080.86
673.11	1080.44
673.45	1079.50
673.79	1080.81
674.13	1078.87
674.47	1077.23
674.81	1075.71
675.15	1074.94
675.49	1076.44
675.83	1077.68
676.17	1082.01
676.51	1078.99
676.85	1079.69
677.19	1078.80
677.53	1080.56
677.87	1079.71
678.21	1082.36
678.55	1082.03
678.89	1083.81
679.23	1083.36
679.57	1080.88
679.90	1079.53
680.24	1080.44
680.58	1080.16
680.92	1081.00
681.26	1081.14
681.60	1082.08
681.94	1078.57
682.28	1075.94
682.62	1071.92
682.96	1073.09
683.29	1074.31
683.63	1076.74
683.97	1081.82
684.31	1081.07
684.65	1083.76
684.99	1088.56
685.33	1089.45
685.67	1088.56
686.00	1092.42
686.34	1091.77
686.68	1088.51
687.02	1088.96
687.36	1083.95
687.70	1080.34
688.03	1076.30
688.37	1072.97
688.71	1071.87
689.05	1073.77
689.39	1073.32
689.72	1076.32
690.06	1078.87
690.40	1077.42
690.74	1076.88
691.08	1079.99
691.41	1080.67
691.75	1078.64
692.09	1080.79
692.43	1080.32
692.76	1081.68
693.10	1081.28
693.44	1080.72
693.78	1081.35
694.11	1082.08
694.45	1079.48
694.79	1075.66
695.13	1074.75
695.46	1071.61
695.80	1071.57
696.14	1073.35
696.48	1077.49
696.81	1080.09
697.15	1082.94
697.49	1083.69
697.82	1082.92
698.16	1081.61
698.50	1079.81
698.83	1079.22
699.17	1079.15
699.51	1078.43
699.84	1078.80
700.18	1074.94
700.52	1073.39
700.85	1069.77
701.19	1069.79
701.53	1070.19
701.86	1075.94
702.20	1074.05
702.54	1077.02
702.87	1078.24
703.21	1077.56
703.55	1077.79
703.88	1080.11
704.22	1080.95
704.55	1081.75
704.89	1080.16
705.23	1079.71
705.56	1081.91
705.90	1081.73
706.23	1075.29
706.57	1074.33
706.91	1072.25
707.24	1068.36
707.58	1066.16
707.91	1069.11
708.25	1072.32
708.58	1073.32
708.92	1076.46
709.26	1080.98
709.59	1084.16
709.93	1082.90
710.26	1082.57
710.60	1083.29
710.93	1080.37
711.27	1077.72
711.60	1077.49
711.94	1080.32
712.27	1081.37
712.61	1083.62
712.94	1084.91
713.28	1086.71
713.61	1085.91
713.95	1084.32
714.28	1084.42
714.62	1082.40
714.95	1081.68
715.29	1081.37
715.62	1079.41
715.96	1076.88
716.29	1079.13
716.63	1080.58
716.96	1080.13
717.29	1083.43
717.63	1084.79
717.96	1083.34
718.30	1085.28
718.63	1088.04
718.97	1088.00
719.30	1089.12
719.63	1090.39
719.97	1087.02
720.30	1086.43
720.64	1084.28
720.97	1081.66
721.30	1081.89
721.64	1082.08
721.97	1078.14
722.31	1079.88
722.64	1079.01
722.97	1078.40
723.31	1077.44
723.64	1078.24
723.97	1077.00
724.31	1081.63
724.64	1081.33
724.98	1083.01
725.31	1084.00
725.64	1082.73
725.98	1080.51
726.31	1081.87
726.64	1079.71
726.97	1076.81
727.31	1079.08
727.64	1079.22
727.97	1075.17
728.31	1075.17
728.64	1078.94
728.97	1075.90
729.31	1075.27
729.64	1077.63
729.97	1074.35
730.30	1075.31
730.64	1078.19
730.97	1077.30
731.30	1076.83
731.63	1082.01
731.97	1082.08
732.30	1082.59
732.63	1083.36
732.96	1082.31
733.30	1081.96
733.63	1079.74
733.96	1078.10
734.29	1077.86
734.63	1079.71
734.96	1079.38
735.29	1079.83
735.62	1077.70
735.95	1079.43
736.29	1078.36
736.62	1079.81
736.95	1078.94
737.28	1079.15
737.61	1078.19
737.94	1075.99
738.28	1073.21
738.61	1071.08
738.94	1071.31
739.27	1074.56
739.60	1076.76
739.93	1078.87
740.27	1084.04
740.60	1085.42
740.93	1080.39
741.26	1080.72
741.59	1082.36
741.92	1082.17
742.25	1083.60
742.58	1086.73
742.91	1085.77
743.25	1082.12
743.58	1080.63
743.91	1079.24
744.24	1077.63
744.57	1081.98
744.90	1082.85
745.23	1083.04
745.56	1083.27
745.89	1083.60
746.22	1082.73
746.55	1081.26
746.88	1080.13
747.21	1081.68
747.54	1080.46
747.87	1077.82
748.20	1078.75
748.53	1077.07
748.87	1075.36
749.20	1077.89
749.53	1080.39
749.86	1083.27
750.19	1085.99
750.52	1087.74
750.85	1087.60
751.18	1084.86
751.51	1084.46
751.84	1085.00
752.16	1083.86
752.49	1082.87
752.82	1083.36
753.15	1081.91
753.48	1081.87
753.81	1081.96
754.14	1084.02
754.47	1081.63
754.80	1079.13
755.13	1077.33
755.46	1075.83
755.79	1075.24
756.12	1080.30
756.45	1082.19
756.78	1081.75
757.11	1081.37
757.43	1077.35
757.76	1072.67
758.09	1071.22
758.42	1070.56
758.75	1071.82
759.08	1071.08
759.41	1074.17
759.74	1074.42
760.07	1076.79
760.39	1073.88
760.72	1076.34
761.05	1075.27
761.38	1076.34
761.71	1075.94
762.04	1077.58
762.36	1078.52
762.69	1078.45
763.02	1078.47
763.35	1077.33
763.68	1074.87
