SpectraSuite Data File
++++++++++++++++++++++++++++++++++++
Date: Mon Aug 26 10:22:34 PDT 2019
User: corrico
Dark Spectrum Present: No
Reference Spectrum Present: No
Number of Sampled Component Spectra: 1
Spectrometers: USB2+H06089
Integration Time (usec): 2000 (USB2+H06089)
Spectra Averaged: 20 (USB2+H06089)
Boxcar Smoothing: 2 (USB2+H06089)
Correct for Electrical Dark: No (USB2+H06089)
Strobe/Lamp Enabled: No (USB2+H06089)
Correct for Detector Non-linearity: No (USB2+H06089)
Correct for Stray Light: No (USB2+H06089)
Number of Pixels in Processed Spectrum: 2048
>>>>>Begin Processed Spectral Data<<<<<
339.70	1019.42
340.07	1019.42
340.45	987.82
340.82	967.32
341.19	947.43
341.57	924.56
341.94	912.86
342.31	904.97
342.69	898.46
343.06	895.35
343.43	894.46
343.81	898.25
344.18	904.36
344.55	909.30
344.93	912.88
345.30	920.77
345.67	924.00
346.04	927.39
346.42	940.75
346.79	951.45
347.16	955.92
347.54	965.71
347.91	976.82
348.28	980.52
348.65	987.28
349.03	998.10
349.40	1008.30
349.77	1016.94
350.14	1023.12
350.52	1030.54
350.89	1039.90
351.26	1046.59
351.63	1052.61
352.01	1059.72
352.38	1064.12
352.75	1065.06
353.12	1068.76
353.50	1069.18
353.87	1070.40
354.24	1073.88
354.61	1076.08
354.98	1076.30
355.36	1079.06
355.73	1082.22
356.10	1080.32
356.47	1077.65
356.84	1076.25
357.22	1075.78
357.59	1074.05
357.96	1074.68
358.33	1077.21
358.70	1078.85
359.08	1077.47
359.45	1080.04
359.82	1079.57
360.19	1078.82
360.56	1077.35
360.94	1080.88
361.31	1079.24
361.68	1082.59
362.05	1084.16
362.42	1081.84
362.79	1078.87
363.16	1076.76
363.54	1077.25
363.91	1074.07
364.28	1074.70
364.65	1076.58
365.02	1076.55
365.39	1072.41
365.76	1071.99
366.14	1071.80
366.51	1069.79
366.88	1069.60
367.25	1067.99
367.62	1071.78
367.99	1072.43
368.36	1070.65
368.73	1069.77
369.10	1071.01
369.48	1068.20
369.85	1068.27
370.22	1069.20
370.59	1070.30
370.96	1070.33
371.33	1068.78
371.70	1067.45
372.07	1067.85
372.44	1070.68
372.81	1070.49
373.18	1076.69
373.55	1079.71
373.93	1083.01
374.30	1084.37
374.67	1083.95
375.04	1079.64
375.41	1076.86
375.78	1074.28
376.15	1072.27
376.52	1074.66
376.89	1076.58
377.26	1079.01
377.63	1078.24
378.00	1074.61
378.37	1071.66
378.74	1072.13
379.11	1073.37
379.48	1074.19
379.85	1079.76
380.22	1082.66
380.59	1079.83
380.96	1079.34
381.33	1079.76
381.70	1077.91
382.07	1077.96
382.44	1080.65
382.81	1076.97
383.18	1077.86
383.55	1078.19
383.92	1080.53
384.29	1079.55
384.66	1081.70
385.03	1084.79
385.40	1086.80
385.77	1083.55
386.14	1084.04
386.51	1085.03
386.88	1080.06
387.25	1077.37
387.62	1077.86
387.99	1078.96
388.36	1079.76
388.73	1081.66
389.10	1081.16
389.46	1082.36
389.83	1083.11
390.20	1081.40
390.57	1080.79
390.94	1081.14
391.31	1079.31
391.68	1077.77
392.05	1079.24
392.42	1080.25
392.79	1079.03
393.16	1081.91
393.53	1082.85
393.89	1084.60
394.26	1083.81
394.63	1085.47
395.00	1082.50
395.37	1083.83
395.74	1083.53
396.11	1085.66
396.48	1085.94
396.84	1086.24
397.21	1087.27
397.58	1085.87
397.95	1084.11
398.32	1085.45
398.69	1087.88
399.06	1085.17
399.42	1085.07
399.79	1084.00
400.16	1083.57
400.53	1078.96
400.90	1079.99
401.27	1083.36
401.64	1086.34
402.00	1088.33
402.37	1091.70
402.74	1094.06
403.11	1093.29
403.48	1093.85
403.84	1091.91
404.21	1093.99
404.58	1095.49
404.95	1093.94
405.32	1092.56
405.68	1090.64
406.05	1090.27
406.42	1086.34
406.79	1086.62
407.16	1089.00
407.52	1094.39
407.89	1091.56
408.26	1090.92
408.63	1087.58
408.99	1085.82
409.36	1082.19
409.73	1086.29
410.10	1088.63
410.47	1092.75
410.83	1094.48
411.20	1096.17
411.57	1097.38
411.94	1095.30
412.30	1097.38
412.67	1099.28
413.04	1100.78
413.40	1096.73
413.77	1097.69
414.14	1094.06
414.51	1092.40
414.87	1090.24
415.24	1093.29
415.61	1097.06
415.97	1102.67
416.34	1106.44
416.71	1108.62
417.08	1106.68
417.44	1107.80
417.81	1108.08
418.18	1105.62
418.54	1108.01
418.91	1108.41
419.28	1108.78
419.64	1107.00
420.01	1105.79
420.38	1104.36
420.74	1108.06
421.11	1105.95
421.48	1109.55
421.84	1116.79
422.21	1122.40
422.58	1124.60
422.94	1129.21
423.31	1130.83
423.68	1129.68
424.04	1131.58
424.41	1136.21
424.77	1139.05
425.14	1140.64
425.51	1144.26
425.87	1147.66
426.24	1149.81
426.61	1154.28
426.97	1163.85
427.34	1172.70
427.70	1176.82
428.07	1186.25
428.44	1196.81
428.80	1202.66
429.17	1209.03
429.53	1219.54
429.90	1225.90
430.27	1229.23
430.63	1241.19
431.00	1252.47
431.36	1263.35
431.73	1273.86
432.09	1291.34
432.46	1303.00
432.83	1317.56
433.19	1332.12
433.56	1353.88
433.92	1373.61
434.29	1394.47
434.65	1418.62
435.02	1445.49
435.38	1471.26
435.75	1498.20
436.11	1530.62
436.48	1560.95
436.84	1595.75
437.21	1631.14
437.57	1667.70
437.94	1706.37
438.30	1747.19
438.67	1793.15
439.03	1844.25
439.40	1897.92
439.76	1953.60
440.13	2017.21
440.49	2085.46
440.86	2150.30
441.22	2222.64
441.59	2298.01
441.95	2381.42
442.32	2464.19
442.68	2556.87
443.05	2649.35
443.41	2750.13
443.78	2844.08
444.14	2948.02
444.51	3059.27
444.87	3194.81
445.24	3329.67
445.60	3483.04
445.96	3631.46
446.33	3803.53
446.69	3963.88
447.06	4143.43
447.42	4324.82
447.79	4520.18
448.15	4741.81
448.51	4976.07
448.88	5233.37
449.24	5477.84
449.61	5758.54
449.97	6023.93
450.33	6309.38
450.70	6577.07
451.06	6906.08
451.43	7217.14
451.79	7586.31
452.15	7985.44
452.52	8439.83
452.88	8910.70
453.24	9445.98
453.61	10034.41
453.97	10596.35
454.34	11142.42
454.70	11778.58
455.06	12416.42
455.43	13023.91
455.79	13612.81
456.15	14333.86
456.52	15012.52
456.88	15784.10
457.24	16523.25
457.61	17394.04
457.97	18155.35
458.33	18909.28
458.70	19681.92
459.06	20432.32
459.42	21258.03
459.79	22030.11
460.15	22958.10
460.51	23814.72
460.88	24735.25
461.24	25529.35
461.60	26489.48
461.96	27348.11
462.33	28169.96
462.69	28970.68
463.05	29826.31
463.42	30553.26
463.78	31198.36
464.14	31778.74
464.50	32396.08
464.87	32888.39
465.23	33241.11
465.59	33618.92
465.95	33921.36
466.32	34172.57
466.68	34422.45
467.04	34600.28
467.40	34711.90
467.77	34852.50
468.13	34832.18
468.49	34685.55
468.85	34564.49
469.22	34381.81
469.58	34031.27
469.94	33765.60
470.30	33463.39
470.66	33054.26
471.03	32453.12
471.39	32043.08
471.75	31373.83
472.11	30749.23
472.47	30352.77
472.84	30032.42
473.20	29546.67
473.56	29275.75
473.92	28850.85
474.28	28339.89
474.65	27877.54
475.01	27418.88
475.37	26859.54
475.73	26418.87
476.09	25895.45
476.45	25357.20
476.81	24833.20
477.18	24319.64
477.54	23857.43
477.90	23503.29
478.26	23096.76
478.62	22762.44
478.98	22467.11
479.34	22155.35
479.71	21757.83
480.07	21383.49
480.43	21004.18
480.79	20630.39
481.15	20280.27
481.51	19976.31
481.87	19747.66
482.23	19468.01
482.59	19196.56
482.96	18923.49
483.32	18619.36
483.68	18242.60
484.04	17912.73
484.40	17544.89
484.76	17166.66
485.12	16800.93
485.48	16497.73
485.84	16152.86
486.20	15806.76
486.56	15437.78
486.92	15143.55
487.28	14781.65
487.64	14417.79
488.00	14090.31
488.37	13758.70
488.73	13374.99
489.09	13010.22
489.45	12690.15
489.81	12366.50
490.17	12069.60
490.53	11777.65
490.89	11477.43
491.25	11175.80
491.61	10865.70
491.97	10555.51
492.33	10233.17
492.69	9950.16
493.05	9652.63
493.41	9366.82
493.77	9089.10
494.13	8846.90
494.49	8591.43
494.85	8357.42
495.21	8135.09
495.57	7927.84
495.93	7702.26
496.29	7504.25
496.64	7324.22
497.00	7139.27
497.36	6953.54
497.72	6785.19
498.08	6609.53
498.44	6428.33
498.80	6252.48
499.16	6081.91
499.52	5918.02
499.88	5778.53
500.24	5649.54
500.60	5530.90
500.96	5412.44
501.32	5297.45
501.68	5177.90
502.03	5051.55
502.39	4926.52
502.75	4794.63
503.11	4675.90
503.47	4549.63
503.83	4429.28
504.19	4308.53
504.55	4202.55
504.91	4094.11
505.26	3999.02
505.62	3913.26
505.98	3833.66
506.34	3742.52
506.70	3660.36
507.06	3579.83
507.42	3491.61
507.78	3404.22
508.13	3335.36
508.49	3263.03
508.85	3188.61
509.21	3124.54
509.57	3062.15
509.93	2988.33
510.28	2917.81
510.64	2859.88
511.00	2801.48
511.36	2740.91
511.72	2693.79
512.07	2650.52
512.43	2604.24
512.79	2551.09
513.15	2505.80
513.51	2457.98
513.86	2409.86
514.22	2361.81
514.58	2325.95
514.94	2291.01
515.30	2253.07
515.65	2215.06
516.01	2187.58
516.37	2155.80
516.73	2120.92
517.08	2096.07
517.44	2067.77
517.80	2033.76
518.16	2003.64
518.51	1979.79
518.87	1949.99
519.23	1923.62
519.59	1899.06
519.94	1872.41
520.30	1846.66
520.66	1823.00
521.01	1804.86
521.37	1786.91
521.73	1767.50
522.09	1746.02
522.44	1730.87
522.80	1709.25
523.16	1688.95
523.51	1668.73
523.87	1651.69
524.23	1627.00
524.58	1607.67
524.94	1590.11
525.30	1576.35
525.65	1559.15
526.01	1547.80
526.37	1535.09
526.72	1521.14
527.08	1505.71
527.44	1493.19
527.79	1477.79
528.15	1462.93
528.51	1446.12
528.86	1436.95
529.22	1427.87
529.58	1418.06
529.93	1407.76
530.29	1398.68
530.65	1383.77
531.00	1372.51
531.36	1360.65
531.71	1352.55
532.07	1345.71
532.43	1339.61
532.78	1332.26
533.14	1328.82
533.49	1320.79
533.85	1317.30
534.21	1309.72
534.56	1301.95
534.92	1294.41
535.27	1289.68
535.63	1280.62
535.98	1277.63
536.34	1270.61
536.69	1268.08
537.05	1265.48
537.41	1259.96
537.76	1251.88
538.12	1248.77
538.47	1242.40
538.83	1237.89
539.18	1232.85
539.54	1231.66
539.89	1227.54
540.25	1224.12
540.60	1218.97
540.96	1218.25
541.31	1212.77
541.67	1210.48
542.02	1209.10
542.38	1204.49
542.73	1203.76
543.09	1200.69
543.44	1199.01
543.80	1193.65
544.15	1194.23
544.51	1186.91
544.86	1184.38
545.22	1183.02
545.57	1181.95
545.93	1180.94
546.28	1182.56
546.64	1180.24
546.99	1172.09
547.35	1167.46
547.70	1161.63
548.05	1158.26
548.41	1157.09
548.76	1157.77
549.12	1155.10
549.47	1154.91
549.83	1153.49
550.18	1152.60
550.53	1152.36
550.89	1151.87
551.24	1148.57
551.60	1146.70
551.95	1143.12
552.30	1141.06
552.66	1138.46
553.01	1139.42
553.37	1135.89
553.72	1137.64
554.07	1137.83
554.43	1139.72
554.78	1137.90
555.13	1133.69
555.49	1130.88
555.84	1126.71
556.19	1121.63
556.55	1117.07
556.90	1119.17
557.26	1119.60
557.61	1120.51
557.96	1122.80
558.32	1123.97
558.67	1123.11
559.02	1119.50
559.37	1116.79
559.73	1112.78
560.08	1112.11
560.43	1111.38
560.79	1109.58
561.14	1110.96
561.49	1112.67
561.85	1113.77
562.20	1115.64
562.55	1115.97
562.90	1114.91
563.26	1114.07
563.61	1112.20
563.96	1109.44
564.32	1109.98
564.67	1108.29
565.02	1105.90
565.37	1103.98
565.73	1102.86
566.08	1103.12
566.43	1103.26
566.78	1106.84
567.14	1109.60
567.49	1107.07
567.84	1106.25
568.19	1102.67
568.54	1099.54
568.90	1094.41
569.25	1095.09
569.60	1094.67
569.95	1099.75
570.31	1100.43
570.66	1102.21
571.01	1100.71
571.36	1098.88
571.71	1094.69
572.06	1091.84
572.42	1090.69
572.77	1091.51
573.12	1090.41
573.47	1090.17
573.82	1091.46
574.18	1093.80
574.53	1096.21
574.88	1099.35
575.23	1101.22
575.58	1099.56
575.93	1095.58
576.28	1094.15
576.64	1091.79
576.99	1089.66
577.34	1091.37
577.69	1089.64
578.04	1088.58
578.39	1086.71
578.74	1087.46
579.09	1086.62
579.44	1089.82
579.80	1091.20
580.15	1091.37
580.50	1089.89
580.85	1089.14
581.20	1088.70
581.55	1085.61
581.90	1085.99
582.25	1084.02
582.60	1082.38
582.95	1085.05
583.30	1086.45
583.65	1085.87
584.00	1087.97
584.35	1088.26
584.71	1085.00
585.06	1086.62
585.41	1089.52
585.76	1090.46
586.11	1091.09
586.46	1089.19
586.81	1088.63
587.16	1086.50
587.51	1086.57
587.86	1088.58
588.21	1089.17
588.56	1089.26
588.91	1089.87
589.26	1088.35
589.61	1086.76
589.96	1087.72
590.31	1087.18
590.66	1086.90
591.01	1087.44
591.36	1088.47
591.71	1088.56
592.06	1087.69
592.41	1090.46
592.76	1089.92
593.10	1090.22
593.45	1093.10
593.80	1094.93
594.15	1094.57
594.50	1096.59
594.85	1095.72
595.20	1094.32
595.55	1091.74
595.90	1086.22
596.25	1084.86
596.60	1082.92
596.95	1081.56
597.30	1081.00
597.64	1096.10
597.99	1095.00
598.34	1092.89
598.69	1090.55
599.04	1093.62
599.39	1085.07
599.74	1085.14
600.09	1088.54
600.44	1090.99
600.78	1090.22
601.13	1088.37
601.48	1088.72
601.83	1089.43
602.18	1088.49
602.53	1084.39
602.88	1080.63
603.22	1080.86
603.57	1076.60
603.92	1072.85
604.27	1074.59
604.62	1075.48
604.97	1077.04
605.31	1079.24
605.66	1081.87
606.01	1080.25
606.36	1080.37
606.71	1079.38
607.05	1077.33
607.40	1079.50
607.75	1082.15
608.10	1080.81
608.44	1081.07
608.79	1083.29
609.14	1083.53
609.49	1084.46
609.84	1085.68
610.18	1083.74
610.53	1086.57
610.88	1085.17
611.23	1086.45
611.57	1089.24
611.92	1090.06
612.27	1088.40
612.62	1090.29
612.96	1088.84
613.31	1086.59
613.66	1085.03
614.00	1086.76
614.35	1085.38
614.70	1086.27
615.05	1084.18
615.39	1085.24
615.74	1082.78
616.09	1082.19
616.43	1078.66
616.78	1083.76
617.13	1085.63
617.47	1085.59
617.82	1084.89
618.17	1084.72
618.51	1083.25
618.86	1080.81
619.21	1081.23
619.55	1083.29
619.90	1083.79
620.25	1083.71
620.59	1086.78
620.94	1085.75
621.29	1084.16
621.63	1084.49
621.98	1083.25
622.32	1082.03
622.67	1082.97
623.02	1086.59
623.36	1088.72
623.71	1088.72
624.05	1090.48
624.40	1091.30
624.75	1088.28
625.09	1087.16
625.44	1087.90
625.78	1083.57
626.13	1084.09
626.48	1087.41
626.82	1086.92
627.17	1086.20
627.51	1087.30
627.86	1087.41
628.20	1086.06
628.55	1088.47
628.89	1088.98
629.24	1090.74
629.58	1088.70
629.93	1087.41
630.28	1083.04
630.62	1082.31
630.97	1078.94
631.31	1078.21
631.66	1078.61
632.00	1081.61
632.35	1082.33
632.69	1084.93
633.04	1083.93
633.38	1084.07
633.73	1085.70
634.07	1083.95
634.42	1084.77
634.76	1086.52
635.11	1086.38
635.45	1085.19
635.79	1086.17
636.14	1080.74
636.48	1080.32
636.83	1080.13
637.17	1079.62
637.52	1079.03
637.86	1084.18
638.21	1083.67
638.55	1081.23
638.89	1079.43
639.24	1078.80
639.58	1077.61
639.93	1079.62
640.27	1079.22
640.61	1078.40
640.96	1078.89
641.30	1077.16
641.65	1074.82
641.99	1077.16
642.33	1075.80
642.68	1074.54
643.02	1075.29
643.37	1077.28
643.71	1076.67
644.05	1079.38
644.40	1081.07
644.74	1082.64
645.08	1086.48
645.43	1086.36
645.77	1088.54
646.11	1090.67
646.46	1091.23
646.80	1087.79
647.14	1087.81
647.49	1086.45
647.83	1083.60
648.17	1083.57
648.52	1083.62
648.86	1086.10
649.20	1086.43
649.55	1089.05
649.89	1090.36
650.23	1089.57
650.57	1084.93
650.92	1084.21
651.26	1082.73
651.60	1077.96
651.95	1077.79
652.29	1078.92
652.63	1077.35
652.97	1079.13
653.32	1080.63
653.66	1083.04
654.00	1082.26
654.34	1083.67
654.69	1081.49
655.03	1080.88
655.37	1079.22
655.71	1080.63
656.05	1081.80
656.40	1081.47
656.74	1084.60
657.08	1084.89
657.42	1085.82
657.76	1082.78
658.11	1082.85
658.45	1080.77
658.79	1080.53
659.13	1080.88
659.47	1085.38
659.82	1087.11
660.16	1087.11
660.50	1085.80
660.84	1085.52
661.18	1085.56
661.52	1084.39
661.87	1087.32
662.21	1087.65
662.55	1087.27
662.89	1084.53
663.23	1087.74
663.57	1084.25
663.91	1083.32
664.25	1083.53
664.60	1084.37
664.94	1080.56
665.28	1078.57
665.62	1078.59
665.96	1077.47
666.30	1074.84
666.64	1074.14
666.98	1078.92
667.32	1080.74
667.66	1083.60
668.01	1088.21
668.35	1088.26
668.69	1085.91
669.03	1085.68
669.37	1086.59
669.71	1084.18
670.05	1085.26
670.39	1081.94
670.73	1079.38
671.07	1074.82
671.41	1070.51
671.75	1069.77
672.09	1074.21
672.43	1075.01
672.77	1077.47
673.11	1081.37
673.45	1081.37
673.79	1082.22
674.13	1082.71
674.47	1080.93
674.81	1081.73
675.15	1081.51
675.49	1079.20
675.83	1082.64
676.17	1082.80
676.51	1084.11
676.85	1083.93
677.19	1081.84
677.53	1080.65
677.87	1082.43
678.21	1079.99
678.55	1082.90
678.89	1083.04
679.23	1082.47
679.57	1084.04
679.90	1084.63
680.24	1083.01
680.58	1084.18
680.92	1083.93
681.26	1080.88
681.60	1079.01
681.94	1079.29
682.28	1079.57
682.62	1075.85
682.96	1072.76
683.29	1072.81
683.63	1068.97
683.97	1073.56
684.31	1079.31
684.65	1084.84
684.99	1086.73
685.33	1089.00
685.67	1087.83
686.00	1084.25
686.34	1082.01
686.68	1080.84
687.02	1080.34
687.36	1076.32
687.70	1077.14
688.03	1071.94
688.37	1071.92
688.71	1072.04
689.05	1071.78
689.39	1068.71
689.72	1075.52
690.06	1076.72
690.40	1078.94
690.74	1079.55
691.08	1081.30
691.41	1079.34
691.75	1078.17
692.09	1077.79
692.43	1077.21
692.76	1079.53
693.10	1079.55
693.44	1079.85
693.78	1078.50
694.11	1079.03
694.45	1076.41
694.79	1072.78
695.13	1070.35
695.46	1071.05
695.80	1071.38
696.14	1072.08
696.48	1075.66
696.81	1078.45
697.15	1082.83
697.49	1082.57
697.82	1082.22
698.16	1084.96
698.50	1087.09
698.83	1083.50
699.17	1083.06
699.51	1086.27
699.84	1083.62
700.18	1080.18
700.52	1077.84
700.85	1081.42
701.19	1079.69
701.53	1080.95
701.86	1081.98
702.20	1080.95
702.54	1081.75
702.87	1080.32
703.21	1077.54
703.55	1077.61
703.88	1078.54
704.22	1079.62
704.55	1077.79
704.89	1078.92
705.23	1078.92
705.56	1078.21
705.90	1075.55
706.23	1075.85
706.57	1075.41
706.91	1074.66
707.24	1078.19
707.58	1078.87
707.91	1081.33
708.25	1079.90
708.58	1082.19
708.92	1083.41
709.26	1082.97
709.59	1081.58
709.93	1082.22
710.26	1082.38
710.60	1078.40
710.93	1076.13
711.27	1076.08
711.60	1078.94
711.94	1079.38
712.27	1082.33
712.61	1083.15
712.94	1084.70
713.28	1081.44
713.61	1077.61
713.95	1075.83
714.28	1079.08
714.62	1078.78
714.95	1083.41
715.29	1083.43
715.62	1083.32
715.96	1079.85
716.29	1080.77
716.63	1074.56
716.96	1075.38
717.29	1075.76
717.63	1074.42
717.96	1073.37
718.30	1077.98
718.63	1079.48
718.97	1080.18
719.30	1078.73
719.63	1081.73
719.97	1080.20
720.30	1083.81
720.64	1081.49
720.97	1085.70
721.30	1084.04
721.64	1084.53
721.97	1082.17
722.31	1083.46
722.64	1083.08
722.97	1082.03
723.31	1080.58
723.64	1076.81
723.97	1076.95
724.31	1075.97
724.64	1074.80
724.98	1076.55
725.31	1081.42
725.64	1081.42
725.98	1082.92
726.31	1085.80
726.64	1085.77
726.97	1085.73
727.31	1088.04
727.64	1084.67
727.97	1082.33
728.31	1083.41
728.64	1080.77
728.97	1075.85
729.31	1078.82
729.64	1079.36
729.97	1077.02
730.30	1077.40
730.64	1076.90
730.97	1077.00
731.30	1077.16
731.63	1077.47
731.97	1076.08
732.30	1078.26
732.63	1079.03
732.96	1079.74
733.30	1080.53
733.63	1081.44
733.96	1081.23
734.29	1081.96
734.63	1082.43
734.96	1081.82
735.29	1081.21
735.62	1078.82
735.95	1074.03
736.29	1070.30
736.62	1070.54
736.95	1070.47
737.28	1073.86
737.61	1076.51
737.94	1081.66
738.28	1083.29
738.61	1085.33
738.94	1084.28
739.27	1083.50
739.60	1078.07
739.93	1077.23
740.27	1075.38
740.60	1074.91
740.93	1074.96
741.26	1079.29
741.59	1079.90
741.92	1080.98
742.25	1080.84
742.58	1079.24
742.91	1079.85
743.25	1080.65
743.58	1080.25
743.91	1083.76
744.24	1084.07
744.57	1081.28
744.90	1079.41
745.23	1079.17
745.56	1077.23
745.89	1078.38
746.22	1077.35
746.55	1075.15
746.88	1073.07
747.21	1072.85
747.54	1076.32
747.87	1077.91
748.20	1082.73
748.53	1082.52
748.87	1082.59
749.20	1077.79
749.53	1076.48
749.86	1072.62
750.19	1074.54
750.52	1075.24
750.85	1078.99
751.18	1079.22
751.51	1078.89
751.84	1079.92
752.16	1080.53
752.49	1079.92
752.82	1081.75
753.15	1082.26
753.48	1081.07
753.81	1078.96
754.14	1077.61
754.47	1077.86
754.80	1075.05
755.13	1073.60
755.46	1073.14
755.79	1073.32
756.12	1072.36
756.45	1074.33
756.78	1075.57
757.11	1075.87
757.43	1077.23
757.76	1077.96
758.09	1078.12
758.42	1077.58
758.75	1075.64
759.08	1075.31
759.41	1073.79
759.74	1074.54
760.07	1076.79
760.39	1078.82
760.72	1076.76
761.05	1079.24
761.38	1081.84
761.71	1080.70
762.04	1078.64
762.36	1078.87
762.69	1076.72
763.02	1072.06
763.35	1071.59
763.68	1076.60
764.01	1077.86
