SpectraSuite Data File
++++++++++++++++++++++++++++++++++++
Date: Mon Aug 26 10:22:25 PDT 2019
User: corrico
Dark Spectrum Present: No
Reference Spectrum Present: No
Number of Sampled Component Spectra: 1
Spectrometers: USB2+H06089
Integration Time (usec): 2000 (USB2+H06089)
Spectra Averaged: 20 (USB2+H06089)
Boxcar Smoothing: 2 (USB2+H06089)
Correct for Electrical Dark: No (USB2+H06089)
Strobe/Lamp Enabled: No (USB2+H06089)
Correct for Detector Non-linearity: No (USB2+H06089)
Correct for Stray Light: No (USB2+H06089)
Number of Pixels in Processed Spectrum: 2048
>>>>>Begin Processed Spectral Data<<<<<
339.70	1020.94
340.07	1020.94
340.45	994.77
340.82	976.61
341.19	952.81
341.57	929.89
341.94	916.41
342.31	907.54
342.69	898.65
343.06	901.06
343.43	900.83
343.81	902.00
344.18	901.04
344.55	905.93
344.93	906.68
345.30	908.92
345.67	914.35
346.04	928.26
346.42	935.00
346.79	945.67
347.16	957.91
347.54	969.08
347.91	978.34
348.28	990.56
348.65	998.33
349.03	1006.48
349.40	1012.82
349.77	1019.56
350.14	1026.40
350.52	1034.21
350.89	1041.30
351.26	1047.27
351.63	1052.09
352.01	1058.86
352.38	1062.91
352.75	1064.36
353.12	1070.28
353.50	1072.55
353.87	1071.29
354.24	1074.26
354.61	1077.21
354.98	1075.31
355.36	1075.31
355.73	1078.31
356.10	1078.31
356.47	1076.53
356.84	1078.64
357.22	1078.64
357.59	1078.92
357.96	1079.01
358.33	1085.19
358.70	1084.96
359.08	1089.31
359.45	1091.34
359.82	1090.08
360.19	1085.63
360.56	1084.56
360.94	1082.87
361.31	1079.48
361.68	1081.16
362.05	1082.36
362.42	1080.74
362.79	1080.67
363.16	1080.58
363.54	1076.67
363.91	1076.48
364.28	1075.17
364.65	1072.08
365.02	1071.03
365.39	1074.17
365.76	1075.43
366.14	1074.19
366.51	1072.08
366.88	1069.25
367.25	1068.10
367.62	1063.84
367.99	1068.62
368.36	1070.91
368.73	1073.51
369.10	1070.87
369.48	1072.32
369.85	1069.04
370.22	1069.95
370.59	1068.01
370.96	1068.85
371.33	1069.18
371.70	1067.38
372.07	1069.18
372.44	1070.49
372.81	1072.32
373.18	1072.53
373.55	1075.48
373.93	1074.40
374.30	1076.46
374.67	1075.83
375.04	1075.73
375.41	1077.96
375.78	1078.45
376.15	1081.70
376.52	1082.78
376.89	1083.46
377.26	1082.17
377.63	1083.08
378.00	1079.03
378.37	1078.33
378.74	1077.44
379.11	1075.78
379.48	1072.29
379.85	1073.18
380.22	1071.36
380.59	1073.07
380.96	1074.84
381.33	1075.08
381.70	1072.60
382.07	1072.43
382.44	1070.49
382.81	1068.57
383.18	1071.52
383.55	1074.98
383.92	1078.85
384.29	1079.08
384.66	1081.51
385.03	1080.13
385.40	1079.71
385.77	1082.01
386.14	1084.84
386.51	1087.25
386.88	1090.81
387.25	1090.74
387.62	1087.27
387.99	1087.44
388.36	1087.30
388.73	1084.86
389.10	1085.49
389.46	1087.97
389.83	1085.96
390.20	1085.99
390.57	1084.56
390.94	1084.89
391.31	1086.92
391.68	1085.49
392.05	1084.21
392.42	1087.02
392.79	1085.63
393.16	1083.64
393.53	1089.17
393.89	1087.67
394.26	1087.32
394.63	1088.79
395.00	1089.68
395.37	1085.28
395.74	1087.74
396.11	1085.47
396.48	1087.65
396.84	1085.94
397.21	1088.19
397.58	1087.86
397.95	1091.63
398.32	1090.78
398.69	1091.46
399.06	1089.31
399.42	1088.56
399.79	1086.66
400.16	1086.29
400.53	1087.65
400.90	1089.59
401.27	1091.72
401.64	1092.77
402.00	1092.14
402.37	1091.95
402.74	1091.30
403.11	1091.53
403.48	1093.15
403.84	1093.26
404.21	1094.15
404.58	1095.37
404.95	1092.59
405.32	1090.95
405.68	1093.66
406.05	1091.60
406.42	1094.06
406.79	1097.57
407.16	1100.03
407.52	1101.67
407.89	1103.59
408.26	1103.00
408.63	1102.28
408.99	1101.18
409.36	1097.27
409.73	1097.52
410.10	1095.79
410.47	1097.85
410.83	1097.38
411.20	1099.75
411.57	1097.17
411.94	1102.44
412.30	1097.62
412.67	1098.06
413.04	1093.38
413.40	1095.98
413.77	1092.91
414.14	1094.76
414.51	1095.11
414.87	1098.90
415.24	1100.40
415.61	1101.48
415.97	1102.13
416.34	1102.32
416.71	1105.01
417.08	1104.83
417.44	1105.44
417.81	1110.07
418.18	1112.88
418.54	1111.73
418.91	1113.49
419.28	1111.47
419.64	1111.03
420.01	1109.13
420.38	1112.67
420.74	1114.14
421.11	1118.52
421.48	1119.36
421.84	1125.19
422.21	1126.29
422.58	1124.74
422.94	1127.72
423.31	1129.99
423.68	1132.54
424.04	1134.36
424.41	1137.59
424.77	1139.37
425.14	1146.70
425.51	1147.49
425.87	1153.11
426.24	1161.84
426.61	1165.38
426.97	1167.46
427.34	1175.21
427.70	1181.88
428.07	1185.67
428.44	1191.17
428.80	1195.80
429.17	1202.78
429.53	1208.44
429.90	1219.02
430.27	1231.66
430.63	1242.10
431.00	1252.21
431.36	1265.53
431.73	1274.47
432.09	1288.28
432.46	1305.39
432.83	1320.58
433.19	1333.59
433.56	1351.85
433.92	1368.23
434.29	1385.11
434.65	1409.61
435.02	1437.72
435.38	1464.57
435.75	1493.38
436.11	1523.95
436.48	1551.80
436.84	1585.13
437.21	1621.29
437.57	1658.15
437.94	1702.62
438.30	1748.45
438.67	1791.98
439.03	1841.25
439.40	1898.10
439.76	1952.92
440.13	2011.67
440.49	2077.97
440.86	2141.82
441.22	2208.72
441.59	2279.63
441.95	2361.90
442.32	2445.09
442.68	2543.04
443.05	2638.79
443.41	2741.24
443.78	2843.31
444.14	2951.37
444.51	3059.38
444.87	3200.78
445.24	3334.65
445.60	3484.45
445.96	3635.44
446.33	3809.41
446.69	3970.44
447.06	4150.47
447.42	4329.71
447.79	4518.92
448.15	4737.71
448.51	4965.38
448.88	5230.82
449.24	5479.85
449.61	5767.62
449.97	6037.37
450.33	6311.65
450.70	6567.08
451.06	6881.34
451.43	7182.00
451.79	7545.47
452.15	7946.10
452.52	8384.66
452.88	8849.40
453.24	9375.32
453.61	9937.05
453.97	10497.65
454.34	11043.35
454.70	11679.98
455.06	12318.87
455.43	12939.02
455.79	13535.13
456.15	14248.99
456.52	14909.49
456.88	15673.73
457.24	16403.36
457.61	17249.87
457.97	18022.55
458.33	18782.57
458.70	19543.75
459.06	20297.97
459.42	21127.95
459.79	21897.09
460.15	22806.84
460.51	23671.90
460.88	24599.15
461.24	25381.89
461.60	26332.92
461.96	27208.19
462.33	28036.65
462.69	28799.22
463.05	29652.64
463.42	30380.62
463.78	31010.18
464.14	31528.23
464.50	32116.81
464.87	32577.87
465.23	32917.43
465.59	33267.09
465.95	33593.29
466.32	33855.83
466.68	34080.68
467.04	34231.88
467.40	34363.98
467.77	34516.54
468.13	34508.93
468.49	34440.28
468.85	34353.66
469.22	34207.40
469.58	33867.39
469.94	33619.95
470.30	33290.73
470.66	32878.21
471.03	32281.58
471.39	31906.86
471.75	31280.56
472.11	30692.24
472.47	30338.89
472.84	30033.96
473.20	29552.80
473.56	29271.93
473.92	28847.83
474.28	28322.99
474.65	27823.33
475.01	27330.55
475.37	26770.95
475.73	26302.52
476.09	25784.28
476.45	25257.28
476.81	24754.89
477.18	24232.85
477.54	23792.27
477.90	23443.44
478.26	23040.87
478.62	22707.85
478.98	22411.96
479.34	22105.82
479.71	21699.13
480.07	21368.32
480.43	21006.73
480.79	20624.15
481.15	20276.76
481.51	19957.96
481.87	19693.38
482.23	19395.67
482.59	19151.06
482.96	18860.11
483.32	18574.40
483.68	18189.78
484.04	17861.70
484.40	17494.26
484.76	17128.44
485.12	16752.67
485.48	16449.12
485.84	16091.96
486.20	15753.77
486.56	15391.53
486.92	15094.86
487.28	14744.88
487.64	14397.06
488.00	14049.70
488.37	13722.05
488.73	13356.83
489.09	13004.04
489.45	12699.86
489.81	12384.03
490.17	12097.53
490.53	11812.03
490.89	11516.61
491.25	11208.52
491.61	10907.53
491.97	10582.10
492.33	10257.66
492.69	9969.11
493.05	9669.15
493.41	9373.56
493.77	9094.36
494.13	8843.55
494.49	8578.11
494.85	8339.14
495.21	8116.84
495.57	7910.14
495.93	7700.34
496.29	7504.27
496.64	7330.63
497.00	7137.86
497.36	6944.77
497.72	6757.78
498.08	6576.84
498.44	6385.82
498.80	6229.57
499.16	6067.70
499.52	5913.62
499.88	5797.48
500.24	5681.25
500.60	5551.87
500.96	5445.19
501.32	5332.02
501.68	5199.64
502.03	5065.50
502.39	4944.64
502.75	4801.70
503.11	4674.71
503.47	4553.00
503.83	4441.96
504.19	4324.44
504.55	4224.50
504.91	4130.74
505.26	4042.20
505.62	3952.25
505.98	3867.24
506.34	3774.72
506.70	3681.38
507.06	3591.11
507.42	3504.23
507.78	3421.00
508.13	3352.33
508.49	3277.69
508.85	3208.99
509.21	3134.14
509.57	3069.64
509.93	3002.09
510.28	2937.70
510.64	2869.52
511.00	2811.47
511.36	2751.02
511.72	2690.84
512.07	2642.14
512.43	2595.68
512.79	2545.54
513.15	2502.73
513.51	2459.29
513.86	2413.63
514.22	2371.92
514.58	2330.87
514.94	2290.85
515.30	2253.96
515.65	2225.85
516.01	2192.43
516.37	2160.64
516.73	2130.92
517.08	2106.95
517.44	2070.70
517.80	2041.42
518.16	2017.61
518.51	1990.72
518.87	1960.90
519.23	1938.31
519.59	1915.14
519.94	1890.47
520.30	1866.34
520.66	1840.43
521.01	1812.25
521.37	1789.01
521.73	1767.08
522.09	1745.78
522.44	1727.39
522.80	1705.85
523.16	1685.47
523.51	1663.16
523.87	1644.11
524.23	1624.85
524.58	1609.35
524.94	1590.35
525.30	1572.77
525.65	1557.95
526.01	1542.58
526.37	1529.03
526.72	1518.80
527.08	1508.48
527.44	1492.84
527.79	1481.28
528.15	1471.24
528.51	1456.61
528.86	1443.92
529.22	1430.63
529.58	1418.95
529.93	1405.75
530.29	1397.53
530.65	1388.17
531.00	1380.28
531.36	1371.39
531.71	1362.19
532.07	1351.99
532.43	1341.10
532.78	1334.29
533.14	1324.25
533.49	1314.87
533.85	1310.89
534.21	1306.77
534.56	1301.29
534.92	1297.20
535.27	1293.80
535.63	1286.26
535.98	1281.44
536.34	1274.87
536.69	1269.88
537.05	1261.83
537.41	1259.91
537.76	1252.19
538.12	1245.16
538.47	1242.96
538.83	1239.64
539.18	1234.16
539.54	1227.68
539.89	1227.94
540.25	1221.20
540.60	1220.59
540.96	1213.85
541.31	1215.07
541.67	1207.67
542.02	1206.97
542.38	1202.75
542.73	1201.16
543.09	1199.29
543.44	1197.35
543.80	1194.54
544.15	1189.58
544.51	1186.75
544.86	1184.97
545.22	1182.46
545.57	1178.65
545.93	1180.40
546.28	1179.82
546.64	1176.52
546.99	1175.77
547.35	1173.29
547.70	1170.50
548.05	1165.63
548.41	1161.26
548.76	1159.43
549.12	1157.02
549.47	1150.51
549.83	1150.19
550.18	1148.43
550.53	1142.72
550.89	1142.86
551.24	1144.64
551.60	1138.69
551.95	1139.21
552.30	1142.67
552.66	1141.74
553.01	1139.75
553.37	1139.19
553.72	1136.96
554.07	1132.56
554.43	1129.82
554.78	1130.34
555.13	1131.74
555.49	1129.80
555.84	1133.92
556.19	1135.28
556.55	1132.30
556.90	1133.54
557.26	1134.50
557.61	1128.79
557.96	1125.87
558.32	1126.01
558.67	1123.83
559.02	1120.77
559.37	1121.28
559.73	1120.65
560.08	1118.31
560.43	1116.01
560.79	1113.86
561.14	1113.02
561.49	1111.19
561.85	1110.00
562.20	1106.86
562.55	1107.68
562.90	1107.42
563.26	1107.19
563.61	1109.65
563.96	1112.97
564.32	1114.17
564.67	1113.35
565.02	1112.69
565.37	1107.26
565.73	1106.82
566.08	1107.89
566.43	1107.75
566.78	1107.35
567.14	1112.25
567.49	1112.78
567.84	1108.38
568.19	1108.20
568.54	1106.39
568.90	1103.94
569.25	1101.62
569.60	1101.43
569.95	1103.23
570.31	1103.87
570.66	1105.04
571.01	1106.79
571.36	1107.28
571.71	1104.26
572.06	1104.12
572.42	1103.00
572.77	1101.92
573.12	1102.95
573.47	1103.16
573.82	1104.15
574.18	1104.50
574.53	1103.14
574.88	1106.58
575.23	1104.87
575.58	1103.26
575.93	1098.58
576.28	1099.28
576.64	1090.76
576.99	1087.58
577.34	1085.70
577.69	1088.75
578.04	1086.64
578.39	1088.54
578.74	1090.81
579.09	1091.72
579.44	1091.30
579.80	1092.12
580.15	1092.02
580.50	1092.21
580.85	1093.15
581.20	1091.39
581.55	1091.04
581.90	1093.05
582.25	1092.80
582.60	1090.20
582.95	1093.40
583.30	1092.98
583.65	1094.13
584.00	1096.87
584.35	1100.75
584.71	1099.96
585.06	1098.32
585.41	1098.41
585.76	1096.42
586.11	1091.67
586.46	1087.51
586.81	1088.42
587.16	1087.46
587.51	1086.87
587.86	1087.44
588.21	1089.99
588.56	1088.47
588.91	1085.45
589.26	1085.05
589.61	1083.79
589.96	1083.50
590.31	1084.23
590.66	1087.02
591.01	1086.71
591.36	1090.97
591.71	1091.53
592.06	1096.00
592.41	1096.10
592.76	1096.82
593.10	1093.69
593.45	1093.45
593.80	1092.09
594.15	1086.94
594.50	1087.62
594.85	1089.45
595.20	1087.58
595.55	1084.53
595.90	1087.39
596.25	1085.68
596.60	1082.83
596.95	1080.48
597.30	1082.78
597.64	1093.40
597.99	1096.26
598.34	1096.68
598.69	1098.30
599.04	1096.03
599.39	1084.96
599.74	1081.73
600.09	1085.05
600.44	1085.80
600.78	1086.57
601.13	1089.96
601.48	1090.60
601.83	1088.37
602.18	1088.19
602.53	1088.89
602.88	1084.98
603.22	1083.71
603.57	1083.88
603.92	1086.31
604.27	1087.18
604.62	1088.65
604.97	1088.51
605.31	1087.44
605.66	1087.09
606.01	1085.80
606.36	1082.90
606.71	1082.59
607.05	1085.33
607.40	1083.20
607.75	1081.30
608.10	1081.63
608.44	1083.39
608.79	1078.24
609.14	1078.21
609.49	1076.86
609.84	1077.51
610.18	1077.68
610.53	1082.54
610.88	1082.92
611.23	1086.24
611.57	1088.70
611.92	1088.49
612.27	1088.02
612.62	1091.27
612.96	1088.63
613.31	1086.50
613.66	1084.65
614.00	1084.51
614.35	1079.69
614.70	1079.83
615.05	1082.29
615.39	1083.46
615.74	1085.63
616.09	1085.28
616.43	1083.64
616.78	1080.77
617.13	1080.77
617.47	1078.17
617.82	1082.66
618.17	1082.22
618.51	1085.33
618.86	1086.78
619.21	1087.09
619.55	1086.08
619.90	1088.40
620.25	1086.50
620.59	1083.25
620.94	1078.73
621.29	1079.43
621.63	1080.02
621.98	1081.12
622.32	1080.13
622.67	1082.92
623.02	1078.00
623.36	1077.89
623.71	1075.08
624.05	1078.31
624.40	1080.72
624.75	1083.95
625.09	1085.59
625.44	1087.09
625.78	1087.76
626.13	1086.03
626.48	1086.99
626.82	1088.28
627.17	1089.45
627.51	1088.65
627.86	1091.98
628.20	1092.87
628.55	1089.38
628.89	1090.95
629.24	1090.81
629.58	1086.80
629.93	1083.74
630.28	1086.78
630.62	1084.63
630.97	1084.21
631.31	1085.05
631.66	1084.70
632.00	1080.93
632.35	1080.86
632.69	1080.74
633.04	1079.10
633.38	1078.92
633.73	1080.48
634.07	1079.97
634.42	1080.95
634.76	1083.55
635.11	1085.24
635.45	1085.66
635.79	1086.94
636.14	1085.82
636.48	1086.22
636.83	1085.49
637.17	1083.90
637.52	1081.75
637.86	1082.92
638.21	1081.02
638.55	1082.05
638.89	1083.27
639.24	1082.92
639.58	1083.57
639.93	1083.53
640.27	1084.56
640.61	1086.22
640.96	1087.37
641.30	1086.87
641.65	1087.53
641.99	1087.90
642.33	1086.99
642.68	1085.70
643.02	1085.19
643.37	1085.40
643.71	1082.10
644.05	1081.12
644.40	1083.57
644.74	1083.15
645.08	1082.29
645.43	1084.46
645.77	1085.03
646.11	1084.39
646.46	1084.02
646.80	1085.17
647.14	1084.60
647.49	1081.56
647.83	1079.20
648.17	1081.14
648.52	1082.38
648.86	1082.43
649.20	1086.87
649.55	1092.07
649.89	1089.45
650.23	1087.34
650.57	1086.87
650.92	1085.24
651.26	1082.71
651.60	1083.97
651.95	1084.25
652.29	1082.80
652.63	1081.37
652.97	1081.35
653.32	1080.84
653.66	1080.44
654.00	1081.44
654.34	1084.37
654.69	1082.66
655.03	1082.12
655.37	1080.56
655.71	1083.27
656.05	1082.76
656.40	1085.03
656.74	1088.02
657.08	1090.83
657.42	1088.58
657.76	1089.78
658.11	1089.33
658.45	1088.09
658.79	1089.89
659.13	1090.43
659.47	1089.73
659.82	1091.60
660.16	1090.10
660.50	1085.28
660.84	1085.77
661.18	1084.53
661.52	1080.74
661.87	1081.98
662.21	1083.88
662.55	1083.88
662.89	1083.67
663.23	1085.80
663.57	1086.41
663.91	1085.40
664.25	1084.32
664.60	1085.70
664.94	1083.57
665.28	1083.41
665.62	1086.50
665.96	1085.61
666.30	1080.98
666.64	1080.79
666.98	1077.96
667.32	1077.04
667.66	1078.52
668.01	1082.43
668.35	1083.79
668.69	1085.31
669.03	1085.63
669.37	1084.72
669.71	1080.58
670.05	1082.52
670.39	1083.29
670.73	1082.73
671.07	1082.38
671.41	1085.49
671.75	1081.16
672.09	1080.84
672.43	1079.03
672.77	1081.26
673.11	1078.36
673.45	1082.45
673.79	1084.02
674.13	1084.93
674.47	1084.35
674.81	1087.76
675.15	1084.58
675.49	1086.13
675.83	1086.90
676.17	1089.59
676.51	1087.90
676.85	1091.77
677.19	1088.58
677.53	1086.99
677.87	1084.21
678.21	1084.07
678.55	1078.54
678.89	1076.93
679.23	1075.55
679.57	1071.99
679.90	1072.08
680.24	1071.29
680.58	1070.42
680.92	1069.79
681.26	1070.05
681.60	1067.38
681.94	1072.41
682.28	1078.31
682.62	1081.58
682.96	1084.65
683.29	1089.22
683.63	1086.90
683.97	1084.16
684.31	1082.40
684.65	1078.10
684.99	1073.77
685.33	1073.72
685.67	1074.05
686.00	1076.23
686.34	1078.75
686.68	1082.24
687.02	1084.70
687.36	1082.38
687.70	1080.56
688.03	1081.05
688.37	1081.30
688.71	1080.37
689.05	1082.17
689.39	1082.94
689.72	1084.14
690.06	1080.48
690.40	1077.77
690.74	1078.10
691.08	1077.42
691.41	1077.25
691.75	1081.05
692.09	1081.77
692.43	1080.95
692.76	1078.52
693.10	1074.19
693.44	1074.17
693.78	1074.80
694.11	1069.88
694.45	1074.52
694.79	1079.10
695.13	1079.90
695.46	1079.15
695.80	1082.24
696.14	1078.50
696.48	1076.23
696.81	1072.92
697.15	1073.70
697.49	1074.07
697.82	1076.51
698.16	1078.00
698.50	1080.37
698.83	1080.23
699.17	1082.69
699.51	1081.70
699.84	1081.73
700.18	1083.83
700.52	1084.89
700.85	1083.46
701.19	1081.63
701.53	1079.62
701.86	1077.61
702.20	1076.69
702.54	1074.96
702.87	1079.76
703.21	1079.76
703.55	1078.52
703.88	1076.69
704.22	1077.37
704.55	1076.62
704.89	1078.00
705.23	1076.74
705.56	1080.04
705.90	1081.61
706.23	1080.16
706.57	1080.37
706.91	1082.43
707.24	1080.56
707.58	1076.34
707.91	1073.32
708.25	1073.35
708.58	1072.55
708.92	1072.04
709.26	1073.51
709.59	1078.82
709.93	1081.77
710.26	1083.88
710.60	1086.29
710.93	1089.66
711.27	1090.10
711.60	1089.45
711.94	1087.37
712.27	1087.62
712.61	1085.84
712.94	1083.71
713.28	1081.16
713.61	1083.08
713.95	1079.88
714.28	1079.20
714.62	1077.04
714.95	1078.61
715.29	1076.55
715.62	1076.58
715.96	1079.48
716.29	1081.58
716.63	1081.09
716.96	1081.12
717.29	1082.54
717.63	1080.58
717.96	1078.43
718.30	1077.25
718.63	1079.06
718.97	1078.21
719.30	1079.88
719.63	1079.99
719.97	1079.95
720.30	1076.69
720.64	1077.33
720.97	1075.31
721.30	1076.48
721.64	1078.75
721.97	1079.71
722.31	1079.20
722.64	1080.74
722.97	1081.77
723.31	1080.48
723.64	1082.29
723.97	1081.56
724.31	1079.41
724.64	1078.89
724.98	1077.44
725.31	1076.27
725.64	1076.15
725.98	1077.91
726.31	1074.56
726.64	1076.01
726.97	1077.37
727.31	1081.47
727.64	1081.09
727.97	1086.15
728.31	1086.50
728.64	1085.82
728.97	1083.06
729.31	1079.95
729.64	1077.72
729.97	1075.94
730.30	1076.83
730.64	1078.07
730.97	1083.04
731.30	1079.97
731.63	1080.02
731.97	1077.79
732.30	1076.90
732.63	1076.58
732.96	1079.15
733.30	1079.24
733.63	1080.93
733.96	1083.15
734.29	1079.62
734.63	1077.14
734.96	1080.13
735.29	1081.35
735.62	1079.43
735.95	1079.92
736.29	1084.04
736.62	1079.62
736.95	1075.05
737.28	1075.27
737.61	1075.08
737.94	1072.36
738.28	1074.61
738.61	1077.49
738.94	1075.94
739.27	1077.96
739.60	1079.50
739.93	1081.44
740.27	1083.64
740.60	1084.93
740.93	1084.89
741.26	1086.34
741.59	1086.17
741.92	1082.78
742.25	1080.63
742.58	1081.56
742.91	1082.73
743.25	1079.46
743.58	1081.66
743.91	1085.47
744.24	1084.37
744.57	1083.46
744.90	1085.45
745.23	1087.16
745.56	1084.60
745.89	1084.23
746.22	1082.76
746.55	1082.50
746.88	1079.41
747.21	1079.17
747.54	1079.01
747.87	1080.58
748.20	1080.53
748.53	1081.30
748.87	1082.33
749.20	1086.57
749.53	1082.29
749.86	1080.25
750.19	1079.20
750.52	1079.97
750.85	1074.75
751.18	1076.01
751.51	1075.62
751.84	1075.76
752.16	1075.97
752.49	1075.97
752.82	1080.67
753.15	1080.58
753.48	1081.40
753.81	1079.20
754.14	1081.26
754.47	1078.00
754.80	1080.60
755.13	1079.62
755.46	1078.82
755.79	1079.20
756.12	1077.61
756.45	1077.30
756.78	1076.55
757.11	1077.96
757.43	1075.45
757.76	1078.94
758.09	1079.92
758.42	1077.23
758.75	1077.77
759.08	1076.51
759.41	1072.83
759.74	1071.80
760.07	1079.50
760.39	1080.95
760.72	1081.35
761.05	1083.57
761.38	1082.54
761.71	1077.33
762.04	1077.28
762.36	1080.98
762.69	1080.13
763.02	1081.19
763.35	1083.88
763.68	1082.08
764.01	1081.68
