SpectraSuite Data File
++++++++++++++++++++++++++++++++++++
Date: Mon Aug 26 10:22:29 PDT 2019
User: corrico
Dark Spectrum Present: No
Reference Spectrum Present: No
Number of Sampled Component Spectra: 1
Spectrometers: USB2+H06089
Integration Time (usec): 2000 (USB2+H06089)
Spectra Averaged: 20 (USB2+H06089)
Boxcar Smoothing: 2 (USB2+H06089)
Correct for Electrical Dark: No (USB2+H06089)
Strobe/Lamp Enabled: No (USB2+H06089)
Correct for Detector Non-linearity: No (USB2+H06089)
Correct for Stray Light: No (USB2+H06089)
Number of Pixels in Processed Spectrum: 2048
>>>>>Begin Processed Spectral Data<<<<<
339.70	1035.80
340.07	1035.80
340.45	998.50
340.82	975.04
341.19	949.09
341.57	921.07
341.94	908.88
342.31	901.62
342.69	897.67
343.06	896.12
343.43	895.56
343.81	897.55
344.18	900.54
344.55	904.94
344.93	912.13
345.30	916.13
345.67	922.10
346.04	929.89
346.42	936.54
346.79	942.28
347.16	955.08
347.54	964.89
347.91	973.19
348.28	981.15
348.65	989.37
349.03	998.19
349.40	1009.40
349.77	1016.73
350.14	1026.56
350.52	1036.93
350.89	1040.98
351.26	1045.75
351.63	1052.63
352.01	1055.35
352.38	1057.59
352.75	1062.91
353.12	1066.96
353.50	1068.76
353.87	1070.84
354.24	1075.69
354.61	1081.26
354.98	1082.59
355.36	1085.24
355.73	1090.24
356.10	1089.03
356.47	1086.31
356.84	1086.52
357.22	1086.52
357.59	1082.66
357.96	1082.85
358.33	1081.49
358.70	1078.82
359.08	1076.65
359.45	1078.38
359.82	1076.13
360.19	1076.67
360.56	1079.71
360.94	1080.18
361.31	1077.33
361.68	1080.67
362.05	1082.01
362.42	1079.53
362.79	1078.94
363.16	1084.93
363.54	1079.03
363.91	1078.71
364.28	1078.47
364.65	1078.78
365.02	1074.63
365.39	1077.65
365.76	1078.85
366.14	1076.67
366.51	1075.08
366.88	1073.88
367.25	1075.59
367.62	1074.66
367.99	1077.40
368.36	1080.13
368.73	1079.92
369.10	1077.91
369.48	1076.74
369.85	1074.80
370.22	1074.77
370.59	1076.25
370.96	1074.26
371.33	1074.52
371.70	1073.63
372.07	1071.08
372.44	1071.26
372.81	1076.46
373.18	1074.68
373.55	1077.23
373.93	1080.98
374.30	1080.60
374.67	1075.57
375.04	1075.69
375.41	1075.73
375.78	1074.03
376.15	1073.79
376.52	1076.41
376.89	1078.57
377.26	1077.44
377.63	1076.53
378.00	1075.99
378.37	1073.21
378.74	1072.53
379.11	1072.18
379.48	1072.43
379.85	1074.31
380.22	1078.45
380.59	1078.19
380.96	1077.91
381.33	1080.81
381.70	1081.23
382.07	1079.97
382.44	1081.84
382.81	1085.05
383.18	1082.66
383.55	1082.40
383.92	1082.38
384.29	1081.16
384.66	1080.25
385.03	1081.26
385.40	1082.10
385.77	1085.96
386.14	1084.16
386.51	1083.62
386.88	1081.70
387.25	1079.10
387.62	1075.41
387.99	1076.90
388.36	1077.40
388.73	1080.56
389.10	1081.42
389.46	1080.63
389.83	1078.71
390.20	1077.93
390.57	1079.48
390.94	1080.09
391.31	1080.72
391.68	1083.34
392.05	1085.68
392.42	1084.25
392.79	1086.36
393.16	1089.36
393.53	1089.36
393.89	1088.21
394.26	1085.59
394.63	1083.76
395.00	1081.80
395.37	1082.17
395.74	1082.22
396.11	1083.34
396.48	1083.86
396.84	1081.51
397.21	1081.96
397.58	1081.49
397.95	1084.04
398.32	1083.88
398.69	1087.13
399.06	1086.92
399.42	1087.41
399.79	1085.63
400.16	1089.96
400.53	1088.30
400.90	1085.45
401.27	1083.71
401.64	1081.89
402.00	1080.44
402.37	1081.96
402.74	1084.46
403.11	1088.19
403.48	1094.74
403.84	1091.91
404.21	1092.40
404.58	1093.36
404.95	1092.70
405.32	1089.26
405.68	1090.01
406.05	1088.51
406.42	1086.69
406.79	1088.28
407.16	1089.05
407.52	1090.71
407.89	1091.77
408.26	1093.05
408.63	1092.33
408.99	1093.22
409.36	1093.26
409.73	1096.99
410.10	1098.25
410.47	1095.42
410.83	1092.84
411.20	1090.69
411.57	1086.38
411.94	1086.87
412.30	1089.33
412.67	1091.51
413.04	1094.97
413.40	1098.69
413.77	1099.75
414.14	1101.57
414.51	1101.62
414.87	1103.40
415.24	1102.74
415.61	1102.65
415.97	1103.91
416.34	1106.68
416.71	1104.94
417.08	1103.52
417.44	1105.15
417.81	1103.94
418.18	1103.14
418.54	1104.66
418.91	1105.32
419.28	1104.52
419.64	1103.84
420.01	1103.02
420.38	1104.92
420.74	1108.43
421.11	1110.35
421.48	1113.42
421.84	1118.73
422.21	1118.96
422.58	1120.60
422.94	1122.97
423.31	1127.83
423.68	1128.63
424.04	1133.50
424.41	1138.65
424.77	1145.04
425.14	1148.81
425.51	1154.40
425.87	1159.13
426.24	1162.29
426.61	1163.48
426.97	1168.84
427.34	1170.69
427.70	1177.76
428.07	1185.27
428.44	1191.43
428.80	1196.36
429.17	1208.09
429.53	1214.93
429.90	1224.26
430.27	1237.39
430.63	1249.64
431.00	1256.87
431.36	1267.21
431.73	1277.25
432.09	1286.90
432.46	1300.92
432.83	1319.80
433.19	1333.40
433.56	1351.40
433.92	1373.05
434.29	1391.92
434.65	1411.44
435.02	1437.00
435.38	1463.61
435.75	1487.95
436.11	1517.84
436.48	1548.62
436.84	1581.83
437.21	1612.86
437.57	1651.18
437.94	1690.55
438.30	1736.98
438.67	1787.58
439.03	1842.00
439.40	1897.57
439.76	1956.92
440.13	2017.68
440.49	2081.13
440.86	2146.74
441.22	2219.18
441.59	2290.59
441.95	2370.28
442.32	2453.28
442.68	2552.24
443.05	2644.81
443.41	2744.61
443.78	2843.56
444.14	2945.54
444.51	3051.52
444.87	3185.16
445.24	3326.98
445.60	3477.78
445.96	3636.47
446.33	3809.36
446.69	3972.12
447.06	4146.38
447.42	4334.46
447.79	4526.99
448.15	4746.33
448.51	4979.35
448.88	5236.39
449.24	5472.50
449.61	5755.14
449.97	6027.25
450.33	6307.65
450.70	6572.22
451.06	6901.07
451.43	7198.22
451.79	7557.24
452.15	7948.16
452.52	8401.26
452.88	8871.71
453.24	9405.75
453.61	9988.40
453.97	10556.73
454.34	11100.08
454.70	11738.37
455.06	12378.27
455.43	12987.23
455.79	13579.27
456.15	14296.06
456.52	14958.04
456.88	15728.28
457.24	16455.98
457.61	17307.70
457.97	18068.14
458.33	18837.66
458.70	19591.92
459.06	20361.54
459.42	21188.94
459.79	21969.04
460.15	22862.00
460.51	23721.05
460.88	24640.04
461.24	25436.17
461.60	26392.02
461.96	27259.14
462.33	28095.21
462.69	28858.92
463.05	29688.88
463.42	30395.44
463.78	31040.89
464.14	31565.66
464.50	32157.35
464.87	32632.87
465.23	32973.87
465.59	33296.81
465.95	33628.89
466.32	33901.00
466.68	34127.00
467.04	34277.54
467.40	34416.48
467.77	34569.55
468.13	34573.39
468.49	34483.72
468.85	34401.76
469.22	34268.86
469.58	33922.81
469.94	33641.95
470.30	33335.08
470.66	32921.02
471.03	32315.64
471.39	31909.90
471.75	31276.49
472.11	30666.19
472.47	30306.50
472.84	29991.46
473.20	29505.10
473.56	29231.54
473.92	28808.06
474.28	28290.59
474.65	27799.99
475.01	27328.00
475.37	26765.41
475.73	26309.07
476.09	25779.08
476.45	25256.56
476.81	24749.08
477.18	24216.56
477.54	23791.85
477.90	23448.00
478.26	23038.83
478.62	22710.52
478.98	22417.09
479.34	22098.59
479.71	21671.14
480.07	21329.65
480.43	20964.65
480.79	20583.98
481.15	20227.47
481.51	19930.71
481.87	19687.44
482.23	19414.09
482.59	19170.06
482.96	18899.26
483.32	18621.26
483.68	18238.98
484.04	17893.96
484.40	17526.98
484.76	17144.96
485.12	16783.49
485.48	16482.94
485.84	16132.26
486.20	15779.75
486.56	15421.32
486.92	15095.24
487.28	14719.23
487.64	14360.75
488.00	14033.10
488.37	13705.15
488.73	13344.52
489.09	12997.23
489.45	12695.32
489.81	12379.09
490.17	12081.61
490.53	11796.02
490.89	11500.01
491.25	11182.82
491.61	10885.57
491.97	10580.30
492.33	10261.59
492.69	9970.12
493.05	9683.33
493.41	9386.32
493.77	9098.11
494.13	8858.04
494.49	8616.52
494.85	8375.35
495.21	8163.81
495.57	7956.60
495.93	7736.52
496.29	7530.81
496.64	7347.67
497.00	7140.90
497.36	6950.36
497.72	6759.61
498.08	6578.10
498.44	6395.37
498.80	6231.37
499.16	6068.52
499.52	5924.48
499.88	5798.63
500.24	5679.08
500.60	5559.64
500.96	5447.27
501.32	5331.11
501.68	5206.87
502.03	5074.23
502.39	4951.92
502.75	4816.28
503.11	4688.68
503.47	4569.01
503.83	4450.46
504.19	4325.45
504.55	4222.70
504.91	4120.79
505.26	4026.52
505.62	3944.55
505.98	3860.88
506.34	3765.64
506.70	3681.66
507.06	3593.47
507.42	3505.68
507.78	3431.37
508.13	3361.88
508.49	3282.60
508.85	3211.17
509.21	3146.08
509.57	3078.04
509.93	3014.24
510.28	2950.22
510.64	2890.68
511.00	2827.39
511.36	2766.16
511.72	2712.12
512.07	2666.81
512.43	2615.55
512.79	2564.03
513.15	2518.44
513.51	2465.85
513.86	2415.15
514.22	2370.87
514.58	2329.49
514.94	2294.90
515.30	2258.41
515.65	2223.06
516.01	2188.17
516.37	2153.15
516.73	2116.94
517.08	2092.63
517.44	2062.39
517.80	2037.58
518.16	2015.90
518.51	1991.37
518.87	1961.37
519.23	1937.75
519.59	1910.32
519.94	1879.50
520.30	1854.87
520.66	1830.67
521.01	1805.42
521.37	1779.95
521.73	1760.79
522.09	1741.48
522.44	1722.52
522.80	1703.93
523.16	1689.38
523.51	1670.65
523.87	1649.59
524.23	1628.29
524.58	1607.04
524.94	1590.65
525.30	1574.24
525.65	1559.24
526.01	1543.09
526.37	1530.83
526.72	1514.79
527.08	1499.65
527.44	1486.33
527.79	1477.49
528.15	1462.98
528.51	1451.25
528.86	1441.44
529.22	1431.12
529.58	1421.29
529.93	1413.36
530.29	1401.91
530.65	1392.08
531.00	1380.14
531.36	1369.40
531.71	1358.82
532.07	1349.72
532.43	1341.43
532.78	1332.82
533.14	1327.20
533.49	1321.98
533.85	1317.44
534.21	1311.47
534.56	1306.60
534.92	1294.13
535.27	1289.07
535.63	1283.18
535.98	1273.16
536.34	1267.35
536.69	1269.67
537.05	1263.51
537.41	1258.37
537.76	1254.85
538.12	1249.45
538.47	1241.12
538.83	1234.98
539.18	1230.82
539.54	1226.82
539.89	1225.01
540.25	1222.44
540.60	1222.27
540.96	1213.36
541.31	1209.54
541.67	1204.23
542.02	1197.61
542.38	1193.23
542.73	1196.25
543.09	1192.74
543.44	1191.01
543.80	1190.44
544.15	1188.76
544.51	1187.45
544.86	1188.38
545.22	1185.32
545.57	1183.33
545.93	1176.80
546.28	1167.34
546.64	1163.78
546.99	1161.91
547.35	1160.74
547.70	1159.67
548.05	1161.89
548.41	1160.18
548.76	1155.99
549.12	1150.12
549.47	1150.09
549.83	1151.40
550.18	1150.00
550.53	1150.28
550.89	1149.23
551.24	1146.30
551.60	1140.47
551.95	1136.99
552.30	1133.92
552.66	1133.40
553.01	1133.50
553.37	1131.91
553.72	1132.73
554.07	1134.72
554.43	1133.24
554.78	1127.44
555.13	1127.88
555.49	1123.83
555.84	1119.55
556.19	1120.46
556.55	1126.94
556.90	1125.91
557.26	1126.66
557.61	1128.79
557.96	1128.56
558.32	1126.78
558.67	1125.10
559.02	1123.55
559.37	1117.86
559.73	1115.29
560.08	1111.22
560.43	1106.82
560.79	1105.04
561.14	1108.13
561.49	1107.56
561.85	1105.25
562.20	1109.72
562.55	1110.49
562.90	1108.41
563.26	1107.45
563.61	1108.62
563.96	1103.84
564.32	1104.71
564.67	1107.40
565.02	1108.10
565.37	1108.22
565.73	1111.29
566.08	1112.60
566.43	1106.46
566.78	1102.88
567.14	1103.12
567.49	1101.57
567.84	1098.13
568.19	1100.82
568.54	1104.36
568.90	1101.95
569.25	1102.93
569.60	1101.83
569.95	1099.40
570.31	1095.72
570.66	1096.80
571.01	1096.61
571.36	1098.69
571.71	1098.79
572.06	1099.82
572.42	1099.54
572.77	1096.10
573.12	1094.69
573.47	1095.79
573.82	1093.99
574.18	1091.20
574.53	1090.64
574.88	1092.00
575.23	1090.53
575.58	1093.90
575.93	1094.67
576.28	1096.35
576.64	1096.40
576.99	1095.23
577.34	1092.35
577.69	1090.24
578.04	1088.16
578.39	1085.45
578.74	1086.59
579.09	1088.19
579.44	1092.49
579.80	1094.29
580.15	1093.71
580.50	1092.21
580.85	1090.55
581.20	1088.89
581.55	1087.93
581.90	1089.17
582.25	1091.81
582.60	1090.48
582.95	1089.85
583.30	1090.01
583.65	1089.31
584.00	1089.71
584.35	1093.26
584.71	1089.82
585.06	1088.91
585.41	1088.56
585.76	1085.59
586.11	1084.16
586.46	1086.52
586.81	1086.66
587.16	1086.55
587.51	1085.63
587.86	1086.50
588.21	1086.66
588.56	1086.52
588.91	1084.67
589.26	1085.63
589.61	1083.18
589.96	1084.37
590.31	1085.45
590.66	1090.34
591.01	1090.95
591.36	1091.18
591.71	1091.27
592.06	1089.19
592.41	1086.50
592.76	1088.77
593.10	1088.63
593.45	1087.37
593.80	1088.91
594.15	1086.15
594.50	1083.36
594.85	1084.49
595.20	1081.70
595.55	1081.51
595.90	1084.11
596.25	1084.46
596.60	1082.64
596.95	1083.95
597.30	1081.00
597.64	1091.16
597.99	1094.29
598.34	1095.86
598.69	1096.12
599.04	1099.30
599.39	1090.53
599.74	1086.48
600.09	1086.01
600.44	1088.63
600.78	1090.24
601.13	1088.16
601.48	1087.93
601.83	1087.06
602.18	1088.93
602.53	1089.12
602.88	1089.22
603.22	1091.79
603.57	1091.84
603.92	1087.16
604.27	1082.76
604.62	1082.05
604.97	1080.44
605.31	1079.74
605.66	1081.28
606.01	1084.51
606.36	1087.53
606.71	1087.09
607.05	1087.48
607.40	1085.87
607.75	1083.62
608.10	1078.05
608.44	1080.20
608.79	1081.35
609.14	1082.15
609.49	1083.36
609.84	1087.55
610.18	1086.24
610.53	1083.62
610.88	1082.69
611.23	1083.41
611.57	1081.77
611.92	1081.84
612.27	1083.39
612.62	1082.03
612.96	1080.63
613.31	1079.64
613.66	1078.50
614.00	1079.22
614.35	1082.97
614.70	1082.15
615.05	1082.15
615.39	1084.44
615.74	1082.31
616.09	1081.51
616.43	1081.21
616.78	1082.50
617.13	1083.39
617.47	1082.01
617.82	1081.56
618.17	1082.08
618.51	1081.40
618.86	1078.94
619.21	1083.27
619.55	1083.15
619.90	1083.76
620.25	1084.79
620.59	1083.39
620.94	1083.11
621.29	1082.40
621.63	1082.24
621.98	1082.31
622.32	1081.94
622.67	1078.66
623.02	1079.78
623.36	1077.47
623.71	1075.57
624.05	1077.68
624.40	1080.86
624.75	1079.71
625.09	1080.34
625.44	1081.96
625.78	1079.78
626.13	1079.22
626.48	1080.39
626.82	1080.32
627.17	1077.89
627.51	1079.15
627.86	1078.78
628.20	1078.78
628.55	1081.42
628.89	1085.24
629.24	1085.54
629.58	1088.56
629.93	1088.84
630.28	1084.18
630.62	1082.15
630.97	1084.14
631.31	1080.72
631.66	1080.13
632.00	1083.39
632.35	1082.26
632.69	1080.09
633.04	1084.65
633.38	1086.66
633.73	1089.00
634.07	1088.47
634.42	1090.15
634.76	1085.68
635.11	1083.62
635.45	1083.11
635.79	1083.55
636.14	1079.46
636.48	1081.37
636.83	1080.88
637.17	1080.70
637.52	1084.25
637.86	1086.52
638.21	1083.15
638.55	1083.32
638.89	1081.49
639.24	1082.08
639.58	1079.10
639.93	1080.16
640.27	1081.00
640.61	1082.97
640.96	1081.66
641.30	1085.21
641.65	1087.16
641.99	1085.63
642.33	1084.04
642.68	1086.38
643.02	1086.92
643.37	1085.00
643.71	1085.61
644.05	1083.95
644.40	1078.59
644.74	1078.19
645.08	1081.14
645.43	1082.26
645.77	1084.98
646.11	1088.37
646.46	1090.53
646.80	1089.10
647.14	1086.22
647.49	1082.19
647.83	1081.35
648.17	1080.02
648.52	1079.67
648.86	1079.99
649.20	1082.94
649.55	1080.65
649.89	1078.28
650.23	1077.09
650.57	1077.49
650.92	1077.37
651.26	1077.58
651.60	1075.66
651.95	1076.81
652.29	1079.10
652.63	1077.77
652.97	1078.05
653.32	1077.68
653.66	1074.91
654.00	1074.26
654.34	1075.45
654.69	1077.16
655.03	1079.76
655.37	1078.47
655.71	1078.92
656.05	1079.34
656.40	1079.53
656.74	1082.52
657.08	1085.84
657.42	1085.17
657.76	1086.66
658.11	1085.52
658.45	1082.52
658.79	1081.44
659.13	1079.31
659.47	1076.93
659.82	1077.44
660.16	1079.81
660.50	1083.11
660.84	1086.45
661.18	1086.76
661.52	1088.00
661.87	1086.76
662.21	1084.09
662.55	1083.06
662.89	1082.61
663.23	1082.19
663.57	1080.30
663.91	1079.97
664.25	1079.08
664.60	1081.58
664.94	1080.86
665.28	1082.59
665.62	1080.65
665.96	1083.08
666.30	1083.81
666.64	1084.46
666.98	1086.27
667.32	1089.66
667.66	1089.19
668.01	1086.43
668.35	1085.47
668.69	1085.87
669.03	1083.86
669.37	1080.13
669.71	1079.78
670.05	1080.16
670.39	1077.11
670.73	1078.52
671.07	1077.25
671.41	1079.13
671.75	1077.72
672.09	1077.49
672.43	1079.69
672.77	1084.00
673.11	1083.81
673.45	1086.78
673.79	1087.76
674.13	1084.16
674.47	1084.16
674.81	1082.87
675.15	1080.37
675.49	1080.79
675.83	1081.30
676.17	1079.13
676.51	1080.70
676.85	1079.13
677.19	1080.16
677.53	1080.09
677.87	1080.58
678.21	1078.17
678.55	1080.25
678.89	1077.77
679.23	1079.29
679.57	1080.70
679.90	1080.81
680.24	1079.31
680.58	1078.21
680.92	1076.65
681.26	1075.24
681.60	1076.04
681.94	1076.32
682.28	1076.39
682.62	1077.91
682.96	1078.61
683.29	1080.72
683.63	1084.21
683.97	1083.62
684.31	1082.43
684.65	1080.84
684.99	1079.92
685.33	1079.60
685.67	1081.61
686.00	1080.37
686.34	1081.87
686.68	1083.13
687.02	1082.01
687.36	1082.99
687.70	1085.00
688.03	1087.97
688.37	1083.55
688.71	1085.87
689.05	1086.73
689.39	1085.45
689.72	1082.01
690.06	1082.90
690.40	1076.79
690.74	1076.55
691.08	1077.86
691.41	1079.10
691.75	1078.71
692.09	1081.23
692.43	1079.29
692.76	1077.54
693.10	1075.41
693.44	1077.00
693.78	1076.83
694.11	1077.37
694.45	1079.17
694.79	1077.44
695.13	1075.64
695.46	1076.74
695.80	1078.38
696.14	1075.31
696.48	1079.34
696.81	1080.84
697.15	1077.98
697.49	1074.12
697.82	1078.31
698.16	1075.99
698.50	1078.19
698.83	1080.77
699.17	1084.11
699.51	1083.11
699.84	1085.52
700.18	1085.17
700.52	1086.03
700.85	1084.53
701.19	1085.80
701.53	1085.40
701.86	1084.70
702.20	1082.87
702.54	1081.37
702.87	1078.00
703.21	1076.15
703.55	1078.45
703.88	1079.24
704.22	1082.94
704.55	1085.10
704.89	1088.42
705.23	1085.61
705.56	1083.36
705.90	1081.28
706.23	1080.88
706.57	1078.94
706.91	1081.30
707.24	1083.55
707.58	1085.05
707.91	1082.78
708.25	1076.20
708.58	1074.84
708.92	1073.51
709.26	1070.96
709.59	1071.36
709.93	1080.04
710.26	1080.46
710.60	1080.88
710.93	1079.97
711.27	1079.76
711.60	1078.14
711.94	1081.75
712.27	1081.54
712.61	1083.67
712.94	1087.62
713.28	1086.52
713.61	1080.95
713.95	1078.57
714.28	1079.48
714.62	1077.00
714.95	1076.90
715.29	1077.25
715.62	1079.57
715.96	1078.28
716.29	1080.77
716.63	1080.70
716.96	1076.90
717.29	1077.28
717.63	1077.47
717.96	1075.94
718.30	1077.11
718.63	1080.44
718.97	1077.93
719.30	1079.55
719.63	1078.24
719.97	1075.85
720.30	1073.93
720.64	1074.49
720.97	1073.70
721.30	1071.40
721.64	1072.25
721.97	1073.65
722.31	1075.73
722.64	1074.03
722.97	1077.98
723.31	1080.65
723.64	1079.27
723.97	1078.24
724.31	1078.96
724.64	1078.07
724.98	1076.20
725.31	1079.57
725.64	1079.78
725.98	1080.93
726.31	1083.06
726.64	1084.93
726.97	1084.25
727.31	1083.13
727.64	1082.10
727.97	1081.35
728.31	1078.61
728.64	1078.75
728.97	1080.39
729.31	1080.30
729.64	1077.79
729.97	1075.43
730.30	1078.33
730.64	1079.03
730.97	1078.26
731.30	1079.74
731.63	1083.36
731.97	1079.17
732.30	1079.71
732.63	1080.58
732.96	1079.27
733.30	1078.03
733.63	1077.51
733.96	1078.12
734.29	1081.44
734.63	1081.77
734.96	1084.42
735.29	1085.28
735.62	1083.55
735.95	1078.40
736.29	1078.52
736.62	1079.24
736.95	1079.24
737.28	1081.09
737.61	1084.28
737.94	1082.73
738.28	1080.79
738.61	1081.14
738.94	1078.73
739.27	1076.72
739.60	1077.86
739.93	1076.46
740.27	1077.04
740.60	1076.76
740.93	1074.73
741.26	1072.39
741.59	1074.52
741.92	1071.52
742.25	1075.29
742.58	1077.91
742.91	1079.57
743.25	1076.06
743.58	1081.87
743.91	1081.42
744.24	1079.76
744.57	1080.60
744.90	1082.64
745.23	1078.73
745.56	1078.47
745.89	1079.55
746.22	1080.60
746.55	1079.22
746.88	1080.63
747.21	1080.67
747.54	1084.32
747.87	1081.66
748.20	1086.08
748.53	1082.08
748.87	1080.58
749.20	1081.23
749.53	1084.91
749.86	1080.18
750.19	1085.59
750.52	1085.05
750.85	1082.05
751.18	1083.15
751.51	1086.13
751.84	1087.81
752.16	1089.96
752.49	1090.01
752.82	1089.26
753.15	1087.88
753.48	1085.75
753.81	1083.62
754.14	1080.81
754.47	1080.41
754.80	1081.14
755.13	1077.40
755.46	1079.17
755.79	1081.63
756.12	1080.67
756.45	1077.70
756.78	1081.30
757.11	1078.43
757.43	1078.40
757.76	1075.97
758.09	1078.45
758.42	1076.76
758.75	1076.51
759.08	1077.91
759.41	1080.37
759.74	1080.39
760.07	1082.54
760.39	1086.43
760.72	1082.17
761.05	1079.13
761.38	1078.57
761.71	1077.14
762.04	1073.79
762.36	1076.34
762.69	1078.17
763.02	1075.99
763.35	1078.12
763.68	1079.78
764.01	1082.59
