SpectraSuite Data File
++++++++++++++++++++++++++++++++++++
Date: Mon Aug 26 10:22:14 PDT 2019
User: corrico
Dark Spectrum Present: No
Reference Spectrum Present: No
Number of Sampled Component Spectra: 1
Spectrometers: USB2+H06089
Integration Time (usec): 2000 (USB2+H06089)
Spectra Averaged: 20 (USB2+H06089)
Boxcar Smoothing: 2 (USB2+H06089)
Correct for Electrical Dark: No (USB2+H06089)
Strobe/Lamp Enabled: No (USB2+H06089)
Correct for Detector Non-linearity: No (USB2+H06089)
Correct for Stray Light: No (USB2+H06089)
Number of Pixels in Processed Spectrum: 2048
>>>>>Begin Processed Spectral Data<<<<<
339.70	1033.00
340.07	1033.00
340.45	996.93
340.82	974.88
341.19	951.15
341.57	924.16
341.94	911.57
342.31	905.37
342.69	902.46
343.06	902.23
343.43	900.50
343.81	902.74
344.18	904.20
344.55	906.51
344.93	908.50
345.30	915.88
345.67	924.51
346.04	931.04
346.42	939.91
346.79	947.68
347.16	956.67
347.54	964.84
347.91	974.93
348.28	985.20
348.65	995.99
349.03	1004.32
349.40	1014.22
349.77	1025.86
350.14	1030.65
350.52	1039.41
350.89	1045.47
351.26	1050.29
351.63	1053.12
352.01	1060.38
352.38	1063.94
352.75	1070.65
353.12	1073.28
353.50	1078.68
353.87	1080.58
354.24	1079.88
354.61	1081.51
354.98	1084.35
355.36	1083.69
355.73	1084.02
356.10	1087.06
356.47	1086.94
356.84	1086.08
357.22	1085.87
357.59	1082.71
357.96	1083.41
358.33	1082.17
358.70	1081.66
359.08	1080.56
359.45	1083.01
359.82	1080.34
360.19	1081.12
360.56	1083.08
360.94	1082.08
361.31	1081.33
361.68	1081.42
362.05	1080.98
362.42	1078.26
362.79	1079.85
363.16	1078.31
363.54	1079.38
363.91	1078.31
364.28	1079.22
364.65	1077.02
365.02	1077.68
365.39	1076.11
365.76	1075.45
366.14	1074.49
366.51	1075.03
366.88	1075.85
367.25	1077.42
367.62	1076.81
367.99	1073.53
368.36	1074.54
368.73	1075.13
369.10	1074.14
369.48	1075.69
369.85	1075.76
370.22	1072.81
370.59	1073.42
370.96	1074.47
371.33	1075.66
371.70	1079.81
372.07	1082.29
372.44	1078.85
372.81	1074.91
373.18	1072.67
373.55	1073.51
373.93	1073.00
374.30	1074.61
374.67	1077.30
375.04	1079.29
375.41	1079.38
375.78	1080.30
376.15	1079.41
376.52	1078.33
376.89	1078.38
377.26	1080.65
377.63	1080.93
378.00	1083.01
378.37	1086.13
378.74	1085.40
379.11	1083.74
379.48	1083.62
379.85	1083.55
380.22	1080.72
380.59	1083.67
380.96	1082.22
381.33	1083.86
381.70	1085.73
382.07	1087.90
382.44	1085.24
382.81	1087.97
383.18	1086.36
383.55	1085.17
383.92	1083.83
384.29	1085.68
384.66	1086.52
385.03	1085.66
385.40	1086.80
385.77	1087.79
386.14	1085.45
386.51	1082.19
386.88	1085.52
387.25	1083.04
387.62	1080.63
387.99	1081.37
388.36	1081.40
388.73	1078.36
389.10	1079.36
389.46	1082.45
389.83	1085.26
390.20	1086.43
390.57	1089.19
390.94	1089.85
391.31	1090.15
391.68	1087.76
392.05	1086.48
392.42	1084.23
392.79	1085.63
393.16	1084.02
393.53	1083.22
393.89	1083.53
394.26	1083.11
394.63	1080.37
395.00	1081.68
395.37	1085.52
395.74	1085.26
396.11	1085.52
396.48	1088.54
396.84	1087.58
397.21	1088.79
397.58	1088.68
397.95	1090.48
398.32	1086.10
398.69	1087.62
399.06	1084.37
399.42	1084.77
399.79	1085.63
400.16	1088.19
400.53	1089.75
400.90	1090.08
401.27	1093.29
401.64	1094.22
402.00	1095.51
402.37	1093.26
402.74	1090.41
403.11	1089.61
403.48	1086.29
403.84	1088.44
404.21	1088.58
404.58	1095.37
404.95	1093.57
405.32	1098.09
405.68	1095.30
406.05	1098.55
406.42	1095.86
406.79	1099.58
407.16	1096.31
407.52	1099.68
407.89	1099.05
408.26	1098.32
408.63	1097.34
408.99	1099.33
409.36	1095.77
409.73	1098.79
410.10	1102.56
410.47	1099.35
410.83	1098.86
411.20	1101.06
411.57	1099.91
411.94	1101.20
412.30	1103.05
412.67	1105.76
413.04	1106.46
413.40	1103.49
413.77	1098.48
414.14	1099.70
414.51	1098.58
414.87	1099.75
415.24	1102.11
415.61	1107.73
415.97	1108.10
416.34	1107.24
416.71	1105.90
417.08	1106.42
417.44	1105.08
417.81	1108.41
418.18	1108.76
418.54	1110.54
418.91	1108.38
419.28	1110.70
419.64	1110.82
420.01	1114.12
420.38	1116.46
420.74	1122.57
421.11	1122.97
421.48	1123.22
421.84	1127.23
422.21	1130.36
422.58	1132.59
422.94	1134.20
423.31	1136.99
423.68	1137.73
424.04	1143.07
424.41	1144.57
424.77	1148.83
425.14	1156.48
425.51	1160.62
425.87	1160.02
426.24	1164.28
426.61	1167.72
426.97	1174.34
427.34	1182.27
427.70	1191.71
428.07	1203.41
428.44	1212.91
428.80	1221.67
429.17	1231.43
429.53	1245.54
429.90	1255.14
430.27	1268.01
430.63	1275.50
431.00	1287.90
431.36	1299.70
431.73	1315.97
432.09	1333.43
432.46	1352.55
432.83	1373.64
433.19	1392.34
433.56	1414.10
433.92	1436.20
434.29	1462.25
434.65	1490.22
435.02	1521.65
435.38	1554.42
435.75	1588.90
436.11	1629.83
436.48	1667.87
436.84	1711.40
437.21	1753.83
437.57	1799.10
437.94	1849.68
438.30	1902.27
438.67	1957.60
439.03	2018.64
439.40	2092.28
439.76	2162.63
440.13	2234.77
440.49	2314.58
440.86	2397.13
441.22	2480.43
441.59	2565.13
441.95	2669.33
442.32	2770.40
442.68	2890.02
443.05	3011.43
443.41	3140.67
443.78	3266.90
444.14	3411.45
444.51	3545.68
444.87	3705.89
445.24	3866.05
445.60	4048.03
445.96	4225.42
446.33	4429.14
446.69	4621.81
447.06	4840.46
447.42	5060.89
447.79	5293.31
448.15	5564.65
448.51	5840.17
448.88	6154.70
449.24	6459.97
449.61	6812.92
449.97	7153.10
450.33	7536.38
450.70	7882.41
451.06	8301.51
451.43	8688.40
451.79	9150.98
452.15	9635.12
452.52	10182.97
452.88	10729.69
453.24	11368.10
453.61	12068.41
453.97	12759.57
454.34	13446.38
454.70	14267.23
455.06	15051.73
455.43	15785.06
455.79	16457.73
456.15	17263.70
456.52	17971.48
456.88	18889.46
457.24	19781.08
457.61	20918.26
457.97	21977.72
458.33	23091.77
458.70	24153.60
459.06	25162.05
459.42	26154.62
459.79	27061.98
460.15	28072.88
460.51	29031.40
460.88	30107.43
461.24	31075.43
461.60	32214.81
461.96	33288.85
462.33	34305.35
462.69	35288.82
463.05	36385.62
463.42	37344.35
463.78	38218.19
464.14	38940.97
464.50	39714.44
464.87	40257.54
465.23	40633.57
465.59	41083.21
465.95	41426.66
466.32	41675.04
466.68	41907.32
467.04	42071.93
467.40	42076.75
467.77	42191.97
468.13	42103.29
468.49	41950.92
468.85	41849.50
469.22	41710.24
469.58	41441.60
469.94	41281.20
470.30	41049.88
470.66	40639.40
471.03	40133.33
471.39	39765.82
471.75	39054.69
472.11	38351.36
472.47	37875.39
472.84	37358.53
473.20	36660.23
473.56	36274.23
473.92	35698.06
474.28	35081.68
474.65	34428.27
475.01	33754.46
475.37	32955.02
475.73	32303.37
476.09	31601.61
476.45	30973.22
476.81	30443.44
477.18	29898.71
477.54	29415.78
477.90	28977.96
478.26	28422.76
478.62	27887.62
478.98	27430.56
479.34	26991.46
479.71	26440.87
480.07	26004.69
480.43	25583.01
480.79	25129.09
481.15	24666.20
481.51	24305.74
481.87	23990.26
482.23	23623.82
482.59	23291.21
482.96	22971.00
483.32	22657.65
483.68	22254.87
484.04	21906.76
484.40	21483.45
484.76	21062.01
485.12	20604.41
485.48	20182.30
485.84	19706.61
486.20	19286.46
486.56	18855.92
486.92	18478.51
487.28	18093.14
487.64	17681.13
488.00	17297.31
488.37	16917.65
488.73	16494.76
489.09	16056.31
489.45	15664.55
489.81	15229.59
490.17	14797.87
490.53	14394.36
490.89	13981.21
491.25	13559.33
491.61	13165.44
491.97	12777.71
492.33	12378.02
492.69	12011.63
493.05	11669.56
493.41	11342.21
493.77	11007.56
494.13	10715.35
494.49	10430.43
494.85	10150.69
495.21	9890.73
495.57	9644.83
495.93	9385.71
496.29	9136.70
496.64	8916.50
497.00	8659.54
497.36	8408.30
497.72	8168.10
498.08	7954.83
498.44	7725.31
498.80	7512.39
499.16	7319.74
499.52	7123.40
499.88	6941.30
500.24	6774.33
500.60	6619.62
500.96	6458.50
501.32	6305.36
501.68	6128.81
502.03	5948.05
502.39	5785.80
502.75	5621.97
503.11	5467.96
503.47	5332.44
503.83	5205.16
504.19	5074.66
504.55	4951.31
504.91	4831.76
505.26	4715.64
505.62	4598.71
505.98	4488.68
506.34	4380.66
506.70	4270.00
507.06	4155.18
507.42	4046.93
507.78	3947.92
508.13	3848.73
508.49	3765.80
508.85	3693.93
509.21	3619.45
509.57	3540.74
509.93	3461.68
510.28	3373.48
510.64	3290.07
511.00	3215.43
511.36	3141.84
511.72	3079.04
512.07	3021.91
512.43	2962.46
512.79	2903.34
513.15	2841.50
513.51	2781.38
513.86	2728.18
514.22	2675.72
514.58	2621.94
514.94	2578.85
515.30	2535.74
515.65	2485.34
516.01	2443.26
516.37	2401.67
516.73	2359.00
517.08	2322.07
517.44	2284.81
517.80	2248.48
518.16	2212.09
518.51	2176.46
518.87	2144.54
519.23	2114.18
519.59	2079.38
519.94	2051.97
520.30	2026.25
520.66	1991.59
521.01	1960.53
521.37	1932.32
521.73	1901.62
522.09	1877.06
522.44	1857.82
522.80	1837.86
523.16	1822.29
523.51	1805.79
523.87	1787.07
524.23	1766.85
524.58	1747.54
524.94	1722.10
525.30	1698.06
525.65	1673.83
526.01	1655.69
526.37	1637.88
526.72	1625.83
527.08	1610.73
527.44	1594.89
527.79	1575.74
528.15	1562.07
528.51	1544.07
528.86	1529.47
529.22	1516.06
529.58	1500.89
529.93	1488.58
530.29	1478.35
530.65	1467.80
531.00	1458.15
531.36	1449.61
531.71	1434.42
532.07	1421.34
532.43	1406.73
532.78	1393.11
533.14	1381.81
533.49	1376.61
533.85	1367.97
534.21	1364.42
534.56	1358.87
534.92	1351.21
535.27	1340.66
535.63	1332.23
535.98	1322.24
536.34	1314.66
536.69	1307.54
537.05	1298.27
537.41	1293.22
537.76	1287.88
538.12	1281.61
538.47	1274.96
538.83	1272.76
539.18	1266.07
539.54	1261.01
539.89	1258.81
540.25	1256.82
540.60	1250.15
540.96	1245.59
541.31	1241.21
541.67	1234.84
542.02	1230.54
542.38	1226.14
542.73	1224.17
543.09	1221.48
543.44	1216.87
543.80	1213.36
544.15	1213.38
544.51	1209.64
544.86	1207.20
545.22	1206.15
545.57	1200.88
545.93	1195.59
546.28	1193.21
546.64	1189.74
546.99	1187.56
547.35	1188.48
547.70	1189.20
548.05	1187.05
548.41	1185.74
548.76	1181.60
549.12	1177.57
549.47	1173.69
549.83	1170.90
550.18	1165.77
550.53	1162.78
550.89	1159.43
551.24	1157.28
551.60	1153.95
551.95	1153.28
552.30	1153.56
552.66	1152.69
553.01	1151.22
553.37	1150.30
553.72	1147.12
554.07	1144.57
554.43	1142.63
554.78	1140.99
555.13	1140.12
555.49	1142.11
555.84	1139.93
556.19	1139.84
556.55	1139.19
556.90	1137.76
557.26	1132.09
557.61	1131.56
557.96	1132.35
558.32	1132.56
558.67	1132.52
559.02	1133.03
559.37	1132.47
559.73	1130.78
560.08	1130.10
560.43	1129.12
560.79	1127.30
561.14	1126.29
561.49	1124.44
561.85	1120.48
562.20	1119.50
562.55	1117.98
562.90	1118.19
563.26	1117.58
563.61	1114.77
563.96	1113.91
564.32	1112.60
564.67	1112.90
565.02	1111.19
565.37	1113.23
565.73	1108.62
566.08	1110.51
566.43	1109.93
566.78	1109.44
567.14	1107.28
567.49	1109.74
567.84	1107.78
568.19	1103.31
568.54	1103.07
568.90	1105.06
569.25	1105.60
569.60	1108.97
569.95	1111.36
570.31	1110.96
570.66	1107.73
571.01	1106.77
571.36	1103.52
571.71	1104.73
572.06	1104.03
572.42	1104.43
572.77	1103.40
573.12	1104.76
573.47	1100.33
573.82	1098.16
574.18	1099.58
574.53	1100.61
574.88	1101.64
575.23	1101.22
575.58	1105.39
575.93	1106.49
576.28	1103.89
576.64	1102.23
576.99	1102.49
577.34	1097.06
577.69	1097.59
578.04	1098.41
578.39	1096.03
578.74	1094.74
579.09	1096.68
579.44	1093.69
579.80	1093.03
580.15	1092.96
580.50	1095.51
580.85	1097.78
581.20	1097.43
581.55	1099.47
581.90	1099.21
582.25	1100.24
582.60	1097.22
582.95	1095.02
583.30	1091.32
583.65	1094.62
584.00	1091.63
584.35	1093.40
584.71	1095.28
585.06	1097.31
585.41	1095.82
585.76	1097.22
586.11	1096.99
586.46	1097.57
586.81	1093.78
587.16	1094.29
587.51	1094.13
587.86	1092.94
588.21	1091.67
588.56	1094.34
588.91	1093.19
589.26	1094.55
589.61	1097.92
589.96	1096.99
590.31	1097.38
590.66	1097.62
591.01	1096.17
591.36	1095.04
591.71	1092.96
592.06	1095.58
592.41	1094.97
592.76	1096.28
593.10	1095.63
593.45	1100.54
593.80	1096.24
594.15	1093.59
594.50	1092.26
594.85	1092.35
595.20	1089.71
595.55	1091.18
595.90	1094.72
596.25	1091.27
596.60	1088.00
596.95	1087.76
597.30	1084.98
597.64	1095.84
597.99	1097.29
598.34	1097.85
598.69	1098.90
599.04	1103.54
599.39	1090.67
599.74	1089.52
600.09	1088.26
600.44	1088.56
600.78	1088.65
601.13	1087.44
601.48	1084.23
601.83	1085.99
602.18	1085.38
602.53	1080.98
602.88	1080.65
603.22	1085.38
603.57	1083.95
603.92	1081.77
604.27	1086.10
604.62	1088.82
604.97	1091.02
605.31	1091.79
605.66	1092.12
606.01	1089.29
606.36	1091.25
606.71	1089.89
607.05	1089.14
607.40	1087.27
607.75	1086.62
608.10	1081.56
608.44	1079.95
608.79	1083.50
609.14	1087.44
609.49	1088.21
609.84	1091.51
610.18	1091.72
610.53	1088.21
610.88	1085.73
611.23	1083.76
611.57	1083.48
611.92	1084.16
612.27	1085.89
612.62	1087.58
612.96	1090.06
613.31	1086.71
613.66	1083.18
614.00	1084.53
614.35	1084.16
614.70	1086.71
615.05	1088.49
615.39	1092.75
615.74	1090.69
616.09	1090.62
616.43	1090.39
616.78	1090.92
617.13	1087.32
617.47	1086.55
617.82	1086.76
618.17	1084.42
618.51	1085.24
618.86	1087.86
619.21	1090.10
619.55	1087.69
619.90	1087.72
620.25	1085.26
620.59	1083.79
620.94	1084.42
621.29	1086.08
621.63	1087.25
621.98	1089.03
622.32	1087.76
622.67	1084.09
623.02	1083.53
623.36	1082.73
623.71	1081.37
624.05	1082.97
624.40	1085.12
624.75	1087.41
625.09	1084.25
625.44	1084.32
625.78	1087.37
626.13	1085.42
626.48	1080.91
626.82	1079.48
627.17	1079.43
627.51	1075.03
627.86	1075.94
628.20	1080.11
628.55	1082.69
628.89	1082.99
629.24	1083.41
629.58	1084.37
629.93	1082.19
630.28	1083.32
630.62	1083.32
630.97	1085.17
631.31	1083.11
631.66	1082.52
632.00	1081.54
632.35	1081.89
632.69	1079.76
633.04	1081.33
633.38	1085.07
633.73	1085.33
634.07	1085.82
634.42	1087.79
634.76	1089.38
635.11	1087.23
635.45	1088.37
635.79	1089.66
636.14	1089.87
636.48	1087.44
636.83	1086.38
637.17	1084.28
637.52	1082.59
637.86	1082.61
638.21	1083.20
638.55	1084.77
638.89	1087.44
639.24	1089.29
639.58	1088.02
639.93	1085.54
640.27	1084.65
640.61	1081.89
640.96	1078.61
641.30	1080.44
641.65	1082.29
641.99	1086.62
642.33	1088.35
642.68	1090.10
643.02	1089.68
643.37	1090.41
643.71	1086.29
644.05	1084.51
644.40	1081.75
644.74	1082.17
645.08	1084.21
645.43	1084.07
645.77	1088.28
646.11	1089.45
646.46	1086.78
646.80	1083.88
647.14	1083.62
647.49	1079.17
647.83	1079.46
648.17	1080.56
648.52	1081.14
648.86	1080.46
649.20	1081.51
649.55	1082.80
649.89	1082.71
650.23	1083.67
650.57	1082.94
650.92	1081.98
651.26	1079.90
651.60	1081.28
651.95	1079.99
652.29	1080.60
652.63	1082.33
652.97	1083.88
653.32	1084.91
653.66	1083.83
654.00	1086.27
654.34	1084.70
654.69	1081.94
655.03	1082.52
655.37	1082.05
655.71	1081.28
656.05	1082.69
656.40	1084.46
656.74	1082.78
657.08	1083.88
657.42	1083.95
657.76	1081.75
658.11	1083.25
658.45	1081.21
658.79	1081.82
659.13	1079.88
659.47	1082.29
659.82	1081.02
660.16	1084.07
660.50	1085.77
660.84	1089.14
661.18	1084.74
661.52	1083.74
661.87	1083.20
662.21	1080.74
662.55	1078.66
662.89	1081.61
663.23	1083.95
663.57	1082.78
663.91	1084.89
664.25	1085.84
664.60	1085.33
664.94	1084.02
665.28	1083.83
665.62	1084.11
665.96	1082.71
666.30	1082.76
666.64	1084.70
666.98	1083.32
667.32	1078.75
667.66	1080.98
668.01	1083.15
668.35	1080.37
668.69	1081.02
669.03	1084.49
669.37	1084.42
669.71	1082.64
670.05	1084.28
670.39	1081.68
670.73	1078.05
671.07	1076.93
671.41	1078.75
671.75	1077.18
672.09	1078.43
672.43	1082.08
672.77	1082.47
673.11	1080.04
673.45	1081.42
673.79	1083.22
674.13	1083.11
674.47	1085.91
674.81	1085.35
675.15	1083.46
675.49	1084.02
675.83	1083.46
676.17	1080.25
676.51	1082.92
676.85	1085.33
677.19	1085.31
677.53	1085.21
677.87	1087.18
678.21	1088.91
678.55	1087.02
678.89	1083.97
679.23	1082.45
679.57	1079.13
679.90	1077.61
680.24	1082.61
680.58	1085.68
680.92	1087.18
681.26	1084.84
681.60	1083.13
681.94	1076.86
682.28	1075.85
682.62	1075.13
682.96	1078.33
683.29	1078.80
683.63	1081.91
683.97	1081.94
684.31	1081.00
684.65	1078.94
684.99	1080.04
685.33	1075.90
685.67	1077.35
686.00	1076.51
686.34	1078.89
686.68	1075.36
687.02	1078.47
687.36	1078.36
687.70	1081.21
688.03	1082.69
688.37	1086.99
688.71	1085.87
689.05	1088.37
689.39	1089.40
689.72	1086.59
690.06	1082.38
690.40	1081.68
690.74	1075.99
691.08	1074.98
691.41	1075.80
691.75	1079.76
692.09	1082.26
692.43	1085.99
692.76	1086.31
693.10	1084.91
693.44	1082.43
693.78	1083.95
694.11	1083.08
694.45	1084.86
694.79	1085.61
695.13	1087.46
695.46	1084.14
695.80	1082.40
696.14	1080.91
696.48	1080.51
696.81	1083.22
697.15	1085.59
697.49	1088.70
697.82	1088.82
698.16	1090.10
698.50	1087.18
698.83	1085.91
699.17	1084.00
699.51	1079.90
699.84	1080.88
700.18	1079.88
700.52	1079.64
700.85	1076.58
701.19	1079.92
701.53	1076.74
701.86	1073.49
702.20	1072.18
702.54	1074.21
702.87	1072.25
703.21	1070.89
703.55	1075.05
703.88	1075.87
704.22	1076.20
704.55	1079.15
704.89	1080.25
705.23	1079.48
705.56	1080.98
705.90	1079.13
706.23	1077.68
706.57	1080.58
706.91	1081.84
707.24	1081.44
707.58	1084.53
707.91	1083.81
708.25	1082.57
708.58	1081.98
708.92	1082.54
709.26	1083.83
709.59	1084.96
709.93	1084.30
710.26	1082.19
710.60	1078.82
710.93	1076.72
711.27	1075.48
711.60	1078.24
711.94	1077.61
712.27	1080.46
712.61	1082.87
712.94	1082.78
713.28	1080.98
713.61	1082.97
713.95	1081.66
714.28	1079.17
714.62	1080.56
714.95	1079.71
715.29	1079.53
715.62	1081.07
715.96	1084.32
716.29	1084.63
716.63	1087.67
716.96	1088.68
717.29	1089.22
717.63	1084.58
717.96	1079.31
718.30	1078.50
718.63	1079.31
718.97	1080.44
719.30	1082.50
719.63	1084.39
719.97	1084.65
720.30	1085.45
720.64	1084.98
720.97	1083.39
721.30	1085.38
721.64	1083.53
721.97	1080.53
722.31	1078.52
722.64	1079.95
722.97	1079.46
723.31	1077.91
723.64	1077.33
723.97	1081.12
724.31	1079.67
724.64	1081.73
724.98	1084.14
725.31	1085.73
725.64	1081.66
725.98	1083.69
726.31	1086.01
726.64	1084.04
726.97	1080.56
727.31	1078.43
727.64	1077.72
727.97	1077.79
728.31	1079.90
728.64	1081.87
728.97	1084.72
729.31	1084.86
729.64	1080.67
729.97	1082.31
730.30	1081.89
730.64	1081.35
730.97	1079.97
731.30	1082.80
731.63	1080.77
731.97	1082.15
732.30	1081.61
732.63	1082.08
732.96	1079.24
733.30	1079.92
733.63	1077.70
733.96	1079.17
734.29	1079.13
734.63	1079.27
734.96	1079.46
735.29	1081.66
735.62	1080.23
735.95	1080.91
736.29	1084.67
736.62	1083.46
736.95	1084.93
737.28	1083.60
737.61	1085.38
737.94	1084.77
738.28	1085.24
738.61	1083.81
738.94	1087.32
739.27	1084.35
739.60	1083.01
739.93	1084.74
740.27	1085.35
740.60	1085.19
740.93	1086.15
741.26	1084.02
741.59	1083.55
741.92	1083.69
742.25	1083.11
742.58	1086.10
742.91	1088.07
743.25	1084.53
743.58	1083.06
743.91	1082.76
744.24	1084.25
744.57	1082.99
744.90	1084.65
745.23	1082.90
745.56	1082.66
745.89	1077.58
746.22	1077.58
746.55	1078.73
746.88	1080.34
747.21	1079.36
747.54	1081.63
747.87	1079.08
748.20	1080.13
748.53	1081.40
748.87	1082.92
749.20	1081.61
749.53	1085.35
749.86	1085.12
750.19	1085.80
750.52	1088.63
750.85	1088.84
751.18	1085.89
751.51	1083.36
751.84	1079.95
752.16	1074.00
752.49	1074.56
752.82	1077.86
753.15	1078.85
753.48	1081.26
753.81	1085.24
754.14	1082.24
754.47	1081.37
754.80	1081.66
755.13	1081.40
755.46	1078.85
755.79	1082.24
756.12	1079.15
756.45	1077.51
756.78	1078.33
757.11	1076.46
757.43	1075.64
757.76	1079.55
758.09	1078.36
758.42	1078.45
758.75	1080.04
759.08	1078.87
759.41	1076.86
759.74	1080.70
760.07	1080.53
760.39	1080.70
760.72	1082.24
761.05	1081.66
761.38	1079.88
761.71	1076.62
762.04	1076.60
762.36	1076.74
762.69	1078.03
763.02	1077.47
763.35	1080.18
763.68	1082.69
