SpectraSuite Data File
++++++++++++++++++++++++++++++++++++
Date: Mon Aug 26 10:22:34 PDT 2019
User: corrico
Dark Spectrum Present: No
Reference Spectrum Present: No
Number of Sampled Component Spectra: 1
Spectrometers: USB2+H06089
Integration Time (usec): 2000 (USB2+H06089)
Spectra Averaged: 20 (USB2+H06089)
Boxcar Smoothing: 2 (USB2+H06089)
Correct for Electrical Dark: No (USB2+H06089)
Strobe/Lamp Enabled: No (USB2+H06089)
Correct for Detector Non-linearity: No (USB2+H06089)
Correct for Stray Light: No (USB2+H06089)
Number of Pixels in Processed Spectrum: 2048
>>>>>Begin Processed Spectral Data<<<<<
339.70	1034.98
340.07	1034.98
340.45	994.94
340.82	971.06
341.19	948.10
341.57	921.87
341.94	914.85
342.31	907.75
342.69	903.75
343.06	898.06
343.43	897.15
343.81	897.57
344.18	899.49
344.55	904.83
344.93	910.30
345.30	914.99
345.67	919.20
346.04	928.30
346.42	936.10
346.79	942.16
347.16	953.23
347.54	964.44
347.91	974.97
348.28	983.52
348.65	996.16
349.03	1006.64
349.40	1012.61
349.77	1021.32
350.14	1028.99
350.52	1035.01
350.89	1039.69
351.26	1046.43
351.63	1048.65
352.01	1057.36
352.38	1062.06
352.75	1066.09
353.12	1071.47
353.50	1076.83
353.87	1075.08
354.24	1078.19
354.61	1079.46
354.98	1080.63
355.36	1077.04
355.73	1077.37
356.10	1074.21
356.47	1074.66
356.84	1073.35
357.22	1077.35
357.59	1079.22
357.96	1085.73
358.33	1087.09
358.70	1089.96
359.08	1090.06
359.45	1085.28
359.82	1084.14
360.19	1083.90
360.56	1082.52
360.94	1083.53
361.31	1085.56
361.68	1084.91
362.05	1083.83
362.42	1084.39
362.79	1078.66
363.16	1080.13
363.54	1075.31
363.91	1076.62
364.28	1074.14
364.65	1075.90
365.02	1071.38
365.39	1077.16
365.76	1075.83
366.14	1075.27
366.51	1075.34
366.88	1076.08
367.25	1073.00
367.62	1072.71
367.99	1072.01
368.36	1072.83
368.73	1075.50
369.10	1072.50
369.48	1069.11
369.85	1069.67
370.22	1068.85
370.59	1069.70
370.96	1071.73
371.33	1074.00
371.70	1076.01
372.07	1080.44
372.44	1076.41
372.81	1075.78
373.18	1076.13
373.55	1073.23
373.93	1068.99
374.30	1073.72
374.67	1075.78
375.04	1075.13
375.41	1081.73
375.78	1079.97
376.15	1079.36
376.52	1078.31
376.89	1079.22
377.26	1076.23
377.63	1080.37
378.00	1079.31
378.37	1079.48
378.74	1081.40
379.11	1080.32
379.48	1080.98
379.85	1080.79
380.22	1079.69
380.59	1078.40
380.96	1077.47
381.33	1074.47
381.70	1075.59
382.07	1075.62
382.44	1074.89
382.81	1074.40
383.18	1076.81
383.55	1077.44
383.92	1080.25
384.29	1079.31
384.66	1078.66
385.03	1078.54
385.40	1079.22
385.77	1077.56
386.14	1080.56
386.51	1084.35
386.88	1081.49
387.25	1078.80
387.62	1079.57
387.99	1079.24
388.36	1076.76
388.73	1080.44
389.10	1082.01
389.46	1084.11
389.83	1081.54
390.20	1082.29
390.57	1081.75
390.94	1081.51
391.31	1080.53
391.68	1083.18
392.05	1083.25
392.42	1082.76
392.79	1082.24
393.16	1081.68
393.53	1079.92
393.89	1081.49
394.26	1084.09
394.63	1086.17
395.00	1085.19
395.37	1085.99
395.74	1087.67
396.11	1085.61
396.48	1084.44
396.84	1086.69
397.21	1088.89
397.58	1085.68
397.95	1088.21
398.32	1089.47
398.69	1088.82
399.06	1086.41
399.42	1087.16
399.79	1084.96
400.16	1084.67
400.53	1087.93
400.90	1087.72
401.27	1087.30
401.64	1088.75
402.00	1092.05
402.37	1089.71
402.74	1094.25
403.11	1096.52
403.48	1094.27
403.84	1091.16
404.21	1088.21
404.58	1088.61
404.95	1087.11
405.32	1086.64
405.68	1087.46
406.05	1088.98
406.42	1089.33
406.79	1091.67
407.16	1095.23
407.52	1095.77
407.89	1098.37
408.26	1097.03
408.63	1096.40
408.99	1096.14
409.36	1097.99
409.73	1096.14
410.10	1094.06
410.47	1089.99
410.83	1089.05
411.20	1086.20
411.57	1084.72
411.94	1084.35
412.30	1087.55
412.67	1091.27
413.04	1095.70
413.40	1100.33
413.77	1102.09
414.14	1104.52
414.51	1103.12
414.87	1100.78
415.24	1098.98
415.61	1100.45
415.97	1098.58
416.34	1103.07
416.71	1102.65
417.08	1105.22
417.44	1103.84
417.81	1107.52
418.18	1104.24
418.54	1110.23
418.91	1108.03
419.28	1111.31
419.64	1111.89
420.01	1111.26
420.38	1110.79
420.74	1112.90
421.11	1115.52
421.48	1118.57
421.84	1121.51
422.21	1120.91
422.58	1127.93
422.94	1127.25
423.31	1125.98
423.68	1129.96
424.04	1134.72
424.41	1136.17
424.77	1139.05
425.14	1146.30
425.51	1150.58
425.87	1153.04
426.24	1156.86
426.61	1165.54
426.97	1166.94
427.34	1169.75
427.70	1174.29
428.07	1180.87
428.44	1184.97
428.80	1192.25
429.17	1200.27
429.53	1209.26
429.90	1218.95
430.27	1231.07
430.63	1240.23
431.00	1251.13
431.36	1263.47
431.73	1273.27
432.09	1287.04
432.46	1304.99
432.83	1321.84
433.19	1335.91
433.56	1354.96
433.92	1367.25
434.29	1387.40
434.65	1411.81
435.02	1437.28
435.38	1463.12
435.75	1491.09
436.11	1522.24
436.48	1547.75
436.84	1581.66
437.21	1616.87
437.57	1659.23
437.94	1696.49
438.30	1747.72
438.67	1793.95
439.03	1847.64
439.40	1898.71
439.76	1957.39
440.13	2011.15
440.49	2073.50
440.86	2131.69
441.22	2203.71
441.59	2272.94
441.95	2357.79
442.32	2442.02
442.68	2540.09
443.05	2632.75
443.41	2737.23
443.78	2831.04
444.14	2940.70
444.51	3047.63
444.87	3179.03
445.24	3314.71
445.60	3465.87
445.96	3610.93
446.33	3777.91
446.69	3942.49
447.06	4112.95
447.42	4294.06
447.79	4493.10
448.15	4713.68
448.51	4940.96
448.88	5206.19
449.24	5447.97
449.61	5732.30
449.97	6011.62
450.33	6302.17
450.70	6559.56
451.06	6887.85
451.43	7185.91
451.79	7535.94
452.15	7935.14
452.52	8384.52
452.88	8849.47
453.24	9361.37
453.61	9923.75
453.97	10471.14
454.34	11008.29
454.70	11652.71
455.06	12308.53
455.43	12949.20
455.79	13548.85
456.15	14262.38
456.52	14894.94
456.88	15646.39
457.24	16352.06
457.61	17174.31
457.97	17923.89
458.33	18686.21
458.70	19418.16
459.06	20174.46
459.42	21024.85
459.79	21800.80
460.15	22713.21
460.51	23588.11
460.88	24503.51
461.24	25290.78
461.60	26236.84
461.96	27087.14
462.33	27914.98
462.69	28683.66
463.05	29477.43
463.42	30175.57
463.78	30804.42
464.14	31301.62
464.50	31892.28
464.87	32382.08
465.23	32743.28
465.59	33102.29
465.95	33431.72
466.32	33640.19
466.68	33838.86
467.04	33966.25
467.40	34103.34
467.77	34253.06
468.13	34266.07
468.49	34191.90
468.85	34101.56
469.22	33914.64
469.58	33567.61
469.94	33308.12
470.30	32995.91
470.66	32612.51
471.03	32061.66
471.39	31690.88
471.75	31075.69
472.11	30472.60
472.47	30085.97
472.84	29742.94
473.20	29250.75
473.56	28979.16
473.92	28563.87
474.28	28064.78
474.65	27577.22
475.01	27120.19
475.37	26548.16
475.73	26094.68
476.09	25557.99
476.45	25019.37
476.81	24493.85
477.18	23964.98
477.54	23523.39
477.90	23189.30
478.26	22807.84
478.62	22486.06
478.98	22209.81
479.34	21894.17
479.71	21488.04
480.07	21150.86
480.43	20796.76
480.79	20425.15
481.15	20083.86
481.51	19791.62
481.87	19532.78
482.23	19245.55
482.59	18994.43
482.96	18710.57
483.32	18408.10
483.68	18051.76
484.04	17716.50
484.40	17355.66
484.76	16986.37
485.12	16638.87
485.48	16306.16
485.84	15966.29
486.20	15618.04
486.56	15275.20
486.92	14945.19
487.28	14601.01
487.64	14239.89
488.00	13910.37
488.37	13583.65
488.73	13238.68
489.09	12897.76
489.45	12598.96
489.81	12281.89
490.17	11988.46
490.53	11699.68
490.89	11393.33
491.25	11087.49
491.61	10791.30
491.97	10476.31
492.33	10146.81
492.69	9866.76
493.05	9570.12
493.41	9270.74
493.77	8998.89
494.13	8761.21
494.49	8512.01
494.85	8281.45
495.21	8082.24
495.57	7875.90
495.93	7667.90
496.29	7478.32
496.64	7303.27
497.00	7114.67
497.36	6914.53
497.72	6723.73
498.08	6537.84
498.44	6344.84
498.80	6175.04
499.16	6034.77
499.52	5896.51
499.88	5775.06
500.24	5667.09
500.60	5551.56
500.96	5425.85
501.32	5305.18
501.68	5183.23
502.03	5049.99
502.39	4917.93
502.75	4781.71
503.11	4657.67
503.47	4536.40
503.83	4414.02
504.19	4296.64
504.55	4199.97
504.91	4109.84
505.26	4017.72
505.62	3936.94
505.98	3851.09
506.34	3756.14
506.70	3661.53
507.06	3569.76
507.42	3484.31
507.78	3408.31
508.13	3337.86
508.49	3261.49
508.85	3192.96
509.21	3121.62
509.57	3052.48
509.93	2989.82
510.28	2925.88
510.64	2859.71
511.00	2799.12
511.36	2741.17
511.72	2685.11
512.07	2632.82
512.43	2584.00
512.79	2531.73
513.15	2482.49
513.51	2433.81
513.86	2391.86
514.22	2350.51
514.58	2314.63
514.94	2277.60
515.30	2242.12
515.65	2207.87
516.01	2174.52
516.37	2143.74
516.73	2117.62
517.08	2090.94
517.44	2058.69
517.80	2030.04
518.16	2001.84
518.51	1976.25
518.87	1950.70
519.23	1924.48
519.59	1904.24
519.94	1876.81
520.30	1851.57
520.66	1827.47
521.01	1806.14
521.37	1777.31
521.73	1759.64
522.09	1735.81
522.44	1717.65
522.80	1698.08
523.16	1682.54
523.51	1661.97
523.87	1642.26
524.23	1620.98
524.58	1603.03
524.94	1582.41
525.30	1564.84
525.65	1549.93
526.01	1534.83
526.37	1518.00
526.72	1508.71
527.08	1496.33
527.44	1484.60
527.79	1471.07
528.15	1463.26
528.51	1447.74
528.86	1439.99
529.22	1426.23
529.58	1415.42
529.93	1401.44
530.29	1394.84
530.65	1380.45
531.00	1373.89
531.36	1364.46
531.71	1358.68
532.07	1346.02
532.43	1338.90
532.78	1326.99
533.14	1322.24
533.49	1317.67
533.85	1312.99
534.21	1305.46
534.56	1305.01
534.92	1299.61
535.27	1289.66
535.63	1285.61
535.98	1281.89
536.34	1274.42
536.69	1264.80
537.05	1259.91
537.41	1247.34
537.76	1241.61
538.12	1236.65
538.47	1234.52
538.83	1230.86
539.18	1235.29
539.54	1233.09
539.89	1226.91
540.25	1221.41
540.60	1217.64
540.96	1208.42
541.31	1204.53
541.67	1204.77
542.02	1202.71
542.38	1202.08
542.73	1202.75
543.09	1197.49
543.44	1195.45
543.80	1192.60
544.15	1189.37
544.51	1188.38
544.86	1187.19
545.22	1179.72
545.57	1176.14
545.93	1170.27
546.28	1164.16
546.64	1162.36
546.99	1162.24
547.35	1163.20
547.70	1165.54
548.05	1166.83
548.41	1164.77
548.76	1163.43
549.12	1159.81
549.47	1154.24
549.83	1147.94
550.18	1144.05
550.53	1144.36
550.89	1143.28
551.24	1142.09
551.60	1140.68
551.95	1140.36
552.30	1134.81
552.66	1134.57
553.01	1134.01
553.37	1134.34
553.72	1134.50
554.07	1135.67
554.43	1132.80
554.78	1131.04
555.13	1131.60
555.49	1131.84
555.84	1130.57
556.19	1129.36
556.55	1128.54
556.90	1125.80
557.26	1123.74
557.61	1121.58
557.96	1120.91
558.32	1118.96
558.67	1118.96
559.02	1117.89
559.37	1119.97
559.73	1117.70
560.08	1119.13
560.43	1116.30
560.79	1116.72
561.14	1113.35
561.49	1111.45
561.85	1108.03
562.20	1112.34
562.55	1109.34
562.90	1109.16
563.26	1111.47
563.61	1112.36
563.96	1105.39
564.32	1106.18
564.67	1106.11
565.02	1104.92
565.37	1103.89
565.73	1105.93
566.08	1103.77
566.43	1101.11
566.78	1098.39
567.14	1098.02
567.49	1098.30
567.84	1098.76
568.19	1100.00
568.54	1104.38
568.90	1106.65
569.25	1110.09
569.60	1108.27
569.95	1107.66
570.31	1104.05
570.66	1100.92
571.01	1098.02
571.36	1099.65
571.71	1103.00
572.06	1105.53
572.42	1104.80
572.77	1102.06
573.12	1101.08
573.47	1096.85
573.82	1091.20
574.18	1091.93
574.53	1092.21
574.88	1093.26
575.23	1095.70
575.58	1098.51
575.93	1098.81
576.28	1099.72
576.64	1097.52
576.99	1094.22
577.34	1092.21
577.69	1091.49
578.04	1090.50
578.39	1090.83
578.74	1093.36
579.09	1096.24
579.44	1094.69
579.80	1095.60
580.15	1093.87
580.50	1093.69
580.85	1093.66
581.20	1096.52
581.55	1095.44
581.90	1096.28
582.25	1093.08
582.60	1093.87
582.95	1092.09
583.30	1093.10
583.65	1090.71
584.00	1091.65
584.35	1090.34
584.71	1090.39
585.06	1088.42
585.41	1093.85
585.76	1093.22
586.11	1091.56
586.46	1091.16
586.81	1089.61
587.16	1085.73
587.51	1088.14
587.86	1087.51
588.21	1086.73
588.56	1089.50
588.91	1092.00
589.26	1090.92
589.61	1093.24
589.96	1094.08
590.31	1095.25
590.66	1091.60
591.01	1091.32
591.36	1087.93
591.71	1084.58
592.06	1084.14
592.41	1087.25
592.76	1088.68
593.10	1089.87
593.45	1092.35
593.80	1088.37
594.15	1086.66
594.50	1084.60
594.85	1084.28
595.20	1081.42
595.55	1087.13
595.90	1088.79
596.25	1089.26
596.60	1088.40
596.95	1091.72
597.30	1089.73
597.64	1097.24
597.99	1095.14
598.34	1093.69
598.69	1092.59
599.04	1093.45
599.39	1083.95
599.74	1083.55
600.09	1083.79
600.44	1086.31
600.78	1079.81
601.13	1080.18
601.48	1079.99
601.83	1080.53
602.18	1077.00
602.53	1079.83
602.88	1081.35
603.22	1083.15
603.57	1085.89
603.92	1089.45
604.27	1088.54
604.62	1086.29
604.97	1085.70
605.31	1086.10
605.66	1083.71
606.01	1085.28
606.36	1086.15
606.71	1085.17
607.05	1081.80
607.40	1080.65
607.75	1082.24
608.10	1082.90
608.44	1084.44
608.79	1086.31
609.14	1089.03
609.49	1087.74
609.84	1087.11
610.18	1086.64
610.53	1087.30
610.88	1087.46
611.23	1087.81
611.57	1089.92
611.92	1090.27
612.27	1091.13
612.62	1088.35
612.96	1089.12
613.31	1087.41
613.66	1086.83
614.00	1085.35
614.35	1084.56
614.70	1085.33
615.05	1082.71
615.39	1081.07
615.74	1083.18
616.09	1083.50
616.43	1079.67
616.78	1081.26
617.13	1081.61
617.47	1079.34
617.82	1078.33
618.17	1077.68
618.51	1077.93
618.86	1083.55
619.21	1083.13
619.55	1085.14
619.90	1086.57
620.25	1086.29
620.59	1082.29
620.94	1081.91
621.29	1082.08
621.63	1085.19
621.98	1084.72
622.32	1084.28
622.67	1086.22
623.02	1085.35
623.36	1079.50
623.71	1076.83
624.05	1075.66
624.40	1073.63
624.75	1074.05
625.09	1077.56
625.44	1079.08
625.78	1081.44
626.13	1082.99
626.48	1081.16
626.82	1082.45
627.17	1086.06
627.51	1083.32
627.86	1080.95
628.20	1082.64
628.55	1078.40
628.89	1077.35
629.24	1078.66
629.58	1081.66
629.93	1081.96
630.28	1085.42
630.62	1083.71
630.97	1081.87
631.31	1080.46
631.66	1082.17
632.00	1079.27
632.35	1079.41
632.69	1081.14
633.04	1081.12
633.38	1078.03
633.73	1079.41
634.07	1078.78
634.42	1080.23
634.76	1081.58
635.11	1081.70
635.45	1082.22
635.79	1083.67
636.14	1085.24
636.48	1084.58
636.83	1084.37
637.17	1084.98
637.52	1083.86
637.86	1080.51
638.21	1075.97
638.55	1076.34
638.89	1075.64
639.24	1076.15
639.58	1078.07
639.93	1082.45
640.27	1083.64
640.61	1084.72
640.96	1085.75
641.30	1087.88
641.65	1086.80
641.99	1088.00
642.33	1086.24
642.68	1086.50
643.02	1083.04
643.37	1082.57
643.71	1079.92
644.05	1080.41
644.40	1081.16
644.74	1081.37
645.08	1078.75
645.43	1080.77
645.77	1083.64
646.11	1080.60
646.46	1079.67
646.80	1080.27
647.14	1080.74
647.49	1077.00
647.83	1076.27
648.17	1076.93
648.52	1084.30
648.86	1084.16
649.20	1085.96
649.55	1089.03
649.89	1088.96
650.23	1081.56
650.57	1079.46
650.92	1079.99
651.26	1079.24
651.60	1080.63
651.95	1083.88
652.29	1085.45
652.63	1086.87
652.97	1085.52
653.32	1082.08
653.66	1081.94
654.00	1082.12
654.34	1078.68
654.69	1081.66
655.03	1086.01
655.37	1089.19
655.71	1090.13
656.05	1092.09
656.40	1085.33
656.74	1081.58
657.08	1076.46
657.42	1074.31
657.76	1070.26
658.11	1074.68
658.45	1077.02
658.79	1078.21
659.13	1079.34
659.47	1082.83
659.82	1079.57
660.16	1081.07
660.50	1084.84
660.84	1086.29
661.18	1085.87
661.52	1089.71
661.87	1085.96
662.21	1081.30
662.55	1080.65
662.89	1082.15
663.23	1085.87
663.57	1088.26
663.91	1091.16
664.25	1089.68
664.60	1088.14
664.94	1083.53
665.28	1081.33
665.62	1079.03
665.96	1078.78
666.30	1077.30
666.64	1076.74
666.98	1078.40
667.32	1080.13
667.66	1078.50
668.01	1079.17
668.35	1078.31
668.69	1075.27
669.03	1072.78
669.37	1074.38
669.71	1074.49
670.05	1074.00
670.39	1076.93
670.73	1080.18
671.07	1083.39
671.41	1086.78
671.75	1089.96
672.09	1089.05
672.43	1086.62
672.77	1083.50
673.11	1081.75
673.45	1081.37
673.79	1082.10
674.13	1081.94
674.47	1081.47
674.81	1079.83
675.15	1079.01
675.49	1079.36
675.83	1077.58
676.17	1078.14
676.51	1078.31
676.85	1077.75
677.19	1077.58
677.53	1080.25
677.87	1082.01
678.21	1081.98
678.55	1079.78
678.89	1080.06
679.23	1078.14
679.57	1076.23
679.90	1076.65
680.24	1081.30
680.58	1080.25
680.92	1081.94
681.26	1084.04
681.60	1085.45
681.94	1082.80
682.28	1084.46
682.62	1084.46
682.96	1081.00
683.29	1079.41
683.63	1080.70
683.97	1079.99
684.31	1079.74
684.65	1081.19
684.99	1079.83
685.33	1079.69
685.67	1078.71
686.00	1079.78
686.34	1080.44
686.68	1078.85
687.02	1078.07
687.36	1078.40
687.70	1077.11
688.03	1076.90
688.37	1079.15
688.71	1080.32
689.05	1079.43
689.39	1079.76
689.72	1080.02
690.06	1080.30
690.40	1080.27
690.74	1079.43
691.08	1078.92
691.41	1080.06
691.75	1079.97
692.09	1079.24
692.43	1079.01
692.76	1076.88
693.10	1075.92
693.44	1077.25
693.78	1074.63
694.11	1076.58
694.45	1081.35
694.79	1083.11
695.13	1082.71
695.46	1086.73
695.80	1087.34
696.14	1087.04
696.48	1084.00
696.81	1084.35
697.15	1083.08
697.49	1080.88
697.82	1080.51
698.16	1081.05
698.50	1082.83
698.83	1086.71
699.17	1087.93
699.51	1087.16
699.84	1083.86
700.18	1081.21
700.52	1075.31
700.85	1075.17
701.19	1075.87
701.53	1077.18
701.86	1075.45
702.20	1078.12
702.54	1078.33
702.87	1076.65
703.21	1075.73
703.55	1076.88
703.88	1077.96
704.22	1079.53
704.55	1079.34
704.89	1081.40
705.23	1082.97
705.56	1081.84
705.90	1080.63
706.23	1079.90
706.57	1082.17
706.91	1079.74
707.24	1078.87
707.58	1080.72
707.91	1080.63
708.25	1080.06
708.58	1081.66
708.92	1082.10
709.26	1080.34
709.59	1084.79
709.93	1083.79
710.26	1082.36
710.60	1080.81
710.93	1079.48
711.27	1077.16
711.60	1080.44
711.94	1081.42
712.27	1081.35
712.61	1080.60
712.94	1078.89
713.28	1073.51
713.61	1074.91
713.95	1075.55
714.28	1074.94
714.62	1075.76
714.95	1076.37
715.29	1077.47
715.62	1077.61
715.96	1078.96
716.29	1078.33
716.63	1078.43
716.96	1078.66
717.29	1079.31
717.63	1079.43
717.96	1079.67
718.30	1080.86
718.63	1078.61
718.97	1076.32
719.30	1076.20
719.63	1079.20
719.97	1079.38
720.30	1077.44
720.64	1081.21
720.97	1078.92
721.30	1078.89
721.64	1078.54
721.97	1081.73
722.31	1079.17
722.64	1081.07
722.97	1079.76
723.31	1078.80
723.64	1077.54
723.97	1079.24
724.31	1080.23
724.64	1077.58
724.98	1076.97
725.31	1074.28
725.64	1073.21
725.98	1070.91
726.31	1072.53
726.64	1072.29
726.97	1073.95
727.31	1075.41
727.64	1076.27
727.97	1074.40
728.31	1074.28
728.64	1073.74
728.97	1070.07
729.31	1068.31
729.64	1071.47
729.97	1075.34
730.30	1074.17
730.64	1077.89
730.97	1079.10
731.30	1075.57
731.63	1077.02
731.97	1077.56
732.30	1077.61
732.63	1082.36
732.96	1084.91
733.30	1080.02
733.63	1083.57
733.96	1082.24
734.29	1079.60
734.63	1076.55
734.96	1078.21
735.29	1076.15
735.62	1076.53
735.95	1075.85
736.29	1079.88
736.62	1077.23
736.95	1075.71
737.28	1075.83
737.61	1076.32
737.94	1074.80
738.28	1079.03
738.61	1079.41
738.94	1079.48
739.27	1080.41
739.60	1080.44
739.93	1077.09
740.27	1079.24
740.60	1079.41
740.93	1078.47
741.26	1080.44
741.59	1082.97
741.92	1082.71
742.25	1081.66
742.58	1081.14
742.91	1079.36
743.25	1077.28
743.58	1074.98
743.91	1072.39
744.24	1070.72
744.57	1072.46
744.90	1073.46
745.23	1078.38
745.56	1079.97
745.89	1081.21
746.22	1077.28
746.55	1076.62
746.88	1074.05
747.21	1078.07
747.54	1076.88
747.87	1079.13
748.20	1079.46
748.53	1078.50
748.87	1074.03
749.20	1075.48
749.53	1071.59
749.86	1071.66
750.19	1073.51
750.52	1077.25
750.85	1078.43
751.18	1083.18
751.51	1082.19
751.84	1079.83
752.16	1077.79
752.49	1075.87
752.82	1073.77
753.15	1074.17
753.48	1072.04
753.81	1070.44
754.14	1072.78
754.47	1074.05
754.80	1074.03
755.13	1079.15
755.46	1078.80
755.79	1075.43
756.12	1076.62
756.45	1078.92
756.78	1078.40
757.11	1081.66
757.43	1086.55
757.76	1084.37
758.09	1082.57
758.42	1081.68
758.75	1081.28
759.08	1078.54
759.41	1081.23
759.74	1081.68
760.07	1080.58
760.39	1080.44
760.72	1083.46
761.05	1078.03
761.38	1076.06
761.71	1076.65
762.04	1075.20
762.36	1071.29
762.69	1074.80
763.02	1080.46
763.35	1079.83
763.68	1079.83
764.01	1084.51
