SpectraSuite Data File
++++++++++++++++++++++++++++++++++++
Date: Mon Aug 26 10:22:31 PDT 2019
User: corrico
Dark Spectrum Present: No
Reference Spectrum Present: No
Number of Sampled Component Spectra: 1
Spectrometers: USB2+H06089
Integration Time (usec): 2000 (USB2+H06089)
Spectra Averaged: 20 (USB2+H06089)
Boxcar Smoothing: 2 (USB2+H06089)
Correct for Electrical Dark: No (USB2+H06089)
Strobe/Lamp Enabled: No (USB2+H06089)
Correct for Detector Non-linearity: No (USB2+H06089)
Correct for Stray Light: No (USB2+H06089)
Number of Pixels in Processed Spectrum: 2048
>>>>>Begin Processed Spectral Data<<<<<
339.70	1016.73
340.07	1016.73
340.45	987.17
340.82	968.44
341.19	945.27
341.57	922.26
341.94	913.07
342.31	902.91
342.69	897.53
343.06	894.41
343.43	895.61
343.81	895.91
344.18	900.50
344.55	906.65
344.93	914.63
345.30	918.22
345.67	922.80
346.04	931.70
346.42	939.77
346.79	947.71
347.16	955.83
347.54	967.18
347.91	973.97
348.28	982.16
348.65	993.37
349.03	1003.08
349.40	1012.12
349.77	1019.42
350.14	1026.09
350.52	1032.01
350.89	1041.87
351.26	1046.62
351.63	1056.14
352.01	1060.26
352.38	1063.38
352.75	1065.69
353.12	1070.80
353.50	1075.13
353.87	1078.75
354.24	1080.95
354.61	1082.22
354.98	1083.39
355.36	1079.74
355.73	1080.34
356.10	1082.31
356.47	1083.04
356.84	1085.19
357.22	1088.09
357.59	1089.87
357.96	1088.16
358.33	1088.02
358.70	1084.09
359.08	1084.44
359.45	1081.77
359.82	1084.77
360.19	1085.05
360.56	1085.10
360.94	1079.50
361.31	1078.45
361.68	1078.52
362.05	1076.69
362.42	1079.29
362.79	1083.29
363.16	1085.05
363.54	1081.28
363.91	1080.32
364.28	1078.85
364.65	1079.78
365.02	1078.85
365.39	1080.13
365.76	1081.19
366.14	1082.78
366.51	1082.17
366.88	1079.15
367.25	1078.28
367.62	1080.53
367.99	1079.43
368.36	1078.33
368.73	1081.28
369.10	1078.19
369.48	1075.10
369.85	1072.41
370.22	1069.53
370.59	1072.22
370.96	1071.73
371.33	1071.52
371.70	1070.63
372.07	1075.50
372.44	1072.57
372.81	1075.92
373.18	1078.43
373.55	1079.17
373.93	1077.04
374.30	1075.83
374.67	1075.22
375.04	1075.90
375.41	1076.97
375.78	1078.07
376.15	1080.39
376.52	1081.75
376.89	1081.98
377.26	1085.17
377.63	1084.14
378.00	1085.21
378.37	1083.15
378.74	1080.77
379.11	1080.39
379.48	1082.73
379.85	1076.62
380.22	1079.67
380.59	1083.50
380.96	1081.28
381.33	1079.08
381.70	1084.91
382.07	1083.81
382.44	1078.52
382.81	1079.22
383.18	1079.78
383.55	1077.82
383.92	1078.14
384.29	1078.80
384.66	1077.72
385.03	1076.74
385.40	1076.79
385.77	1078.36
386.14	1079.20
386.51	1081.07
386.88	1084.07
387.25	1082.69
387.62	1081.56
387.99	1082.97
388.36	1080.60
388.73	1078.80
389.10	1079.53
389.46	1080.60
389.83	1082.17
390.20	1086.62
390.57	1085.59
390.94	1090.50
391.31	1089.40
391.68	1090.27
392.05	1090.29
392.42	1094.55
392.79	1090.22
393.16	1092.42
393.53	1091.51
393.89	1088.63
394.26	1085.24
394.63	1088.16
395.00	1086.34
395.37	1085.70
395.74	1091.42
396.11	1092.52
396.48	1091.25
396.84	1091.58
397.21	1092.26
397.58	1090.53
397.95	1089.43
398.32	1088.91
398.69	1091.18
399.06	1087.04
399.42	1086.83
399.79	1085.26
400.16	1084.60
400.53	1085.17
400.90	1091.84
401.27	1089.82
401.64	1092.52
402.00	1094.34
402.37	1090.22
402.74	1086.24
403.11	1087.04
403.48	1085.99
403.84	1086.50
404.21	1090.53
404.58	1093.03
404.95	1092.05
405.32	1094.74
405.68	1092.40
406.05	1089.05
406.42	1087.69
406.79	1088.23
407.16	1090.39
407.52	1091.81
407.89	1096.26
408.26	1099.47
408.63	1097.69
408.99	1093.33
409.36	1094.53
409.73	1092.73
410.10	1090.15
410.47	1091.86
410.83	1093.90
411.20	1097.15
411.57	1099.19
411.94	1101.43
412.30	1105.06
412.67	1105.04
413.04	1102.60
413.40	1101.46
413.77	1101.18
414.14	1100.94
414.51	1102.23
414.87	1103.42
415.24	1104.94
415.61	1107.64
415.97	1109.72
416.34	1109.48
416.71	1109.23
417.08	1106.46
417.44	1102.39
417.81	1102.32
418.18	1105.55
418.54	1105.55
418.91	1110.26
419.28	1115.05
419.64	1112.88
420.01	1111.03
420.38	1116.58
420.74	1117.54
421.11	1116.74
421.48	1120.65
421.84	1123.81
422.21	1123.86
422.58	1122.26
422.94	1124.81
423.31	1122.50
423.68	1126.41
424.04	1127.97
424.41	1133.43
424.77	1134.86
425.14	1141.25
425.51	1144.62
425.87	1149.58
426.24	1152.76
426.61	1157.49
426.97	1165.49
427.34	1168.93
427.70	1174.69
428.07	1183.30
428.44	1191.66
428.80	1197.09
429.17	1208.14
429.53	1217.38
429.90	1225.79
430.27	1236.08
430.63	1247.86
431.00	1255.63
431.36	1263.21
431.73	1272.64
432.09	1285.40
432.46	1297.55
432.83	1315.78
433.19	1335.04
433.56	1356.97
433.92	1375.56
434.29	1397.00
434.65	1419.84
435.02	1443.10
435.38	1469.58
435.75	1497.94
436.11	1530.38
436.48	1559.45
436.84	1596.74
437.21	1631.31
437.57	1668.61
437.94	1708.73
438.30	1755.31
438.67	1799.33
439.03	1847.13
439.40	1901.15
439.76	1953.15
440.13	2012.42
440.49	2078.96
440.86	2143.23
441.22	2217.49
441.59	2290.57
441.95	2370.80
442.32	2453.91
442.68	2556.24
443.05	2646.79
443.41	2747.79
443.78	2843.31
444.14	2945.49
444.51	3057.07
444.87	3197.78
445.24	3337.70
445.60	3496.11
445.96	3655.47
446.33	3819.82
446.69	3977.48
447.06	4157.03
447.42	4340.66
447.79	4537.03
448.15	4757.28
448.51	4989.20
448.88	5250.17
449.24	5484.72
449.61	5762.05
449.97	6034.23
450.33	6314.04
450.70	6575.74
451.06	6898.00
451.43	7203.30
451.79	7563.09
452.15	7972.82
452.52	8417.27
452.88	8894.74
453.24	9425.59
453.61	10004.41
453.97	10559.47
454.34	11101.54
454.70	11744.11
455.06	12388.36
455.43	13012.18
455.79	13603.19
456.15	14332.20
456.52	14979.31
456.88	15744.90
457.24	16456.92
457.61	17313.29
457.97	18073.69
458.33	18852.55
458.70	19620.99
459.06	20397.46
459.42	21225.19
459.79	21995.40
460.15	22902.84
460.51	23749.04
460.88	24676.31
461.24	25480.38
461.60	26460.76
461.96	27330.08
462.33	28183.28
462.69	28952.78
463.05	29782.64
463.42	30476.30
463.78	31106.68
464.14	31619.47
464.50	32202.05
464.87	32669.67
465.23	33007.92
465.59	33371.62
465.95	33682.56
466.32	33940.37
466.68	34180.25
467.04	34317.80
467.40	34441.38
467.77	34617.46
468.13	34603.53
468.49	34478.08
468.85	34394.41
469.22	34231.83
469.58	33876.75
469.94	33626.31
470.30	33350.11
470.66	32930.57
471.03	32326.03
471.39	31935.56
471.75	31275.60
472.11	30650.63
472.47	30278.04
472.84	29953.05
473.20	29439.59
473.56	29190.90
473.92	28771.57
474.28	28291.25
474.65	27816.03
475.01	27354.73
475.37	26786.00
475.73	26333.79
476.09	25786.81
476.45	25252.34
476.81	24736.63
477.18	24207.32
477.54	23759.69
477.90	23429.30
478.26	23034.76
478.62	22703.45
478.98	22428.23
479.34	22115.68
479.71	21688.64
480.07	21333.68
480.43	20979.09
480.79	20566.52
481.15	20206.87
481.51	19918.43
481.87	19682.45
482.23	19399.27
482.59	19175.73
482.96	18903.15
483.32	18591.86
483.68	18206.91
484.04	17876.71
484.40	17485.79
484.76	17105.62
485.12	16744.71
485.48	16432.64
485.84	16075.36
486.20	15737.86
486.56	15383.64
486.92	15074.62
487.28	14727.26
487.64	14363.80
488.00	14036.85
488.37	13709.36
488.73	13348.17
489.09	12988.97
489.45	12685.40
489.81	12368.70
490.17	12085.22
490.53	11799.62
490.89	11504.15
491.25	11197.54
491.61	10888.78
491.97	10570.02
492.33	10248.43
492.69	9962.33
493.05	9659.91
493.41	9376.79
493.77	9089.82
494.13	8845.59
494.49	8591.24
494.85	8356.65
495.21	8138.70
495.57	7936.19
495.93	7718.90
496.29	7520.47
496.64	7334.56
497.00	7140.18
497.36	6944.09
497.72	6758.60
498.08	6570.14
498.44	6393.08
498.80	6226.08
499.16	6064.63
499.52	5921.84
499.88	5800.57
500.24	5681.70
500.60	5556.60
500.96	5442.61
501.32	5318.66
501.68	5194.68
502.03	5065.67
502.39	4940.24
502.75	4810.18
503.11	4688.07
503.47	4565.61
503.83	4444.84
504.19	4332.33
504.55	4225.65
504.91	4128.17
505.26	4035.04
505.62	3953.28
505.98	3861.72
506.34	3768.59
506.70	3676.07
507.06	3588.46
507.42	3498.66
507.78	3422.40
508.13	3347.62
508.49	3277.62
508.85	3203.94
509.21	3136.69
509.57	3070.78
509.93	3007.00
510.28	2938.40
510.64	2880.31
511.00	2815.50
511.36	2757.22
511.72	2701.17
512.07	2652.62
512.43	2603.33
512.79	2557.41
513.15	2506.03
513.51	2462.15
513.86	2417.91
514.22	2372.55
514.58	2329.28
514.94	2296.72
515.30	2258.43
515.65	2219.69
516.01	2187.46
516.37	2160.03
516.73	2132.53
517.08	2106.06
517.44	2080.17
517.80	2054.64
518.16	2030.04
518.51	1996.03
518.87	1970.89
519.23	1941.50
519.59	1913.20
519.94	1884.37
520.30	1861.62
520.66	1832.08
521.01	1807.13
521.37	1785.13
521.73	1763.73
522.09	1740.63
522.44	1725.42
522.80	1712.43
523.16	1692.72
523.51	1668.36
523.87	1652.51
524.23	1634.23
524.58	1608.51
524.94	1592.66
525.30	1579.30
525.65	1560.53
526.01	1545.57
526.37	1536.19
526.72	1520.62
527.08	1508.45
527.44	1494.90
527.79	1480.76
528.15	1467.56
528.51	1452.51
528.86	1437.46
529.22	1429.27
529.58	1417.73
529.93	1406.97
530.29	1399.78
530.65	1393.93
531.00	1383.30
531.36	1375.23
531.71	1368.65
532.07	1359.48
532.43	1349.37
532.78	1340.50
533.14	1333.33
533.49	1325.28
533.85	1320.09
534.21	1313.30
534.56	1304.33
534.92	1295.44
535.27	1292.58
535.63	1288.04
535.98	1284.25
536.34	1281.02
536.69	1276.29
537.05	1266.04
537.41	1256.68
537.76	1249.61
538.12	1245.54
538.47	1240.48
538.83	1238.68
539.18	1239.27
539.54	1233.11
539.89	1227.26
540.25	1223.77
540.60	1217.94
540.96	1211.98
541.31	1210.27
541.67	1208.86
542.02	1203.69
542.38	1197.61
542.73	1195.78
543.09	1190.44
543.44	1188.20
543.80	1186.18
544.15	1186.32
544.51	1182.72
544.86	1186.37
545.22	1182.63
545.57	1181.48
545.93	1180.26
546.28	1178.67
546.64	1174.76
546.99	1174.62
547.35	1174.55
547.70	1169.26
548.05	1165.73
548.41	1162.08
548.76	1157.37
549.12	1148.41
549.47	1145.74
549.83	1141.48
550.18	1138.37
550.53	1136.59
550.89	1139.96
551.24	1138.79
551.60	1142.13
551.95	1141.88
552.30	1141.25
552.66	1138.18
553.01	1140.64
553.37	1135.49
553.72	1134.95
554.07	1133.15
554.43	1134.29
554.78	1133.69
555.13	1136.21
555.49	1133.59
555.84	1133.87
556.19	1132.96
556.55	1130.29
556.90	1126.78
557.26	1125.63
557.61	1125.66
557.96	1123.46
558.32	1119.41
558.67	1119.57
559.02	1120.46
559.37	1117.18
559.73	1117.18
560.08	1120.23
560.43	1120.16
560.79	1120.30
561.14	1121.54
561.49	1121.02
561.85	1119.90
562.20	1116.83
562.55	1111.10
562.90	1108.81
563.26	1106.63
563.61	1101.27
563.96	1101.53
564.32	1103.56
564.67	1101.69
565.02	1100.29
565.37	1105.15
565.73	1103.63
566.08	1106.37
566.43	1107.05
566.78	1106.07
567.14	1101.92
567.49	1102.51
567.84	1097.41
568.19	1094.08
568.54	1098.04
568.90	1102.28
569.25	1101.22
569.60	1103.45
569.95	1107.12
570.31	1105.25
570.66	1104.41
571.01	1104.10
571.36	1102.84
571.71	1102.16
572.06	1099.96
572.42	1097.73
572.77	1099.70
573.12	1099.21
573.47	1100.05
573.82	1100.05
574.18	1099.93
574.53	1101.62
574.88	1103.68
575.23	1104.78
575.58	1106.54
575.93	1103.23
576.28	1098.60
576.64	1098.90
576.99	1093.57
577.34	1092.82
577.69	1095.91
578.04	1094.88
578.39	1093.43
578.74	1095.00
579.09	1095.14
579.44	1093.59
579.80	1094.15
580.15	1095.18
580.50	1095.79
580.85	1090.57
581.20	1093.66
581.55	1092.61
581.90	1090.34
582.25	1091.65
582.60	1094.22
582.95	1092.89
583.30	1095.28
583.65	1091.86
584.00	1091.25
584.35	1093.80
584.71	1089.38
585.06	1087.04
585.41	1088.72
585.76	1086.69
586.11	1084.70
586.46	1088.93
586.81	1093.19
587.16	1097.41
587.51	1098.58
587.86	1102.02
588.21	1096.99
588.56	1093.05
588.91	1087.18
589.26	1087.88
589.61	1084.63
589.96	1088.42
590.31	1089.57
590.66	1091.02
591.01	1089.22
591.36	1091.46
591.71	1089.31
592.06	1087.72
592.41	1087.55
592.76	1086.31
593.10	1086.34
593.45	1085.61
593.80	1085.75
594.15	1085.03
594.50	1085.07
594.85	1083.76
595.20	1086.41
595.55	1086.41
595.90	1087.37
596.25	1088.91
596.60	1086.22
596.95	1087.37
597.30	1087.04
597.64	1098.32
597.99	1098.62
598.34	1099.84
598.69	1098.55
599.04	1100.40
599.39	1091.79
599.74	1093.19
600.09	1091.95
600.44	1091.63
600.78	1091.42
601.13	1091.37
601.48	1089.26
601.83	1091.20
602.18	1087.76
602.53	1085.99
602.88	1085.24
603.22	1085.33
603.57	1085.26
603.92	1087.95
604.27	1085.80
604.62	1085.05
604.97	1087.62
605.31	1085.49
605.66	1083.93
606.01	1083.34
606.36	1084.16
606.71	1079.99
607.05	1080.25
607.40	1082.19
607.75	1085.33
608.10	1082.43
608.44	1083.86
608.79	1086.55
609.14	1086.22
609.49	1084.58
609.84	1088.72
610.18	1087.02
610.53	1083.88
610.88	1086.83
611.23	1086.94
611.57	1081.63
611.92	1083.46
612.27	1082.38
612.62	1078.52
612.96	1080.23
613.31	1083.11
613.66	1085.00
614.00	1089.96
614.35	1089.10
614.70	1091.51
615.05	1092.52
615.39	1091.20
615.74	1088.70
616.09	1089.89
616.43	1087.79
616.78	1085.05
617.13	1083.95
617.47	1084.89
617.82	1082.33
618.17	1082.17
618.51	1080.44
618.86	1077.61
619.21	1077.09
619.55	1077.98
619.90	1078.40
620.25	1080.72
620.59	1082.99
620.94	1082.40
621.29	1084.81
621.63	1086.20
621.98	1087.62
622.32	1088.51
622.67	1093.85
623.02	1094.76
623.36	1090.43
623.71	1089.10
624.05	1088.82
624.40	1081.56
624.75	1080.32
625.09	1083.29
625.44	1079.76
625.78	1078.50
626.13	1079.17
626.48	1081.02
626.82	1080.70
627.17	1082.92
627.51	1084.44
627.86	1083.32
628.20	1082.87
628.55	1082.43
628.89	1085.54
629.24	1085.96
629.58	1086.17
629.93	1087.65
630.28	1088.19
630.62	1085.66
630.97	1086.97
631.31	1087.44
631.66	1084.77
632.00	1083.95
632.35	1085.68
632.69	1083.57
633.04	1087.60
633.38	1088.12
633.73	1089.82
634.07	1089.43
634.42	1089.07
634.76	1087.69
635.11	1086.41
635.45	1086.73
635.79	1086.73
636.14	1086.97
636.48	1084.60
636.83	1082.87
637.17	1081.51
637.52	1082.54
637.86	1083.48
638.21	1083.67
638.55	1086.55
638.89	1088.42
639.24	1087.37
639.58	1084.60
639.93	1086.43
640.27	1087.95
640.61	1085.87
640.96	1085.96
641.30	1085.42
641.65	1086.69
641.99	1083.43
642.33	1083.29
642.68	1085.17
643.02	1087.48
643.37	1082.31
643.71	1082.10
644.05	1083.69
644.40	1079.36
644.74	1078.61
645.08	1080.67
645.43	1084.07
645.77	1080.77
646.11	1082.33
646.46	1081.05
646.80	1083.93
647.14	1079.43
647.49	1080.56
647.83	1081.91
648.17	1084.51
648.52	1079.36
648.86	1080.41
649.20	1082.78
649.55	1081.42
649.89	1082.03
650.23	1085.45
650.57	1088.68
650.92	1088.49
651.26	1086.83
651.60	1084.96
651.95	1087.16
652.29	1085.03
652.63	1084.93
652.97	1086.08
653.32	1086.94
653.66	1084.93
654.00	1088.93
654.34	1087.69
654.69	1085.75
655.03	1086.36
655.37	1084.77
655.71	1082.22
656.05	1082.69
656.40	1085.56
656.74	1083.90
657.08	1085.26
657.42	1082.43
657.76	1081.89
658.11	1082.54
658.45	1083.93
658.79	1082.61
659.13	1086.66
659.47	1084.58
659.82	1084.37
660.16	1082.92
660.50	1083.55
660.84	1080.65
661.18	1081.30
661.52	1079.60
661.87	1083.13
662.21	1084.44
662.55	1083.90
662.89	1084.44
663.23	1084.74
663.57	1080.41
663.91	1080.70
664.25	1080.51
664.60	1080.48
664.94	1080.51
665.28	1081.28
665.62	1082.22
665.96	1085.96
666.30	1083.50
666.64	1080.44
666.98	1083.97
667.32	1080.70
667.66	1075.34
668.01	1079.10
668.35	1079.57
668.69	1076.55
669.03	1078.54
669.37	1080.46
669.71	1077.98
670.05	1082.10
670.39	1080.95
670.73	1079.34
671.07	1082.61
671.41	1082.85
671.75	1080.65
672.09	1086.62
672.43	1088.79
672.77	1084.77
673.11	1084.21
673.45	1084.51
673.79	1076.83
674.13	1075.69
674.47	1079.06
674.81	1083.50
675.15	1085.84
675.49	1089.03
675.83	1088.54
676.17	1083.67
676.51	1081.44
676.85	1080.74
677.19	1080.74
677.53	1082.31
677.87	1083.46
678.21	1081.44
678.55	1081.33
678.89	1085.40
679.23	1081.47
679.57	1083.20
679.90	1086.80
680.24	1088.91
680.58	1086.01
680.92	1089.14
681.26	1088.63
681.60	1085.17
681.94	1084.21
682.28	1084.81
682.62	1082.80
682.96	1083.22
683.29	1084.09
683.63	1080.86
683.97	1079.76
684.31	1078.57
684.65	1075.64
684.99	1077.93
685.33	1081.30
685.67	1080.56
686.00	1084.28
686.34	1085.73
686.68	1082.99
687.02	1078.52
687.36	1081.94
687.70	1082.90
688.03	1086.71
688.37	1090.17
688.71	1092.14
689.05	1086.52
689.39	1085.82
689.72	1083.64
690.06	1080.23
690.40	1077.98
690.74	1078.26
691.08	1076.01
691.41	1074.38
691.75	1076.53
692.09	1078.05
692.43	1080.48
692.76	1083.13
693.10	1082.92
693.44	1085.82
693.78	1086.17
694.11	1085.40
694.45	1082.22
694.79	1085.31
695.13	1081.40
695.46	1081.21
695.80	1079.29
696.14	1081.05
696.48	1078.03
696.81	1079.60
697.15	1079.99
697.49	1081.63
697.82	1081.19
698.16	1083.57
698.50	1082.43
698.83	1083.08
699.17	1082.78
699.51	1084.09
699.84	1082.26
700.18	1081.91
700.52	1084.74
700.85	1085.59
701.19	1082.66
701.53	1083.32
701.86	1082.22
702.20	1079.36
702.54	1079.03
702.87	1079.76
703.21	1079.36
703.55	1082.15
703.88	1078.54
704.22	1078.26
704.55	1078.07
704.89	1079.71
705.23	1078.33
705.56	1082.22
705.90	1079.78
706.23	1080.77
706.57	1077.40
706.91	1075.01
707.24	1074.05
707.58	1074.96
707.91	1073.46
708.25	1077.42
708.58	1082.24
708.92	1084.70
709.26	1084.96
709.59	1089.50
709.93	1088.30
710.26	1085.75
710.60	1082.61
710.93	1082.94
711.27	1081.02
711.60	1082.38
711.94	1079.81
712.27	1080.32
712.61	1082.90
712.94	1078.87
713.28	1078.96
713.61	1080.84
713.95	1084.74
714.28	1083.55
714.62	1086.41
714.95	1080.93
715.29	1081.19
715.62	1078.47
715.96	1079.81
716.29	1079.76
716.63	1084.42
716.96	1087.74
717.29	1087.72
717.63	1085.31
717.96	1086.34
718.30	1086.55
718.63	1084.09
718.97	1080.79
719.30	1082.59
719.63	1084.72
719.97	1086.20
720.30	1087.37
720.64	1089.71
720.97	1091.56
721.30	1088.93
721.64	1087.83
721.97	1086.22
722.31	1087.81
722.64	1085.70
722.97	1086.83
723.31	1084.39
723.64	1084.42
723.97	1084.16
724.31	1081.23
724.64	1080.72
724.98	1082.22
725.31	1081.82
725.64	1079.74
725.98	1080.65
726.31	1079.85
726.64	1078.17
726.97	1078.40
727.31	1081.16
727.64	1079.99
727.97	1080.30
728.31	1078.80
728.64	1078.47
728.97	1074.00
729.31	1076.08
729.64	1074.68
729.97	1077.28
730.30	1077.00
730.64	1080.27
730.97	1082.71
731.30	1085.00
731.63	1086.57
731.97	1086.41
732.30	1086.83
732.63	1087.44
732.96	1085.28
733.30	1085.21
733.63	1083.36
733.96	1083.53
734.29	1083.46
734.63	1084.74
734.96	1084.02
735.29	1086.87
735.62	1085.31
735.95	1082.92
736.29	1085.45
736.62	1084.09
736.95	1085.47
737.28	1086.17
737.61	1085.42
737.94	1081.91
738.28	1084.21
738.61	1081.75
738.94	1081.16
739.27	1080.27
739.60	1081.73
739.93	1079.36
740.27	1082.50
740.60	1080.41
740.93	1082.47
741.26	1080.86
741.59	1078.92
741.92	1075.76
742.25	1081.42
742.58	1080.65
742.91	1081.37
743.25	1083.55
743.58	1082.10
743.91	1081.87
744.24	1083.83
744.57	1085.00
744.90	1089.75
745.23	1095.75
745.56	1090.92
745.89	1088.07
746.22	1085.33
746.55	1079.06
746.88	1077.04
747.21	1080.93
747.54	1084.37
747.87	1084.53
748.20	1087.51
748.53	1087.18
748.87	1085.42
749.20	1083.13
749.53	1082.12
749.86	1080.02
750.19	1075.05
750.52	1074.28
750.85	1076.34
751.18	1077.42
751.51	1079.62
751.84	1081.89
752.16	1083.15
752.49	1081.12
752.82	1081.98
753.15	1078.71
753.48	1079.53
753.81	1077.77
754.14	1076.86
754.47	1077.04
754.80	1077.89
755.13	1079.06
755.46	1083.25
755.79	1084.86
756.12	1084.77
756.45	1087.44
756.78	1086.64
757.11	1081.12
757.43	1078.75
757.76	1080.13
758.09	1078.31
758.42	1078.80
758.75	1083.13
759.08	1086.94
759.41	1083.29
759.74	1084.04
760.07	1079.31
760.39	1078.07
760.72	1077.21
761.05	1079.53
761.38	1078.28
761.71	1082.71
762.04	1081.91
762.36	1083.50
762.69	1083.79
763.02	1085.14
763.35	1085.66
763.68	1086.69
764.01	1086.52
