SpectraSuite Data File
++++++++++++++++++++++++++++++++++++
Date: Mon Aug 26 10:22:32 PDT 2019
User: corrico
Dark Spectrum Present: No
Reference Spectrum Present: No
Number of Sampled Component Spectra: 1
Spectrometers: USB2+H06089
Integration Time (usec): 2000 (USB2+H06089)
Spectra Averaged: 20 (USB2+H06089)
Boxcar Smoothing: 2 (USB2+H06089)
Correct for Electrical Dark: No (USB2+H06089)
Strobe/Lamp Enabled: No (USB2+H06089)
Correct for Detector Non-linearity: No (USB2+H06089)
Correct for Stray Light: No (USB2+H06089)
Number of Pixels in Processed Spectrum: 2048
>>>>>Begin Processed Spectral Data<<<<<
339.70	1018.72
340.07	1018.72
340.45	990.05
340.82	970.46
341.19	946.79
341.57	925.05
341.94	912.90
342.31	901.11
342.69	896.89
343.06	896.21
343.43	893.64
343.81	897.46
344.18	905.65
344.55	908.36
344.93	912.53
345.30	919.43
345.67	923.58
346.04	927.51
346.42	937.78
346.79	946.51
347.16	955.66
347.54	966.88
347.91	975.35
348.28	980.87
348.65	991.22
349.03	1000.37
349.40	1009.52
349.77	1017.92
350.14	1027.26
350.52	1031.50
350.89	1037.56
351.26	1043.69
351.63	1051.09
352.01	1057.17
352.38	1064.38
352.75	1063.61
353.12	1065.39
353.50	1069.44
353.87	1073.88
354.24	1075.80
354.61	1085.19
354.98	1089.40
355.36	1085.68
355.73	1085.12
356.10	1085.10
356.47	1082.99
356.84	1079.31
357.22	1083.22
357.59	1081.09
357.96	1081.84
358.33	1081.05
358.70	1088.21
359.08	1088.77
359.45	1091.23
359.82	1091.30
360.19	1094.39
360.56	1088.84
360.94	1088.30
361.31	1083.43
361.68	1084.51
362.05	1078.54
362.42	1078.85
362.79	1076.39
363.16	1080.39
363.54	1079.50
363.91	1079.57
364.28	1078.68
364.65	1080.39
365.02	1080.25
365.39	1076.58
365.76	1078.87
366.14	1080.23
366.51	1078.52
366.88	1076.72
367.25	1078.38
367.62	1080.34
367.99	1078.40
368.36	1079.92
368.73	1078.47
369.10	1078.89
369.48	1075.01
369.85	1078.40
370.22	1077.70
370.59	1084.63
370.96	1082.78
371.33	1083.20
371.70	1078.19
372.07	1078.31
372.44	1074.63
372.81	1074.56
373.18	1075.92
373.55	1078.31
373.93	1077.93
374.30	1078.68
374.67	1082.61
375.04	1082.33
375.41	1083.20
375.78	1085.28
376.15	1085.77
376.52	1082.19
376.89	1083.69
377.26	1083.01
377.63	1080.32
378.00	1077.18
378.37	1081.37
378.74	1081.47
379.11	1085.52
379.48	1087.20
379.85	1087.09
380.22	1086.22
380.59	1085.66
380.96	1082.87
381.33	1083.43
381.70	1083.90
382.07	1081.68
382.44	1080.79
382.81	1079.36
383.18	1079.57
383.55	1081.58
383.92	1080.98
384.29	1081.70
384.66	1083.32
385.03	1084.91
385.40	1084.23
385.77	1084.11
386.14	1084.32
386.51	1084.53
386.88	1083.39
387.25	1080.25
387.62	1084.09
387.99	1082.54
388.36	1080.86
388.73	1080.70
389.10	1080.77
389.46	1079.08
389.83	1083.20
390.20	1082.45
390.57	1082.38
390.94	1086.99
391.31	1085.82
391.68	1083.79
392.05	1086.71
392.42	1084.51
392.79	1082.33
393.16	1083.62
393.53	1081.96
393.89	1080.27
394.26	1082.50
394.63	1085.66
395.00	1083.81
395.37	1083.88
395.74	1087.23
396.11	1085.75
396.48	1084.32
396.84	1084.56
397.21	1086.31
397.58	1083.46
397.95	1085.84
398.32	1087.67
398.69	1091.58
399.06	1091.20
399.42	1090.01
399.79	1089.54
400.16	1086.03
400.53	1085.31
400.90	1088.40
401.27	1087.62
401.64	1091.23
402.00	1093.33
402.37	1092.42
402.74	1086.50
403.11	1090.95
403.48	1086.80
403.84	1087.02
404.21	1092.14
404.58	1093.66
404.95	1093.17
405.32	1096.33
405.68	1095.89
406.05	1092.75
406.42	1095.32
406.79	1093.55
407.16	1089.07
407.52	1089.57
407.89	1089.22
408.26	1089.92
408.63	1091.20
408.99	1093.26
409.36	1094.36
409.73	1093.90
410.10	1093.62
410.47	1095.72
410.83	1097.03
411.20	1097.48
411.57	1097.22
411.94	1097.34
412.30	1101.34
412.67	1102.28
413.04	1101.92
413.40	1103.45
413.77	1104.22
414.14	1100.12
414.51	1100.00
414.87	1101.97
415.24	1103.56
415.61	1105.55
415.97	1102.51
416.34	1103.73
416.71	1100.80
417.08	1101.15
417.44	1101.69
417.81	1105.06
418.18	1106.11
418.54	1110.56
418.91	1109.32
419.28	1109.48
419.64	1111.92
420.01	1115.73
420.38	1116.72
420.74	1120.18
421.11	1121.84
421.48	1120.06
421.84	1119.64
422.21	1120.30
422.58	1123.55
422.94	1126.73
423.31	1132.16
423.68	1132.21
424.04	1136.92
424.41	1134.46
424.77	1134.41
425.14	1136.99
425.51	1144.24
425.87	1147.92
426.24	1155.80
426.61	1162.68
426.97	1168.56
427.34	1170.53
427.70	1176.17
428.07	1183.21
428.44	1193.72
428.80	1201.87
429.17	1207.97
429.53	1213.31
429.90	1224.73
430.27	1233.18
430.63	1242.10
431.00	1253.87
431.36	1270.09
431.73	1278.87
432.09	1286.78
432.46	1298.25
432.83	1318.52
433.19	1328.32
433.56	1348.38
433.92	1371.95
434.29	1396.13
434.65	1417.71
435.02	1446.78
435.38	1470.16
435.75	1493.71
436.11	1520.76
436.48	1548.38
436.84	1580.94
437.21	1619.63
437.57	1656.49
437.94	1701.92
438.30	1746.30
438.67	1791.73
439.03	1839.40
439.40	1901.01
439.76	1952.97
440.13	2013.05
440.49	2078.58
440.86	2141.64
441.22	2206.19
441.59	2276.45
441.95	2355.26
442.32	2434.37
442.68	2530.68
443.05	2623.81
443.41	2726.82
443.78	2828.28
444.14	2940.63
444.51	3046.49
444.87	3185.07
445.24	3322.23
445.60	3467.46
445.96	3620.86
446.33	3795.20
446.69	3953.05
447.06	4135.12
447.42	4316.23
447.79	4494.09
448.15	4714.19
448.51	4943.35
448.88	5201.02
449.24	5445.77
449.61	5730.50
449.97	5986.72
450.33	6266.97
450.70	6516.24
451.06	6832.89
451.43	7134.16
451.79	7496.10
452.15	7889.50
452.52	8329.50
452.88	8804.49
453.24	9331.01
453.61	9904.23
453.97	10456.98
454.34	11012.20
454.70	11640.21
455.06	12274.71
455.43	12895.98
455.79	13487.90
456.15	14197.57
456.52	14845.67
456.88	15595.69
457.24	16305.48
457.61	17140.49
457.97	17883.07
458.33	18641.03
458.70	19409.92
459.06	20160.98
459.42	20988.26
459.79	21780.91
460.15	22688.71
460.51	23543.24
460.88	24469.22
461.24	25259.37
461.60	26202.67
461.96	27054.98
462.33	27874.28
462.69	28649.23
463.05	29497.02
463.42	30175.10
463.78	30809.90
464.14	31338.51
464.50	31920.93
464.87	32372.86
465.23	32724.62
465.59	33076.50
465.95	33382.66
466.32	33618.12
466.68	33846.21
467.04	33988.56
467.40	34096.46
467.77	34247.96
468.13	34242.53
468.49	34132.97
468.85	34044.24
469.22	33879.23
469.58	33546.85
469.94	33287.26
470.30	32973.19
470.66	32574.24
471.03	32003.83
471.39	31606.59
471.75	30977.53
472.11	30385.72
472.47	30018.54
472.84	29695.24
473.20	29195.54
473.56	28935.04
473.92	28519.94
474.28	28001.70
474.65	27506.30
475.01	27030.59
475.37	26451.38
475.73	25977.82
476.09	25451.29
476.45	24937.10
476.81	24427.33
477.18	23895.40
477.54	23464.22
477.90	23129.74
478.26	22731.28
478.62	22407.98
478.98	22132.32
479.34	21818.50
479.71	21405.91
480.07	21055.97
480.43	20703.21
480.79	20326.03
481.15	19987.33
481.51	19680.75
481.87	19445.83
482.23	19177.83
482.59	18942.10
482.96	18656.60
483.32	18370.77
483.68	18000.17
484.04	17660.93
484.40	17287.08
484.76	16935.72
485.12	16581.38
485.48	16263.75
485.84	15915.34
486.20	15577.41
486.56	15222.17
486.92	14917.71
487.28	14572.27
487.64	14220.16
488.00	13900.04
488.37	13572.39
488.73	13216.09
489.09	12884.86
489.45	12588.41
489.81	12264.57
490.17	11971.54
490.53	11677.24
490.89	11374.28
491.25	11071.95
491.61	10778.12
491.97	10471.23
492.33	10161.60
492.69	9869.48
493.05	9567.71
493.41	9276.32
493.77	8998.99
494.13	8759.76
494.49	8514.78
494.85	8286.74
495.21	8074.24
495.57	7865.98
495.93	7656.52
496.29	7470.15
496.64	7290.58
497.00	7096.83
497.36	6908.56
497.72	6716.17
498.08	6527.68
498.44	6347.72
498.80	6182.31
499.16	6019.90
499.52	5879.57
499.88	5750.86
500.24	5629.50
500.60	5505.36
500.96	5399.36
501.32	5274.61
501.68	5148.78
502.03	5020.94
502.39	4904.78
502.75	4770.95
503.11	4649.80
503.47	4538.51
503.83	4418.53
504.19	4298.32
504.55	4194.61
504.91	4102.23
505.26	4010.32
505.62	3928.80
505.98	3844.33
506.34	3758.36
506.70	3666.82
507.06	3577.06
507.42	3489.83
507.78	3416.67
508.13	3332.83
508.49	3259.34
508.85	3190.27
509.21	3121.46
509.57	3047.75
509.93	2993.50
510.28	2926.89
510.64	2862.33
511.00	2806.16
511.36	2748.98
511.72	2687.68
512.07	2644.66
512.43	2597.39
512.79	2542.55
513.15	2495.36
513.51	2451.38
513.86	2403.73
514.22	2362.07
514.58	2324.71
514.94	2288.46
515.30	2256.00
515.65	2215.74
516.01	2182.74
516.37	2152.80
516.73	2122.70
517.08	2095.15
517.44	2067.54
517.80	2037.02
518.16	2011.08
518.51	1983.39
518.87	1954.07
519.23	1930.17
519.59	1908.00
519.94	1881.44
520.30	1857.36
520.66	1828.29
521.01	1807.29
521.37	1781.97
521.73	1760.93
522.09	1742.51
522.44	1722.87
522.80	1700.31
523.16	1683.80
523.51	1658.20
523.87	1637.37
524.23	1620.40
524.58	1602.03
524.94	1582.37
525.30	1569.05
525.65	1558.59
526.01	1542.65
526.37	1528.02
526.72	1519.64
527.08	1508.08
527.44	1487.67
527.79	1478.54
528.15	1466.46
528.51	1449.59
528.86	1435.78
529.22	1426.32
529.58	1414.48
529.93	1403.15
530.29	1394.96
530.65	1384.99
531.00	1375.65
531.36	1367.46
531.71	1360.74
532.07	1351.19
532.43	1347.05
532.78	1338.29
533.14	1327.13
533.49	1319.73
533.85	1312.78
534.21	1306.93
534.56	1302.27
534.92	1296.45
535.27	1289.89
535.63	1282.64
535.98	1274.56
536.34	1266.93
536.69	1262.41
537.05	1259.91
537.41	1257.62
537.76	1250.34
538.12	1250.06
538.47	1246.34
538.83	1237.96
539.18	1232.85
539.54	1231.17
539.89	1220.24
540.25	1216.61
540.60	1211.84
540.96	1209.03
541.31	1202.54
541.67	1204.39
542.02	1200.23
542.38	1200.41
542.73	1195.38
543.09	1195.10
543.44	1191.08
543.80	1190.37
544.15	1187.68
544.51	1185.53
544.86	1181.20
545.22	1177.06
545.57	1173.29
545.93	1170.24
546.28	1167.01
546.64	1167.65
546.99	1167.55
547.35	1167.65
547.70	1164.51
548.05	1162.52
548.41	1160.32
548.76	1160.13
549.12	1153.51
549.47	1155.62
549.83	1154.68
550.18	1150.84
550.53	1147.19
550.89	1146.51
551.24	1142.98
551.60	1141.06
551.95	1140.45
552.30	1139.26
552.66	1138.65
553.01	1136.66
553.37	1134.27
553.72	1130.20
554.07	1128.63
554.43	1128.33
554.78	1126.29
555.13	1125.68
555.49	1124.37
555.84	1125.26
556.19	1125.14
556.55	1121.21
556.90	1122.97
557.26	1124.86
557.61	1122.50
557.96	1121.37
558.32	1124.79
558.67	1121.21
559.02	1119.62
559.37	1117.07
559.73	1115.78
560.08	1111.61
560.43	1112.29
560.79	1114.77
561.14	1115.50
561.49	1115.55
561.85	1119.53
562.20	1117.47
562.55	1116.32
562.90	1116.79
563.26	1116.51
563.61	1115.20
563.96	1115.57
564.32	1113.63
564.67	1112.92
565.02	1110.58
565.37	1109.37
565.73	1109.58
566.08	1108.52
566.43	1108.29
566.78	1108.13
567.14	1104.01
567.49	1101.99
567.84	1100.92
568.19	1099.72
568.54	1100.82
568.90	1102.88
569.25	1100.73
569.60	1100.96
569.95	1099.70
570.31	1098.23
570.66	1094.48
571.01	1096.87
571.36	1095.39
571.71	1093.17
572.06	1093.24
572.42	1095.16
572.77	1092.87
573.12	1095.02
573.47	1101.57
573.82	1100.54
574.18	1101.88
574.53	1102.16
574.88	1097.45
575.23	1091.51
575.58	1091.02
575.93	1090.22
576.28	1092.33
576.64	1094.50
576.99	1098.20
577.34	1098.04
577.69	1097.97
578.04	1096.21
578.39	1096.99
578.74	1094.69
579.09	1092.68
579.44	1093.50
579.80	1092.70
580.15	1090.60
580.50	1089.71
580.85	1092.59
581.20	1093.94
581.55	1095.00
581.90	1096.59
582.25	1097.17
582.60	1095.42
582.95	1093.64
583.30	1091.18
583.65	1090.95
584.00	1089.36
584.35	1090.90
584.71	1093.08
585.06	1096.73
585.41	1094.62
585.76	1095.42
586.11	1094.74
586.46	1090.67
586.81	1087.02
587.16	1088.04
587.51	1086.87
587.86	1083.20
588.21	1085.84
588.56	1086.59
588.91	1085.21
589.26	1086.57
589.61	1089.26
589.96	1086.31
590.31	1088.93
590.66	1093.52
591.01	1091.95
591.36	1090.83
591.71	1090.01
592.06	1087.72
592.41	1086.71
592.76	1088.98
593.10	1092.40
593.45	1095.96
593.80	1098.04
594.15	1094.74
594.50	1091.79
594.85	1091.91
595.20	1090.92
595.55	1089.92
595.90	1091.67
596.25	1092.75
596.60	1089.14
596.95	1089.89
597.30	1089.47
597.64	1100.82
597.99	1103.98
598.34	1106.54
598.69	1107.85
599.04	1107.89
599.39	1094.32
599.74	1091.18
600.09	1090.53
600.44	1091.27
600.78	1092.28
601.13	1094.18
601.48	1095.77
601.83	1097.13
602.18	1093.45
602.53	1090.78
602.88	1089.99
603.22	1088.58
603.57	1084.98
603.92	1083.62
604.27	1084.63
604.62	1085.75
604.97	1085.24
605.31	1088.16
605.66	1088.75
606.01	1088.35
606.36	1086.27
606.71	1086.83
607.05	1086.08
607.40	1086.85
607.75	1086.97
608.10	1086.83
608.44	1088.65
608.79	1087.90
609.14	1087.13
609.49	1085.94
609.84	1085.87
610.18	1086.24
610.53	1084.72
610.88	1081.63
611.23	1083.41
611.57	1085.99
611.92	1082.78
612.27	1084.98
612.62	1089.24
612.96	1088.30
613.31	1085.99
613.66	1085.12
614.00	1086.31
614.35	1084.35
614.70	1085.96
615.05	1087.53
615.39	1086.59
615.74	1081.12
616.09	1085.61
616.43	1083.25
616.78	1082.38
617.13	1085.21
617.47	1087.39
617.82	1083.43
618.17	1082.33
618.51	1080.16
618.86	1081.19
619.21	1081.89
619.55	1082.94
619.90	1085.61
620.25	1088.12
620.59	1083.81
620.94	1087.93
621.29	1086.50
621.63	1085.84
621.98	1084.39
622.32	1087.46
622.67	1081.58
623.02	1080.37
623.36	1080.67
623.71	1083.08
624.05	1084.30
624.40	1087.79
624.75	1089.75
625.09	1090.71
625.44	1088.33
625.78	1088.26
626.13	1088.65
626.48	1091.79
626.82	1091.20
627.17	1089.99
627.51	1084.86
627.86	1082.17
628.20	1076.88
628.55	1076.90
628.89	1082.03
629.24	1086.48
629.58	1087.06
629.93	1090.78
630.28	1090.03
630.62	1089.22
630.97	1087.46
631.31	1087.65
631.66	1084.74
632.00	1084.86
632.35	1081.42
632.69	1083.64
633.04	1084.81
633.38	1086.62
633.73	1086.27
634.07	1088.16
634.42	1085.42
634.76	1084.25
635.11	1083.71
635.45	1083.46
635.79	1081.14
636.14	1082.57
636.48	1083.83
636.83	1081.91
637.17	1080.09
637.52	1082.61
637.86	1084.28
638.21	1082.19
638.55	1083.95
638.89	1087.62
639.24	1087.60
639.58	1085.66
639.93	1085.94
640.27	1086.62
640.61	1081.73
640.96	1077.51
641.30	1078.54
641.65	1078.64
641.99	1077.54
642.33	1082.52
642.68	1085.47
643.02	1081.77
643.37	1082.94
643.71	1081.51
644.05	1080.30
644.40	1078.40
644.74	1080.88
645.08	1079.03
645.43	1085.05
645.77	1083.01
646.11	1086.03
646.46	1085.77
646.80	1090.22
647.14	1086.06
647.49	1087.55
647.83	1084.72
648.17	1085.77
648.52	1085.07
648.86	1084.96
649.20	1086.34
649.55	1089.68
649.89	1088.84
650.23	1085.52
650.57	1082.64
650.92	1081.63
651.26	1083.93
651.60	1084.00
651.95	1084.93
652.29	1087.51
652.63	1090.32
652.97	1088.07
653.32	1087.65
653.66	1087.81
654.00	1088.47
654.34	1085.84
654.69	1085.17
655.03	1084.70
655.37	1084.74
655.71	1084.65
656.05	1083.48
656.40	1081.77
656.74	1081.26
657.08	1079.29
657.42	1080.60
657.76	1081.98
658.11	1081.26
658.45	1082.92
658.79	1084.02
659.13	1082.24
659.47	1078.71
659.82	1081.73
660.16	1079.67
660.50	1079.41
660.84	1080.20
661.18	1082.54
661.52	1081.80
661.87	1082.05
662.21	1084.74
662.55	1082.43
662.89	1080.91
663.23	1078.96
663.57	1080.32
663.91	1076.69
664.25	1079.13
664.60	1078.38
664.94	1081.63
665.28	1082.57
665.62	1083.90
665.96	1080.93
666.30	1082.59
666.64	1079.41
666.98	1078.78
667.32	1077.54
667.66	1082.12
668.01	1084.07
668.35	1085.54
668.69	1087.51
669.03	1090.78
669.37	1091.70
669.71	1088.42
670.05	1088.72
670.39	1087.97
670.73	1085.99
671.07	1082.80
671.41	1086.99
671.75	1086.92
672.09	1087.60
672.43	1087.04
672.77	1086.85
673.11	1083.18
673.45	1083.76
673.79	1080.91
674.13	1077.96
674.47	1078.03
674.81	1078.57
675.15	1078.07
675.49	1079.83
675.83	1084.00
676.17	1083.27
676.51	1084.16
676.85	1082.80
677.19	1081.96
677.53	1081.84
677.87	1081.63
678.21	1081.73
678.55	1085.33
678.89	1085.84
679.23	1085.28
679.57	1085.05
679.90	1084.04
680.24	1080.39
680.58	1080.60
680.92	1080.13
681.26	1082.15
681.60	1082.26
681.94	1084.28
682.28	1083.43
682.62	1087.58
682.96	1088.37
683.29	1087.30
683.63	1084.93
683.97	1083.04
684.31	1077.49
684.65	1075.73
684.99	1079.24
685.33	1081.89
685.67	1084.11
686.00	1084.79
686.34	1082.50
686.68	1080.98
687.02	1082.01
687.36	1077.42
687.70	1078.68
688.03	1083.76
688.37	1083.53
688.71	1079.48
689.05	1082.85
689.39	1081.26
689.72	1077.04
690.06	1076.83
690.40	1078.80
690.74	1080.51
691.08	1085.19
691.41	1085.61
691.75	1087.86
692.09	1088.63
692.43	1086.41
692.76	1083.27
693.10	1082.59
693.44	1079.20
693.78	1075.66
694.11	1077.89
694.45	1078.66
694.79	1081.05
695.13	1082.73
695.46	1085.21
695.80	1081.89
696.14	1081.07
696.48	1082.80
696.81	1083.95
697.15	1083.93
697.49	1086.43
697.82	1087.60
698.16	1084.11
698.50	1082.08
698.83	1079.85
699.17	1078.36
699.51	1075.43
699.84	1077.21
700.18	1081.26
700.52	1084.35
700.85	1086.31
701.19	1087.74
701.53	1090.06
701.86	1088.51
702.20	1089.85
702.54	1087.83
702.87	1086.15
703.21	1079.55
703.55	1076.95
703.88	1074.91
704.22	1073.35
704.55	1076.39
704.89	1079.36
705.23	1079.36
705.56	1080.63
705.90	1082.92
706.23	1083.71
706.57	1081.70
706.91	1081.33
707.24	1078.61
707.58	1081.61
707.91	1081.14
708.25	1081.89
708.58	1082.97
708.92	1085.28
709.26	1080.79
709.59	1078.50
709.93	1080.48
710.26	1078.68
710.60	1076.48
710.93	1076.65
711.27	1080.70
711.60	1079.60
711.94	1078.07
712.27	1079.64
712.61	1079.88
712.94	1077.49
713.28	1077.33
713.61	1080.60
713.95	1078.38
714.28	1080.02
714.62	1082.73
714.95	1081.84
715.29	1081.51
715.62	1084.79
715.96	1085.38
716.29	1080.46
716.63	1082.97
716.96	1081.94
717.29	1081.61
717.63	1078.75
717.96	1081.30
718.30	1080.63
718.63	1081.89
718.97	1081.73
719.30	1083.71
719.63	1082.29
719.97	1080.65
720.30	1080.63
720.64	1081.14
720.97	1081.37
721.30	1080.98
721.64	1081.47
721.97	1083.32
722.31	1082.64
722.64	1081.00
722.97	1083.79
723.31	1082.78
723.64	1079.88
723.97	1077.91
724.31	1078.87
724.64	1077.79
724.98	1080.11
725.31	1082.45
725.64	1082.22
725.98	1083.13
726.31	1081.21
726.64	1083.01
726.97	1084.04
727.31	1080.53
727.64	1077.61
727.97	1077.51
728.31	1077.11
728.64	1076.37
728.97	1080.93
729.31	1082.83
729.64	1083.13
729.97	1078.82
730.30	1079.29
730.64	1077.49
730.97	1079.24
731.30	1079.71
731.63	1082.40
731.97	1080.81
732.30	1084.00
732.63	1080.56
732.96	1080.60
733.30	1080.98
733.63	1077.91
733.96	1076.11
734.29	1079.69
734.63	1077.93
734.96	1075.71
735.29	1078.75
735.62	1077.51
735.95	1078.19
736.29	1081.05
736.62	1082.22
736.95	1080.23
737.28	1083.11
737.61	1081.21
737.94	1080.93
738.28	1082.78
738.61	1087.20
738.94	1084.53
739.27	1085.91
739.60	1082.69
739.93	1081.26
740.27	1077.96
740.60	1078.38
740.93	1077.42
741.26	1078.71
741.59	1076.93
741.92	1076.79
742.25	1074.91
742.58	1071.73
742.91	1071.36
743.25	1072.95
743.58	1071.22
743.91	1074.49
744.24	1078.05
744.57	1083.27
744.90	1083.20
745.23	1086.27
745.56	1087.62
745.89	1087.02
746.22	1085.94
746.55	1085.45
746.88	1084.93
747.21	1084.30
747.54	1082.26
747.87	1079.88
748.20	1079.13
748.53	1079.60
748.87	1079.41
749.20	1079.17
749.53	1078.66
749.86	1079.81
750.19	1078.82
750.52	1079.78
750.85	1082.01
751.18	1078.80
751.51	1080.77
751.84	1082.26
752.16	1078.66
752.49	1079.50
752.82	1082.29
753.15	1080.18
753.48	1081.28
753.81	1081.80
754.14	1079.06
754.47	1078.26
754.80	1081.87
755.13	1079.76
755.46	1081.40
755.79	1082.24
756.12	1084.63
756.45	1081.66
756.78	1079.78
757.11	1076.53
757.43	1075.17
757.76	1074.84
758.09	1076.20
758.42	1075.94
758.75	1078.73
759.08	1079.74
759.41	1083.32
759.74	1080.41
760.07	1081.66
760.39	1081.94
760.72	1079.64
761.05	1075.08
761.38	1076.46
761.71	1077.14
762.04	1079.64
762.36	1083.48
762.69	1081.05
763.02	1081.56
763.35	1082.43
763.68	1080.16
764.01	1076.88
