SpectraSuite Data File
++++++++++++++++++++++++++++++++++++
Date: Mon Aug 26 10:22:16 PDT 2019
User: corrico
Dark Spectrum Present: No
Reference Spectrum Present: No
Number of Sampled Component Spectra: 1
Spectrometers: USB2+H06089
Integration Time (usec): 2000 (USB2+H06089)
Spectra Averaged: 20 (USB2+H06089)
Boxcar Smoothing: 2 (USB2+H06089)
Correct for Electrical Dark: No (USB2+H06089)
Strobe/Lamp Enabled: No (USB2+H06089)
Correct for Detector Non-linearity: No (USB2+H06089)
Correct for Stray Light: No (USB2+H06089)
Number of Pixels in Processed Spectrum: 2048
>>>>>Begin Processed Spectral Data<<<<<
339.70	1037.68
340.07	1037.68
340.45	1000.51
340.82	974.79
341.19	951.01
341.57	923.32
341.94	911.22
342.31	901.93
342.69	899.28
343.06	894.51
343.43	892.68
343.81	896.52
344.18	900.31
344.55	902.70
344.93	904.71
345.30	908.99
345.67	913.35
346.04	921.09
346.42	929.75
346.79	943.75
347.16	952.83
347.54	959.90
347.91	968.91
348.28	983.07
348.65	993.60
349.03	1006.88
349.40	1015.21
349.77	1025.83
350.14	1028.97
350.52	1032.39
350.89	1037.91
351.26	1047.16
351.63	1051.30
352.01	1055.25
352.38	1061.34
352.75	1064.43
353.12	1067.57
353.50	1072.06
353.87	1076.41
354.24	1077.44
354.61	1080.04
354.98	1081.12
355.36	1079.48
355.73	1080.16
356.10	1080.84
356.47	1084.58
356.84	1088.12
357.22	1090.92
357.59	1090.08
357.96	1089.29
358.33	1090.15
358.70	1086.55
359.08	1087.30
359.45	1088.12
359.82	1088.28
360.19	1083.22
360.56	1083.36
360.94	1081.80
361.31	1077.07
361.68	1073.37
362.05	1075.34
362.42	1074.89
362.79	1072.88
363.16	1076.06
363.54	1077.91
363.91	1076.51
364.28	1076.90
364.65	1074.91
365.02	1076.51
365.39	1075.87
365.76	1075.52
366.14	1074.24
366.51	1077.09
366.88	1073.39
367.25	1074.38
367.62	1074.68
367.99	1075.38
368.36	1073.67
368.73	1079.48
369.10	1080.79
369.48	1079.08
369.85	1078.89
370.22	1080.13
370.59	1074.42
370.96	1070.82
371.33	1071.52
371.70	1073.37
372.07	1071.57
372.44	1072.18
372.81	1074.98
373.18	1073.35
373.55	1069.60
373.93	1069.74
374.30	1070.54
374.67	1069.02
375.04	1071.90
375.41	1075.15
375.78	1078.96
376.15	1079.85
376.52	1082.97
376.89	1085.14
377.26	1084.25
377.63	1081.84
378.00	1080.48
378.37	1082.57
378.74	1079.85
379.11	1078.94
379.48	1080.02
379.85	1082.38
380.22	1079.99
380.59	1080.20
380.96	1079.92
381.33	1076.93
381.70	1076.41
382.07	1076.97
382.44	1078.71
382.81	1077.04
383.18	1079.43
383.55	1080.41
383.92	1081.44
384.29	1076.48
384.66	1076.95
385.03	1076.15
385.40	1073.79
385.77	1070.65
386.14	1075.62
386.51	1078.00
386.88	1082.66
387.25	1083.32
387.62	1085.56
387.99	1085.54
388.36	1087.27
388.73	1083.27
389.10	1087.69
389.46	1087.02
389.83	1086.76
390.20	1083.67
390.57	1083.69
390.94	1079.24
391.31	1078.94
391.68	1080.06
392.05	1083.93
392.42	1087.83
392.79	1089.33
393.16	1088.04
393.53	1088.00
393.89	1088.30
394.26	1083.64
394.63	1083.04
395.00	1085.99
395.37	1085.10
395.74	1083.29
396.11	1088.00
396.48	1089.52
396.84	1087.79
397.21	1087.83
397.58	1084.96
397.95	1083.32
398.32	1083.97
398.69	1084.56
399.06	1087.27
399.42	1087.97
399.79	1087.97
400.16	1088.51
400.53	1089.14
400.90	1084.60
401.27	1087.34
401.64	1088.14
402.00	1090.62
402.37	1091.74
402.74	1096.14
403.11	1096.59
403.48	1096.05
403.84	1094.18
404.21	1092.14
404.58	1091.86
404.95	1090.17
405.32	1088.68
405.68	1087.32
406.05	1089.38
406.42	1088.72
406.79	1091.11
407.16	1091.23
407.52	1089.33
407.89	1090.06
408.26	1089.66
408.63	1090.06
408.99	1091.30
409.36	1092.56
409.73	1096.59
410.10	1095.79
410.47	1094.67
410.83	1097.90
411.20	1103.16
411.57	1101.62
411.94	1104.64
412.30	1107.49
412.67	1107.07
413.04	1102.77
413.40	1102.18
413.77	1102.30
414.14	1102.58
414.51	1099.58
414.87	1102.98
415.24	1103.42
415.61	1103.87
415.97	1103.56
416.34	1106.68
416.71	1104.99
417.08	1104.43
417.44	1105.41
417.81	1105.83
418.18	1104.10
418.54	1105.04
418.91	1104.01
419.28	1104.15
419.64	1107.38
420.01	1111.50
420.38	1114.94
420.74	1117.11
421.11	1114.94
421.48	1113.84
421.84	1116.30
422.21	1115.05
422.58	1118.26
422.94	1123.48
423.31	1125.63
423.68	1127.06
424.04	1130.78
424.41	1130.69
424.77	1133.99
425.14	1140.68
425.51	1145.01
425.87	1150.40
426.24	1154.59
426.61	1157.30
426.97	1159.81
427.34	1164.09
427.70	1164.77
428.07	1173.26
428.44	1179.00
428.80	1185.15
429.17	1190.86
429.53	1202.33
429.90	1212.63
430.27	1222.65
430.63	1232.13
431.00	1242.47
431.36	1252.63
431.73	1261.64
432.09	1275.05
432.46	1288.42
432.83	1303.33
433.19	1321.91
433.56	1341.43
433.92	1359.90
434.29	1382.34
434.65	1407.25
435.02	1429.01
435.38	1455.53
435.75	1480.34
436.11	1508.85
436.48	1539.30
436.84	1570.71
437.21	1602.94
437.57	1640.93
437.94	1677.27
438.30	1716.48
438.67	1761.02
439.03	1811.64
439.40	1866.06
439.76	1919.47
440.13	1974.90
440.49	2037.04
440.86	2092.37
441.22	2157.37
441.59	2227.82
441.95	2307.82
442.32	2391.26
442.68	2488.39
443.05	2579.64
443.41	2675.93
443.78	2771.36
444.14	2871.51
444.51	2979.17
444.87	3112.87
445.24	3254.35
445.60	3404.92
445.96	3559.98
446.33	3719.91
446.69	3876.28
447.06	4043.42
447.42	4215.96
447.79	4395.10
448.15	4608.96
448.51	4824.83
448.88	5074.05
449.24	5311.92
449.61	5579.13
449.97	5838.09
450.33	6120.10
450.70	6380.25
451.06	6696.65
451.43	6992.26
451.79	7346.17
452.15	7739.45
452.52	8174.23
452.88	8625.74
453.24	9141.01
453.61	9706.90
453.97	10243.28
454.34	10781.63
454.70	11404.07
455.06	12027.47
455.43	12616.07
455.79	13185.71
456.15	13848.22
456.52	14461.02
456.88	15197.10
457.24	15891.65
457.61	16723.01
457.97	17485.16
458.33	18257.02
458.70	18992.89
459.06	19726.55
459.42	20507.54
459.79	21238.30
460.15	22085.90
460.51	22914.87
460.88	23790.84
461.24	24540.87
461.60	25456.53
461.96	26298.42
462.33	27103.26
462.69	27913.77
463.05	28783.81
463.42	29530.52
463.78	30194.06
464.14	30745.16
464.50	31323.34
464.87	31781.55
465.23	32114.87
465.59	32455.72
465.95	32768.44
466.32	33008.88
466.68	33209.88
467.04	33337.65
467.40	33462.01
467.77	33592.73
468.13	33570.65
468.49	33508.42
468.85	33461.82
469.22	33313.22
469.58	32994.20
469.94	32757.32
470.30	32447.97
470.66	32035.15
471.03	31459.52
471.39	31096.97
471.75	30518.50
472.11	29969.83
472.47	29635.58
472.84	29354.25
473.20	28861.08
473.56	28578.43
473.92	28162.96
474.28	27646.31
474.65	27172.87
475.01	26738.49
475.37	26203.26
475.73	25757.24
476.09	25259.37
476.45	24760.50
476.81	24281.89
477.18	23775.68
477.54	23349.75
477.90	23003.37
478.26	22589.45
478.62	22242.95
478.98	21930.37
479.34	21598.58
479.71	21189.20
480.07	20840.22
480.43	20476.20
480.79	20096.85
481.15	19759.01
481.51	19444.16
481.87	19190.47
482.23	18894.37
482.59	18642.32
482.96	18383.64
483.32	18103.32
483.68	17736.09
484.04	17426.44
484.40	17086.54
484.76	16714.09
485.12	16375.14
485.48	16076.32
485.84	15735.00
486.20	15383.59
486.56	15024.67
486.92	14717.29
487.28	14380.09
487.64	14046.30
488.00	13751.49
488.37	13439.45
488.73	13098.29
489.09	12765.00
489.45	12466.47
489.81	12157.59
490.17	11885.54
490.53	11610.34
490.89	11321.87
491.25	11024.04
491.61	10728.62
491.97	10414.05
492.33	10093.82
492.69	9806.03
493.05	9515.92
493.41	9238.70
493.77	8970.08
494.13	8717.86
494.49	8485.57
494.85	8251.07
495.21	8021.72
495.57	7815.84
495.93	7609.36
496.29	7404.99
496.64	7223.85
497.00	7034.11
497.36	6838.18
497.72	6654.73
498.08	6476.68
498.44	6294.59
498.80	6130.00
499.16	5971.03
499.52	5825.10
499.88	5687.69
500.24	5566.96
500.60	5445.84
500.96	5332.70
501.32	5218.74
501.68	5101.34
502.03	4981.17
502.39	4863.91
502.75	4738.65
503.11	4618.23
503.47	4500.52
503.83	4378.63
504.19	4261.72
504.55	4159.90
504.91	4069.51
505.26	3981.11
505.62	3904.62
505.98	3822.24
506.34	3735.64
506.70	3635.02
507.06	3545.77
507.42	3462.07
507.78	3386.57
508.13	3309.61
508.49	3248.43
508.85	3182.87
509.21	3111.74
509.57	3039.58
509.93	2973.84
510.28	2905.49
510.64	2840.83
511.00	2778.57
511.36	2724.41
511.72	2670.97
512.07	2623.44
512.43	2574.87
512.79	2527.26
513.15	2478.49
513.51	2435.75
513.86	2392.40
514.22	2349.76
514.58	2315.42
514.94	2281.25
515.30	2243.05
515.65	2203.29
516.01	2173.49
516.37	2139.90
516.73	2107.98
517.08	2082.00
517.44	2052.32
517.80	2023.67
518.16	1996.24
518.51	1969.91
518.87	1944.14
519.23	1921.11
519.59	1898.01
519.94	1875.42
520.30	1853.12
520.66	1823.42
521.01	1802.14
521.37	1779.39
521.73	1754.86
522.09	1731.22
522.44	1714.70
522.80	1692.68
523.16	1671.19
523.51	1651.11
523.87	1634.70
524.23	1617.12
524.58	1599.08
524.94	1583.09
525.30	1566.64
525.65	1551.00
526.01	1534.55
526.37	1524.62
526.72	1513.72
527.08	1500.14
527.44	1488.25
527.79	1478.73
528.15	1466.67
528.51	1449.89
528.86	1439.76
529.22	1425.55
529.58	1414.53
529.93	1404.09
530.29	1393.88
530.65	1382.72
531.00	1374.18
531.36	1362.89
531.71	1349.01
532.07	1342.27
532.43	1337.12
532.78	1334.90
533.14	1326.85
533.49	1321.12
533.85	1315.69
534.21	1307.07
534.56	1296.35
534.92	1290.24
535.27	1282.73
535.63	1271.66
535.98	1266.70
536.34	1260.64
536.69	1259.72
537.05	1256.66
537.41	1259.21
537.76	1257.83
538.12	1251.86
538.47	1243.43
538.83	1240.34
539.18	1233.86
539.54	1224.97
539.89	1221.29
540.25	1217.78
540.60	1215.49
540.96	1209.82
541.31	1209.47
541.67	1208.82
542.02	1207.69
542.38	1198.07
542.73	1198.17
543.09	1194.75
543.44	1191.64
543.80	1186.42
544.15	1189.53
544.51	1186.98
544.86	1184.03
545.22	1179.72
545.57	1176.94
545.93	1174.48
546.28	1172.82
546.64	1165.91
546.99	1162.45
547.35	1158.94
547.70	1155.62
548.05	1150.86
548.41	1153.25
548.76	1155.19
549.12	1157.96
549.47	1152.13
549.83	1147.49
550.18	1144.52
550.53	1141.48
550.89	1138.86
551.24	1137.80
551.60	1136.99
551.95	1138.93
552.30	1136.63
552.66	1135.16
553.01	1135.58
553.37	1135.84
553.72	1129.43
554.07	1129.40
554.43	1124.91
554.78	1126.73
555.13	1125.63
555.49	1126.62
555.84	1123.39
556.19	1123.83
556.55	1120.32
556.90	1121.68
557.26	1121.19
557.61	1120.09
557.96	1121.35
558.32	1121.09
558.67	1118.47
559.02	1115.80
559.37	1115.03
559.73	1113.37
560.08	1115.50
560.43	1113.32
560.79	1112.74
561.14	1111.50
561.49	1112.18
561.85	1107.99
562.20	1107.96
562.55	1106.28
562.90	1107.31
563.26	1108.41
563.61	1107.68
563.96	1106.70
564.32	1107.87
564.67	1107.45
565.02	1103.16
565.37	1103.94
565.73	1104.66
566.08	1107.14
566.43	1107.14
566.78	1107.45
567.14	1103.45
567.49	1105.93
567.84	1105.06
568.19	1105.15
568.54	1104.55
568.90	1105.76
569.25	1099.96
569.60	1095.96
569.95	1093.73
570.31	1092.98
570.66	1095.67
571.01	1096.10
571.36	1096.80
571.71	1098.34
572.06	1096.17
572.42	1093.33
572.77	1094.88
573.12	1094.39
573.47	1094.69
573.82	1094.50
574.18	1094.69
574.53	1091.37
574.88	1090.34
575.23	1089.80
575.58	1091.04
575.93	1094.55
576.28	1096.52
576.64	1099.86
576.99	1098.11
577.34	1099.65
577.69	1098.16
578.04	1099.42
578.39	1099.19
578.74	1098.20
579.09	1095.60
579.44	1093.38
579.80	1091.49
580.15	1088.65
580.50	1089.47
580.85	1089.71
581.20	1089.52
581.55	1090.10
581.90	1092.42
582.25	1092.09
582.60	1092.56
582.95	1092.82
583.30	1092.87
583.65	1088.23
584.00	1087.62
584.35	1087.32
584.71	1087.16
585.06	1086.20
585.41	1088.56
585.76	1088.75
586.11	1090.99
586.46	1089.00
586.81	1086.76
587.16	1086.97
587.51	1087.74
587.86	1085.24
588.21	1083.08
588.56	1082.59
588.91	1082.50
589.26	1081.44
589.61	1081.00
589.96	1085.47
590.31	1085.00
590.66	1084.65
591.01	1088.51
591.36	1088.79
591.71	1090.39
592.06	1094.79
592.41	1094.41
592.76	1088.96
593.10	1085.77
593.45	1082.24
593.80	1079.06
594.15	1077.14
594.50	1081.02
594.85	1084.11
595.20	1084.91
595.55	1086.13
595.90	1089.45
596.25	1085.45
596.60	1086.52
596.95	1087.23
597.30	1086.10
597.64	1095.77
597.99	1098.58
598.34	1095.65
598.69	1096.24
599.04	1098.25
599.39	1087.23
599.74	1087.76
600.09	1091.04
600.44	1088.68
600.78	1089.00
601.13	1088.44
601.48	1084.91
601.83	1084.23
602.18	1086.99
602.53	1088.04
602.88	1089.43
603.22	1090.39
603.57	1089.26
603.92	1088.30
604.27	1083.01
604.62	1083.32
604.97	1084.42
605.31	1084.91
605.66	1083.57
606.01	1086.29
606.36	1088.04
606.71	1088.28
607.05	1089.99
607.40	1089.10
607.75	1090.08
608.10	1089.82
608.44	1089.82
608.79	1084.98
609.14	1089.52
609.49	1091.81
609.84	1088.79
610.18	1085.68
610.53	1090.22
610.88	1089.45
611.23	1087.86
611.57	1088.56
611.92	1089.82
612.27	1089.07
612.62	1085.21
612.96	1083.64
613.31	1082.64
613.66	1082.76
614.00	1082.33
614.35	1085.05
614.70	1084.21
615.05	1082.71
615.39	1081.63
615.74	1080.72
616.09	1079.76
616.43	1083.27
616.78	1084.18
617.13	1085.19
617.47	1083.81
617.82	1083.71
618.17	1081.47
618.51	1081.47
618.86	1082.52
619.21	1086.01
619.55	1084.46
619.90	1083.53
620.25	1081.91
620.59	1079.99
620.94	1077.82
621.29	1080.09
621.63	1080.58
621.98	1081.16
622.32	1081.40
622.67	1080.46
623.02	1079.67
623.36	1080.27
623.71	1083.83
624.05	1084.53
624.40	1084.65
624.75	1085.38
625.09	1083.46
625.44	1082.87
625.78	1084.84
626.13	1084.28
626.48	1080.77
626.82	1079.88
627.17	1079.60
627.51	1079.06
627.86	1078.52
628.20	1082.83
628.55	1085.87
628.89	1088.12
629.24	1087.83
629.58	1089.12
629.93	1087.69
630.28	1089.19
630.62	1084.25
630.97	1084.84
631.31	1084.30
631.66	1085.40
632.00	1083.43
632.35	1084.44
632.69	1080.84
633.04	1080.60
633.38	1078.52
633.73	1076.60
634.07	1074.10
634.42	1076.95
634.76	1076.88
635.11	1075.48
635.45	1076.69
635.79	1079.50
636.14	1080.09
636.48	1082.15
636.83	1087.69
637.17	1088.42
637.52	1090.39
637.86	1090.13
638.21	1091.32
638.55	1085.38
638.89	1082.80
639.24	1079.69
639.58	1079.60
639.93	1074.63
640.27	1077.68
640.61	1077.82
640.96	1081.00
641.30	1082.29
641.65	1086.55
641.99	1083.64
642.33	1086.55
642.68	1086.80
643.02	1086.83
643.37	1084.56
643.71	1087.58
644.05	1084.58
644.40	1082.26
644.74	1081.82
645.08	1081.73
645.43	1077.56
645.77	1080.18
646.11	1078.45
646.46	1078.47
646.80	1078.40
647.14	1079.38
647.49	1080.34
647.83	1083.50
648.17	1082.99
648.52	1084.32
648.86	1083.79
649.20	1082.87
649.55	1081.73
649.89	1080.23
650.23	1079.92
650.57	1081.40
650.92	1082.50
651.26	1081.73
651.60	1081.58
651.95	1082.08
652.29	1083.15
652.63	1080.46
652.97	1081.56
653.32	1077.96
653.66	1076.34
654.00	1075.01
654.34	1075.38
654.69	1074.19
655.03	1076.06
655.37	1078.57
655.71	1079.36
656.05	1079.08
656.40	1080.02
656.74	1083.20
657.08	1081.70
657.42	1080.34
657.76	1081.09
658.11	1079.22
658.45	1075.57
658.79	1078.66
659.13	1078.26
659.47	1079.22
659.82	1080.98
660.16	1082.45
660.50	1080.09
660.84	1084.09
661.18	1081.07
661.52	1080.95
661.87	1081.49
662.21	1079.90
662.55	1079.08
662.89	1081.68
663.23	1082.90
663.57	1083.74
663.91	1087.65
664.25	1087.06
664.60	1084.77
664.94	1083.25
665.28	1084.51
665.62	1081.77
665.96	1083.20
666.30	1086.01
666.64	1088.61
666.98	1088.96
667.32	1087.67
667.66	1087.46
668.01	1083.08
668.35	1084.46
668.69	1082.47
669.03	1082.40
669.37	1081.75
669.71	1085.73
670.05	1083.74
670.39	1082.66
670.73	1084.32
671.07	1084.39
671.41	1084.51
671.75	1081.68
672.09	1084.16
672.43	1083.18
672.77	1081.77
673.11	1079.31
673.45	1081.58
673.79	1079.27
674.13	1080.11
674.47	1078.38
674.81	1082.69
675.15	1081.40
675.49	1083.81
675.83	1083.39
676.17	1083.27
676.51	1082.24
676.85	1086.78
677.19	1086.17
677.53	1086.43
677.87	1090.69
678.21	1088.42
678.55	1082.76
678.89	1079.22
679.23	1077.40
679.57	1074.66
679.90	1075.90
680.24	1079.71
680.58	1082.08
680.92	1084.28
681.26	1085.45
681.60	1085.49
681.94	1083.55
682.28	1081.54
682.62	1080.04
682.96	1080.70
683.29	1079.38
683.63	1077.47
683.97	1080.06
684.31	1081.40
684.65	1079.27
684.99	1079.31
685.33	1081.94
685.67	1080.67
686.00	1078.19
686.34	1078.82
686.68	1076.55
687.02	1076.13
687.36	1078.71
687.70	1080.88
688.03	1080.93
688.37	1085.77
688.71	1081.44
689.05	1081.23
689.39	1083.41
689.72	1084.28
690.06	1082.54
690.40	1086.22
690.74	1087.90
691.08	1086.41
691.41	1084.18
691.75	1083.20
692.09	1085.56
692.43	1081.61
692.76	1081.07
693.10	1082.94
693.44	1081.51
693.78	1079.64
694.11	1078.40
694.45	1079.06
694.79	1078.64
695.13	1079.06
695.46	1078.21
695.80	1080.98
696.14	1081.70
696.48	1080.95
696.81	1081.84
697.15	1081.28
697.49	1081.89
697.82	1081.66
698.16	1083.39
698.50	1083.32
698.83	1084.16
699.17	1082.57
699.51	1080.60
699.84	1080.06
700.18	1081.07
700.52	1083.34
700.85	1083.15
701.19	1085.40
701.53	1082.87
701.86	1083.06
702.20	1083.20
702.54	1082.12
702.87	1077.75
703.21	1081.28
703.55	1079.29
703.88	1077.30
704.22	1078.59
704.55	1083.69
704.89	1082.64
705.23	1081.51
705.56	1078.28
705.90	1078.05
706.23	1075.99
706.57	1075.38
706.91	1077.44
707.24	1080.88
707.58	1082.59
707.91	1082.64
708.25	1080.30
708.58	1078.66
708.92	1078.50
709.26	1077.18
709.59	1073.23
709.93	1076.01
710.26	1075.43
710.60	1074.98
710.93	1075.17
711.27	1078.57
711.60	1078.24
711.94	1081.49
712.27	1081.37
712.61	1080.86
712.94	1080.67
713.28	1080.77
713.61	1079.99
713.95	1080.63
714.28	1081.07
714.62	1083.43
714.95	1084.86
715.29	1083.11
715.62	1082.71
715.96	1083.76
716.29	1081.96
716.63	1079.55
716.96	1080.77
717.29	1082.61
717.63	1081.19
717.96	1081.98
718.30	1083.62
718.63	1085.17
718.97	1084.46
719.30	1083.53
719.63	1080.51
719.97	1081.02
720.30	1080.18
720.64	1081.82
720.97	1085.49
721.30	1087.32
721.64	1087.27
721.97	1086.62
722.31	1082.61
722.64	1077.51
722.97	1077.00
723.31	1076.86
723.64	1076.95
723.97	1078.82
724.31	1083.79
724.64	1084.49
724.98	1082.03
725.31	1082.24
725.64	1082.83
725.98	1077.23
726.31	1077.07
726.64	1076.44
726.97	1078.71
727.31	1073.93
727.64	1077.89
727.97	1077.82
728.31	1082.29
728.64	1077.98
728.97	1078.14
729.31	1077.77
729.64	1078.73
729.97	1077.93
730.30	1079.43
730.64	1081.54
730.97	1077.51
731.30	1075.59
731.63	1075.34
731.97	1076.44
732.30	1079.78
732.63	1084.65
732.96	1084.51
733.30	1084.58
733.63	1084.65
733.96	1085.84
734.29	1087.39
734.63	1088.63
734.96	1087.32
735.29	1087.53
735.62	1084.89
735.95	1082.26
736.29	1083.53
736.62	1083.11
736.95	1084.32
737.28	1083.41
737.61	1083.32
737.94	1084.09
738.28	1086.01
738.61	1083.11
738.94	1083.48
739.27	1083.86
739.60	1082.83
739.93	1078.75
740.27	1079.62
740.60	1078.54
740.93	1077.23
741.26	1076.65
741.59	1080.98
741.92	1081.30
742.25	1079.62
742.58	1079.92
742.91	1080.65
743.25	1076.60
743.58	1077.02
743.91	1079.53
744.24	1080.84
744.57	1078.28
744.90	1082.03
745.23	1077.58
745.56	1077.49
745.89	1076.69
746.22	1079.99
746.55	1078.00
746.88	1079.62
747.21	1077.56
747.54	1076.81
747.87	1076.13
748.20	1076.08
748.53	1077.61
748.87	1078.64
749.20	1079.53
749.53	1077.44
749.86	1075.90
750.19	1076.53
750.52	1077.65
750.85	1078.94
751.18	1077.96
751.51	1079.41
751.84	1080.23
752.16	1080.39
752.49	1079.01
752.82	1078.68
753.15	1080.41
753.48	1080.67
753.81	1082.31
754.14	1084.72
754.47	1083.41
754.80	1080.58
755.13	1080.04
755.46	1076.74
755.79	1072.48
756.12	1078.14
756.45	1081.61
756.78	1079.64
757.11	1080.88
757.43	1084.65
757.76	1080.48
758.09	1078.45
758.42	1083.55
758.75	1081.49
759.08	1081.33
759.41	1085.80
759.74	1082.76
760.07	1077.35
760.39	1078.26
760.72	1078.26
761.05	1074.77
761.38	1077.09
761.71	1077.79
762.04	1078.71
762.36	1077.70
762.69	1076.79
763.02	1078.80
763.35	1077.54
763.68	1076.32
764.01	1075.97
