SpectraSuite Data File
++++++++++++++++++++++++++++++++++++
Date: Mon Aug 26 10:21:55 PDT 2019
User: corrico
Dark Spectrum Present: No
Reference Spectrum Present: No
Number of Sampled Component Spectra: 1
Spectrometers: USB2+H06089
Integration Time (usec): 2000 (USB2+H06089)
Spectra Averaged: 20 (USB2+H06089)
Boxcar Smoothing: 2 (USB2+H06089)
Correct for Electrical Dark: No (USB2+H06089)
Strobe/Lamp Enabled: No (USB2+H06089)
Correct for Detector Non-linearity: No (USB2+H06089)
Correct for Stray Light: No (USB2+H06089)
Number of Pixels in Processed Spectrum: 2048
>>>>>Begin Processed Spectral Data<<<<<
339.70	1020.47
340.07	1020.47
340.45	991.90
340.82	968.02
341.19	948.10
341.57	922.48
341.94	909.20
342.31	899.00
342.69	898.44
343.06	892.73
343.43	890.92
343.81	895.09
344.18	896.38
344.55	897.74
344.93	901.64
345.30	908.90
345.67	915.50
346.04	923.51
346.42	934.90
346.79	944.66
347.16	952.86
347.54	960.09
347.91	971.49
348.28	978.55
348.65	984.99
349.03	994.12
349.40	1004.00
349.77	1010.13
350.14	1019.44
350.52	1030.09
350.89	1035.24
351.26	1038.12
351.63	1044.70
352.01	1046.38
352.38	1048.70
352.75	1056.73
353.12	1062.93
353.50	1065.13
353.87	1067.07
354.24	1072.74
354.61	1075.03
354.98	1075.83
355.36	1074.38
355.73	1075.87
356.10	1074.68
356.47	1073.60
356.84	1076.18
357.22	1079.50
357.59	1081.68
357.96	1080.72
358.33	1081.26
358.70	1079.76
359.08	1078.80
359.45	1076.27
359.82	1074.05
360.19	1068.97
360.56	1067.54
360.94	1067.07
361.31	1068.10
361.68	1069.88
362.05	1075.05
362.42	1073.81
362.79	1074.70
363.16	1074.70
363.54	1074.28
363.91	1070.91
364.28	1072.67
364.65	1068.97
365.02	1067.07
365.39	1066.61
365.76	1066.84
366.14	1064.57
366.51	1063.68
366.88	1065.55
367.25	1064.87
367.62	1063.82
367.99	1065.32
368.36	1066.21
368.73	1062.81
369.10	1062.44
369.48	1063.07
369.85	1063.52
370.22	1061.50
370.59	1065.74
370.96	1067.64
371.33	1068.81
371.70	1067.80
372.07	1071.92
372.44	1067.99
372.81	1067.71
373.18	1065.44
373.55	1063.09
373.93	1062.79
374.30	1065.58
374.67	1066.68
375.04	1070.44
375.41	1073.70
375.78	1072.90
376.15	1072.04
376.52	1072.67
376.89	1072.20
377.26	1072.15
377.63	1070.91
378.00	1071.45
378.37	1067.47
378.74	1065.65
379.11	1064.38
379.48	1066.44
379.85	1066.65
380.22	1070.63
380.59	1072.85
380.96	1070.23
381.33	1069.41
381.70	1068.62
382.07	1068.43
382.44	1067.92
382.81	1071.59
383.18	1070.58
383.55	1074.28
383.92	1071.87
384.29	1071.99
384.66	1072.97
385.03	1073.49
385.40	1070.07
385.77	1072.41
386.14	1070.89
386.51	1070.44
386.88	1072.01
387.25	1071.90
387.62	1069.93
387.99	1070.35
388.36	1071.45
388.73	1070.12
389.10	1072.01
389.46	1072.11
389.83	1072.78
390.20	1069.34
390.57	1071.05
390.94	1069.53
391.31	1069.72
391.68	1069.79
392.05	1074.14
392.42	1075.50
392.79	1076.65
393.16	1077.14
393.53	1079.50
393.89	1077.91
394.26	1078.85
394.63	1073.09
395.00	1072.22
395.37	1070.37
395.74	1070.58
396.11	1065.46
396.48	1070.21
396.84	1071.12
397.21	1072.57
397.58	1071.87
397.95	1074.24
398.32	1074.42
398.69	1073.91
399.06	1073.63
399.42	1073.91
399.79	1075.36
400.16	1077.33
400.53	1077.09
400.90	1073.79
401.27	1074.14
401.64	1072.04
402.00	1071.85
402.37	1073.37
402.74	1074.26
403.11	1074.10
403.48	1076.62
403.84	1074.52
404.21	1077.49
404.58	1079.71
404.95	1079.83
405.32	1077.49
405.68	1080.30
406.05	1077.40
406.42	1076.72
406.79	1077.04
407.16	1078.26
407.52	1078.28
407.89	1078.40
408.26	1078.96
408.63	1080.74
408.99	1076.79
409.36	1072.97
409.73	1071.15
410.10	1068.08
410.47	1065.20
410.83	1067.64
411.20	1070.44
411.57	1072.39
411.94	1075.13
412.30	1077.61
412.67	1076.81
413.04	1076.30
413.40	1075.83
413.77	1077.00
414.14	1076.72
414.51	1078.71
414.87	1078.07
415.24	1078.50
415.61	1077.02
415.97	1077.54
416.34	1079.97
416.71	1081.61
417.08	1081.19
417.44	1083.64
417.81	1083.46
418.18	1081.02
418.54	1084.09
418.91	1084.67
419.28	1085.00
419.64	1085.80
420.01	1087.23
420.38	1084.44
420.74	1084.58
421.11	1082.29
421.48	1083.22
421.84	1082.36
422.21	1082.97
422.58	1083.43
422.94	1087.25
423.31	1085.31
423.68	1085.87
424.04	1087.51
424.41	1089.05
424.77	1089.50
425.14	1092.19
425.51	1095.16
425.87	1097.99
426.24	1099.14
426.61	1101.50
426.97	1102.77
427.34	1101.50
427.70	1099.26
428.07	1100.26
428.44	1100.54
428.80	1104.76
429.17	1110.14
429.53	1112.62
429.90	1121.02
430.27	1125.42
430.63	1128.91
431.00	1131.20
431.36	1135.79
431.73	1132.54
432.09	1135.70
432.46	1136.05
432.83	1142.53
433.19	1146.18
433.56	1154.31
433.92	1160.77
434.29	1169.66
434.65	1176.91
435.02	1189.25
435.38	1200.58
435.75	1208.93
436.11	1218.76
436.48	1229.02
436.84	1236.11
437.21	1244.88
437.57	1253.36
437.94	1262.25
438.30	1271.61
438.67	1287.27
439.03	1302.93
439.40	1321.77
439.76	1342.91
440.13	1363.85
440.49	1383.23
440.86	1401.93
441.22	1423.28
441.59	1444.77
441.95	1468.80
442.32	1491.95
442.68	1518.68
443.05	1543.77
443.41	1571.58
443.78	1604.93
444.14	1641.39
444.51	1679.43
444.87	1720.97
445.24	1763.43
445.60	1804.81
445.96	1846.99
446.33	1892.25
446.69	1940.19
447.06	1993.29
447.42	2047.80
447.79	2107.21
448.15	2178.31
448.51	2246.77
448.88	2317.81
449.24	2381.40
449.61	2458.05
449.97	2532.62
450.33	2619.48
450.70	2708.33
451.06	2815.10
451.43	2914.22
451.79	3025.54
452.15	3145.66
452.52	3264.13
452.88	3389.91
453.24	3532.43
453.61	3694.68
453.97	3845.59
454.34	4007.49
454.70	4193.87
455.06	4371.58
455.43	4537.29
455.79	4707.52
456.15	4897.88
456.52	5075.48
456.88	5294.29
457.24	5517.51
457.61	5781.03
457.97	6026.97
458.33	6278.42
458.70	6538.99
459.06	6791.20
459.42	7036.80
459.79	7268.18
460.15	7539.94
460.51	7790.31
460.88	8043.70
461.24	8290.04
461.60	8574.27
461.96	8828.52
462.33	9068.59
462.69	9326.29
463.05	9608.02
463.42	9874.51
463.78	10118.00
464.14	10335.85
464.50	10522.81
464.87	10659.64
465.23	10763.42
465.59	10886.51
465.95	11023.15
466.32	11158.41
466.68	11277.71
467.04	11345.47
467.40	11362.62
467.77	11343.15
468.13	11298.05
468.49	11259.38
468.85	11248.80
469.22	11255.64
469.58	11259.03
469.94	11249.29
470.30	11199.60
470.66	11098.54
471.03	10952.37
471.39	10839.56
471.75	10665.35
472.11	10490.66
472.47	10357.48
472.84	10226.57
473.20	10046.49
473.56	9938.55
473.92	9800.74
474.28	9676.78
474.65	9548.66
475.01	9413.87
475.37	9252.89
475.73	9118.35
476.09	8963.99
476.45	8819.28
476.81	8681.89
477.18	8564.44
477.54	8440.88
477.90	8340.41
478.26	8209.87
478.62	8092.71
478.98	7962.06
479.34	7860.46
479.71	7735.40
480.07	7643.16
480.43	7553.03
480.79	7461.72
481.15	7355.41
481.51	7266.73
481.87	7179.55
482.23	7061.30
482.59	6948.49
482.96	6855.64
483.32	6753.15
483.68	6643.70
484.04	6558.98
484.40	6458.80
484.76	6359.19
485.12	6260.21
485.48	6159.00
485.84	6036.97
486.20	5918.98
486.56	5796.03
486.92	5684.39
487.28	5568.46
487.64	5465.81
488.00	5362.47
488.37	5257.55
488.73	5139.28
489.09	5014.69
489.45	4912.71
489.81	4824.87
490.17	4734.76
490.53	4654.97
490.89	4576.29
491.25	4473.26
491.61	4369.62
491.97	4266.80
492.33	4157.63
492.69	4055.87
493.05	3971.63
493.41	3884.49
493.77	3785.58
494.13	3696.71
494.49	3614.96
494.85	3535.92
495.21	3466.54
495.57	3406.28
495.93	3342.87
496.29	3282.88
496.64	3217.86
497.00	3149.07
497.36	3076.70
497.72	3009.74
498.08	2953.31
498.44	2895.06
498.80	2843.21
499.16	2796.66
499.52	2746.43
499.88	2691.64
500.24	2645.93
500.60	2596.59
500.96	2548.89
501.32	2506.48
501.68	2460.32
502.03	2407.71
502.39	2356.73
502.75	2314.16
503.11	2274.84
503.47	2240.52
503.83	2217.82
504.19	2191.37
504.55	2162.05
504.91	2137.00
505.26	2105.08
505.62	2066.25
505.98	2035.45
506.34	2007.97
506.70	1972.58
507.06	1942.25
507.42	1918.51
507.78	1891.08
508.13	1860.66
508.49	1836.38
508.85	1815.04
509.21	1791.02
509.57	1767.55
509.93	1741.22
510.28	1715.78
510.64	1691.69
511.00	1664.54
511.36	1645.30
511.72	1627.07
512.07	1612.86
512.43	1596.57
512.79	1584.03
513.15	1565.98
513.51	1546.86
513.86	1530.41
514.22	1516.32
514.58	1501.01
514.94	1485.68
515.30	1474.94
515.65	1461.01
516.01	1446.66
516.37	1434.75
516.73	1429.65
517.08	1426.21
517.44	1416.07
517.80	1406.50
518.16	1394.84
518.51	1380.26
518.87	1365.14
519.23	1355.54
519.59	1348.45
519.94	1342.46
520.30	1337.97
520.66	1329.71
521.01	1320.11
521.37	1309.58
521.73	1301.36
522.09	1292.61
522.44	1286.29
522.80	1281.49
523.16	1276.20
523.51	1273.13
523.87	1268.97
524.23	1265.41
524.58	1261.69
524.94	1260.71
525.30	1252.75
525.65	1246.15
526.01	1237.84
526.37	1232.69
526.72	1223.96
527.08	1220.00
527.44	1212.80
527.79	1211.32
528.15	1203.67
528.51	1197.09
528.86	1190.91
529.22	1190.77
529.58	1185.97
529.93	1185.41
530.29	1185.93
530.65	1186.30
531.00	1178.69
531.36	1176.47
531.71	1174.43
532.07	1173.61
532.43	1167.08
532.78	1166.55
533.14	1161.02
533.49	1154.26
533.85	1149.65
534.21	1151.03
534.56	1150.12
534.92	1148.31
535.27	1148.10
535.63	1145.50
535.98	1141.32
536.34	1137.69
536.69	1136.35
537.05	1136.49
537.41	1133.19
537.76	1130.76
538.12	1132.14
538.47	1131.37
538.83	1129.47
539.18	1131.27
539.54	1131.39
539.89	1126.66
540.25	1128.14
540.60	1126.24
540.96	1126.64
541.31	1124.02
541.67	1124.56
542.02	1120.30
542.38	1118.19
542.73	1113.04
543.09	1110.07
543.44	1107.52
543.80	1108.20
544.15	1109.23
544.51	1111.19
544.86	1113.91
545.22	1112.64
545.57	1114.94
545.93	1113.21
546.28	1113.79
546.64	1111.80
546.99	1112.92
547.35	1109.46
547.70	1107.78
548.05	1104.66
548.41	1107.54
548.76	1107.73
549.12	1106.00
549.47	1109.58
549.83	1107.05
550.18	1102.98
550.53	1100.64
550.89	1099.93
551.24	1094.43
551.60	1094.67
551.95	1093.33
552.30	1095.39
552.66	1095.67
553.01	1094.93
553.37	1092.49
553.72	1091.79
554.07	1087.81
554.43	1087.53
554.78	1089.17
555.13	1090.39
555.49	1090.83
555.84	1095.53
556.19	1092.94
556.55	1092.07
556.90	1095.11
557.26	1095.02
557.61	1087.95
557.96	1091.37
558.32	1090.60
558.67	1090.27
559.02	1091.49
559.37	1095.56
559.73	1093.24
560.08	1094.50
560.43	1090.57
560.79	1087.76
561.14	1087.60
561.49	1088.82
561.85	1085.38
562.20	1082.87
562.55	1084.77
562.90	1084.07
563.26	1081.77
563.61	1081.33
563.96	1082.94
564.32	1084.49
564.67	1082.17
565.02	1081.09
565.37	1083.32
565.73	1086.43
566.08	1085.31
566.43	1084.77
566.78	1086.55
567.14	1084.79
567.49	1080.88
567.84	1077.68
568.19	1076.48
568.54	1073.23
568.90	1077.56
569.25	1077.28
569.60	1078.94
569.95	1083.01
570.31	1087.20
570.66	1083.74
571.01	1083.95
571.36	1085.24
571.71	1083.71
572.06	1080.25
572.42	1080.81
572.77	1080.37
573.12	1078.43
573.47	1078.82
573.82	1078.73
574.18	1079.03
574.53	1080.72
574.88	1080.70
575.23	1080.27
575.58	1082.03
575.93	1080.25
576.28	1079.71
576.64	1080.30
576.99	1080.39
577.34	1079.90
577.69	1079.43
578.04	1082.05
578.39	1083.13
578.74	1084.21
579.09	1085.80
579.44	1089.36
579.80	1089.82
580.15	1087.83
580.50	1086.41
580.85	1084.65
581.20	1083.60
581.55	1082.19
581.90	1081.94
582.25	1083.27
582.60	1080.86
582.95	1081.02
583.30	1081.09
583.65	1083.32
584.00	1082.69
584.35	1086.92
584.71	1084.42
585.06	1081.68
585.41	1080.51
585.76	1079.53
586.11	1076.51
586.46	1077.07
586.81	1079.57
587.16	1079.15
587.51	1080.09
587.86	1082.36
588.21	1083.15
588.56	1081.87
588.91	1084.70
589.26	1087.02
589.61	1087.06
589.96	1084.07
590.31	1084.53
590.66	1079.57
591.01	1077.14
591.36	1075.73
591.71	1076.93
592.06	1075.66
592.41	1078.73
592.76	1076.55
593.10	1075.94
593.45	1074.70
593.80	1076.23
594.15	1074.96
594.50	1075.99
594.85	1075.76
595.20	1079.99
595.55	1077.47
595.90	1075.34
596.25	1074.56
596.60	1076.51
596.95	1075.45
597.30	1077.96
597.64	1090.24
597.99	1090.90
598.34	1089.24
598.69	1089.12
599.04	1089.17
599.39	1078.47
599.74	1079.15
600.09	1080.77
600.44	1080.11
600.78	1079.08
601.13	1077.70
601.48	1079.69
601.83	1076.01
602.18	1074.38
602.53	1075.13
602.88	1075.45
603.22	1072.85
603.57	1075.55
603.92	1078.28
604.27	1076.69
604.62	1078.47
604.97	1078.21
605.31	1080.77
605.66	1077.79
606.01	1078.14
606.36	1077.07
606.71	1078.38
607.05	1072.67
607.40	1073.65
607.75	1071.75
608.10	1072.01
608.44	1069.91
608.79	1072.08
609.14	1073.02
609.49	1073.88
609.84	1071.05
610.18	1074.28
610.53	1076.90
610.88	1075.45
611.23	1081.16
611.57	1084.84
611.92	1080.11
612.27	1078.68
612.62	1080.72
612.96	1073.88
613.31	1072.29
613.66	1075.17
614.00	1075.94
614.35	1074.12
614.70	1075.78
615.05	1075.34
615.39	1073.98
615.74	1073.18
616.09	1075.31
616.43	1078.36
616.78	1078.78
617.13	1083.88
617.47	1084.14
617.82	1079.03
618.17	1075.55
618.51	1075.36
618.86	1071.54
619.21	1070.82
619.55	1073.09
619.90	1075.31
620.25	1071.66
620.59	1072.74
620.94	1074.49
621.29	1077.25
621.63	1079.15
621.98	1085.05
622.32	1088.65
622.67	1088.33
623.02	1086.69
623.36	1083.69
623.71	1080.02
624.05	1076.32
624.40	1074.89
624.75	1075.59
625.09	1077.21
625.44	1078.07
625.78	1077.82
626.13	1078.40
626.48	1076.83
626.82	1077.16
627.17	1079.81
627.51	1078.40
627.86	1075.73
628.20	1076.46
628.55	1075.73
628.89	1076.88
629.24	1078.21
629.58	1080.44
629.93	1082.59
630.28	1081.51
630.62	1080.67
630.97	1077.33
631.31	1078.82
631.66	1076.76
632.00	1075.80
632.35	1072.39
632.69	1073.07
633.04	1073.58
633.38	1074.26
633.73	1073.58
634.07	1076.46
634.42	1076.74
634.76	1073.98
635.11	1074.12
635.45	1077.47
635.79	1071.92
636.14	1071.12
636.48	1073.11
636.83	1070.42
637.17	1066.91
637.52	1075.10
637.86	1078.57
638.21	1076.88
638.55	1077.63
638.89	1080.93
639.24	1078.12
639.58	1079.60
639.93	1079.38
640.27	1078.71
640.61	1076.83
640.96	1075.17
641.30	1071.52
641.65	1072.57
641.99	1076.34
642.33	1078.33
642.68	1080.09
643.02	1083.69
643.37	1080.74
643.71	1076.88
644.05	1075.41
644.40	1075.62
644.74	1074.63
645.08	1076.20
645.43	1077.61
645.77	1077.51
646.11	1079.85
646.46	1077.51
646.80	1076.18
647.14	1076.74
647.49	1077.56
647.83	1072.85
648.17	1071.90
648.52	1075.17
648.86	1073.56
649.20	1072.29
649.55	1075.41
649.89	1075.64
650.23	1073.49
650.57	1074.05
650.92	1076.04
651.26	1074.03
651.60	1076.62
651.95	1074.61
652.29	1073.56
652.63	1073.35
652.97	1072.36
653.32	1073.63
653.66	1078.07
654.00	1081.80
654.34	1079.43
654.69	1080.70
655.03	1078.24
655.37	1075.31
655.71	1072.46
656.05	1074.33
656.40	1074.63
656.74	1074.54
657.08	1073.04
657.42	1072.13
657.76	1070.65
658.11	1067.31
658.45	1069.86
658.79	1072.95
659.13	1075.22
659.47	1076.08
659.82	1076.37
660.16	1075.69
660.50	1075.55
660.84	1076.13
661.18	1076.90
661.52	1078.92
661.87	1077.79
662.21	1076.58
662.55	1077.61
662.89	1076.39
663.23	1078.87
663.57	1081.26
663.91	1081.82
664.25	1082.45
664.60	1084.02
664.94	1085.87
665.28	1083.83
665.62	1085.24
665.96	1082.97
666.30	1077.70
666.64	1075.15
666.98	1074.54
667.32	1073.98
667.66	1073.04
668.01	1078.14
668.35	1077.86
668.69	1077.84
669.03	1080.37
669.37	1083.46
669.71	1080.79
670.05	1081.40
670.39	1082.12
670.73	1077.70
671.07	1074.52
671.41	1077.86
671.75	1077.68
672.09	1078.00
672.43	1080.88
672.77	1079.60
673.11	1078.00
673.45	1074.17
673.79	1070.70
674.13	1066.70
674.47	1067.85
674.81	1068.43
675.15	1071.92
675.49	1073.77
675.83	1075.38
676.17	1076.93
676.51	1076.34
676.85	1076.46
677.19	1078.12
677.53	1078.73
677.87	1078.45
678.21	1078.78
678.55	1077.49
678.89	1075.27
679.23	1074.91
679.57	1074.40
679.90	1070.77
680.24	1072.15
680.58	1071.78
680.92	1073.88
681.26	1074.63
681.60	1078.94
681.94	1077.11
682.28	1079.15
682.62	1077.63
682.96	1076.86
683.29	1075.50
683.63	1074.17
683.97	1073.35
684.31	1070.96
684.65	1071.94
684.99	1073.74
685.33	1077.02
685.67	1077.42
686.00	1081.00
686.34	1082.36
686.68	1079.99
687.02	1078.75
687.36	1078.57
687.70	1075.80
688.03	1070.75
688.37	1069.70
688.71	1070.33
689.05	1069.58
689.39	1071.54
689.72	1073.81
690.06	1073.00
690.40	1071.97
690.74	1072.83
691.08	1074.10
691.41	1075.17
691.75	1078.03
692.09	1078.92
692.43	1076.62
692.76	1073.86
693.10	1074.38
693.44	1074.42
693.78	1072.29
694.11	1073.32
694.45	1075.41
694.79	1069.72
695.13	1068.85
695.46	1070.65
695.80	1070.40
696.14	1065.53
696.48	1071.03
696.81	1072.27
697.15	1073.14
697.49	1074.54
697.82	1079.78
698.16	1079.69
698.50	1076.18
698.83	1073.51
699.17	1072.67
699.51	1070.07
699.84	1070.40
700.18	1076.15
700.52	1075.48
700.85	1077.14
701.19	1079.13
701.53	1078.85
701.86	1077.04
702.20	1076.90
702.54	1077.56
702.87	1077.00
703.21	1075.69
703.55	1075.92
703.88	1079.38
704.22	1078.33
704.55	1080.39
704.89	1080.32
705.23	1077.16
705.56	1074.91
705.90	1075.01
706.23	1072.95
706.57	1070.94
706.91	1071.01
707.24	1073.32
707.58	1072.81
707.91	1070.54
708.25	1074.82
708.58	1077.56
708.92	1076.79
709.26	1075.85
709.59	1078.66
709.93	1078.43
710.26	1075.71
710.60	1075.50
710.93	1074.75
711.27	1075.29
711.60	1076.48
711.94	1079.76
712.27	1080.06
712.61	1081.35
712.94	1081.54
713.28	1076.88
713.61	1073.39
713.95	1074.28
714.28	1073.53
714.62	1073.28
714.95	1078.19
715.29	1081.51
715.62	1080.53
715.96	1079.78
716.29	1077.44
716.63	1074.73
716.96	1072.85
717.29	1072.95
717.63	1074.70
717.96	1075.62
718.30	1076.86
718.63	1077.79
718.97	1076.53
719.30	1077.49
719.63	1078.92
719.97	1076.06
720.30	1075.41
720.64	1076.06
720.97	1075.01
721.30	1074.12
721.64	1076.58
721.97	1078.12
722.31	1077.18
722.64	1075.52
722.97	1076.01
723.31	1077.04
723.64	1076.86
723.97	1078.12
724.31	1079.92
724.64	1076.58
724.98	1073.95
725.31	1074.40
725.64	1076.08
725.98	1075.66
726.31	1078.82
726.64	1078.17
726.97	1076.95
727.31	1074.80
727.64	1074.12
727.97	1070.51
728.31	1074.35
728.64	1073.79
728.97	1073.16
729.31	1074.59
729.64	1076.58
729.97	1075.52
730.30	1075.80
730.64	1076.39
730.97	1076.04
731.30	1077.51
731.63	1074.77
731.97	1072.67
732.30	1071.57
732.63	1069.58
732.96	1071.33
733.30	1069.34
733.63	1069.91
733.96	1073.60
734.29	1074.75
734.63	1075.38
734.96	1079.15
735.29	1079.64
735.62	1077.47
735.95	1078.12
736.29	1075.76
736.62	1076.04
736.95	1078.00
737.28	1078.71
737.61	1076.51
737.94	1075.20
738.28	1072.46
738.61	1068.90
738.94	1066.44
739.27	1068.69
739.60	1070.68
739.93	1072.29
740.27	1071.73
740.60	1070.87
740.93	1070.33
741.26	1068.38
741.59	1067.03
741.92	1068.48
742.25	1067.66
742.58	1064.83
742.91	1063.42
743.25	1065.13
743.58	1068.62
743.91	1071.43
744.24	1072.74
744.57	1076.69
744.90	1076.11
745.23	1073.37
745.56	1074.38
745.89	1076.18
746.22	1073.67
746.55	1074.28
746.88	1073.04
747.21	1070.58
747.54	1069.62
747.87	1071.45
748.20	1073.32
748.53	1075.94
748.87	1078.43
749.20	1079.60
749.53	1078.14
749.86	1074.03
750.19	1074.73
750.52	1075.03
750.85	1074.21
751.18	1075.36
751.51	1074.26
751.84	1072.34
752.16	1072.36
752.49	1074.33
752.82	1075.64
753.15	1077.02
753.48	1076.30
753.81	1075.64
754.14	1074.42
754.47	1073.11
754.80	1072.76
755.13	1074.52
755.46	1076.08
755.79	1077.33
756.12	1077.16
756.45	1080.91
756.78	1080.27
757.11	1080.32
757.43	1077.82
757.76	1077.37
758.09	1077.77
758.42	1077.54
758.75	1076.08
759.08	1076.55
759.41	1075.13
759.74	1075.34
760.07	1077.63
760.39	1076.83
760.72	1078.47
761.05	1082.17
761.38	1080.16
761.71	1078.94
762.04	1078.57
762.36	1079.17
762.69	1075.50
763.02	1074.33
763.35	1073.28
763.68	1073.28
764.01	1072.15
764.33	1072.74
764.66	1071.22
764.99	1071.92
765.32	1070.58
765.65	1066.42
