SpectraSuite Data File
++++++++++++++++++++++++++++++++++++
Date: Mon Aug 26 10:22:26 PDT 2019
User: corrico
Dark Spectrum Present: No
Reference Spectrum Present: No
Number of Sampled Component Spectra: 1
Spectrometers: USB2+H06089
Integration Time (usec): 2000 (USB2+H06089)
Spectra Averaged: 20 (USB2+H06089)
Boxcar Smoothing: 2 (USB2+H06089)
Correct for Electrical Dark: No (USB2+H06089)
Strobe/Lamp Enabled: No (USB2+H06089)
Correct for Detector Non-linearity: No (USB2+H06089)
Correct for Stray Light: No (USB2+H06089)
Number of Pixels in Processed Spectrum: 2048
>>>>>Begin Processed Spectral Data<<<<<
339.70	1032.53
340.07	1032.53
340.45	996.90
340.82	975.30
341.19	950.54
341.57	923.79
341.94	913.09
342.31	908.20
342.69	903.94
343.06	904.43
343.43	903.77
343.81	901.25
344.18	900.78
344.55	900.01
344.93	901.71
345.30	907.00
345.67	916.09
346.04	924.32
346.42	936.45
346.79	944.78
347.16	953.72
347.54	960.79
347.91	969.92
348.28	980.31
348.65	991.87
349.03	1001.61
349.40	1014.15
349.77	1021.92
350.14	1030.00
350.52	1037.07
350.89	1046.06
351.26	1048.93
351.63	1058.02
352.01	1059.02
352.38	1059.00
352.75	1060.96
353.12	1068.15
353.50	1067.38
353.87	1072.92
354.24	1079.01
354.61	1085.03
354.98	1082.87
355.36	1086.27
355.73	1087.74
356.10	1090.10
356.47	1089.14
356.84	1089.17
357.22	1090.22
357.59	1089.38
357.96	1085.77
358.33	1081.73
358.70	1084.70
359.08	1082.54
359.45	1081.82
359.82	1082.45
360.19	1081.42
360.56	1077.82
360.94	1078.92
361.31	1077.28
361.68	1074.35
362.05	1075.43
362.42	1074.98
362.79	1071.45
363.16	1070.49
363.54	1071.66
363.91	1071.26
364.28	1073.37
364.65	1074.45
365.02	1072.64
365.39	1071.97
365.76	1070.70
366.14	1070.00
366.51	1070.65
366.88	1072.29
367.25	1073.09
367.62	1077.09
367.99	1077.91
368.36	1075.05
368.73	1075.78
369.10	1077.35
369.48	1074.45
369.85	1075.15
370.22	1074.98
370.59	1073.23
370.96	1071.80
371.33	1071.38
371.70	1067.89
372.07	1070.37
372.44	1071.12
372.81	1070.51
373.18	1070.89
373.55	1072.01
373.93	1074.26
374.30	1075.22
374.67	1080.93
375.04	1079.74
375.41	1080.60
375.78	1078.21
376.15	1077.91
376.52	1074.31
376.89	1076.93
377.26	1078.14
377.63	1076.30
378.00	1079.13
378.37	1078.28
378.74	1079.43
379.11	1079.01
379.48	1082.38
379.85	1081.37
380.22	1079.10
380.59	1080.53
380.96	1081.16
381.33	1082.38
381.70	1081.19
382.07	1082.99
382.44	1082.87
382.81	1083.48
383.18	1082.45
383.55	1081.23
383.92	1082.76
384.29	1082.47
384.66	1082.22
385.03	1081.75
385.40	1081.80
385.77	1079.90
386.14	1078.54
386.51	1078.24
386.88	1075.64
387.25	1080.58
387.62	1083.29
387.99	1082.76
388.36	1078.96
388.73	1080.63
389.10	1078.36
389.46	1076.90
389.83	1076.11
390.20	1081.16
390.57	1084.58
390.94	1085.03
391.31	1085.91
391.68	1086.45
392.05	1085.42
392.42	1084.00
392.79	1083.71
393.16	1084.67
393.53	1085.24
393.89	1087.60
394.26	1088.68
394.63	1088.00
395.00	1084.96
395.37	1087.97
395.74	1086.20
396.11	1084.18
396.48	1086.03
396.84	1086.59
397.21	1085.68
397.58	1088.35
397.95	1092.82
398.32	1090.32
398.69	1094.06
399.06	1094.20
399.42	1092.87
399.79	1092.30
400.16	1094.69
400.53	1094.29
400.90	1093.83
401.27	1092.19
401.64	1088.82
402.00	1089.14
402.37	1089.80
402.74	1091.13
403.11	1093.80
403.48	1097.64
403.84	1094.06
404.21	1092.66
404.58	1091.86
404.95	1089.14
405.32	1088.19
405.68	1088.19
406.05	1089.54
406.42	1089.85
406.79	1092.47
407.16	1092.14
407.52	1095.21
407.89	1094.93
408.26	1096.54
408.63	1096.10
408.99	1094.69
409.36	1094.48
409.73	1092.07
410.10	1091.74
410.47	1095.44
410.83	1097.10
411.20	1097.15
411.57	1100.31
411.94	1095.60
412.30	1092.19
412.67	1087.79
413.04	1088.82
413.40	1091.63
413.77	1096.96
414.14	1099.00
414.51	1102.49
414.87	1103.73
415.24	1102.11
415.61	1101.67
415.97	1102.65
416.34	1102.42
416.71	1100.66
417.08	1100.24
417.44	1102.42
417.81	1102.95
418.18	1103.89
418.54	1108.99
418.91	1110.65
419.28	1109.20
419.64	1107.89
420.01	1111.31
420.38	1110.54
420.74	1111.66
421.11	1115.50
421.48	1118.12
421.84	1117.86
422.21	1118.59
422.58	1121.49
422.94	1123.69
423.31	1128.28
423.68	1131.18
424.04	1137.27
424.41	1138.60
424.77	1136.94
425.14	1142.13
425.51	1147.61
425.87	1149.04
426.24	1154.49
426.61	1163.06
426.97	1163.39
427.34	1169.03
427.70	1176.59
428.07	1181.60
428.44	1187.40
428.80	1193.23
429.17	1200.86
429.53	1207.74
429.90	1217.29
430.27	1231.57
430.63	1245.16
431.00	1254.64
431.36	1267.96
431.73	1279.71
432.09	1290.29
432.46	1300.66
432.83	1318.82
433.19	1332.37
433.56	1353.79
433.92	1369.26
434.29	1393.13
434.65	1416.21
435.02	1445.16
435.38	1467.33
435.75	1495.60
436.11	1529.19
436.48	1558.87
436.84	1591.05
437.21	1627.00
437.57	1665.27
437.94	1700.07
438.30	1745.34
438.67	1786.46
439.03	1835.14
439.40	1889.44
439.76	1944.75
440.13	2009.68
440.49	2081.23
440.86	2148.80
441.22	2222.32
441.59	2294.83
441.95	2369.61
442.32	2454.43
442.68	2549.78
443.05	2643.14
443.41	2744.11
443.78	2839.96
444.14	2941.63
444.51	3045.72
444.87	3183.99
445.24	3325.43
445.60	3482.55
445.96	3641.43
446.33	3823.97
446.69	3989.70
447.06	4167.67
447.42	4347.62
447.79	4532.63
448.15	4742.23
448.51	4964.56
448.88	5221.66
449.24	5464.66
449.61	5743.14
449.97	6018.24
450.33	6304.21
450.70	6566.96
451.06	6892.13
451.43	7197.80
451.79	7553.70
452.15	7951.95
452.52	8404.91
452.88	8868.66
453.24	9405.79
453.61	9992.71
453.97	10561.67
454.34	11095.57
454.70	11749.89
455.06	12391.99
455.43	13010.83
455.79	13597.95
456.15	14325.51
456.52	14971.78
456.88	15739.07
457.24	16473.37
457.61	17331.88
457.97	18096.41
458.33	18886.93
458.70	19650.90
459.06	20410.74
459.42	21237.08
459.79	22033.66
460.15	22938.05
460.51	23809.85
460.88	24742.81
461.24	25542.73
461.60	26498.87
461.96	27348.13
462.33	28177.99
462.69	28960.27
463.05	29817.32
463.42	30528.52
463.78	31188.43
464.14	31725.35
464.50	32311.26
464.87	32761.16
465.23	33108.21
465.59	33479.21
465.95	33817.02
466.32	34090.96
466.68	34333.51
467.04	34477.24
467.40	34603.56
467.77	34757.47
468.13	34734.95
468.49	34655.91
468.85	34586.56
469.22	34421.81
469.58	34041.31
469.94	33789.40
470.30	33458.50
470.66	33022.34
471.03	32408.30
471.39	32036.06
471.75	31374.11
472.11	30766.34
472.47	30413.27
472.84	30110.78
473.20	29615.78
473.56	29349.66
473.92	28929.77
474.28	28401.21
474.65	27899.89
475.01	27421.74
475.37	26853.04
475.73	26409.04
476.09	25895.41
476.45	25379.29
476.81	24865.17
477.18	24339.96
477.54	23871.05
477.90	23514.12
478.26	23089.67
478.62	22760.33
478.98	22472.93
479.34	22155.00
479.71	21732.67
480.07	21395.00
480.43	21030.93
480.79	20636.11
481.15	20289.71
481.51	19982.04
481.87	19730.81
482.23	19455.35
482.59	19212.40
482.96	18922.97
483.32	18637.24
483.68	18273.80
484.04	17913.22
484.40	17545.64
484.76	17184.26
485.12	16812.23
485.48	16491.27
485.84	16147.19
486.20	15797.28
486.56	15441.71
486.92	15153.59
487.28	14803.26
487.64	14455.17
488.00	14134.12
488.37	13813.82
488.73	13435.75
489.09	13078.73
489.45	12764.32
489.81	12445.54
490.17	12143.38
490.53	11862.84
490.89	11557.31
491.25	11269.38
491.61	10966.72
491.97	10650.49
492.33	10319.19
492.69	10025.80
493.05	9709.43
493.41	9408.35
493.77	9134.27
494.13	8896.66
494.49	8647.95
494.85	8414.39
495.21	8201.24
495.57	7982.89
495.93	7755.32
496.29	7556.28
496.64	7367.75
497.00	7165.69
497.36	6973.63
497.72	6787.23
498.08	6609.35
498.44	6431.14
498.80	6266.29
499.16	6106.43
499.52	5956.34
499.88	5821.97
500.24	5697.78
500.60	5578.29
500.96	5459.91
501.32	5337.64
501.68	5209.07
502.03	5079.76
502.39	4948.06
502.75	4813.57
503.11	4697.90
503.47	4584.64
503.83	4468.81
504.19	4352.67
504.55	4245.64
504.91	4143.47
505.26	4046.11
505.62	3956.93
505.98	3866.59
506.34	3786.40
506.70	3691.45
507.06	3599.65
507.42	3509.59
507.78	3432.98
508.13	3346.52
508.49	3282.55
508.85	3215.05
509.21	3150.24
509.57	3081.32
509.93	3022.57
510.28	2955.04
510.64	2890.56
511.00	2821.16
511.36	2767.89
511.72	2714.04
512.07	2661.75
512.43	2613.93
512.79	2571.24
513.15	2517.50
513.51	2466.74
513.86	2421.89
514.22	2377.26
514.58	2329.86
514.94	2295.08
515.30	2259.72
515.65	2223.81
516.01	2191.09
516.37	2163.85
516.73	2132.27
517.08	2106.41
517.44	2073.78
517.80	2047.80
518.16	2020.35
518.51	1989.46
518.87	1958.42
519.23	1937.47
519.59	1912.15
519.94	1886.82
520.30	1868.36
520.66	1845.35
521.01	1819.44
521.37	1795.59
521.73	1776.12
522.09	1751.28
522.44	1727.34
522.80	1707.63
523.16	1688.37
523.51	1667.66
523.87	1653.96
524.23	1638.35
524.58	1618.48
524.94	1599.99
525.30	1582.55
525.65	1564.84
526.01	1549.32
526.37	1539.49
526.72	1530.29
527.08	1516.64
527.44	1502.06
527.79	1485.82
528.15	1470.39
528.51	1453.31
528.86	1440.90
529.22	1431.10
529.58	1420.66
529.93	1409.03
530.29	1398.68
530.65	1390.51
531.00	1383.89
531.36	1377.05
531.71	1369.42
532.07	1362.36
532.43	1353.13
532.78	1338.60
533.14	1331.37
533.49	1326.94
533.85	1320.88
534.21	1316.01
534.56	1311.87
534.92	1306.81
535.27	1296.14
535.63	1289.26
535.98	1278.59
536.34	1275.45
536.69	1271.00
537.05	1264.36
537.41	1260.36
537.76	1259.56
538.12	1253.22
538.47	1244.32
538.83	1241.77
539.18	1237.39
539.54	1232.71
539.89	1228.78
540.25	1225.18
540.60	1221.10
540.96	1216.10
541.31	1211.41
541.67	1209.82
542.02	1209.33
542.38	1207.90
542.73	1204.67
543.09	1202.61
543.44	1198.78
543.80	1191.59
544.15	1186.93
544.51	1186.56
544.86	1183.98
545.22	1182.13
545.57	1187.33
545.93	1182.95
546.28	1177.50
546.64	1176.33
546.99	1173.12
547.35	1164.81
547.70	1162.90
548.05	1161.02
548.41	1157.18
548.76	1154.38
549.12	1151.78
549.47	1153.53
549.83	1152.41
550.18	1150.16
550.53	1146.30
550.89	1144.45
551.24	1142.18
551.60	1140.96
551.95	1140.29
552.30	1140.45
552.66	1142.32
553.01	1139.35
553.37	1137.64
553.72	1135.42
554.07	1134.93
554.43	1132.89
554.78	1132.66
555.13	1131.09
555.49	1131.18
555.84	1129.36
556.19	1130.62
556.55	1132.28
556.90	1133.62
557.26	1134.06
557.61	1132.19
557.96	1127.67
558.32	1125.17
558.67	1121.54
559.02	1117.89
559.37	1119.81
559.73	1118.71
560.08	1120.72
560.43	1122.10
560.79	1122.52
561.14	1121.14
561.49	1123.43
561.85	1118.42
562.20	1113.53
562.55	1115.34
562.90	1113.04
563.26	1108.59
563.61	1110.26
563.96	1112.01
564.32	1108.34
564.67	1107.54
565.02	1108.95
565.37	1107.89
565.73	1105.97
566.08	1108.85
566.43	1107.14
566.78	1104.85
567.14	1102.49
567.49	1103.16
567.84	1100.24
568.19	1102.32
568.54	1102.98
568.90	1102.44
569.25	1100.80
569.60	1099.33
569.95	1097.64
570.31	1098.25
570.66	1095.89
571.01	1096.19
571.36	1097.45
571.71	1096.35
572.06	1097.03
572.42	1103.16
572.77	1100.94
573.12	1098.62
573.47	1099.30
573.82	1096.19
574.18	1092.52
574.53	1095.51
574.88	1095.98
575.23	1097.43
575.58	1097.36
575.93	1097.76
576.28	1097.62
576.64	1096.03
576.99	1097.88
577.34	1099.33
577.69	1097.52
578.04	1093.73
578.39	1096.07
578.74	1089.73
579.09	1087.74
579.44	1088.86
579.80	1093.38
580.15	1094.34
580.50	1098.09
580.85	1102.06
581.20	1103.59
581.55	1100.52
581.90	1096.52
582.25	1095.14
582.60	1091.72
582.95	1090.67
583.30	1091.67
583.65	1092.30
584.00	1089.85
584.35	1088.93
584.71	1084.67
585.06	1079.01
585.41	1080.18
585.76	1083.36
586.11	1085.10
586.46	1087.37
586.81	1092.14
587.16	1090.43
587.51	1091.42
587.86	1089.22
588.21	1089.78
588.56	1089.47
588.91	1088.09
589.26	1082.29
589.61	1082.38
589.96	1080.67
590.31	1079.06
590.66	1080.56
591.01	1086.17
591.36	1089.50
591.71	1091.37
592.06	1094.74
592.41	1092.82
592.76	1090.01
593.10	1088.23
593.45	1087.27
593.80	1087.30
594.15	1088.35
594.50	1088.82
594.85	1089.12
595.20	1088.09
595.55	1087.06
595.90	1087.39
596.25	1085.10
596.60	1083.36
596.95	1083.11
597.30	1082.03
597.64	1093.50
597.99	1095.32
598.34	1095.21
598.69	1093.15
599.04	1093.38
599.39	1083.76
599.74	1085.54
600.09	1085.89
600.44	1088.79
600.78	1088.98
601.13	1090.57
601.48	1090.60
601.83	1090.74
602.18	1089.68
602.53	1088.47
602.88	1085.07
603.22	1082.54
603.57	1085.59
603.92	1086.22
604.27	1082.57
604.62	1083.60
604.97	1085.12
605.31	1080.16
605.66	1079.71
606.01	1085.03
606.36	1083.48
606.71	1083.53
607.05	1087.04
607.40	1086.43
607.75	1085.28
608.10	1084.60
608.44	1083.48
608.79	1081.98
609.14	1084.86
609.49	1087.79
609.84	1091.04
610.18	1092.09
610.53	1091.67
610.88	1089.31
611.23	1084.35
611.57	1084.28
611.92	1084.49
612.27	1084.51
612.62	1083.36
612.96	1084.46
613.31	1078.89
613.66	1074.96
614.00	1074.63
614.35	1075.59
614.70	1072.76
615.05	1075.45
615.39	1074.87
615.74	1077.28
616.09	1076.32
616.43	1080.39
616.78	1080.60
617.13	1084.51
617.47	1081.21
617.82	1081.66
618.17	1083.32
618.51	1083.41
618.86	1082.29
619.21	1083.71
619.55	1082.45
619.90	1082.73
620.25	1085.96
620.59	1085.03
620.94	1080.93
621.29	1083.43
621.63	1082.03
621.98	1081.49
622.32	1081.07
622.67	1086.13
623.02	1085.84
623.36	1084.00
623.71	1081.35
624.05	1081.28
624.40	1078.03
624.75	1079.57
625.09	1081.12
625.44	1080.79
625.78	1079.43
626.13	1082.19
626.48	1079.20
626.82	1078.10
627.17	1081.05
627.51	1083.97
627.86	1083.81
628.20	1085.91
628.55	1085.73
628.89	1081.77
629.24	1084.63
629.58	1082.83
629.93	1079.69
630.28	1081.77
630.62	1083.62
630.97	1083.62
631.31	1085.80
631.66	1089.80
632.00	1086.13
632.35	1087.65
632.69	1087.20
633.04	1085.91
633.38	1085.03
633.73	1088.49
634.07	1086.78
634.42	1085.47
634.76	1084.93
635.11	1082.22
635.45	1081.61
635.79	1080.63
636.14	1077.96
636.48	1077.61
636.83	1077.96
637.17	1076.25
637.52	1077.63
637.86	1080.34
638.21	1080.02
638.55	1082.71
638.89	1083.06
639.24	1084.72
639.58	1084.11
639.93	1086.76
640.27	1085.87
640.61	1085.45
640.96	1083.01
641.30	1083.64
641.65	1083.01
641.99	1084.18
642.33	1086.15
642.68	1085.68
643.02	1083.67
643.37	1083.62
643.71	1081.09
644.05	1079.62
644.40	1082.38
644.74	1084.56
645.08	1087.53
645.43	1087.69
645.77	1089.33
646.11	1086.73
646.46	1084.67
646.80	1081.82
647.14	1084.81
647.49	1084.02
647.83	1083.20
648.17	1083.27
648.52	1084.04
648.86	1085.56
649.20	1088.56
649.55	1088.26
649.89	1090.22
650.23	1092.09
650.57	1090.03
650.92	1086.64
651.26	1086.73
651.60	1084.37
651.95	1078.03
652.29	1075.87
652.63	1078.71
652.97	1080.48
653.32	1080.86
653.66	1080.74
654.00	1081.80
654.34	1078.99
654.69	1081.30
655.03	1081.05
655.37	1083.25
655.71	1083.76
656.05	1084.46
656.40	1081.51
656.74	1081.58
657.08	1082.47
657.42	1083.46
657.76	1082.05
658.11	1084.28
658.45	1083.53
658.79	1081.26
659.13	1079.41
659.47	1079.76
659.82	1077.02
660.16	1080.06
660.50	1081.70
660.84	1083.62
661.18	1085.17
661.52	1085.73
661.87	1083.71
662.21	1085.07
662.55	1084.60
662.89	1082.94
663.23	1083.06
663.57	1082.59
663.91	1082.45
664.25	1080.60
664.60	1083.50
664.94	1083.64
665.28	1083.36
665.62	1084.56
665.96	1086.31
666.30	1084.89
666.64	1086.87
666.98	1087.58
667.32	1085.03
667.66	1081.56
668.01	1082.45
668.35	1081.28
668.69	1081.80
669.03	1082.38
669.37	1082.97
669.71	1082.59
670.05	1082.52
670.39	1083.74
670.73	1084.84
671.07	1088.42
671.41	1088.91
671.75	1085.61
672.09	1083.08
672.43	1082.43
672.77	1078.38
673.11	1075.10
673.45	1077.79
673.79	1079.76
674.13	1080.30
674.47	1083.46
674.81	1083.83
675.15	1085.42
675.49	1086.62
675.83	1085.47
676.17	1087.30
676.51	1087.74
676.85	1086.08
677.19	1086.03
677.53	1086.99
677.87	1083.76
678.21	1084.56
678.55	1086.22
678.89	1083.81
679.23	1081.68
679.57	1080.20
679.90	1079.03
680.24	1074.66
680.58	1077.70
680.92	1079.17
681.26	1080.13
681.60	1078.17
681.94	1081.87
682.28	1078.00
682.62	1078.99
682.96	1079.50
683.29	1080.72
683.63	1077.77
683.97	1078.59
684.31	1077.30
684.65	1079.24
684.99	1080.95
685.33	1082.61
685.67	1084.60
686.00	1083.39
686.34	1081.26
686.68	1078.59
687.02	1076.97
687.36	1072.81
687.70	1073.16
688.03	1072.69
688.37	1074.77
688.71	1076.23
689.05	1078.64
689.39	1079.50
689.72	1077.21
690.06	1072.83
690.40	1075.34
690.74	1076.11
691.08	1074.82
691.41	1077.14
691.75	1080.11
692.09	1078.40
692.43	1078.05
692.76	1081.66
693.10	1081.00
693.44	1083.50
693.78	1083.25
694.11	1083.15
694.45	1082.15
694.79	1083.25
695.13	1082.08
695.46	1082.59
695.80	1082.66
696.14	1082.12
696.48	1084.02
696.81	1081.37
697.15	1081.54
697.49	1080.30
697.82	1080.18
698.16	1079.34
698.50	1081.73
698.83	1080.41
699.17	1082.40
699.51	1080.72
699.84	1082.29
700.18	1081.09
700.52	1082.01
700.85	1079.48
701.19	1080.44
701.53	1075.83
701.86	1075.69
702.20	1075.01
702.54	1077.70
702.87	1077.51
703.21	1079.08
703.55	1081.30
703.88	1083.25
704.22	1083.20
704.55	1083.29
704.89	1083.25
705.23	1081.80
705.56	1080.20
705.90	1079.67
706.23	1080.34
706.57	1082.83
706.91	1084.32
707.24	1085.05
707.58	1082.22
707.91	1082.78
708.25	1083.18
708.58	1084.84
708.92	1085.91
709.26	1089.03
709.59	1091.95
709.93	1089.03
710.26	1089.66
710.60	1087.48
710.93	1086.83
711.27	1085.89
711.60	1086.38
711.94	1084.00
712.27	1085.26
712.61	1084.72
712.94	1080.53
713.28	1080.41
713.61	1081.16
713.95	1082.12
714.28	1083.15
714.62	1085.00
714.95	1083.48
715.29	1082.29
715.62	1079.74
715.96	1078.59
716.29	1075.90
716.63	1078.21
716.96	1076.81
717.29	1079.27
717.63	1075.78
717.96	1080.34
718.30	1080.79
718.63	1079.81
718.97	1078.99
719.30	1082.26
719.63	1080.09
719.97	1079.22
720.30	1081.54
720.64	1079.62
720.97	1079.64
721.30	1078.71
721.64	1075.15
721.97	1073.60
722.31	1073.81
722.64	1075.71
722.97	1075.66
723.31	1079.48
723.64	1081.02
723.97	1081.26
724.31	1076.86
724.64	1078.61
724.98	1078.21
725.31	1078.45
725.64	1080.58
725.98	1083.69
726.31	1083.27
726.64	1083.04
726.97	1083.41
727.31	1080.16
727.64	1078.71
727.97	1076.83
728.31	1074.96
728.64	1074.98
728.97	1077.11
729.31	1079.17
729.64	1079.38
729.97	1080.98
730.30	1081.33
730.64	1080.09
730.97	1078.64
731.30	1080.18
731.63	1077.82
731.97	1076.15
732.30	1081.82
732.63	1084.23
732.96	1083.41
733.30	1086.06
733.63	1088.96
733.96	1082.36
734.29	1080.74
734.63	1080.48
734.96	1079.60
735.29	1077.33
735.62	1077.09
735.95	1079.27
736.29	1078.14
736.62	1079.92
736.95	1078.28
737.28	1080.70
737.61	1079.50
737.94	1083.22
738.28	1081.02
738.61	1085.10
738.94	1088.30
739.27	1086.41
739.60	1084.35
739.93	1085.31
740.27	1081.21
740.60	1077.25
740.93	1076.95
741.26	1076.48
741.59	1076.23
741.92	1076.11
742.25	1075.80
742.58	1077.11
742.91	1077.93
743.25	1077.96
743.58	1079.43
743.91	1080.81
744.24	1077.68
744.57	1075.08
744.90	1075.10
745.23	1074.35
745.56	1075.01
745.89	1078.94
746.22	1079.10
746.55	1078.87
746.88	1081.91
747.21	1081.35
747.54	1079.81
747.87	1078.59
748.20	1080.20
748.53	1078.59
748.87	1076.60
749.20	1078.47
749.53	1079.85
749.86	1077.72
750.19	1076.55
750.52	1078.07
750.85	1076.79
751.18	1081.47
751.51	1082.87
751.84	1081.91
752.16	1080.39
752.49	1078.26
752.82	1074.49
753.15	1074.21
753.48	1075.73
753.81	1077.44
754.14	1079.22
754.47	1078.87
754.80	1079.43
755.13	1080.51
755.46	1078.96
755.79	1083.01
756.12	1085.59
756.45	1085.12
756.78	1082.85
757.11	1081.33
757.43	1080.98
757.76	1083.76
758.09	1084.96
758.42	1088.02
758.75	1089.78
759.08	1083.43
759.41	1079.36
759.74	1077.84
760.07	1074.52
760.39	1073.98
760.72	1076.88
761.05	1076.06
761.38	1075.62
761.71	1076.32
762.04	1076.30
762.36	1075.31
762.69	1070.42
763.02	1070.58
763.35	1070.07
763.68	1073.53
764.01	1074.28
