SpectraSuite Data File
++++++++++++++++++++++++++++++++++++
Date: Mon Aug 26 10:22:06 PDT 2019
User: corrico
Dark Spectrum Present: No
Reference Spectrum Present: No
Number of Sampled Component Spectra: 1
Spectrometers: USB2+H06089
Integration Time (usec): 2000 (USB2+H06089)
Spectra Averaged: 20 (USB2+H06089)
Boxcar Smoothing: 2 (USB2+H06089)
Correct for Electrical Dark: No (USB2+H06089)
Strobe/Lamp Enabled: No (USB2+H06089)
Correct for Detector Non-linearity: No (USB2+H06089)
Correct for Stray Light: No (USB2+H06089)
Number of Pixels in Processed Spectrum: 2048
>>>>>Begin Processed Spectral Data<<<<<
339.70	1037.79
340.07	1037.79
340.45	997.26
340.82	972.70
341.19	945.86
341.57	917.30
341.94	907.26
342.31	896.66
342.69	891.25
343.06	890.11
343.43	891.65
343.81	896.14
344.18	901.62
344.55	905.53
344.93	910.96
345.30	914.40
345.67	921.26
346.04	928.05
346.42	937.83
346.79	947.26
347.16	961.47
347.54	969.92
347.91	977.64
348.28	990.30
348.65	997.58
349.03	1002.24
349.40	1009.45
349.77	1019.23
350.14	1023.52
350.52	1032.11
350.89	1038.12
351.26	1041.91
351.63	1045.89
352.01	1052.26
352.38	1053.69
352.75	1060.29
353.12	1066.25
353.50	1071.10
353.87	1072.90
354.24	1077.28
354.61	1079.38
354.98	1081.73
355.36	1081.89
355.73	1083.08
356.10	1085.03
356.47	1082.66
356.84	1083.43
357.22	1084.18
357.59	1082.94
357.96	1081.49
358.33	1084.53
358.70	1084.32
359.08	1085.66
359.45	1086.83
359.82	1087.46
360.19	1086.17
360.56	1085.28
360.94	1084.56
361.31	1083.11
361.68	1084.37
362.05	1083.41
362.42	1085.19
362.79	1083.08
363.16	1082.50
363.54	1079.92
363.91	1078.73
364.28	1077.02
364.65	1078.57
365.02	1078.12
365.39	1076.30
365.76	1078.75
366.14	1078.21
366.51	1078.33
366.88	1079.24
367.25	1082.26
367.62	1078.28
367.99	1078.89
368.36	1076.51
368.73	1075.99
369.10	1073.39
369.48	1074.94
369.85	1075.31
370.22	1077.58
370.59	1076.79
370.96	1078.71
371.33	1078.03
371.70	1077.40
372.07	1076.15
372.44	1076.48
372.81	1075.99
373.18	1078.03
373.55	1077.56
373.93	1078.05
374.30	1079.88
374.67	1079.60
375.04	1077.54
375.41	1080.88
375.78	1080.13
376.15	1081.16
376.52	1082.94
376.89	1081.96
377.26	1080.67
377.63	1082.73
378.00	1081.42
378.37	1080.58
378.74	1082.45
379.11	1078.50
379.48	1074.66
379.85	1075.66
380.22	1075.64
380.59	1076.97
380.96	1080.44
381.33	1084.67
381.70	1082.73
382.07	1086.52
382.44	1086.03
382.81	1087.02
383.18	1083.41
383.55	1084.28
383.92	1079.85
384.29	1082.97
384.66	1080.72
385.03	1082.97
385.40	1084.51
385.77	1086.76
386.14	1086.80
386.51	1090.20
386.88	1093.59
387.25	1092.63
387.62	1094.25
387.99	1092.47
388.36	1092.14
388.73	1089.31
389.10	1090.92
389.46	1086.06
389.83	1087.74
390.20	1086.94
390.57	1086.59
390.94	1083.69
391.31	1084.07
391.68	1081.49
392.05	1083.53
392.42	1083.74
392.79	1085.89
393.16	1087.27
393.53	1088.72
393.89	1085.03
394.26	1085.49
394.63	1085.17
395.00	1085.42
395.37	1082.85
395.74	1082.24
396.11	1081.07
396.48	1080.46
396.84	1078.73
397.21	1081.47
397.58	1079.15
397.95	1082.17
398.32	1083.34
398.69	1085.52
399.06	1086.24
399.42	1092.59
399.79	1093.31
400.16	1093.87
400.53	1094.36
400.90	1095.30
401.27	1094.13
401.64	1090.50
402.00	1091.13
402.37	1092.47
402.74	1092.16
403.11	1093.71
403.48	1096.05
403.84	1094.97
404.21	1095.42
404.58	1094.83
404.95	1094.67
405.32	1094.08
405.68	1092.77
406.05	1093.66
406.42	1094.20
406.79	1094.34
407.16	1096.61
407.52	1099.02
407.89	1097.66
408.26	1097.52
408.63	1098.06
408.99	1096.56
409.36	1095.46
409.73	1096.40
410.10	1097.48
410.47	1098.83
410.83	1099.70
411.20	1101.41
411.57	1099.63
411.94	1099.26
412.30	1097.52
412.67	1100.33
413.04	1102.42
413.40	1103.68
413.77	1106.61
414.14	1106.84
414.51	1106.98
414.87	1107.87
415.24	1108.43
415.61	1104.48
415.97	1106.28
416.34	1104.15
416.71	1103.40
417.08	1104.43
417.44	1108.62
417.81	1108.71
418.18	1107.28
418.54	1105.29
418.91	1106.98
419.28	1109.34
419.64	1113.09
420.01	1116.51
420.38	1120.58
420.74	1122.90
421.11	1123.15
421.48	1123.50
421.84	1126.71
422.21	1128.40
422.58	1131.23
422.94	1135.21
423.31	1137.45
423.68	1140.10
424.04	1144.15
424.41	1146.70
424.77	1147.49
425.14	1152.50
425.51	1156.32
425.87	1158.75
426.24	1166.78
426.61	1177.13
426.97	1182.91
427.34	1189.41
427.70	1198.49
428.07	1203.57
428.44	1208.04
428.80	1215.25
429.17	1225.57
429.53	1235.73
429.90	1248.39
430.27	1257.22
430.63	1272.90
431.00	1285.70
431.36	1303.70
431.73	1322.10
432.09	1341.50
432.46	1360.20
432.83	1380.24
433.19	1398.45
433.56	1418.08
433.92	1442.33
434.29	1465.88
434.65	1496.40
435.02	1526.33
435.38	1560.18
435.75	1589.04
436.11	1625.78
436.48	1667.77
436.84	1711.96
437.21	1754.02
437.57	1805.68
437.94	1858.92
438.30	1906.76
438.67	1964.97
439.03	2029.08
439.40	2101.50
439.76	2169.21
440.13	2246.91
440.49	2329.86
440.86	2406.80
441.22	2491.73
441.59	2580.84
441.95	2680.87
442.32	2775.15
442.68	2899.95
443.05	3023.01
443.41	3157.90
443.78	3287.68
444.14	3436.12
444.51	3569.83
444.87	3731.91
445.24	3893.67
445.60	4083.44
445.96	4262.07
446.33	4478.90
446.69	4683.25
447.06	4911.43
447.42	5121.33
447.79	5355.45
448.15	5626.37
448.51	5902.81
448.88	6219.06
449.24	6536.65
449.61	6902.85
449.97	7246.60
450.33	7627.78
450.70	7976.97
451.06	8407.11
451.43	8809.00
451.79	9274.70
452.15	9775.60
452.52	10318.74
452.88	10868.16
453.24	11497.86
453.61	12200.93
453.97	12892.91
454.34	13596.66
454.70	14412.53
455.06	15218.33
455.43	15983.80
455.79	16681.89
456.15	17502.60
456.52	18247.31
456.88	19174.28
457.24	20068.10
457.61	21186.90
457.97	22235.65
458.33	23342.00
458.70	24370.57
459.06	25362.19
459.42	26374.30
459.79	27319.86
460.15	28372.75
460.51	29383.79
460.88	30495.12
461.24	31480.93
461.60	32602.40
461.96	33657.42
462.33	34701.39
462.69	35742.25
463.05	36856.70
463.42	37893.34
463.78	38828.20
464.14	39580.57
464.50	40307.65
464.87	40825.45
465.23	41147.23
465.59	41530.21
465.95	41846.95
466.32	42109.61
466.68	42392.53
467.04	42594.57
467.40	42655.80
467.77	42753.04
468.13	42651.02
468.49	42479.39
468.85	42364.45
469.22	42231.34
469.58	41996.44
469.94	41853.37
470.30	41637.43
470.66	41264.25
471.03	40718.32
471.39	40324.69
471.75	39630.16
472.11	38929.62
472.47	38432.23
472.84	37917.87
473.20	37207.10
473.56	36789.57
473.92	36215.09
474.28	35587.61
474.65	34946.75
475.01	34269.96
475.37	33454.40
475.73	32771.46
476.09	32061.41
476.45	31428.25
476.81	30901.20
477.18	30338.89
477.54	29862.29
477.90	29411.66
478.26	28835.84
478.62	28308.94
478.98	27886.48
479.34	27458.56
479.71	26896.62
480.07	26459.59
480.43	26007.45
480.79	25515.84
481.15	25028.54
481.51	24654.52
481.87	24330.27
482.23	23988.38
482.59	23678.47
482.96	23345.67
483.32	23053.43
483.68	22647.54
484.04	22295.19
484.40	21879.05
484.76	21471.44
485.12	21001.28
485.48	20580.45
485.84	20085.63
486.20	19656.26
486.56	19209.64
486.92	18820.79
487.28	18429.87
487.64	18032.28
488.00	17631.44
488.37	17243.71
488.73	16797.67
489.09	16306.42
489.45	15842.57
489.81	15379.73
490.17	14928.43
490.53	14525.69
490.89	14132.04
491.25	13736.86
491.61	13334.57
491.97	12933.68
492.33	12535.53
492.69	12189.49
493.05	11866.07
493.41	11563.88
493.77	11247.61
494.13	10946.92
494.49	10642.65
494.85	10346.90
495.21	10047.83
495.57	9783.39
495.93	9507.44
496.29	9246.45
496.64	9009.87
497.00	8762.03
497.36	8495.21
497.72	8254.74
498.08	8029.86
498.44	7792.23
498.80	7575.52
499.16	7385.33
499.52	7192.61
499.88	7008.73
500.24	6833.57
500.60	6685.55
500.96	6534.85
501.32	6380.70
501.68	6215.43
502.03	6050.68
502.39	5880.90
502.75	5704.00
503.11	5544.73
503.47	5404.84
503.83	5272.34
504.19	5143.49
504.55	5025.36
504.91	4908.57
505.26	4790.14
505.62	4676.23
505.98	4563.46
506.34	4448.89
506.70	4331.44
507.06	4225.11
507.42	4122.10
507.78	4024.83
508.13	3931.33
508.49	3850.32
508.85	3767.28
509.21	3680.07
509.57	3590.24
509.93	3504.02
510.28	3406.56
510.64	3324.43
511.00	3246.67
511.36	3174.37
511.72	3100.74
512.07	3047.80
512.43	2982.19
512.79	2917.24
513.15	2859.36
513.51	2806.75
513.86	2748.87
514.22	2696.93
514.58	2647.22
514.94	2596.40
515.30	2551.70
515.65	2507.14
516.01	2463.27
516.37	2416.02
516.73	2380.68
517.08	2338.66
517.44	2297.96
517.80	2262.55
518.16	2233.22
518.51	2194.77
518.87	2163.52
519.23	2130.64
519.59	2097.63
519.94	2067.16
520.30	2039.45
520.66	2011.46
521.01	1984.45
521.37	1952.85
521.73	1926.24
522.09	1900.54
522.44	1874.89
522.80	1854.13
523.16	1835.64
523.51	1814.52
523.87	1792.01
524.23	1770.94
524.58	1747.09
524.94	1725.30
525.30	1703.25
525.65	1680.67
526.01	1664.33
526.37	1645.49
526.72	1627.98
527.08	1608.14
527.44	1593.37
527.79	1571.83
528.15	1555.80
528.51	1539.51
528.86	1527.93
529.22	1514.70
529.58	1505.57
529.93	1496.05
530.29	1484.58
530.65	1474.96
531.00	1462.62
531.36	1451.16
531.71	1436.27
532.07	1423.37
532.43	1410.01
532.78	1395.45
533.14	1384.36
533.49	1376.45
533.85	1367.41
534.21	1361.19
534.56	1359.10
534.92	1351.50
535.27	1342.62
535.63	1337.55
535.98	1330.71
536.34	1322.19
536.69	1317.65
537.05	1313.58
537.41	1303.80
537.76	1293.71
538.12	1285.87
538.47	1275.45
538.83	1266.21
539.18	1261.57
539.54	1260.17
539.89	1257.01
540.25	1254.53
540.60	1250.45
540.96	1248.39
541.31	1243.55
541.67	1240.67
542.02	1235.80
542.38	1230.96
542.73	1227.66
543.09	1225.67
543.44	1219.56
543.80	1217.03
544.15	1214.29
544.51	1211.53
544.86	1205.96
545.22	1203.04
545.57	1200.53
545.93	1201.65
546.28	1195.17
546.64	1187.70
546.99	1184.55
547.35	1180.61
547.70	1175.35
548.05	1173.15
548.41	1173.85
548.76	1173.03
549.12	1171.11
549.47	1168.79
549.83	1169.26
550.18	1168.02
550.53	1167.04
550.89	1165.28
551.24	1161.54
551.60	1158.96
551.95	1157.68
552.30	1153.14
552.66	1147.56
553.01	1147.42
553.37	1143.49
553.72	1140.73
554.07	1138.72
554.43	1141.27
554.78	1138.74
555.13	1139.47
555.49	1137.90
555.84	1136.80
556.19	1135.42
556.55	1135.84
556.90	1136.14
557.26	1136.03
557.61	1137.83
557.96	1136.42
558.32	1133.80
558.67	1129.00
559.02	1128.21
559.37	1128.19
559.73	1127.44
560.08	1130.01
560.43	1133.22
560.79	1133.33
561.14	1127.88
561.49	1124.98
561.85	1120.72
562.20	1119.03
562.55	1117.00
562.90	1118.61
563.26	1120.20
563.61	1119.95
563.96	1119.53
564.32	1117.37
564.67	1114.33
565.02	1115.17
565.37	1116.90
565.73	1114.61
566.08	1113.77
566.43	1115.08
566.78	1115.55
567.14	1112.27
567.49	1111.85
567.84	1111.36
568.19	1107.54
568.54	1101.83
568.90	1099.09
569.25	1095.70
569.60	1096.54
569.95	1099.65
570.31	1099.77
570.66	1099.84
571.01	1103.80
571.36	1102.81
571.71	1102.02
572.06	1101.27
572.42	1103.63
572.77	1098.04
573.12	1097.71
573.47	1095.46
573.82	1095.11
574.18	1091.32
574.53	1094.93
574.88	1096.24
575.23	1095.58
575.58	1096.49
575.93	1095.46
576.28	1095.49
576.64	1094.67
576.99	1096.49
577.34	1097.80
577.69	1101.90
578.04	1100.40
578.39	1101.01
578.74	1100.10
579.09	1098.90
579.44	1098.55
579.80	1101.57
580.15	1100.45
580.50	1100.36
580.85	1101.69
581.20	1101.78
581.55	1099.63
581.90	1098.67
582.25	1098.44
582.60	1094.95
582.95	1093.17
583.30	1091.37
583.65	1090.13
584.00	1089.96
584.35	1087.34
584.71	1087.51
585.06	1085.96
585.41	1083.55
585.76	1086.01
586.11	1087.46
586.46	1087.69
586.81	1091.42
587.16	1095.18
587.51	1091.79
587.86	1090.88
588.21	1091.60
588.56	1091.88
588.91	1091.39
589.26	1092.00
589.61	1095.75
589.96	1094.88
590.31	1094.08
590.66	1091.34
591.01	1090.36
591.36	1090.39
591.71	1089.59
592.06	1085.66
592.41	1086.34
592.76	1090.48
593.10	1089.33
593.45	1092.19
593.80	1092.54
594.15	1093.76
594.50	1089.50
594.85	1087.46
595.20	1084.84
595.55	1089.87
595.90	1091.16
596.25	1092.77
596.60	1094.36
596.95	1091.93
597.30	1086.29
597.64	1094.34
597.99	1094.27
598.34	1091.81
598.69	1092.37
599.04	1093.52
599.39	1082.38
599.74	1083.20
600.09	1083.62
600.44	1086.06
600.78	1087.72
601.13	1085.89
601.48	1083.41
601.83	1085.38
602.18	1082.85
602.53	1081.87
602.88	1084.23
603.22	1085.82
603.57	1086.27
603.92	1091.58
604.27	1094.72
604.62	1094.08
604.97	1092.94
605.31	1091.53
605.66	1086.17
606.01	1083.22
606.36	1084.25
606.71	1085.82
607.05	1085.03
607.40	1089.54
607.75	1091.09
608.10	1091.09
608.44	1091.93
608.79	1092.21
609.14	1086.78
609.49	1084.56
609.84	1082.24
610.18	1081.94
610.53	1084.89
610.88	1089.14
611.23	1089.31
611.57	1091.30
611.92	1091.49
612.27	1087.34
612.62	1083.06
612.96	1084.28
613.31	1085.75
613.66	1082.22
614.00	1082.99
614.35	1083.46
614.70	1082.52
615.05	1078.99
615.39	1083.08
615.74	1082.71
616.09	1084.70
616.43	1084.23
616.78	1088.12
617.13	1085.96
617.47	1088.16
617.82	1088.93
618.17	1091.16
618.51	1087.53
618.86	1082.36
619.21	1080.11
619.55	1078.36
619.90	1076.04
620.25	1074.75
620.59	1080.48
620.94	1082.97
621.29	1083.76
621.63	1084.67
621.98	1086.17
622.32	1082.90
622.67	1080.32
623.02	1080.39
623.36	1080.81
623.71	1080.70
624.05	1081.00
624.40	1081.61
624.75	1079.50
625.09	1078.61
625.44	1080.20
625.78	1081.96
626.13	1083.93
626.48	1086.41
626.82	1080.77
627.17	1081.80
627.51	1082.43
627.86	1080.48
628.20	1080.70
628.55	1088.23
628.89	1086.71
629.24	1083.41
629.58	1085.96
629.93	1084.89
630.28	1084.14
630.62	1084.65
630.97	1086.17
631.31	1083.46
631.66	1081.68
632.00	1079.03
632.35	1081.19
632.69	1085.26
633.04	1085.96
633.38	1086.66
633.73	1088.91
634.07	1087.11
634.42	1085.05
634.76	1084.02
635.11	1084.11
635.45	1083.81
635.79	1083.04
636.14	1083.76
636.48	1081.73
636.83	1082.01
637.17	1080.18
637.52	1078.61
637.86	1077.14
638.21	1079.31
638.55	1080.95
638.89	1080.44
639.24	1081.05
639.58	1079.78
639.93	1079.74
640.27	1080.16
640.61	1081.98
640.96	1081.91
641.30	1084.18
641.65	1083.93
641.99	1081.49
642.33	1079.31
642.68	1081.68
643.02	1080.41
643.37	1080.79
643.71	1083.11
644.05	1081.51
644.40	1079.88
644.74	1080.70
645.08	1080.65
645.43	1076.86
645.77	1081.35
646.11	1084.11
646.46	1081.82
646.80	1083.43
647.14	1085.28
647.49	1083.34
647.83	1078.03
648.17	1078.68
648.52	1077.42
648.86	1078.14
649.20	1077.84
649.55	1082.66
649.89	1084.89
650.23	1088.33
650.57	1089.85
650.92	1092.54
651.26	1092.91
651.60	1094.97
651.95	1093.15
652.29	1094.39
652.63	1095.46
652.97	1091.63
653.32	1086.66
653.66	1085.70
654.00	1083.18
654.34	1082.01
654.69	1083.79
655.03	1084.79
655.37	1082.90
655.71	1084.09
656.05	1082.19
656.40	1080.30
656.74	1081.23
657.08	1083.50
657.42	1080.02
657.76	1080.09
658.11	1084.51
658.45	1086.62
658.79	1087.41
659.13	1091.13
659.47	1092.28
659.82	1091.16
660.16	1088.23
660.50	1087.81
660.84	1084.51
661.18	1084.28
661.52	1083.71
661.87	1083.83
662.21	1082.76
662.55	1085.61
662.89	1085.19
663.23	1086.64
663.57	1083.34
663.91	1084.30
664.25	1082.36
664.60	1082.26
664.94	1079.48
665.28	1084.00
665.62	1082.83
665.96	1082.10
666.30	1081.70
666.64	1081.82
666.98	1079.92
667.32	1076.88
667.66	1078.96
668.01	1078.31
668.35	1080.02
668.69	1083.18
669.03	1085.19
669.37	1087.11
669.71	1086.94
670.05	1085.70
670.39	1082.22
670.73	1082.73
671.07	1077.14
671.41	1079.69
671.75	1079.10
672.09	1080.53
672.43	1080.67
672.77	1083.71
673.11	1083.71
673.45	1085.42
673.79	1082.29
674.13	1083.36
674.47	1084.84
674.81	1083.79
675.15	1082.87
675.49	1085.84
675.83	1086.43
676.17	1085.75
676.51	1083.20
676.85	1081.49
677.19	1080.72
677.53	1078.96
677.87	1077.21
678.21	1075.76
678.55	1076.18
678.89	1075.05
679.23	1072.08
679.57	1072.22
679.90	1078.66
680.24	1078.00
680.58	1083.50
680.92	1083.97
681.26	1084.42
681.60	1074.68
681.94	1076.34
682.28	1071.15
682.62	1073.63
682.96	1074.54
683.29	1080.06
683.63	1076.48
683.97	1074.35
684.31	1076.34
684.65	1078.00
684.99	1079.88
685.33	1083.41
685.67	1087.06
686.00	1085.63
686.34	1083.08
686.68	1080.77
687.02	1079.15
687.36	1078.52
687.70	1078.59
688.03	1074.96
688.37	1077.42
688.71	1075.48
689.05	1073.39
689.39	1071.31
689.72	1073.21
690.06	1071.82
690.40	1074.87
690.74	1079.03
691.08	1080.70
691.41	1082.94
691.75	1083.60
692.09	1081.77
692.43	1079.27
692.76	1080.32
693.10	1079.55
693.44	1082.17
693.78	1085.82
694.11	1086.52
694.45	1086.34
694.79	1087.06
695.13	1084.32
695.46	1082.71
695.80	1082.05
696.14	1082.97
696.48	1082.24
696.81	1082.38
697.15	1079.81
697.49	1078.24
697.82	1078.24
698.16	1079.22
698.50	1079.13
698.83	1084.96
699.17	1086.66
699.51	1084.07
699.84	1083.53
700.18	1081.84
700.52	1074.87
700.85	1073.04
701.19	1073.07
701.53	1073.72
701.86	1074.31
702.20	1076.60
702.54	1076.69
702.87	1077.33
703.21	1076.51
703.55	1075.57
703.88	1078.73
704.22	1077.72
704.55	1080.04
704.89	1079.22
705.23	1082.10
705.56	1082.97
705.90	1085.99
706.23	1083.79
706.57	1082.54
706.91	1079.99
707.24	1077.33
707.58	1076.86
707.91	1078.28
708.25	1078.45
708.58	1079.57
708.92	1078.99
709.26	1078.50
709.59	1074.96
709.93	1076.39
710.26	1078.80
710.60	1079.08
710.93	1084.53
711.27	1085.68
711.60	1086.62
711.94	1082.43
712.27	1081.82
712.61	1078.43
712.94	1079.48
713.28	1080.02
713.61	1084.14
713.95	1085.73
714.28	1083.41
714.62	1083.22
714.95	1084.14
715.29	1081.80
715.62	1081.19
715.96	1083.18
716.29	1081.05
716.63	1078.68
716.96	1077.82
717.29	1079.10
717.63	1078.36
717.96	1079.88
718.30	1080.23
718.63	1081.12
718.97	1079.48
719.30	1080.37
719.63	1083.57
719.97	1084.65
720.30	1085.24
720.64	1082.85
720.97	1082.17
721.30	1080.04
721.64	1079.15
721.97	1077.33
722.31	1080.86
722.64	1079.83
722.97	1080.34
723.31	1083.88
723.64	1084.81
723.97	1082.45
724.31	1083.90
724.64	1082.08
724.98	1080.93
725.31	1081.66
725.64	1079.01
725.98	1078.03
726.31	1076.67
726.64	1073.72
726.97	1073.21
727.31	1078.10
727.64	1078.31
727.97	1080.53
728.31	1081.16
728.64	1079.85
728.97	1079.99
729.31	1079.31
729.64	1077.00
729.97	1077.93
730.30	1077.30
730.64	1078.24
730.97	1080.34
731.30	1084.09
731.63	1083.06
731.97	1085.17
732.30	1082.17
732.63	1079.74
732.96	1078.07
733.30	1079.43
733.63	1078.47
733.96	1077.30
734.29	1078.10
734.63	1078.66
734.96	1079.78
735.29	1080.56
735.62	1082.57
735.95	1082.92
736.29	1082.31
736.62	1077.79
736.95	1079.29
737.28	1079.55
737.61	1078.61
737.94	1078.24
738.28	1078.00
738.61	1077.23
738.94	1078.50
739.27	1077.58
739.60	1078.57
739.93	1079.38
740.27	1078.10
740.60	1075.85
740.93	1077.44
741.26	1076.27
741.59	1077.25
741.92	1077.86
742.25	1076.39
742.58	1078.80
742.91	1081.58
743.25	1083.86
743.58	1084.39
743.91	1087.04
744.24	1084.67
744.57	1080.91
744.90	1079.34
745.23	1078.78
745.56	1078.17
745.89	1079.43
746.22	1079.17
746.55	1079.41
746.88	1079.95
747.21	1082.29
747.54	1081.61
747.87	1083.18
748.20	1081.73
748.53	1084.28
748.87	1082.50
749.20	1080.88
749.53	1081.54
749.86	1082.78
750.19	1082.05
750.52	1080.48
750.85	1079.34
751.18	1077.51
751.51	1077.68
751.84	1076.46
752.16	1078.03
752.49	1079.95
752.82	1081.33
753.15	1078.17
753.48	1081.87
753.81	1080.06
754.14	1083.76
754.47	1081.14
754.80	1084.16
755.13	1080.27
755.46	1083.08
755.79	1077.40
756.12	1080.09
756.45	1078.31
756.78	1079.46
757.11	1074.45
757.43	1075.64
757.76	1075.99
758.09	1074.17
758.42	1070.40
758.75	1075.27
759.08	1078.10
759.41	1079.99
759.74	1081.77
760.07	1084.00
760.39	1081.37
760.72	1080.63
761.05	1081.07
761.38	1081.23
761.71	1081.66
762.04	1083.46
762.36	1079.99
762.69	1077.54
763.02	1077.51
763.35	1079.95
763.68	1079.83
