SpectraSuite Data File
++++++++++++++++++++++++++++++++++++
Date: Mon Aug 26 10:22:06 PDT 2019
User: corrico
Dark Spectrum Present: No
Reference Spectrum Present: No
Number of Sampled Component Spectra: 1
Spectrometers: USB2+H06089
Integration Time (usec): 2000 (USB2+H06089)
Spectra Averaged: 20 (USB2+H06089)
Boxcar Smoothing: 2 (USB2+H06089)
Correct for Electrical Dark: No (USB2+H06089)
Strobe/Lamp Enabled: No (USB2+H06089)
Correct for Detector Non-linearity: No (USB2+H06089)
Correct for Stray Light: No (USB2+H06089)
Number of Pixels in Processed Spectrum: 2048
>>>>>Begin Processed Spectral Data<<<<<
339.70	1023.28
340.07	1023.28
340.45	990.77
340.82	969.12
341.19	949.34
341.57	924.18
341.94	912.53
342.31	907.54
342.69	902.91
343.06	897.55
343.43	895.68
343.81	894.04
344.18	893.57
344.55	896.35
344.93	902.46
345.30	911.29
345.67	924.44
346.04	935.32
346.42	945.86
346.79	955.41
347.16	962.31
347.54	968.98
347.91	975.54
348.28	985.18
348.65	994.28
349.03	1005.73
349.40	1016.42
349.77	1026.63
350.14	1033.42
350.52	1037.51
350.89	1044.86
351.26	1047.16
351.63	1053.45
352.01	1055.84
352.38	1061.67
352.75	1065.93
353.12	1068.48
353.50	1068.88
353.87	1075.15
354.24	1080.72
354.61	1082.61
354.98	1085.87
355.36	1085.56
355.73	1089.89
356.10	1088.37
356.47	1086.48
356.84	1087.81
357.22	1093.62
357.59	1091.20
357.96	1088.70
358.33	1090.08
358.70	1089.85
359.08	1086.01
359.45	1083.01
359.82	1082.85
360.19	1080.72
360.56	1078.75
360.94	1079.60
361.31	1079.76
361.68	1079.67
362.05	1080.81
362.42	1079.29
362.79	1077.14
363.16	1075.76
363.54	1076.51
363.91	1072.95
364.28	1072.88
364.65	1072.18
365.02	1074.40
365.39	1072.06
365.76	1073.07
366.14	1071.94
366.51	1071.57
366.88	1070.63
367.25	1070.61
367.62	1073.56
367.99	1075.50
368.36	1078.14
368.73	1076.83
369.10	1080.91
369.48	1077.89
369.85	1077.07
370.22	1076.65
370.59	1078.85
370.96	1078.68
371.33	1080.91
371.70	1082.94
372.07	1083.15
372.44	1084.18
372.81	1082.54
373.18	1082.26
373.55	1081.07
373.93	1080.86
374.30	1081.73
374.67	1080.56
375.04	1078.59
375.41	1078.43
375.78	1077.63
376.15	1074.91
376.52	1073.32
376.89	1074.52
377.26	1072.13
377.63	1074.68
378.00	1073.53
378.37	1076.44
378.74	1076.76
379.11	1081.02
379.48	1079.64
379.85	1081.40
380.22	1080.37
380.59	1082.80
380.96	1082.12
381.33	1081.14
381.70	1081.28
382.07	1084.67
382.44	1084.98
382.81	1084.28
383.18	1085.89
383.55	1084.86
383.92	1083.32
384.29	1082.26
384.66	1085.03
385.03	1084.89
385.40	1086.10
385.77	1084.53
386.14	1079.55
386.51	1076.74
386.88	1075.45
387.25	1073.77
387.62	1074.05
387.99	1079.15
388.36	1079.88
388.73	1081.61
389.10	1082.47
389.46	1082.99
389.83	1081.07
390.20	1081.02
390.57	1079.74
390.94	1081.84
391.31	1080.70
391.68	1081.09
392.05	1081.05
392.42	1080.77
392.79	1081.19
393.16	1084.79
393.53	1085.56
393.89	1087.27
394.26	1089.89
394.63	1088.00
395.00	1087.97
395.37	1088.56
395.74	1089.87
396.11	1088.51
396.48	1087.93
396.84	1086.48
397.21	1086.34
397.58	1086.99
397.95	1088.16
398.32	1090.41
398.69	1090.27
399.06	1088.91
399.42	1085.52
399.79	1088.12
400.16	1087.23
400.53	1087.46
400.90	1089.47
401.27	1093.99
401.64	1094.46
402.00	1095.21
402.37	1095.30
402.74	1094.60
403.11	1091.09
403.48	1090.43
403.84	1090.92
404.21	1092.40
404.58	1091.77
404.95	1091.98
405.32	1091.30
405.68	1091.86
406.05	1089.96
406.42	1092.52
406.79	1092.45
407.16	1089.99
407.52	1088.91
407.89	1090.29
408.26	1092.91
408.63	1094.79
408.99	1096.07
409.36	1096.59
409.73	1100.33
410.10	1096.80
410.47	1098.13
410.83	1098.62
411.20	1102.35
411.57	1098.95
411.94	1101.53
412.30	1103.33
412.67	1101.74
413.04	1098.25
413.40	1098.58
413.77	1097.78
414.14	1094.65
414.51	1101.41
414.87	1102.70
415.24	1102.49
415.61	1103.98
415.97	1107.73
416.34	1107.31
416.71	1105.41
417.08	1106.02
417.44	1105.34
417.81	1104.83
418.18	1105.67
418.54	1109.11
418.91	1112.60
419.28	1115.73
419.64	1118.12
420.01	1117.79
420.38	1118.24
420.74	1121.09
421.11	1124.44
421.48	1122.68
421.84	1126.34
422.21	1130.31
422.58	1132.47
422.94	1130.55
423.31	1137.13
423.68	1140.22
424.04	1142.84
424.41	1146.42
424.77	1153.32
425.14	1157.75
425.51	1157.86
425.87	1160.91
426.24	1165.40
426.61	1169.96
426.97	1173.36
427.34	1185.11
427.70	1195.43
428.07	1202.43
428.44	1210.85
428.80	1220.89
429.17	1226.86
429.53	1235.94
429.90	1249.47
430.27	1260.66
430.63	1271.80
431.00	1290.62
431.36	1310.19
431.73	1322.78
432.09	1337.03
432.46	1359.24
432.83	1374.78
433.19	1394.00
433.56	1421.52
433.92	1448.91
434.29	1474.16
434.65	1500.26
435.02	1524.27
435.38	1552.01
435.75	1586.88
436.11	1625.34
436.48	1666.95
436.84	1710.84
437.21	1756.74
437.57	1801.25
437.94	1849.70
438.30	1904.14
438.67	1965.07
439.03	2026.46
439.40	2098.81
439.76	2167.27
440.13	2241.51
440.49	2317.15
440.86	2397.01
441.22	2481.32
441.59	2575.31
441.95	2675.51
442.32	2782.69
442.68	2906.08
443.05	3029.68
443.41	3153.22
443.78	3281.52
444.14	3417.91
444.51	3552.04
444.87	3715.81
445.24	3880.44
445.60	4062.35
445.96	4246.83
446.33	4462.04
446.69	4661.88
447.06	4884.39
447.42	5107.24
447.79	5345.39
448.15	5616.09
448.51	5895.08
448.88	6211.41
449.24	6522.65
449.61	6883.70
449.97	7227.34
450.33	7605.20
450.70	7961.38
451.06	8398.19
451.43	8807.04
451.79	9268.80
452.15	9762.77
452.52	10315.51
452.88	10859.43
453.24	11480.61
453.61	12193.91
453.97	12900.31
454.34	13599.57
454.70	14426.95
455.06	15243.18
455.43	15998.17
455.79	16692.98
456.15	17502.60
456.52	18227.88
456.88	19149.84
457.24	20069.34
457.61	21182.32
457.97	22252.01
458.33	23362.38
458.70	24391.19
459.06	25349.69
459.42	26367.23
459.79	27283.88
460.15	28353.11
460.51	29345.99
460.88	30463.62
461.24	31455.86
461.60	32587.84
461.96	33627.16
462.33	34678.10
462.69	35740.75
463.05	36876.12
463.42	37925.53
463.78	38873.42
464.14	39619.56
464.50	40348.61
464.87	40835.07
465.23	41125.44
465.59	41509.87
465.95	41824.91
466.32	42057.18
466.68	42357.35
467.04	42572.71
467.40	42601.85
467.77	42740.78
468.13	42665.20
468.49	42496.50
468.85	42387.36
469.22	42254.11
469.58	41993.05
469.94	41854.04
470.30	41642.30
470.66	41289.86
471.03	40778.99
471.39	40411.46
471.75	39678.98
472.11	38931.46
472.47	38409.17
472.84	37871.37
473.20	37157.39
473.56	36772.48
473.92	36241.16
474.28	35612.09
474.65	34989.58
475.01	34307.83
475.37	33468.02
475.73	32769.82
476.09	32078.02
476.45	31431.17
476.81	30878.52
477.18	30353.28
477.54	29881.67
477.90	29423.30
478.26	28852.93
478.62	28342.53
478.98	27915.94
479.34	27474.68
479.71	26915.44
480.07	26490.96
480.43	26056.48
480.79	25556.99
481.15	25068.10
481.51	24678.61
481.87	24339.16
482.23	23964.65
482.59	23648.96
482.96	23333.41
483.32	23047.51
483.68	22658.09
484.04	22303.39
484.40	21875.70
484.76	21451.71
485.12	20986.90
485.48	20563.81
485.84	20086.71
486.20	19657.15
486.56	19215.56
486.92	18815.45
487.28	18417.65
487.64	18001.83
488.00	17615.25
488.37	17209.37
488.73	16776.98
489.09	16303.10
489.45	15859.10
489.81	15390.45
490.17	14943.78
490.53	14539.36
490.89	14129.51
491.25	13720.99
491.61	13310.35
491.97	12918.21
492.33	12515.03
492.69	12170.36
493.05	11851.23
493.41	11548.55
493.77	11240.80
494.13	10938.73
494.49	10632.52
494.85	10323.75
495.21	10029.92
495.57	9761.23
495.93	9495.09
496.29	9225.76
496.64	9003.50
497.00	8755.24
497.36	8494.48
497.72	8251.47
498.08	8036.04
498.44	7805.17
498.80	7598.08
499.16	7407.87
499.52	7212.83
499.88	7021.63
500.24	6848.88
500.60	6686.23
500.96	6532.01
501.32	6383.90
501.68	6220.75
502.03	6048.34
502.39	5878.98
502.75	5699.23
503.11	5531.11
503.47	5383.02
503.83	5252.16
504.19	5131.13
504.55	5018.69
504.91	4910.19
505.26	4797.07
505.62	4677.09
505.98	4558.92
506.34	4443.30
506.70	4316.79
507.06	4206.95
507.42	4106.82
507.78	4013.15
508.13	3916.30
508.49	3837.36
508.85	3764.70
509.21	3680.19
509.57	3595.60
509.93	3513.14
510.28	3431.25
510.64	3339.55
511.00	3255.80
511.36	3181.19
511.72	3112.16
512.07	3046.23
512.43	2984.11
512.79	2925.20
513.15	2863.01
513.51	2808.20
513.86	2750.46
514.22	2700.98
514.58	2646.58
514.94	2599.98
515.30	2549.85
515.65	2507.81
516.01	2461.59
516.37	2422.62
516.73	2383.79
517.08	2348.73
517.44	2303.93
517.80	2265.26
518.16	2230.69
518.51	2196.99
518.87	2162.91
519.23	2134.87
519.59	2107.44
519.94	2075.82
520.30	2044.34
520.66	2007.17
521.01	1974.76
521.37	1944.54
521.73	1917.23
522.09	1890.01
522.44	1869.08
522.80	1850.61
523.16	1826.74
523.51	1801.96
523.87	1779.06
524.23	1759.01
524.58	1734.69
524.94	1713.60
525.30	1693.59
525.65	1673.37
526.01	1653.57
526.37	1635.40
526.72	1623.35
527.08	1609.98
527.44	1594.14
527.79	1584.38
528.15	1570.73
528.51	1552.78
528.86	1534.20
529.22	1520.46
529.58	1504.47
529.93	1489.31
530.29	1476.64
530.65	1467.33
531.00	1454.60
531.36	1443.76
531.71	1432.78
532.07	1417.69
532.43	1406.17
532.78	1396.53
533.14	1382.09
533.49	1373.96
533.85	1370.95
534.21	1363.10
534.56	1354.70
534.92	1346.02
535.27	1338.41
535.63	1329.21
535.98	1319.13
536.34	1311.80
536.69	1308.69
537.05	1304.19
537.41	1296.40
537.76	1293.73
538.12	1288.63
538.47	1281.51
538.83	1271.99
539.18	1265.83
539.54	1258.41
539.89	1254.57
540.25	1249.73
540.60	1248.25
540.96	1246.80
541.31	1245.87
541.67	1237.58
542.02	1232.43
542.38	1229.06
542.73	1225.55
543.09	1221.15
543.44	1221.50
543.80	1219.09
544.15	1210.67
544.51	1205.66
544.86	1199.10
545.22	1193.67
545.57	1189.41
545.93	1187.19
546.28	1184.05
546.64	1181.90
546.99	1179.89
547.35	1180.66
547.70	1178.32
548.05	1179.23
548.41	1179.58
548.76	1180.14
549.12	1176.99
549.47	1176.68
549.83	1172.40
550.18	1169.89
550.53	1165.54
550.89	1160.13
551.24	1158.99
551.60	1155.69
551.95	1151.59
552.30	1147.92
552.66	1149.91
553.01	1143.47
553.37	1144.03
553.72	1142.51
554.07	1144.62
554.43	1143.19
554.78	1142.56
555.13	1137.24
555.49	1136.00
555.84	1133.15
556.19	1133.57
556.55	1134.55
556.90	1134.69
557.26	1135.32
557.61	1133.17
557.96	1127.88
558.32	1125.80
558.67	1122.61
559.02	1120.41
559.37	1120.32
559.73	1121.91
560.08	1121.09
560.43	1121.84
560.79	1121.14
561.14	1123.08
561.49	1121.42
561.85	1121.42
562.20	1120.79
562.55	1121.05
562.90	1118.10
563.26	1117.21
563.61	1116.34
563.96	1115.64
564.32	1112.57
564.67	1112.36
565.02	1113.14
565.37	1113.02
565.73	1114.49
566.08	1115.85
566.43	1114.56
566.78	1112.57
567.14	1113.60
567.49	1112.43
567.84	1111.66
568.19	1111.78
568.54	1112.32
568.90	1112.50
569.25	1107.64
569.60	1106.93
569.95	1105.53
570.31	1103.82
570.66	1101.34
571.01	1104.43
571.36	1105.62
571.71	1104.90
572.06	1101.32
572.42	1100.10
572.77	1096.42
573.12	1096.73
573.47	1097.10
573.82	1097.95
574.18	1095.86
574.53	1099.21
574.88	1095.67
575.23	1092.73
575.58	1091.58
575.93	1091.30
576.28	1090.60
576.64	1093.38
576.99	1096.47
577.34	1096.80
577.69	1097.36
578.04	1097.38
578.39	1095.56
578.74	1094.29
579.09	1097.34
579.44	1097.62
579.80	1098.81
580.15	1096.73
580.50	1095.82
580.85	1093.12
581.20	1091.63
581.55	1087.65
581.90	1089.36
582.25	1090.32
582.60	1090.29
582.95	1090.24
583.30	1093.17
583.65	1089.12
584.00	1087.13
584.35	1086.52
584.71	1087.02
585.06	1088.02
585.41	1089.26
585.76	1089.75
586.11	1091.11
586.46	1094.43
586.81	1089.82
587.16	1091.06
587.51	1089.00
587.86	1088.84
588.21	1087.37
588.56	1090.36
588.91	1090.74
589.26	1095.58
589.61	1096.12
589.96	1097.85
590.31	1097.24
590.66	1095.02
591.01	1090.74
591.36	1087.37
591.71	1082.24
592.06	1082.40
592.41	1080.91
592.76	1083.41
593.10	1083.50
593.45	1087.83
593.80	1087.83
594.15	1089.22
594.50	1086.27
594.85	1087.67
595.20	1084.09
595.55	1085.28
595.90	1087.76
596.25	1086.45
596.60	1082.64
596.95	1083.71
597.30	1081.98
597.64	1089.92
597.99	1092.52
598.34	1096.66
598.69	1097.64
599.04	1100.00
599.39	1092.21
599.74	1093.59
600.09	1092.28
600.44	1089.71
600.78	1085.54
601.13	1083.34
601.48	1081.02
601.83	1078.75
602.18	1079.71
602.53	1080.44
602.88	1080.63
603.22	1078.26
603.57	1080.34
603.92	1079.06
604.27	1079.41
604.62	1080.93
604.97	1083.48
605.31	1084.39
605.66	1084.39
606.01	1085.38
606.36	1086.31
606.71	1083.67
607.05	1086.55
607.40	1088.65
607.75	1085.28
608.10	1082.29
608.44	1085.73
608.79	1084.32
609.14	1083.39
609.49	1082.90
609.84	1083.32
610.18	1082.45
610.53	1082.15
610.88	1080.46
611.23	1083.13
611.57	1084.16
611.92	1086.41
612.27	1084.00
612.62	1086.69
612.96	1084.58
613.31	1084.74
613.66	1084.14
614.00	1085.68
614.35	1086.06
614.70	1089.07
615.05	1091.42
615.39	1092.26
615.74	1092.56
616.09	1091.02
616.43	1090.13
616.78	1086.50
617.13	1084.53
617.47	1087.09
617.82	1086.10
618.17	1087.41
618.51	1090.17
618.86	1091.65
619.21	1087.97
619.55	1090.06
619.90	1089.33
620.25	1087.20
620.59	1085.28
620.94	1088.00
621.29	1087.51
621.63	1086.27
621.98	1084.93
622.32	1085.19
622.67	1085.07
623.02	1084.60
623.36	1087.55
623.71	1090.22
624.05	1090.17
624.40	1089.73
624.75	1090.15
625.09	1087.86
625.44	1086.73
625.78	1085.94
626.13	1085.05
626.48	1085.21
626.82	1086.97
627.17	1085.66
627.51	1086.31
627.86	1086.62
628.20	1085.10
628.55	1082.64
628.89	1081.68
629.24	1082.22
629.58	1075.90
629.93	1075.17
630.28	1076.93
630.62	1080.09
630.97	1079.57
631.31	1085.05
631.66	1085.99
632.00	1083.29
632.35	1081.42
632.69	1083.79
633.04	1084.16
633.38	1083.41
633.73	1084.53
634.07	1086.71
634.42	1087.11
634.76	1088.42
635.11	1088.40
635.45	1089.40
635.79	1088.19
636.14	1083.67
636.48	1080.04
636.83	1082.85
637.17	1083.15
637.52	1084.67
637.86	1086.38
638.21	1086.69
638.55	1085.80
638.89	1083.55
639.24	1081.02
639.58	1082.85
639.93	1081.94
640.27	1082.99
640.61	1083.08
640.96	1085.00
641.30	1080.60
641.65	1081.73
641.99	1077.18
642.33	1077.54
642.68	1075.48
643.02	1079.92
643.37	1082.40
643.71	1084.00
644.05	1085.42
644.40	1086.52
644.74	1084.96
645.08	1080.95
645.43	1081.63
645.77	1082.85
646.11	1082.94
646.46	1081.02
646.80	1081.37
647.14	1078.38
647.49	1078.03
647.83	1076.46
648.17	1079.13
648.52	1082.17
648.86	1084.07
649.20	1084.18
649.55	1086.06
649.89	1085.84
650.23	1082.33
650.57	1085.03
650.92	1083.67
651.26	1083.83
651.60	1084.21
651.95	1085.89
652.29	1086.13
652.63	1083.39
652.97	1078.33
653.32	1078.14
653.66	1079.57
654.00	1078.64
654.34	1082.10
654.69	1087.83
655.03	1088.07
655.37	1089.12
655.71	1091.34
656.05	1090.53
656.40	1086.36
656.74	1086.36
657.08	1082.22
657.42	1081.07
657.76	1082.47
658.11	1081.14
658.45	1078.68
658.79	1080.84
659.13	1077.54
659.47	1076.55
659.82	1083.08
660.16	1084.25
660.50	1083.32
660.84	1085.49
661.18	1085.99
661.52	1083.39
661.87	1082.71
662.21	1083.57
662.55	1082.90
662.89	1081.07
663.23	1079.78
663.57	1079.53
663.91	1080.63
664.25	1079.81
664.60	1083.18
664.94	1085.33
665.28	1083.01
665.62	1082.26
665.96	1084.25
666.30	1080.11
666.64	1078.80
666.98	1085.05
667.32	1084.72
667.66	1083.67
668.01	1088.00
668.35	1089.14
668.69	1085.87
669.03	1087.02
669.37	1087.93
669.71	1085.77
670.05	1083.67
670.39	1083.90
670.73	1082.40
671.07	1081.23
671.41	1081.66
671.75	1082.26
672.09	1081.75
672.43	1082.15
672.77	1082.15
673.11	1084.02
673.45	1082.15
673.79	1078.94
674.13	1078.99
674.47	1078.96
674.81	1076.01
675.15	1081.33
675.49	1086.20
675.83	1086.59
676.17	1087.13
676.51	1087.86
676.85	1087.20
677.19	1085.35
677.53	1086.62
677.87	1086.48
678.21	1084.39
678.55	1079.81
678.89	1080.98
679.23	1078.96
679.57	1079.90
679.90	1081.49
680.24	1086.31
680.58	1085.59
680.92	1084.39
681.26	1084.28
681.60	1085.82
681.94	1080.32
682.28	1080.25
682.62	1081.68
682.96	1082.59
683.29	1079.46
683.63	1082.36
683.97	1081.58
684.31	1079.48
684.65	1073.79
684.99	1077.35
685.33	1076.41
685.67	1079.90
686.00	1080.81
686.34	1084.35
686.68	1084.39
687.02	1086.50
687.36	1082.57
687.70	1084.67
688.03	1084.42
688.37	1082.45
688.71	1080.48
689.05	1081.91
689.39	1080.74
689.72	1082.43
690.06	1080.79
690.40	1079.27
690.74	1077.77
691.08	1076.83
691.41	1075.87
691.75	1077.68
692.09	1083.69
692.43	1086.78
692.76	1088.02
693.10	1089.31
693.44	1090.17
693.78	1085.63
694.11	1085.80
694.45	1086.92
694.79	1087.27
695.13	1088.23
695.46	1088.77
695.80	1088.63
696.14	1087.97
696.48	1086.50
696.81	1085.31
697.15	1084.56
697.49	1081.70
697.82	1081.49
698.16	1078.92
698.50	1077.44
698.83	1076.88
699.17	1080.11
699.51	1077.40
699.84	1078.64
700.18	1078.61
700.52	1080.63
700.85	1077.79
701.19	1081.54
701.53	1083.36
701.86	1084.60
702.20	1087.04
702.54	1090.41
702.87	1089.17
703.21	1085.96
703.55	1082.22
703.88	1076.48
704.22	1071.85
704.55	1076.93
704.89	1080.70
705.23	1081.94
705.56	1084.00
705.90	1084.49
706.23	1079.64
706.57	1077.56
706.91	1079.48
707.24	1076.72
707.58	1079.38
707.91	1076.81
708.25	1077.70
708.58	1078.19
708.92	1082.92
709.26	1080.27
709.59	1081.30
709.93	1081.63
710.26	1080.56
710.60	1080.32
710.93	1080.30
711.27	1080.56
711.60	1077.70
711.94	1079.27
712.27	1078.38
712.61	1079.67
712.94	1078.54
713.28	1080.25
713.61	1080.67
713.95	1081.75
714.28	1079.20
714.62	1082.94
714.95	1085.33
715.29	1086.10
715.62	1083.04
715.96	1084.42
716.29	1084.04
716.63	1082.19
716.96	1082.05
717.29	1083.88
717.63	1081.70
717.96	1077.58
718.30	1075.62
718.63	1073.11
718.97	1072.60
719.30	1077.49
719.63	1081.56
719.97	1080.98
720.30	1081.09
720.64	1080.93
720.97	1079.24
721.30	1077.86
721.64	1080.60
721.97	1078.71
722.31	1078.89
722.64	1081.00
722.97	1081.23
723.31	1082.01
723.64	1084.96
723.97	1085.73
724.31	1084.53
724.64	1084.42
724.98	1084.58
725.31	1081.87
725.64	1083.20
725.98	1080.72
726.31	1083.53
726.64	1084.91
726.97	1085.91
727.31	1083.86
727.64	1086.71
727.97	1083.50
728.31	1083.57
728.64	1086.34
728.97	1088.63
729.31	1086.45
729.64	1085.52
729.97	1085.68
730.30	1081.21
730.64	1079.95
730.97	1081.05
731.30	1083.60
731.63	1079.27
731.97	1081.37
732.30	1080.88
732.63	1082.01
732.96	1079.08
733.30	1081.30
733.63	1083.18
733.96	1082.78
734.29	1079.20
734.63	1079.55
734.96	1079.17
735.29	1075.97
735.62	1076.27
735.95	1078.45
736.29	1080.09
736.62	1079.08
736.95	1082.10
737.28	1082.08
737.61	1084.58
737.94	1083.76
738.28	1085.26
738.61	1079.71
738.94	1078.47
739.27	1077.98
739.60	1080.81
739.93	1080.27
740.27	1083.62
740.60	1082.57
740.93	1077.93
741.26	1076.97
741.59	1075.15
741.92	1074.59
742.25	1077.28
742.58	1081.35
742.91	1079.41
743.25	1079.81
743.58	1083.53
743.91	1082.19
744.24	1081.40
744.57	1080.46
744.90	1082.17
745.23	1078.82
745.56	1076.67
745.89	1076.74
746.22	1076.81
746.55	1074.96
746.88	1076.88
747.21	1079.88
747.54	1078.21
747.87	1077.72
748.20	1079.43
748.53	1078.07
748.87	1076.97
749.20	1077.07
749.53	1077.07
749.86	1073.53
750.19	1073.60
750.52	1074.28
750.85	1071.33
751.18	1075.99
751.51	1079.71
751.84	1079.27
752.16	1079.43
752.49	1085.07
752.82	1084.72
753.15	1085.52
753.48	1085.99
753.81	1086.08
754.14	1082.92
754.47	1078.31
754.80	1078.38
755.13	1078.50
755.46	1078.68
755.79	1083.48
756.12	1085.47
756.45	1085.26
756.78	1085.49
757.11	1085.89
757.43	1081.70
757.76	1081.89
758.09	1079.48
758.42	1080.27
758.75	1077.18
759.08	1076.34
759.41	1075.62
759.74	1076.01
760.07	1072.67
760.39	1073.84
760.72	1075.27
761.05	1074.66
761.38	1076.04
761.71	1076.62
762.04	1079.71
762.36	1079.27
762.69	1082.31
763.02	1080.70
763.35	1081.66
763.68	1078.82
