SpectraSuite Data File
++++++++++++++++++++++++++++++++++++
Date: Mon Aug 26 10:22:03 PDT 2019
User: corrico
Dark Spectrum Present: No
Reference Spectrum Present: No
Number of Sampled Component Spectra: 1
Spectrometers: USB2+H06089
Integration Time (usec): 2000 (USB2+H06089)
Spectra Averaged: 20 (USB2+H06089)
Boxcar Smoothing: 2 (USB2+H06089)
Correct for Electrical Dark: No (USB2+H06089)
Strobe/Lamp Enabled: No (USB2+H06089)
Correct for Detector Non-linearity: No (USB2+H06089)
Correct for Stray Light: No (USB2+H06089)
Number of Pixels in Processed Spectrum: 2048
>>>>>Begin Processed Spectral Data<<<<<
339.70	1025.74
340.07	1025.74
340.45	992.48
340.82	970.57
341.19	950.16
341.57	924.35
341.94	914.31
342.31	907.80
342.69	906.37
343.06	900.50
343.43	899.98
343.81	897.83
344.18	897.99
344.55	899.14
344.93	903.52
345.30	909.60
345.67	919.01
346.04	928.02
346.42	936.33
346.79	947.54
347.16	954.96
347.54	960.49
347.91	970.55
348.28	979.12
348.65	985.37
349.03	997.98
349.40	1007.83
349.77	1016.61
350.14	1026.70
350.52	1036.79
350.89	1041.75
351.26	1049.54
351.63	1054.29
352.01	1057.36
352.38	1058.16
352.75	1062.95
353.12	1066.86
353.50	1071.38
353.87	1074.26
354.24	1076.95
354.61	1078.96
354.98	1081.47
355.36	1081.37
355.73	1083.93
356.10	1088.72
356.47	1089.61
356.84	1090.36
357.22	1092.52
357.59	1091.60
357.96	1092.63
358.33	1090.74
358.70	1090.03
359.08	1090.03
359.45	1088.70
359.82	1084.25
360.19	1086.99
360.56	1086.29
360.94	1083.97
361.31	1085.31
361.68	1086.34
362.05	1088.77
362.42	1085.80
362.79	1085.99
363.16	1082.66
363.54	1081.73
363.91	1077.68
364.28	1081.40
364.65	1075.17
365.02	1075.99
365.39	1074.89
365.76	1073.37
366.14	1069.13
366.51	1072.50
366.88	1072.04
367.25	1073.21
367.62	1072.48
367.99	1071.87
368.36	1070.09
368.73	1070.44
369.10	1070.40
369.48	1069.48
369.85	1070.12
370.22	1073.95
370.59	1074.40
370.96	1075.94
371.33	1077.21
371.70	1081.35
372.07	1081.63
372.44	1080.63
372.81	1077.23
373.18	1078.45
373.55	1077.25
373.93	1076.51
374.30	1076.15
374.67	1079.85
375.04	1078.47
375.41	1076.95
375.78	1075.55
376.15	1075.92
376.52	1075.36
376.89	1077.16
377.26	1076.51
377.63	1078.14
378.00	1078.38
378.37	1081.07
378.74	1084.51
379.11	1086.59
379.48	1087.48
379.85	1087.11
380.22	1084.32
380.59	1079.99
380.96	1081.16
381.33	1081.58
381.70	1084.28
382.07	1084.42
382.44	1086.20
382.81	1085.94
383.18	1085.63
383.55	1084.56
383.92	1085.28
384.29	1085.56
384.66	1086.92
385.03	1088.98
385.40	1087.90
385.77	1086.01
386.14	1086.50
386.51	1084.11
386.88	1081.84
387.25	1083.95
387.62	1084.89
387.99	1084.16
388.36	1085.03
388.73	1084.91
389.10	1085.82
389.46	1086.45
389.83	1087.34
390.20	1087.04
390.57	1086.38
390.94	1086.01
391.31	1086.06
391.68	1087.23
392.05	1088.00
392.42	1090.08
392.79	1090.08
393.16	1091.67
393.53	1088.82
393.89	1087.44
394.26	1093.19
394.63	1091.95
395.00	1090.41
395.37	1091.88
395.74	1093.94
396.11	1088.40
396.48	1093.83
396.84	1097.20
397.21	1098.20
397.58	1096.75
397.95	1097.13
398.32	1094.76
398.69	1091.91
399.06	1092.54
399.42	1095.23
399.79	1096.78
400.16	1098.60
400.53	1097.57
400.90	1095.25
401.27	1095.84
401.64	1096.12
402.00	1093.55
402.37	1094.86
402.74	1094.20
403.11	1091.67
403.48	1091.37
403.84	1095.07
404.21	1094.13
404.58	1096.85
404.95	1097.08
405.32	1096.96
405.68	1093.80
406.05	1093.10
406.42	1092.82
406.79	1092.19
407.16	1088.35
407.52	1088.91
407.89	1092.49
408.26	1094.04
408.63	1095.72
408.99	1097.95
409.36	1098.18
409.73	1097.99
410.10	1099.49
410.47	1102.67
410.83	1106.07
411.20	1107.89
411.57	1104.12
411.94	1103.56
412.30	1101.95
412.67	1096.61
413.04	1094.46
413.40	1100.45
413.77	1098.48
414.14	1097.85
414.51	1101.48
414.87	1102.60
415.24	1101.18
415.61	1103.26
415.97	1104.73
416.34	1107.10
416.71	1107.26
417.08	1107.26
417.44	1107.21
417.81	1106.54
418.18	1106.63
418.54	1114.21
418.91	1114.17
419.28	1117.18
419.64	1123.78
420.01	1125.33
420.38	1122.90
420.74	1125.49
421.11	1126.38
421.48	1126.38
421.84	1128.33
422.21	1126.55
422.58	1129.54
422.94	1131.72
423.31	1134.67
423.68	1137.41
424.04	1144.10
424.41	1147.99
424.77	1151.75
425.14	1155.59
425.51	1160.77
425.87	1163.90
426.24	1167.60
426.61	1175.11
426.97	1181.41
427.34	1189.09
427.70	1197.51
428.07	1207.58
428.44	1213.64
428.80	1221.48
429.17	1227.82
429.53	1234.75
429.90	1246.15
430.27	1261.81
430.63	1275.10
431.00	1290.27
431.36	1311.94
431.73	1325.73
432.09	1340.82
432.46	1359.48
432.83	1379.46
433.19	1394.21
433.56	1420.78
433.92	1443.97
434.29	1468.34
434.65	1498.04
435.02	1534.29
435.38	1566.85
435.75	1598.14
436.11	1638.80
436.48	1678.66
436.84	1715.94
437.21	1761.77
437.57	1812.46
437.94	1860.23
438.30	1913.48
438.67	1973.21
439.03	2034.96
439.40	2102.85
439.76	2176.58
440.13	2251.88
440.49	2333.07
440.86	2413.89
441.22	2508.42
441.59	2601.90
441.95	2708.05
442.32	2811.47
442.68	2930.51
443.05	3046.56
443.41	3173.58
443.78	3299.36
444.14	3442.79
444.51	3581.42
444.87	3754.27
445.24	3920.37
445.60	4106.80
445.96	4286.15
446.33	4503.75
446.69	4698.51
447.06	4918.80
447.42	5144.01
447.79	5395.61
448.15	5671.31
448.51	5957.15
448.88	6289.70
449.24	6608.64
449.61	6963.70
449.97	7323.00
450.33	7719.60
450.70	8085.22
451.06	8533.17
451.43	8947.77
451.79	9406.33
452.15	9888.74
452.52	10417.98
452.88	10955.28
453.24	11586.19
453.61	12297.88
453.97	13005.23
454.34	13712.73
454.70	14542.33
455.06	15351.62
455.43	16111.59
455.79	16827.96
456.15	17679.66
456.52	18459.64
456.88	19413.15
457.24	20347.19
457.61	21458.78
457.97	22498.38
458.33	23568.98
458.70	24599.17
459.06	25589.64
459.42	26633.10
459.79	27587.71
460.15	28680.95
460.51	29701.26
460.88	30809.48
461.24	31789.55
461.60	32958.14
461.96	34038.46
462.33	35091.09
462.69	36166.22
463.05	37314.69
463.42	38318.55
463.78	39195.36
464.14	39947.89
464.50	40663.48
464.87	41163.35
465.23	41523.44
465.59	41954.99
465.95	42294.81
466.32	42599.13
466.68	42944.45
467.04	43147.73
467.40	43215.32
467.77	43348.34
468.13	43264.92
468.49	43039.57
468.85	42910.54
469.22	42771.32
469.58	42468.58
469.94	42286.15
470.30	42091.35
470.66	41741.25
471.03	41200.17
471.39	40808.06
471.75	40026.32
472.11	39212.52
472.47	38606.41
472.84	38012.24
473.20	37280.57
473.56	36905.75
473.92	36400.69
474.28	35827.12
474.65	35241.19
475.01	34597.03
475.37	33780.41
475.73	33081.39
476.09	32355.59
476.45	31695.93
476.81	31131.49
477.18	30558.32
477.54	30079.32
477.90	29648.22
478.26	29046.77
478.62	28521.53
478.98	28094.64
479.34	27651.23
479.71	27081.71
480.07	26685.78
480.43	26245.36
480.79	25758.46
481.15	25268.40
481.51	24856.84
481.87	24472.57
482.23	24091.32
482.59	23740.76
482.96	23394.82
483.32	23074.90
483.68	22680.61
484.04	22307.01
484.40	21891.03
484.76	21484.41
485.12	21042.33
485.48	20631.05
485.84	20148.69
486.20	19722.52
486.56	19274.48
486.92	18876.30
487.28	18451.45
487.64	18030.20
488.00	17627.14
488.37	17197.04
488.73	16717.72
489.09	16218.04
489.45	15772.61
489.81	15311.50
490.17	14893.16
490.53	14539.50
490.89	14175.27
491.25	13801.79
491.61	13413.54
491.97	13024.15
492.33	12614.25
492.69	12261.39
493.05	11921.05
493.41	11588.18
493.77	11255.92
494.13	10934.19
494.49	10618.14
494.85	10311.56
495.21	10028.54
495.57	9761.72
495.93	9486.10
496.29	9230.89
496.64	8995.08
497.00	8737.15
497.36	8471.73
497.72	8238.15
498.08	8017.79
498.44	7784.08
498.80	7577.67
499.16	7386.82
499.52	7187.06
499.88	7007.45
500.24	6850.72
500.60	6698.43
500.96	6553.69
501.32	6409.04
501.68	6243.24
502.03	6073.97
502.39	5910.70
502.75	5732.44
503.11	5577.03
503.47	5440.27
503.83	5301.17
504.19	5168.02
504.55	5055.77
504.91	4936.38
505.26	4813.76
505.62	4696.28
505.98	4580.62
506.34	4463.45
506.70	4347.78
507.06	4234.10
507.42	4126.67
507.78	4031.08
508.13	3937.74
508.49	3851.47
508.85	3769.85
509.21	3689.88
509.57	3601.52
509.93	3520.38
510.28	3435.49
510.64	3355.13
511.00	3275.11
511.36	3206.89
511.72	3137.04
512.07	3073.43
512.43	3010.33
512.79	2952.59
513.15	2884.24
513.51	2816.95
513.86	2760.10
514.22	2705.75
514.58	2651.99
514.94	2603.89
515.30	2559.91
515.65	2509.55
516.01	2471.51
516.37	2426.50
516.73	2388.84
517.08	2349.73
517.44	2314.70
517.80	2270.27
518.16	2230.95
518.51	2196.38
518.87	2163.40
519.23	2129.30
519.59	2097.54
519.94	2067.23
520.30	2030.56
520.66	2003.99
521.01	1978.62
521.37	1952.50
521.73	1924.74
522.09	1901.24
522.44	1872.99
522.80	1844.86
523.16	1823.16
523.51	1803.36
523.87	1784.99
524.23	1766.73
524.58	1748.85
524.94	1730.45
525.30	1712.43
525.65	1690.22
526.01	1668.90
526.37	1647.34
526.72	1629.64
527.08	1612.44
527.44	1596.08
527.79	1579.21
528.15	1566.73
528.51	1549.06
528.86	1535.18
529.22	1524.27
529.58	1511.78
529.93	1501.38
530.29	1488.32
530.65	1469.81
531.00	1458.11
531.36	1446.43
531.71	1429.86
532.07	1416.26
532.43	1412.00
532.78	1397.58
533.14	1383.28
533.49	1373.64
533.85	1369.10
534.21	1361.56
534.56	1354.94
534.92	1350.33
535.27	1342.18
535.63	1336.82
535.98	1328.37
536.34	1321.42
536.69	1314.98
537.05	1312.81
537.41	1304.43
537.76	1298.25
538.12	1288.70
538.47	1283.18
538.83	1277.70
539.18	1270.12
539.54	1264.80
539.89	1260.31
540.25	1256.66
540.60	1250.85
540.96	1246.87
541.31	1244.93
541.67	1245.19
542.02	1239.48
542.38	1237.49
542.73	1233.39
543.09	1227.80
543.44	1222.67
543.80	1219.79
544.15	1215.09
544.51	1210.13
544.86	1206.15
545.22	1202.12
545.57	1199.43
545.93	1195.03
546.28	1194.35
546.64	1192.11
546.99	1188.59
547.35	1185.01
547.70	1180.17
548.05	1177.90
548.41	1174.43
548.76	1174.97
549.12	1172.40
549.47	1171.98
549.83	1171.53
550.18	1167.79
550.53	1165.33
550.89	1161.23
551.24	1159.60
551.60	1154.26
551.95	1154.54
552.30	1154.12
552.66	1155.85
553.01	1153.39
553.37	1152.13
553.72	1148.64
554.07	1147.59
554.43	1146.18
554.78	1149.23
555.13	1149.27
555.49	1150.56
555.84	1148.10
556.19	1144.52
556.55	1138.81
556.90	1134.76
557.26	1131.20
557.61	1128.51
557.96	1128.86
558.32	1129.43
558.67	1128.09
559.02	1130.08
559.37	1128.79
559.73	1125.68
560.08	1124.18
560.43	1125.05
560.79	1120.11
561.14	1120.27
561.49	1119.95
561.85	1122.85
562.20	1125.42
562.55	1124.56
562.90	1122.22
563.26	1122.05
563.61	1115.87
563.96	1114.89
564.32	1113.60
564.67	1113.65
565.02	1115.50
565.37	1115.15
565.73	1111.22
566.08	1115.15
566.43	1112.48
566.78	1108.43
567.14	1109.65
567.49	1110.49
567.84	1108.03
568.19	1109.62
568.54	1110.75
568.90	1108.71
569.25	1107.59
569.60	1109.48
569.95	1108.81
570.31	1108.71
570.66	1106.61
571.01	1103.84
571.36	1101.74
571.71	1099.37
572.06	1095.91
572.42	1094.90
572.77	1096.59
573.12	1097.38
573.47	1099.33
573.82	1100.38
574.18	1101.29
574.53	1099.37
574.88	1094.81
575.23	1094.25
575.58	1096.63
575.93	1098.46
576.28	1098.04
576.64	1094.76
576.99	1093.90
577.34	1092.87
577.69	1089.14
578.04	1086.17
578.39	1092.45
578.74	1097.08
579.09	1096.94
579.44	1098.25
579.80	1099.93
580.15	1098.41
580.50	1095.16
580.85	1094.69
581.20	1095.82
581.55	1097.41
581.90	1100.87
582.25	1099.12
582.60	1097.66
582.95	1097.57
583.30	1095.42
583.65	1090.85
584.00	1090.06
584.35	1090.74
584.71	1091.27
585.06	1093.71
585.41	1092.66
585.76	1094.67
586.11	1096.96
586.46	1098.37
586.81	1099.37
587.16	1097.55
587.51	1093.83
587.86	1090.13
588.21	1088.04
588.56	1085.17
588.91	1084.04
589.26	1086.80
589.61	1086.94
589.96	1088.04
590.31	1088.09
590.66	1090.32
591.01	1088.54
591.36	1088.75
591.71	1089.75
592.06	1092.68
592.41	1093.38
592.76	1093.90
593.10	1092.45
593.45	1086.34
593.80	1086.06
594.15	1089.03
594.50	1087.11
594.85	1088.26
595.20	1093.76
595.55	1094.86
595.90	1089.24
596.25	1093.50
596.60	1092.47
596.95	1088.35
597.30	1087.58
597.64	1102.51
597.99	1102.95
598.34	1100.75
598.69	1103.96
599.04	1100.85
599.39	1089.80
599.74	1088.70
600.09	1093.99
600.44	1094.04
600.78	1093.71
601.13	1091.49
601.48	1091.30
601.83	1088.47
602.18	1086.15
602.53	1086.83
602.88	1088.00
603.22	1085.82
603.57	1084.67
603.92	1087.25
604.27	1089.87
604.62	1089.33
604.97	1090.48
605.31	1091.86
605.66	1091.04
606.01	1085.54
606.36	1086.62
606.71	1086.78
607.05	1086.24
607.40	1083.53
607.75	1084.11
608.10	1084.00
608.44	1083.86
608.79	1084.70
609.14	1087.81
609.49	1091.63
609.84	1090.69
610.18	1089.94
610.53	1090.13
610.88	1088.58
611.23	1086.15
611.57	1086.97
611.92	1085.59
612.27	1086.20
612.62	1085.66
612.96	1087.95
613.31	1086.57
613.66	1088.96
614.00	1089.26
614.35	1088.70
614.70	1086.55
615.05	1085.87
615.39	1086.01
615.74	1084.77
616.09	1083.34
616.43	1083.53
616.78	1085.80
617.13	1087.34
617.47	1087.11
617.82	1089.10
618.17	1088.26
618.51	1086.48
618.86	1082.47
619.21	1081.84
619.55	1082.69
619.90	1085.73
620.25	1086.48
620.59	1088.19
620.94	1087.79
621.29	1084.09
621.63	1080.65
621.98	1078.54
622.32	1075.36
622.67	1075.31
623.02	1078.64
623.36	1079.90
623.71	1082.59
624.05	1087.11
624.40	1090.64
624.75	1091.09
625.09	1088.68
625.44	1085.89
625.78	1083.27
626.13	1081.63
626.48	1080.27
626.82	1082.54
627.17	1083.93
627.51	1083.81
627.86	1082.97
628.20	1082.52
628.55	1081.84
628.89	1081.73
629.24	1083.20
629.58	1084.58
629.93	1085.17
630.28	1086.10
630.62	1088.51
630.97	1087.48
631.31	1086.29
631.66	1086.78
632.00	1088.35
632.35	1086.15
632.69	1087.97
633.04	1090.03
633.38	1092.52
633.73	1089.96
634.07	1091.39
634.42	1090.88
634.76	1088.49
635.11	1086.78
635.45	1086.55
635.79	1084.93
636.14	1083.86
636.48	1087.95
636.83	1085.42
637.17	1085.42
637.52	1084.91
637.86	1084.74
638.21	1079.20
638.55	1080.37
638.89	1081.91
639.24	1082.85
639.58	1084.84
639.93	1085.40
640.27	1085.00
640.61	1085.59
640.96	1084.70
641.30	1083.95
641.65	1083.69
641.99	1087.46
642.33	1087.11
642.68	1087.48
643.02	1086.62
643.37	1089.17
643.71	1084.79
644.05	1082.92
644.40	1083.88
644.74	1083.22
645.08	1082.22
645.43	1081.42
645.77	1079.95
646.11	1082.99
646.46	1082.80
646.80	1081.70
647.14	1080.16
647.49	1082.24
647.83	1079.92
648.17	1080.16
648.52	1082.43
648.86	1085.33
649.20	1085.54
649.55	1087.53
649.89	1087.25
650.23	1084.49
650.57	1082.87
650.92	1084.81
651.26	1079.43
651.60	1079.88
651.95	1083.57
652.29	1083.67
652.63	1082.87
652.97	1084.81
653.32	1083.41
653.66	1080.88
654.00	1080.65
654.34	1079.13
654.69	1076.95
655.03	1082.33
655.37	1085.42
655.71	1088.37
656.05	1088.40
656.40	1091.46
656.74	1087.74
657.08	1085.21
657.42	1085.52
657.76	1087.32
658.11	1088.89
658.45	1088.51
658.79	1087.97
659.13	1087.16
659.47	1085.33
659.82	1084.42
660.16	1084.23
660.50	1086.80
660.84	1083.01
661.18	1084.49
661.52	1085.49
661.87	1083.93
662.21	1079.50
662.55	1081.37
662.89	1078.94
663.23	1074.14
663.57	1074.10
663.91	1077.82
664.25	1081.21
664.60	1082.85
664.94	1091.20
665.28	1094.60
665.62	1093.22
665.96	1088.14
666.30	1086.48
666.64	1079.34
666.98	1078.54
667.32	1077.21
667.66	1079.22
668.01	1082.12
668.35	1084.58
668.69	1084.51
669.03	1088.93
669.37	1090.90
669.71	1089.89
670.05	1090.13
670.39	1088.40
670.73	1084.96
671.07	1085.68
671.41	1085.59
671.75	1086.59
672.09	1088.44
672.43	1087.79
672.77	1082.43
673.11	1081.33
673.45	1080.27
673.79	1080.34
674.13	1080.06
674.47	1083.11
674.81	1082.85
675.15	1082.26
675.49	1080.58
675.83	1080.95
676.17	1082.50
676.51	1081.96
676.85	1080.84
677.19	1083.60
677.53	1086.50
677.87	1085.80
678.21	1089.57
678.55	1090.90
678.89	1090.81
679.23	1089.05
679.57	1088.84
679.90	1087.90
680.24	1088.86
680.58	1088.84
680.92	1090.43
681.26	1089.59
681.60	1086.62
681.94	1084.32
682.28	1085.31
682.62	1084.84
682.96	1082.45
683.29	1083.74
683.63	1084.07
683.97	1080.81
684.31	1077.89
684.65	1081.77
684.99	1080.16
685.33	1081.30
685.67	1080.65
686.00	1082.59
686.34	1085.89
686.68	1087.48
687.02	1085.07
687.36	1086.08
687.70	1084.25
688.03	1081.70
688.37	1082.47
688.71	1081.87
689.05	1084.56
689.39	1086.20
689.72	1085.21
690.06	1086.01
690.40	1089.22
690.74	1084.18
691.08	1083.83
691.41	1081.49
691.75	1080.37
692.09	1079.55
692.43	1080.77
692.76	1078.00
693.10	1080.41
693.44	1083.11
693.78	1082.15
694.11	1082.78
694.45	1083.18
694.79	1080.67
695.13	1079.55
695.46	1080.60
695.80	1082.47
696.14	1083.18
696.48	1084.79
696.81	1081.96
697.15	1079.99
697.49	1080.51
697.82	1079.78
698.16	1079.60
698.50	1080.30
698.83	1081.14
699.17	1076.46
699.51	1076.51
699.84	1077.63
700.18	1079.41
700.52	1081.42
700.85	1085.80
701.19	1087.76
701.53	1084.46
701.86	1084.32
702.20	1081.58
702.54	1077.91
702.87	1080.27
703.21	1085.21
703.55	1082.36
703.88	1083.64
704.22	1084.60
704.55	1083.39
704.89	1080.11
705.23	1079.48
705.56	1079.90
705.90	1080.93
706.23	1078.31
706.57	1080.79
706.91	1082.47
707.24	1083.29
707.58	1083.53
707.91	1085.87
708.25	1081.28
708.58	1081.28
708.92	1078.19
709.26	1077.23
709.59	1075.59
709.93	1077.54
710.26	1078.40
710.60	1078.57
710.93	1077.37
711.27	1079.60
711.60	1079.88
711.94	1080.04
712.27	1077.70
712.61	1080.44
712.94	1080.58
713.28	1079.48
713.61	1080.04
713.95	1082.24
714.28	1082.66
714.62	1080.84
714.95	1082.17
715.29	1080.06
715.62	1082.33
715.96	1080.67
716.29	1083.39
716.63	1082.87
716.96	1082.43
717.29	1078.99
717.63	1078.94
717.96	1074.07
718.30	1069.53
718.63	1069.60
718.97	1072.20
719.30	1073.30
719.63	1074.66
719.97	1081.47
720.30	1080.86
720.64	1081.51
720.97	1081.21
721.30	1082.01
721.64	1085.19
721.97	1090.50
722.31	1091.25
722.64	1089.33
722.97	1089.47
723.31	1082.94
723.64	1078.94
723.97	1077.96
724.31	1076.55
724.64	1074.98
724.98	1078.07
725.31	1078.12
725.64	1078.96
725.98	1083.22
726.31	1086.20
726.64	1089.52
726.97	1085.70
727.31	1083.29
727.64	1081.70
727.97	1082.12
728.31	1077.16
728.64	1083.46
728.97	1085.75
729.31	1087.18
729.64	1088.12
729.97	1085.96
730.30	1085.49
730.64	1088.00
730.97	1087.90
731.30	1084.14
731.63	1084.96
731.97	1080.86
732.30	1076.04
732.63	1074.59
732.96	1074.98
733.30	1075.87
733.63	1078.52
733.96	1079.50
734.29	1080.16
734.63	1081.89
734.96	1079.62
735.29	1080.02
735.62	1080.81
735.95	1078.92
736.29	1078.05
736.62	1080.53
736.95	1081.12
737.28	1080.18
737.61	1079.03
737.94	1077.18
738.28	1076.65
738.61	1074.05
738.94	1075.48
739.27	1079.13
739.60	1080.95
739.93	1081.07
740.27	1080.79
740.60	1078.19
740.93	1078.07
741.26	1077.33
741.59	1078.89
741.92	1081.68
742.25	1083.95
742.58	1083.13
742.91	1081.73
743.25	1080.02
743.58	1078.73
743.91	1077.23
744.24	1077.89
744.57	1077.63
744.90	1079.20
745.23	1080.98
745.56	1082.45
745.89	1084.00
746.22	1088.54
746.55	1084.51
746.88	1081.63
747.21	1080.56
747.54	1079.13
747.87	1075.31
748.20	1082.80
748.53	1085.24
748.87	1084.77
749.20	1085.28
749.53	1085.14
749.86	1081.58
750.19	1082.97
750.52	1081.98
750.85	1076.79
751.18	1078.43
751.51	1075.17
751.84	1072.71
752.16	1072.53
752.49	1079.48
752.82	1077.96
753.15	1081.54
753.48	1082.17
753.81	1082.10
754.14	1080.27
754.47	1083.22
754.80	1082.85
755.13	1083.67
755.46	1088.79
755.79	1083.79
756.12	1084.77
756.45	1083.71
756.78	1084.60
757.11	1080.32
757.43	1083.29
757.76	1079.88
758.09	1080.60
758.42	1078.10
758.75	1079.62
759.08	1082.17
759.41	1080.32
759.74	1081.09
760.07	1080.84
760.39	1079.99
760.72	1080.56
761.05	1081.30
761.38	1079.10
761.71	1078.75
762.04	1079.83
762.36	1076.27
762.69	1079.20
763.02	1079.50
763.35	1081.84
763.68	1079.62
