SpectraSuite Data File
++++++++++++++++++++++++++++++++++++
Date: Mon Aug 26 10:22:04 PDT 2019
User: corrico
Dark Spectrum Present: No
Reference Spectrum Present: No
Number of Sampled Component Spectra: 1
Spectrometers: USB2+H06089
Integration Time (usec): 2000 (USB2+H06089)
Spectra Averaged: 20 (USB2+H06089)
Boxcar Smoothing: 2 (USB2+H06089)
Correct for Electrical Dark: No (USB2+H06089)
Strobe/Lamp Enabled: No (USB2+H06089)
Correct for Detector Non-linearity: No (USB2+H06089)
Correct for Stray Light: No (USB2+H06089)
Number of Pixels in Processed Spectrum: 2048
>>>>>Begin Processed Spectral Data<<<<<
339.70	1035.69
340.07	1035.69
340.45	997.19
340.82	974.44
341.19	951.47
341.57	924.37
341.94	912.86
342.31	905.72
342.69	901.83
343.06	898.74
343.43	897.53
343.81	900.33
344.18	905.67
344.55	910.52
344.93	912.43
345.30	918.85
345.67	923.36
346.04	927.88
346.42	934.20
346.79	942.84
347.16	951.19
347.54	958.45
347.91	971.65
348.28	979.54
348.65	993.53
349.03	1002.33
349.40	1013.62
349.77	1020.31
350.14	1029.13
350.52	1034.75
350.89	1042.03
351.26	1047.76
351.63	1052.59
352.01	1057.59
352.38	1060.08
352.75	1066.89
353.12	1071.59
353.50	1074.73
353.87	1076.48
354.24	1076.86
354.61	1075.78
354.98	1076.48
355.36	1075.90
355.73	1075.24
356.10	1077.86
356.47	1076.97
356.84	1078.05
357.22	1081.73
357.59	1084.32
357.96	1086.57
358.33	1089.45
358.70	1087.13
359.08	1083.95
359.45	1083.69
359.82	1081.00
360.19	1078.21
360.56	1079.64
360.94	1080.70
361.31	1079.64
361.68	1080.37
362.05	1082.64
362.42	1082.57
362.79	1085.35
363.16	1086.31
363.54	1082.94
363.91	1082.31
364.28	1081.89
364.65	1080.46
365.02	1079.31
365.39	1082.99
365.76	1079.71
366.14	1077.09
366.51	1074.84
366.88	1073.30
367.25	1072.22
367.62	1073.16
367.99	1074.56
368.36	1073.30
368.73	1072.04
369.10	1069.65
369.48	1070.72
369.85	1070.87
370.22	1072.06
370.59	1074.61
370.96	1077.86
371.33	1076.18
371.70	1076.18
372.07	1074.28
372.44	1073.81
372.81	1073.70
373.18	1073.77
373.55	1074.33
373.93	1075.80
374.30	1075.10
374.67	1072.08
375.04	1074.87
375.41	1074.19
375.78	1077.09
376.15	1077.44
376.52	1077.18
376.89	1077.91
377.26	1077.98
377.63	1073.37
378.00	1074.42
378.37	1077.18
378.74	1076.15
379.11	1079.29
379.48	1079.90
379.85	1081.96
380.22	1082.66
380.59	1084.39
380.96	1084.84
381.33	1087.18
381.70	1083.62
382.07	1081.42
382.44	1083.22
382.81	1082.54
383.18	1081.87
383.55	1085.31
383.92	1086.85
384.29	1084.18
384.66	1083.71
385.03	1080.91
385.40	1079.97
385.77	1079.92
386.14	1081.42
386.51	1080.44
386.88	1083.39
387.25	1083.57
387.62	1084.96
387.99	1083.32
388.36	1080.81
388.73	1082.22
389.10	1083.11
389.46	1084.70
389.83	1086.59
390.20	1090.17
390.57	1089.45
390.94	1087.48
391.31	1084.11
391.68	1083.60
392.05	1081.87
392.42	1082.85
392.79	1084.04
393.16	1086.29
393.53	1087.65
393.89	1090.36
394.26	1091.81
394.63	1092.77
395.00	1090.74
395.37	1092.00
395.74	1089.64
396.11	1086.90
396.48	1085.80
396.84	1088.37
397.21	1087.95
397.58	1091.37
397.95	1094.60
398.32	1095.00
398.69	1092.73
399.06	1092.77
399.42	1092.14
399.79	1092.98
400.16	1093.62
400.53	1096.89
400.90	1096.05
401.27	1099.96
401.64	1097.71
402.00	1097.20
402.37	1096.26
402.74	1093.26
403.11	1087.88
403.48	1086.71
403.84	1086.59
404.21	1087.13
404.58	1090.85
404.95	1090.24
405.32	1092.35
405.68	1093.19
406.05	1092.35
406.42	1090.53
406.79	1093.76
407.16	1092.23
407.52	1093.99
407.89	1094.65
408.26	1097.24
408.63	1098.23
408.99	1100.33
409.36	1099.98
409.73	1098.83
410.10	1094.83
410.47	1091.27
410.83	1092.05
411.20	1091.93
411.57	1095.44
411.94	1098.60
412.30	1101.85
412.67	1099.77
413.04	1096.47
413.40	1095.53
413.77	1097.99
414.14	1098.79
414.51	1104.69
414.87	1108.97
415.24	1109.72
415.61	1106.72
415.97	1107.47
416.34	1105.60
416.71	1106.16
417.08	1106.98
417.44	1110.82
417.81	1113.51
418.18	1114.89
418.54	1120.20
418.91	1122.12
419.28	1121.65
419.64	1121.07
420.01	1123.67
420.38	1125.40
420.74	1125.45
421.11	1129.26
421.48	1128.58
421.84	1128.37
422.21	1127.25
422.58	1130.31
422.94	1130.64
423.31	1135.11
423.68	1137.90
424.04	1142.93
424.41	1145.90
424.77	1150.58
425.14	1154.75
425.51	1159.17
425.87	1162.33
426.24	1170.31
426.61	1174.62
426.97	1181.74
427.34	1188.69
427.70	1199.29
428.07	1206.01
428.44	1214.20
428.80	1223.02
429.17	1233.46
429.53	1241.35
429.90	1252.96
430.27	1265.01
430.63	1278.73
431.00	1288.86
431.36	1301.74
431.73	1316.76
432.09	1337.92
432.46	1355.94
432.83	1379.32
433.19	1402.21
433.56	1425.78
433.92	1449.61
434.29	1474.75
434.65	1502.34
435.02	1530.13
435.38	1558.12
435.75	1589.55
436.11	1629.69
436.48	1672.10
436.84	1716.55
437.21	1764.97
437.57	1812.58
437.94	1861.97
438.30	1914.39
438.67	1970.29
439.03	2032.99
439.40	2102.62
439.76	2170.66
440.13	2242.68
440.49	2327.73
440.86	2409.56
441.22	2495.83
441.59	2591.46
441.95	2695.43
442.32	2796.68
442.68	2914.83
443.05	3039.51
443.41	3161.90
443.78	3293.27
444.14	3436.75
444.51	3573.83
444.87	3738.12
445.24	3903.55
445.60	4083.58
445.96	4264.97
446.33	4478.80
446.69	4676.39
447.06	4898.11
447.42	5124.77
447.79	5368.44
448.15	5637.98
448.51	5926.33
448.88	6254.94
449.24	6561.25
449.61	6916.17
449.97	7280.84
450.33	7664.13
450.70	8030.89
451.06	8473.32
451.43	8894.13
451.79	9347.40
452.15	9834.74
452.52	10364.43
452.88	10907.34
453.24	11531.30
453.61	12224.36
453.97	12924.11
454.34	13626.06
454.70	14451.33
455.06	15244.87
455.43	16020.97
455.79	16724.37
456.15	17554.60
456.52	18302.69
456.88	19234.64
457.24	20141.85
457.61	21251.48
457.97	22305.87
458.33	23384.88
458.70	24408.82
459.06	25399.19
459.42	26423.48
459.79	27365.92
460.15	28447.08
460.51	29472.49
460.88	30569.85
461.24	31558.78
461.60	32695.11
461.96	33760.19
462.33	34817.51
462.69	35902.81
463.05	37071.25
463.42	38120.07
463.78	39065.41
464.14	39837.25
464.50	40553.41
464.87	41029.03
465.23	41343.55
465.59	41721.59
465.95	42022.89
466.32	42298.96
466.68	42622.54
467.04	42855.70
467.40	42927.98
467.77	43063.91
468.13	42974.25
468.49	42786.96
468.85	42626.56
469.22	42502.86
469.58	42235.15
469.94	42109.72
470.30	41906.43
470.66	41570.02
471.03	41042.49
471.39	40666.15
471.75	39888.18
472.11	39121.56
472.47	38559.27
472.84	37993.80
473.20	37261.09
473.56	36890.80
473.92	36356.97
474.28	35791.05
474.65	35167.32
475.01	34507.59
475.37	33680.36
475.73	32987.65
476.09	32252.04
476.45	31595.55
476.81	31043.48
477.18	30489.71
477.54	30026.29
477.90	29564.92
478.26	28991.42
478.62	28462.93
478.98	28015.28
479.34	27554.92
479.71	27010.53
480.07	26571.54
480.43	26141.30
480.79	25660.58
481.15	25173.89
481.51	24771.90
481.87	24421.38
482.23	24019.70
482.59	23684.30
482.96	23346.66
483.32	23032.74
483.68	22660.83
484.04	22324.64
484.40	21919.44
484.76	21516.26
485.12	21078.61
485.48	20656.26
485.84	20161.84
486.20	19723.44
486.56	19265.44
486.92	18856.17
487.28	18437.76
487.64	18010.16
488.00	17610.89
488.37	17190.65
488.73	16734.64
489.09	16249.19
489.45	15814.56
489.81	15353.54
490.17	14934.44
490.53	14558.02
490.89	14162.30
491.25	13771.83
491.61	13373.98
491.97	12972.28
492.33	12564.16
492.69	12226.68
493.05	11907.92
493.41	11597.94
493.77	11277.64
494.13	10973.91
494.49	10660.77
494.85	10350.53
495.21	10063.23
495.57	9810.00
495.93	9533.21
496.29	9281.35
496.64	9056.16
497.00	8801.00
497.36	8525.99
497.72	8285.05
498.08	8062.56
498.44	7821.34
498.80	7605.69
499.16	7420.72
499.52	7225.30
499.88	7037.66
500.24	6864.44
500.60	6714.44
500.96	6565.11
501.32	6419.86
501.68	6253.96
502.03	6085.18
502.39	5918.42
502.75	5742.41
503.11	5577.50
503.47	5435.59
503.83	5305.55
504.19	5171.51
504.55	5051.18
504.91	4938.58
505.26	4822.77
505.62	4698.65
505.98	4583.89
506.34	4464.08
506.70	4338.49
507.06	4220.81
507.42	4123.60
507.78	4030.17
508.13	3945.39
508.49	3871.92
508.85	3800.05
509.21	3714.10
509.57	3624.60
509.93	3531.35
510.28	3440.84
510.64	3349.73
511.00	3268.07
511.36	3193.45
511.72	3128.78
512.07	3062.61
512.43	3002.39
512.79	2946.15
513.15	2886.37
513.51	2827.84
513.86	2771.45
514.22	2717.69
514.58	2659.71
514.94	2610.02
515.30	2561.32
515.65	2514.98
516.01	2470.20
516.37	2431.07
516.73	2388.96
517.08	2353.48
517.44	2311.68
517.80	2276.76
518.16	2244.15
518.51	2209.44
518.87	2175.79
519.23	2145.26
519.59	2112.90
519.94	2080.46
520.30	2053.98
520.66	2022.76
521.01	1995.96
521.37	1970.36
521.73	1943.18
522.09	1914.56
522.44	1891.64
522.80	1866.46
523.16	1845.02
523.51	1821.78
523.87	1801.60
524.23	1777.61
524.58	1758.61
524.94	1731.04
525.30	1709.15
525.65	1687.95
526.01	1674.11
526.37	1652.51
526.72	1639.29
527.08	1623.18
527.44	1609.38
527.79	1591.03
528.15	1579.53
528.51	1561.02
528.86	1545.57
529.22	1529.03
529.58	1513.51
529.93	1496.35
530.29	1482.94
530.65	1468.31
531.00	1455.95
531.36	1442.45
531.71	1430.72
532.07	1422.76
532.43	1414.18
532.78	1402.12
533.14	1392.60
533.49	1383.72
533.85	1372.82
534.21	1364.74
534.56	1358.52
534.92	1352.06
535.27	1346.95
535.63	1341.29
535.98	1333.99
536.34	1324.30
536.69	1319.57
537.05	1310.02
537.41	1300.73
537.76	1295.37
538.12	1289.89
538.47	1281.05
538.83	1277.00
539.18	1273.60
539.54	1265.46
539.89	1262.70
540.25	1258.20
540.60	1253.82
540.96	1252.14
541.31	1250.45
541.67	1245.38
542.02	1242.33
542.38	1237.00
542.73	1230.82
543.09	1225.06
543.44	1223.26
543.80	1219.68
544.15	1216.17
544.51	1213.17
544.86	1210.74
545.22	1203.78
545.57	1198.92
545.93	1194.05
546.28	1191.80
546.64	1187.70
546.99	1190.12
547.35	1186.00
547.70	1185.11
548.05	1179.47
548.41	1178.11
548.76	1172.40
549.12	1173.33
549.47	1171.91
549.83	1173.29
550.18	1170.74
550.53	1168.54
550.89	1166.31
551.24	1165.82
551.60	1159.20
551.95	1159.13
552.30	1157.35
552.66	1152.27
553.01	1147.94
553.37	1147.96
553.72	1144.97
554.07	1146.23
554.43	1147.17
554.78	1146.77
555.13	1147.56
555.49	1145.79
555.84	1141.67
556.19	1141.08
556.55	1139.28
556.90	1134.93
557.26	1135.58
557.61	1132.40
557.96	1130.15
558.32	1130.57
558.67	1128.84
559.02	1125.98
559.37	1130.01
559.73	1126.03
560.08	1125.91
560.43	1127.55
560.79	1126.48
561.14	1121.58
561.49	1121.51
561.85	1118.71
562.20	1117.82
562.55	1119.22
562.90	1119.41
563.26	1118.47
563.61	1116.13
563.96	1115.36
564.32	1110.63
564.67	1110.12
565.02	1114.98
565.37	1116.74
565.73	1113.30
566.08	1115.20
566.43	1112.57
566.78	1108.22
567.14	1106.18
567.49	1108.22
567.84	1108.08
568.19	1110.42
568.54	1111.12
568.90	1110.40
569.25	1109.06
569.60	1111.57
569.95	1111.40
570.31	1111.36
570.66	1111.97
571.01	1113.32
571.36	1110.47
571.71	1109.77
572.06	1109.09
572.42	1106.63
572.77	1104.19
573.12	1099.51
573.47	1096.38
573.82	1094.15
574.18	1093.83
574.53	1095.89
574.88	1096.78
575.23	1096.14
575.58	1096.99
575.93	1097.97
576.28	1097.99
576.64	1101.22
576.99	1101.97
577.34	1101.92
577.69	1103.68
578.04	1102.65
578.39	1100.54
578.74	1097.90
579.09	1098.62
579.44	1097.59
579.80	1096.75
580.15	1098.13
580.50	1101.97
580.85	1101.99
581.20	1102.72
581.55	1100.47
581.90	1098.25
582.25	1097.45
582.60	1093.85
582.95	1094.29
583.30	1092.47
583.65	1094.74
584.00	1095.60
584.35	1097.01
584.71	1092.61
585.06	1095.51
585.41	1093.08
585.76	1091.49
586.11	1091.20
586.46	1094.65
586.81	1093.50
587.16	1095.65
587.51	1095.56
587.86	1098.27
588.21	1097.38
588.56	1096.19
588.91	1092.75
589.26	1093.76
589.61	1090.71
589.96	1088.89
590.31	1090.78
590.66	1089.80
591.01	1087.53
591.36	1086.27
591.71	1086.43
592.06	1086.64
592.41	1090.99
592.76	1091.91
593.10	1092.68
593.45	1088.26
593.80	1085.70
594.15	1082.43
594.50	1083.06
594.85	1084.35
595.20	1086.69
595.55	1087.88
595.90	1086.41
596.25	1085.70
596.60	1085.96
596.95	1088.70
597.30	1092.40
597.64	1106.98
597.99	1105.18
598.34	1103.16
598.69	1103.47
599.04	1100.00
599.39	1088.61
599.74	1088.54
600.09	1088.93
600.44	1089.12
600.78	1089.36
601.13	1089.96
601.48	1089.94
601.83	1090.95
602.18	1091.18
602.53	1090.85
602.88	1089.78
603.22	1093.99
603.57	1094.25
603.92	1090.20
604.27	1089.66
604.62	1087.93
604.97	1082.85
605.31	1079.67
605.66	1081.35
606.01	1082.08
606.36	1083.79
606.71	1086.55
607.05	1089.40
607.40	1087.60
607.75	1089.24
608.10	1088.33
608.44	1089.78
608.79	1089.64
609.14	1092.77
609.49	1087.27
609.84	1088.28
610.18	1085.35
610.53	1085.17
610.88	1084.53
611.23	1087.79
611.57	1088.33
611.92	1087.93
612.27	1084.25
612.62	1085.21
612.96	1086.34
613.31	1083.25
613.66	1080.09
614.00	1081.47
614.35	1077.75
614.70	1077.89
615.05	1078.80
615.39	1080.95
615.74	1084.77
616.09	1087.60
616.43	1085.28
616.78	1084.81
617.13	1086.48
617.47	1085.68
617.82	1082.66
618.17	1081.66
618.51	1086.92
618.86	1088.63
619.21	1084.72
619.55	1083.50
619.90	1086.69
620.25	1081.44
620.59	1080.41
620.94	1084.44
621.29	1088.70
621.63	1089.26
621.98	1089.89
622.32	1090.95
622.67	1090.97
623.02	1090.64
623.36	1090.17
623.71	1088.96
624.05	1087.93
624.40	1087.72
624.75	1085.77
625.09	1086.57
625.44	1087.04
625.78	1087.30
626.13	1087.11
626.48	1088.89
626.82	1085.87
627.17	1087.27
627.51	1082.61
627.86	1081.28
628.20	1082.40
628.55	1081.00
628.89	1081.23
629.24	1087.51
629.58	1088.30
629.93	1090.27
630.28	1092.96
630.62	1090.57
630.97	1087.20
631.31	1084.25
631.66	1083.60
632.00	1081.02
632.35	1081.37
632.69	1079.97
633.04	1083.36
633.38	1081.61
633.73	1084.86
634.07	1083.81
634.42	1086.24
634.76	1083.22
635.11	1081.05
635.45	1079.08
635.79	1081.44
636.14	1080.32
636.48	1080.02
636.83	1079.85
637.17	1079.85
637.52	1080.51
637.86	1081.80
638.21	1082.69
638.55	1084.53
638.89	1090.36
639.24	1093.10
639.58	1090.48
639.93	1089.61
640.27	1088.65
640.61	1084.25
640.96	1079.29
641.30	1080.60
641.65	1081.07
641.99	1080.25
642.33	1080.18
642.68	1080.79
643.02	1081.89
643.37	1083.29
643.71	1082.94
644.05	1082.19
644.40	1085.45
644.74	1085.63
645.08	1083.36
645.43	1087.06
645.77	1087.11
646.11	1084.23
646.46	1083.88
646.80	1086.29
647.14	1084.77
647.49	1084.00
647.83	1085.10
648.17	1085.35
648.52	1083.50
648.86	1084.89
649.20	1085.12
649.55	1083.60
649.89	1084.79
650.23	1086.31
650.57	1083.79
650.92	1084.09
651.26	1085.61
651.60	1084.67
651.95	1086.20
652.29	1086.55
652.63	1085.33
652.97	1082.87
653.32	1081.73
653.66	1078.68
654.00	1079.15
654.34	1081.05
654.69	1085.24
655.03	1085.10
655.37	1089.00
655.71	1085.66
656.05	1085.56
656.40	1083.69
656.74	1083.04
657.08	1081.84
657.42	1086.41
657.76	1085.00
658.11	1083.41
658.45	1084.56
658.79	1083.39
659.13	1080.63
659.47	1081.80
659.82	1083.97
660.16	1080.70
660.50	1080.77
660.84	1082.92
661.18	1083.06
661.52	1082.15
661.87	1087.34
662.21	1086.43
662.55	1085.07
662.89	1085.14
663.23	1085.91
663.57	1080.32
663.91	1078.96
664.25	1077.44
664.60	1077.72
664.94	1076.18
665.28	1077.68
665.62	1078.33
665.96	1080.18
666.30	1078.61
666.64	1077.68
666.98	1079.27
667.32	1082.76
667.66	1082.59
668.01	1083.64
668.35	1085.84
668.69	1085.75
669.03	1082.73
669.37	1083.18
669.71	1086.64
670.05	1084.00
670.39	1083.27
670.73	1084.98
671.07	1083.97
671.41	1079.78
671.75	1081.40
672.09	1082.38
672.43	1079.06
672.77	1080.16
673.11	1082.33
673.45	1082.59
673.79	1085.17
674.13	1086.71
674.47	1087.04
674.81	1086.69
675.15	1084.39
675.49	1082.61
675.83	1082.99
676.17	1082.38
676.51	1076.27
676.85	1078.07
677.19	1078.40
677.53	1076.95
677.87	1080.06
678.21	1083.46
678.55	1085.68
678.89	1083.62
679.23	1085.77
679.57	1081.54
679.90	1080.56
680.24	1078.94
680.58	1081.42
680.92	1080.11
681.26	1083.13
681.60	1084.49
681.94	1084.91
682.28	1086.08
682.62	1085.40
682.96	1083.50
683.29	1084.04
683.63	1081.87
683.97	1078.92
684.31	1081.07
684.65	1080.60
684.99	1079.99
685.33	1080.48
685.67	1080.04
686.00	1081.26
686.34	1083.11
686.68	1084.18
687.02	1084.37
687.36	1085.66
687.70	1083.01
688.03	1082.05
688.37	1081.44
688.71	1081.02
689.05	1079.67
689.39	1081.49
689.72	1081.40
690.06	1082.61
690.40	1082.12
690.74	1083.97
691.08	1083.81
691.41	1082.36
691.75	1082.61
692.09	1083.13
692.43	1082.43
692.76	1080.48
693.10	1081.84
693.44	1080.95
693.78	1082.22
694.11	1081.94
694.45	1085.45
694.79	1085.47
695.13	1087.46
695.46	1086.66
695.80	1089.54
696.14	1089.71
696.48	1090.60
696.81	1090.03
697.15	1092.70
697.49	1090.20
697.82	1087.97
698.16	1083.86
698.50	1082.01
698.83	1082.17
699.17	1084.86
699.51	1087.37
699.84	1090.69
700.18	1089.64
700.52	1088.07
700.85	1084.79
701.19	1082.24
701.53	1081.66
701.86	1084.65
702.20	1081.30
702.54	1083.13
702.87	1082.52
703.21	1083.97
703.55	1080.74
703.88	1081.40
704.22	1079.01
704.55	1078.19
704.89	1077.63
705.23	1077.70
705.56	1079.83
705.90	1079.55
706.23	1081.28
706.57	1080.58
706.91	1083.55
707.24	1080.56
707.58	1081.00
707.91	1083.41
708.25	1080.72
708.58	1077.61
708.92	1081.51
709.26	1082.05
709.59	1078.28
709.93	1083.13
710.26	1085.80
710.60	1083.46
710.93	1082.36
711.27	1082.47
711.60	1079.27
711.94	1080.27
712.27	1081.87
712.61	1081.96
712.94	1084.14
713.28	1085.00
713.61	1079.53
713.95	1075.90
714.28	1075.80
714.62	1074.66
714.95	1075.73
715.29	1079.10
715.62	1081.87
715.96	1084.28
716.29	1083.79
716.63	1082.52
716.96	1081.77
717.29	1082.90
717.63	1082.17
717.96	1080.16
718.30	1079.97
718.63	1080.77
718.97	1079.74
719.30	1079.27
719.63	1080.13
719.97	1080.32
720.30	1080.06
720.64	1078.14
720.97	1076.67
721.30	1081.51
721.64	1080.34
721.97	1080.11
722.31	1082.92
722.64	1086.20
722.97	1083.50
723.31	1083.93
723.64	1085.14
723.97	1084.23
724.31	1082.59
724.64	1080.56
724.98	1083.22
725.31	1082.17
725.64	1082.99
725.98	1084.14
726.31	1088.86
726.64	1085.14
726.97	1083.06
727.31	1084.00
727.64	1084.72
727.97	1083.18
728.31	1084.98
728.64	1086.73
728.97	1086.06
729.31	1083.39
729.64	1081.33
729.97	1082.94
730.30	1083.79
730.64	1079.06
730.97	1078.07
731.30	1076.46
731.63	1074.56
731.97	1072.43
732.30	1078.87
732.63	1079.74
732.96	1078.59
733.30	1078.57
733.63	1080.79
733.96	1080.04
734.29	1080.39
734.63	1080.95
734.96	1082.33
735.29	1080.95
735.62	1078.19
735.95	1078.31
736.29	1082.85
736.62	1081.14
736.95	1081.94
737.28	1084.14
737.61	1081.91
737.94	1079.88
738.28	1081.98
738.61	1081.09
738.94	1080.18
739.27	1081.98
739.60	1082.85
739.93	1078.28
740.27	1079.71
740.60	1079.10
740.93	1079.17
741.26	1082.01
741.59	1084.72
741.92	1086.45
742.25	1086.50
742.58	1087.55
742.91	1085.94
743.25	1090.29
743.58	1088.86
743.91	1089.19
744.24	1088.79
744.57	1087.06
744.90	1082.97
745.23	1085.56
745.56	1084.28
745.89	1083.06
746.22	1081.94
746.55	1082.47
746.88	1079.64
747.21	1079.76
747.54	1079.76
747.87	1081.21
748.20	1082.03
748.53	1079.43
748.87	1081.75
749.20	1083.15
749.53	1083.67
749.86	1081.91
750.19	1082.78
750.52	1079.10
750.85	1078.64
751.18	1077.72
751.51	1077.61
751.84	1076.13
752.16	1080.95
752.49	1082.33
752.82	1081.33
753.15	1082.71
753.48	1089.57
753.81	1086.76
754.14	1083.81
754.47	1084.23
754.80	1083.79
755.13	1081.09
755.46	1079.31
755.79	1082.64
756.12	1083.97
756.45	1084.30
756.78	1081.84
757.11	1085.75
757.43	1085.49
757.76	1083.76
758.09	1083.60
758.42	1082.08
758.75	1078.96
759.08	1079.46
759.41	1079.46
759.74	1081.16
760.07	1084.77
760.39	1085.19
760.72	1080.70
761.05	1083.18
761.38	1079.34
761.71	1078.75
762.04	1077.70
762.36	1078.28
762.69	1079.13
763.02	1078.92
763.35	1075.38
763.68	1075.71
