SpectraSuite Data File
++++++++++++++++++++++++++++++++++++
Date: Mon Aug 26 10:21:48 PDT 2019
User: corrico
Dark Spectrum Present: No
Reference Spectrum Present: No
Number of Sampled Component Spectra: 1
Spectrometers: USB2+H06089
Integration Time (usec): 2000 (USB2+H06089)
Spectra Averaged: 20 (USB2+H06089)
Boxcar Smoothing: 2 (USB2+H06089)
Correct for Electrical Dark: No (USB2+H06089)
Strobe/Lamp Enabled: No (USB2+H06089)
Correct for Detector Non-linearity: No (USB2+H06089)
Correct for Stray Light: No (USB2+H06089)
Number of Pixels in Processed Spectrum: 2048
>>>>>Begin Processed Spectral Data<<<<<
339.70	1026.32
340.07	1026.32
340.45	992.81
340.82	971.42
341.19	947.54
341.57	921.05
341.94	908.76
342.31	901.39
342.69	897.69
343.06	894.79
343.43	895.28
343.81	894.51
344.18	898.98
344.55	899.58
344.93	903.38
345.30	909.20
345.67	918.45
346.04	925.49
346.42	934.22
346.79	944.29
347.16	954.45
347.54	961.54
347.91	969.03
348.28	979.14
348.65	988.92
349.03	997.49
349.40	1008.42
349.77	1020.15
350.14	1028.55
350.52	1033.63
350.89	1039.48
351.26	1043.62
351.63	1042.71
352.01	1048.54
352.38	1054.20
352.75	1056.07
353.12	1059.96
353.50	1064.64
353.87	1064.66
354.24	1068.15
354.61	1072.69
354.98	1072.71
355.36	1077.44
355.73	1076.55
356.10	1075.62
356.47	1074.87
356.84	1075.15
357.22	1074.91
357.59	1076.74
357.96	1076.97
358.33	1075.80
358.70	1076.08
359.08	1071.15
359.45	1072.76
359.82	1072.04
360.19	1072.83
360.56	1072.11
360.94	1072.50
361.31	1070.16
361.68	1071.01
362.05	1067.35
362.42	1066.91
362.79	1068.13
363.16	1067.54
363.54	1066.75
363.91	1066.00
364.28	1066.51
364.65	1066.49
365.02	1067.47
365.39	1067.24
365.76	1067.64
366.14	1067.59
366.51	1066.25
366.88	1067.12
367.25	1062.81
367.62	1064.03
367.99	1064.99
368.36	1066.75
368.73	1066.35
369.10	1067.87
369.48	1068.99
369.85	1068.92
370.22	1071.24
370.59	1067.78
370.96	1068.01
371.33	1068.43
371.70	1064.92
372.07	1058.83
372.44	1060.73
372.81	1061.11
373.18	1059.42
373.55	1061.99
373.93	1066.37
374.30	1067.35
374.67	1071.59
375.04	1072.50
375.41	1072.76
375.78	1070.58
376.15	1068.17
376.52	1065.48
376.89	1065.37
377.26	1065.29
377.63	1063.91
378.00	1066.42
378.37	1066.96
378.74	1069.11
379.11	1067.14
379.48	1071.47
379.85	1070.70
380.22	1068.74
380.59	1067.75
380.96	1070.91
381.33	1072.18
381.70	1073.53
382.07	1075.94
382.44	1076.58
382.81	1075.69
383.18	1072.39
383.55	1068.81
383.92	1068.45
384.29	1068.38
384.66	1068.22
385.03	1066.89
385.40	1068.43
385.77	1068.13
386.14	1066.23
386.51	1067.61
386.88	1070.94
387.25	1072.15
387.62	1071.03
387.99	1072.13
388.36	1074.56
388.73	1073.44
389.10	1071.75
389.46	1073.37
389.83	1074.40
390.20	1073.56
390.57	1075.13
390.94	1076.81
391.31	1074.94
391.68	1072.67
392.05	1072.32
392.42	1069.84
392.79	1070.47
393.16	1074.73
393.53	1075.29
393.89	1076.08
394.26	1076.88
394.63	1076.08
395.00	1074.31
395.37	1075.45
395.74	1071.19
396.11	1071.36
396.48	1072.29
396.84	1068.99
397.21	1068.36
397.58	1070.33
397.95	1068.92
398.32	1067.38
398.69	1069.04
399.06	1072.04
399.42	1073.46
399.79	1077.35
400.16	1075.36
400.53	1076.23
400.90	1072.95
401.27	1072.36
401.64	1069.48
402.00	1074.42
402.37	1072.92
402.74	1074.47
403.11	1075.92
403.48	1076.18
403.84	1076.90
404.21	1075.78
404.58	1076.95
404.95	1074.82
405.32	1074.96
405.68	1073.37
406.05	1073.74
406.42	1074.38
406.79	1073.63
407.16	1075.71
407.52	1077.30
407.89	1077.89
408.26	1073.98
408.63	1076.15
408.99	1070.47
409.36	1066.86
409.73	1069.13
410.10	1072.01
410.47	1073.53
410.83	1078.19
411.20	1078.73
411.57	1081.96
411.94	1082.33
412.30	1082.15
412.67	1082.40
413.04	1082.10
413.40	1077.07
413.77	1075.92
414.14	1072.78
414.51	1070.77
414.87	1073.21
415.24	1072.62
415.61	1072.41
415.97	1071.19
416.34	1074.42
416.71	1071.26
417.08	1073.58
417.44	1073.32
417.81	1075.76
418.18	1073.86
418.54	1073.91
418.91	1073.14
419.28	1074.75
419.64	1075.71
420.01	1074.35
420.38	1077.79
420.74	1081.61
421.11	1082.15
421.48	1080.06
421.84	1080.81
422.21	1082.19
422.58	1080.81
422.94	1080.09
423.31	1083.81
423.68	1089.40
424.04	1089.80
424.41	1089.89
424.77	1092.30
425.14	1091.06
425.51	1089.33
425.87	1091.04
426.24	1091.86
426.61	1092.07
426.97	1094.69
427.34	1096.00
427.70	1095.60
428.07	1097.69
428.44	1100.43
428.80	1104.29
429.17	1104.97
429.53	1108.15
429.90	1111.97
430.27	1110.56
430.63	1105.08
431.00	1104.38
431.36	1105.22
431.73	1104.29
432.09	1107.52
432.46	1112.53
432.83	1118.42
433.19	1120.81
433.56	1122.50
433.92	1124.28
434.29	1127.90
434.65	1131.18
435.02	1132.33
435.38	1138.02
435.75	1142.63
436.11	1148.57
436.48	1155.12
436.84	1163.04
437.21	1168.84
437.57	1175.18
437.94	1181.88
438.30	1189.37
438.67	1195.38
439.03	1206.52
439.40	1216.45
439.76	1224.90
440.13	1234.30
440.49	1249.59
440.86	1258.86
441.22	1269.11
441.59	1282.52
441.95	1294.15
442.32	1303.44
442.68	1316.97
443.05	1332.30
443.41	1348.03
443.78	1364.98
444.14	1382.16
444.51	1400.62
444.87	1425.08
445.24	1444.81
445.60	1466.25
445.96	1487.74
446.33	1513.39
446.69	1534.81
447.06	1565.84
447.42	1596.08
447.79	1625.69
448.15	1661.73
448.51	1696.33
448.88	1731.53
449.24	1764.48
449.61	1809.84
449.97	1851.36
450.33	1899.84
450.70	1946.37
451.06	2001.60
451.43	2052.74
451.79	2104.45
452.15	2166.75
452.52	2226.79
452.88	2292.72
453.24	2362.33
453.61	2441.83
453.97	2514.74
454.34	2591.96
454.70	2676.45
455.06	2770.23
455.43	2861.16
455.79	2947.37
456.15	3046.16
456.52	3141.86
456.88	3250.07
457.24	3351.04
457.61	3474.53
457.97	3589.38
458.33	3715.46
458.70	3838.53
459.06	3959.06
459.42	4095.68
459.79	4222.63
460.15	4356.13
460.51	4468.29
460.88	4599.50
461.24	4714.28
461.60	4850.90
461.96	4982.44
462.33	5113.23
462.69	5230.96
463.05	5340.73
463.42	5452.89
463.78	5549.64
464.14	5651.95
464.50	5769.37
464.87	5872.57
465.23	5937.49
465.59	6013.56
465.95	6076.08
466.32	6120.73
466.68	6156.29
467.04	6186.27
467.40	6187.53
467.77	6189.71
468.13	6174.24
468.49	6159.17
468.85	6161.02
469.22	6149.92
469.58	6120.20
469.94	6099.67
470.30	6064.07
470.66	6015.60
471.03	5951.98
471.39	5898.45
471.75	5808.04
472.11	5719.03
472.47	5642.70
472.84	5575.72
473.20	5494.15
473.56	5437.16
473.92	5363.60
474.28	5286.59
474.65	5214.34
475.01	5151.36
475.37	5075.43
475.73	5009.73
476.09	4935.14
476.45	4871.83
476.81	4802.55
477.18	4738.88
477.54	4685.92
477.90	4633.98
478.26	4563.37
478.62	4502.70
478.98	4460.01
479.34	4423.33
479.71	4376.57
480.07	4332.28
480.43	4300.08
480.79	4251.54
481.15	4197.61
481.51	4148.32
481.87	4111.85
482.23	4060.36
482.59	4010.70
482.96	3955.86
483.32	3915.95
483.68	3872.39
484.04	3838.41
484.40	3803.42
484.76	3765.20
485.12	3712.58
485.48	3660.71
485.84	3591.36
486.20	3525.83
486.56	3469.40
486.92	3425.35
487.28	3378.91
487.64	3339.78
488.00	3295.29
488.37	3249.13
488.73	3195.23
489.09	3143.29
489.45	3092.95
489.81	3038.72
490.17	2982.92
490.53	2933.42
490.89	2877.36
491.25	2822.05
491.61	2775.83
491.97	2736.23
492.33	2682.14
492.69	2637.90
493.05	2589.87
493.41	2547.51
493.77	2504.54
494.13	2468.17
494.49	2429.27
494.85	2395.30
495.21	2358.93
495.57	2318.37
495.93	2283.19
496.29	2246.47
496.64	2213.98
497.00	2175.95
497.36	2142.57
497.72	2113.34
498.08	2083.17
498.44	2050.31
498.80	2025.87
499.16	2001.77
499.52	1970.57
499.88	1949.03
500.24	1925.54
500.60	1902.93
500.96	1878.84
501.32	1861.33
501.68	1839.52
502.03	1821.73
502.39	1794.21
502.75	1772.91
503.11	1750.39
503.47	1728.56
503.83	1705.34
504.19	1691.25
504.55	1674.40
504.91	1657.47
505.26	1639.83
505.62	1624.66
505.98	1609.82
506.34	1589.27
506.70	1572.00
507.06	1557.30
507.42	1540.77
507.78	1523.27
508.13	1512.27
508.49	1498.93
508.85	1483.92
509.21	1467.87
509.57	1454.60
509.93	1438.87
510.28	1424.10
510.64	1411.20
511.00	1401.68
511.36	1393.18
511.72	1387.07
512.07	1377.69
512.43	1367.72
512.79	1357.91
513.15	1347.59
513.51	1338.22
513.86	1329.63
514.22	1321.51
514.58	1317.58
514.94	1310.16
515.30	1301.64
515.65	1293.17
516.01	1286.03
516.37	1279.15
516.73	1272.39
517.08	1268.90
517.44	1265.90
517.80	1262.06
518.16	1253.75
518.51	1247.90
518.87	1240.65
519.23	1235.99
519.59	1232.25
519.94	1228.57
520.30	1226.21
520.66	1221.46
521.01	1218.74
521.37	1213.38
521.73	1208.16
522.09	1202.40
522.44	1197.09
522.80	1190.28
523.16	1187.66
523.51	1188.48
523.87	1184.03
524.23	1181.88
524.58	1177.03
524.94	1174.29
525.30	1171.30
525.65	1168.86
526.01	1163.81
526.37	1164.18
526.72	1162.45
527.08	1156.97
527.44	1156.11
527.79	1159.15
528.15	1156.04
528.51	1149.32
528.86	1146.37
529.22	1145.22
529.58	1141.08
529.93	1138.02
530.29	1140.96
530.65	1135.84
531.00	1131.13
531.36	1131.56
531.71	1131.11
532.07	1127.01
532.43	1130.08
532.78	1128.11
533.14	1125.21
533.49	1122.99
533.85	1121.00
534.21	1118.57
534.56	1120.25
534.92	1118.50
535.27	1116.48
535.63	1116.86
535.98	1115.59
536.34	1110.75
536.69	1107.80
537.05	1107.26
537.41	1108.48
537.76	1106.18
538.12	1105.25
538.47	1106.70
538.83	1106.02
539.18	1100.47
539.54	1098.88
539.89	1102.13
540.25	1102.60
540.60	1101.62
540.96	1101.32
541.31	1103.40
541.67	1103.31
542.02	1098.13
542.38	1100.71
542.73	1101.60
543.09	1102.70
543.44	1100.29
543.80	1100.66
544.15	1101.53
544.51	1099.65
544.86	1098.09
545.22	1096.66
545.57	1096.82
545.93	1090.53
546.28	1092.02
546.64	1093.55
546.99	1093.76
547.35	1096.68
547.70	1096.99
548.05	1095.07
548.41	1090.20
548.76	1089.78
549.12	1084.58
549.47	1084.63
549.83	1085.26
550.18	1084.46
550.53	1083.57
550.89	1085.17
551.24	1088.40
551.60	1084.86
551.95	1085.19
552.30	1086.10
552.66	1086.78
553.01	1086.92
553.37	1089.57
553.72	1091.65
554.07	1087.83
554.43	1086.87
554.78	1083.43
555.13	1083.79
555.49	1083.41
555.84	1086.31
556.19	1086.13
556.55	1088.02
556.90	1088.47
557.26	1086.64
557.61	1084.37
557.96	1084.25
558.32	1084.25
558.67	1078.73
559.02	1080.23
559.37	1081.40
559.73	1082.31
560.08	1079.99
560.43	1086.43
560.79	1087.25
561.14	1089.99
561.49	1086.90
561.85	1085.49
562.20	1083.83
562.55	1080.88
562.90	1079.62
563.26	1081.23
563.61	1079.78
563.96	1078.71
564.32	1080.58
564.67	1080.44
565.02	1077.42
565.37	1082.36
565.73	1079.38
566.08	1079.55
566.43	1075.99
566.78	1076.15
567.14	1075.24
567.49	1078.24
567.84	1078.52
568.19	1079.13
568.54	1079.62
568.90	1077.82
569.25	1078.89
569.60	1076.76
569.95	1079.06
570.31	1079.67
570.66	1079.34
571.01	1079.10
571.36	1083.62
571.71	1082.99
572.06	1082.12
572.42	1080.41
572.77	1081.98
573.12	1077.21
573.47	1076.79
573.82	1078.17
574.18	1078.21
574.53	1075.22
574.88	1077.70
575.23	1078.17
575.58	1080.34
575.93	1085.26
576.28	1084.51
576.64	1082.90
576.99	1083.53
577.34	1084.72
577.69	1079.13
578.04	1080.84
578.39	1077.65
578.74	1075.83
579.09	1075.64
579.44	1078.28
579.80	1080.32
580.15	1083.55
580.50	1084.09
580.85	1082.08
581.20	1084.35
581.55	1081.66
581.90	1080.06
582.25	1079.81
582.60	1079.06
582.95	1077.89
583.30	1076.83
583.65	1073.98
584.00	1072.57
584.35	1072.27
584.71	1069.88
585.06	1068.69
585.41	1070.51
585.76	1071.90
586.11	1072.32
586.46	1073.07
586.81	1074.98
587.16	1078.40
587.51	1077.56
587.86	1077.51
588.21	1077.65
588.56	1079.01
588.91	1076.13
589.26	1078.43
589.61	1077.65
589.96	1075.43
590.31	1075.80
590.66	1078.31
591.01	1075.92
591.36	1079.48
591.71	1082.78
592.06	1081.73
592.41	1081.44
592.76	1083.06
593.10	1078.89
593.45	1078.45
593.80	1075.20
594.15	1076.53
594.50	1075.13
594.85	1078.59
595.20	1078.89
595.55	1081.84
595.90	1081.05
596.25	1081.61
596.60	1076.53
596.95	1075.94
597.30	1078.54
597.64	1086.06
597.99	1087.88
598.34	1089.57
598.69	1087.27
599.04	1082.54
599.39	1074.14
599.74	1072.69
600.09	1072.85
600.44	1073.25
600.78	1075.38
601.13	1075.90
601.48	1076.04
601.83	1078.66
602.18	1080.95
602.53	1080.04
602.88	1077.51
603.22	1077.65
603.57	1075.48
603.92	1073.00
604.27	1073.53
604.62	1078.03
604.97	1077.51
605.31	1078.10
605.66	1078.57
606.01	1078.94
606.36	1076.06
606.71	1076.67
607.05	1077.14
607.40	1077.04
607.75	1077.14
608.10	1075.69
608.44	1074.49
608.79	1073.35
609.14	1077.37
609.49	1074.91
609.84	1075.38
610.18	1077.16
610.53	1078.24
610.88	1075.64
611.23	1074.45
611.57	1074.59
611.92	1071.40
612.27	1071.47
612.62	1072.50
612.96	1074.59
613.31	1075.97
613.66	1076.18
614.00	1074.82
614.35	1070.96
614.70	1072.18
615.05	1071.29
615.39	1073.53
615.74	1074.75
616.09	1073.51
616.43	1072.15
616.78	1073.39
617.13	1072.29
617.47	1073.49
617.82	1077.33
618.17	1078.85
618.51	1075.27
618.86	1075.43
619.21	1071.87
619.55	1073.86
619.90	1070.94
620.25	1074.70
620.59	1074.10
620.94	1075.36
621.29	1075.83
621.63	1077.11
621.98	1075.15
622.32	1075.87
622.67	1075.24
623.02	1074.47
623.36	1075.87
623.71	1076.39
624.05	1077.54
624.40	1082.38
624.75	1081.33
625.09	1081.54
625.44	1082.94
625.78	1083.25
626.13	1078.24
626.48	1078.50
626.82	1075.13
627.17	1073.00
627.51	1071.36
627.86	1070.37
628.20	1070.58
628.55	1072.81
628.89	1075.50
629.24	1076.20
629.58	1079.53
629.93	1076.08
630.28	1076.20
630.62	1077.56
630.97	1076.41
631.31	1074.84
631.66	1077.58
632.00	1076.90
632.35	1073.88
632.69	1073.84
633.04	1075.90
633.38	1075.15
633.73	1077.93
634.07	1080.86
634.42	1082.17
634.76	1081.63
635.11	1083.53
635.45	1079.90
635.79	1076.83
636.14	1075.55
636.48	1077.51
636.83	1074.73
637.17	1076.67
637.52	1074.45
637.86	1074.87
638.21	1074.21
638.55	1075.97
638.89	1072.46
639.24	1073.14
639.58	1072.43
639.93	1068.90
640.27	1066.25
640.61	1068.03
640.96	1065.39
641.30	1070.68
641.65	1073.37
641.99	1075.69
642.33	1078.82
642.68	1085.99
643.02	1080.25
643.37	1079.15
643.71	1077.56
644.05	1074.40
644.40	1071.38
644.74	1071.71
645.08	1071.01
645.43	1072.36
645.77	1074.84
646.11	1076.69
646.46	1075.24
646.80	1076.39
647.14	1078.21
647.49	1079.55
647.83	1078.59
648.17	1081.73
648.52	1080.09
648.86	1079.13
649.20	1076.97
649.55	1073.77
649.89	1072.08
650.23	1071.57
650.57	1071.52
650.92	1071.66
651.26	1076.06
651.60	1079.06
651.95	1080.81
652.29	1081.82
652.63	1083.29
652.97	1083.11
653.32	1083.15
653.66	1079.69
654.00	1078.73
654.34	1075.80
654.69	1073.72
655.03	1072.04
655.37	1076.48
655.71	1077.28
656.05	1077.91
656.40	1077.02
656.74	1077.25
657.08	1077.44
657.42	1077.91
657.76	1079.90
658.11	1078.52
658.45	1078.59
658.79	1079.76
659.13	1078.64
659.47	1074.47
659.82	1078.33
660.16	1079.15
660.50	1074.73
660.84	1075.48
661.18	1078.82
661.52	1076.04
661.87	1073.63
662.21	1075.36
662.55	1071.66
662.89	1070.89
663.23	1071.15
663.57	1071.36
663.91	1073.86
664.25	1076.48
664.60	1076.46
664.94	1078.64
665.28	1078.52
665.62	1076.76
665.96	1075.83
666.30	1075.41
666.64	1073.56
666.98	1075.62
667.32	1077.72
667.66	1080.18
668.01	1082.59
668.35	1083.90
668.69	1084.21
669.03	1083.41
669.37	1079.85
669.71	1080.04
670.05	1077.49
670.39	1076.27
670.73	1074.31
671.07	1075.83
671.41	1075.27
671.75	1077.79
672.09	1078.80
672.43	1075.76
672.77	1076.93
673.11	1075.36
673.45	1074.70
673.79	1074.24
674.13	1075.15
674.47	1078.26
674.81	1080.58
675.15	1080.58
675.49	1079.06
675.83	1085.59
676.17	1079.85
676.51	1081.23
676.85	1080.06
677.19	1079.95
677.53	1075.76
677.87	1076.55
678.21	1075.03
678.55	1075.92
678.89	1074.82
679.23	1072.39
679.57	1073.23
679.90	1071.57
680.24	1071.66
680.58	1073.09
680.92	1075.87
681.26	1075.08
681.60	1074.14
681.94	1072.18
682.28	1072.57
682.62	1071.10
682.96	1074.00
683.29	1073.44
683.63	1072.74
683.97	1072.76
684.31	1075.20
684.65	1073.25
684.99	1076.01
685.33	1077.16
685.67	1075.80
686.00	1072.90
686.34	1072.85
686.68	1072.97
687.02	1073.58
687.36	1074.70
687.70	1074.10
688.03	1073.00
688.37	1070.61
688.71	1069.20
689.05	1071.03
689.39	1074.56
689.72	1074.68
690.06	1073.98
690.40	1074.28
690.74	1072.25
691.08	1070.58
691.41	1073.28
691.75	1077.33
692.09	1080.32
692.43	1081.82
692.76	1079.15
693.10	1076.81
693.44	1072.04
693.78	1070.40
694.11	1070.98
694.45	1072.62
694.79	1071.15
695.13	1073.46
695.46	1076.08
695.80	1075.92
696.14	1077.72
696.48	1083.11
696.81	1084.25
697.15	1082.38
697.49	1082.85
697.82	1081.33
698.16	1077.09
698.50	1075.66
698.83	1073.74
699.17	1072.15
699.51	1071.92
699.84	1073.11
700.18	1071.19
700.52	1073.42
700.85	1072.20
701.19	1073.88
701.53	1074.33
701.86	1072.97
702.20	1073.37
702.54	1070.82
702.87	1069.91
703.21	1065.69
703.55	1068.59
703.88	1070.40
704.22	1072.25
704.55	1071.92
704.89	1075.90
705.23	1073.88
705.56	1070.65
705.90	1068.76
706.23	1074.05
706.57	1075.85
706.91	1078.59
707.24	1079.03
707.58	1083.83
707.91	1079.15
708.25	1076.04
708.58	1075.08
708.92	1075.10
709.26	1071.94
709.59	1071.57
709.93	1071.94
710.26	1072.25
710.60	1073.39
710.93	1073.30
711.27	1073.44
711.60	1075.05
711.94	1077.00
712.27	1073.46
712.61	1077.51
712.94	1075.78
713.28	1076.27
713.61	1076.46
713.95	1079.88
714.28	1075.59
714.62	1078.17
714.95	1076.65
715.29	1075.10
715.62	1074.63
715.96	1076.93
716.29	1073.46
716.63	1073.79
716.96	1074.52
717.29	1073.16
717.63	1070.16
717.96	1072.90
718.30	1069.74
718.63	1068.99
718.97	1070.54
719.30	1071.87
719.63	1069.39
719.97	1070.21
720.30	1068.55
720.64	1068.78
720.97	1069.81
721.30	1073.30
721.64	1075.15
721.97	1074.63
722.31	1074.24
722.64	1074.77
722.97	1074.21
723.31	1074.05
723.64	1074.94
723.97	1072.83
724.31	1074.84
724.64	1074.03
724.98	1075.43
725.31	1075.48
725.64	1079.10
725.98	1074.77
726.31	1076.51
726.64	1074.77
726.97	1077.23
727.31	1076.86
727.64	1081.63
727.97	1081.94
728.31	1080.65
728.64	1080.44
728.97	1080.04
729.31	1078.07
729.64	1073.93
729.97	1077.51
730.30	1078.43
730.64	1074.52
730.97	1075.20
731.30	1079.48
731.63	1078.12
731.97	1078.19
732.30	1083.32
732.63	1082.69
732.96	1079.62
733.30	1079.55
733.63	1079.36
733.96	1074.84
734.29	1074.59
734.63	1075.20
734.96	1074.05
735.29	1073.86
735.62	1077.00
735.95	1076.62
736.29	1077.47
736.62	1075.10
736.95	1073.32
737.28	1073.88
737.61	1072.08
737.94	1072.13
738.28	1073.84
738.61	1073.67
738.94	1072.71
739.27	1073.95
739.60	1074.98
739.93	1074.26
740.27	1073.49
740.60	1070.44
740.93	1073.84
741.26	1071.47
741.59	1073.84
741.92	1074.28
742.25	1075.83
742.58	1070.96
742.91	1072.08
743.25	1071.22
743.58	1073.60
743.91	1074.24
744.24	1075.20
744.57	1073.37
744.90	1073.00
745.23	1069.70
745.56	1072.13
745.89	1074.42
746.22	1077.82
746.55	1078.24
746.88	1079.22
747.21	1077.21
747.54	1073.74
747.87	1071.54
748.20	1071.85
748.53	1072.83
748.87	1074.26
749.20	1076.23
749.53	1077.00
749.86	1078.24
750.19	1078.78
750.52	1077.02
750.85	1077.96
751.18	1079.29
751.51	1079.53
751.84	1077.91
752.16	1078.47
752.49	1078.38
752.82	1076.34
753.15	1075.41
753.48	1074.03
753.81	1075.57
754.14	1073.63
754.47	1074.84
754.80	1076.48
755.13	1077.40
755.46	1076.44
755.79	1080.34
756.12	1078.17
756.45	1077.40
756.78	1077.16
757.11	1076.60
757.43	1075.08
757.76	1076.20
758.09	1073.51
758.42	1075.57
758.75	1072.29
759.08	1071.40
759.41	1071.45
759.74	1073.58
760.07	1074.12
760.39	1076.79
760.72	1078.52
761.05	1079.27
761.38	1078.71
761.71	1078.92
762.04	1080.84
762.36	1080.23
762.69	1078.14
763.02	1079.55
763.35	1078.38
763.68	1078.00
764.01	1076.48
764.33	1078.80
764.66	1079.85
764.99	1080.30
765.32	1076.34
765.65	1076.90
765.97	1079.41
766.30	1078.00
