SpectraSuite Data File
++++++++++++++++++++++++++++++++++++
Date: Mon Aug 26 10:21:50 PDT 2019
User: corrico
Dark Spectrum Present: No
Reference Spectrum Present: No
Number of Sampled Component Spectra: 1
Spectrometers: USB2+H06089
Integration Time (usec): 2000 (USB2+H06089)
Spectra Averaged: 20 (USB2+H06089)
Boxcar Smoothing: 2 (USB2+H06089)
Correct for Electrical Dark: No (USB2+H06089)
Strobe/Lamp Enabled: No (USB2+H06089)
Correct for Detector Non-linearity: No (USB2+H06089)
Correct for Stray Light: No (USB2+H06089)
Number of Pixels in Processed Spectrum: 2048
>>>>>Begin Processed Spectral Data<<<<<
339.70	1014.15
340.07	1014.15
340.45	982.58
340.82	961.09
341.19	938.58
341.57	917.21
341.94	908.57
342.31	902.07
342.69	896.96
343.06	895.82
343.43	892.68
343.81	894.90
344.18	895.93
344.55	902.84
344.93	906.68
345.30	911.19
345.67	917.07
346.04	924.75
346.42	929.12
346.79	939.94
347.16	951.69
347.54	959.92
347.91	966.03
348.28	980.78
348.65	988.10
349.03	994.52
349.40	1003.20
349.77	1011.06
350.14	1017.31
350.52	1022.25
350.89	1029.44
351.26	1035.78
351.63	1041.00
352.01	1044.04
352.38	1052.91
352.75	1056.63
353.12	1060.85
353.50	1068.06
353.87	1074.05
354.24	1074.19
354.61	1079.24
354.98	1082.36
355.36	1080.72
355.73	1081.66
356.10	1085.35
356.47	1085.77
356.84	1084.58
357.22	1085.66
357.59	1079.85
357.96	1077.84
358.33	1074.82
358.70	1073.04
359.08	1072.48
359.45	1074.87
359.82	1076.27
360.19	1076.93
360.56	1077.89
360.94	1078.66
361.31	1079.13
361.68	1072.85
362.05	1070.33
362.42	1068.69
362.79	1067.10
363.16	1066.07
363.54	1067.21
363.91	1067.14
364.28	1066.70
364.65	1066.28
365.02	1064.90
365.39	1064.76
365.76	1066.44
366.14	1066.28
366.51	1067.57
366.88	1068.57
367.25	1070.07
367.62	1068.90
367.99	1068.55
368.36	1066.44
368.73	1065.90
369.10	1067.21
369.48	1069.46
369.85	1070.63
370.22	1069.98
370.59	1070.00
370.96	1071.90
371.33	1069.32
371.70	1070.05
372.07	1071.85
372.44	1068.45
372.81	1065.15
373.18	1064.83
373.55	1063.54
373.93	1062.44
374.30	1064.71
374.67	1063.89
375.04	1065.90
375.41	1066.25
375.78	1066.32
376.15	1068.29
376.52	1066.75
376.89	1068.74
377.26	1068.31
377.63	1068.71
378.00	1069.09
378.37	1072.88
378.74	1069.62
379.11	1069.46
379.48	1070.00
379.85	1067.89
380.22	1066.32
380.59	1067.10
380.96	1070.14
381.33	1073.16
381.70	1076.51
382.07	1077.89
382.44	1077.04
382.81	1076.48
383.18	1077.30
383.55	1075.66
383.92	1072.78
384.29	1075.24
384.66	1073.98
385.03	1070.12
385.40	1068.08
385.77	1071.94
386.14	1070.87
386.51	1069.53
386.88	1067.49
387.25	1072.13
387.62	1069.98
387.99	1070.14
388.36	1072.53
388.73	1073.84
389.10	1073.02
389.46	1072.83
389.83	1074.66
390.20	1074.89
390.57	1075.29
390.94	1075.22
391.31	1074.42
391.68	1071.38
392.05	1072.20
392.42	1073.35
392.79	1072.69
393.16	1076.11
393.53	1076.34
393.89	1075.52
394.26	1076.86
394.63	1076.51
395.00	1075.10
395.37	1078.24
395.74	1078.80
396.11	1079.06
396.48	1080.02
396.84	1080.32
397.21	1081.12
397.58	1080.46
397.95	1077.84
398.32	1079.60
398.69	1080.30
399.06	1075.85
399.42	1076.81
399.79	1078.28
400.16	1077.30
400.53	1077.11
400.90	1079.48
401.27	1079.15
401.64	1080.58
402.00	1080.25
402.37	1080.58
402.74	1082.19
403.11	1084.81
403.48	1083.67
403.84	1082.19
404.21	1079.57
404.58	1076.48
404.95	1075.76
405.32	1075.48
405.68	1077.58
406.05	1078.50
406.42	1079.97
406.79	1079.29
407.16	1081.33
407.52	1079.64
407.89	1080.91
408.26	1083.04
408.63	1080.46
408.99	1080.06
409.36	1080.20
409.73	1082.64
410.10	1082.59
410.47	1082.85
410.83	1081.66
411.20	1080.13
411.57	1076.79
411.94	1078.17
412.30	1080.20
412.67	1080.30
413.04	1083.25
413.40	1085.17
413.77	1081.96
414.14	1081.54
414.51	1081.66
414.87	1079.81
415.24	1081.02
415.61	1083.79
415.97	1083.39
416.34	1085.82
416.71	1086.62
417.08	1082.97
417.44	1080.81
417.81	1080.11
418.18	1078.57
418.54	1080.32
418.91	1084.39
419.28	1083.06
419.64	1087.23
420.01	1088.37
420.38	1090.29
420.74	1088.42
421.11	1094.18
421.48	1093.22
421.84	1096.19
422.21	1093.31
422.58	1092.56
422.94	1087.41
423.31	1086.52
423.68	1087.11
424.04	1090.57
424.41	1093.12
424.77	1098.09
425.14	1101.85
425.51	1101.15
425.87	1101.60
426.24	1105.11
426.61	1106.30
426.97	1108.24
427.34	1113.46
427.70	1114.42
428.07	1116.08
428.44	1119.31
428.80	1121.91
429.17	1124.37
429.53	1129.75
429.90	1136.21
430.27	1138.69
430.63	1142.09
431.00	1144.52
431.36	1148.06
431.73	1150.89
432.09	1155.03
432.46	1162.85
432.83	1170.36
433.19	1175.18
433.56	1181.69
433.92	1193.98
434.29	1200.09
434.65	1208.21
435.02	1221.01
435.38	1232.74
435.75	1243.43
436.11	1255.58
436.48	1269.39
436.84	1286.15
437.21	1300.50
437.57	1317.11
437.94	1331.48
438.30	1348.15
438.67	1362.78
439.03	1386.84
439.40	1408.37
439.76	1436.53
440.13	1466.42
440.49	1496.40
440.86	1522.03
441.22	1555.87
441.59	1587.87
441.95	1614.64
442.32	1649.05
442.68	1684.27
443.05	1718.96
443.41	1758.66
443.78	1806.61
444.14	1851.34
444.51	1899.86
444.87	1958.33
445.24	2013.12
445.60	2072.26
445.96	2135.72
446.33	2211.48
446.69	2271.75
447.06	2345.19
447.42	2420.44
447.79	2494.54
448.15	2578.90
448.51	2670.90
448.88	2777.98
449.24	2877.95
449.61	2996.47
449.97	3110.08
450.33	3229.75
450.70	3340.83
451.06	3479.63
451.43	3615.43
451.79	3779.12
452.15	3951.88
452.52	4132.08
452.88	4313.61
453.24	4516.60
453.61	4728.37
453.97	4942.06
454.34	5158.94
454.70	5397.60
455.06	5635.50
455.43	5870.18
455.79	6103.91
456.15	6382.20
456.52	6653.35
456.88	6974.19
457.24	7277.29
457.61	7636.00
457.97	7975.94
458.33	8332.31
458.70	8682.31
459.06	9036.06
459.42	9421.41
459.79	9775.72
460.15	10153.22
460.51	10483.99
460.88	10839.44
461.24	11135.57
461.60	11474.83
461.96	11762.01
462.33	12054.06
462.69	12325.99
463.05	12614.25
463.42	12895.51
463.78	13175.16
464.14	13436.08
464.50	13719.00
464.87	13985.24
465.23	14197.95
465.59	14466.78
465.95	14700.41
466.32	14875.25
466.68	15016.60
467.04	15084.73
467.40	15098.98
467.77	15164.96
468.13	15214.49
468.49	15217.34
468.85	15204.66
469.22	15138.61
469.58	14946.68
469.94	14795.77
470.30	14620.53
470.66	14469.99
471.03	14269.73
471.39	14167.19
471.75	13937.28
472.11	13711.58
472.47	13513.71
472.84	13349.41
473.20	13100.28
473.56	12908.73
473.92	12652.94
474.28	12418.13
474.65	12167.35
475.01	11966.69
475.37	11774.28
475.73	11631.48
476.09	11437.29
476.45	11235.13
476.81	11014.14
477.18	10769.72
477.54	10556.07
477.90	10360.38
478.26	10125.18
478.62	9926.17
478.98	9761.93
479.34	9591.87
479.71	9419.09
480.07	9325.98
480.43	9206.40
480.79	9043.53
481.15	8894.36
481.51	8759.03
481.87	8635.83
482.23	8506.21
482.59	8414.44
482.96	8334.79
483.32	8269.65
483.68	8158.73
484.04	8071.27
484.40	7967.53
484.76	7832.46
485.12	7679.23
485.48	7556.40
485.84	7411.21
486.20	7260.48
486.56	7113.19
486.92	6978.21
487.28	6833.26
487.64	6687.21
488.00	6555.72
488.37	6427.91
488.73	6285.53
489.09	6129.54
489.45	5969.26
489.81	5803.03
490.17	5648.11
490.53	5524.44
490.89	5403.95
491.25	5305.03
491.61	5203.69
491.97	5104.71
492.33	4994.84
492.69	4877.16
493.05	4751.47
493.41	4627.50
493.77	4501.97
494.13	4371.82
494.49	4267.17
494.85	4156.89
495.21	4065.16
495.57	3972.38
495.93	3883.79
496.29	3787.53
496.64	3711.41
497.00	3623.97
497.36	3550.66
497.72	3469.66
498.08	3402.32
498.44	3342.24
498.80	3285.48
499.16	3221.37
499.52	3166.74
499.88	3113.71
500.24	3048.90
500.60	2988.21
500.96	2930.73
501.32	2875.42
501.68	2819.53
502.03	2761.67
502.39	2710.69
502.75	2668.12
503.11	2629.55
503.47	2585.57
503.83	2546.10
504.19	2497.56
504.55	2449.49
504.91	2397.62
505.26	2347.65
505.62	2304.30
505.98	2271.12
506.34	2229.55
506.70	2192.45
507.06	2158.58
507.42	2125.44
507.78	2092.98
508.13	2063.30
508.49	2029.81
508.85	2002.35
509.21	1969.89
509.57	1940.73
509.93	1912.19
510.28	1883.73
510.64	1853.91
511.00	1832.31
511.36	1802.84
511.72	1779.84
512.07	1753.90
512.43	1731.04
512.79	1704.17
513.15	1684.27
513.51	1661.10
513.86	1648.60
514.22	1636.57
514.58	1619.00
514.94	1604.09
515.30	1588.12
515.65	1566.99
516.01	1548.45
516.37	1536.66
516.73	1520.58
517.08	1505.67
517.44	1494.55
517.80	1482.12
518.16	1469.67
518.51	1457.08
518.87	1444.11
519.23	1432.99
519.59	1416.52
519.94	1400.13
520.30	1390.23
520.66	1383.94
521.01	1375.06
521.37	1370.01
521.73	1364.44
522.09	1356.83
522.44	1348.66
522.80	1339.49
523.16	1330.17
523.51	1323.39
523.87	1315.22
524.23	1307.26
524.58	1301.83
524.94	1296.14
525.30	1289.80
525.65	1283.64
526.01	1279.36
526.37	1274.68
526.72	1269.06
527.08	1261.31
527.44	1255.14
527.79	1250.08
528.15	1242.59
528.51	1239.20
528.86	1233.49
529.22	1230.58
529.58	1224.52
529.93	1219.37
530.29	1210.01
530.65	1207.88
531.00	1200.65
531.36	1197.77
531.71	1194.09
532.07	1192.20
532.43	1189.51
532.78	1187.28
533.14	1184.62
533.49	1181.81
533.85	1178.20
534.21	1173.45
534.56	1173.29
534.92	1170.76
535.27	1166.10
535.63	1162.15
535.98	1160.02
536.34	1157.35
536.69	1152.08
537.05	1150.58
537.41	1146.93
537.76	1144.73
538.12	1142.04
538.47	1141.99
538.83	1138.79
539.18	1142.13
539.54	1140.05
539.89	1136.89
540.25	1132.73
540.60	1133.99
540.96	1131.91
541.31	1133.24
541.67	1132.63
542.02	1131.51
542.38	1131.93
542.73	1129.99
543.09	1127.72
543.44	1125.73
543.80	1125.66
544.15	1123.83
544.51	1120.39
544.86	1119.38
545.22	1122.15
545.57	1118.03
545.93	1117.18
546.28	1118.96
546.64	1116.32
546.99	1109.72
547.35	1112.83
547.70	1110.02
548.05	1108.66
548.41	1110.42
548.76	1113.25
549.12	1110.98
549.47	1112.48
549.83	1111.82
550.18	1109.51
550.53	1106.11
550.89	1104.78
551.24	1099.07
551.60	1097.03
551.95	1098.44
552.30	1097.99
552.66	1099.70
553.01	1100.38
553.37	1104.01
553.72	1101.36
554.07	1103.59
554.43	1102.09
554.78	1102.72
555.13	1100.00
555.49	1100.40
555.84	1099.51
556.19	1095.00
556.55	1094.81
556.90	1092.96
557.26	1089.50
557.61	1090.24
557.96	1094.60
558.32	1094.46
558.67	1093.33
559.02	1094.95
559.37	1091.91
559.73	1092.21
560.08	1092.63
560.43	1096.94
560.79	1094.34
561.14	1096.42
561.49	1095.65
561.85	1095.44
562.20	1091.16
562.55	1096.28
562.90	1094.72
563.26	1093.76
563.61	1095.79
563.96	1093.55
564.32	1091.04
564.67	1092.12
565.02	1090.29
565.37	1088.09
565.73	1089.64
566.08	1090.50
566.43	1090.55
566.78	1092.73
567.14	1092.73
567.49	1093.33
567.84	1091.95
568.19	1090.90
568.54	1092.59
568.90	1089.57
569.25	1087.79
569.60	1087.93
569.95	1084.07
570.31	1081.82
570.66	1083.25
571.01	1083.36
571.36	1084.70
571.71	1087.65
572.06	1085.14
572.42	1088.65
572.77	1090.57
573.12	1086.73
573.47	1085.68
573.82	1087.18
574.18	1081.37
574.53	1076.88
574.88	1081.12
575.23	1080.02
575.58	1080.91
575.93	1083.29
576.28	1087.44
576.64	1084.39
576.99	1085.82
577.34	1087.81
577.69	1087.67
578.04	1087.41
578.39	1088.37
578.74	1086.45
579.09	1081.94
579.44	1081.87
579.80	1083.86
580.15	1080.51
580.50	1083.18
580.85	1082.08
581.20	1080.86
581.55	1077.68
581.90	1078.80
582.25	1077.30
582.60	1079.29
582.95	1078.43
583.30	1079.24
583.65	1082.85
584.00	1083.34
584.35	1081.70
584.71	1080.67
585.06	1079.60
585.41	1077.40
585.76	1080.30
586.11	1079.50
586.46	1081.68
586.81	1080.13
587.16	1078.40
587.51	1075.38
587.86	1075.90
588.21	1076.53
588.56	1077.54
588.91	1079.64
589.26	1080.04
589.61	1083.29
589.96	1081.42
590.31	1080.70
590.66	1077.49
591.01	1076.13
591.36	1077.11
591.71	1078.21
592.06	1078.85
592.41	1081.63
592.76	1082.92
593.10	1080.23
593.45	1078.38
593.80	1081.56
594.15	1081.56
594.50	1080.37
594.85	1081.96
595.20	1082.83
595.55	1079.01
595.90	1077.40
596.25	1079.15
596.60	1077.23
596.95	1078.07
597.30	1078.38
597.64	1089.78
597.99	1088.61
598.34	1087.67
598.69	1087.48
599.04	1087.46
599.39	1078.19
599.74	1078.05
600.09	1079.60
600.44	1079.43
600.78	1079.74
601.13	1080.09
601.48	1078.21
601.83	1077.63
602.18	1080.88
602.53	1081.19
602.88	1079.71
603.22	1081.54
603.57	1081.63
603.92	1079.62
604.27	1080.41
604.62	1081.56
604.97	1078.99
605.31	1075.27
605.66	1073.37
606.01	1073.32
606.36	1072.27
606.71	1074.75
607.05	1078.80
607.40	1080.70
607.75	1083.90
608.10	1083.11
608.44	1085.21
608.79	1085.24
609.14	1084.72
609.49	1078.24
609.84	1078.89
610.18	1079.74
610.53	1079.03
610.88	1079.57
611.23	1083.01
611.57	1081.07
611.92	1076.53
612.27	1078.17
612.62	1078.45
612.96	1078.21
613.31	1081.96
613.66	1085.38
614.00	1083.13
614.35	1080.91
614.70	1081.21
615.05	1077.00
615.39	1076.86
615.74	1079.69
616.09	1079.36
616.43	1078.78
616.78	1083.62
617.13	1083.04
617.47	1084.07
617.82	1085.66
618.17	1086.87
618.51	1083.86
618.86	1081.73
619.21	1078.89
619.55	1078.47
619.90	1076.74
620.25	1078.38
620.59	1076.95
620.94	1075.99
621.29	1076.95
621.63	1075.73
621.98	1074.26
622.32	1074.75
622.67	1074.40
623.02	1073.95
623.36	1078.80
623.71	1077.33
624.05	1079.50
624.40	1079.50
624.75	1078.17
625.09	1075.55
625.44	1076.67
625.78	1076.95
626.13	1077.58
626.48	1080.53
626.82	1078.17
627.17	1080.06
627.51	1079.76
627.86	1081.63
628.20	1075.66
628.55	1077.47
628.89	1076.20
629.24	1073.56
629.58	1071.68
629.93	1077.09
630.28	1077.09
630.62	1077.54
630.97	1077.21
631.31	1077.47
631.66	1075.36
632.00	1075.64
632.35	1076.74
632.69	1078.78
633.04	1078.00
633.38	1076.32
633.73	1077.44
634.07	1073.23
634.42	1072.22
634.76	1073.39
635.11	1075.38
635.45	1072.97
635.79	1072.64
636.14	1074.80
636.48	1073.95
636.83	1074.00
637.17	1074.73
637.52	1077.61
637.86	1075.05
638.21	1073.93
638.55	1070.35
638.89	1068.92
639.24	1068.41
639.58	1067.94
639.93	1068.38
640.27	1071.82
640.61	1072.29
640.96	1071.92
641.30	1075.20
641.65	1077.04
641.99	1076.72
642.33	1079.48
642.68	1078.50
643.02	1078.57
643.37	1078.71
643.71	1076.20
644.05	1074.47
644.40	1076.11
644.74	1073.49
645.08	1072.57
645.43	1074.28
645.77	1074.56
646.11	1074.40
646.46	1077.16
646.80	1076.48
647.14	1078.71
647.49	1079.99
647.83	1082.78
648.17	1079.76
648.52	1079.78
648.86	1078.92
649.20	1079.83
649.55	1075.50
649.89	1076.97
650.23	1075.92
650.57	1077.11
650.92	1074.45
651.26	1077.14
651.60	1078.10
651.95	1078.75
652.29	1079.06
652.63	1080.02
652.97	1076.97
653.32	1074.52
653.66	1078.05
654.00	1074.82
654.34	1074.89
654.69	1076.18
655.03	1080.56
655.37	1077.21
655.71	1076.34
656.05	1076.76
656.40	1077.42
656.74	1073.65
657.08	1074.40
657.42	1076.76
657.76	1077.21
658.11	1077.68
658.45	1075.90
658.79	1077.11
659.13	1076.46
659.47	1074.59
659.82	1073.16
660.16	1075.97
660.50	1071.97
660.84	1072.71
661.18	1069.84
661.52	1068.81
661.87	1067.85
662.21	1071.75
662.55	1071.29
662.89	1074.87
663.23	1076.74
663.57	1079.81
663.91	1078.47
664.25	1080.18
664.60	1079.15
664.94	1080.39
665.28	1077.79
665.62	1080.20
665.96	1080.20
666.30	1078.94
666.64	1078.31
666.98	1077.37
667.32	1071.31
667.66	1066.82
668.01	1071.01
668.35	1070.80
668.69	1075.59
669.03	1076.62
669.37	1079.13
669.71	1075.78
670.05	1073.53
670.39	1068.38
670.73	1072.20
671.07	1074.68
671.41	1075.31
671.75	1076.60
672.09	1076.01
672.43	1076.86
672.77	1075.08
673.11	1075.48
673.45	1074.38
673.79	1078.45
674.13	1078.59
674.47	1079.60
674.81	1079.88
675.15	1082.38
675.49	1081.07
675.83	1075.45
676.17	1075.17
676.51	1075.10
676.85	1075.83
677.19	1074.82
677.53	1079.38
677.87	1078.03
678.21	1078.33
678.55	1077.79
678.89	1080.48
679.23	1079.01
679.57	1077.75
679.90	1076.15
680.24	1077.30
680.58	1076.76
680.92	1079.34
681.26	1083.83
681.60	1084.56
681.94	1082.64
682.28	1078.96
682.62	1076.44
682.96	1073.25
683.29	1072.20
683.63	1072.41
683.97	1074.98
684.31	1073.88
684.65	1071.22
684.99	1074.98
685.33	1073.93
685.67	1074.77
686.00	1075.15
686.34	1078.38
686.68	1078.38
687.02	1080.63
687.36	1078.73
687.70	1083.69
688.03	1084.07
688.37	1080.60
688.71	1078.14
689.05	1078.54
689.39	1073.18
689.72	1075.80
690.06	1076.95
690.40	1076.88
690.74	1075.83
691.08	1077.18
691.41	1075.78
691.75	1074.89
692.09	1074.00
692.43	1075.97
692.76	1074.63
693.10	1072.11
693.44	1073.37
693.78	1072.92
694.11	1073.11
694.45	1071.36
694.79	1071.97
695.13	1073.91
695.46	1074.14
695.80	1075.17
696.14	1078.45
696.48	1077.84
696.81	1075.22
697.15	1076.25
697.49	1076.23
697.82	1078.96
698.16	1081.02
698.50	1082.40
698.83	1080.98
699.17	1080.95
699.51	1079.74
699.84	1075.17
700.18	1072.39
700.52	1076.01
700.85	1074.07
701.19	1071.61
701.53	1075.97
701.86	1078.59
702.20	1076.23
702.54	1076.30
702.87	1079.15
703.21	1078.94
703.55	1077.65
703.88	1079.60
704.22	1080.79
704.55	1077.68
704.89	1077.77
705.23	1076.06
705.56	1075.29
705.90	1071.99
706.23	1072.36
706.57	1067.92
706.91	1068.55
707.24	1067.68
707.58	1067.80
707.91	1068.24
708.25	1073.18
708.58	1075.13
708.92	1076.27
709.26	1077.23
709.59	1080.79
709.93	1081.30
710.26	1080.02
710.60	1081.47
710.93	1085.49
711.27	1081.80
711.60	1080.46
711.94	1078.89
712.27	1077.98
712.61	1071.71
712.94	1074.77
713.28	1072.18
713.61	1074.63
713.95	1074.42
714.28	1077.02
714.62	1075.55
714.95	1075.52
715.29	1077.89
715.62	1078.19
715.96	1077.93
716.29	1074.84
716.63	1077.63
716.96	1075.87
717.29	1076.13
717.63	1079.03
717.96	1082.57
718.30	1084.07
718.63	1084.02
718.97	1083.06
719.30	1081.80
719.63	1081.75
719.97	1077.79
720.30	1077.33
720.64	1076.06
720.97	1075.64
721.30	1074.98
721.64	1074.98
721.97	1072.53
722.31	1070.44
722.64	1073.14
722.97	1074.10
723.31	1078.24
723.64	1076.90
723.97	1080.56
724.31	1074.61
724.64	1075.97
724.98	1074.38
725.31	1076.44
725.64	1076.76
725.98	1080.09
726.31	1076.81
726.64	1077.54
726.97	1080.93
727.31	1080.63
727.64	1078.03
727.97	1076.81
728.31	1073.72
728.64	1070.30
728.97	1066.96
729.31	1066.70
729.64	1067.71
729.97	1069.09
730.30	1069.58
730.64	1071.80
730.97	1074.82
731.30	1077.23
731.63	1075.99
731.97	1073.44
732.30	1072.67
732.63	1072.27
732.96	1068.59
733.30	1067.52
733.63	1069.51
733.96	1070.91
734.29	1067.96
734.63	1069.93
734.96	1074.26
735.29	1074.66
735.62	1072.34
735.95	1073.49
736.29	1072.76
736.62	1068.99
736.95	1070.16
737.28	1074.17
737.61	1076.62
737.94	1076.90
738.28	1081.07
738.61	1080.34
738.94	1075.20
739.27	1071.80
739.60	1069.18
739.93	1066.47
740.27	1067.31
740.60	1072.13
740.93	1075.27
741.26	1079.36
741.59	1080.34
741.92	1078.03
742.25	1076.01
742.58	1075.38
742.91	1072.46
743.25	1069.27
743.58	1069.93
743.91	1069.98
744.24	1068.03
744.57	1068.55
744.90	1072.15
745.23	1072.90
745.56	1072.53
745.89	1070.89
746.22	1069.77
746.55	1069.41
746.88	1070.23
747.21	1072.85
747.54	1079.71
747.87	1082.61
748.20	1084.42
748.53	1086.36
748.87	1083.46
749.20	1078.43
749.53	1079.10
749.86	1076.37
750.19	1075.87
750.52	1080.27
750.85	1082.33
751.18	1082.45
751.51	1084.98
751.84	1085.33
752.16	1081.47
752.49	1081.16
752.82	1080.72
753.15	1077.91
753.48	1074.40
753.81	1073.53
754.14	1075.48
754.47	1074.14
754.80	1075.50
755.13	1076.23
755.46	1077.54
755.79	1075.15
756.12	1076.20
756.45	1073.74
756.78	1075.97
757.11	1072.34
757.43	1072.36
757.76	1069.77
758.09	1072.06
758.42	1069.51
758.75	1077.30
759.08	1076.44
759.41	1082.78
759.74	1082.92
760.07	1081.44
760.39	1077.04
760.72	1079.17
761.05	1073.79
761.38	1074.24
761.71	1076.74
762.04	1077.23
762.36	1077.11
762.69	1076.51
763.02	1075.99
763.35	1076.48
763.68	1076.88
764.01	1074.42
764.33	1078.10
764.66	1077.33
764.99	1078.05
765.32	1075.69
