SpectraSuite Data File
++++++++++++++++++++++++++++++++++++
Date: Mon Aug 26 10:22:07 PDT 2019
User: corrico
Dark Spectrum Present: No
Reference Spectrum Present: No
Number of Sampled Component Spectra: 1
Spectrometers: USB2+H06089
Integration Time (usec): 2000 (USB2+H06089)
Spectra Averaged: 20 (USB2+H06089)
Boxcar Smoothing: 2 (USB2+H06089)
Correct for Electrical Dark: No (USB2+H06089)
Strobe/Lamp Enabled: No (USB2+H06089)
Correct for Detector Non-linearity: No (USB2+H06089)
Correct for Stray Light: No (USB2+H06089)
Number of Pixels in Processed Spectrum: 2048
>>>>>Begin Processed Spectral Data<<<<<
339.70	1037.91
340.07	1037.91
340.45	1001.45
340.82	977.76
341.19	954.73
341.57	929.92
341.94	919.90
342.31	910.21
342.69	904.83
343.06	899.35
343.43	896.35
343.81	896.19
344.18	897.53
344.55	903.54
344.93	911.10
345.30	917.19
345.67	924.42
346.04	932.38
346.42	938.39
346.79	943.19
347.16	950.40
347.54	958.43
347.91	966.81
348.28	978.58
348.65	990.73
349.03	1004.93
349.40	1015.07
349.77	1025.69
350.14	1028.71
350.52	1035.24
350.89	1035.90
351.26	1042.03
351.63	1049.38
352.01	1058.81
352.38	1062.16
352.75	1068.85
353.12	1071.45
353.50	1072.60
353.87	1075.27
354.24	1079.38
354.61	1083.69
354.98	1084.49
355.36	1088.72
355.73	1089.17
356.10	1087.65
356.47	1087.58
356.84	1090.15
357.22	1087.76
357.59	1088.12
357.96	1091.18
358.33	1090.69
358.70	1089.19
359.08	1087.69
359.45	1086.45
359.82	1080.65
360.19	1080.65
360.56	1079.22
360.94	1080.95
361.31	1083.34
361.68	1082.83
362.05	1081.09
362.42	1081.16
362.79	1075.97
363.16	1070.09
363.54	1071.57
363.91	1068.76
364.28	1069.30
364.65	1073.72
365.02	1073.28
365.39	1074.61
365.76	1074.40
366.14	1074.89
366.51	1072.97
366.88	1075.36
367.25	1074.56
367.62	1075.29
367.99	1074.63
368.36	1074.17
368.73	1073.56
369.10	1073.11
369.48	1071.43
369.85	1070.44
370.22	1070.09
370.59	1069.13
370.96	1072.39
371.33	1072.41
371.70	1070.80
372.07	1071.66
372.44	1073.91
372.81	1074.05
373.18	1077.54
373.55	1078.99
373.93	1080.98
374.30	1081.63
374.67	1081.63
375.04	1079.71
375.41	1082.92
375.78	1084.49
376.15	1082.17
376.52	1081.82
376.89	1083.48
377.26	1081.23
377.63	1075.17
378.00	1073.77
378.37	1071.29
378.74	1070.07
379.11	1069.84
379.48	1074.82
379.85	1076.65
380.22	1076.69
380.59	1078.45
380.96	1081.16
381.33	1079.88
381.70	1081.84
382.07	1083.43
382.44	1081.61
382.81	1078.50
383.18	1080.46
383.55	1078.75
383.92	1080.18
384.29	1082.15
384.66	1084.35
385.03	1082.87
385.40	1083.83
385.77	1082.43
386.14	1083.04
386.51	1082.33
386.88	1082.87
387.25	1083.01
387.62	1084.79
387.99	1085.91
388.36	1089.10
388.73	1087.46
389.10	1086.13
389.46	1085.75
389.83	1085.07
390.20	1082.12
390.57	1084.37
390.94	1085.38
391.31	1084.91
391.68	1084.42
392.05	1087.39
392.42	1087.74
392.79	1086.57
393.16	1084.42
393.53	1084.93
393.89	1084.16
394.26	1083.34
394.63	1086.97
395.00	1089.94
395.37	1090.41
395.74	1089.54
396.11	1090.88
396.48	1091.30
396.84	1091.04
397.21	1089.40
397.58	1089.96
397.95	1090.24
398.32	1089.92
398.69	1091.18
399.06	1092.05
399.42	1092.40
399.79	1092.12
400.16	1092.54
400.53	1092.00
400.90	1092.26
401.27	1087.44
401.64	1087.44
402.00	1085.75
402.37	1083.81
402.74	1083.74
403.11	1086.85
403.48	1086.20
403.84	1086.43
404.21	1090.13
404.58	1092.12
404.95	1094.39
405.32	1095.96
405.68	1094.27
406.05	1092.52
406.42	1091.91
406.79	1093.19
407.16	1091.93
407.52	1093.01
407.89	1094.34
408.26	1093.40
408.63	1092.56
408.99	1092.63
409.36	1096.42
409.73	1095.86
410.10	1098.81
410.47	1102.37
410.83	1103.00
411.20	1104.24
411.57	1104.85
411.94	1104.17
412.30	1101.95
412.67	1102.58
413.04	1099.33
413.40	1097.99
413.77	1097.27
414.14	1097.50
414.51	1098.83
414.87	1098.90
415.24	1098.02
415.61	1099.84
415.97	1102.11
416.34	1104.03
416.71	1106.39
417.08	1113.84
417.44	1112.69
417.81	1110.82
418.18	1111.40
418.54	1114.40
418.91	1109.16
419.28	1112.22
419.64	1113.25
420.01	1114.02
420.38	1116.72
420.74	1118.71
421.11	1117.82
421.48	1120.23
421.84	1122.52
422.21	1121.44
422.58	1128.07
422.94	1132.26
423.31	1136.31
423.68	1139.75
424.04	1147.42
424.41	1150.02
424.77	1155.69
425.14	1160.55
425.51	1163.88
425.87	1163.48
426.24	1168.35
426.61	1174.04
426.97	1178.18
427.34	1186.28
427.70	1195.15
428.07	1201.82
428.44	1210.74
428.80	1223.87
429.17	1233.18
429.53	1241.56
429.90	1255.86
430.27	1266.74
430.63	1274.21
431.00	1286.80
431.36	1308.15
431.73	1320.81
432.09	1337.34
432.46	1356.01
432.83	1371.51
433.19	1389.58
433.56	1412.37
433.92	1439.38
434.29	1467.24
434.65	1500.82
435.02	1527.50
435.38	1560.44
435.75	1592.99
436.11	1633.37
436.48	1671.05
436.84	1715.19
437.21	1760.79
437.57	1804.06
437.94	1855.11
438.30	1912.97
438.67	1973.56
439.03	2037.34
439.40	2111.72
439.76	2178.80
440.13	2255.81
440.49	2331.76
440.86	2408.20
441.22	2494.22
441.59	2578.66
441.95	2679.07
442.32	2792.70
442.68	2918.55
443.05	3039.35
443.41	3178.05
443.78	3301.00
444.14	3438.48
444.51	3570.77
444.87	3742.10
445.24	3901.49
445.60	4094.56
445.96	4278.90
446.33	4502.42
446.69	4694.95
447.06	4923.81
447.42	5145.48
447.79	5383.82
448.15	5650.43
448.51	5942.50
448.88	6269.59
449.24	6578.15
449.61	6926.79
449.97	7279.58
450.33	7651.02
450.70	8007.77
451.06	8445.99
451.43	8862.13
451.79	9324.74
452.15	9821.75
452.52	10355.79
452.88	10907.48
453.24	11546.17
453.61	12252.92
453.97	12961.93
454.34	13663.04
454.70	14487.45
455.06	15289.69
455.43	16057.41
455.79	16757.91
456.15	17591.65
456.52	18328.97
456.88	19262.56
457.24	20175.49
457.61	21300.12
457.97	22358.22
458.33	23473.70
458.70	24511.14
459.06	25485.70
459.42	26513.35
459.79	27432.69
460.15	28495.34
460.51	29508.96
460.88	30650.63
461.24	31610.67
461.60	32774.97
461.96	33834.15
462.33	34891.30
462.69	35933.66
463.05	37090.45
463.42	38152.30
463.78	39102.37
464.14	39850.05
464.50	40594.44
464.87	41116.45
465.23	41423.18
465.59	41798.60
465.95	42130.58
466.32	42372.78
466.68	42653.41
467.04	42817.55
467.40	42870.91
467.77	42970.60
468.13	42870.54
468.49	42672.86
468.85	42570.37
469.22	42417.67
469.58	42186.21
469.94	42063.36
470.30	41856.55
470.66	41509.78
471.03	41006.82
471.39	40621.66
471.75	39892.39
472.11	39165.78
472.47	38648.75
472.84	38122.44
473.20	37411.08
473.56	37011.99
473.92	36448.16
474.28	35810.59
474.65	35157.12
475.01	34459.45
475.37	33624.86
475.73	32947.91
476.09	32241.70
476.45	31602.64
476.81	31050.72
477.18	30481.45
477.54	30002.20
477.90	29544.89
478.26	28950.23
478.62	28433.93
478.98	27998.96
479.34	27550.66
479.71	26997.59
480.07	26588.44
480.43	26146.69
480.79	25671.79
481.15	25188.54
481.51	24796.48
481.87	24440.20
482.23	24063.96
482.59	23740.97
482.96	23432.20
483.32	23128.17
483.68	22737.39
484.04	22381.70
484.40	21962.70
484.76	21507.77
485.12	21033.27
485.48	20606.68
485.84	20105.51
486.20	19669.84
486.56	19254.77
486.92	18880.12
487.28	18474.18
487.64	18068.00
488.00	17672.43
488.37	17265.34
488.73	16821.52
489.09	16351.08
489.45	15917.52
489.81	15456.45
490.17	15000.75
490.53	14599.77
490.89	14187.70
491.25	13775.90
491.61	13373.47
491.97	12977.40
492.33	12564.04
492.69	12211.04
493.05	11883.13
493.41	11564.12
493.77	11250.00
494.13	10954.41
494.49	10658.05
494.85	10362.63
495.21	10082.58
495.57	9809.21
495.93	9527.03
496.29	9266.70
496.64	9028.45
497.00	8773.52
497.36	8526.76
497.72	8287.65
498.08	8069.09
498.44	7835.58
498.80	7629.49
499.16	7424.88
499.52	7231.34
499.88	7041.15
500.24	6878.67
500.60	6710.18
500.96	6562.02
501.32	6407.45
501.68	6241.11
502.03	6060.79
502.39	5889.12
502.75	5707.61
503.11	5543.68
503.47	5397.67
503.83	5267.98
504.19	5149.11
504.55	5038.07
504.91	4930.48
505.26	4817.62
505.62	4698.88
505.98	4579.89
506.34	4454.65
506.70	4328.33
507.06	4216.03
507.42	4109.14
507.78	4011.70
508.13	3926.51
508.49	3849.22
508.85	3764.12
509.21	3685.34
509.57	3599.58
509.93	3512.07
510.28	3425.02
510.64	3340.34
511.00	3258.35
511.36	3182.66
511.72	3115.84
512.07	3054.38
512.43	2994.65
512.79	2935.97
513.15	2877.22
513.51	2816.06
513.86	2759.84
514.22	2708.66
514.58	2654.50
514.94	2608.64
515.30	2563.68
515.65	2514.18
516.01	2473.71
516.37	2431.00
516.73	2388.61
517.08	2348.66
517.44	2311.23
517.80	2264.02
518.16	2229.24
518.51	2193.57
518.87	2160.81
519.23	2128.74
519.59	2100.35
519.94	2070.27
520.30	2039.52
520.66	2006.40
521.01	1973.91
521.37	1943.60
521.73	1914.70
522.09	1887.38
522.44	1865.36
522.80	1847.53
523.16	1826.16
523.51	1804.18
523.87	1786.86
524.23	1764.97
524.58	1741.52
524.94	1725.63
525.30	1705.85
525.65	1684.90
526.01	1670.44
526.37	1655.41
526.72	1634.89
527.08	1615.34
527.44	1597.65
527.79	1577.12
528.15	1559.17
528.51	1546.11
528.86	1535.51
529.22	1520.90
529.58	1510.18
529.93	1495.13
530.29	1482.21
530.65	1467.16
531.00	1456.89
531.36	1443.13
531.71	1433.84
532.07	1422.06
532.43	1413.43
532.78	1403.88
533.14	1397.23
533.49	1387.96
533.85	1379.79
534.21	1371.91
534.56	1361.26
534.92	1351.80
535.27	1343.12
535.63	1336.17
535.98	1330.85
536.34	1325.42
536.69	1317.84
537.05	1310.47
537.41	1303.12
537.76	1292.82
538.12	1284.16
538.47	1276.72
538.83	1272.50
539.18	1266.70
539.54	1263.56
539.89	1260.50
540.25	1259.37
540.60	1254.25
540.96	1250.31
541.31	1246.08
541.67	1242.75
542.02	1236.97
542.38	1232.06
542.73	1232.10
543.09	1229.51
543.44	1224.64
543.80	1220.14
544.15	1217.48
544.51	1210.69
544.86	1205.19
545.22	1203.36
545.57	1198.49
545.93	1195.15
546.28	1193.93
546.64	1187.24
546.99	1184.22
547.35	1180.99
547.70	1176.82
548.05	1171.06
548.41	1175.11
548.76	1172.87
549.12	1172.58
549.47	1172.26
549.83	1171.02
550.18	1168.30
550.53	1165.96
550.89	1167.39
551.24	1164.21
551.60	1161.96
551.95	1158.89
552.30	1159.10
552.66	1151.29
553.01	1150.28
553.37	1148.22
553.72	1147.61
554.07	1145.32
554.43	1145.88
554.78	1144.05
555.13	1144.59
555.49	1140.15
555.84	1136.24
556.19	1134.46
556.55	1133.40
556.90	1130.57
557.26	1131.56
557.61	1133.26
557.96	1131.39
558.32	1129.85
558.67	1128.33
559.02	1127.16
559.37	1124.98
559.73	1124.44
560.08	1121.30
560.43	1123.01
560.79	1122.19
561.14	1121.09
561.49	1121.82
561.85	1126.97
562.20	1121.49
562.55	1116.72
562.90	1113.91
563.26	1114.40
563.61	1109.60
563.96	1111.87
564.32	1114.24
564.67	1113.91
565.02	1112.34
565.37	1112.74
565.73	1111.29
566.08	1109.95
566.43	1110.28
566.78	1112.08
567.14	1111.10
567.49	1109.65
567.84	1109.06
568.19	1109.30
568.54	1109.27
568.90	1110.87
569.25	1110.26
569.60	1110.23
569.95	1113.60
570.31	1110.84
570.66	1108.97
571.01	1110.51
571.36	1111.10
571.71	1107.82
572.06	1104.55
572.42	1105.44
572.77	1103.23
573.12	1103.19
573.47	1101.90
573.82	1103.21
574.18	1100.24
574.53	1100.43
574.88	1097.34
575.23	1096.63
575.58	1097.22
575.93	1093.57
576.28	1092.84
576.64	1095.23
576.99	1095.60
577.34	1096.21
577.69	1099.91
578.04	1098.41
578.39	1096.54
578.74	1093.55
579.09	1091.84
579.44	1090.90
579.80	1093.01
580.15	1092.28
580.50	1092.05
580.85	1091.74
581.20	1090.53
581.55	1088.49
581.90	1085.00
582.25	1086.22
582.60	1084.89
582.95	1085.12
583.30	1085.82
583.65	1091.25
584.00	1091.74
584.35	1093.43
584.71	1095.23
585.06	1094.06
585.41	1091.77
585.76	1092.56
586.11	1089.80
586.46	1090.69
586.81	1091.20
587.16	1091.11
587.51	1089.87
587.86	1090.10
588.21	1090.99
588.56	1092.12
588.91	1092.07
589.26	1091.88
589.61	1092.77
589.96	1089.64
590.31	1091.13
590.66	1092.09
591.01	1089.73
591.36	1091.49
591.71	1091.63
592.06	1091.77
592.41	1092.73
592.76	1092.96
593.10	1089.85
593.45	1091.32
593.80	1090.43
594.15	1092.80
594.50	1093.03
594.85	1095.60
595.20	1096.14
595.55	1094.22
595.90	1090.55
596.25	1092.37
596.60	1091.20
596.95	1090.62
597.30	1090.97
597.64	1103.84
597.99	1104.15
598.34	1102.65
598.69	1100.80
599.04	1100.05
599.39	1085.24
599.74	1084.44
600.09	1086.69
600.44	1087.48
600.78	1088.63
601.13	1088.47
601.48	1088.54
601.83	1086.29
602.18	1085.21
602.53	1088.63
602.88	1090.32
603.22	1088.79
603.57	1089.52
603.92	1090.85
604.27	1087.90
604.62	1084.16
604.97	1082.83
605.31	1081.54
605.66	1080.51
606.01	1078.26
606.36	1081.05
606.71	1085.03
607.05	1087.65
607.40	1087.37
607.75	1090.20
608.10	1089.19
608.44	1085.33
608.79	1083.90
609.14	1082.99
609.49	1082.76
609.84	1082.57
610.18	1085.19
610.53	1084.56
610.88	1087.76
611.23	1086.73
611.57	1088.19
611.92	1088.82
612.27	1088.98
612.62	1088.63
612.96	1087.93
613.31	1090.20
613.66	1088.00
614.00	1090.85
614.35	1089.54
614.70	1091.51
615.05	1086.99
615.39	1086.36
615.74	1085.26
616.09	1082.87
616.43	1078.33
616.78	1082.17
617.13	1087.13
617.47	1089.75
617.82	1092.96
618.17	1098.65
618.51	1097.83
618.86	1094.55
619.21	1089.99
619.55	1088.72
619.90	1087.62
620.25	1086.78
620.59	1083.67
620.94	1085.14
621.29	1086.71
621.63	1084.58
621.98	1084.74
622.32	1085.70
622.67	1086.29
623.02	1085.75
623.36	1085.07
623.71	1085.47
624.05	1086.78
624.40	1083.55
624.75	1079.99
625.09	1082.38
625.44	1079.71
625.78	1080.37
626.13	1081.14
626.48	1082.26
626.82	1080.72
627.17	1080.48
627.51	1082.33
627.86	1084.49
628.20	1085.56
628.55	1083.62
628.89	1085.38
629.24	1084.70
629.58	1084.89
629.93	1085.99
630.28	1088.33
630.62	1089.10
630.97	1087.90
631.31	1085.54
631.66	1086.34
632.00	1086.57
632.35	1087.88
632.69	1089.59
633.04	1089.96
633.38	1089.36
633.73	1090.57
634.07	1088.09
634.42	1085.28
634.76	1084.81
635.11	1083.86
635.45	1080.98
635.79	1081.61
636.14	1082.36
636.48	1083.36
636.83	1080.86
637.17	1082.38
637.52	1080.81
637.86	1078.45
638.21	1076.95
638.55	1079.13
638.89	1077.93
639.24	1081.00
639.58	1082.87
639.93	1083.41
640.27	1082.01
640.61	1082.99
640.96	1082.01
641.30	1084.14
641.65	1086.69
641.99	1085.91
642.33	1085.05
642.68	1082.52
643.02	1080.60
643.37	1079.69
643.71	1080.70
644.05	1080.04
644.40	1082.97
644.74	1080.56
645.08	1079.60
645.43	1079.34
645.77	1081.09
646.11	1080.11
646.46	1080.88
646.80	1082.92
647.14	1084.35
647.49	1083.90
647.83	1082.94
648.17	1085.52
648.52	1086.03
648.86	1087.04
649.20	1087.48
649.55	1087.23
649.89	1084.49
650.23	1081.21
650.57	1082.78
650.92	1082.90
651.26	1082.24
651.60	1082.87
651.95	1082.71
652.29	1078.99
652.63	1078.50
652.97	1083.08
653.32	1085.91
653.66	1087.06
654.00	1090.50
654.34	1090.60
654.69	1087.27
655.03	1083.41
655.37	1079.57
655.71	1076.69
656.05	1075.50
656.40	1077.37
656.74	1078.73
657.08	1080.56
657.42	1081.26
657.76	1080.93
658.11	1081.09
658.45	1083.88
658.79	1087.13
659.13	1089.05
659.47	1092.56
659.82	1087.95
660.16	1083.43
660.50	1080.63
660.84	1079.34
661.18	1077.47
661.52	1081.09
661.87	1083.74
662.21	1087.34
662.55	1086.08
662.89	1083.69
663.23	1083.67
663.57	1082.66
663.91	1081.49
664.25	1082.15
664.60	1082.10
664.94	1081.21
665.28	1081.80
665.62	1078.50
665.96	1077.79
666.30	1078.14
666.64	1078.89
666.98	1079.22
667.32	1081.73
667.66	1081.26
668.01	1084.37
668.35	1085.66
668.69	1087.37
669.03	1086.92
669.37	1085.61
669.71	1080.98
670.05	1080.11
670.39	1078.89
670.73	1076.18
671.07	1078.71
671.41	1081.89
671.75	1079.62
672.09	1078.87
672.43	1078.87
672.77	1076.81
673.11	1075.97
673.45	1076.79
673.79	1078.28
674.13	1082.78
674.47	1083.27
674.81	1082.52
675.15	1084.00
675.49	1081.58
675.83	1079.92
676.17	1079.69
676.51	1078.85
676.85	1076.48
677.19	1076.97
677.53	1077.11
677.87	1075.90
678.21	1078.12
678.55	1077.86
678.89	1078.07
679.23	1077.14
679.57	1076.81
679.90	1077.86
680.24	1078.68
680.58	1075.62
680.92	1075.90
681.26	1078.75
681.60	1076.83
681.94	1077.54
682.28	1080.23
682.62	1081.30
682.96	1080.67
683.29	1079.36
683.63	1079.15
683.97	1078.00
684.31	1079.29
684.65	1079.69
684.99	1082.66
685.33	1083.50
685.67	1083.60
686.00	1082.87
686.34	1083.20
686.68	1084.21
687.02	1083.79
687.36	1085.35
687.70	1082.24
688.03	1083.13
688.37	1079.46
688.71	1079.27
689.05	1077.86
689.39	1079.17
689.72	1075.15
690.06	1075.31
690.40	1074.17
690.74	1072.41
691.08	1075.48
691.41	1076.90
691.75	1078.00
692.09	1081.51
692.43	1085.94
692.76	1083.18
693.10	1084.89
693.44	1084.72
693.78	1080.70
694.11	1079.71
694.45	1080.65
694.79	1080.51
695.13	1079.90
695.46	1081.30
695.80	1083.50
696.14	1082.15
696.48	1081.61
696.81	1077.75
697.15	1082.12
697.49	1081.07
697.82	1082.80
698.16	1081.51
698.50	1086.20
698.83	1079.38
699.17	1075.85
699.51	1073.37
699.84	1074.14
700.18	1072.11
700.52	1073.18
700.85	1075.08
701.19	1076.06
701.53	1077.79
701.86	1081.14
702.20	1082.12
702.54	1080.79
702.87	1080.02
703.21	1078.28
703.55	1077.25
703.88	1078.59
704.22	1078.66
704.55	1082.08
704.89	1080.79
705.23	1081.56
705.56	1081.89
705.90	1084.98
706.23	1083.18
706.57	1086.20
706.91	1084.65
707.24	1084.70
707.58	1083.64
707.91	1083.46
708.25	1079.83
708.58	1076.79
708.92	1073.70
709.26	1074.21
709.59	1076.81
709.93	1079.97
710.26	1082.43
710.60	1085.75
710.93	1081.75
711.27	1079.97
711.60	1079.13
711.94	1078.40
712.27	1074.77
712.61	1078.07
712.94	1078.31
713.28	1077.89
713.61	1080.11
713.95	1081.35
714.28	1080.86
714.62	1078.17
714.95	1079.85
715.29	1079.71
715.62	1081.12
715.96	1082.52
716.29	1083.90
716.63	1082.61
716.96	1080.09
717.29	1077.21
717.63	1075.24
717.96	1076.18
718.30	1077.91
718.63	1080.70
718.97	1083.60
719.30	1084.04
719.63	1086.90
719.97	1083.41
720.30	1084.00
720.64	1083.57
720.97	1084.46
721.30	1081.14
721.64	1084.37
721.97	1082.36
722.31	1081.51
722.64	1079.60
722.97	1079.13
723.31	1077.51
723.64	1080.48
723.97	1082.87
724.31	1085.77
724.64	1085.33
724.98	1085.70
725.31	1084.70
725.64	1086.57
725.98	1084.72
726.31	1086.85
726.64	1088.70
726.97	1086.13
727.31	1084.98
727.64	1083.69
727.97	1082.45
728.31	1080.20
728.64	1080.70
728.97	1079.24
729.31	1080.44
729.64	1079.31
729.97	1082.61
730.30	1082.83
730.64	1080.30
730.97	1082.43
731.30	1081.00
731.63	1077.21
731.97	1076.67
732.30	1078.10
732.63	1075.55
732.96	1078.03
733.30	1080.16
733.63	1081.33
733.96	1082.45
734.29	1082.99
734.63	1079.81
734.96	1079.06
735.29	1077.79
735.62	1075.83
735.95	1073.00
736.29	1074.84
736.62	1074.63
736.95	1075.50
737.28	1075.83
737.61	1078.75
737.94	1079.36
738.28	1080.18
738.61	1082.15
738.94	1082.66
739.27	1081.44
739.60	1080.39
739.93	1078.87
740.27	1078.50
740.60	1082.52
740.93	1084.11
741.26	1084.93
741.59	1085.66
741.92	1083.22
742.25	1081.44
742.58	1082.83
742.91	1084.58
743.25	1082.22
743.58	1086.08
743.91	1083.95
744.24	1084.72
744.57	1082.43
744.90	1081.87
745.23	1078.05
745.56	1080.81
745.89	1078.66
746.22	1079.67
746.55	1081.44
746.88	1083.86
747.21	1080.98
747.54	1081.30
747.87	1081.84
748.20	1084.04
748.53	1083.60
748.87	1084.02
749.20	1085.91
749.53	1084.04
749.86	1081.58
750.19	1080.32
750.52	1080.56
750.85	1077.63
751.18	1076.79
751.51	1079.50
751.84	1081.51
752.16	1082.94
752.49	1083.43
752.82	1085.54
753.15	1085.05
753.48	1081.44
753.81	1078.85
754.14	1080.74
754.47	1082.47
754.80	1081.49
755.13	1084.32
755.46	1086.29
755.79	1084.60
756.12	1085.35
756.45	1085.73
756.78	1085.14
757.11	1083.15
757.43	1081.30
757.76	1079.48
758.09	1075.90
758.42	1075.27
758.75	1078.50
759.08	1079.53
759.41	1079.10
759.74	1084.02
760.07	1085.77
760.39	1081.47
760.72	1082.17
761.05	1082.10
761.38	1081.51
761.71	1082.61
762.04	1085.52
762.36	1086.34
762.69	1085.54
763.02	1084.70
763.35	1079.95
763.68	1077.54
