SpectraSuite Data File
++++++++++++++++++++++++++++++++++++
Date: Mon Aug 26 10:21:52 PDT 2019
User: corrico
Dark Spectrum Present: No
Reference Spectrum Present: No
Number of Sampled Component Spectra: 1
Spectrometers: USB2+H06089
Integration Time (usec): 2000 (USB2+H06089)
Spectra Averaged: 20 (USB2+H06089)
Boxcar Smoothing: 2 (USB2+H06089)
Correct for Electrical Dark: No (USB2+H06089)
Strobe/Lamp Enabled: No (USB2+H06089)
Correct for Detector Non-linearity: No (USB2+H06089)
Correct for Stray Light: No (USB2+H06089)
Number of Pixels in Processed Spectrum: 2048
>>>>>Begin Processed Spectral Data<<<<<
339.70	1029.72
340.07	1029.72
340.45	991.97
340.82	969.64
341.19	944.01
341.57	914.99
341.94	905.90
342.31	898.95
342.69	896.87
343.06	897.06
343.43	898.65
343.81	897.31
344.18	901.60
344.55	901.18
344.93	902.67
345.30	907.85
345.67	913.53
346.04	920.51
346.42	926.97
346.79	937.13
347.16	945.95
347.54	959.03
347.91	968.33
348.28	979.16
348.65	989.32
349.03	998.03
349.40	1003.18
349.77	1006.64
350.14	1014.72
350.52	1018.74
350.89	1026.35
351.26	1032.57
351.63	1041.75
352.01	1048.26
352.38	1051.65
352.75	1059.02
353.12	1062.84
353.50	1064.24
353.87	1066.14
354.24	1071.80
354.61	1067.59
354.98	1066.11
355.36	1069.30
355.73	1068.59
356.10	1070.28
356.47	1074.98
356.84	1076.25
357.22	1075.66
357.59	1075.20
357.96	1074.14
358.33	1070.35
358.70	1072.15
359.08	1071.38
359.45	1072.60
359.82	1072.41
360.19	1073.14
360.56	1069.93
360.94	1067.24
361.31	1066.98
361.68	1062.79
362.05	1062.39
362.42	1062.95
362.79	1065.65
363.16	1065.74
363.54	1068.74
363.91	1068.43
364.28	1068.34
364.65	1068.13
365.02	1069.41
365.39	1066.07
365.76	1065.55
366.14	1065.81
366.51	1064.78
366.88	1061.46
367.25	1060.38
367.62	1060.31
367.99	1060.87
368.36	1057.08
368.73	1058.09
369.10	1059.23
369.48	1059.26
369.85	1053.52
370.22	1059.58
370.59	1061.22
370.96	1061.85
371.33	1060.71
371.70	1065.13
372.07	1062.88
372.44	1060.24
372.81	1062.18
373.18	1064.26
373.55	1065.48
373.93	1064.71
374.30	1068.45
374.67	1065.81
375.04	1067.99
375.41	1066.21
375.78	1069.55
376.15	1068.38
376.52	1068.57
376.89	1066.72
377.26	1067.19
377.63	1066.07
378.00	1063.19
378.37	1065.34
378.74	1064.03
379.11	1064.64
379.48	1061.62
379.85	1061.71
380.22	1060.08
380.59	1059.91
380.96	1061.08
381.33	1062.60
381.70	1061.53
382.07	1059.65
382.44	1056.35
382.81	1058.30
383.18	1058.60
383.55	1058.23
383.92	1064.92
384.29	1069.25
384.66	1066.47
385.03	1065.29
385.40	1067.45
385.77	1066.49
386.14	1068.92
386.51	1071.03
386.88	1071.61
387.25	1073.58
387.62	1072.64
387.99	1069.48
388.36	1069.70
388.73	1070.56
389.10	1066.00
389.46	1062.16
389.83	1062.30
390.20	1061.53
390.57	1062.58
390.94	1066.72
391.31	1071.26
391.68	1070.40
392.05	1069.02
392.42	1070.14
392.79	1069.79
393.16	1064.92
393.53	1067.14
393.89	1066.21
394.26	1064.59
394.63	1062.49
395.00	1067.31
395.37	1068.83
395.74	1069.88
396.11	1069.41
396.48	1072.22
396.84	1068.95
397.21	1068.43
397.58	1072.78
397.95	1070.70
398.32	1068.81
398.69	1072.43
399.06	1070.51
399.42	1068.67
399.79	1072.57
400.16	1074.17
400.53	1072.41
400.90	1075.10
401.27	1072.64
401.64	1072.57
402.00	1072.53
402.37	1071.92
402.74	1070.61
403.11	1072.64
403.48	1071.22
403.84	1068.52
404.21	1071.29
404.58	1070.63
404.95	1068.83
405.32	1067.92
405.68	1067.17
406.05	1066.70
406.42	1068.41
406.79	1069.72
407.16	1070.89
407.52	1074.70
407.89	1072.81
408.26	1074.24
408.63	1074.54
408.99	1078.45
409.36	1076.76
409.73	1077.89
410.10	1074.07
410.47	1073.21
410.83	1071.31
411.20	1071.94
411.57	1073.79
411.94	1074.56
412.30	1075.27
412.67	1072.55
413.04	1075.08
413.40	1073.02
413.77	1074.07
414.14	1074.19
414.51	1075.50
414.87	1072.20
415.24	1070.82
415.61	1070.56
415.97	1070.56
416.34	1074.59
416.71	1076.81
417.08	1078.96
417.44	1077.61
417.81	1076.62
418.18	1074.77
418.54	1073.04
418.91	1074.98
419.28	1076.58
419.64	1076.93
420.01	1077.23
420.38	1081.26
420.74	1079.20
421.11	1079.60
421.48	1080.25
421.84	1080.37
422.21	1079.57
422.58	1078.66
422.94	1080.30
423.31	1082.33
423.68	1079.46
424.04	1078.94
424.41	1078.14
424.77	1077.96
425.14	1080.51
425.51	1080.60
425.87	1079.34
426.24	1084.79
426.61	1084.93
426.97	1083.53
427.34	1087.69
427.70	1089.38
428.07	1086.73
428.44	1085.89
428.80	1085.75
429.17	1084.04
429.53	1085.12
429.90	1085.40
430.27	1087.39
430.63	1085.94
431.00	1089.33
431.36	1092.02
431.73	1094.48
432.09	1096.63
432.46	1098.20
432.83	1099.65
433.19	1098.88
433.56	1098.06
433.92	1101.60
434.29	1107.75
434.65	1108.08
435.02	1111.94
435.38	1117.72
435.75	1115.90
436.11	1116.30
436.48	1120.77
436.84	1125.70
437.21	1128.33
437.57	1131.79
437.94	1137.95
438.30	1142.13
438.67	1143.40
439.03	1151.19
439.40	1160.70
439.76	1166.41
440.13	1172.44
440.49	1181.64
440.86	1185.32
441.22	1192.25
441.59	1196.69
441.95	1201.84
442.32	1208.75
442.68	1217.94
443.05	1227.03
443.41	1238.31
443.78	1251.84
444.14	1258.01
444.51	1269.67
444.87	1281.33
445.24	1293.43
445.60	1306.79
445.96	1324.84
446.33	1341.92
446.69	1357.77
447.06	1373.47
447.42	1390.18
447.79	1408.07
448.15	1427.02
448.51	1444.11
448.88	1468.83
449.24	1488.86
449.61	1513.18
449.97	1537.12
450.33	1571.39
450.70	1596.01
451.06	1627.94
451.43	1656.68
451.79	1692.25
452.15	1723.20
452.52	1765.28
452.88	1805.68
453.24	1853.68
453.61	1899.27
453.97	1947.79
454.34	1990.39
454.70	2043.36
455.06	2085.60
455.43	2132.84
455.79	2177.87
456.15	2235.77
456.52	2287.64
456.88	2361.23
457.24	2432.92
457.61	2515.23
457.97	2587.67
458.33	2664.96
458.70	2730.56
459.06	2798.84
459.42	2872.09
459.79	2939.57
460.15	3013.28
460.51	3090.12
460.88	3163.61
461.24	3224.67
461.60	3304.51
461.96	3378.28
462.33	3451.87
462.69	3517.94
463.05	3594.78
463.42	3655.85
463.78	3713.12
464.14	3766.93
464.50	3839.11
464.87	3885.52
465.23	3920.61
465.59	3951.85
465.95	3976.83
466.32	3987.97
466.68	4009.43
467.04	4038.43
467.40	4060.17
467.77	4071.29
468.13	4067.73
468.49	4061.20
468.85	4052.90
469.22	4046.72
469.58	4033.40
469.94	4027.92
470.30	4003.42
470.66	3964.82
471.03	3920.80
471.39	3898.07
471.75	3842.74
472.11	3794.55
472.47	3761.12
472.84	3718.62
473.20	3656.95
473.56	3620.62
473.92	3579.50
474.28	3537.39
474.65	3500.62
475.01	3464.67
475.37	3418.77
475.73	3377.53
476.09	3329.06
476.45	3281.88
476.81	3243.09
477.18	3213.30
477.54	3189.31
477.90	3164.80
478.26	3133.04
478.62	3097.56
478.98	3060.74
479.34	3031.20
479.71	3005.29
480.07	2980.72
480.43	2954.39
480.79	2934.61
481.15	2898.92
481.51	2858.22
481.87	2827.65
482.23	2801.41
482.59	2770.96
482.96	2742.97
483.32	2722.46
483.68	2695.57
484.04	2668.73
484.40	2642.82
484.76	2621.42
485.12	2596.15
485.48	2574.50
485.84	2554.60
486.20	2526.87
486.56	2495.48
486.92	2471.68
487.28	2439.38
487.64	2404.50
488.00	2373.65
488.37	2345.15
488.73	2307.96
489.09	2276.78
489.45	2246.38
489.81	2217.35
490.17	2187.65
490.53	2156.27
490.89	2124.76
491.25	2091.67
491.61	2058.41
491.97	2029.81
492.33	2008.60
492.69	1988.80
493.05	1962.00
493.41	1938.85
493.77	1908.78
494.13	1879.57
494.49	1854.41
494.85	1834.23
495.21	1817.12
495.57	1804.65
495.93	1785.17
496.29	1762.56
496.64	1745.27
497.00	1724.20
497.36	1704.82
497.72	1685.72
498.08	1667.66
498.44	1651.08
498.80	1634.91
499.16	1619.56
499.52	1604.95
499.88	1594.37
500.24	1577.61
500.60	1562.49
500.96	1544.26
501.32	1530.99
501.68	1514.28
502.03	1503.51
502.39	1491.37
502.75	1480.60
503.11	1470.28
503.47	1460.73
503.83	1451.67
504.19	1437.81
504.55	1430.30
504.91	1421.20
505.26	1411.25
505.62	1394.96
505.98	1383.89
506.34	1372.16
506.70	1361.16
507.06	1352.10
507.42	1346.49
507.78	1341.76
508.13	1334.15
508.49	1326.66
508.85	1320.02
509.21	1315.17
509.57	1308.83
509.93	1301.24
510.28	1293.64
510.64	1284.79
511.00	1275.31
511.36	1265.41
511.72	1259.91
512.07	1256.28
512.43	1249.64
512.79	1242.36
513.15	1237.75
513.51	1228.34
513.86	1219.61
514.22	1217.31
514.58	1216.80
514.94	1211.39
515.30	1206.85
515.65	1202.80
516.01	1197.61
516.37	1191.85
516.73	1190.89
517.08	1190.82
517.44	1189.23
517.80	1187.75
518.16	1181.29
518.51	1177.08
518.87	1172.56
519.23	1168.89
519.59	1162.85
519.94	1162.52
520.30	1159.06
520.66	1159.95
521.01	1161.72
521.37	1163.27
521.73	1161.72
522.09	1158.03
522.44	1154.68
522.80	1148.62
523.16	1143.38
523.51	1144.08
523.87	1146.02
524.23	1142.35
524.58	1140.80
524.94	1138.09
525.30	1132.59
525.65	1128.77
526.01	1124.35
526.37	1121.65
526.72	1120.65
527.08	1121.98
527.44	1116.90
527.79	1119.06
528.15	1117.93
528.51	1115.71
528.86	1112.43
529.22	1114.70
529.58	1111.08
529.93	1109.65
530.29	1110.96
530.65	1110.56
531.00	1108.38
531.36	1110.51
531.71	1111.03
532.07	1107.19
532.43	1105.08
532.78	1103.75
533.14	1101.15
533.49	1100.99
533.85	1105.90
534.21	1104.55
534.56	1104.45
534.92	1101.62
535.27	1100.03
535.63	1093.92
535.98	1091.84
536.34	1094.76
536.69	1096.73
537.05	1096.99
537.41	1096.49
537.76	1098.79
538.12	1095.70
538.47	1094.29
538.83	1093.05
539.18	1092.87
539.54	1092.91
539.89	1089.85
540.25	1092.42
540.60	1089.87
540.96	1088.33
541.31	1085.56
541.67	1087.39
542.02	1085.10
542.38	1084.63
542.73	1087.81
543.09	1088.68
543.44	1085.82
543.80	1090.92
544.15	1092.96
544.51	1090.64
544.86	1091.27
545.22	1092.84
545.57	1088.65
545.93	1088.35
546.28	1088.56
546.64	1087.60
546.99	1089.26
547.35	1086.87
547.70	1083.79
548.05	1080.98
548.41	1079.41
548.76	1079.34
549.12	1078.43
549.47	1081.56
549.83	1084.35
550.18	1084.89
550.53	1082.19
550.89	1086.10
551.24	1087.27
551.60	1086.45
551.95	1086.31
552.30	1087.93
552.66	1086.43
553.01	1085.66
553.37	1083.83
553.72	1084.63
554.07	1082.15
554.43	1079.85
554.78	1079.71
555.13	1082.61
555.49	1085.07
555.84	1086.57
556.19	1086.71
556.55	1084.65
556.90	1084.86
557.26	1078.82
557.61	1077.21
557.96	1077.09
558.32	1080.02
558.67	1077.02
559.02	1080.04
559.37	1078.94
559.73	1079.99
560.08	1080.37
560.43	1080.70
560.79	1084.28
561.14	1086.55
561.49	1084.46
561.85	1083.18
562.20	1083.27
562.55	1078.14
562.90	1079.83
563.26	1083.46
563.61	1081.12
563.96	1082.47
564.32	1083.95
564.67	1083.06
565.02	1080.06
565.37	1082.31
565.73	1080.91
566.08	1078.82
566.43	1078.21
566.78	1078.38
567.14	1078.31
567.49	1078.36
567.84	1079.50
568.19	1078.10
568.54	1075.87
568.90	1072.71
569.25	1074.82
569.60	1075.57
569.95	1074.77
570.31	1076.37
570.66	1075.27
571.01	1070.49
571.36	1069.53
571.71	1071.87
572.06	1073.35
572.42	1076.32
572.77	1079.83
573.12	1081.44
573.47	1082.15
573.82	1080.11
574.18	1079.81
574.53	1080.13
574.88	1080.37
575.23	1079.48
575.58	1080.06
575.93	1079.29
576.28	1077.58
576.64	1075.92
576.99	1077.47
577.34	1077.14
577.69	1076.83
578.04	1075.41
578.39	1073.74
578.74	1072.62
579.09	1073.53
579.44	1073.07
579.80	1073.23
580.15	1078.47
580.50	1076.34
580.85	1076.62
581.20	1074.63
581.55	1077.49
581.90	1075.34
582.25	1080.25
582.60	1080.30
582.95	1082.33
583.30	1079.64
583.65	1079.99
584.00	1077.16
584.35	1078.68
584.71	1079.43
585.06	1084.28
585.41	1083.79
585.76	1083.69
586.11	1082.43
586.46	1084.60
586.81	1081.16
587.16	1081.68
587.51	1082.52
587.86	1083.04
588.21	1078.85
588.56	1079.74
588.91	1080.30
589.26	1076.65
589.61	1076.01
589.96	1082.99
590.31	1081.54
590.66	1079.64
591.01	1083.06
591.36	1082.85
591.71	1075.52
592.06	1075.85
592.41	1078.61
592.76	1077.98
593.10	1080.16
593.45	1083.18
593.80	1084.23
594.15	1082.05
594.50	1082.31
594.85	1078.82
595.20	1075.87
595.55	1075.01
595.90	1073.46
596.25	1071.40
596.60	1071.99
596.95	1076.62
597.30	1079.99
597.64	1092.28
597.99	1092.35
598.34	1094.20
598.69	1092.84
599.04	1088.21
599.39	1076.74
599.74	1080.72
600.09	1077.84
600.44	1076.06
600.78	1075.45
601.13	1073.93
601.48	1071.08
601.83	1071.29
602.18	1073.00
602.53	1074.47
602.88	1076.93
603.22	1075.64
603.57	1076.37
603.92	1076.86
604.27	1075.59
604.62	1072.95
604.97	1071.26
605.31	1070.96
605.66	1067.47
606.01	1069.20
606.36	1072.18
606.71	1076.48
607.05	1076.79
607.40	1079.03
607.75	1079.55
608.10	1079.60
608.44	1075.80
608.79	1074.35
609.14	1075.85
609.49	1078.03
609.84	1078.10
610.18	1080.16
610.53	1083.79
610.88	1082.59
611.23	1080.16
611.57	1079.74
611.92	1081.16
612.27	1078.40
612.62	1078.80
612.96	1080.39
613.31	1077.86
613.66	1075.90
614.00	1075.73
614.35	1074.45
614.70	1072.57
615.05	1074.91
615.39	1078.59
615.74	1078.33
616.09	1075.87
616.43	1076.88
616.78	1076.86
617.13	1074.89
617.47	1073.44
617.82	1075.36
618.17	1073.32
618.51	1074.38
618.86	1073.65
619.21	1075.45
619.55	1080.11
619.90	1082.69
620.25	1080.56
620.59	1079.50
620.94	1079.38
621.29	1075.10
621.63	1070.80
621.98	1071.17
622.32	1070.80
622.67	1073.67
623.02	1074.49
623.36	1074.17
623.71	1075.24
624.05	1077.89
624.40	1076.72
624.75	1077.02
625.09	1079.60
625.44	1076.20
625.78	1069.60
626.13	1068.81
626.48	1067.49
626.82	1067.96
627.17	1068.85
627.51	1073.79
627.86	1072.88
628.20	1073.79
628.55	1072.34
628.89	1074.96
629.24	1077.16
629.58	1077.91
629.93	1075.59
630.28	1076.55
630.62	1075.05
630.97	1073.58
631.31	1073.72
631.66	1077.04
632.00	1075.50
632.35	1075.78
632.69	1075.31
633.04	1076.01
633.38	1075.13
633.73	1076.97
634.07	1077.65
634.42	1078.80
634.76	1078.38
635.11	1079.24
635.45	1081.98
635.79	1080.88
636.14	1078.54
636.48	1078.40
636.83	1079.50
637.17	1078.43
637.52	1080.34
637.86	1082.03
638.21	1083.86
638.55	1083.27
638.89	1081.09
639.24	1079.81
639.58	1080.58
639.93	1081.42
640.27	1078.68
640.61	1081.33
640.96	1084.81
641.30	1083.53
641.65	1081.87
641.99	1081.73
642.33	1077.72
642.68	1073.44
643.02	1074.94
643.37	1076.51
643.71	1075.71
644.05	1079.01
644.40	1078.14
644.74	1076.79
645.08	1072.34
645.43	1075.03
645.77	1074.33
646.11	1076.60
646.46	1076.46
646.80	1076.46
647.14	1072.97
647.49	1073.51
647.83	1072.60
648.17	1072.41
648.52	1073.42
648.86	1074.96
649.20	1075.34
649.55	1072.29
649.89	1074.21
650.23	1077.40
650.57	1077.33
650.92	1075.90
651.26	1080.32
651.60	1079.99
651.95	1077.09
652.29	1075.99
652.63	1073.42
652.97	1070.47
653.32	1072.01
653.66	1069.55
654.00	1068.74
654.34	1072.48
654.69	1075.52
655.03	1072.27
655.37	1079.34
655.71	1082.47
656.05	1080.93
656.40	1079.92
656.74	1078.68
657.08	1076.11
657.42	1077.93
657.76	1079.92
658.11	1080.37
658.45	1081.73
658.79	1080.27
659.13	1079.85
659.47	1078.82
659.82	1076.27
660.16	1077.35
660.50	1075.90
660.84	1071.90
661.18	1070.40
661.52	1068.41
661.87	1065.69
662.21	1068.57
662.55	1069.53
662.89	1068.78
663.23	1071.90
663.57	1071.94
663.91	1070.68
664.25	1072.41
664.60	1071.85
664.94	1072.92
665.28	1072.13
665.62	1075.17
665.96	1072.95
666.30	1074.49
666.64	1072.85
666.98	1076.51
667.32	1072.57
667.66	1073.74
668.01	1074.05
668.35	1072.83
668.69	1070.51
669.03	1072.88
669.37	1071.66
669.71	1070.77
670.05	1074.05
670.39	1074.49
670.73	1072.74
671.07	1074.49
671.41	1077.75
671.75	1077.86
672.09	1078.96
672.43	1079.53
672.77	1076.86
673.11	1072.71
673.45	1071.05
673.79	1068.55
674.13	1067.87
674.47	1070.21
674.81	1072.15
675.15	1071.15
675.49	1073.18
675.83	1072.57
676.17	1071.85
676.51	1071.71
676.85	1071.92
677.19	1072.08
677.53	1072.76
677.87	1073.51
678.21	1073.77
678.55	1070.98
678.89	1070.33
679.23	1067.96
679.57	1067.61
679.90	1067.28
680.24	1069.72
680.58	1065.97
680.92	1068.31
681.26	1069.65
681.60	1067.73
681.94	1068.88
682.28	1071.82
682.62	1068.55
682.96	1063.75
683.29	1063.89
683.63	1064.78
683.97	1065.58
684.31	1069.79
684.65	1072.36
684.99	1072.01
685.33	1070.68
685.67	1070.68
686.00	1070.54
686.34	1071.47
686.68	1072.25
687.02	1074.28
687.36	1075.50
687.70	1073.07
688.03	1070.98
688.37	1073.25
688.71	1072.60
689.05	1074.61
689.39	1078.80
689.72	1080.30
690.06	1080.79
690.40	1078.80
690.74	1075.41
691.08	1072.67
691.41	1070.98
691.75	1072.04
692.09	1075.55
692.43	1074.21
692.76	1072.08
693.10	1073.91
693.44	1070.51
693.78	1065.83
694.11	1065.53
694.45	1070.72
694.79	1071.12
695.13	1073.28
695.46	1077.56
695.80	1080.30
696.14	1076.72
696.48	1079.95
696.81	1079.78
697.15	1078.87
697.49	1080.51
697.82	1080.56
698.16	1079.48
698.50	1078.47
698.83	1075.38
699.17	1075.52
699.51	1077.56
699.84	1077.49
700.18	1081.51
700.52	1085.54
700.85	1083.29
701.19	1080.51
701.53	1078.73
701.86	1075.15
702.20	1071.87
702.54	1074.89
702.87	1076.90
703.21	1077.25
703.55	1079.01
703.88	1080.60
704.22	1077.93
704.55	1075.55
704.89	1075.83
705.23	1072.83
705.56	1073.42
705.90	1073.79
706.23	1077.35
706.57	1075.45
706.91	1075.13
707.24	1072.46
707.58	1074.38
707.91	1071.26
708.25	1072.57
708.58	1072.15
708.92	1076.67
709.26	1074.26
709.59	1075.73
709.93	1074.96
710.26	1076.95
710.60	1073.44
710.93	1072.39
711.27	1072.62
711.60	1075.05
711.94	1074.75
712.27	1073.86
712.61	1076.48
712.94	1075.50
713.28	1073.11
713.61	1072.64
713.95	1074.66
714.28	1074.49
714.62	1072.78
714.95	1075.31
715.29	1077.16
715.62	1076.74
715.96	1076.27
716.29	1077.98
716.63	1079.08
716.96	1077.28
717.29	1077.61
717.63	1075.69
717.96	1074.40
718.30	1074.68
718.63	1074.12
718.97	1072.88
719.30	1071.61
719.63	1074.94
719.97	1071.29
720.30	1074.17
720.64	1073.86
720.97	1075.10
721.30	1076.11
721.64	1076.67
721.97	1074.75
722.31	1078.57
722.64	1080.39
722.97	1079.64
723.31	1080.16
723.64	1078.82
723.97	1074.31
724.31	1076.25
724.64	1071.54
724.98	1071.08
725.31	1075.27
725.64	1077.25
725.98	1075.15
726.31	1078.87
726.64	1079.36
726.97	1079.55
727.31	1081.30
727.64	1079.48
727.97	1081.05
728.31	1082.22
728.64	1080.84
728.97	1079.43
729.31	1077.40
729.64	1074.84
729.97	1073.23
730.30	1072.48
730.64	1072.64
730.97	1074.73
731.30	1075.41
731.63	1073.21
731.97	1070.96
732.30	1069.95
732.63	1068.76
732.96	1070.91
733.30	1074.84
733.63	1075.62
733.96	1076.11
734.29	1078.45
734.63	1077.11
734.96	1075.85
735.29	1074.96
735.62	1074.59
735.95	1077.56
736.29	1077.04
736.62	1078.21
736.95	1080.56
737.28	1079.81
737.61	1076.95
737.94	1076.90
738.28	1076.67
738.61	1078.68
738.94	1080.02
739.27	1080.11
739.60	1079.38
739.93	1076.93
740.27	1075.57
740.60	1072.06
740.93	1071.26
741.26	1071.19
741.59	1073.18
741.92	1073.02
742.25	1076.58
742.58	1075.38
742.91	1074.84
743.25	1071.29
743.58	1071.24
743.91	1069.67
744.24	1071.31
744.57	1070.54
744.90	1075.08
745.23	1074.68
745.56	1077.02
745.89	1075.78
746.22	1079.36
746.55	1074.94
746.88	1073.25
747.21	1074.12
747.54	1076.13
747.87	1077.30
748.20	1078.24
748.53	1078.50
748.87	1078.36
749.20	1078.99
749.53	1074.56
749.86	1075.15
750.19	1076.90
750.52	1075.59
750.85	1075.05
751.18	1076.41
751.51	1076.97
751.84	1076.04
752.16	1074.59
752.49	1072.69
752.82	1069.55
753.15	1066.91
753.48	1068.08
753.81	1070.12
754.14	1073.30
754.47	1075.55
754.80	1079.53
755.13	1075.24
755.46	1075.73
755.79	1074.80
756.12	1077.93
756.45	1076.53
756.78	1077.40
757.11	1076.08
757.43	1076.67
757.76	1073.86
758.09	1074.07
758.42	1077.93
758.75	1078.26
759.08	1080.02
759.41	1081.61
759.74	1084.16
760.07	1081.37
760.39	1081.80
760.72	1079.83
761.05	1076.32
761.38	1075.03
761.71	1073.32
762.04	1073.30
762.36	1073.18
762.69	1074.03
763.02	1069.11
763.35	1070.28
763.68	1067.40
764.01	1066.25
764.33	1067.54
764.66	1071.73
764.99	1070.61
765.32	1072.64
765.65	1071.78
765.97	1070.14
766.30	1068.67
