SpectraSuite Data File
++++++++++++++++++++++++++++++++++++
Date: Mon Aug 26 10:21:54 PDT 2019
User: corrico
Dark Spectrum Present: No
Reference Spectrum Present: No
Number of Sampled Component Spectra: 1
Spectrometers: USB2+H06089
Integration Time (usec): 2000 (USB2+H06089)
Spectra Averaged: 20 (USB2+H06089)
Boxcar Smoothing: 2 (USB2+H06089)
Correct for Electrical Dark: No (USB2+H06089)
Strobe/Lamp Enabled: No (USB2+H06089)
Correct for Detector Non-linearity: No (USB2+H06089)
Correct for Stray Light: No (USB2+H06089)
Number of Pixels in Processed Spectrum: 2048
>>>>>Begin Processed Spectral Data<<<<<
339.70	1025.86
340.07	1025.86
340.45	990.49
340.82	970.13
341.19	947.36
341.57	923.86
341.94	912.62
342.31	906.02
342.69	899.58
343.06	896.99
343.43	891.91
343.81	891.35
344.18	894.04
344.55	895.89
344.93	900.15
345.30	907.45
345.67	914.59
346.04	924.91
346.42	935.54
346.79	945.20
347.16	954.56
347.54	965.10
347.91	971.16
348.28	981.92
348.65	989.98
349.03	1000.86
349.40	1010.64
349.77	1019.40
350.14	1024.34
350.52	1031.15
350.89	1036.79
351.26	1043.06
351.63	1047.62
352.01	1049.00
352.38	1051.84
352.75	1053.76
353.12	1055.79
353.50	1060.75
353.87	1064.55
354.24	1069.93
354.61	1072.04
354.98	1075.87
355.36	1076.53
355.73	1079.53
356.10	1077.93
356.47	1078.89
356.84	1075.99
357.22	1074.31
357.59	1074.45
357.96	1075.38
358.33	1077.54
358.70	1076.13
359.08	1074.47
359.45	1078.66
359.82	1075.36
360.19	1071.59
360.56	1071.64
360.94	1072.43
361.31	1067.87
361.68	1068.17
362.05	1068.24
362.42	1065.46
362.79	1063.45
363.16	1064.80
363.54	1066.14
363.91	1066.25
364.28	1068.59
364.65	1070.00
365.02	1065.15
365.39	1063.73
365.76	1063.89
366.14	1064.99
366.51	1064.78
366.88	1065.76
367.25	1068.90
367.62	1067.73
367.99	1066.37
368.36	1066.51
368.73	1064.83
369.10	1062.04
369.48	1063.21
369.85	1066.61
370.22	1068.78
370.59	1070.96
370.96	1069.79
371.33	1068.81
371.70	1065.62
372.07	1063.21
372.44	1063.91
372.81	1065.15
373.18	1068.48
373.55	1069.84
373.93	1071.82
374.30	1071.99
374.67	1073.84
375.04	1070.33
375.41	1069.84
375.78	1066.35
376.15	1066.14
376.52	1065.25
376.89	1066.63
377.26	1065.32
377.63	1068.27
378.00	1069.06
378.37	1069.98
378.74	1071.50
379.11	1073.77
379.48	1072.81
379.85	1072.57
380.22	1070.80
380.59	1069.02
380.96	1065.83
381.33	1068.64
381.70	1068.17
382.07	1069.32
382.44	1071.85
382.81	1071.50
383.18	1071.29
383.55	1072.97
383.92	1073.14
384.29	1072.06
384.66	1076.27
385.03	1075.36
385.40	1072.34
385.77	1073.00
386.14	1073.07
386.51	1071.15
386.88	1070.14
387.25	1071.59
387.62	1070.12
387.99	1067.52
388.36	1067.05
388.73	1066.77
389.10	1067.10
389.46	1067.96
389.83	1071.61
390.20	1070.14
390.57	1070.98
390.94	1073.25
391.31	1073.72
391.68	1073.56
392.05	1073.21
392.42	1071.66
392.79	1069.09
393.16	1067.42
393.53	1066.00
393.89	1068.81
394.26	1068.90
394.63	1067.52
395.00	1070.23
395.37	1069.93
395.74	1069.25
396.11	1072.71
396.48	1075.92
396.84	1072.78
397.21	1075.66
397.58	1074.10
397.95	1072.29
398.32	1070.42
398.69	1070.44
399.06	1067.59
399.42	1068.52
399.79	1068.78
400.16	1071.19
400.53	1071.85
400.90	1072.55
401.27	1075.94
401.64	1076.58
402.00	1074.14
402.37	1075.57
402.74	1072.97
403.11	1071.22
403.48	1070.23
403.84	1071.40
404.21	1071.29
404.58	1076.18
404.95	1077.30
405.32	1077.11
405.68	1076.81
406.05	1075.17
406.42	1074.40
406.79	1072.95
407.16	1075.57
407.52	1075.66
407.89	1076.18
408.26	1074.05
408.63	1070.82
408.99	1068.99
409.36	1067.61
409.73	1071.24
410.10	1072.71
410.47	1078.71
410.83	1079.06
411.20	1082.15
411.57	1081.68
411.94	1078.40
412.30	1075.24
412.67	1074.03
413.04	1070.47
413.40	1068.50
413.77	1069.41
414.14	1074.03
414.51	1076.95
414.87	1079.76
415.24	1079.57
415.61	1083.39
415.97	1080.56
416.34	1079.92
416.71	1082.43
417.08	1081.61
417.44	1078.43
417.81	1078.57
418.18	1077.07
418.54	1076.08
418.91	1076.04
419.28	1077.63
419.64	1078.07
420.01	1080.91
420.38	1082.61
420.74	1086.20
421.11	1087.53
421.48	1087.95
421.84	1084.86
422.21	1082.54
422.58	1082.08
422.94	1082.29
423.31	1082.38
423.68	1084.84
424.04	1086.27
424.41	1087.88
424.77	1089.89
425.14	1092.52
425.51	1093.90
425.87	1091.37
426.24	1092.35
426.61	1087.88
426.97	1088.40
427.34	1087.81
427.70	1092.45
428.07	1092.52
428.44	1098.27
428.80	1096.94
429.17	1101.27
429.53	1104.36
429.90	1104.87
430.27	1107.33
430.63	1108.27
431.00	1106.00
431.36	1106.49
431.73	1109.81
432.09	1110.84
432.46	1115.76
432.83	1124.39
433.19	1130.69
433.56	1130.50
433.92	1134.74
434.29	1138.72
434.65	1142.46
435.02	1145.15
435.38	1155.38
435.75	1160.77
436.11	1167.90
436.48	1175.37
436.84	1180.87
437.21	1188.27
437.57	1196.13
437.94	1203.99
438.30	1208.21
438.67	1220.71
439.03	1230.33
439.40	1240.23
439.76	1251.02
440.13	1261.90
440.49	1273.49
440.86	1285.12
441.22	1301.55
441.59	1313.09
441.95	1329.63
442.32	1339.75
442.68	1357.58
443.05	1374.69
443.41	1397.14
443.78	1416.54
444.14	1442.24
444.51	1464.64
444.87	1491.55
445.24	1518.09
445.60	1545.20
445.96	1571.55
446.33	1599.73
446.69	1625.71
447.06	1655.13
447.42	1687.27
447.79	1724.74
448.15	1768.81
448.51	1811.46
448.88	1859.18
449.24	1905.27
449.61	1957.83
449.97	2007.43
450.33	2063.46
450.70	2116.15
451.06	2176.93
451.43	2234.35
451.79	2302.64
452.15	2374.17
452.52	2451.59
452.88	2531.45
453.24	2616.67
453.61	2706.71
453.97	2796.66
454.34	2888.06
454.70	2996.17
455.06	3104.86
455.43	3212.71
455.79	3318.53
456.15	3436.87
456.52	3548.60
456.88	3683.56
457.24	3806.69
457.61	3955.88
457.97	4103.08
458.33	4253.60
458.70	4404.70
459.06	4564.79
459.42	4724.28
459.79	4874.96
460.15	5050.01
460.51	5205.49
460.88	5367.27
461.24	5509.55
461.60	5678.58
461.96	5808.65
462.33	5941.01
462.69	6083.22
463.05	6244.39
463.42	6380.70
463.78	6527.87
464.14	6664.54
464.50	6793.33
464.87	6874.86
465.23	6929.37
465.59	7001.22
465.95	7059.34
466.32	7101.63
466.68	7180.55
467.04	7239.56
467.40	7276.87
467.77	7308.77
468.13	7311.44
468.49	7299.78
468.85	7295.36
469.22	7276.16
469.58	7241.90
469.94	7224.06
470.30	7177.53
470.66	7128.29
471.03	7040.99
471.39	6984.53
471.75	6875.09
472.11	6768.22
472.47	6681.81
472.84	6594.23
473.20	6477.39
473.56	6406.61
473.92	6319.66
474.28	6243.73
474.65	6188.75
475.01	6129.91
475.37	6054.94
475.73	5990.65
476.09	5909.60
476.45	5812.07
476.81	5725.89
477.18	5638.42
477.54	5557.27
477.90	5470.09
478.26	5392.36
478.62	5308.26
478.98	5243.20
479.34	5185.06
479.71	5111.50
480.07	5050.13
480.43	5014.93
480.79	4959.29
481.15	4897.48
481.51	4858.32
481.87	4817.20
482.23	4741.64
482.59	4688.65
482.96	4626.77
483.32	4564.56
483.68	4499.28
484.04	4447.28
484.40	4386.05
484.76	4337.15
485.12	4279.88
485.48	4225.79
485.84	4166.88
486.20	4108.86
486.56	4041.40
486.92	3978.68
487.28	3911.90
487.64	3849.06
488.00	3778.89
488.37	3713.92
488.73	3643.72
489.09	3575.68
489.45	3512.75
489.81	3453.74
490.17	3391.51
490.53	3339.55
490.89	3286.11
491.25	3230.55
491.61	3172.34
491.97	3114.74
492.33	3055.69
492.69	2993.78
493.05	2932.74
493.41	2876.17
493.77	2826.24
494.13	2771.38
494.49	2721.08
494.85	2671.93
495.21	2627.53
495.57	2582.15
495.93	2539.90
496.29	2500.44
496.64	2462.69
497.00	2416.42
497.36	2377.09
497.72	2338.22
498.08	2305.01
498.44	2269.78
498.80	2234.56
499.16	2196.12
499.52	2168.72
499.88	2136.60
500.24	2102.18
500.60	2078.79
500.96	2053.66
501.32	2023.00
501.68	1990.53
502.03	1966.14
502.39	1936.44
502.75	1907.44
503.11	1880.53
503.47	1863.35
503.83	1837.55
504.19	1819.53
504.55	1799.71
504.91	1778.36
505.26	1752.48
505.62	1730.12
505.98	1703.96
506.34	1686.12
506.70	1669.50
507.06	1647.88
507.42	1630.30
507.78	1612.72
508.13	1592.57
508.49	1573.92
508.85	1559.36
509.21	1543.09
509.57	1531.06
509.93	1514.77
510.28	1498.29
510.64	1482.92
511.00	1469.08
511.36	1456.02
511.72	1446.47
512.07	1439.52
512.43	1430.68
512.79	1421.06
513.15	1407.34
513.51	1397.91
513.86	1384.80
514.22	1374.03
514.58	1365.45
514.94	1358.42
515.30	1348.22
515.65	1338.86
516.01	1331.11
516.37	1320.13
516.73	1312.01
517.08	1305.15
517.44	1294.20
517.80	1285.94
518.16	1283.25
518.51	1277.11
518.87	1271.10
519.23	1267.89
519.59	1262.79
519.94	1258.41
520.30	1248.82
520.66	1243.22
521.01	1241.28
521.37	1239.85
521.73	1230.56
522.09	1228.99
522.44	1222.49
522.80	1213.26
523.16	1202.12
523.51	1198.92
523.87	1196.11
524.23	1195.90
524.58	1195.99
524.94	1198.52
525.30	1196.32
525.65	1191.26
526.01	1185.88
526.37	1182.18
526.72	1175.70
527.08	1171.04
527.44	1168.89
527.79	1169.31
528.15	1166.27
528.51	1161.89
528.86	1156.39
529.22	1153.53
529.58	1146.93
529.93	1142.81
530.29	1140.12
530.65	1142.84
531.00	1140.61
531.36	1137.24
531.71	1135.49
532.07	1136.52
532.43	1131.13
532.78	1131.81
533.14	1134.01
533.49	1133.01
533.85	1129.78
534.21	1131.09
534.56	1126.99
534.92	1125.84
535.27	1123.78
535.63	1124.25
535.98	1122.57
536.34	1122.99
536.69	1119.97
537.05	1121.02
537.41	1117.86
537.76	1113.65
538.12	1110.82
538.47	1112.32
538.83	1110.44
539.18	1113.37
539.54	1115.12
539.89	1115.71
540.25	1113.88
540.60	1112.46
540.96	1108.57
541.31	1108.36
541.67	1106.21
542.02	1105.18
542.38	1105.65
542.73	1105.88
543.09	1107.24
543.44	1108.15
543.80	1104.48
544.15	1101.81
544.51	1100.71
544.86	1095.72
545.22	1092.28
545.57	1094.48
545.93	1094.55
546.28	1093.26
546.64	1096.85
546.99	1101.27
547.35	1100.47
547.70	1098.65
548.05	1096.87
548.41	1093.66
548.76	1089.99
549.12	1089.31
549.47	1091.88
549.83	1090.06
550.18	1090.76
550.53	1091.32
550.89	1088.49
551.24	1086.48
551.60	1090.78
551.95	1086.41
552.30	1087.20
552.66	1090.55
553.01	1089.82
553.37	1085.63
553.72	1087.04
554.07	1085.52
554.43	1083.50
554.78	1084.09
555.13	1084.89
555.49	1083.64
555.84	1081.89
556.19	1083.20
556.55	1082.03
556.90	1083.90
557.26	1086.62
557.61	1086.59
557.96	1084.44
558.32	1084.00
558.67	1083.69
559.02	1084.91
559.37	1086.69
559.73	1087.62
560.08	1090.71
560.43	1089.31
560.79	1088.33
561.14	1084.53
561.49	1084.86
561.85	1084.96
562.20	1084.72
562.55	1081.63
562.90	1082.92
563.26	1082.66
563.61	1080.30
563.96	1081.73
564.32	1083.06
564.67	1082.10
565.02	1081.82
565.37	1077.21
565.73	1078.33
566.08	1080.30
566.43	1083.83
566.78	1082.03
567.14	1088.35
567.49	1086.27
567.84	1082.71
568.19	1079.62
568.54	1080.30
568.90	1078.33
569.25	1080.84
569.60	1081.70
569.95	1084.16
570.31	1085.45
570.66	1085.59
571.01	1082.24
571.36	1083.06
571.71	1082.76
572.06	1078.78
572.42	1077.40
572.77	1078.68
573.12	1076.74
573.47	1076.04
573.82	1078.07
574.18	1078.94
574.53	1078.03
574.88	1080.13
575.23	1079.46
575.58	1076.65
575.93	1076.93
576.28	1076.30
576.64	1075.17
576.99	1074.84
577.34	1074.98
577.69	1073.09
578.04	1074.21
578.39	1075.55
578.74	1076.83
579.09	1080.09
579.44	1085.40
579.80	1085.89
580.15	1086.73
580.50	1088.00
580.85	1088.49
581.20	1085.05
581.55	1084.44
581.90	1081.82
582.25	1080.51
582.60	1079.55
582.95	1077.18
583.30	1076.41
583.65	1077.54
584.00	1075.48
584.35	1075.36
584.71	1078.82
585.06	1081.75
585.41	1082.50
585.76	1081.70
586.11	1084.00
586.46	1083.76
586.81	1081.61
587.16	1082.40
587.51	1083.04
587.86	1080.56
588.21	1080.93
588.56	1080.34
588.91	1080.88
589.26	1081.00
589.61	1078.26
589.96	1075.66
590.31	1077.07
590.66	1078.54
591.01	1078.92
591.36	1081.68
591.71	1083.22
592.06	1080.70
592.41	1078.03
592.76	1077.61
593.10	1075.76
593.45	1072.46
593.80	1074.35
594.15	1072.50
594.50	1075.20
594.85	1076.97
595.20	1078.92
595.55	1079.38
595.90	1078.00
596.25	1077.11
596.60	1077.63
596.95	1078.94
597.30	1079.34
597.64	1092.35
597.99	1093.94
598.34	1097.06
598.69	1095.77
599.04	1094.83
599.39	1081.51
599.74	1079.83
600.09	1076.34
600.44	1077.70
600.78	1077.70
601.13	1076.67
601.48	1078.03
601.83	1078.21
602.18	1079.43
602.53	1076.97
602.88	1079.90
603.22	1079.43
603.57	1077.98
603.92	1074.42
604.27	1073.67
604.62	1077.23
604.97	1075.17
605.31	1080.70
605.66	1082.71
606.01	1082.38
606.36	1078.14
606.71	1076.93
607.05	1072.97
607.40	1071.45
607.75	1076.44
608.10	1076.55
608.44	1077.75
608.79	1078.36
609.14	1075.38
609.49	1068.15
609.84	1069.93
610.18	1071.82
610.53	1069.02
610.88	1071.01
611.23	1078.00
611.57	1077.11
611.92	1076.20
612.27	1078.00
612.62	1078.57
612.96	1078.38
613.31	1076.48
613.66	1073.65
614.00	1073.93
614.35	1076.04
614.70	1075.05
615.05	1080.06
615.39	1082.22
615.74	1080.95
616.09	1078.92
616.43	1077.23
616.78	1073.18
617.13	1071.38
617.47	1072.81
617.82	1072.88
618.17	1075.76
618.51	1075.73
618.86	1077.23
619.21	1075.76
619.55	1075.50
619.90	1073.25
620.25	1073.58
620.59	1073.39
620.94	1075.43
621.29	1078.19
621.63	1078.17
621.98	1079.31
622.32	1080.30
622.67	1079.97
623.02	1081.00
623.36	1079.06
623.71	1076.67
624.05	1073.86
624.40	1075.15
624.75	1072.48
625.09	1077.37
625.44	1078.21
625.78	1083.29
626.13	1081.28
626.48	1081.63
626.82	1077.91
627.17	1076.44
627.51	1071.47
627.86	1073.39
628.20	1074.63
628.55	1075.66
628.89	1078.82
629.24	1082.31
629.58	1081.00
629.93	1078.78
630.28	1076.90
630.62	1076.37
630.97	1077.25
631.31	1078.59
631.66	1080.63
632.00	1081.05
632.35	1085.56
632.69	1082.24
633.04	1082.78
633.38	1080.70
633.73	1079.83
634.07	1072.71
634.42	1073.09
634.76	1068.69
635.11	1068.88
635.45	1071.29
635.79	1075.29
636.14	1076.86
636.48	1080.32
636.83	1081.66
637.17	1081.21
637.52	1077.28
637.86	1077.65
638.21	1076.93
638.55	1077.51
638.89	1077.21
639.24	1080.77
639.58	1075.94
639.93	1076.67
640.27	1078.43
640.61	1080.11
640.96	1077.56
641.30	1080.91
641.65	1078.85
641.99	1074.54
642.33	1072.57
642.68	1073.44
643.02	1072.55
643.37	1075.27
643.71	1074.89
644.05	1074.47
644.40	1073.98
644.74	1075.08
645.08	1073.04
645.43	1072.15
645.77	1073.49
646.11	1075.59
646.46	1074.03
646.80	1071.66
647.14	1074.10
647.49	1073.16
647.83	1068.62
648.17	1069.77
648.52	1072.95
648.86	1073.98
649.20	1075.87
649.55	1077.44
649.89	1079.46
650.23	1078.43
650.57	1076.74
650.92	1076.65
651.26	1078.99
651.60	1079.08
651.95	1080.65
652.29	1080.53
652.63	1080.56
652.97	1080.98
653.32	1077.91
653.66	1077.75
654.00	1079.64
654.34	1080.04
654.69	1076.88
655.03	1078.89
655.37	1076.41
655.71	1078.10
656.05	1077.28
656.40	1078.73
656.74	1079.10
657.08	1079.74
657.42	1076.41
657.76	1074.80
658.11	1075.24
658.45	1072.97
658.79	1074.31
659.13	1075.50
659.47	1076.55
659.82	1076.13
660.16	1075.73
660.50	1073.30
660.84	1069.74
661.18	1070.21
661.52	1071.90
661.87	1071.99
662.21	1077.93
662.55	1077.82
662.89	1076.37
663.23	1074.54
663.57	1075.55
663.91	1071.97
664.25	1072.53
664.60	1077.91
664.94	1077.63
665.28	1079.38
665.62	1081.70
665.96	1084.77
666.30	1081.37
666.64	1084.81
666.98	1083.08
667.32	1079.50
667.66	1078.05
668.01	1077.91
668.35	1076.11
668.69	1074.28
669.03	1075.90
669.37	1075.17
669.71	1073.37
670.05	1072.81
670.39	1075.94
670.73	1075.43
671.07	1081.42
671.41	1081.23
671.75	1081.77
672.09	1079.83
672.43	1077.54
672.77	1071.12
673.11	1072.57
673.45	1071.29
673.79	1072.64
674.13	1074.14
674.47	1075.90
674.81	1080.56
675.15	1082.26
675.49	1078.73
675.83	1079.20
676.17	1078.24
676.51	1076.81
676.85	1075.29
677.19	1076.74
677.53	1074.77
677.87	1075.80
678.21	1071.19
678.55	1070.80
678.89	1071.75
679.23	1076.46
679.57	1074.45
679.90	1072.67
680.24	1074.73
680.58	1075.01
680.92	1071.47
681.26	1072.34
681.60	1076.15
681.94	1075.50
682.28	1076.86
682.62	1074.56
682.96	1075.62
683.29	1074.59
683.63	1073.18
683.97	1075.05
684.31	1077.49
684.65	1076.72
684.99	1079.74
685.33	1081.68
685.67	1080.93
686.00	1079.99
686.34	1081.35
686.68	1079.43
687.02	1079.50
687.36	1076.62
687.70	1074.28
688.03	1073.39
688.37	1074.80
688.71	1073.51
689.05	1074.14
689.39	1074.82
689.72	1073.49
690.06	1070.09
690.40	1073.14
690.74	1073.56
691.08	1079.34
691.41	1080.58
691.75	1080.53
692.09	1077.07
692.43	1078.92
692.76	1077.58
693.10	1079.69
693.44	1078.40
693.78	1076.15
694.11	1075.78
694.45	1072.22
694.79	1069.86
695.13	1073.32
695.46	1076.62
695.80	1073.32
696.14	1075.66
696.48	1075.15
696.81	1074.70
697.15	1076.65
697.49	1080.13
697.82	1080.32
698.16	1081.09
698.50	1080.04
698.83	1077.16
699.17	1072.78
699.51	1073.30
699.84	1071.66
700.18	1073.70
700.52	1075.05
700.85	1076.58
701.19	1075.13
701.53	1076.46
701.86	1073.56
702.20	1072.11
702.54	1073.25
702.87	1072.29
703.21	1071.47
703.55	1073.79
703.88	1074.21
704.22	1075.34
704.55	1075.48
704.89	1077.11
705.23	1075.55
705.56	1076.53
705.90	1075.34
706.23	1078.07
706.57	1076.15
706.91	1074.47
707.24	1074.33
707.58	1072.97
707.91	1073.18
708.25	1075.01
708.58	1078.07
708.92	1075.99
709.26	1081.09
709.59	1081.21
709.93	1081.63
710.26	1078.66
710.60	1079.53
710.93	1075.57
711.27	1072.97
711.60	1073.91
711.94	1076.34
712.27	1079.43
712.61	1077.77
712.94	1082.61
713.28	1081.73
713.61	1079.46
713.95	1079.13
714.28	1081.47
714.62	1074.45
714.95	1073.77
715.29	1072.55
715.62	1069.79
715.96	1071.50
716.29	1073.07
716.63	1075.34
716.96	1081.56
717.29	1078.59
717.63	1075.64
717.96	1076.83
718.30	1071.85
718.63	1066.86
718.97	1071.33
719.30	1071.43
719.63	1072.39
719.97	1075.08
720.30	1079.83
720.64	1076.48
720.97	1078.03
721.30	1074.26
721.64	1076.06
721.97	1074.94
722.31	1079.57
722.64	1081.75
722.97	1082.85
723.31	1082.01
723.64	1077.58
723.97	1075.17
724.31	1068.74
724.64	1070.58
724.98	1070.58
725.31	1072.01
725.64	1074.84
725.98	1077.04
726.31	1075.29
726.64	1074.94
726.97	1076.20
727.31	1072.20
727.64	1073.72
727.97	1074.28
728.31	1075.03
728.64	1075.69
728.97	1076.25
729.31	1076.60
729.64	1076.65
729.97	1074.40
730.30	1077.16
730.64	1077.11
730.97	1075.62
731.30	1076.30
731.63	1075.22
731.97	1069.84
732.30	1071.97
732.63	1076.90
732.96	1075.45
733.30	1078.64
733.63	1082.15
733.96	1080.18
734.29	1074.14
734.63	1074.89
734.96	1070.49
735.29	1069.20
735.62	1068.01
735.95	1069.41
736.29	1068.52
736.62	1073.53
736.95	1070.19
737.28	1071.85
737.61	1073.77
737.94	1075.22
738.28	1072.46
738.61	1073.39
738.94	1072.60
739.27	1069.88
739.60	1071.97
739.93	1074.82
740.27	1076.06
740.60	1075.29
740.93	1075.48
741.26	1074.21
741.59	1071.47
741.92	1072.69
742.25	1075.10
742.58	1077.14
742.91	1079.38
743.25	1079.31
743.58	1079.43
743.91	1079.69
744.24	1077.58
744.57	1077.35
744.90	1080.39
745.23	1078.71
745.56	1077.35
745.89	1080.04
746.22	1081.54
746.55	1080.56
746.88	1083.43
747.21	1085.42
747.54	1085.94
747.87	1081.21
748.20	1079.62
748.53	1079.36
748.87	1078.66
749.20	1078.99
749.53	1082.59
749.86	1083.71
750.19	1083.11
750.52	1079.67
750.85	1076.53
751.18	1071.85
751.51	1070.87
751.84	1073.23
752.16	1074.35
752.49	1075.62
752.82	1078.71
753.15	1079.99
753.48	1077.30
753.81	1077.61
754.14	1078.94
754.47	1078.26
754.80	1077.25
755.13	1076.20
755.46	1079.76
755.79	1077.23
756.12	1077.33
756.45	1076.37
756.78	1076.08
757.11	1073.18
757.43	1072.60
757.76	1072.34
758.09	1076.53
758.42	1078.94
758.75	1080.70
759.08	1080.72
759.41	1080.88
759.74	1079.97
760.07	1079.03
760.39	1077.40
760.72	1080.34
761.05	1081.42
761.38	1077.47
761.71	1076.13
762.04	1078.50
762.36	1077.07
762.69	1075.08
763.02	1077.49
763.35	1076.04
763.68	1075.22
764.01	1076.08
764.33	1078.59
764.66	1077.49
764.99	1080.67
765.32	1076.55
765.65	1073.58
765.97	1074.10
766.30	1074.70
