SpectraSuite Data File
++++++++++++++++++++++++++++++++++++
Date: Mon Aug 26 10:22:10 PDT 2019
User: corrico
Dark Spectrum Present: No
Reference Spectrum Present: No
Number of Sampled Component Spectra: 1
Spectrometers: USB2+H06089
Integration Time (usec): 2000 (USB2+H06089)
Spectra Averaged: 20 (USB2+H06089)
Boxcar Smoothing: 2 (USB2+H06089)
Correct for Electrical Dark: No (USB2+H06089)
Strobe/Lamp Enabled: No (USB2+H06089)
Correct for Detector Non-linearity: No (USB2+H06089)
Correct for Stray Light: No (USB2+H06089)
Number of Pixels in Processed Spectrum: 2048
>>>>>Begin Processed Spectral Data<<<<<
339.70	1031.71
340.07	1031.71
340.45	995.92
340.82	973.43
341.19	949.16
341.57	921.59
341.94	910.54
342.31	902.23
342.69	894.95
343.06	891.35
343.43	889.94
343.81	891.60
344.18	891.79
344.55	896.66
344.93	899.23
345.30	905.58
345.67	910.42
346.04	918.89
346.42	926.55
346.79	934.97
347.16	943.68
347.54	954.12
347.91	965.14
348.28	975.44
348.65	990.63
349.03	1004.96
349.40	1013.94
349.77	1023.75
350.14	1035.38
350.52	1042.38
350.89	1043.41
351.26	1048.56
351.63	1052.61
352.01	1055.25
352.38	1057.57
352.75	1062.11
353.12	1064.45
353.50	1067.31
353.87	1072.15
354.24	1073.79
354.61	1076.81
354.98	1080.79
355.36	1081.19
355.73	1077.37
356.10	1079.99
356.47	1080.86
356.84	1080.39
357.22	1081.16
357.59	1083.71
357.96	1080.93
358.33	1080.41
358.70	1077.23
359.08	1078.96
359.45	1077.25
359.82	1076.44
360.19	1076.08
360.56	1077.63
360.94	1078.99
361.31	1079.60
361.68	1080.67
362.05	1082.08
362.42	1082.45
362.79	1081.00
363.16	1083.60
363.54	1082.52
363.91	1080.13
364.28	1083.34
364.65	1079.27
365.02	1076.34
365.39	1076.15
365.76	1075.24
366.14	1073.28
366.51	1072.62
366.88	1070.54
367.25	1067.75
367.62	1069.98
367.99	1069.02
368.36	1071.26
368.73	1071.40
369.10	1070.72
369.48	1070.40
369.85	1067.73
370.22	1070.02
370.59	1074.12
370.96	1079.15
371.33	1079.48
371.70	1081.42
372.07	1076.81
372.44	1073.86
372.81	1072.53
373.18	1071.29
373.55	1075.90
373.93	1076.95
374.30	1077.84
374.67	1076.90
375.04	1080.11
375.41	1073.65
375.78	1073.23
376.15	1072.08
376.52	1076.72
376.89	1076.01
377.26	1077.37
377.63	1079.90
378.00	1078.99
378.37	1075.66
378.74	1076.13
379.11	1078.45
379.48	1077.40
379.85	1078.92
380.22	1079.71
380.59	1078.80
380.96	1077.40
381.33	1080.23
381.70	1081.89
382.07	1083.20
382.44	1082.92
382.81	1084.72
383.18	1082.76
383.55	1081.07
383.92	1080.70
384.29	1081.37
384.66	1079.64
385.03	1078.00
385.40	1078.61
385.77	1078.89
386.14	1077.30
386.51	1078.24
386.88	1078.47
387.25	1080.44
387.62	1077.70
387.99	1077.37
388.36	1082.10
388.73	1083.74
389.10	1083.22
389.46	1083.43
389.83	1085.87
390.20	1081.40
390.57	1080.81
390.94	1080.25
391.31	1082.43
391.68	1079.97
392.05	1083.97
392.42	1088.75
392.79	1087.27
393.16	1089.40
393.53	1090.67
393.89	1087.74
394.26	1084.79
394.63	1084.65
395.00	1083.67
395.37	1086.73
395.74	1087.95
396.11	1089.75
396.48	1090.69
396.84	1089.12
397.21	1088.12
397.58	1087.69
397.95	1082.71
398.32	1082.45
398.69	1082.24
399.06	1085.17
399.42	1086.73
399.79	1093.73
400.16	1095.09
400.53	1094.69
400.90	1092.37
401.27	1088.65
401.64	1084.53
402.00	1085.19
402.37	1088.51
402.74	1087.65
403.11	1091.60
403.48	1090.69
403.84	1092.30
404.21	1093.36
404.58	1093.45
404.95	1092.40
405.32	1094.50
405.68	1097.01
406.05	1097.15
406.42	1099.47
406.79	1099.61
407.16	1098.60
407.52	1095.02
407.89	1093.87
408.26	1090.99
408.63	1089.96
408.99	1090.74
409.36	1089.64
409.73	1087.90
410.10	1088.40
410.47	1089.47
410.83	1092.59
411.20	1095.42
411.57	1096.35
411.94	1098.55
412.30	1100.66
412.67	1097.66
413.04	1098.86
413.40	1100.26
413.77	1101.03
414.14	1101.55
414.51	1104.08
414.87	1102.95
415.24	1102.09
415.61	1100.94
415.97	1101.27
416.34	1101.32
416.71	1102.77
417.08	1100.68
417.44	1106.86
417.81	1109.81
418.18	1108.90
418.54	1108.64
418.91	1115.69
419.28	1113.44
419.64	1111.38
420.01	1113.88
420.38	1115.31
420.74	1115.48
421.11	1116.93
421.48	1119.20
421.84	1120.88
422.21	1123.60
422.58	1125.96
422.94	1126.10
423.31	1129.03
423.68	1134.62
424.04	1139.09
424.41	1143.68
424.77	1148.81
425.14	1151.82
425.51	1155.87
425.87	1160.62
426.24	1167.01
426.61	1173.83
426.97	1180.07
427.34	1184.31
427.70	1193.37
428.07	1197.75
428.44	1207.06
428.80	1217.17
429.17	1228.71
429.53	1234.56
429.90	1247.32
430.27	1259.07
430.63	1271.45
431.00	1286.12
431.36	1308.34
431.73	1318.99
432.09	1332.35
432.46	1351.89
432.83	1370.97
433.19	1386.09
433.56	1416.23
433.92	1445.09
434.29	1469.86
434.65	1500.92
435.02	1530.27
435.38	1560.67
435.75	1591.99
436.11	1631.49
436.48	1668.10
436.84	1712.27
437.21	1757.13
437.57	1801.25
437.94	1849.89
438.30	1903.42
438.67	1961.65
439.03	2025.80
439.40	2099.06
439.76	2168.81
440.13	2245.91
440.49	2326.80
440.86	2405.16
441.22	2488.62
441.59	2583.62
441.95	2679.82
442.32	2783.22
442.68	2901.84
443.05	3027.67
443.41	3153.50
443.78	3285.81
444.14	3419.66
444.51	3550.97
444.87	3709.56
445.24	3873.24
445.60	4055.02
445.96	4246.41
446.33	4462.09
446.69	4659.73
447.06	4878.64
447.42	5099.14
447.79	5334.57
448.15	5598.58
448.51	5882.02
448.88	6198.39
449.24	6503.97
449.61	6851.94
449.97	7204.38
450.33	7578.89
450.70	7940.20
451.06	8373.95
451.43	8777.38
451.79	9242.75
452.15	9737.87
452.52	10263.83
452.88	10817.25
453.24	11443.21
453.61	12148.11
453.97	12848.25
454.34	13559.50
454.70	14382.69
455.06	15195.86
455.43	15937.85
455.79	16620.38
456.15	17429.81
456.52	18150.85
456.88	19060.41
457.24	19974.97
457.61	21106.44
457.97	22162.42
458.33	23264.88
458.70	24311.12
459.06	25301.80
459.42	26331.28
459.79	27258.58
460.15	28318.66
460.51	29322.61
460.88	30417.81
461.24	31358.38
461.60	32499.65
461.96	33550.06
462.33	34565.41
462.69	35599.06
463.05	36722.86
463.42	37732.60
463.78	38644.87
464.14	39404.86
464.50	40137.73
464.87	40654.05
465.23	40988.28
465.59	41396.14
465.95	41717.66
466.32	41967.91
466.68	42226.75
467.04	42377.29
467.40	42397.77
467.77	42501.18
468.13	42389.79
468.49	42207.49
468.85	42107.95
469.22	41951.93
469.58	41696.34
469.94	41563.63
470.30	41382.26
470.66	41020.84
471.03	40530.73
471.39	40162.12
471.75	39447.23
472.11	38716.39
472.47	38252.31
472.84	37738.24
473.20	37036.92
473.56	36626.90
473.92	36051.58
474.28	35372.56
474.65	34704.04
475.01	34003.89
475.37	33176.06
475.73	32496.16
476.09	31811.63
476.45	31183.36
476.81	30642.64
477.18	30118.13
477.54	29636.05
477.90	29172.58
478.26	28602.26
478.62	28065.43
478.98	27614.01
479.34	27184.64
479.71	26623.20
480.07	26188.91
480.43	25761.20
480.79	25290.38
481.15	24829.01
481.51	24493.78
481.87	24161.12
482.23	23780.45
482.59	23455.68
482.96	23119.55
483.32	22798.55
483.68	22414.75
484.04	22075.11
484.40	21657.61
484.76	21238.77
485.12	20785.71
485.48	20347.07
485.84	19864.34
486.20	19449.08
486.56	19015.28
486.92	18620.72
487.28	18232.47
487.64	17849.37
488.00	17452.56
488.37	17055.11
488.73	16622.79
489.09	16160.93
489.45	15733.55
489.81	15283.93
490.17	14849.34
490.53	14437.92
490.89	14039.66
491.25	13616.42
491.61	13214.88
491.97	12826.86
492.33	12436.88
492.69	12079.22
493.05	11756.93
493.41	11435.32
493.77	11121.64
494.13	10819.69
494.49	10521.62
494.85	10227.95
495.21	9951.49
495.57	9698.57
495.93	9431.80
496.29	9176.73
496.64	8946.11
497.00	8699.05
497.36	8430.35
497.72	8188.43
498.08	7964.35
498.44	7730.11
498.80	7524.49
499.16	7331.14
499.52	7138.91
499.88	6953.99
500.24	6795.25
500.60	6637.27
500.96	6482.30
501.32	6322.79
501.68	6157.34
502.03	5971.99
502.39	5802.94
502.75	5631.17
503.11	5478.82
503.47	5348.92
503.83	5223.54
504.19	5094.64
504.55	4973.26
504.91	4861.20
505.26	4736.66
505.62	4625.11
505.98	4513.42
506.34	4402.52
506.70	4278.59
507.06	4172.26
507.42	4063.71
507.78	3965.01
508.13	3874.12
508.49	3799.95
508.85	3724.59
509.21	3646.58
509.57	3567.98
509.93	3485.01
510.28	3396.42
510.64	3311.16
511.00	3225.14
511.36	3153.92
511.72	3091.94
512.07	3031.91
512.43	2974.24
512.79	2918.39
513.15	2851.50
513.51	2786.95
513.86	2728.06
514.22	2673.62
514.58	2625.52
514.94	2580.04
515.30	2536.65
515.65	2491.73
516.01	2450.21
516.37	2407.40
516.73	2369.61
517.08	2331.85
517.44	2293.30
517.80	2251.29
518.16	2215.20
518.51	2185.64
518.87	2155.31
519.23	2126.31
519.59	2097.96
519.94	2070.72
520.30	2035.24
520.66	2003.05
521.01	1971.04
521.37	1938.27
521.73	1906.55
522.09	1886.21
522.44	1863.07
522.80	1843.78
523.16	1823.46
523.51	1804.62
523.87	1778.27
524.23	1758.12
524.58	1736.49
524.94	1718.42
525.30	1697.03
525.65	1678.30
526.01	1659.04
526.37	1639.45
526.72	1621.64
527.08	1605.63
527.44	1588.64
527.79	1572.70
528.15	1559.55
528.51	1544.29
528.86	1530.27
529.22	1514.68
529.58	1500.03
529.93	1485.54
530.29	1476.15
530.65	1464.43
531.00	1456.49
531.36	1443.76
531.71	1435.87
532.07	1424.45
532.43	1412.42
532.78	1398.99
533.14	1390.49
533.49	1377.10
533.85	1367.20
534.21	1360.16
534.56	1353.16
534.92	1344.29
535.27	1337.94
535.63	1327.27
535.98	1319.45
536.34	1313.95
536.69	1307.66
537.05	1300.35
537.41	1296.17
537.76	1288.63
538.12	1280.74
538.47	1272.85
538.83	1266.49
539.18	1261.78
539.54	1256.70
539.89	1251.62
540.25	1252.56
540.60	1248.96
540.96	1243.27
541.31	1241.26
541.67	1237.32
542.02	1228.10
542.38	1225.86
542.73	1221.39
543.09	1217.87
543.44	1217.15
543.80	1216.49
544.15	1210.71
544.51	1210.03
544.86	1205.61
545.22	1201.98
545.57	1199.55
545.93	1198.24
546.28	1194.12
546.64	1190.00
546.99	1186.37
547.35	1185.57
547.70	1183.23
548.05	1180.94
548.41	1179.35
548.76	1177.66
549.12	1173.38
549.47	1169.78
549.83	1166.38
550.18	1165.91
550.53	1158.19
550.89	1155.80
551.24	1155.43
551.60	1154.14
551.95	1148.85
552.30	1151.80
552.66	1149.65
553.01	1145.43
553.37	1141.22
553.72	1141.97
554.07	1140.52
554.43	1137.97
554.78	1138.13
555.13	1141.95
555.49	1138.93
555.84	1136.42
556.19	1137.43
556.55	1137.55
556.90	1131.02
557.26	1135.28
557.61	1137.83
557.96	1136.31
558.32	1134.81
558.67	1134.76
559.02	1129.24
559.37	1124.72
559.73	1120.91
560.08	1118.73
560.43	1118.12
560.79	1117.28
561.14	1117.56
561.49	1121.70
561.85	1121.21
562.20	1120.81
562.55	1122.08
562.90	1120.70
563.26	1120.18
563.61	1119.20
563.96	1117.68
564.32	1115.27
564.67	1113.74
565.02	1108.10
565.37	1107.80
565.73	1109.20
566.08	1105.36
566.43	1104.55
566.78	1105.67
567.14	1105.15
567.49	1102.88
567.84	1106.49
568.19	1104.50
568.54	1102.51
568.90	1097.88
569.25	1098.32
569.60	1097.36
569.95	1099.72
570.31	1099.98
570.66	1104.15
571.01	1102.16
571.36	1100.40
571.71	1100.43
572.06	1102.18
572.42	1096.21
572.77	1098.27
573.12	1098.04
573.47	1095.91
573.82	1094.08
574.18	1097.90
574.53	1097.08
574.88	1097.38
575.23	1094.93
575.58	1093.05
575.93	1093.62
576.28	1094.32
576.64	1093.97
576.99	1094.50
577.34	1093.92
577.69	1094.83
578.04	1092.70
578.39	1088.02
578.74	1085.96
579.09	1087.51
579.44	1085.40
579.80	1085.66
580.15	1089.68
580.50	1090.43
580.85	1089.10
581.20	1091.25
581.55	1089.59
581.90	1092.68
582.25	1099.47
582.60	1101.50
582.95	1099.54
583.30	1101.60
583.65	1099.05
584.00	1094.36
584.35	1092.33
584.71	1091.11
585.06	1090.48
585.41	1091.16
585.76	1091.42
586.11	1092.21
586.46	1089.66
586.81	1090.76
587.16	1089.59
587.51	1088.42
587.86	1085.96
588.21	1086.66
588.56	1086.69
588.91	1085.26
589.26	1086.83
589.61	1090.55
589.96	1092.98
590.31	1091.79
590.66	1093.78
591.01	1094.25
591.36	1091.20
591.71	1094.50
592.06	1093.10
592.41	1091.77
592.76	1093.83
593.10	1095.35
593.45	1090.17
593.80	1089.05
594.15	1087.69
594.50	1082.31
594.85	1079.38
595.20	1080.23
595.55	1081.14
595.90	1082.38
596.25	1085.10
596.60	1088.70
596.95	1088.68
597.30	1085.75
597.64	1097.80
597.99	1097.62
598.34	1094.93
598.69	1093.45
599.04	1096.96
599.39	1083.29
599.74	1083.43
600.09	1081.63
600.44	1082.29
600.78	1079.74
601.13	1080.84
601.48	1079.92
601.83	1084.07
602.18	1086.10
602.53	1087.06
602.88	1087.97
603.22	1089.66
603.57	1086.34
603.92	1085.73
604.27	1087.44
604.62	1081.87
604.97	1079.97
605.31	1081.09
605.66	1078.28
606.01	1077.18
606.36	1083.43
606.71	1082.31
607.05	1083.18
607.40	1083.13
607.75	1087.06
608.10	1086.45
608.44	1086.59
608.79	1085.03
609.14	1087.83
609.49	1085.38
609.84	1085.87
610.18	1087.65
610.53	1090.76
610.88	1091.84
611.23	1090.08
611.57	1088.82
611.92	1087.51
612.27	1083.79
612.62	1083.57
612.96	1084.21
613.31	1086.57
613.66	1086.57
614.00	1088.93
614.35	1086.99
614.70	1086.01
615.05	1086.01
615.39	1084.56
615.74	1083.93
616.09	1082.71
616.43	1082.45
616.78	1079.64
617.13	1079.85
617.47	1079.69
617.82	1079.76
618.17	1079.53
618.51	1077.82
618.86	1078.47
619.21	1078.85
619.55	1079.15
619.90	1078.59
620.25	1080.84
620.59	1083.74
620.94	1081.63
621.29	1082.15
621.63	1086.41
621.98	1084.21
622.32	1084.72
622.67	1088.44
623.02	1092.12
623.36	1091.79
623.71	1095.11
624.05	1090.78
624.40	1088.56
624.75	1085.91
625.09	1083.55
625.44	1083.62
625.78	1082.03
626.13	1081.09
626.48	1081.33
626.82	1080.70
627.17	1078.12
627.51	1082.24
627.86	1084.58
628.20	1084.18
628.55	1087.34
628.89	1088.07
629.24	1084.35
629.58	1080.74
629.93	1079.74
630.28	1076.18
630.62	1077.70
630.97	1080.04
631.31	1079.60
631.66	1080.02
632.00	1082.76
632.35	1080.37
632.69	1079.08
633.04	1082.94
633.38	1082.38
633.73	1080.37
634.07	1080.79
634.42	1082.97
634.76	1080.95
635.11	1080.20
635.45	1080.91
635.79	1083.69
636.14	1085.70
636.48	1085.47
636.83	1084.79
637.17	1085.05
637.52	1081.09
637.86	1079.41
638.21	1079.31
638.55	1079.92
638.89	1081.12
639.24	1083.25
639.58	1082.26
639.93	1083.69
640.27	1083.11
640.61	1078.96
640.96	1077.70
641.30	1077.14
641.65	1075.59
641.99	1077.68
642.33	1079.62
642.68	1080.65
643.02	1080.23
643.37	1079.53
643.71	1077.84
644.05	1079.24
644.40	1078.52
644.74	1075.22
645.08	1076.44
645.43	1076.34
645.77	1077.04
646.11	1075.10
646.46	1080.39
646.80	1084.37
647.14	1085.45
647.49	1084.09
647.83	1084.91
648.17	1082.24
648.52	1078.47
648.86	1080.72
649.20	1080.60
649.55	1082.45
649.89	1082.10
650.23	1082.90
650.57	1080.06
650.92	1080.25
651.26	1081.68
651.60	1084.18
651.95	1083.11
652.29	1081.40
652.63	1080.30
652.97	1073.91
653.32	1073.95
653.66	1074.26
654.00	1076.97
654.34	1076.34
654.69	1079.95
655.03	1080.11
655.37	1076.58
655.71	1073.00
656.05	1072.25
656.40	1075.66
656.74	1073.46
657.08	1078.87
657.42	1084.63
657.76	1086.03
658.11	1082.33
658.45	1083.06
658.79	1081.68
659.13	1077.30
659.47	1077.42
659.82	1077.47
660.16	1077.28
660.50	1076.69
660.84	1080.34
661.18	1081.44
661.52	1084.77
661.87	1083.79
662.21	1085.54
662.55	1082.57
662.89	1083.20
663.23	1081.66
663.57	1081.84
663.91	1083.06
664.25	1084.23
664.60	1082.22
664.94	1082.92
665.28	1084.04
665.62	1083.34
665.96	1082.26
666.30	1084.14
666.64	1081.80
666.98	1080.09
667.32	1079.10
667.66	1077.18
668.01	1075.05
668.35	1073.91
668.69	1076.53
669.03	1075.10
669.37	1077.21
669.71	1078.89
670.05	1080.16
670.39	1080.58
670.73	1081.28
671.07	1082.90
671.41	1082.85
671.75	1084.65
672.09	1084.58
672.43	1084.65
672.77	1085.63
673.11	1085.84
673.45	1085.75
673.79	1084.07
674.13	1082.40
674.47	1079.64
674.81	1079.78
675.15	1076.86
675.49	1075.99
675.83	1075.27
676.17	1077.25
676.51	1075.10
676.85	1079.60
677.19	1081.14
677.53	1085.61
677.87	1082.97
678.21	1083.48
678.55	1081.84
678.89	1078.31
679.23	1073.88
679.57	1074.87
679.90	1077.07
680.24	1074.70
680.58	1081.63
680.92	1084.67
681.26	1086.78
681.60	1086.73
681.94	1090.39
682.28	1088.89
682.62	1085.96
682.96	1085.47
683.29	1082.38
683.63	1079.55
683.97	1077.89
684.31	1077.98
684.65	1076.97
684.99	1077.96
685.33	1075.52
685.67	1074.03
686.00	1074.56
686.34	1075.15
686.68	1074.82
687.02	1078.17
687.36	1079.48
687.70	1081.12
688.03	1081.26
688.37	1081.40
688.71	1081.91
689.05	1079.27
689.39	1079.36
689.72	1081.75
690.06	1082.66
690.40	1085.10
690.74	1084.23
691.08	1086.87
691.41	1082.87
691.75	1080.09
692.09	1075.57
692.43	1078.19
692.76	1074.03
693.10	1076.62
693.44	1080.56
693.78	1081.19
694.11	1079.34
694.45	1081.21
694.79	1080.88
695.13	1077.02
695.46	1076.97
695.80	1078.66
696.14	1079.13
696.48	1075.43
696.81	1078.17
697.15	1079.53
697.49	1080.39
697.82	1078.43
698.16	1079.20
698.50	1078.33
698.83	1077.68
699.17	1078.19
699.51	1081.02
699.84	1080.20
700.18	1079.15
700.52	1078.85
700.85	1080.51
701.19	1079.53
701.53	1080.63
701.86	1083.74
702.20	1085.38
702.54	1082.08
702.87	1079.17
703.21	1080.18
703.55	1080.09
703.88	1077.96
704.22	1078.59
704.55	1081.14
704.89	1081.23
705.23	1080.48
705.56	1083.13
705.90	1082.54
706.23	1081.87
706.57	1082.26
706.91	1082.94
707.24	1081.19
707.58	1082.73
707.91	1081.96
708.25	1080.60
708.58	1080.34
708.92	1081.37
709.26	1081.49
709.59	1081.28
709.93	1082.29
710.26	1078.57
710.60	1079.71
710.93	1078.87
711.27	1077.91
711.60	1078.12
711.94	1078.80
712.27	1076.23
712.61	1076.95
712.94	1081.26
713.28	1080.39
713.61	1083.34
713.95	1085.26
714.28	1086.97
714.62	1084.09
714.95	1086.41
715.29	1083.08
715.62	1081.66
715.96	1080.93
716.29	1078.68
716.63	1078.89
716.96	1081.73
717.29	1081.19
717.63	1079.06
717.96	1081.16
718.30	1077.84
718.63	1077.28
718.97	1079.34
719.30	1079.85
719.63	1079.34
719.97	1082.43
720.30	1081.87
720.64	1075.71
720.97	1075.90
721.30	1076.39
721.64	1074.56
721.97	1072.69
722.31	1077.16
722.64	1075.73
722.97	1076.58
723.31	1078.31
723.64	1080.95
723.97	1079.74
724.31	1078.40
724.64	1080.39
724.98	1077.96
725.31	1075.78
725.64	1075.90
725.98	1077.61
726.31	1077.54
726.64	1080.46
726.97	1083.06
727.31	1085.77
727.64	1086.78
727.97	1085.73
728.31	1085.54
728.64	1086.08
728.97	1084.79
729.31	1082.99
729.64	1078.31
729.97	1076.90
730.30	1073.70
730.64	1071.19
730.97	1074.42
731.30	1075.43
731.63	1074.40
731.97	1077.70
732.30	1076.62
732.63	1074.17
732.96	1077.63
733.30	1078.75
733.63	1077.14
733.96	1078.78
734.29	1081.75
734.63	1078.61
734.96	1078.68
735.29	1081.80
735.62	1082.73
735.95	1079.27
736.29	1080.53
736.62	1080.16
736.95	1074.82
737.28	1072.95
737.61	1077.70
737.94	1078.03
738.28	1077.61
738.61	1082.26
738.94	1085.66
739.27	1079.53
739.60	1078.68
739.93	1076.20
740.27	1072.90
740.60	1071.71
740.93	1074.05
741.26	1075.15
741.59	1077.02
741.92	1079.97
742.25	1079.62
742.58	1080.18
742.91	1080.34
743.25	1079.27
743.58	1076.67
743.91	1076.95
744.24	1075.20
744.57	1074.47
744.90	1078.14
745.23	1079.38
745.56	1078.40
745.89	1079.27
746.22	1079.53
746.55	1078.36
746.88	1077.40
747.21	1078.19
747.54	1079.67
747.87	1080.44
748.20	1080.98
748.53	1080.41
748.87	1080.44
749.20	1078.94
749.53	1079.69
749.86	1076.97
750.19	1079.17
750.52	1078.05
750.85	1077.18
751.18	1074.54
751.51	1075.20
751.84	1074.91
752.16	1075.71
752.49	1078.24
752.82	1078.61
753.15	1082.19
753.48	1080.41
753.81	1081.87
754.14	1081.87
754.47	1083.04
754.80	1079.83
755.13	1078.43
755.46	1076.08
755.79	1072.64
756.12	1073.86
756.45	1074.84
756.78	1077.00
757.11	1078.33
757.43	1082.12
757.76	1079.69
758.09	1082.40
758.42	1082.76
758.75	1082.97
759.08	1080.53
759.41	1083.01
759.74	1079.76
760.07	1078.47
760.39	1078.14
760.72	1082.01
761.05	1084.42
761.38	1085.03
761.71	1084.21
762.04	1083.08
762.36	1081.28
762.69	1077.72
763.02	1077.86
763.35	1079.60
763.68	1081.07
