SpectraSuite Data File
++++++++++++++++++++++++++++++++++++
Date: Mon Aug 26 10:22:23 PDT 2019
User: corrico
Dark Spectrum Present: No
Reference Spectrum Present: No
Number of Sampled Component Spectra: 1
Spectrometers: USB2+H06089
Integration Time (usec): 2000 (USB2+H06089)
Spectra Averaged: 20 (USB2+H06089)
Boxcar Smoothing: 2 (USB2+H06089)
Correct for Electrical Dark: No (USB2+H06089)
Strobe/Lamp Enabled: No (USB2+H06089)
Correct for Detector Non-linearity: No (USB2+H06089)
Correct for Stray Light: No (USB2+H06089)
Number of Pixels in Processed Spectrum: 2048
>>>>>Begin Processed Spectral Data<<<<<
339.70	1029.95
340.07	1029.95
340.45	992.74
340.82	970.74
341.19	945.11
341.57	919.41
341.94	910.77
342.31	903.70
342.69	897.22
343.06	894.25
343.43	895.07
343.81	894.51
344.18	897.22
344.55	900.17
344.93	904.48
345.30	909.39
345.67	914.77
346.04	924.65
346.42	934.37
346.79	944.10
347.16	953.00
347.54	963.74
347.91	971.65
348.28	983.70
348.65	993.98
349.03	1001.75
349.40	1011.72
349.77	1019.00
350.14	1027.66
350.52	1035.13
350.89	1043.64
351.26	1046.80
351.63	1053.40
352.01	1055.25
352.38	1061.18
352.75	1062.32
353.12	1066.84
353.50	1069.79
353.87	1072.41
354.24	1070.14
354.61	1073.25
354.98	1077.28
355.36	1078.80
355.73	1079.34
356.10	1084.14
356.47	1083.76
356.84	1077.82
357.22	1076.74
357.59	1076.60
357.96	1072.71
358.33	1074.68
358.70	1079.69
359.08	1079.08
359.45	1080.51
359.82	1081.80
360.19	1082.05
360.56	1083.34
360.94	1082.17
361.31	1081.02
361.68	1080.65
362.05	1080.74
362.42	1076.18
362.79	1079.69
363.16	1080.46
363.54	1078.80
363.91	1074.33
364.28	1075.59
364.65	1073.11
365.02	1071.85
365.39	1073.79
365.76	1075.43
366.14	1074.07
366.51	1075.22
366.88	1073.56
367.25	1072.57
367.62	1073.60
367.99	1075.29
368.36	1074.10
368.73	1074.05
369.10	1073.91
369.48	1074.68
369.85	1073.77
370.22	1074.61
370.59	1075.66
370.96	1077.42
371.33	1074.45
371.70	1073.91
372.07	1074.73
372.44	1076.62
372.81	1076.95
373.18	1078.73
373.55	1080.13
373.93	1077.75
374.30	1074.00
374.67	1073.02
375.04	1074.07
375.41	1072.55
375.78	1075.48
376.15	1078.21
376.52	1078.78
376.89	1078.47
377.26	1079.46
377.63	1077.47
378.00	1079.69
378.37	1079.81
378.74	1080.41
379.11	1079.01
379.48	1079.90
379.85	1076.65
380.22	1079.29
380.59	1077.98
380.96	1083.32
381.33	1085.24
381.70	1086.36
382.07	1085.38
382.44	1086.90
382.81	1085.33
383.18	1083.62
383.55	1084.67
383.92	1083.55
384.29	1084.18
384.66	1082.17
385.03	1081.73
385.40	1080.09
385.77	1078.45
386.14	1080.60
386.51	1080.86
386.88	1081.44
387.25	1080.41
387.62	1079.83
387.99	1076.11
388.36	1076.39
388.73	1075.36
389.10	1076.15
389.46	1080.23
389.83	1080.93
390.20	1082.22
390.57	1084.11
390.94	1082.92
391.31	1082.19
391.68	1083.08
392.05	1082.52
392.42	1083.93
392.79	1084.79
393.16	1083.29
393.53	1083.11
393.89	1083.48
394.26	1079.55
394.63	1082.01
395.00	1083.55
395.37	1083.18
395.74	1086.41
396.11	1089.61
396.48	1090.95
396.84	1091.53
397.21	1089.73
397.58	1087.58
397.95	1086.62
398.32	1085.80
398.69	1088.54
399.06	1091.84
399.42	1090.57
399.79	1089.43
400.16	1089.19
400.53	1085.14
400.90	1085.14
401.27	1085.59
401.64	1089.92
402.00	1089.52
402.37	1090.95
402.74	1089.14
403.11	1089.87
403.48	1087.86
403.84	1090.36
404.21	1089.47
404.58	1090.41
404.95	1092.12
405.32	1094.50
405.68	1093.69
406.05	1095.02
406.42	1093.69
406.79	1094.34
407.16	1091.58
407.52	1091.63
407.89	1091.98
408.26	1098.04
408.63	1095.39
408.99	1097.29
409.36	1099.02
409.73	1099.28
410.10	1093.94
410.47	1096.17
410.83	1095.35
411.20	1094.97
411.57	1096.45
411.94	1099.86
412.30	1099.00
412.67	1098.06
413.04	1096.10
413.40	1098.88
413.77	1101.83
414.14	1101.69
414.51	1103.49
414.87	1106.84
415.24	1103.09
415.61	1097.22
415.97	1099.28
416.34	1100.10
416.71	1100.36
417.08	1101.85
417.44	1106.11
417.81	1104.73
418.18	1104.03
418.54	1103.16
418.91	1103.52
419.28	1104.24
419.64	1106.72
420.01	1110.89
420.38	1112.64
420.74	1116.79
421.11	1119.53
421.48	1121.09
421.84	1120.65
422.21	1119.60
422.58	1118.85
422.94	1120.98
423.31	1123.18
423.68	1127.11
424.04	1134.43
424.41	1138.86
424.77	1141.64
425.14	1145.90
425.51	1148.99
425.87	1152.29
426.24	1154.59
426.61	1157.16
426.97	1164.53
427.34	1166.90
427.70	1171.84
428.07	1177.71
428.44	1186.79
428.80	1191.80
429.17	1205.77
429.53	1213.83
429.90	1224.94
430.27	1233.65
430.63	1242.94
431.00	1251.09
431.36	1266.04
431.73	1277.68
432.09	1291.06
432.46	1301.95
432.83	1317.21
433.19	1331.02
433.56	1349.81
433.92	1368.79
434.29	1392.01
434.65	1415.23
435.02	1440.44
435.38	1467.61
435.75	1494.64
436.11	1527.06
436.48	1562.92
436.84	1595.24
437.21	1630.67
437.57	1667.98
437.94	1710.14
438.30	1751.28
438.67	1798.28
439.03	1842.82
439.40	1898.06
439.76	1951.91
440.13	2012.53
440.49	2080.88
440.86	2152.50
441.22	2224.61
441.59	2297.03
441.95	2376.16
442.32	2455.50
442.68	2552.92
443.05	2643.05
443.41	2746.81
443.78	2847.19
444.14	2959.02
444.51	3070.74
444.87	3208.73
445.24	3355.13
445.60	3512.07
445.96	3666.54
446.33	3839.56
446.69	4008.42
447.06	4178.51
447.42	4362.43
447.79	4557.77
448.15	4774.90
448.51	5004.88
448.88	5267.31
449.24	5510.21
449.61	5793.01
449.97	6064.49
450.33	6348.02
450.70	6607.57
451.06	6927.56
451.43	7227.69
451.79	7590.92
452.15	7996.86
452.52	8445.73
452.88	8921.07
453.24	9450.40
453.61	10033.62
453.97	10583.48
454.34	11140.79
454.70	11785.44
455.06	12435.45
455.43	13049.84
455.79	13663.16
456.15	14376.46
456.52	15026.87
456.88	15793.14
457.24	16528.77
457.61	17378.85
457.97	18142.55
458.33	18937.65
458.70	19708.62
459.06	20468.52
459.42	21305.15
459.79	22099.15
460.15	23007.37
460.51	23880.98
460.88	24809.91
461.24	25618.61
461.60	26594.36
461.96	27457.01
462.33	28281.93
462.69	29085.67
463.05	29924.15
463.42	30635.79
463.78	31287.32
464.14	31822.46
464.50	32400.36
464.87	32869.13
465.23	33216.93
465.59	33561.99
465.95	33908.30
466.32	34193.47
466.68	34422.52
467.04	34557.87
467.40	34707.22
467.77	34842.60
468.13	34808.80
468.49	34737.11
468.85	34677.63
469.22	34521.66
469.58	34177.32
469.94	33949.12
470.30	33634.50
470.66	33221.28
471.03	32624.12
471.39	32249.96
471.75	31605.96
472.11	31018.04
472.47	30646.30
472.84	30326.25
473.20	29843.09
473.56	29568.64
473.92	29128.41
474.28	28611.88
474.65	28127.97
475.01	27632.20
475.37	27063.73
475.73	26611.40
476.09	26094.77
476.45	25577.14
476.81	25083.47
477.18	24559.12
477.54	24103.91
477.90	23739.16
478.26	23311.31
478.62	22960.94
478.98	22657.06
479.34	22334.28
479.71	21916.19
480.07	21566.09
480.43	21203.38
480.79	20813.73
481.15	20447.88
481.51	20127.23
481.87	19875.76
482.23	19569.57
482.59	19301.72
482.96	19029.26
483.32	18743.15
483.68	18360.92
484.04	18017.40
484.40	17661.28
484.76	17292.98
485.12	16918.54
485.48	16596.08
485.84	16260.66
486.20	15912.20
486.56	15561.38
486.92	15261.02
487.28	14915.86
487.64	14558.44
488.00	14231.32
488.37	13890.45
488.73	13520.20
489.09	13165.98
489.45	12850.57
489.81	12540.01
490.17	12245.36
490.53	11966.62
490.89	11669.35
491.25	11367.63
491.61	11045.74
491.97	10714.20
492.33	10374.99
492.69	10082.00
493.05	9776.56
493.41	9480.25
493.77	9208.77
494.13	8958.26
494.49	8701.39
494.85	8463.24
495.21	8239.76
495.57	8025.58
495.93	7811.84
496.29	7605.17
496.64	7416.46
497.00	7218.40
497.36	7021.21
497.72	6828.77
498.08	6645.34
498.44	6462.99
498.80	6296.65
499.16	6133.98
499.52	5979.48
499.88	5851.01
500.24	5730.10
500.60	5603.34
500.96	5481.16
501.32	5367.22
501.68	5236.69
502.03	5100.99
502.39	4976.17
502.75	4846.66
503.11	4724.65
503.47	4604.77
503.83	4486.41
504.19	4368.47
504.55	4263.31
504.91	4166.55
505.26	4074.05
505.62	3992.56
505.98	3899.38
506.34	3801.94
506.70	3708.09
507.06	3615.29
507.42	3519.74
507.78	3447.56
508.13	3376.29
508.49	3296.20
508.85	3226.50
509.21	3157.66
509.57	3087.14
509.93	3014.96
510.28	2952.26
510.64	2889.79
511.00	2831.16
511.36	2771.22
511.72	2718.09
512.07	2669.38
512.43	2620.53
512.79	2568.50
513.15	2518.49
513.51	2476.52
513.86	2425.26
514.22	2381.35
514.58	2341.17
514.94	2301.14
515.30	2261.80
515.65	2227.23
516.01	2191.86
516.37	2161.70
516.73	2131.76
517.08	2104.26
517.44	2078.21
517.80	2051.03
518.16	2023.91
518.51	2002.02
518.87	1971.99
519.23	1944.96
519.59	1916.15
519.94	1886.87
520.30	1859.72
520.66	1833.76
521.01	1810.26
521.37	1790.77
521.73	1771.83
522.09	1750.67
522.44	1734.01
522.80	1712.13
523.16	1690.43
523.51	1664.96
523.87	1644.39
524.23	1626.91
524.58	1605.77
524.94	1594.12
525.30	1581.41
525.65	1569.10
526.01	1552.97
526.37	1543.07
526.72	1526.03
527.08	1512.15
527.44	1495.60
527.79	1484.09
528.15	1469.46
528.51	1456.70
528.86	1446.99
529.22	1438.40
529.58	1425.25
529.93	1414.41
530.29	1398.12
530.65	1390.23
531.00	1379.72
531.36	1371.25
531.71	1362.50
532.07	1360.74
532.43	1347.84
532.78	1340.78
533.14	1329.56
533.49	1326.80
533.85	1317.56
534.21	1313.37
534.56	1305.74
534.92	1302.06
535.27	1290.90
535.63	1282.80
535.98	1276.15
536.34	1268.71
536.69	1260.94
537.05	1254.48
537.41	1250.13
537.76	1246.27
538.12	1241.91
538.47	1238.73
538.83	1235.50
539.18	1233.58
539.54	1230.82
539.89	1227.59
540.25	1225.01
540.60	1222.58
540.96	1216.38
541.31	1207.08
541.67	1205.26
542.02	1204.18
542.38	1201.54
542.73	1199.83
543.09	1201.77
543.44	1197.23
543.80	1189.93
544.15	1188.20
544.51	1184.31
544.86	1179.09
545.22	1178.81
545.57	1176.35
545.93	1173.85
546.28	1171.48
546.64	1168.56
546.99	1164.77
547.35	1162.38
547.70	1158.54
548.05	1160.11
548.41	1159.43
548.76	1158.10
549.12	1158.82
549.47	1157.58
549.83	1152.81
550.18	1147.92
550.53	1146.28
550.89	1144.43
551.24	1145.20
551.60	1144.40
551.95	1143.05
552.30	1139.26
552.66	1138.74
553.01	1133.99
553.37	1134.20
553.72	1137.43
554.07	1137.15
554.43	1134.08
554.78	1133.87
555.13	1130.60
555.49	1129.29
555.84	1127.90
556.19	1125.47
556.55	1125.00
556.90	1126.36
557.26	1127.69
557.61	1126.29
557.96	1125.70
558.32	1122.22
558.67	1116.93
559.02	1110.56
559.37	1110.84
559.73	1109.77
560.08	1110.68
560.43	1112.22
560.79	1114.77
561.14	1110.75
561.49	1108.85
561.85	1104.29
562.20	1102.32
562.55	1099.47
562.90	1100.45
563.26	1102.04
563.61	1104.10
563.96	1104.45
564.32	1105.58
564.67	1107.33
565.02	1109.16
565.37	1110.37
565.73	1109.84
566.08	1108.57
566.43	1107.66
566.78	1106.82
567.14	1107.99
567.49	1107.75
567.84	1107.31
568.19	1106.21
568.54	1104.73
568.90	1101.06
569.25	1101.46
569.60	1099.42
569.95	1099.35
570.31	1097.85
570.66	1099.02
571.01	1099.00
571.36	1097.48
571.71	1096.61
572.06	1095.98
572.42	1094.15
572.77	1093.83
573.12	1097.34
573.47	1096.73
573.82	1097.85
574.18	1098.11
574.53	1093.57
574.88	1091.23
575.23	1090.46
575.58	1090.74
575.93	1088.93
576.28	1090.41
576.64	1092.28
576.99	1093.73
577.34	1094.50
577.69	1096.17
578.04	1099.28
578.39	1098.51
578.74	1099.21
579.09	1097.64
579.44	1096.28
579.80	1099.12
580.15	1096.70
580.50	1093.85
580.85	1092.91
581.20	1094.88
581.55	1090.32
581.90	1091.42
582.25	1089.59
582.60	1089.85
582.95	1090.69
583.30	1090.76
583.65	1091.91
584.00	1095.25
584.35	1095.25
584.71	1089.92
585.06	1091.49
585.41	1089.82
585.76	1088.07
586.11	1086.57
586.46	1088.84
586.81	1085.47
587.16	1085.54
587.51	1087.60
587.86	1087.04
588.21	1087.86
588.56	1088.98
588.91	1089.96
589.26	1087.65
589.61	1090.69
589.96	1090.22
590.31	1091.58
590.66	1092.80
591.01	1091.72
591.36	1089.54
591.71	1089.78
592.06	1088.04
592.41	1087.83
592.76	1089.40
593.10	1091.09
593.45	1093.22
593.80	1093.24
594.15	1091.74
594.50	1089.87
594.85	1085.47
595.20	1085.38
595.55	1083.53
595.90	1082.71
596.25	1083.57
596.60	1085.91
596.95	1085.54
597.30	1085.70
597.64	1098.09
597.99	1099.79
598.34	1099.51
598.69	1099.35
599.04	1100.92
599.39	1091.16
599.74	1091.63
600.09	1092.94
600.44	1089.82
600.78	1091.11
601.13	1088.84
601.48	1085.40
601.83	1085.19
602.18	1084.74
602.53	1082.10
602.88	1083.57
603.22	1086.17
603.57	1085.68
603.92	1086.66
604.27	1085.14
604.62	1083.48
604.97	1083.88
605.31	1081.66
605.66	1081.51
606.01	1081.56
606.36	1079.99
606.71	1077.86
607.05	1080.63
607.40	1080.86
607.75	1082.87
608.10	1084.07
608.44	1084.72
608.79	1082.36
609.14	1083.50
609.49	1082.40
609.84	1081.75
610.18	1082.05
610.53	1083.55
610.88	1082.33
611.23	1086.43
611.57	1084.77
611.92	1083.32
612.27	1082.61
612.62	1084.14
612.96	1079.27
613.31	1082.87
613.66	1086.99
614.00	1088.42
614.35	1088.35
614.70	1089.96
615.05	1090.90
615.39	1087.93
615.74	1089.14
616.09	1088.14
616.43	1089.29
616.78	1086.78
617.13	1090.13
617.47	1088.19
617.82	1089.80
618.17	1089.75
618.51	1088.65
618.86	1084.04
619.21	1085.56
619.55	1084.02
619.90	1081.68
620.25	1084.77
620.59	1088.82
620.94	1085.10
621.29	1086.17
621.63	1087.90
621.98	1085.80
622.32	1082.90
622.67	1086.10
623.02	1082.92
623.36	1082.59
623.71	1080.11
624.05	1078.31
624.40	1079.10
624.75	1079.90
625.09	1079.43
625.44	1083.79
625.78	1086.85
626.13	1084.39
626.48	1088.12
626.82	1087.11
627.17	1085.40
627.51	1082.36
627.86	1084.32
628.20	1083.46
628.55	1081.09
628.89	1081.58
629.24	1081.98
629.58	1078.66
629.93	1076.86
630.28	1082.19
630.62	1081.68
630.97	1083.81
631.31	1088.26
631.66	1089.19
632.00	1084.02
632.35	1084.35
632.69	1082.24
633.04	1081.09
633.38	1081.61
633.73	1085.17
634.07	1082.69
634.42	1085.33
634.76	1082.38
635.11	1079.03
635.45	1076.67
635.79	1079.69
636.14	1079.62
636.48	1082.38
636.83	1083.57
637.17	1084.77
637.52	1084.77
637.86	1084.42
638.21	1082.19
638.55	1082.92
638.89	1084.98
639.24	1086.24
639.58	1083.29
639.93	1082.12
640.27	1084.18
640.61	1084.89
640.96	1080.34
641.30	1080.63
641.65	1085.49
641.99	1082.61
642.33	1077.56
642.68	1079.31
643.02	1082.33
643.37	1081.87
643.71	1081.68
644.05	1082.03
644.40	1082.03
644.74	1080.63
645.08	1078.59
645.43	1080.81
645.77	1084.56
646.11	1084.63
646.46	1084.79
646.80	1081.61
647.14	1080.25
647.49	1078.64
647.83	1079.20
648.17	1077.42
648.52	1079.41
648.86	1080.25
649.20	1084.79
649.55	1086.45
649.89	1088.26
650.23	1086.83
650.57	1084.74
650.92	1079.48
651.26	1079.13
651.60	1076.04
651.95	1079.76
652.29	1081.68
652.63	1085.49
652.97	1081.84
653.32	1082.47
653.66	1081.28
654.00	1078.64
654.34	1076.32
654.69	1077.04
655.03	1081.68
655.37	1081.49
655.71	1083.74
656.05	1083.34
656.40	1084.39
656.74	1079.55
657.08	1079.41
657.42	1078.89
657.76	1078.07
658.11	1077.02
658.45	1078.66
658.79	1076.88
659.13	1076.13
659.47	1077.21
659.82	1077.07
660.16	1077.00
660.50	1078.36
660.84	1079.71
661.18	1079.31
661.52	1079.36
661.87	1081.80
662.21	1082.54
662.55	1083.32
662.89	1085.07
663.23	1086.15
663.57	1082.80
663.91	1082.61
664.25	1078.94
664.60	1077.40
664.94	1076.86
665.28	1078.64
665.62	1074.91
665.96	1077.51
666.30	1080.95
666.64	1081.35
666.98	1081.47
667.32	1085.49
667.66	1086.59
668.01	1084.72
668.35	1084.70
668.69	1084.84
669.03	1085.21
669.37	1084.70
669.71	1085.17
670.05	1087.09
670.39	1083.29
670.73	1079.76
671.07	1077.04
671.41	1076.93
671.75	1074.80
672.09	1079.48
672.43	1084.35
672.77	1087.27
673.11	1085.40
673.45	1086.78
673.79	1084.09
674.13	1081.75
674.47	1079.24
674.81	1077.68
675.15	1074.26
675.49	1075.85
675.83	1075.78
676.17	1078.87
676.51	1080.37
676.85	1083.86
677.19	1084.72
677.53	1083.04
677.87	1080.13
678.21	1082.61
678.55	1083.48
678.89	1082.22
679.23	1084.84
679.57	1087.18
679.90	1085.56
680.24	1083.83
680.58	1083.34
680.92	1078.87
681.26	1077.44
681.60	1076.04
681.94	1075.57
682.28	1076.60
682.62	1082.03
682.96	1081.05
683.29	1080.34
683.63	1081.61
683.97	1084.84
684.31	1079.60
684.65	1082.12
684.99	1082.92
685.33	1084.79
685.67	1078.43
686.00	1081.66
686.34	1081.42
686.68	1081.91
687.02	1078.40
687.36	1078.10
687.70	1080.88
688.03	1078.45
688.37	1078.19
688.71	1077.14
689.05	1081.07
689.39	1078.07
689.72	1080.67
690.06	1079.81
690.40	1080.58
690.74	1080.09
691.08	1076.86
691.41	1077.00
691.75	1081.21
692.09	1085.80
692.43	1088.19
692.76	1092.73
693.10	1094.15
693.44	1090.99
693.78	1088.04
694.11	1084.56
694.45	1083.13
694.79	1079.69
695.13	1078.96
695.46	1079.41
695.80	1079.97
696.14	1079.95
696.48	1079.90
696.81	1082.17
697.15	1082.29
697.49	1082.08
697.82	1083.20
698.16	1083.74
698.50	1083.81
698.83	1085.49
699.17	1085.26
699.51	1082.45
699.84	1081.05
700.18	1077.44
700.52	1073.00
700.85	1072.85
701.19	1074.89
701.53	1076.72
701.86	1079.83
702.20	1081.47
702.54	1081.40
702.87	1080.44
703.21	1080.06
703.55	1080.46
703.88	1082.12
704.22	1084.91
704.55	1088.70
704.89	1089.89
705.23	1089.17
705.56	1091.18
705.90	1089.92
706.23	1085.94
706.57	1086.45
706.91	1086.10
707.24	1081.33
707.58	1080.72
707.91	1083.55
708.25	1081.66
708.58	1080.23
708.92	1078.73
709.26	1078.05
709.59	1076.06
709.93	1077.28
710.26	1078.31
710.60	1080.70
710.93	1079.62
711.27	1076.95
711.60	1075.85
711.94	1075.36
712.27	1074.96
712.61	1073.98
712.94	1074.87
713.28	1076.51
713.61	1075.17
713.95	1075.57
714.28	1079.13
714.62	1080.39
714.95	1078.78
715.29	1082.54
715.62	1081.82
715.96	1080.81
716.29	1083.67
716.63	1082.64
716.96	1082.36
717.29	1083.22
717.63	1081.49
717.96	1079.41
718.30	1082.33
718.63	1080.27
718.97	1083.97
719.30	1084.39
719.63	1083.29
719.97	1081.12
720.30	1083.69
720.64	1082.15
720.97	1083.74
721.30	1083.32
721.64	1085.21
721.97	1081.54
722.31	1077.72
722.64	1077.86
722.97	1079.78
723.31	1081.51
723.64	1081.47
723.97	1083.22
724.31	1081.94
724.64	1081.14
724.98	1077.98
725.31	1081.94
725.64	1082.50
725.98	1081.28
726.31	1081.02
726.64	1081.35
726.97	1078.28
727.31	1079.01
727.64	1078.85
727.97	1079.13
728.31	1074.91
728.64	1078.59
728.97	1075.94
729.31	1078.89
729.64	1077.75
729.97	1083.01
730.30	1079.85
730.64	1082.45
730.97	1082.26
731.30	1082.01
731.63	1082.73
731.97	1083.76
732.30	1084.35
732.63	1082.76
732.96	1084.32
733.30	1080.56
733.63	1077.30
733.96	1072.67
734.29	1073.23
734.63	1072.46
734.96	1073.56
735.29	1075.62
735.62	1079.29
735.95	1081.70
736.29	1085.42
736.62	1084.65
736.95	1086.13
737.28	1084.39
737.61	1083.20
737.94	1080.81
738.28	1081.84
738.61	1081.91
738.94	1081.75
739.27	1080.06
739.60	1079.90
739.93	1081.44
740.27	1082.73
740.60	1084.67
740.93	1085.12
741.26	1086.69
741.59	1085.31
741.92	1083.93
742.25	1084.93
742.58	1084.25
742.91	1084.32
743.25	1083.41
743.58	1084.60
743.91	1079.78
744.24	1083.04
744.57	1082.69
744.90	1085.61
745.23	1085.19
745.56	1089.57
745.89	1089.10
746.22	1086.31
746.55	1082.92
746.88	1081.23
747.21	1084.02
747.54	1082.43
747.87	1084.39
748.20	1088.40
748.53	1085.17
748.87	1081.16
749.20	1079.46
749.53	1079.53
749.86	1075.20
750.19	1074.05
750.52	1075.15
750.85	1073.63
751.18	1071.05
751.51	1073.93
751.84	1080.06
752.16	1076.11
752.49	1080.41
752.82	1083.57
753.15	1079.71
753.48	1078.36
753.81	1081.37
754.14	1079.74
754.47	1078.07
754.80	1080.91
755.13	1079.24
755.46	1079.24
755.79	1078.85
756.12	1077.42
756.45	1077.96
756.78	1081.61
757.11	1083.27
757.43	1084.28
757.76	1085.31
758.09	1085.94
758.42	1083.32
758.75	1080.27
759.08	1079.95
759.41	1083.41
759.74	1082.83
760.07	1081.89
760.39	1080.34
760.72	1079.29
761.05	1076.15
761.38	1076.95
761.71	1077.42
762.04	1079.22
762.36	1080.48
762.69	1079.29
763.02	1077.21
763.35	1076.53
763.68	1077.04
764.01	1077.14
