SpectraSuite Data File
++++++++++++++++++++++++++++++++++++
Date: Mon Aug 26 10:22:23 PDT 2019
User: corrico
Dark Spectrum Present: No
Reference Spectrum Present: No
Number of Sampled Component Spectra: 1
Spectrometers: USB2+H06089
Integration Time (usec): 2000 (USB2+H06089)
Spectra Averaged: 20 (USB2+H06089)
Boxcar Smoothing: 2 (USB2+H06089)
Correct for Electrical Dark: No (USB2+H06089)
Strobe/Lamp Enabled: No (USB2+H06089)
Correct for Detector Non-linearity: No (USB2+H06089)
Correct for Stray Light: No (USB2+H06089)
Number of Pixels in Processed Spectrum: 2048
>>>>>Begin Processed Spectral Data<<<<<
339.70	1029.48
340.07	1029.48
340.45	995.50
340.82	976.64
341.19	954.63
341.57	930.13
341.94	920.39
342.31	906.63
342.69	898.84
343.06	893.38
343.43	892.66
343.81	892.33
344.18	900.15
344.55	905.51
344.93	913.09
345.30	915.73
345.67	922.94
346.04	929.45
346.42	935.82
346.79	942.67
347.16	952.15
347.54	962.71
347.91	974.01
348.28	983.17
348.65	989.60
349.03	999.01
349.40	1008.21
349.77	1015.70
350.14	1024.03
350.52	1033.86
350.89	1042.01
351.26	1046.83
351.63	1049.15
352.01	1053.59
352.38	1059.28
352.75	1063.33
353.12	1066.54
353.50	1073.09
353.87	1076.86
354.24	1075.27
354.61	1075.69
354.98	1080.81
355.36	1082.03
355.73	1080.74
356.10	1083.53
356.47	1085.61
356.84	1081.84
357.22	1084.25
357.59	1085.35
357.96	1084.70
358.33	1083.60
358.70	1082.47
359.08	1077.70
359.45	1079.20
359.82	1082.61
360.19	1080.11
360.56	1082.15
360.94	1081.54
361.31	1078.75
361.68	1074.40
362.05	1077.04
362.42	1078.07
362.79	1078.05
363.16	1078.17
363.54	1078.94
363.91	1077.04
364.28	1077.86
364.65	1078.40
365.02	1079.99
365.39	1079.34
365.76	1080.09
366.14	1076.41
366.51	1075.97
366.88	1075.29
367.25	1074.63
367.62	1072.22
367.99	1071.92
368.36	1071.45
368.73	1071.26
369.10	1072.83
369.48	1076.34
369.85	1077.79
370.22	1081.00
370.59	1077.49
370.96	1075.76
371.33	1072.04
371.70	1071.87
372.07	1070.14
372.44	1072.92
372.81	1075.55
373.18	1078.14
373.55	1077.89
373.93	1076.13
374.30	1076.93
374.67	1077.70
375.04	1074.42
375.41	1074.61
375.78	1077.21
376.15	1075.71
376.52	1074.68
376.89	1080.06
377.26	1080.44
377.63	1079.57
378.00	1081.07
378.37	1082.97
378.74	1085.12
379.11	1085.19
379.48	1086.92
379.85	1087.27
380.22	1084.21
380.59	1082.31
380.96	1079.83
381.33	1080.41
381.70	1078.05
382.07	1078.28
382.44	1079.34
382.81	1077.51
383.18	1073.14
383.55	1075.08
383.92	1076.32
384.29	1073.65
384.66	1073.58
385.03	1077.84
385.40	1079.53
385.77	1076.20
386.14	1074.28
386.51	1079.67
386.88	1079.46
387.25	1079.27
387.62	1082.19
387.99	1085.77
388.36	1082.43
388.73	1079.62
389.10	1076.86
389.46	1076.46
389.83	1076.86
390.20	1080.37
390.57	1082.99
390.94	1087.86
391.31	1088.40
391.68	1088.09
392.05	1088.33
392.42	1086.73
392.79	1082.80
393.16	1084.91
393.53	1084.70
393.89	1084.98
394.26	1083.69
394.63	1083.97
395.00	1084.04
395.37	1081.87
395.74	1081.40
396.11	1085.75
396.48	1087.88
396.84	1087.09
397.21	1089.68
397.58	1088.51
397.95	1085.49
398.32	1087.93
398.69	1087.55
399.06	1088.07
399.42	1087.18
399.79	1087.93
400.16	1084.51
400.53	1083.15
400.90	1084.67
401.27	1090.43
401.64	1091.25
402.00	1092.61
402.37	1094.55
402.74	1094.34
403.11	1089.68
403.48	1092.21
403.84	1091.06
404.21	1092.91
404.58	1091.09
404.95	1091.93
405.32	1089.80
405.68	1091.53
406.05	1090.24
406.42	1089.92
406.79	1091.16
407.16	1092.98
407.52	1093.33
407.89	1092.82
408.26	1094.55
408.63	1095.14
408.99	1093.24
409.36	1091.60
409.73	1090.55
410.10	1090.06
410.47	1089.71
410.83	1091.04
411.20	1089.54
411.57	1092.73
411.94	1096.68
412.30	1097.03
412.67	1094.95
413.04	1100.10
413.40	1099.77
413.77	1097.50
414.14	1098.98
414.51	1103.23
414.87	1104.05
415.24	1107.42
415.61	1108.69
415.97	1105.13
416.34	1106.72
416.71	1105.27
417.08	1102.77
417.44	1101.92
417.81	1107.82
418.18	1102.93
418.54	1101.08
418.91	1102.86
419.28	1101.46
419.64	1101.90
420.01	1105.74
420.38	1106.35
420.74	1107.75
421.11	1112.36
421.48	1113.44
421.84	1115.24
422.21	1120.70
422.58	1125.66
422.94	1130.17
423.31	1130.24
423.68	1136.35
424.04	1139.79
424.41	1140.38
424.77	1139.93
425.14	1146.79
425.51	1148.83
425.87	1152.18
426.24	1155.41
426.61	1162.33
426.97	1166.73
427.34	1170.97
427.70	1176.56
428.07	1184.90
428.44	1193.02
428.80	1199.13
429.17	1205.42
429.53	1213.68
429.90	1223.26
430.27	1231.17
430.63	1240.13
431.00	1255.84
431.36	1268.10
431.73	1279.38
432.09	1293.01
432.46	1310.00
432.83	1323.27
433.19	1338.48
433.56	1357.02
433.92	1375.49
434.29	1397.98
434.65	1421.74
435.02	1449.26
435.38	1478.98
435.75	1507.23
436.11	1535.02
436.48	1566.15
436.84	1599.87
437.21	1634.96
437.57	1674.68
437.94	1717.18
438.30	1761.18
438.67	1807.76
439.03	1851.79
439.40	1904.92
439.76	1959.00
440.13	2016.58
440.49	2087.10
440.86	2158.30
441.22	2231.91
441.59	2307.79
441.95	2394.79
442.32	2480.50
442.68	2576.70
443.05	2671.30
443.41	2775.20
443.78	2876.28
444.14	2985.63
444.51	3096.46
444.87	3243.84
445.24	3388.46
445.60	3547.60
445.96	3703.59
446.33	3877.28
446.69	4042.15
447.06	4218.63
447.42	4401.66
447.79	4596.60
448.15	4829.11
448.51	5055.81
448.88	5312.95
449.24	5561.25
449.61	5838.75
449.97	6109.17
450.33	6402.51
450.70	6685.95
451.06	7012.34
451.43	7327.94
451.79	7695.07
452.15	8109.86
452.52	8559.41
452.88	9042.61
453.24	9592.85
453.61	10189.59
453.97	10759.28
454.34	11324.14
454.70	11988.67
455.06	12629.72
455.43	13261.73
455.79	13861.57
456.15	14595.14
456.52	15254.32
456.88	16057.99
457.24	16792.38
457.61	17661.26
457.97	18439.00
458.33	19241.64
458.70	20010.90
459.06	20784.50
459.42	21631.28
459.79	22425.61
460.15	23335.23
460.51	24212.21
460.88	25158.68
461.24	25972.29
461.60	26950.73
461.96	27852.68
462.33	28720.27
462.69	29527.54
463.05	30393.40
463.42	31128.70
463.78	31765.05
464.14	32303.28
464.50	32924.25
464.87	33413.65
465.23	33756.70
465.59	34112.84
465.95	34434.73
466.32	34683.95
466.68	34908.55
467.04	35062.84
467.40	35221.95
467.77	35393.37
468.13	35372.38
468.49	35269.77
468.85	35180.38
469.22	34997.98
469.58	34641.03
469.94	34383.29
470.30	34065.33
470.66	33646.68
471.03	33049.30
471.39	32643.24
471.75	32007.86
472.11	31427.19
472.47	31082.36
472.84	30754.36
473.20	30267.29
473.56	29993.26
473.92	29535.06
474.28	28986.13
474.65	28503.16
475.01	28007.27
475.37	27433.70
475.73	26992.20
476.09	26480.68
476.45	25958.13
476.81	25450.26
477.18	24912.80
477.54	24441.21
477.90	24078.24
478.26	23647.09
478.62	23295.96
478.98	22997.10
479.34	22667.71
479.71	22230.24
480.07	21863.32
480.43	21485.60
480.79	21068.99
481.15	20701.69
481.51	20369.52
481.87	20113.35
482.23	19836.91
482.59	19592.67
482.96	19306.03
483.32	19013.60
483.68	18642.53
484.04	18277.22
484.40	17891.36
484.76	17521.81
485.12	17153.51
485.48	16808.23
485.84	16454.41
486.20	16084.54
486.56	15703.22
486.92	15387.17
487.28	15045.27
487.64	14690.75
488.00	14364.08
488.37	14043.71
488.73	13677.46
489.09	13319.31
489.45	12987.21
489.81	12671.12
490.17	12365.31
490.53	12065.39
490.89	11746.45
491.25	11445.43
491.61	11125.20
491.97	10810.47
492.33	10481.81
492.69	10195.07
493.05	9882.56
493.41	9598.86
493.77	9310.86
494.13	9061.71
494.49	8799.22
494.85	8554.82
495.21	8328.30
495.57	8111.92
495.93	7892.92
496.29	7686.18
496.64	7494.04
497.00	7287.19
497.36	7090.02
497.72	6886.42
498.08	6697.19
498.44	6509.59
498.80	6338.26
499.16	6173.82
499.52	6022.97
499.88	5887.76
500.24	5772.09
500.60	5651.20
500.96	5526.45
501.32	5410.78
501.68	5290.71
502.03	5150.07
502.39	5017.36
502.75	4885.80
503.11	4755.99
503.47	4637.61
503.83	4523.46
504.19	4405.05
504.55	4294.72
504.91	4200.96
505.26	4100.64
505.62	4009.55
505.98	3918.24
506.34	3822.38
506.70	3725.38
507.06	3636.47
507.42	3554.85
507.78	3476.94
508.13	3400.66
508.49	3322.04
508.85	3251.59
509.21	3177.04
509.57	3108.14
509.93	3038.88
510.28	2973.18
510.64	2903.81
511.00	2838.04
511.36	2781.66
511.72	2729.77
512.07	2680.48
512.43	2635.79
512.79	2587.35
513.15	2535.76
513.51	2487.69
513.86	2441.16
514.22	2396.71
514.58	2357.01
514.94	2318.11
515.30	2286.68
515.65	2252.37
516.01	2218.41
516.37	2185.38
516.73	2152.78
517.08	2120.13
517.44	2088.93
517.80	2059.44
518.16	2031.44
518.51	2004.01
518.87	1973.00
519.23	1945.80
519.59	1917.30
519.94	1888.02
520.30	1864.92
520.66	1845.28
521.01	1821.94
521.37	1800.32
521.73	1780.19
522.09	1760.06
522.44	1741.36
522.80	1723.78
523.16	1700.91
523.51	1682.28
523.87	1660.82
524.23	1640.97
524.58	1618.34
524.94	1606.22
525.30	1592.22
525.65	1575.79
526.01	1557.18
526.37	1547.26
526.72	1532.11
527.08	1519.73
527.44	1507.87
527.79	1494.27
528.15	1478.91
528.51	1463.54
528.86	1449.10
529.22	1437.18
529.58	1422.13
529.93	1411.32
530.29	1402.26
530.65	1393.74
531.00	1382.23
531.36	1376.26
531.71	1368.11
532.07	1358.66
532.43	1349.53
532.78	1343.42
533.14	1337.45
533.49	1330.13
533.85	1325.56
534.21	1318.03
534.56	1308.85
534.92	1303.16
535.27	1296.40
535.63	1290.03
535.98	1281.14
536.34	1276.36
536.69	1272.29
537.05	1264.92
537.41	1258.13
537.76	1254.41
538.12	1249.71
538.47	1244.04
538.83	1242.89
539.18	1237.16
539.54	1234.05
539.89	1228.03
540.25	1224.69
540.60	1222.84
540.96	1220.14
541.31	1214.39
541.67	1216.66
542.02	1212.09
542.38	1205.05
542.73	1200.55
543.09	1195.87
543.44	1189.55
543.80	1182.46
544.15	1178.88
544.51	1178.34
544.86	1179.44
545.22	1177.22
545.57	1178.27
545.93	1178.55
546.28	1173.54
546.64	1171.32
546.99	1168.68
547.35	1165.61
547.70	1162.99
548.05	1164.23
548.41	1161.26
548.76	1159.36
549.12	1158.73
549.47	1152.76
549.83	1147.82
550.18	1143.77
550.53	1142.18
550.89	1139.61
551.24	1141.57
551.60	1140.47
551.95	1139.19
552.30	1137.08
552.66	1137.36
553.01	1134.32
553.37	1133.78
553.72	1133.59
554.07	1133.15
554.43	1129.78
554.78	1127.79
555.13	1127.74
555.49	1126.10
555.84	1126.08
556.19	1125.87
556.55	1127.53
556.90	1126.10
557.26	1125.42
557.61	1123.06
557.96	1125.24
558.32	1125.84
558.67	1123.86
559.02	1124.72
559.37	1123.13
559.73	1120.20
560.08	1116.44
560.43	1120.46
560.79	1117.35
561.14	1119.60
561.49	1122.73
561.85	1123.25
562.20	1118.82
562.55	1118.40
562.90	1116.53
563.26	1111.89
563.61	1111.15
563.96	1109.39
564.32	1110.28
564.67	1108.34
565.02	1106.28
565.37	1105.83
565.73	1104.64
566.08	1103.56
566.43	1104.99
566.78	1105.79
567.14	1104.50
567.49	1104.15
567.84	1105.90
568.19	1101.39
568.54	1104.83
568.90	1102.28
569.25	1102.79
569.60	1101.53
569.95	1102.77
570.31	1097.78
570.66	1101.15
571.01	1100.36
571.36	1103.84
571.71	1107.49
572.06	1110.40
572.42	1110.37
572.77	1111.17
573.12	1108.01
573.47	1102.16
573.82	1097.27
574.18	1093.31
574.53	1090.81
574.88	1085.77
575.23	1087.58
575.58	1088.30
575.93	1088.79
576.28	1089.75
576.64	1090.67
576.99	1089.66
577.34	1090.97
577.69	1091.77
578.04	1092.82
578.39	1093.52
578.74	1093.08
579.09	1091.16
579.44	1091.44
579.80	1089.87
580.15	1091.60
580.50	1092.80
580.85	1091.49
581.20	1090.95
581.55	1089.33
581.90	1089.22
582.25	1089.89
582.60	1089.66
582.95	1089.14
583.30	1092.56
583.65	1089.87
584.00	1088.28
584.35	1089.99
584.71	1089.03
585.06	1087.79
585.41	1087.55
585.76	1086.99
586.11	1085.49
586.46	1085.91
586.81	1083.60
587.16	1083.43
587.51	1085.14
587.86	1092.30
588.21	1093.05
588.56	1095.53
588.91	1094.55
589.26	1092.35
589.61	1084.46
589.96	1082.85
590.31	1080.53
590.66	1082.78
591.01	1087.41
591.36	1090.60
591.71	1092.45
592.06	1093.31
592.41	1095.23
592.76	1094.60
593.10	1092.96
593.45	1090.71
593.80	1092.02
594.15	1089.07
594.50	1083.22
594.85	1081.40
595.20	1081.56
595.55	1081.96
595.90	1083.01
596.25	1086.62
596.60	1087.27
596.95	1087.86
597.30	1086.13
597.64	1095.53
597.99	1094.57
598.34	1095.28
598.69	1096.05
599.04	1096.21
599.39	1086.87
599.74	1087.95
600.09	1089.59
600.44	1090.03
600.78	1090.83
601.13	1088.47
601.48	1089.61
601.83	1087.27
602.18	1087.30
602.53	1087.09
602.88	1089.10
603.22	1088.42
603.57	1091.23
603.92	1091.34
604.27	1090.95
604.62	1089.50
604.97	1089.89
605.31	1087.97
605.66	1087.34
606.01	1083.81
606.36	1086.59
606.71	1084.72
607.05	1083.43
607.40	1082.54
607.75	1086.43
608.10	1086.64
608.44	1087.27
608.79	1090.55
609.14	1089.14
609.49	1088.75
609.84	1085.14
610.18	1084.44
610.53	1084.42
610.88	1087.48
611.23	1084.21
611.57	1085.73
611.92	1087.23
612.27	1086.78
612.62	1088.40
612.96	1092.12
613.31	1093.31
613.66	1091.44
614.00	1090.92
614.35	1089.12
614.70	1088.61
615.05	1086.27
615.39	1086.34
615.74	1086.92
616.09	1082.73
616.43	1080.27
616.78	1084.30
617.13	1081.91
617.47	1080.44
617.82	1084.84
618.17	1090.71
618.51	1087.79
618.86	1092.45
619.21	1094.74
619.55	1093.94
619.90	1089.78
620.25	1090.88
620.59	1087.16
620.94	1084.67
621.29	1086.43
621.63	1084.63
621.98	1086.34
622.32	1088.58
622.67	1088.23
623.02	1088.19
623.36	1089.26
623.71	1085.70
624.05	1081.63
624.40	1081.80
624.75	1079.24
625.09	1080.86
625.44	1079.17
625.78	1078.64
626.13	1078.17
626.48	1077.58
626.82	1075.24
627.17	1079.43
627.51	1082.26
627.86	1081.77
628.20	1080.72
628.55	1082.83
628.89	1082.71
629.24	1084.58
629.58	1086.06
629.93	1084.32
630.28	1082.97
630.62	1082.36
630.97	1080.44
631.31	1080.39
631.66	1083.20
632.00	1084.14
632.35	1084.98
632.69	1086.85
633.04	1085.82
633.38	1087.53
633.73	1088.07
634.07	1087.69
634.42	1085.94
634.76	1086.97
635.11	1081.54
635.45	1079.95
635.79	1080.53
636.14	1079.31
636.48	1079.22
636.83	1082.47
637.17	1085.66
637.52	1084.02
637.86	1085.21
638.21	1083.36
638.55	1084.44
638.89	1081.61
639.24	1082.66
639.58	1083.62
639.93	1083.01
640.27	1083.88
640.61	1086.97
640.96	1087.16
641.30	1084.96
641.65	1086.48
641.99	1085.84
642.33	1084.35
642.68	1082.78
643.02	1084.04
643.37	1086.01
643.71	1087.41
644.05	1086.97
644.40	1086.41
644.74	1090.24
645.08	1088.21
645.43	1087.62
645.77	1092.07
646.11	1091.30
646.46	1087.46
646.80	1088.37
647.14	1084.21
647.49	1078.85
647.83	1079.41
648.17	1081.80
648.52	1081.35
648.86	1083.81
649.20	1082.38
649.55	1081.47
649.89	1077.28
650.23	1076.65
650.57	1078.59
650.92	1080.74
651.26	1080.34
651.60	1083.74
651.95	1083.62
652.29	1077.49
652.63	1076.39
652.97	1077.77
653.32	1077.51
653.66	1076.48
654.00	1081.96
654.34	1083.06
654.69	1082.78
655.03	1082.87
655.37	1084.04
655.71	1084.79
656.05	1083.57
656.40	1082.40
656.74	1080.11
657.08	1079.83
657.42	1075.55
657.76	1076.41
658.11	1077.33
658.45	1075.38
658.79	1075.45
659.13	1080.95
659.47	1082.85
659.82	1081.68
660.16	1084.23
660.50	1086.85
660.84	1082.03
661.18	1080.13
661.52	1081.77
661.87	1082.19
662.21	1080.77
662.55	1085.19
662.89	1084.04
663.23	1083.01
663.57	1084.49
663.91	1085.84
664.25	1081.94
664.60	1080.44
664.94	1080.27
665.28	1077.33
665.62	1075.38
665.96	1076.37
666.30	1076.90
666.64	1077.98
666.98	1080.30
667.32	1079.36
667.66	1078.66
668.01	1080.60
668.35	1080.48
668.69	1080.98
669.03	1082.54
669.37	1085.19
669.71	1086.55
670.05	1085.84
670.39	1085.38
670.73	1083.97
671.07	1080.27
671.41	1079.50
671.75	1079.01
672.09	1079.69
672.43	1081.68
672.77	1082.01
673.11	1081.12
673.45	1081.54
673.79	1079.74
674.13	1078.14
674.47	1080.46
674.81	1080.11
675.15	1080.95
675.49	1079.69
675.83	1080.88
676.17	1080.04
676.51	1080.88
676.85	1082.94
677.19	1084.39
677.53	1084.14
677.87	1085.99
678.21	1085.12
678.55	1086.01
678.89	1086.01
679.23	1084.28
679.57	1081.42
679.90	1081.02
680.24	1077.37
680.58	1078.80
680.92	1080.95
681.26	1083.79
681.60	1086.83
681.94	1087.25
682.28	1088.07
682.62	1084.65
682.96	1084.70
683.29	1082.43
683.63	1082.94
683.97	1080.51
684.31	1080.23
684.65	1077.86
684.99	1076.86
685.33	1076.88
685.67	1075.73
686.00	1077.84
686.34	1078.87
686.68	1079.10
687.02	1079.50
687.36	1080.39
687.70	1080.02
688.03	1082.36
688.37	1082.87
688.71	1081.07
689.05	1082.17
689.39	1084.86
689.72	1084.18
690.06	1084.11
690.40	1084.35
690.74	1084.74
691.08	1083.81
691.41	1080.23
691.75	1079.97
692.09	1080.41
692.43	1076.23
692.76	1077.02
693.10	1080.16
693.44	1080.27
693.78	1075.43
694.11	1079.06
694.45	1078.50
694.79	1079.81
695.13	1079.43
695.46	1083.06
695.80	1083.69
696.14	1081.98
696.48	1080.84
696.81	1080.27
697.15	1083.62
697.49	1081.37
697.82	1079.88
698.16	1076.44
698.50	1078.96
698.83	1076.41
699.17	1077.93
699.51	1078.73
699.84	1082.47
700.18	1082.24
700.52	1084.72
700.85	1083.90
701.19	1087.32
701.53	1087.11
701.86	1084.18
702.20	1085.38
702.54	1084.25
702.87	1081.26
703.21	1078.07
703.55	1079.24
703.88	1071.40
704.22	1070.09
704.55	1070.09
704.89	1070.61
705.23	1069.41
705.56	1074.14
705.90	1078.61
706.23	1079.36
706.57	1077.93
706.91	1079.83
707.24	1083.15
707.58	1083.46
707.91	1083.97
708.25	1086.15
708.58	1086.38
708.92	1083.20
709.26	1080.32
709.59	1078.80
709.93	1077.23
710.26	1079.22
710.60	1077.28
710.93	1077.89
711.27	1077.14
711.60	1078.07
711.94	1077.33
712.27	1076.86
712.61	1078.71
712.94	1079.90
713.28	1079.76
713.61	1079.74
713.95	1082.17
714.28	1082.36
714.62	1084.02
714.95	1084.91
715.29	1083.67
715.62	1083.67
715.96	1081.28
716.29	1082.47
716.63	1084.46
716.96	1084.51
717.29	1084.02
717.63	1085.45
717.96	1080.98
718.30	1079.15
718.63	1081.40
718.97	1081.56
719.30	1079.08
719.63	1082.15
719.97	1083.43
720.30	1081.05
720.64	1081.02
720.97	1082.12
721.30	1081.98
721.64	1082.22
721.97	1082.17
722.31	1083.55
722.64	1084.07
722.97	1082.64
723.31	1077.42
723.64	1077.04
723.97	1075.55
724.31	1076.97
724.64	1077.18
724.98	1081.82
725.31	1083.55
725.64	1082.40
725.98	1080.25
726.31	1080.74
726.64	1076.06
726.97	1074.77
727.31	1074.17
727.64	1073.81
727.97	1072.71
728.31	1075.52
728.64	1075.52
728.97	1075.92
729.31	1075.41
729.64	1075.94
729.97	1077.30
730.30	1076.48
730.64	1076.74
730.97	1079.95
731.30	1081.19
731.63	1081.40
731.97	1085.05
732.30	1086.22
732.63	1084.67
732.96	1083.97
733.30	1086.94
733.63	1081.23
733.96	1081.16
734.29	1081.61
734.63	1084.56
734.96	1082.83
735.29	1084.77
735.62	1083.25
735.95	1082.40
736.29	1080.16
736.62	1077.00
736.95	1077.82
737.28	1079.01
737.61	1080.93
737.94	1079.15
738.28	1079.38
738.61	1081.77
738.94	1082.97
739.27	1082.69
739.60	1083.76
739.93	1083.67
740.27	1080.74
740.60	1081.30
740.93	1082.40
741.26	1084.16
741.59	1083.01
741.92	1083.41
742.25	1081.00
742.58	1077.04
742.91	1074.10
743.25	1074.68
743.58	1076.48
743.91	1080.39
744.24	1083.36
744.57	1083.13
744.90	1088.02
745.23	1083.27
745.56	1082.22
745.89	1080.65
746.22	1081.73
746.55	1077.33
746.88	1079.62
747.21	1079.76
747.54	1080.77
747.87	1082.52
748.20	1082.94
748.53	1085.21
748.87	1084.11
749.20	1084.23
749.53	1083.57
749.86	1083.55
750.19	1082.73
750.52	1084.84
750.85	1082.12
751.18	1081.87
751.51	1081.56
751.84	1082.24
752.16	1080.44
752.49	1082.59
752.82	1082.92
753.15	1084.16
753.48	1082.08
753.81	1082.08
754.14	1081.70
754.47	1082.12
754.80	1080.32
755.13	1079.74
755.46	1077.70
755.79	1075.45
756.12	1076.53
756.45	1077.70
756.78	1078.61
757.11	1080.65
757.43	1081.94
757.76	1077.21
758.09	1074.35
758.42	1074.91
758.75	1071.94
759.08	1072.97
759.41	1078.21
759.74	1080.46
760.07	1077.33
760.39	1079.88
760.72	1078.05
761.05	1075.80
761.38	1076.06
761.71	1079.01
762.04	1076.11
762.36	1077.14
762.69	1075.50
763.02	1074.42
763.35	1072.25
763.68	1074.17
764.01	1075.41
