SpectraSuite Data File
++++++++++++++++++++++++++++++++++++
Date: Mon Aug 26 10:22:30 PDT 2019
User: corrico
Dark Spectrum Present: No
Reference Spectrum Present: No
Number of Sampled Component Spectra: 1
Spectrometers: USB2+H06089
Integration Time (usec): 2000 (USB2+H06089)
Spectra Averaged: 20 (USB2+H06089)
Boxcar Smoothing: 2 (USB2+H06089)
Correct for Electrical Dark: No (USB2+H06089)
Strobe/Lamp Enabled: No (USB2+H06089)
Correct for Detector Non-linearity: No (USB2+H06089)
Correct for Stray Light: No (USB2+H06089)
Number of Pixels in Processed Spectrum: 2048
>>>>>Begin Processed Spectral Data<<<<<
339.70	1029.25
340.07	1029.25
340.45	997.84
340.82	977.55
341.19	951.57
341.57	929.78
341.94	916.98
342.31	905.65
342.69	899.80
343.06	899.47
343.43	896.82
343.81	900.52
344.18	905.76
344.55	908.60
344.93	913.39
345.30	915.41
345.67	923.18
346.04	929.61
346.42	938.44
346.79	947.26
347.16	960.53
347.54	968.42
347.91	977.34
348.28	987.66
348.65	997.82
349.03	1007.53
349.40	1016.10
349.77	1022.63
350.14	1029.39
350.52	1036.48
350.89	1044.14
351.26	1047.39
351.63	1055.32
352.01	1058.04
352.38	1063.21
352.75	1063.87
353.12	1069.44
353.50	1068.83
353.87	1072.74
354.24	1072.50
354.61	1073.21
354.98	1072.83
355.36	1078.21
355.73	1081.98
356.10	1082.83
356.47	1085.00
356.84	1087.16
357.22	1088.00
357.59	1086.66
357.96	1088.16
358.33	1085.75
358.70	1085.40
359.08	1082.33
359.45	1082.69
359.82	1081.05
360.19	1082.97
360.56	1082.26
360.94	1083.83
361.31	1080.98
361.68	1083.83
362.05	1082.12
362.42	1084.98
362.79	1084.58
363.16	1081.70
363.54	1077.04
363.91	1078.31
364.28	1076.13
364.65	1075.57
365.02	1079.01
365.39	1080.37
365.76	1079.60
366.14	1077.00
366.51	1078.43
366.88	1076.60
367.25	1074.40
367.62	1071.92
367.99	1074.49
368.36	1072.60
368.73	1074.82
369.10	1073.49
369.48	1073.35
369.85	1072.48
370.22	1070.07
370.59	1069.44
370.96	1068.99
371.33	1068.81
371.70	1068.74
372.07	1071.47
372.44	1073.95
372.81	1078.59
373.18	1080.27
373.55	1080.13
373.93	1079.62
374.30	1077.72
374.67	1076.18
375.04	1077.72
375.41	1077.47
375.78	1076.51
376.15	1077.56
376.52	1081.82
376.89	1083.88
377.26	1083.48
377.63	1082.83
378.00	1078.38
378.37	1075.34
378.74	1074.05
379.11	1073.72
379.48	1074.10
379.85	1077.75
380.22	1075.92
380.59	1072.62
380.96	1072.22
381.33	1072.71
381.70	1071.50
382.07	1074.07
382.44	1078.47
382.81	1080.60
383.18	1081.30
383.55	1080.25
383.92	1082.73
384.29	1081.89
384.66	1083.29
385.03	1080.09
385.40	1080.11
385.77	1077.21
386.14	1076.08
386.51	1073.98
386.88	1076.69
387.25	1080.20
387.62	1081.26
387.99	1083.06
388.36	1082.76
388.73	1084.39
389.10	1083.62
389.46	1081.96
389.83	1079.36
390.20	1079.60
390.57	1082.54
390.94	1084.53
391.31	1084.21
391.68	1082.99
392.05	1084.63
392.42	1085.59
392.79	1086.87
393.16	1090.53
393.53	1092.47
393.89	1091.58
394.26	1090.90
394.63	1087.25
395.00	1086.78
395.37	1089.14
395.74	1092.16
396.11	1087.51
396.48	1085.91
396.84	1082.73
397.21	1081.94
397.58	1079.03
397.95	1083.97
398.32	1086.24
398.69	1087.97
399.06	1089.03
399.42	1090.41
399.79	1090.20
400.16	1091.53
400.53	1090.34
400.90	1090.81
401.27	1089.87
401.64	1087.79
402.00	1087.83
402.37	1089.31
402.74	1085.03
403.11	1084.49
403.48	1086.20
403.84	1085.96
404.21	1087.81
404.58	1088.98
404.95	1090.27
405.32	1089.00
405.68	1089.75
406.05	1089.17
406.42	1092.05
406.79	1092.98
407.16	1091.63
407.52	1091.51
407.89	1092.73
408.26	1094.39
408.63	1094.53
408.99	1096.92
409.36	1097.64
409.73	1097.73
410.10	1095.58
410.47	1094.57
410.83	1093.52
411.20	1092.68
411.57	1093.87
411.94	1092.21
412.30	1094.41
412.67	1096.38
413.04	1095.07
413.40	1093.90
413.77	1098.04
414.14	1096.21
414.51	1097.52
414.87	1099.12
415.24	1101.69
415.61	1100.57
415.97	1105.11
416.34	1103.98
416.71	1104.69
417.08	1104.15
417.44	1106.61
417.81	1102.56
418.18	1103.23
418.54	1103.98
418.91	1103.77
419.28	1104.31
419.64	1109.02
420.01	1111.97
420.38	1115.48
420.74	1116.88
421.11	1115.29
421.48	1113.49
421.84	1113.67
422.21	1115.73
422.58	1117.18
422.94	1118.68
423.31	1121.94
423.68	1126.76
424.04	1128.89
424.41	1130.20
424.77	1138.06
425.14	1144.48
425.51	1146.44
425.87	1150.82
426.24	1156.76
426.61	1158.12
426.97	1161.77
427.34	1167.74
427.70	1175.14
428.07	1180.45
428.44	1186.53
428.80	1194.23
429.17	1201.40
429.53	1206.69
429.90	1216.03
430.27	1227.24
430.63	1233.77
431.00	1245.21
431.36	1257.31
431.73	1268.03
432.09	1283.13
432.46	1300.07
432.83	1316.64
433.19	1331.18
433.56	1355.31
433.92	1374.25
434.29	1395.66
434.65	1415.93
435.02	1443.62
435.38	1468.50
435.75	1492.89
436.11	1522.42
436.48	1554.21
436.84	1583.91
437.21	1614.60
437.57	1653.26
437.94	1693.75
438.30	1737.89
438.67	1787.56
439.03	1838.54
439.40	1893.14
439.76	1948.94
440.13	2004.08
440.49	2066.11
440.86	2131.08
441.22	2204.41
441.59	2278.56
441.95	2361.25
442.32	2448.48
442.68	2541.59
443.05	2632.59
443.41	2731.90
443.78	2832.42
444.14	2937.26
444.51	3050.68
444.87	3189.24
445.24	3324.61
445.60	3475.51
445.96	3632.77
446.33	3802.74
446.69	3956.02
447.06	4133.97
447.42	4321.87
447.79	4509.63
448.15	4736.54
448.51	4967.44
448.88	5228.64
449.24	5467.09
449.61	5749.57
449.97	6008.20
450.33	6290.21
450.70	6552.38
451.06	6874.20
451.43	7179.01
451.79	7550.45
452.15	7947.73
452.52	8392.08
452.88	8858.69
453.24	9381.19
453.61	9945.83
453.97	10502.45
454.34	11043.72
454.70	11674.76
455.06	12308.25
455.43	12935.09
455.79	13536.14
456.15	14247.12
456.52	14909.14
456.88	15679.72
457.24	16395.76
457.61	17234.77
457.97	17991.98
458.33	18760.21
458.70	19500.22
459.06	20252.16
459.42	21071.16
459.79	21849.23
460.15	22759.07
460.51	23626.96
460.88	24550.65
461.24	25355.98
461.60	26314.88
461.96	27154.97
462.33	27971.51
462.69	28730.57
463.05	29540.09
463.42	30238.48
463.78	30871.31
464.14	31416.96
464.50	32019.91
464.87	32516.83
465.23	32850.64
465.59	33183.97
465.95	33500.16
466.32	33738.89
466.68	33937.37
467.04	34069.24
467.40	34220.32
467.77	34350.45
468.13	34344.86
468.49	34276.91
468.85	34224.69
469.22	34048.48
469.58	33721.53
469.94	33480.61
470.30	33157.32
470.66	32744.54
471.03	32174.57
471.39	31806.08
471.75	31158.24
472.11	30565.64
472.47	30192.26
472.84	29877.59
473.20	29362.79
473.56	29108.75
473.92	28698.31
474.28	28184.33
474.65	27690.46
475.01	27213.74
475.37	26625.98
475.73	26155.95
476.09	25636.29
476.45	25103.81
476.81	24591.82
477.18	24058.53
477.54	23624.88
477.90	23267.66
478.26	22863.31
478.62	22531.35
478.98	22250.28
479.34	21905.10
479.71	21491.99
480.07	21149.38
480.43	20795.22
480.79	20428.48
481.15	20088.96
481.51	19797.73
481.87	19554.12
482.23	19270.80
482.59	19015.33
482.96	18740.83
483.32	18441.41
483.68	18075.42
484.04	17759.17
484.40	17403.15
484.76	17036.31
485.12	16678.28
485.48	16368.07
485.84	16010.57
486.20	15642.46
486.56	15294.28
486.92	14980.88
487.28	14616.97
487.64	14255.71
488.00	13939.81
488.37	13610.45
488.73	13259.28
489.09	12914.65
489.45	12609.45
489.81	12298.37
490.17	12003.58
490.53	11723.74
490.89	11422.45
491.25	11116.51
491.61	10802.98
491.97	10488.92
492.33	10161.08
492.69	9884.06
493.05	9587.14
493.41	9304.03
493.77	9027.66
494.13	8774.04
494.49	8523.58
494.85	8286.83
495.21	8070.64
495.57	7861.41
495.93	7664.34
496.29	7466.94
496.64	7287.61
497.00	7098.61
497.36	6910.69
497.72	6717.34
498.08	6542.66
498.44	6361.88
498.80	6195.89
499.16	6042.96
499.52	5898.20
499.88	5761.79
500.24	5649.91
500.60	5531.60
500.96	5420.17
501.32	5299.14
501.68	5181.74
502.03	5047.55
502.39	4918.85
502.75	4775.44
503.11	4654.32
503.47	4530.06
503.83	4415.30
504.19	4299.24
504.55	4196.98
504.91	4105.51
505.26	4013.64
505.62	3924.42
505.98	3837.12
506.34	3748.88
506.70	3649.88
507.06	3559.35
507.42	3475.56
507.78	3402.86
508.13	3330.49
508.49	3262.92
508.85	3198.32
509.21	3133.02
509.57	3066.24
509.93	3000.50
510.28	2932.25
510.64	2870.83
511.00	2808.71
511.36	2747.77
511.72	2689.58
512.07	2643.24
512.43	2592.10
512.79	2541.61
513.15	2489.42
513.51	2444.78
513.86	2399.19
514.22	2360.66
514.58	2324.18
514.94	2291.78
515.30	2255.86
515.65	2218.59
516.01	2179.62
516.37	2146.88
516.73	2113.18
517.08	2085.79
517.44	2061.01
517.80	2037.13
518.16	2010.59
518.51	1986.13
518.87	1958.21
519.23	1931.08
519.59	1905.34
519.94	1879.22
520.30	1853.49
520.66	1832.17
521.01	1807.41
521.37	1783.58
521.73	1760.74
522.09	1742.83
522.44	1720.67
522.80	1703.30
523.16	1681.25
523.51	1662.58
523.87	1640.88
524.23	1627.73
524.58	1608.07
524.94	1593.79
525.30	1574.15
525.65	1558.75
526.01	1540.17
526.37	1527.13
526.72	1514.49
527.08	1505.06
527.44	1495.63
527.79	1484.98
528.15	1471.42
528.51	1458.83
528.86	1448.79
529.22	1434.40
529.58	1420.82
529.93	1406.22
530.29	1396.32
530.65	1383.19
531.00	1376.02
531.36	1364.91
531.71	1361.51
532.07	1350.49
532.43	1346.18
532.78	1336.02
533.14	1329.03
533.49	1321.58
533.85	1317.37
534.21	1309.62
534.56	1303.77
534.92	1298.60
535.27	1296.12
535.63	1286.94
535.98	1278.49
536.34	1275.36
536.69	1269.46
537.05	1258.39
537.41	1253.73
537.76	1248.47
538.12	1240.51
538.47	1237.04
538.83	1232.41
539.18	1229.58
539.54	1226.37
539.89	1223.16
540.25	1218.01
540.60	1218.41
540.96	1215.14
541.31	1213.59
541.67	1211.20
542.02	1209.99
542.38	1203.99
542.73	1199.92
543.09	1195.22
543.44	1191.33
543.80	1190.05
544.15	1189.51
544.51	1185.43
544.86	1183.77
545.22	1182.72
545.57	1181.08
545.93	1177.50
546.28	1177.50
546.64	1175.46
546.99	1170.60
547.35	1166.59
547.70	1163.06
548.05	1157.79
548.41	1154.28
548.76	1154.63
549.12	1152.55
549.47	1155.41
549.83	1157.37
550.18	1158.05
550.53	1154.82
550.89	1153.98
551.24	1144.62
551.60	1140.52
551.95	1135.21
552.30	1136.68
552.66	1131.95
553.01	1135.32
553.37	1136.92
553.72	1138.55
554.07	1136.92
554.43	1136.31
554.78	1135.53
555.13	1132.02
555.49	1129.71
555.84	1126.41
556.19	1127.53
556.55	1122.15
556.90	1121.91
557.26	1123.18
557.61	1122.36
557.96	1122.71
558.32	1124.65
558.67	1125.82
559.02	1124.39
559.37	1125.59
559.73	1122.83
560.08	1119.76
560.43	1116.86
560.79	1116.41
561.14	1112.27
561.49	1109.58
561.85	1112.34
562.20	1111.29
562.55	1107.12
562.90	1109.44
563.26	1109.37
563.61	1105.67
563.96	1107.61
564.32	1112.41
564.67	1110.54
565.02	1110.51
565.37	1111.19
565.73	1107.89
566.08	1107.47
566.43	1106.30
566.78	1106.28
567.14	1107.33
567.49	1106.25
567.84	1103.63
568.19	1102.72
568.54	1103.05
568.90	1103.33
569.25	1102.09
569.60	1099.54
569.95	1099.91
570.31	1100.38
570.66	1098.13
571.01	1102.37
571.36	1101.13
571.71	1101.39
572.06	1099.28
572.42	1096.35
572.77	1094.32
573.12	1098.86
573.47	1097.62
573.82	1096.94
574.18	1099.58
574.53	1098.60
574.88	1098.58
575.23	1102.37
575.58	1103.23
575.93	1102.44
576.28	1101.18
576.64	1095.04
576.99	1092.56
577.34	1091.84
577.69	1093.03
578.04	1095.00
578.39	1094.41
578.74	1093.19
579.09	1092.26
579.44	1089.80
579.80	1090.43
580.15	1092.37
580.50	1092.23
580.85	1092.23
581.20	1095.91
581.55	1092.61
581.90	1093.38
582.25	1092.47
582.60	1092.89
582.95	1091.18
583.30	1093.99
583.65	1096.00
584.00	1094.62
584.35	1094.90
584.71	1095.46
585.06	1098.51
585.41	1096.49
585.76	1099.33
586.11	1097.59
586.46	1096.21
586.81	1089.36
587.16	1089.19
587.51	1088.26
587.86	1089.50
588.21	1089.07
588.56	1092.14
588.91	1092.37
589.26	1091.04
589.61	1090.36
589.96	1091.67
590.31	1092.73
590.66	1091.93
591.01	1095.32
591.36	1094.11
591.71	1091.49
592.06	1091.79
592.41	1089.47
592.76	1088.28
593.10	1087.86
593.45	1088.07
593.80	1083.01
594.15	1082.43
594.50	1083.36
594.85	1088.02
595.20	1090.99
595.55	1092.59
595.90	1095.96
596.25	1093.90
596.60	1090.13
596.95	1085.89
597.30	1087.11
597.64	1099.19
597.99	1103.09
598.34	1103.87
598.69	1105.83
599.04	1105.20
599.39	1092.54
599.74	1088.70
600.09	1087.93
600.44	1086.10
600.78	1086.99
601.13	1084.07
601.48	1085.05
601.83	1082.01
602.18	1082.40
602.53	1080.11
602.88	1083.74
603.22	1081.14
603.57	1083.39
603.92	1082.29
604.27	1084.18
604.62	1084.28
604.97	1082.76
605.31	1082.22
605.66	1085.21
606.01	1085.31
606.36	1083.13
606.71	1086.22
607.05	1088.51
607.40	1088.02
607.75	1090.22
608.10	1091.25
608.44	1091.32
608.79	1089.31
609.14	1088.30
609.49	1083.76
609.84	1081.89
610.18	1078.85
610.53	1080.11
610.88	1080.27
611.23	1083.13
611.57	1085.49
611.92	1087.67
612.27	1088.35
612.62	1089.19
612.96	1087.30
613.31	1089.43
613.66	1086.69
614.00	1085.82
614.35	1085.14
614.70	1086.59
615.05	1080.88
615.39	1084.11
615.74	1086.69
616.09	1088.07
616.43	1086.76
616.78	1088.68
617.13	1085.38
617.47	1080.41
617.82	1079.13
618.17	1078.85
618.51	1080.63
618.86	1084.70
619.21	1086.59
619.55	1085.17
619.90	1083.13
620.25	1081.47
620.59	1079.97
620.94	1081.82
621.29	1081.09
621.63	1081.30
621.98	1080.58
622.32	1081.89
622.67	1080.67
623.02	1080.39
623.36	1080.86
623.71	1084.72
624.05	1084.60
624.40	1085.89
624.75	1086.38
625.09	1086.69
625.44	1086.71
625.78	1083.48
626.13	1080.86
626.48	1081.77
626.82	1083.08
627.17	1078.92
627.51	1079.38
627.86	1081.66
628.20	1083.81
628.55	1085.47
628.89	1087.58
629.24	1091.86
629.58	1089.31
629.93	1085.66
630.28	1083.88
630.62	1083.27
630.97	1080.46
631.31	1080.53
631.66	1082.97
632.00	1082.47
632.35	1081.56
632.69	1081.09
633.04	1079.83
633.38	1079.20
633.73	1078.94
634.07	1077.84
634.42	1079.03
634.76	1078.75
635.11	1077.18
635.45	1078.57
635.79	1080.86
636.14	1081.30
636.48	1084.72
636.83	1088.72
637.17	1088.00
637.52	1088.84
637.86	1090.01
638.21	1087.88
638.55	1087.95
638.89	1087.93
639.24	1084.51
639.58	1083.32
639.93	1085.35
640.27	1083.62
640.61	1083.74
640.96	1083.95
641.30	1083.50
641.65	1082.94
641.99	1084.16
642.33	1082.64
642.68	1082.47
643.02	1079.01
643.37	1078.28
643.71	1077.33
644.05	1079.43
644.40	1081.12
644.74	1083.88
645.08	1086.15
645.43	1085.19
645.77	1084.44
646.11	1083.18
646.46	1085.99
646.80	1086.69
647.14	1086.29
647.49	1086.10
647.83	1087.25
648.17	1084.81
648.52	1082.01
648.86	1082.94
649.20	1085.56
649.55	1084.67
649.89	1084.14
650.23	1084.70
650.57	1086.57
650.92	1082.57
651.26	1083.88
651.60	1083.95
651.95	1085.19
652.29	1081.68
652.63	1081.91
652.97	1083.76
653.32	1083.39
653.66	1080.25
654.00	1078.66
654.34	1080.06
654.69	1077.49
655.03	1075.80
655.37	1079.36
655.71	1082.12
656.05	1082.36
656.40	1082.90
656.74	1085.03
657.08	1081.94
657.42	1082.01
657.76	1083.55
658.11	1085.94
658.45	1084.81
658.79	1085.12
659.13	1083.76
659.47	1083.20
659.82	1082.45
660.16	1083.32
660.50	1086.20
660.84	1088.51
661.18	1088.51
661.52	1084.58
661.87	1081.30
662.21	1081.40
662.55	1082.73
662.89	1081.16
663.23	1085.99
663.57	1091.04
663.91	1087.65
664.25	1084.35
664.60	1081.26
664.94	1079.60
665.28	1079.13
665.62	1079.17
665.96	1078.54
666.30	1083.57
666.64	1084.18
666.98	1084.53
667.32	1084.49
667.66	1085.84
668.01	1086.83
668.35	1086.27
668.69	1082.99
669.03	1086.10
669.37	1086.94
669.71	1087.02
670.05	1085.80
670.39	1087.11
670.73	1086.99
671.07	1085.35
671.41	1081.75
671.75	1081.66
672.09	1081.91
672.43	1079.03
672.77	1078.14
673.11	1079.24
673.45	1080.39
673.79	1084.09
674.13	1083.34
674.47	1084.49
674.81	1086.85
675.15	1085.33
675.49	1080.06
675.83	1084.11
676.17	1083.43
676.51	1080.93
676.85	1081.96
677.19	1085.42
677.53	1082.52
677.87	1086.13
678.21	1085.00
678.55	1084.11
678.89	1083.15
679.23	1083.83
679.57	1081.44
679.90	1083.01
680.24	1087.02
680.58	1086.43
680.92	1087.20
681.26	1085.59
681.60	1085.31
681.94	1080.88
682.28	1079.22
682.62	1079.03
682.96	1079.34
683.29	1078.31
683.63	1077.51
683.97	1079.83
684.31	1080.37
684.65	1082.29
684.99	1086.06
685.33	1089.59
685.67	1089.75
686.00	1089.26
686.34	1090.20
686.68	1088.19
687.02	1085.61
687.36	1085.66
687.70	1083.34
688.03	1081.66
688.37	1081.63
688.71	1083.36
689.05	1081.30
689.39	1081.89
689.72	1079.31
690.06	1076.83
690.40	1078.92
690.74	1080.06
691.08	1081.49
691.41	1086.24
691.75	1084.37
692.09	1080.27
692.43	1081.37
692.76	1080.88
693.10	1081.73
693.44	1084.74
693.78	1085.40
694.11	1082.01
694.45	1080.58
694.79	1074.66
695.13	1076.69
695.46	1078.33
695.80	1082.19
696.14	1082.69
696.48	1084.96
696.81	1083.88
697.15	1081.21
697.49	1079.99
697.82	1081.00
698.16	1080.04
698.50	1079.88
698.83	1080.41
699.17	1081.12
699.51	1080.16
699.84	1081.26
700.18	1080.39
700.52	1081.19
700.85	1078.12
701.19	1075.64
701.53	1076.08
701.86	1075.90
702.20	1078.73
702.54	1083.97
702.87	1084.32
703.21	1084.18
703.55	1084.77
703.88	1079.95
704.22	1074.52
704.55	1074.84
704.89	1073.14
705.23	1071.82
705.56	1072.34
705.90	1075.90
706.23	1081.23
706.57	1082.90
706.91	1083.41
707.24	1084.96
707.58	1084.49
707.91	1082.29
708.25	1081.30
708.58	1080.25
708.92	1082.92
709.26	1082.50
709.59	1082.24
709.93	1082.52
710.26	1084.58
710.60	1081.54
710.93	1084.53
711.27	1083.53
711.60	1081.84
711.94	1081.70
712.27	1081.23
712.61	1079.13
712.94	1080.48
713.28	1085.05
713.61	1087.16
713.95	1083.06
714.28	1081.49
714.62	1081.21
714.95	1081.61
715.29	1078.45
715.62	1082.43
715.96	1082.64
716.29	1083.11
716.63	1084.74
716.96	1087.58
717.29	1089.99
717.63	1090.64
717.96	1089.68
718.30	1084.37
718.63	1083.74
718.97	1083.67
719.30	1082.66
719.63	1080.51
719.97	1079.34
720.30	1079.06
720.64	1079.27
720.97	1081.07
721.30	1085.28
721.64	1088.30
721.97	1088.51
722.31	1088.75
722.64	1088.14
722.97	1087.76
723.31	1084.72
723.64	1081.40
723.97	1076.08
724.31	1072.74
724.64	1070.68
724.98	1074.96
725.31	1074.77
725.64	1075.69
725.98	1076.30
726.31	1076.32
726.64	1074.12
726.97	1077.28
727.31	1082.29
727.64	1084.93
727.97	1083.11
728.31	1081.16
728.64	1078.89
728.97	1076.15
729.31	1076.20
729.64	1077.82
729.97	1082.61
730.30	1084.11
730.64	1084.23
730.97	1083.55
731.30	1081.37
731.63	1077.21
731.97	1079.06
732.30	1078.12
732.63	1079.20
732.96	1083.48
733.30	1084.11
733.63	1081.89
733.96	1081.26
734.29	1074.73
734.63	1069.48
734.96	1072.15
735.29	1070.40
735.62	1068.67
735.95	1073.49
736.29	1074.98
736.62	1073.63
736.95	1076.11
737.28	1080.53
737.61	1080.20
737.94	1082.38
738.28	1083.27
738.61	1081.19
738.94	1079.20
739.27	1078.59
739.60	1078.54
739.93	1079.03
740.27	1078.28
740.60	1080.44
740.93	1083.86
741.26	1085.00
741.59	1082.90
741.92	1085.47
742.25	1086.50
742.58	1084.49
742.91	1083.69
743.25	1084.28
743.58	1081.28
743.91	1080.86
744.24	1079.88
744.57	1078.92
744.90	1077.33
745.23	1080.86
745.56	1079.24
745.89	1079.90
746.22	1078.61
746.55	1081.84
746.88	1080.74
747.21	1080.77
747.54	1083.50
747.87	1085.31
748.20	1085.49
748.53	1084.18
748.87	1081.19
749.20	1076.81
749.53	1075.55
749.86	1073.88
750.19	1074.61
750.52	1076.06
750.85	1079.15
751.18	1080.56
751.51	1079.92
751.84	1080.86
752.16	1079.97
752.49	1077.70
752.82	1077.91
753.15	1078.33
753.48	1077.65
753.81	1078.99
754.14	1081.94
754.47	1079.41
754.80	1077.77
755.13	1079.31
755.46	1079.95
755.79	1075.73
756.12	1080.39
756.45	1081.40
756.78	1083.15
757.11	1087.39
757.43	1089.10
757.76	1088.58
758.09	1089.57
758.42	1087.74
758.75	1083.97
759.08	1082.40
759.41	1079.90
759.74	1077.72
760.07	1076.79
760.39	1076.58
760.72	1079.62
761.05	1080.65
761.38	1081.98
761.71	1084.77
762.04	1084.18
762.36	1082.45
762.69	1083.48
763.02	1082.99
763.35	1079.17
763.68	1082.17
764.01	1082.85
