SpectraSuite Data File
++++++++++++++++++++++++++++++++++++
Date: Mon Aug 26 10:22:19 PDT 2019
User: corrico
Dark Spectrum Present: No
Reference Spectrum Present: No
Number of Sampled Component Spectra: 1
Spectrometers: USB2+H06089
Integration Time (usec): 2000 (USB2+H06089)
Spectra Averaged: 20 (USB2+H06089)
Boxcar Smoothing: 2 (USB2+H06089)
Correct for Electrical Dark: No (USB2+H06089)
Strobe/Lamp Enabled: No (USB2+H06089)
Correct for Detector Non-linearity: No (USB2+H06089)
Correct for Stray Light: No (USB2+H06089)
Number of Pixels in Processed Spectrum: 2048
>>>>>Begin Processed Spectral Data<<<<<
339.70	1028.78
340.07	1028.78
340.45	995.50
340.82	975.07
341.19	953.63
341.57	930.74
341.94	919.64
342.31	910.73
342.69	904.90
343.06	896.68
343.43	892.07
343.81	895.04
344.18	897.78
344.55	901.95
344.93	912.53
345.30	919.67
345.67	923.11
346.04	932.42
346.42	936.52
346.79	943.80
347.16	951.78
347.54	962.78
347.91	970.76
348.28	982.51
348.65	993.02
349.03	1003.93
349.40	1012.09
349.77	1019.05
350.14	1028.34
350.52	1030.75
350.89	1036.67
351.26	1041.91
351.63	1047.86
352.01	1052.40
352.38	1062.23
352.75	1065.01
353.12	1070.56
353.50	1075.15
353.87	1077.75
354.24	1078.54
354.61	1080.23
354.98	1080.56
355.36	1082.69
355.73	1082.38
356.10	1081.87
356.47	1082.83
356.84	1084.53
357.22	1084.42
357.59	1085.59
357.96	1087.18
358.33	1086.97
358.70	1086.03
359.08	1084.79
359.45	1084.18
359.82	1082.01
360.19	1083.93
360.56	1084.81
360.94	1083.27
361.31	1084.14
361.68	1084.09
362.05	1080.93
362.42	1078.80
362.79	1078.66
363.16	1080.32
363.54	1076.39
363.91	1078.40
364.28	1078.82
364.65	1079.64
365.02	1079.36
365.39	1080.56
365.76	1078.43
366.14	1076.88
366.51	1075.24
366.88	1071.64
367.25	1074.10
367.62	1079.31
367.99	1081.73
368.36	1083.46
368.73	1083.57
369.10	1080.02
369.48	1075.38
369.85	1072.88
370.22	1072.18
370.59	1072.41
370.96	1072.92
371.33	1073.53
371.70	1073.67
372.07	1074.47
372.44	1073.14
372.81	1071.59
373.18	1070.37
373.55	1071.94
373.93	1069.34
374.30	1072.83
374.67	1076.30
375.04	1079.78
375.41	1078.99
375.78	1081.98
376.15	1084.07
376.52	1084.89
376.89	1082.90
377.26	1082.36
377.63	1081.96
378.00	1079.36
378.37	1082.43
378.74	1079.67
379.11	1081.54
379.48	1081.73
379.85	1082.73
380.22	1079.31
380.59	1083.36
380.96	1084.44
381.33	1084.74
381.70	1082.59
382.07	1083.41
382.44	1085.82
382.81	1082.90
383.18	1084.21
383.55	1082.92
383.92	1086.90
384.29	1083.74
384.66	1086.94
385.03	1086.73
385.40	1088.51
385.77	1084.60
386.14	1087.04
386.51	1085.31
386.88	1086.71
387.25	1089.00
387.62	1089.26
387.99	1086.59
388.36	1087.65
388.73	1083.81
389.10	1081.51
389.46	1080.30
389.83	1079.60
390.20	1080.98
390.57	1081.49
390.94	1081.73
391.31	1081.19
391.68	1083.57
392.05	1081.58
392.42	1084.86
392.79	1082.76
393.16	1084.98
393.53	1082.54
393.89	1077.68
394.26	1076.20
394.63	1079.90
395.00	1080.74
395.37	1081.89
395.74	1088.35
396.11	1091.74
396.48	1089.07
396.84	1087.20
397.21	1087.55
397.58	1088.61
397.95	1084.58
398.32	1088.91
398.69	1092.73
399.06	1094.01
399.42	1093.33
399.79	1095.60
400.16	1095.39
400.53	1094.36
400.90	1094.43
401.27	1096.14
401.64	1093.19
402.00	1088.72
402.37	1085.31
402.74	1085.42
403.11	1084.81
403.48	1084.58
403.84	1090.99
404.21	1093.50
404.58	1094.93
404.95	1092.35
405.32	1093.15
405.68	1092.33
406.05	1092.28
406.42	1092.23
406.79	1094.11
407.16	1097.27
407.52	1095.11
407.89	1096.05
408.26	1092.98
408.63	1092.77
408.99	1091.67
409.36	1089.43
409.73	1091.51
410.10	1093.45
410.47	1093.97
410.83	1095.00
411.20	1096.73
411.57	1095.28
411.94	1096.59
412.30	1097.36
412.67	1097.22
413.04	1099.47
413.40	1099.91
413.77	1100.10
414.14	1102.56
414.51	1103.47
414.87	1106.35
415.24	1108.48
415.61	1108.59
415.97	1105.53
416.34	1105.32
416.71	1101.43
417.08	1101.53
417.44	1101.97
417.81	1103.84
418.18	1104.64
418.54	1106.00
418.91	1105.15
419.28	1105.83
419.64	1109.18
420.01	1110.26
420.38	1111.36
420.74	1114.17
421.11	1116.25
421.48	1117.84
421.84	1118.52
422.21	1122.57
422.58	1125.87
422.94	1127.93
423.31	1125.98
423.68	1129.24
424.04	1128.35
424.41	1131.46
424.77	1135.00
425.14	1139.30
425.51	1143.49
425.87	1148.13
426.24	1147.40
426.61	1152.69
426.97	1158.78
427.34	1162.68
427.70	1171.56
428.07	1179.70
428.44	1184.99
428.80	1194.23
429.17	1203.29
429.53	1212.21
429.90	1223.66
430.27	1234.19
430.63	1245.38
431.00	1256.45
431.36	1267.61
431.73	1278.05
432.09	1290.81
432.46	1302.72
432.83	1314.96
433.19	1329.07
433.56	1345.08
433.92	1366.57
434.29	1386.25
434.65	1412.35
435.02	1436.18
435.38	1464.12
435.75	1489.12
436.11	1516.90
436.48	1551.89
436.84	1587.89
437.21	1622.95
437.57	1659.77
437.94	1701.48
438.30	1741.22
438.67	1784.80
439.03	1835.68
439.40	1888.79
439.76	1946.79
440.13	2002.66
440.49	2067.42
440.86	2130.31
441.22	2202.07
441.59	2277.04
441.95	2357.79
442.32	2440.57
442.68	2534.73
443.05	2628.98
443.41	2726.02
443.78	2829.59
444.14	2940.37
444.51	3050.77
444.87	3188.61
445.24	3327.31
445.60	3474.17
445.96	3627.46
446.33	3799.51
446.69	3959.91
447.06	4135.02
447.42	4318.41
447.79	4501.53
448.15	4714.92
448.51	4936.31
448.88	5198.28
449.24	5434.96
449.61	5719.43
449.97	6000.38
450.33	6292.72
450.70	6557.01
451.06	6892.22
451.43	7193.15
451.79	7549.68
452.15	7949.47
452.52	8388.81
452.88	8856.40
453.24	9387.00
453.61	9968.25
453.97	10524.48
454.34	11080.33
454.70	11711.90
455.06	12336.71
455.43	12944.75
455.79	13542.53
456.15	14245.18
456.52	14892.06
456.88	15670.19
457.24	16383.84
457.61	17221.31
457.97	17990.93
458.33	18784.41
458.70	19545.09
459.06	20326.22
459.42	21160.50
459.79	21935.90
460.15	22833.73
460.51	23696.00
460.88	24594.02
461.24	25378.31
461.60	26313.73
461.96	27185.06
462.33	28023.73
462.69	28849.49
463.05	29740.13
463.42	30517.33
463.78	31159.58
464.14	31712.13
464.50	32299.91
464.87	32748.21
465.23	33088.13
465.59	33464.30
465.95	33803.66
466.32	34093.69
466.68	34352.91
467.04	34496.90
467.40	34627.08
467.77	34766.27
468.13	34728.89
468.49	34639.34
468.85	34564.38
469.22	34424.27
469.58	34086.56
469.94	33846.51
470.30	33517.88
470.66	33103.60
471.03	32507.00
471.39	32141.15
471.75	31529.36
472.11	30966.83
472.47	30627.08
472.84	30326.25
473.20	29833.19
473.56	29563.26
473.92	29125.49
474.28	28609.82
474.65	28120.93
475.01	27654.97
475.37	27091.98
475.73	26650.56
476.09	26153.73
476.45	25632.77
476.81	25126.49
477.18	24577.01
477.54	24121.09
477.90	23729.76
478.26	23318.55
478.62	22963.58
478.98	22670.41
479.34	22337.02
479.71	21926.47
480.07	21567.05
480.43	21187.79
480.79	20785.92
481.15	20423.23
481.51	20093.97
481.87	19827.50
482.23	19542.02
482.59	19308.97
482.96	19043.18
483.32	18773.72
483.68	18396.89
484.04	18074.69
484.40	17690.78
484.76	17307.63
485.12	16927.48
485.48	16604.39
485.84	16233.21
486.20	15874.59
486.56	15516.86
486.92	15209.81
487.28	14882.06
487.64	14540.95
488.00	14234.30
488.37	13916.38
488.73	13555.35
489.09	13183.70
489.45	12874.84
489.81	12551.05
490.17	12246.78
490.53	11960.79
490.89	11672.95
491.25	11369.32
491.61	11063.03
491.97	10744.04
492.33	10416.51
492.69	10115.51
493.05	9807.83
493.41	9513.01
493.77	9244.51
494.13	8983.65
494.49	8729.89
494.85	8488.00
495.21	8254.20
495.57	8026.02
495.93	7811.61
496.29	7605.76
496.64	7423.01
497.00	7231.20
497.36	7042.55
497.72	6853.79
498.08	6671.25
498.44	6484.27
498.80	6315.72
499.16	6148.26
499.52	5993.39
499.88	5856.63
500.24	5731.81
500.60	5602.47
500.96	5482.52
501.32	5364.84
501.68	5250.73
502.03	5120.23
502.39	5000.72
502.75	4864.45
503.11	4738.06
503.47	4612.28
503.83	4488.49
504.19	4368.40
504.55	4265.74
504.91	4169.92
505.26	4074.10
505.62	3993.89
505.98	3907.01
506.34	3815.54
506.70	3721.80
507.06	3628.93
507.42	3536.83
507.78	3461.02
508.13	3386.22
508.49	3310.64
508.85	3242.67
509.21	3174.35
509.57	3103.74
509.93	3038.97
510.28	2976.88
510.64	2909.19
511.00	2844.69
511.36	2786.85
511.72	2731.03
512.07	2675.49
512.43	2626.24
512.79	2579.01
513.15	2530.56
513.51	2478.18
513.86	2429.76
514.22	2393.71
514.58	2354.56
514.94	2312.78
515.30	2279.28
515.65	2247.24
516.01	2210.12
516.37	2174.83
516.73	2145.85
517.08	2116.22
517.44	2086.52
517.80	2052.53
518.16	2027.49
518.51	1994.79
518.87	1969.26
519.23	1943.00
519.59	1919.43
519.94	1893.77
520.30	1872.80
520.66	1844.93
521.01	1819.77
521.37	1800.64
521.73	1779.72
522.09	1758.30
522.44	1739.21
522.80	1723.06
523.16	1702.22
523.51	1680.41
523.87	1660.35
524.23	1644.88
524.58	1623.42
524.94	1604.93
525.30	1583.09
525.65	1569.91
526.01	1552.66
526.37	1538.69
526.72	1527.32
527.08	1518.17
527.44	1503.07
527.79	1489.84
528.15	1476.78
528.51	1459.14
528.86	1445.16
529.22	1434.82
529.58	1423.54
529.93	1410.03
530.29	1401.61
530.65	1392.20
531.00	1382.88
531.36	1373.17
531.71	1363.88
532.07	1356.93
532.43	1351.28
532.78	1344.59
533.14	1336.54
533.49	1332.75
533.85	1329.14
534.21	1321.47
534.56	1311.68
534.92	1304.71
535.27	1297.41
535.63	1285.61
535.98	1279.27
536.34	1274.23
536.69	1272.29
537.05	1267.49
537.41	1264.83
537.76	1260.50
538.12	1255.37
538.47	1246.36
538.83	1240.88
539.18	1235.05
539.54	1231.85
539.89	1225.01
540.25	1223.23
540.60	1221.62
540.96	1220.38
541.31	1217.57
541.67	1218.67
542.02	1217.06
542.38	1214.04
542.73	1207.81
543.09	1202.33
543.44	1196.62
543.80	1192.95
544.15	1188.15
544.51	1187.17
544.86	1187.47
545.22	1186.82
545.57	1182.77
545.93	1180.40
546.28	1177.27
546.64	1173.64
546.99	1170.64
547.35	1168.14
547.70	1165.17
548.05	1163.83
548.41	1160.06
548.76	1157.56
549.12	1153.51
549.47	1152.67
549.83	1147.75
550.18	1148.90
550.53	1146.04
550.89	1146.63
551.24	1144.12
551.60	1144.03
551.95	1140.64
552.30	1138.41
552.66	1136.40
553.01	1136.31
553.37	1139.40
553.72	1137.97
554.07	1137.78
554.43	1138.67
554.78	1137.50
555.13	1134.43
555.49	1130.46
555.84	1126.78
556.19	1126.41
556.55	1125.03
556.90	1121.82
557.26	1122.75
557.61	1126.80
557.96	1123.55
558.32	1122.38
558.67	1124.30
559.02	1121.87
559.37	1118.85
559.73	1118.99
560.08	1119.43
560.43	1116.32
560.79	1115.24
561.14	1116.20
561.49	1116.06
561.85	1114.89
562.20	1116.32
562.55	1117.84
562.90	1116.15
563.26	1114.24
563.61	1114.19
563.96	1109.86
564.32	1104.57
564.67	1101.50
565.02	1101.60
565.37	1100.47
565.73	1101.64
566.08	1104.99
566.43	1105.86
566.78	1106.35
567.14	1104.87
567.49	1102.93
567.84	1103.40
568.19	1098.76
568.54	1097.29
568.90	1093.92
569.25	1092.94
569.60	1092.91
569.95	1096.68
570.31	1096.87
570.66	1100.54
571.01	1103.05
571.36	1101.43
571.71	1102.02
572.06	1103.16
572.42	1103.16
572.77	1101.11
573.12	1099.70
573.47	1098.98
573.82	1095.56
574.18	1093.90
574.53	1096.03
574.88	1099.19
575.23	1098.88
575.58	1099.70
575.93	1100.19
576.28	1100.99
576.64	1095.70
576.99	1095.35
577.34	1095.39
577.69	1094.18
578.04	1090.60
578.39	1091.37
578.74	1092.56
579.09	1094.72
579.44	1095.16
579.80	1093.66
580.15	1095.09
580.50	1095.25
580.85	1093.31
581.20	1094.95
581.55	1097.71
581.90	1097.20
582.25	1094.79
582.60	1096.33
582.95	1095.49
583.30	1095.00
583.65	1097.85
584.00	1095.04
584.35	1091.56
584.71	1092.63
585.06	1090.90
585.41	1090.78
585.76	1094.36
586.11	1090.06
586.46	1085.38
586.81	1089.26
587.16	1087.23
587.51	1085.61
587.86	1089.96
588.21	1092.75
588.56	1090.43
588.91	1089.00
589.26	1087.37
589.61	1087.48
589.96	1087.18
590.31	1086.01
590.66	1086.24
591.01	1090.32
591.36	1089.61
591.71	1087.48
592.06	1089.89
592.41	1089.40
592.76	1088.65
593.10	1089.03
593.45	1090.88
593.80	1085.80
594.15	1088.30
594.50	1087.58
594.85	1086.17
595.20	1087.04
595.55	1091.63
595.90	1089.68
596.25	1087.79
596.60	1089.10
596.95	1085.77
597.30	1084.91
597.64	1095.07
597.99	1096.21
598.34	1092.45
598.69	1095.25
599.04	1093.15
599.39	1085.17
599.74	1084.32
600.09	1086.17
600.44	1083.88
600.78	1086.10
601.13	1084.35
601.48	1086.41
601.83	1086.48
602.18	1087.51
602.53	1089.31
602.88	1088.14
603.22	1087.20
603.57	1091.23
603.92	1090.41
604.27	1086.13
604.62	1086.43
604.97	1085.31
605.31	1081.58
605.66	1082.40
606.01	1084.56
606.36	1084.18
606.71	1086.34
607.05	1088.37
607.40	1086.64
607.75	1085.66
608.10	1085.77
608.44	1087.69
608.79	1089.61
609.14	1091.77
609.49	1090.76
609.84	1090.22
610.18	1086.03
610.53	1083.86
610.88	1086.01
611.23	1087.34
611.57	1087.44
611.92	1087.88
612.27	1085.77
612.62	1086.57
612.96	1086.50
613.31	1089.87
613.66	1090.62
614.00	1092.40
614.35	1088.96
614.70	1087.41
615.05	1088.35
615.39	1088.16
615.74	1088.86
616.09	1086.71
616.43	1086.03
616.78	1081.61
617.13	1077.98
617.47	1076.44
617.82	1079.74
618.17	1080.13
618.51	1085.47
618.86	1089.89
619.21	1086.55
619.55	1084.28
619.90	1086.62
620.25	1080.58
620.59	1079.43
620.94	1080.74
621.29	1081.82
621.63	1079.22
621.98	1081.33
622.32	1082.73
622.67	1084.51
623.02	1082.80
623.36	1084.67
623.71	1085.61
624.05	1083.25
624.40	1084.91
624.75	1088.75
625.09	1087.95
625.44	1085.05
625.78	1088.68
626.13	1087.83
626.48	1085.38
626.82	1085.42
627.17	1084.21
627.51	1080.04
627.86	1079.60
628.20	1081.33
628.55	1079.55
628.89	1081.61
629.24	1083.81
629.58	1083.22
629.93	1081.49
630.28	1082.17
630.62	1084.23
630.97	1081.42
631.31	1082.52
631.66	1081.12
632.00	1082.36
632.35	1079.64
632.69	1080.16
633.04	1078.50
633.38	1078.45
633.73	1079.08
634.07	1078.57
634.42	1078.07
634.76	1078.47
635.11	1080.48
635.45	1078.61
635.79	1080.84
636.14	1084.44
636.48	1084.42
636.83	1083.39
637.17	1080.79
637.52	1079.88
637.86	1078.26
638.21	1078.28
638.55	1077.93
638.89	1081.75
639.24	1082.99
639.58	1082.15
639.93	1082.17
640.27	1079.53
640.61	1077.37
640.96	1077.00
641.30	1078.03
641.65	1081.77
641.99	1083.36
642.33	1084.11
642.68	1082.12
643.02	1081.70
643.37	1078.07
643.71	1077.93
644.05	1081.75
644.40	1080.20
644.74	1079.55
645.08	1078.40
645.43	1080.58
645.77	1080.60
646.11	1083.86
646.46	1086.15
646.80	1087.37
647.14	1088.21
647.49	1086.29
647.83	1087.27
648.17	1084.46
648.52	1084.23
648.86	1083.18
649.20	1083.15
649.55	1081.30
649.89	1083.41
650.23	1082.17
650.57	1083.15
650.92	1080.25
651.26	1080.34
651.60	1081.40
651.95	1081.61
652.29	1078.73
652.63	1078.92
652.97	1079.69
653.32	1076.81
653.66	1075.94
654.00	1075.15
654.34	1078.07
654.69	1076.81
655.03	1077.89
655.37	1079.55
655.71	1080.39
656.05	1076.04
656.40	1077.79
656.74	1079.85
657.08	1080.18
657.42	1084.09
657.76	1090.74
658.11	1093.22
658.45	1092.56
658.79	1092.21
659.13	1088.93
659.47	1086.43
659.82	1085.10
660.16	1080.88
660.50	1079.99
660.84	1082.05
661.18	1084.30
661.52	1083.71
661.87	1085.66
662.21	1086.03
662.55	1084.32
662.89	1080.41
663.23	1077.72
663.57	1080.16
663.91	1082.57
664.25	1083.39
664.60	1084.42
664.94	1086.62
665.28	1083.97
665.62	1082.69
665.96	1085.21
666.30	1085.75
666.64	1081.37
666.98	1079.69
667.32	1076.81
667.66	1073.98
668.01	1074.42
668.35	1076.11
668.69	1077.14
669.03	1082.08
669.37	1081.47
669.71	1083.46
670.05	1083.79
670.39	1086.06
670.73	1085.38
671.07	1082.64
671.41	1079.76
671.75	1081.75
672.09	1083.43
672.43	1081.44
672.77	1084.60
673.11	1085.66
673.45	1085.68
673.79	1082.83
674.13	1085.17
674.47	1085.61
674.81	1086.27
675.15	1086.69
675.49	1089.89
675.83	1086.34
676.17	1086.66
676.51	1084.67
676.85	1083.60
677.19	1079.88
677.53	1079.92
677.87	1077.16
678.21	1075.38
678.55	1075.50
678.89	1077.25
679.23	1077.51
679.57	1079.85
679.90	1079.97
680.24	1080.95
680.58	1078.52
680.92	1077.75
681.26	1075.76
681.60	1076.37
681.94	1078.96
682.28	1078.96
682.62	1082.97
682.96	1085.82
683.29	1087.67
683.63	1082.19
683.97	1085.45
684.31	1082.36
684.65	1082.45
684.99	1080.65
685.33	1082.64
685.67	1080.58
686.00	1081.07
686.34	1079.92
686.68	1078.78
687.02	1078.75
687.36	1080.67
687.70	1079.69
688.03	1079.74
688.37	1081.98
688.71	1083.08
689.05	1082.87
689.39	1082.99
689.72	1083.29
690.06	1087.18
690.40	1088.65
690.74	1086.13
691.08	1089.00
691.41	1089.07
691.75	1086.20
692.09	1081.19
692.43	1082.31
692.76	1078.78
693.10	1077.30
693.44	1074.07
693.78	1078.45
694.11	1075.55
694.45	1075.01
694.79	1074.10
695.13	1075.76
695.46	1074.12
695.80	1072.71
696.14	1074.52
696.48	1077.72
696.81	1080.91
697.15	1080.23
697.49	1083.13
697.82	1084.39
698.16	1083.81
698.50	1079.48
698.83	1077.42
699.17	1076.93
699.51	1079.67
699.84	1080.32
700.18	1080.65
700.52	1081.66
700.85	1082.71
701.19	1078.94
701.53	1078.61
701.86	1080.41
702.20	1081.98
702.54	1082.47
702.87	1080.98
703.21	1078.07
703.55	1079.64
703.88	1075.87
704.22	1075.03
704.55	1077.09
704.89	1075.76
705.23	1072.67
705.56	1076.32
705.90	1077.25
706.23	1075.59
706.57	1080.53
706.91	1083.25
707.24	1083.04
707.58	1082.87
707.91	1084.53
708.25	1079.76
708.58	1076.01
708.92	1076.13
709.26	1075.69
709.59	1075.87
709.93	1077.58
710.26	1077.49
710.60	1076.41
710.93	1076.06
711.27	1074.38
711.60	1076.32
711.94	1078.94
712.27	1079.95
712.61	1082.94
712.94	1085.99
713.28	1084.53
713.61	1088.86
713.95	1087.58
714.28	1083.88
714.62	1083.64
714.95	1086.43
715.29	1079.95
715.62	1081.37
715.96	1082.97
716.29	1080.25
716.63	1077.89
716.96	1077.49
717.29	1074.07
717.63	1074.84
717.96	1076.18
718.30	1078.96
718.63	1081.54
718.97	1083.88
719.30	1083.67
719.63	1083.55
719.97	1080.93
720.30	1079.88
720.64	1082.76
720.97	1081.66
721.30	1081.30
721.64	1080.72
721.97	1079.92
722.31	1075.85
722.64	1079.62
722.97	1080.63
723.31	1084.63
723.64	1087.53
723.97	1088.61
724.31	1084.84
724.64	1086.15
724.98	1082.15
725.31	1079.46
725.64	1080.16
725.98	1080.34
726.31	1078.96
726.64	1078.94
726.97	1078.85
727.31	1077.09
727.64	1078.54
727.97	1078.47
728.31	1078.47
728.64	1079.74
728.97	1080.81
729.31	1078.05
729.64	1078.73
729.97	1079.24
730.30	1078.45
730.64	1078.12
730.97	1079.55
731.30	1079.10
731.63	1077.54
731.97	1076.69
732.30	1079.95
732.63	1080.23
732.96	1078.96
733.30	1080.13
733.63	1081.49
733.96	1077.61
734.29	1078.24
734.63	1081.21
734.96	1080.60
735.29	1082.05
735.62	1083.95
735.95	1081.51
736.29	1075.38
736.62	1077.04
736.95	1072.27
737.28	1071.26
737.61	1075.01
737.94	1078.96
738.28	1079.53
738.61	1081.37
738.94	1082.73
739.27	1079.81
739.60	1078.75
739.93	1077.84
740.27	1078.82
740.60	1079.24
740.93	1082.83
741.26	1083.36
741.59	1083.83
741.92	1085.10
742.25	1085.38
742.58	1080.27
742.91	1080.34
743.25	1079.71
743.58	1079.57
743.91	1079.13
744.24	1082.92
744.57	1082.69
744.90	1080.58
745.23	1076.41
745.56	1074.03
745.89	1073.07
746.22	1074.10
746.55	1076.48
746.88	1078.73
747.21	1079.69
747.54	1076.04
747.87	1075.38
748.20	1074.35
748.53	1076.88
748.87	1079.10
749.20	1083.34
749.53	1080.88
749.86	1079.67
750.19	1077.30
750.52	1074.33
750.85	1074.82
751.18	1077.25
751.51	1079.46
751.84	1077.89
752.16	1079.64
752.49	1077.44
752.82	1077.49
753.15	1075.48
753.48	1077.28
753.81	1079.60
754.14	1082.87
754.47	1084.77
754.80	1085.94
755.13	1088.65
755.46	1085.70
755.79	1083.53
756.12	1081.51
756.45	1081.21
756.78	1082.38
757.11	1077.72
757.43	1077.75
757.76	1077.42
758.09	1076.79
758.42	1073.21
758.75	1079.62
759.08	1078.12
759.41	1076.81
759.74	1079.27
760.07	1080.67
760.39	1079.20
760.72	1079.48
761.05	1081.00
761.38	1081.21
761.71	1078.73
762.04	1075.73
762.36	1075.97
762.69	1076.15
763.02	1074.56
763.35	1077.56
763.68	1081.00
764.01	1086.62
