SpectraSuite Data File
++++++++++++++++++++++++++++++++++++
Date: Mon Aug 26 10:21:53 PDT 2019
User: corrico
Dark Spectrum Present: No
Reference Spectrum Present: No
Number of Sampled Component Spectra: 1
Spectrometers: USB2+H06089
Integration Time (usec): 2000 (USB2+H06089)
Spectra Averaged: 20 (USB2+H06089)
Boxcar Smoothing: 2 (USB2+H06089)
Correct for Electrical Dark: No (USB2+H06089)
Strobe/Lamp Enabled: No (USB2+H06089)
Correct for Detector Non-linearity: No (USB2+H06089)
Correct for Stray Light: No (USB2+H06089)
Number of Pixels in Processed Spectrum: 2048
>>>>>Begin Processed Spectral Data<<<<<
339.70	1025.15
340.07	1025.15
340.45	991.59
340.82	970.04
341.19	946.93
341.57	922.85
341.94	915.83
342.31	903.63
342.69	900.08
343.06	895.02
343.43	895.30
343.81	894.76
344.18	897.62
344.55	901.41
344.93	909.46
345.30	913.21
345.67	918.38
346.04	927.79
346.42	935.28
346.79	944.87
347.16	955.59
347.54	964.53
347.91	970.62
348.28	983.42
348.65	990.70
349.03	998.89
349.40	1012.33
349.77	1021.83
350.14	1025.72
350.52	1030.80
350.89	1038.64
351.26	1043.57
351.63	1049.38
352.01	1051.23
352.38	1059.07
352.75	1061.08
353.12	1058.65
353.50	1061.18
353.87	1065.22
354.24	1065.25
354.61	1067.96
354.98	1074.12
355.36	1077.07
355.73	1080.13
356.10	1080.77
356.47	1078.80
356.84	1078.47
357.22	1076.04
357.59	1075.78
357.96	1076.81
358.33	1078.21
358.70	1079.83
359.08	1082.17
359.45	1078.47
359.82	1074.68
360.19	1073.18
360.56	1070.40
360.94	1068.81
361.31	1069.88
361.68	1070.65
362.05	1071.08
362.42	1067.68
362.79	1069.60
363.16	1067.71
363.54	1069.16
363.91	1071.80
364.28	1075.52
364.65	1075.80
365.02	1077.54
365.39	1076.15
365.76	1071.99
366.14	1070.14
366.51	1064.76
366.88	1063.63
367.25	1064.01
367.62	1065.15
367.99	1065.08
368.36	1066.70
368.73	1068.43
369.10	1066.47
369.48	1064.38
369.85	1065.41
370.22	1063.94
370.59	1062.79
370.96	1061.32
371.33	1061.06
371.70	1059.77
372.07	1060.82
372.44	1058.69
372.81	1059.12
373.18	1062.28
373.55	1065.04
373.93	1066.47
374.30	1071.29
374.67	1078.38
375.04	1075.76
375.41	1073.67
375.78	1075.55
376.15	1071.15
376.52	1068.71
376.89	1069.91
377.26	1071.12
377.63	1070.51
378.00	1071.08
378.37	1070.16
378.74	1069.18
379.11	1068.41
379.48	1068.20
379.85	1070.26
380.22	1069.93
380.59	1074.14
380.96	1075.03
381.33	1076.32
381.70	1076.69
382.07	1076.32
382.44	1074.03
382.81	1072.50
383.18	1069.34
383.55	1072.46
383.92	1073.53
384.29	1074.47
384.66	1072.85
385.03	1070.94
385.40	1066.42
385.77	1066.79
386.14	1064.99
386.51	1066.00
386.88	1068.31
387.25	1070.44
387.62	1067.89
387.99	1067.71
388.36	1067.54
388.73	1069.79
389.10	1069.65
389.46	1071.31
389.83	1072.85
390.20	1078.92
390.57	1079.31
390.94	1074.91
391.31	1074.82
391.68	1075.59
392.05	1071.99
392.42	1070.40
392.79	1075.38
393.16	1077.02
393.53	1073.21
393.89	1073.30
394.26	1073.39
394.63	1073.14
395.00	1071.52
395.37	1072.57
395.74	1070.02
396.11	1070.26
396.48	1068.17
396.84	1064.48
397.21	1066.04
397.58	1068.22
397.95	1067.10
398.32	1069.60
398.69	1076.01
399.06	1076.06
399.42	1078.24
399.79	1082.92
400.16	1082.01
400.53	1082.15
400.90	1082.08
401.27	1081.68
401.64	1079.41
402.00	1079.85
402.37	1076.88
402.74	1078.40
403.11	1078.68
403.48	1077.40
403.84	1076.46
404.21	1073.60
404.58	1071.43
404.95	1072.85
405.32	1073.46
405.68	1073.65
406.05	1079.08
406.42	1081.02
406.79	1075.20
407.16	1075.69
407.52	1075.08
407.89	1074.59
408.26	1076.67
408.63	1079.78
408.99	1081.30
409.36	1081.68
409.73	1081.58
410.10	1077.72
410.47	1075.94
410.83	1073.84
411.20	1075.36
411.57	1073.32
411.94	1072.90
412.30	1073.56
412.67	1074.03
413.04	1073.98
413.40	1075.22
413.77	1077.49
414.14	1080.65
414.51	1078.07
414.87	1077.21
415.24	1077.25
415.61	1077.72
415.97	1078.47
416.34	1081.84
416.71	1083.39
417.08	1084.42
417.44	1084.89
417.81	1083.29
418.18	1084.18
418.54	1084.70
418.91	1087.55
419.28	1088.68
419.64	1089.14
420.01	1088.96
420.38	1089.03
420.74	1086.64
421.11	1084.42
421.48	1081.28
421.84	1082.17
422.21	1081.66
422.58	1083.39
422.94	1085.54
423.31	1087.69
423.68	1085.94
424.04	1086.99
424.41	1087.44
424.77	1085.77
425.14	1088.82
425.51	1089.61
425.87	1090.39
426.24	1090.46
426.61	1091.44
426.97	1090.50
427.34	1093.19
427.70	1094.32
428.07	1093.71
428.44	1099.30
428.80	1103.47
429.17	1106.93
429.53	1109.53
429.90	1115.17
430.27	1115.83
430.63	1115.31
431.00	1116.90
431.36	1118.80
431.73	1117.35
432.09	1118.85
432.46	1122.12
432.83	1125.19
433.19	1129.03
433.56	1135.79
433.92	1141.81
434.29	1145.58
434.65	1150.00
435.02	1154.35
435.38	1156.53
435.75	1160.86
436.11	1168.11
436.48	1173.38
436.84	1179.37
437.21	1188.90
437.57	1195.99
437.94	1205.21
438.30	1214.36
438.67	1225.50
439.03	1238.05
439.40	1249.33
439.76	1263.23
440.13	1276.69
440.49	1290.90
440.86	1300.19
441.22	1316.97
441.59	1329.82
441.95	1346.67
442.32	1361.91
442.68	1383.96
443.05	1399.22
443.41	1421.31
443.78	1440.41
444.14	1463.16
444.51	1486.24
444.87	1513.60
445.24	1538.13
445.60	1565.49
445.96	1595.96
446.33	1629.11
446.69	1663.65
447.06	1699.51
447.42	1738.20
447.79	1773.70
448.15	1811.22
448.51	1854.50
448.88	1906.41
449.24	1957.55
449.61	2021.03
449.97	2084.50
450.33	2145.66
450.70	2196.94
451.06	2258.15
451.43	2315.19
451.79	2381.05
452.15	2456.63
452.52	2542.24
452.88	2628.19
453.24	2719.68
453.61	2821.14
453.97	2923.91
454.34	3019.24
454.70	3134.63
455.06	3258.07
455.43	3374.37
455.79	3482.41
456.15	3619.10
456.52	3738.44
456.88	3881.22
457.24	4028.16
457.61	4193.65
457.97	4346.19
458.33	4509.25
458.70	4665.32
459.06	4817.20
459.42	4996.04
459.79	5151.40
460.15	5322.35
460.51	5488.11
460.88	5663.14
461.24	5805.70
461.60	5977.24
461.96	6140.42
462.33	6300.37
462.69	6462.15
463.05	6626.45
463.42	6793.97
463.78	6938.24
464.14	7077.15
464.50	7215.54
464.87	7337.02
465.23	7438.83
465.59	7548.04
465.95	7640.40
466.32	7710.31
466.68	7772.15
467.04	7809.83
467.40	7828.13
467.77	7840.75
468.13	7837.47
468.49	7839.67
468.85	7831.39
469.22	7827.57
469.58	7795.67
469.94	7764.68
470.30	7705.09
470.66	7630.92
471.03	7538.58
471.39	7475.67
471.75	7378.98
472.11	7277.47
472.47	7200.31
472.84	7125.95
473.20	7014.54
473.56	6939.97
473.92	6838.69
474.28	6742.62
474.65	6640.94
475.01	6564.69
475.37	6451.64
475.73	6362.54
476.09	6267.04
476.45	6174.24
476.81	6065.87
477.18	5967.73
477.54	5891.78
477.90	5814.12
478.26	5721.84
478.62	5633.95
478.98	5578.78
479.34	5519.38
479.71	5457.57
480.07	5415.98
480.43	5385.76
480.79	5323.10
481.15	5254.83
481.51	5191.36
481.87	5122.82
482.23	5038.78
482.59	4970.97
482.96	4906.98
483.32	4852.47
483.68	4791.19
484.04	4741.46
484.40	4684.96
484.76	4624.64
485.12	4551.05
485.48	4491.70
485.84	4418.02
486.20	4344.32
486.56	4264.55
486.92	4203.37
487.28	4125.57
487.64	4052.36
488.00	3987.73
488.37	3927.42
488.73	3858.98
489.09	3791.97
489.45	3732.29
489.81	3665.82
490.17	3602.04
490.53	3543.06
490.89	3482.39
491.25	3414.96
491.61	3344.32
491.97	3286.23
492.33	3216.36
492.69	3150.17
493.05	3085.22
493.41	3033.12
493.77	2972.32
494.13	2917.78
494.49	2863.72
494.85	2815.62
495.21	2765.41
495.57	2718.65
495.93	2670.01
496.29	2624.84
496.64	2583.37
497.00	2541.24
497.36	2494.87
497.72	2449.32
498.08	2411.10
498.44	2373.30
498.80	2336.79
499.16	2302.81
499.52	2271.56
499.88	2238.16
500.24	2203.61
500.60	2170.59
500.96	2137.80
501.32	2106.90
501.68	2071.40
502.03	2040.24
502.39	2012.79
502.75	1983.39
503.11	1956.80
503.47	1938.08
503.83	1916.29
504.19	1888.70
504.55	1864.75
504.91	1837.72
505.26	1812.74
505.62	1783.46
505.98	1760.11
506.34	1742.06
506.70	1726.50
507.06	1707.21
507.42	1690.01
507.78	1674.72
508.13	1654.22
508.49	1630.25
508.85	1610.64
509.21	1593.67
509.57	1567.69
509.93	1551.24
510.28	1535.91
510.64	1523.45
511.00	1513.79
511.36	1502.53
511.72	1488.46
512.07	1475.64
512.43	1464.29
512.79	1444.84
513.15	1437.93
513.51	1424.36
513.86	1413.43
514.22	1399.41
514.58	1391.85
514.94	1375.65
515.30	1368.93
515.65	1359.62
516.01	1350.42
516.37	1340.24
516.73	1336.00
517.08	1327.93
517.44	1318.21
517.80	1308.55
518.16	1302.84
518.51	1298.90
518.87	1291.51
519.23	1287.15
519.59	1281.65
519.94	1273.30
520.30	1263.07
520.66	1259.28
521.01	1255.25
521.37	1250.95
521.73	1247.60
522.09	1246.34
522.44	1241.00
522.80	1235.76
523.16	1233.84
523.51	1228.87
523.87	1222.91
524.23	1218.48
524.58	1213.66
524.94	1210.10
525.30	1206.24
525.65	1201.51
526.01	1197.89
526.37	1193.79
526.72	1186.07
527.08	1184.52
527.44	1180.17
527.79	1176.61
528.15	1173.57
528.51	1169.80
528.86	1165.35
529.22	1164.51
529.58	1162.71
529.93	1159.62
530.29	1161.49
530.65	1159.43
531.00	1156.25
531.36	1152.69
531.71	1152.97
532.07	1146.21
532.43	1144.55
532.78	1142.72
533.14	1141.67
533.49	1136.03
533.85	1135.00
534.21	1132.49
534.56	1126.97
534.92	1122.33
535.27	1122.71
535.63	1119.64
535.98	1115.83
536.34	1122.90
536.69	1123.71
537.05	1121.87
537.41	1123.18
537.76	1122.22
538.12	1117.98
538.47	1116.20
538.83	1115.55
539.18	1114.91
539.54	1118.05
539.89	1114.21
540.25	1112.41
540.60	1109.84
540.96	1107.78
541.31	1105.55
541.67	1107.56
542.02	1107.78
542.38	1107.00
542.73	1107.24
543.09	1106.86
543.44	1107.28
543.80	1107.12
544.15	1106.75
544.51	1107.47
544.86	1106.42
545.22	1102.88
545.57	1101.46
545.93	1104.24
546.28	1102.74
546.64	1100.45
546.99	1100.15
547.35	1097.55
547.70	1095.91
548.05	1091.63
548.41	1093.19
548.76	1092.59
549.12	1093.22
549.47	1091.60
549.83	1093.52
550.18	1092.91
550.53	1093.31
550.89	1096.33
551.24	1093.57
551.60	1093.19
551.95	1093.43
552.30	1092.96
552.66	1091.20
553.01	1094.04
553.37	1093.19
553.72	1093.66
554.07	1094.15
554.43	1092.63
554.78	1092.80
555.13	1093.66
555.49	1090.67
555.84	1089.12
556.19	1087.04
556.55	1085.17
556.90	1084.89
557.26	1082.90
557.61	1084.84
557.96	1087.93
558.32	1089.54
558.67	1088.68
559.02	1090.62
559.37	1086.97
559.73	1087.06
560.08	1086.99
560.43	1086.92
560.79	1086.10
561.14	1085.00
561.49	1083.01
561.85	1077.84
562.20	1079.69
562.55	1078.94
562.90	1079.92
563.26	1079.78
563.61	1086.64
563.96	1085.05
564.32	1085.68
564.67	1087.34
565.02	1092.19
565.37	1092.07
565.73	1091.70
566.08	1091.37
566.43	1089.82
566.78	1084.72
567.14	1083.08
567.49	1081.58
567.84	1080.48
568.19	1080.11
568.54	1081.51
568.90	1079.20
569.25	1082.15
569.60	1084.51
569.95	1084.72
570.31	1082.33
570.66	1081.68
571.01	1080.44
571.36	1079.95
571.71	1080.63
572.06	1084.70
572.42	1084.18
572.77	1084.09
573.12	1082.43
573.47	1080.34
573.82	1076.60
574.18	1078.73
574.53	1077.65
574.88	1081.05
575.23	1082.83
575.58	1080.93
575.93	1080.09
576.28	1079.36
576.64	1075.41
576.99	1077.21
577.34	1079.36
577.69	1081.61
578.04	1081.63
578.39	1082.64
578.74	1079.53
579.09	1079.62
579.44	1074.87
579.80	1075.55
580.15	1074.98
580.50	1075.87
580.85	1074.63
581.20	1076.34
581.55	1076.13
581.90	1077.84
582.25	1078.75
582.60	1081.91
582.95	1084.60
583.30	1084.96
583.65	1080.95
584.00	1079.43
584.35	1080.60
584.71	1078.31
585.06	1078.38
585.41	1082.87
585.76	1082.08
586.11	1079.13
586.46	1082.12
586.81	1081.30
587.16	1080.58
587.51	1084.74
587.86	1084.14
588.21	1082.64
588.56	1080.32
588.91	1079.78
589.26	1073.74
589.61	1076.72
589.96	1076.25
590.31	1077.89
590.66	1079.60
591.01	1084.23
591.36	1081.58
591.71	1080.70
592.06	1077.93
592.41	1079.20
592.76	1077.49
593.10	1077.47
593.45	1074.77
593.80	1078.66
594.15	1075.69
594.50	1077.54
594.85	1077.79
595.20	1079.74
595.55	1078.33
595.90	1079.03
596.25	1079.15
596.60	1077.98
596.95	1078.94
597.30	1078.78
597.64	1085.12
597.99	1085.26
598.34	1088.35
598.69	1088.30
599.04	1089.03
599.39	1081.09
599.74	1078.05
600.09	1074.89
600.44	1072.92
600.78	1073.16
601.13	1073.02
601.48	1073.88
601.83	1074.49
602.18	1074.05
602.53	1075.29
602.88	1075.92
603.22	1075.80
603.57	1077.42
603.92	1077.77
604.27	1077.04
604.62	1073.91
604.97	1074.33
605.31	1073.44
605.66	1078.38
606.01	1081.09
606.36	1086.55
606.71	1082.01
607.05	1082.19
607.40	1078.50
607.75	1074.84
608.10	1073.60
608.44	1080.58
608.79	1081.66
609.14	1081.63
609.49	1085.82
609.84	1085.28
610.18	1082.66
610.53	1081.44
610.88	1081.51
611.23	1081.68
611.57	1080.77
611.92	1083.32
612.27	1079.83
612.62	1081.54
612.96	1076.86
613.31	1077.44
613.66	1074.54
614.00	1077.09
614.35	1076.18
614.70	1077.09
615.05	1078.38
615.39	1079.10
615.74	1078.24
616.09	1079.34
616.43	1081.68
616.78	1083.13
617.13	1083.60
617.47	1086.45
617.82	1083.20
618.17	1080.44
618.51	1080.86
618.86	1077.77
619.21	1075.59
619.55	1078.10
619.90	1076.06
620.25	1071.45
620.59	1074.19
620.94	1073.84
621.29	1073.00
621.63	1076.51
621.98	1079.85
622.32	1078.47
622.67	1076.86
623.02	1077.63
623.36	1077.18
623.71	1078.36
624.05	1081.54
624.40	1086.13
624.75	1082.99
625.09	1080.48
625.44	1076.60
625.78	1070.63
626.13	1066.47
626.48	1071.82
626.82	1073.60
627.17	1072.39
627.51	1075.83
627.86	1079.76
628.20	1074.96
628.55	1072.74
628.89	1073.02
629.24	1071.92
629.58	1072.29
629.93	1073.00
630.28	1077.98
630.62	1077.96
630.97	1077.61
631.31	1075.94
631.66	1075.71
632.00	1072.46
632.35	1075.27
632.69	1077.51
633.04	1075.78
633.38	1077.33
633.73	1080.37
634.07	1080.37
634.42	1078.61
634.76	1080.91
635.11	1081.77
635.45	1073.98
635.79	1069.77
636.14	1070.96
636.48	1071.68
636.83	1071.15
637.17	1076.88
637.52	1080.93
637.86	1081.66
638.21	1077.00
638.55	1072.81
638.89	1071.05
639.24	1068.08
639.58	1068.17
639.93	1074.91
640.27	1077.86
640.61	1080.37
640.96	1081.54
641.30	1083.50
641.65	1081.23
641.99	1082.43
642.33	1080.13
642.68	1079.48
643.02	1077.91
643.37	1077.84
643.71	1075.90
644.05	1077.72
644.40	1080.23
644.74	1080.44
645.08	1080.27
645.43	1078.94
645.77	1079.69
646.11	1076.76
646.46	1075.34
646.80	1076.32
647.14	1080.95
647.49	1080.16
647.83	1082.54
648.17	1080.53
648.52	1078.85
648.86	1076.69
649.20	1077.33
649.55	1076.25
649.89	1077.86
650.23	1078.21
650.57	1080.81
650.92	1080.13
651.26	1079.08
651.60	1078.94
651.95	1074.35
652.29	1071.61
652.63	1074.45
652.97	1074.73
653.32	1073.58
653.66	1076.95
654.00	1075.99
654.34	1073.49
654.69	1074.33
655.03	1077.21
655.37	1078.05
655.71	1078.40
656.05	1078.87
656.40	1080.74
656.74	1076.83
657.08	1075.94
657.42	1074.82
657.76	1074.24
658.11	1073.51
658.45	1075.03
658.79	1072.81
659.13	1074.17
659.47	1075.50
659.82	1074.63
660.16	1073.81
660.50	1078.64
660.84	1078.99
661.18	1076.27
661.52	1076.39
661.87	1078.92
662.21	1077.65
662.55	1077.63
662.89	1080.91
663.23	1080.67
663.57	1079.38
663.91	1079.41
664.25	1080.27
664.60	1078.94
664.94	1079.81
665.28	1082.08
665.62	1083.50
665.96	1083.08
666.30	1084.49
666.64	1082.17
666.98	1081.75
667.32	1079.13
667.66	1075.90
668.01	1073.98
668.35	1077.16
668.69	1078.36
669.03	1080.02
669.37	1083.81
669.71	1082.73
670.05	1081.42
670.39	1078.17
670.73	1076.93
671.07	1074.47
671.41	1074.63
671.75	1073.65
672.09	1076.58
672.43	1076.55
672.77	1079.01
673.11	1076.67
673.45	1079.08
673.79	1076.95
674.13	1077.79
674.47	1074.80
674.81	1077.56
675.15	1074.26
675.49	1072.76
675.83	1072.90
676.17	1073.07
676.51	1074.54
676.85	1078.99
677.19	1079.62
677.53	1078.05
677.87	1077.70
678.21	1077.14
678.55	1075.66
678.89	1074.73
679.23	1075.34
679.57	1078.07
679.90	1075.34
680.24	1071.78
680.58	1075.13
680.92	1075.52
681.26	1075.36
681.60	1079.31
681.94	1081.98
682.28	1082.03
682.62	1081.75
682.96	1079.20
683.29	1076.97
683.63	1075.90
683.97	1074.66
684.31	1072.20
684.65	1075.31
684.99	1076.58
685.33	1075.78
685.67	1074.82
686.00	1078.10
686.34	1076.51
686.68	1075.43
687.02	1078.28
687.36	1076.55
687.70	1073.88
688.03	1072.41
688.37	1072.34
688.71	1072.36
689.05	1072.90
689.39	1075.80
689.72	1077.58
690.06	1075.48
690.40	1073.39
690.74	1075.78
691.08	1075.55
691.41	1075.52
691.75	1078.36
692.09	1076.67
692.43	1073.23
692.76	1072.57
693.10	1071.92
693.44	1073.67
693.78	1072.74
694.11	1074.70
694.45	1073.28
694.79	1075.34
695.13	1074.47
695.46	1076.95
695.80	1077.72
696.14	1077.56
696.48	1074.63
696.81	1072.60
697.15	1073.79
697.49	1072.88
697.82	1074.35
698.16	1077.91
698.50	1078.28
698.83	1077.65
699.17	1080.23
699.51	1077.02
699.84	1075.94
700.18	1077.54
700.52	1077.44
700.85	1075.52
701.19	1077.51
701.53	1077.04
701.86	1075.22
702.20	1074.96
702.54	1075.48
702.87	1075.24
703.21	1076.27
703.55	1076.83
703.88	1079.50
704.22	1080.46
704.55	1079.36
704.89	1077.93
705.23	1077.75
705.56	1074.17
705.90	1075.71
706.23	1078.54
706.57	1077.56
706.91	1079.06
707.24	1079.01
707.58	1074.73
707.91	1077.02
708.25	1076.53
708.58	1070.96
708.92	1074.07
709.26	1076.13
709.59	1072.18
709.93	1073.16
710.26	1076.27
710.60	1076.30
710.93	1076.27
711.27	1073.39
711.60	1075.73
711.94	1076.01
712.27	1072.08
712.61	1072.57
712.94	1074.05
713.28	1069.67
713.61	1068.45
713.95	1070.33
714.28	1072.29
714.62	1072.90
714.95	1075.48
715.29	1078.50
715.62	1074.80
715.96	1070.44
716.29	1072.22
716.63	1072.90
716.96	1073.53
717.29	1078.12
717.63	1077.77
717.96	1077.33
718.30	1077.33
718.63	1075.17
718.97	1073.49
719.30	1076.76
719.63	1078.80
719.97	1078.92
720.30	1077.07
720.64	1077.91
720.97	1075.45
721.30	1074.77
721.64	1074.80
721.97	1076.48
722.31	1076.37
722.64	1078.89
722.97	1082.40
723.31	1080.63
723.64	1081.73
723.97	1081.30
724.31	1079.55
724.64	1074.59
724.98	1075.17
725.31	1070.61
725.64	1071.17
725.98	1071.19
726.31	1070.61
726.64	1069.23
726.97	1070.98
727.31	1071.45
727.64	1070.96
727.97	1072.85
728.31	1074.24
728.64	1073.63
728.97	1074.98
729.31	1076.83
729.64	1076.58
729.97	1076.41
730.30	1077.93
730.64	1078.54
730.97	1076.55
731.30	1080.39
731.63	1080.41
731.97	1082.17
732.30	1079.24
732.63	1079.78
732.96	1074.82
733.30	1071.71
733.63	1067.10
733.96	1067.24
734.29	1066.79
734.63	1068.52
734.96	1072.71
735.29	1075.92
735.62	1077.86
735.95	1077.77
736.29	1076.67
736.62	1076.20
736.95	1076.83
737.28	1079.38
737.61	1079.15
737.94	1080.16
738.28	1081.61
738.61	1078.68
738.94	1076.74
739.27	1077.25
739.60	1078.10
739.93	1077.21
740.27	1078.00
740.60	1078.05
740.93	1077.63
741.26	1075.24
741.59	1073.93
741.92	1073.98
742.25	1072.15
742.58	1071.68
742.91	1071.82
743.25	1071.57
743.58	1074.80
743.91	1077.14
744.24	1079.17
744.57	1077.33
744.90	1078.10
745.23	1076.67
745.56	1075.64
745.89	1075.31
746.22	1078.89
746.55	1078.94
746.88	1080.04
747.21	1078.19
747.54	1079.76
747.87	1080.02
748.20	1079.38
748.53	1078.92
748.87	1078.78
749.20	1076.88
749.53	1077.47
749.86	1079.78
750.19	1079.17
750.52	1079.48
750.85	1078.66
751.18	1072.69
751.51	1071.94
751.84	1073.16
752.16	1072.50
752.49	1074.31
752.82	1075.03
753.15	1076.86
753.48	1075.03
753.81	1075.94
754.14	1074.75
754.47	1080.65
754.80	1075.87
755.13	1079.06
755.46	1080.79
755.79	1083.15
756.12	1081.19
756.45	1082.64
756.78	1079.69
757.11	1077.07
757.43	1075.08
757.76	1074.05
758.09	1075.66
758.42	1073.25
758.75	1073.81
759.08	1073.88
759.41	1074.10
759.74	1073.16
760.07	1074.47
760.39	1074.12
760.72	1073.30
761.05	1072.71
761.38	1072.81
761.71	1074.47
762.04	1077.02
762.36	1078.75
762.69	1077.49
763.02	1076.69
763.35	1077.49
763.68	1074.45
764.01	1073.37
764.33	1073.70
764.66	1073.02
764.99	1074.17
765.32	1077.16
765.65	1080.13
765.97	1082.69
766.30	1084.44
