SpectraSuite Data File
++++++++++++++++++++++++++++++++++++
Date: Mon Aug 26 10:22:01 PDT 2019
User: corrico
Dark Spectrum Present: No
Reference Spectrum Present: No
Number of Sampled Component Spectra: 1
Spectrometers: USB2+H06089
Integration Time (usec): 2000 (USB2+H06089)
Spectra Averaged: 20 (USB2+H06089)
Boxcar Smoothing: 2 (USB2+H06089)
Correct for Electrical Dark: No (USB2+H06089)
Strobe/Lamp Enabled: No (USB2+H06089)
Correct for Detector Non-linearity: No (USB2+H06089)
Correct for Stray Light: No (USB2+H06089)
Number of Pixels in Processed Spectrum: 2048
>>>>>Begin Processed Spectral Data<<<<<
339.70	1026.44
340.07	1026.44
340.45	990.12
340.82	968.28
341.19	940.47
341.57	919.81
341.94	910.77
342.31	903.35
342.69	899.26
343.06	900.19
343.43	897.41
343.81	897.76
344.18	900.31
344.55	905.23
344.93	912.22
345.30	917.00
345.67	923.60
346.04	932.80
346.42	940.36
346.79	947.24
347.16	953.21
347.54	962.76
347.91	971.46
348.28	982.51
348.65	990.98
349.03	999.83
349.40	1009.26
349.77	1017.64
350.14	1024.22
350.52	1032.22
350.89	1041.26
351.26	1047.81
351.63	1054.60
352.01	1059.79
352.38	1062.51
352.75	1068.71
353.12	1070.58
353.50	1070.77
353.87	1071.59
354.24	1077.72
354.61	1078.50
354.98	1083.79
355.36	1086.36
355.73	1087.30
356.10	1087.53
356.47	1085.82
356.84	1082.47
357.22	1081.44
357.59	1082.24
357.96	1081.56
358.33	1082.10
358.70	1082.22
359.08	1084.25
359.45	1082.57
359.82	1082.40
360.19	1081.56
360.56	1082.31
360.94	1078.36
361.31	1079.17
361.68	1074.07
362.05	1074.45
362.42	1073.88
362.79	1076.69
363.16	1074.05
363.54	1076.69
363.91	1075.64
364.28	1075.24
364.65	1074.14
365.02	1075.62
365.39	1077.11
365.76	1078.66
366.14	1079.13
366.51	1078.28
366.88	1079.15
367.25	1079.43
367.62	1078.80
367.99	1076.25
368.36	1077.72
368.73	1077.44
369.10	1075.85
369.48	1074.47
369.85	1072.95
370.22	1068.95
370.59	1065.72
370.96	1064.85
371.33	1069.67
371.70	1070.65
372.07	1072.01
372.44	1073.42
372.81	1076.39
373.18	1072.34
373.55	1072.29
373.93	1075.71
374.30	1077.98
374.67	1077.58
375.04	1076.60
375.41	1078.12
375.78	1076.15
376.15	1074.91
376.52	1071.36
376.89	1073.60
377.26	1076.04
377.63	1075.29
378.00	1074.82
378.37	1075.83
378.74	1074.63
379.11	1073.67
379.48	1075.48
379.85	1076.51
380.22	1077.77
380.59	1074.68
380.96	1073.51
381.33	1073.93
381.70	1072.08
382.07	1073.02
382.44	1075.71
382.81	1075.87
383.18	1078.12
383.55	1079.48
383.92	1076.95
384.29	1077.84
384.66	1080.58
385.03	1077.91
385.40	1077.30
385.77	1080.98
386.14	1080.37
386.51	1078.94
386.88	1078.96
387.25	1080.51
387.62	1078.45
387.99	1080.32
388.36	1079.62
388.73	1080.86
389.10	1079.67
389.46	1082.15
389.83	1084.09
390.20	1084.89
390.57	1083.15
390.94	1085.82
391.31	1082.78
391.68	1079.10
392.05	1079.64
392.42	1081.94
392.79	1078.17
393.16	1081.37
393.53	1082.08
393.89	1081.70
394.26	1081.73
394.63	1086.59
395.00	1084.91
395.37	1084.93
395.74	1082.66
396.11	1080.95
396.48	1079.41
396.84	1080.67
397.21	1083.25
397.58	1086.22
397.95	1085.73
398.32	1087.25
398.69	1088.12
399.06	1086.29
399.42	1083.22
399.79	1085.63
400.16	1084.25
400.53	1084.02
400.90	1085.40
401.27	1088.42
401.64	1088.51
402.00	1086.41
402.37	1084.44
402.74	1085.56
403.11	1086.31
403.48	1086.87
403.84	1088.63
404.21	1089.50
404.58	1089.14
404.95	1090.22
405.32	1089.40
405.68	1090.81
406.05	1094.79
406.42	1096.99
406.79	1097.95
407.16	1100.43
407.52	1101.25
407.89	1098.11
408.26	1094.39
408.63	1092.42
408.99	1087.69
409.36	1083.27
409.73	1082.66
410.10	1084.35
410.47	1083.08
410.83	1086.08
411.20	1089.22
411.57	1091.25
411.94	1087.69
412.30	1087.46
412.67	1083.76
413.04	1084.56
413.40	1085.89
413.77	1086.57
414.14	1089.87
414.51	1093.76
414.87	1093.85
415.24	1095.02
415.61	1100.73
415.97	1102.77
416.34	1106.46
416.71	1108.15
417.08	1105.93
417.44	1104.78
417.81	1104.83
418.18	1105.06
418.54	1106.54
418.91	1108.76
419.28	1107.19
419.64	1106.98
420.01	1103.52
420.38	1103.19
420.74	1103.75
421.11	1106.35
421.48	1106.96
421.84	1111.59
422.21	1116.04
422.58	1116.79
422.94	1122.75
423.31	1121.56
423.68	1123.18
424.04	1123.20
424.41	1126.41
424.77	1125.59
425.14	1134.95
425.51	1138.37
425.87	1140.29
426.24	1141.97
426.61	1145.90
426.97	1147.17
427.34	1152.15
427.70	1158.31
428.07	1166.80
428.44	1177.87
428.80	1184.76
429.17	1194.63
429.53	1202.71
429.90	1210.36
430.27	1212.98
430.63	1219.58
431.00	1227.19
431.36	1237.82
431.73	1252.77
432.09	1266.72
432.46	1282.89
432.83	1295.86
433.19	1309.58
433.56	1322.33
433.92	1337.10
434.29	1354.98
434.65	1374.48
435.02	1394.91
435.38	1418.48
435.75	1444.34
436.11	1470.16
436.48	1497.12
436.84	1527.34
437.21	1556.53
437.57	1587.37
437.94	1621.43
438.30	1657.73
438.67	1696.65
439.03	1739.21
439.40	1787.02
439.76	1837.37
440.13	1890.85
440.49	1946.09
440.86	2002.96
441.22	2065.05
441.59	2128.39
441.95	2194.86
442.32	2266.15
442.68	2343.34
443.05	2429.12
443.41	2518.16
443.78	2612.79
444.14	2716.22
444.51	2827.41
444.87	2945.85
445.24	3062.50
445.60	3187.11
445.96	3305.89
446.33	3440.42
446.69	3572.66
447.06	3724.33
447.42	3884.66
447.79	4060.88
448.15	4255.00
448.51	4442.10
448.88	4654.30
449.24	4852.16
449.61	5095.53
449.97	5339.39
450.33	5612.39
450.70	5859.84
451.06	6176.63
451.43	6456.81
451.79	6774.87
452.15	7109.21
452.52	7483.98
452.88	7852.12
453.24	8263.99
453.61	8702.77
453.97	9148.83
454.34	9581.61
454.70	10083.64
455.06	10598.65
455.43	11094.96
455.79	11583.08
456.15	12183.19
456.52	12739.63
456.88	13420.66
457.24	14108.47
457.61	14891.45
457.97	15596.72
458.33	16347.24
458.70	17076.43
459.06	17764.76
459.42	18481.03
459.79	19161.40
460.15	19928.44
460.51	20587.40
460.88	21307.96
461.24	21983.11
461.60	22773.20
461.96	23432.18
462.33	24077.61
462.69	24716.78
463.05	25434.81
463.42	26107.13
463.78	26720.68
464.14	27276.39
464.50	27890.69
464.87	28352.90
465.23	28599.19
465.59	28908.59
465.95	29200.20
466.32	29393.71
466.68	29533.28
467.04	29697.56
467.40	29798.20
467.77	29892.69
468.13	29878.55
468.49	29760.78
468.85	29641.08
469.22	29544.98
469.58	29362.93
469.94	29199.87
470.30	29007.38
470.66	28706.37
471.03	28215.18
471.39	27826.44
471.75	27239.51
472.11	26679.88
472.47	26272.77
472.84	25864.63
473.20	25314.39
473.56	24948.14
473.92	24487.36
474.28	24025.22
474.65	23590.63
475.01	23199.41
475.37	22729.88
475.73	22371.00
476.09	21934.75
476.45	21540.30
476.81	21151.82
477.18	20776.07
477.54	20435.62
477.90	20144.99
478.26	19749.58
478.62	19422.96
478.98	19179.52
479.34	18956.93
479.71	18683.07
480.07	18445.34
480.43	18183.15
480.79	17806.91
481.15	17394.60
481.51	17054.62
481.87	16795.92
482.23	16492.44
482.59	16254.34
482.96	16010.53
483.32	15758.85
483.68	15449.97
484.04	15173.67
484.40	14881.66
484.76	14633.15
485.12	14363.75
485.48	14143.67
485.84	13889.16
486.20	13646.96
486.56	13354.39
486.92	13080.90
487.28	12781.29
487.64	12494.25
488.00	12199.50
488.37	11906.66
488.73	11588.86
489.09	11275.51
489.45	10990.99
489.81	10702.12
490.17	10417.00
490.53	10142.85
490.89	9850.57
491.25	9550.93
491.61	9278.42
491.97	9011.69
492.33	8762.43
492.69	8543.94
493.05	8335.44
493.41	8125.61
493.77	7912.79
494.13	7703.10
494.49	7497.34
494.85	7307.95
495.21	7117.17
495.57	6945.89
495.93	6769.65
496.29	6591.84
496.64	6409.35
497.00	6223.41
497.36	6053.37
497.72	5895.86
498.08	5750.49
498.44	5604.65
498.80	5469.76
499.16	5323.08
499.52	5179.75
499.88	5041.61
500.24	4909.88
500.60	4794.19
500.96	4692.61
501.32	4582.37
501.68	4477.94
502.03	4374.74
502.39	4275.83
502.75	4174.86
503.11	4088.87
503.47	4004.63
503.83	3923.91
504.19	3835.93
504.55	3748.46
504.91	3661.23
505.26	3576.39
505.62	3491.59
505.98	3409.36
506.34	3332.06
506.70	3259.69
507.06	3192.65
507.42	3121.50
507.78	3054.40
508.13	2992.59
508.49	2925.60
508.85	2862.78
509.21	2809.79
509.57	2755.42
509.93	2701.52
510.28	2649.58
510.64	2601.72
511.00	2550.83
511.36	2506.97
511.72	2462.38
512.07	2417.54
512.43	2374.68
512.79	2340.30
513.15	2299.27
513.51	2258.15
513.86	2223.04
514.22	2183.58
514.58	2144.28
514.94	2104.89
515.30	2067.72
515.65	2030.48
516.01	2002.42
516.37	1967.31
516.73	1940.49
517.08	1920.48
517.44	1901.97
517.80	1880.99
518.16	1860.84
518.51	1838.19
518.87	1810.80
519.23	1787.58
519.59	1761.37
519.94	1740.21
520.30	1720.32
520.66	1702.72
521.01	1680.93
521.37	1662.08
521.73	1639.83
522.09	1621.01
522.44	1606.87
522.80	1591.68
523.16	1577.78
523.51	1567.74
523.87	1555.61
524.23	1539.58
524.58	1524.11
524.94	1509.39
525.30	1495.49
525.65	1485.87
526.01	1473.44
526.37	1463.35
526.72	1454.60
527.08	1445.44
527.44	1430.04
527.79	1418.25
528.15	1411.27
528.51	1400.04
528.86	1385.95
529.22	1378.46
529.58	1370.20
529.93	1360.88
530.29	1354.09
530.65	1345.95
531.00	1335.04
531.36	1327.58
531.71	1317.30
532.07	1307.24
532.43	1300.52
532.78	1292.44
533.14	1287.06
533.49	1280.62
533.85	1276.74
534.21	1270.35
534.56	1267.21
534.92	1259.58
535.27	1256.05
535.63	1246.97
535.98	1240.98
536.34	1237.04
536.69	1230.84
537.05	1223.89
537.41	1220.64
537.76	1219.65
538.12	1214.01
538.47	1212.07
538.83	1210.53
539.18	1210.64
539.54	1206.66
539.89	1208.11
540.25	1203.01
540.60	1198.19
540.96	1192.85
541.31	1189.44
541.67	1181.39
542.02	1178.51
542.38	1177.22
542.73	1174.25
543.09	1175.93
543.44	1175.25
543.80	1173.17
544.15	1173.03
544.51	1171.09
544.86	1162.78
545.22	1159.67
545.57	1161.54
545.93	1157.21
546.28	1156.76
546.64	1157.82
546.99	1155.90
547.35	1150.42
547.70	1147.75
548.05	1145.67
548.41	1140.94
548.76	1139.12
549.12	1137.08
549.47	1135.60
549.83	1131.13
550.18	1132.40
550.53	1133.97
550.89	1134.29
551.24	1134.93
551.60	1134.93
551.95	1133.85
552.30	1128.75
552.66	1127.55
553.01	1125.96
553.37	1126.80
553.72	1125.82
554.07	1125.40
554.43	1126.06
554.78	1124.60
555.13	1122.24
555.49	1121.28
555.84	1120.86
556.19	1121.26
556.55	1117.79
556.90	1115.27
557.26	1113.02
557.61	1114.82
557.96	1108.71
558.32	1111.10
558.67	1110.19
559.02	1110.02
559.37	1107.85
559.73	1110.77
560.08	1108.17
560.43	1105.46
560.79	1107.21
561.14	1108.06
561.49	1105.27
561.85	1105.58
562.20	1108.45
562.55	1106.07
562.90	1105.04
563.26	1105.90
563.61	1106.65
563.96	1107.82
564.32	1108.24
564.67	1104.71
565.02	1101.71
565.37	1099.37
565.73	1096.26
566.08	1092.42
566.43	1091.70
566.78	1093.92
567.14	1094.18
567.49	1098.88
567.84	1099.33
568.19	1102.21
568.54	1103.70
568.90	1103.26
569.25	1098.44
569.60	1102.37
569.95	1103.05
570.31	1102.25
570.66	1100.82
571.01	1100.15
571.36	1098.98
571.71	1098.11
572.06	1094.27
572.42	1095.00
572.77	1094.90
573.12	1091.04
573.47	1086.78
573.82	1088.02
574.18	1085.40
574.53	1085.05
574.88	1089.14
575.23	1089.96
575.58	1088.89
575.93	1092.33
576.28	1092.89
576.64	1090.41
576.99	1092.09
577.34	1093.26
577.69	1091.86
578.04	1090.57
578.39	1092.05
578.74	1091.56
579.09	1090.53
579.44	1088.70
579.80	1090.92
580.15	1090.06
580.50	1091.51
580.85	1093.57
581.20	1093.08
581.55	1095.49
581.90	1093.29
582.25	1093.19
582.60	1089.78
582.95	1093.01
583.30	1088.54
583.65	1088.68
584.00	1087.11
584.35	1089.22
584.71	1088.40
585.06	1087.41
585.41	1087.90
585.76	1087.32
586.11	1088.54
586.46	1088.91
586.81	1092.40
587.16	1092.61
587.51	1095.16
587.86	1096.59
588.21	1094.93
588.56	1090.74
588.91	1089.47
589.26	1086.52
589.61	1083.90
589.96	1084.02
590.31	1086.76
590.66	1088.91
591.01	1086.36
591.36	1087.30
591.71	1090.48
592.06	1088.26
592.41	1088.75
592.76	1092.47
593.10	1088.49
593.45	1084.46
593.80	1083.67
594.15	1083.90
594.50	1082.57
594.85	1083.76
595.20	1084.30
595.55	1087.27
595.90	1086.27
596.25	1087.97
596.60	1090.95
596.95	1090.48
597.30	1090.17
597.64	1098.25
597.99	1096.85
598.34	1092.00
598.69	1091.44
599.04	1092.23
599.39	1082.26
599.74	1082.83
600.09	1085.33
600.44	1085.66
600.78	1086.83
601.13	1086.76
601.48	1083.76
601.83	1081.80
602.18	1083.48
602.53	1080.91
602.88	1081.16
603.22	1085.35
603.57	1088.68
603.92	1086.83
604.27	1086.59
604.62	1087.37
604.97	1083.22
605.31	1081.16
605.66	1081.70
606.01	1080.13
606.36	1078.92
606.71	1081.14
607.05	1079.69
607.40	1081.21
607.75	1083.36
608.10	1083.76
608.44	1083.34
608.79	1084.30
609.14	1082.69
609.49	1082.83
609.84	1085.49
610.18	1086.20
610.53	1089.33
610.88	1089.31
611.23	1089.94
611.57	1087.65
611.92	1087.32
612.27	1083.34
612.62	1083.81
612.96	1080.56
613.31	1080.34
613.66	1078.85
614.00	1080.44
614.35	1079.57
614.70	1080.70
615.05	1078.12
615.39	1078.64
615.74	1078.19
616.09	1081.98
616.43	1083.93
616.78	1086.66
617.13	1087.88
617.47	1087.69
617.82	1082.15
618.17	1080.39
618.51	1079.74
618.86	1079.31
619.21	1080.91
619.55	1081.16
619.90	1084.93
620.25	1086.17
620.59	1087.11
620.94	1088.04
621.29	1087.25
621.63	1085.54
621.98	1083.55
622.32	1080.41
622.67	1078.78
623.02	1082.97
623.36	1081.73
623.71	1082.69
624.05	1083.88
624.40	1083.01
624.75	1082.59
625.09	1081.70
625.44	1078.89
625.78	1080.56
626.13	1082.43
626.48	1081.98
626.82	1080.25
627.17	1082.59
627.51	1078.64
627.86	1078.68
628.20	1079.36
628.55	1082.31
628.89	1083.88
629.24	1088.28
629.58	1087.41
629.93	1087.88
630.28	1086.83
630.62	1086.41
630.97	1084.23
631.31	1082.47
631.66	1079.74
632.00	1078.10
632.35	1076.27
632.69	1077.21
633.04	1079.62
633.38	1078.66
633.73	1079.17
634.07	1082.17
634.42	1082.61
634.76	1082.57
635.11	1086.55
635.45	1088.47
635.79	1086.15
636.14	1085.03
636.48	1083.88
636.83	1081.05
637.17	1081.28
637.52	1079.36
637.86	1078.54
638.21	1078.26
638.55	1078.80
638.89	1078.45
639.24	1078.26
639.58	1079.85
639.93	1082.33
640.27	1080.93
640.61	1081.02
640.96	1083.34
641.30	1082.90
641.65	1084.18
641.99	1088.61
642.33	1090.22
642.68	1091.04
643.02	1090.53
643.37	1085.59
643.71	1081.73
644.05	1080.72
644.40	1079.46
644.74	1081.61
645.08	1084.02
645.43	1086.31
645.77	1085.38
646.11	1088.23
646.46	1084.74
646.80	1086.27
647.14	1084.72
647.49	1086.22
647.83	1084.89
648.17	1089.24
648.52	1084.18
648.86	1087.09
649.20	1087.13
649.55	1085.56
649.89	1084.21
650.23	1088.30
650.57	1085.52
650.92	1081.14
651.26	1082.17
651.60	1078.38
651.95	1078.47
652.29	1079.64
652.63	1083.29
652.97	1082.08
653.32	1083.74
653.66	1083.22
654.00	1085.75
654.34	1086.36
654.69	1089.89
655.03	1093.43
655.37	1093.64
655.71	1086.76
656.05	1088.30
656.40	1085.12
656.74	1083.11
657.08	1080.88
657.42	1084.14
657.76	1081.40
658.11	1080.86
658.45	1082.24
658.79	1084.14
659.13	1082.01
659.47	1083.90
659.82	1082.54
660.16	1080.23
660.50	1077.42
660.84	1079.64
661.18	1078.78
661.52	1079.71
661.87	1078.99
662.21	1081.96
662.55	1080.77
662.89	1077.14
663.23	1080.53
663.57	1081.47
663.91	1081.09
664.25	1084.09
664.60	1086.43
664.94	1083.76
665.28	1083.69
665.62	1082.15
665.96	1078.03
666.30	1076.11
666.64	1078.45
666.98	1077.37
667.32	1078.47
667.66	1084.21
668.01	1088.21
668.35	1085.33
668.69	1087.25
669.03	1085.73
669.37	1083.88
669.71	1081.23
670.05	1082.78
670.39	1079.27
670.73	1078.68
671.07	1076.27
671.41	1076.39
671.75	1075.94
672.09	1080.60
672.43	1082.92
672.77	1085.24
673.11	1081.51
673.45	1081.56
673.79	1079.57
674.13	1079.60
674.47	1075.97
674.81	1078.78
675.15	1079.48
675.49	1077.44
675.83	1077.44
676.17	1081.54
676.51	1083.57
676.85	1085.91
677.19	1086.38
677.53	1084.44
677.87	1083.95
678.21	1084.74
678.55	1084.30
678.89	1087.23
679.23	1087.48
679.57	1083.97
679.90	1082.22
680.24	1080.30
680.58	1076.81
680.92	1077.70
681.26	1081.28
681.60	1082.40
681.94	1082.38
682.28	1083.74
682.62	1082.31
682.96	1079.78
683.29	1075.59
683.63	1075.94
683.97	1078.52
684.31	1081.35
684.65	1081.12
684.99	1083.36
685.33	1079.90
685.67	1078.89
686.00	1078.52
686.34	1079.46
686.68	1081.00
687.02	1081.66
687.36	1082.31
687.70	1079.36
688.03	1081.26
688.37	1081.19
688.71	1082.54
689.05	1081.47
689.39	1085.80
689.72	1082.03
690.06	1080.98
690.40	1081.56
690.74	1081.68
691.08	1077.56
691.41	1080.46
691.75	1082.66
692.09	1084.63
692.43	1084.00
692.76	1087.39
693.10	1087.13
693.44	1085.38
693.78	1086.31
694.11	1084.89
694.45	1082.78
694.79	1082.66
695.13	1082.92
695.46	1081.16
695.80	1077.33
696.14	1076.01
696.48	1077.30
696.81	1076.90
697.15	1077.00
697.49	1082.45
697.82	1083.25
698.16	1082.92
698.50	1080.81
698.83	1080.86
699.17	1081.00
699.51	1081.19
699.84	1077.84
700.18	1079.20
700.52	1078.24
700.85	1075.22
701.19	1074.89
701.53	1075.59
701.86	1077.72
702.20	1078.03
702.54	1081.58
702.87	1082.03
703.21	1083.53
703.55	1081.70
703.88	1080.27
704.22	1080.58
704.55	1081.14
704.89	1079.08
705.23	1077.58
705.56	1076.58
705.90	1073.42
706.23	1074.00
706.57	1077.51
706.91	1081.23
707.24	1083.29
707.58	1082.99
707.91	1082.71
708.25	1079.62
708.58	1076.86
708.92	1075.01
709.26	1076.97
709.59	1076.18
709.93	1079.38
710.26	1078.66
710.60	1078.85
710.93	1076.06
711.27	1078.19
711.60	1078.78
711.94	1078.92
712.27	1079.74
712.61	1083.32
712.94	1081.80
713.28	1080.56
713.61	1083.06
713.95	1081.89
714.28	1082.33
714.62	1083.97
714.95	1081.28
715.29	1080.56
715.62	1084.00
715.96	1082.71
716.29	1084.18
716.63	1085.24
716.96	1083.57
717.29	1083.22
717.63	1082.24
717.96	1082.50
718.30	1082.40
718.63	1083.27
718.97	1082.94
719.30	1081.23
719.63	1079.31
719.97	1081.89
720.30	1082.19
720.64	1081.70
720.97	1086.66
721.30	1085.33
721.64	1084.07
721.97	1081.51
722.31	1080.79
722.64	1081.00
722.97	1082.31
723.31	1081.16
723.64	1083.32
723.97	1080.46
724.31	1073.95
724.64	1073.28
724.98	1076.13
725.31	1076.53
725.64	1078.03
725.98	1080.39
726.31	1079.13
726.64	1076.60
726.97	1074.35
727.31	1078.40
727.64	1079.17
727.97	1081.77
728.31	1082.76
728.64	1085.12
728.97	1079.50
729.31	1081.61
729.64	1080.93
729.97	1077.63
730.30	1077.09
730.64	1078.68
730.97	1080.67
731.30	1080.06
731.63	1079.95
731.97	1079.76
732.30	1084.56
732.63	1082.17
732.96	1081.73
733.30	1085.31
733.63	1085.77
733.96	1081.56
734.29	1080.37
734.63	1082.17
734.96	1080.30
735.29	1081.70
735.62	1081.77
735.95	1081.89
736.29	1077.89
736.62	1077.11
736.95	1074.56
737.28	1076.13
737.61	1077.75
737.94	1079.38
738.28	1080.32
738.61	1084.00
738.94	1082.22
739.27	1078.66
739.60	1078.59
739.93	1077.42
740.27	1075.34
740.60	1078.57
740.93	1080.02
741.26	1079.81
741.59	1082.90
741.92	1082.40
742.25	1079.31
742.58	1078.78
742.91	1079.36
743.25	1074.77
743.58	1074.03
743.91	1071.24
744.24	1071.90
744.57	1071.90
744.90	1075.45
745.23	1075.24
745.56	1078.21
745.89	1077.07
746.22	1078.52
746.55	1074.10
746.88	1076.41
747.21	1073.49
747.54	1075.52
747.87	1073.16
748.20	1076.34
748.53	1075.01
748.87	1078.50
749.20	1080.79
749.53	1083.67
749.86	1084.79
750.19	1086.97
750.52	1087.25
750.85	1082.43
751.18	1078.89
751.51	1080.16
751.84	1078.57
752.16	1079.34
752.49	1083.36
752.82	1088.42
753.15	1085.99
753.48	1085.49
753.81	1082.36
754.14	1077.86
754.47	1073.58
754.80	1073.84
755.13	1072.71
755.46	1076.65
755.79	1081.42
756.12	1082.99
756.45	1086.38
756.78	1089.17
757.11	1087.95
757.43	1082.99
757.76	1081.73
758.09	1077.14
758.42	1076.18
758.75	1075.31
759.08	1078.38
759.41	1078.87
759.74	1079.57
760.07	1080.02
760.39	1080.11
760.72	1082.03
761.05	1078.52
761.38	1079.34
761.71	1078.80
762.04	1078.96
762.36	1077.21
762.69	1078.94
763.02	1081.68
763.35	1078.68
763.68	1078.38
764.01	1079.41
764.33	1078.64
