SpectraSuite Data File
++++++++++++++++++++++++++++++++++++
Date: Mon Aug 26 10:21:55 PDT 2019
User: corrico
Dark Spectrum Present: No
Reference Spectrum Present: No
Number of Sampled Component Spectra: 1
Spectrometers: USB2+H06089
Integration Time (usec): 2000 (USB2+H06089)
Spectra Averaged: 20 (USB2+H06089)
Boxcar Smoothing: 2 (USB2+H06089)
Correct for Electrical Dark: No (USB2+H06089)
Strobe/Lamp Enabled: No (USB2+H06089)
Correct for Detector Non-linearity: No (USB2+H06089)
Correct for Stray Light: No (USB2+H06089)
Number of Pixels in Processed Spectrum: 2048
>>>>>Begin Processed Spectral Data<<<<<
339.70	1036.86
340.07	1036.86
340.45	998.45
340.82	973.52
341.19	948.36
341.57	919.95
341.94	909.65
342.31	901.69
342.69	896.47
343.06	892.66
343.43	893.36
343.81	893.50
344.18	895.23
344.55	903.94
344.93	909.70
345.30	914.07
345.67	919.13
346.04	927.18
346.42	930.67
346.79	937.55
347.16	949.88
347.54	961.68
347.91	971.11
348.28	981.81
348.65	991.99
349.03	996.55
349.40	1003.79
349.77	1009.24
350.14	1016.12
350.52	1023.56
350.89	1030.65
351.26	1039.27
351.63	1043.04
352.01	1046.66
352.38	1048.93
352.75	1054.53
353.12	1054.95
353.50	1062.49
353.87	1064.10
354.24	1066.11
354.61	1066.09
354.98	1069.23
355.36	1069.04
355.73	1067.96
356.10	1069.46
356.47	1069.23
356.84	1069.53
357.22	1071.33
357.59	1074.31
357.96	1075.03
358.33	1077.86
358.70	1077.65
359.08	1075.66
359.45	1073.09
359.82	1072.97
360.19	1072.39
360.56	1073.09
360.94	1073.04
361.31	1076.93
361.68	1073.37
362.05	1070.33
362.42	1068.69
362.79	1068.10
363.16	1066.54
363.54	1070.80
363.91	1071.22
364.28	1070.72
364.65	1068.08
365.02	1067.64
365.39	1064.19
365.76	1066.54
366.14	1063.70
366.51	1065.11
366.88	1066.58
367.25	1066.16
367.62	1062.60
367.99	1064.80
368.36	1065.29
368.73	1065.72
369.10	1065.29
369.48	1068.45
369.85	1068.52
370.22	1067.78
370.59	1067.38
370.96	1067.71
371.33	1063.98
371.70	1063.54
372.07	1063.38
372.44	1060.75
372.81	1062.67
373.18	1066.79
373.55	1066.16
373.93	1068.41
374.30	1068.76
374.67	1070.02
375.04	1066.79
375.41	1066.70
375.78	1065.04
376.15	1065.90
376.52	1063.61
376.89	1065.51
377.26	1068.27
377.63	1067.10
378.00	1067.68
378.37	1068.78
378.74	1069.16
379.11	1068.74
379.48	1068.27
379.85	1066.56
380.22	1066.89
380.59	1066.61
380.96	1066.00
381.33	1064.55
381.70	1068.81
382.07	1068.81
382.44	1067.52
382.81	1068.24
383.18	1072.08
383.55	1069.06
383.92	1070.19
384.29	1069.30
384.66	1069.55
385.03	1067.61
385.40	1069.16
385.77	1069.18
386.14	1071.97
386.51	1071.82
386.88	1070.19
387.25	1070.44
387.62	1069.93
387.99	1068.67
388.36	1067.85
388.73	1071.50
389.10	1070.30
389.46	1069.86
389.83	1071.40
390.20	1067.66
390.57	1065.51
390.94	1065.76
391.31	1062.95
391.68	1061.92
392.05	1070.16
392.42	1070.23
392.79	1068.62
393.16	1071.15
393.53	1071.47
393.89	1068.24
394.26	1070.42
394.63	1070.58
395.00	1069.58
395.37	1069.86
395.74	1068.52
396.11	1068.76
396.48	1069.74
396.84	1072.46
397.21	1069.55
397.58	1070.09
397.95	1070.21
398.32	1070.35
398.69	1068.83
399.06	1072.53
399.42	1071.47
399.79	1073.86
400.16	1075.41
400.53	1075.20
400.90	1073.09
401.27	1076.86
401.64	1073.30
402.00	1073.56
402.37	1073.37
402.74	1077.51
403.11	1078.07
403.48	1082.73
403.84	1080.37
404.21	1084.98
404.58	1084.14
404.95	1083.06
405.32	1079.01
405.68	1079.08
406.05	1076.69
406.42	1075.27
406.79	1072.29
407.16	1072.36
407.52	1075.55
407.89	1076.97
408.26	1076.58
408.63	1078.36
408.99	1081.35
409.36	1080.46
409.73	1077.65
410.10	1078.80
410.47	1083.22
410.83	1080.65
411.20	1080.13
411.57	1083.46
411.94	1083.86
412.30	1078.54
412.67	1080.04
413.04	1083.27
413.40	1080.32
413.77	1080.09
414.14	1084.72
414.51	1086.92
414.87	1085.80
415.24	1089.29
415.61	1087.67
415.97	1084.21
416.34	1081.28
416.71	1081.94
417.08	1082.94
417.44	1083.53
417.81	1086.73
418.18	1087.83
418.54	1085.63
418.91	1084.23
419.28	1086.62
419.64	1087.76
420.01	1090.71
420.38	1091.18
420.74	1090.69
421.11	1091.20
421.48	1090.69
421.84	1087.37
422.21	1089.92
422.58	1091.11
422.94	1092.80
423.31	1089.00
423.68	1089.82
424.04	1089.19
424.41	1089.45
424.77	1088.21
425.14	1091.49
425.51	1094.86
425.87	1095.51
426.24	1095.44
426.61	1099.07
426.97	1101.39
427.34	1101.11
427.70	1102.23
428.07	1104.78
428.44	1106.14
428.80	1107.07
429.17	1108.06
429.53	1114.98
429.90	1120.27
430.27	1121.63
430.63	1126.57
431.00	1133.40
431.36	1134.04
431.73	1137.50
432.09	1146.44
432.46	1152.57
432.83	1157.58
433.19	1164.35
433.56	1169.36
433.92	1171.67
434.29	1173.69
434.65	1181.67
435.02	1186.86
435.38	1195.90
435.75	1204.60
436.11	1218.83
436.48	1226.39
436.84	1239.08
437.21	1248.89
437.57	1260.36
437.94	1271.12
438.30	1287.29
438.67	1302.58
439.03	1321.12
439.40	1339.39
439.76	1358.66
440.13	1377.62
440.49	1399.29
440.86	1416.02
441.22	1442.57
441.59	1464.99
441.95	1490.45
442.32	1516.55
442.68	1550.49
443.05	1580.31
443.41	1617.24
443.78	1654.57
444.14	1693.94
444.51	1730.62
444.87	1773.05
445.24	1814.57
445.60	1858.10
445.96	1903.44
446.33	1957.83
446.69	2004.97
447.06	2057.47
447.42	2118.61
447.79	2179.11
448.15	2248.04
448.51	2318.21
448.88	2396.83
449.24	2462.95
449.61	2549.10
449.97	2635.54
450.33	2730.33
450.70	2824.54
451.06	2941.80
451.43	3050.07
451.79	3165.62
452.15	3293.58
452.52	3426.99
452.88	3561.97
453.24	3706.61
453.61	3871.15
453.97	4037.73
454.34	4200.54
454.70	4385.77
455.06	4580.64
455.43	4764.82
455.79	4937.97
456.15	5144.31
456.52	5335.02
456.88	5562.33
457.24	5792.55
457.61	6069.29
457.97	6322.75
458.33	6594.18
458.70	6858.31
459.06	7125.69
459.42	7412.34
459.79	7682.22
460.15	7984.69
460.51	8264.95
460.88	8553.68
461.24	8817.57
461.60	9111.80
461.96	9376.63
462.33	9631.68
462.69	9880.36
463.05	10144.33
463.42	10390.88
463.78	10623.25
464.14	10852.95
464.50	11076.28
464.87	11244.87
465.23	11371.89
465.59	11533.95
465.95	11674.40
466.32	11812.94
466.68	11927.63
467.04	11995.85
467.40	11985.65
467.77	11980.85
468.13	11945.60
468.49	11927.84
468.85	11944.39
469.22	11964.23
469.58	11952.30
469.94	11952.39
470.30	11894.30
470.66	11796.23
471.03	11644.98
471.39	11523.16
471.75	11310.05
472.11	11109.07
472.47	10944.13
472.84	10786.41
473.20	10598.41
473.56	10473.99
473.92	10316.85
474.28	10189.59
474.65	10069.78
475.01	9925.18
475.37	9773.59
475.73	9638.79
476.09	9487.03
476.45	9333.45
476.81	9205.80
477.18	9063.82
477.54	8939.21
477.90	8812.91
478.26	8682.40
478.62	8542.67
478.98	8406.69
479.34	8289.78
479.71	8150.21
480.07	8041.54
480.43	7939.75
480.79	7836.18
481.15	7718.88
481.51	7632.58
481.87	7525.85
482.23	7398.39
482.59	7288.83
482.96	7181.61
483.32	7061.84
483.68	6943.53
484.04	6846.91
484.40	6720.94
484.76	6607.64
485.12	6494.26
485.48	6401.90
485.84	6279.35
486.20	6165.70
486.56	6047.66
486.92	5936.32
487.28	5815.44
487.64	5708.22
488.00	5607.92
488.37	5495.11
488.73	5370.13
489.09	5231.68
489.45	5122.26
489.81	5026.79
490.17	4933.47
490.53	4847.88
490.89	4766.27
491.25	4654.20
491.61	4531.89
491.97	4427.94
492.33	4318.24
492.69	4209.52
493.05	4120.75
493.41	4032.25
493.77	3932.66
494.13	3849.74
494.49	3767.47
494.85	3687.91
495.21	3616.67
495.57	3550.19
495.93	3474.27
496.29	3407.54
496.64	3343.03
497.00	3262.82
497.36	3180.06
497.72	3110.10
498.08	3048.27
498.44	2986.34
498.80	2936.06
499.16	2884.15
499.52	2823.22
499.88	2765.41
500.24	2712.66
500.60	2664.16
500.96	2623.11
501.32	2582.78
501.68	2531.76
502.03	2480.31
502.39	2428.17
502.75	2378.94
503.11	2339.93
503.47	2310.25
503.83	2278.18
504.19	2248.22
504.55	2219.46
504.91	2186.32
505.26	2153.29
505.62	2120.90
505.98	2091.08
506.34	2061.10
506.70	2029.92
507.06	1994.65
507.42	1964.62
507.78	1930.57
508.13	1898.99
508.49	1872.48
508.85	1850.03
509.21	1824.78
509.57	1803.43
509.93	1777.85
510.28	1755.43
510.64	1735.27
511.00	1711.21
511.36	1685.35
511.72	1666.72
512.07	1648.95
512.43	1625.88
512.79	1608.70
513.15	1595.00
513.51	1581.41
513.86	1563.59
514.22	1551.19
514.58	1536.77
514.94	1521.89
515.30	1505.50
515.65	1493.73
516.01	1480.53
516.37	1464.59
516.73	1455.04
517.08	1447.36
517.44	1434.35
517.80	1421.76
518.16	1412.75
518.51	1399.27
518.87	1385.29
519.23	1377.92
519.59	1373.40
519.94	1365.42
520.30	1357.30
520.66	1347.89
521.01	1338.72
521.37	1325.35
521.73	1317.46
522.09	1308.13
522.44	1302.20
522.80	1293.59
523.16	1289.10
523.51	1283.48
523.87	1279.06
524.23	1272.32
524.58	1264.59
524.94	1258.58
525.30	1253.92
525.65	1248.44
526.01	1240.84
526.37	1237.91
526.72	1231.71
527.08	1226.67
527.44	1224.73
527.79	1220.19
528.15	1214.71
528.51	1211.39
528.86	1204.95
529.22	1196.90
529.58	1197.14
529.93	1196.34
530.29	1192.83
530.65	1190.93
531.00	1189.09
531.36	1184.08
531.71	1177.85
532.07	1175.32
532.43	1169.82
532.78	1165.17
533.14	1162.12
533.49	1162.12
533.85	1159.13
534.21	1157.49
534.56	1154.49
534.92	1152.55
535.27	1150.44
535.63	1146.65
535.98	1142.84
536.34	1144.03
536.69	1145.41
537.05	1143.09
537.41	1143.23
537.76	1142.18
538.12	1138.06
538.47	1132.47
538.83	1127.53
539.18	1126.87
539.54	1128.65
539.89	1130.92
540.25	1132.14
540.60	1130.48
540.96	1127.83
541.31	1125.73
541.67	1122.17
542.02	1118.40
542.38	1118.35
542.73	1117.35
543.09	1116.20
543.44	1115.24
543.80	1118.07
544.15	1121.21
544.51	1119.15
544.86	1119.13
545.22	1120.58
545.57	1114.66
545.93	1111.01
546.28	1111.38
546.64	1109.04
546.99	1106.04
547.35	1104.57
547.70	1102.72
548.05	1104.48
548.41	1104.08
548.76	1104.85
549.12	1106.46
549.47	1106.91
549.83	1104.62
550.18	1101.11
550.53	1095.65
550.89	1094.04
551.24	1091.67
551.60	1092.21
551.95	1096.26
552.30	1099.63
552.66	1100.00
553.01	1099.14
553.37	1098.69
553.72	1097.62
554.07	1096.26
554.43	1092.56
554.78	1091.49
555.13	1088.56
555.49	1085.68
555.84	1086.08
556.19	1087.30
556.55	1089.54
556.90	1088.00
557.26	1088.98
557.61	1087.72
557.96	1086.69
558.32	1083.18
558.67	1085.28
559.02	1084.02
559.37	1086.66
559.73	1087.93
560.08	1087.93
560.43	1086.27
560.79	1086.87
561.14	1082.80
561.49	1082.71
561.85	1087.27
562.20	1089.12
562.55	1087.27
562.90	1088.04
563.26	1086.52
563.61	1083.36
563.96	1079.69
564.32	1084.00
564.67	1084.42
565.02	1088.40
565.37	1087.37
565.73	1089.82
566.08	1087.46
566.43	1087.44
566.78	1086.13
567.14	1086.92
567.49	1088.00
567.84	1086.64
568.19	1087.44
568.54	1088.84
568.90	1087.48
569.25	1084.11
569.60	1086.41
569.95	1084.91
570.31	1080.88
570.66	1082.90
571.01	1080.18
571.36	1078.28
571.71	1079.55
572.06	1080.09
572.42	1078.71
572.77	1083.55
573.12	1083.86
573.47	1079.34
573.82	1082.26
574.18	1082.90
574.53	1080.67
574.88	1079.62
575.23	1079.31
575.58	1075.90
575.93	1075.83
576.28	1077.47
576.64	1079.38
576.99	1082.15
577.34	1084.72
577.69	1085.28
578.04	1085.10
578.39	1083.90
578.74	1087.90
579.09	1088.07
579.44	1087.62
579.80	1088.56
580.15	1086.01
580.50	1082.52
580.85	1079.64
581.20	1077.75
581.55	1074.28
581.90	1074.26
582.25	1074.07
582.60	1074.87
582.95	1080.06
583.30	1081.40
583.65	1082.03
584.00	1083.13
584.35	1081.89
584.71	1077.37
585.06	1076.11
585.41	1074.33
585.76	1071.54
586.11	1070.68
586.46	1073.44
586.81	1075.31
587.16	1078.57
587.51	1078.26
587.86	1078.96
588.21	1077.35
588.56	1077.75
588.91	1075.85
589.26	1076.53
589.61	1075.36
589.96	1075.85
590.31	1074.40
590.66	1076.65
591.01	1076.13
591.36	1077.35
591.71	1074.80
592.06	1076.06
592.41	1072.36
592.76	1077.58
593.10	1076.83
593.45	1077.16
593.80	1076.74
594.15	1078.07
594.50	1075.17
594.85	1077.35
595.20	1076.93
595.55	1076.04
595.90	1077.02
596.25	1077.14
596.60	1075.15
596.95	1076.39
597.30	1077.47
597.64	1088.47
597.99	1087.23
598.34	1090.62
598.69	1090.39
599.04	1089.96
599.39	1077.84
599.74	1074.82
600.09	1072.18
600.44	1071.85
600.78	1071.47
601.13	1072.74
601.48	1075.90
601.83	1073.88
602.18	1073.51
602.53	1074.31
602.88	1075.20
603.22	1073.18
603.57	1075.43
603.92	1079.01
604.27	1078.12
604.62	1077.47
604.97	1078.61
605.31	1078.50
605.66	1075.43
606.01	1077.65
606.36	1079.74
606.71	1081.66
607.05	1083.06
607.40	1084.30
607.75	1081.49
608.10	1079.08
608.44	1076.88
608.79	1077.00
609.14	1078.05
609.49	1076.41
609.84	1077.96
610.18	1077.61
610.53	1077.30
610.88	1074.54
611.23	1077.37
611.57	1078.80
611.92	1078.66
612.27	1078.73
612.62	1078.82
612.96	1080.60
613.31	1078.71
613.66	1083.36
614.00	1080.37
614.35	1080.63
614.70	1075.94
615.05	1074.82
615.39	1069.25
615.74	1070.70
616.09	1071.08
616.43	1073.98
616.78	1073.98
617.13	1076.93
617.47	1075.90
617.82	1079.48
618.17	1077.86
618.51	1075.01
618.86	1075.55
619.21	1075.27
619.55	1072.85
619.90	1072.43
620.25	1073.14
620.59	1072.34
620.94	1076.23
621.29	1077.51
621.63	1079.46
621.98	1079.64
622.32	1081.37
622.67	1077.93
623.02	1073.51
623.36	1074.07
623.71	1074.49
624.05	1073.23
624.40	1075.10
624.75	1076.62
625.09	1075.34
625.44	1078.66
625.78	1077.68
626.13	1076.11
626.48	1078.66
626.82	1077.84
627.17	1072.53
627.51	1073.18
627.86	1073.51
628.20	1072.43
628.55	1071.92
628.89	1074.94
629.24	1073.72
629.58	1076.39
629.93	1078.80
630.28	1078.38
630.62	1079.03
630.97	1080.23
631.31	1078.82
631.66	1075.20
632.00	1077.86
632.35	1077.40
632.69	1078.31
633.04	1077.47
633.38	1076.76
633.73	1074.66
634.07	1072.55
634.42	1069.02
634.76	1067.00
635.11	1065.62
635.45	1069.58
635.79	1071.92
636.14	1075.64
636.48	1080.20
636.83	1081.98
637.17	1078.75
637.52	1079.64
637.86	1079.60
638.21	1079.81
638.55	1081.05
638.89	1083.57
639.24	1081.26
639.58	1079.92
639.93	1079.43
640.27	1079.69
640.61	1075.87
640.96	1077.84
641.30	1077.11
641.65	1073.60
641.99	1071.22
642.33	1071.87
642.68	1072.22
643.02	1074.54
643.37	1073.86
643.71	1077.07
644.05	1078.89
644.40	1080.77
644.74	1079.50
645.08	1082.43
645.43	1082.57
645.77	1080.88
646.11	1076.67
646.46	1077.89
646.80	1078.59
647.14	1075.24
647.49	1076.08
647.83	1078.85
648.17	1077.96
648.52	1075.55
648.86	1076.69
649.20	1075.05
649.55	1075.34
649.89	1074.63
650.23	1077.30
650.57	1078.50
650.92	1081.61
651.26	1080.56
651.60	1080.91
651.95	1078.24
652.29	1078.05
652.63	1077.37
652.97	1080.41
653.32	1077.91
653.66	1078.52
654.00	1078.10
654.34	1078.54
654.69	1077.96
655.03	1081.73
655.37	1080.56
655.71	1081.82
656.05	1082.52
656.40	1078.94
656.74	1077.30
657.08	1081.80
657.42	1080.93
657.76	1079.99
658.11	1082.78
658.45	1081.94
658.79	1078.26
659.13	1079.74
659.47	1077.35
659.82	1077.54
660.16	1076.81
660.50	1077.98
660.84	1076.25
661.18	1078.52
661.52	1073.70
661.87	1074.70
662.21	1075.76
662.55	1075.83
662.89	1075.05
663.23	1077.89
663.57	1077.09
663.91	1075.76
664.25	1075.97
664.60	1076.34
664.94	1076.48
665.28	1078.26
665.62	1077.51
665.96	1080.20
666.30	1081.63
666.64	1080.48
666.98	1080.53
667.32	1079.27
667.66	1073.67
668.01	1070.44
668.35	1070.63
668.69	1071.36
669.03	1071.66
669.37	1074.12
669.71	1075.34
670.05	1073.49
670.39	1072.32
670.73	1071.57
671.07	1072.34
671.41	1074.42
671.75	1075.13
672.09	1070.87
672.43	1074.56
672.77	1073.72
673.11	1069.44
673.45	1069.72
673.79	1074.07
674.13	1072.83
674.47	1071.82
674.81	1073.74
675.15	1076.88
675.49	1076.15
675.83	1076.88
676.17	1078.73
676.51	1078.61
676.85	1076.72
677.19	1078.59
677.53	1081.68
677.87	1082.80
678.21	1082.78
678.55	1083.79
678.89	1083.01
679.23	1080.30
679.57	1075.17
679.90	1078.43
680.24	1077.93
680.58	1074.12
680.92	1072.06
681.26	1073.09
681.60	1069.34
681.94	1068.59
682.28	1071.31
682.62	1072.50
682.96	1074.77
683.29	1076.81
683.63	1077.49
683.97	1078.85
684.31	1078.07
684.65	1077.44
684.99	1073.60
685.33	1075.03
685.67	1075.01
686.00	1074.26
686.34	1075.97
686.68	1079.60
687.02	1076.34
687.36	1073.32
687.70	1073.44
688.03	1073.74
688.37	1072.25
688.71	1074.54
689.05	1077.56
689.39	1078.28
689.72	1078.52
690.06	1080.34
690.40	1075.94
690.74	1074.19
691.08	1074.80
691.41	1072.67
691.75	1071.03
692.09	1074.05
692.43	1072.43
692.76	1072.62
693.10	1070.44
693.44	1071.03
693.78	1072.95
694.11	1077.77
694.45	1077.07
694.79	1075.87
695.13	1077.00
695.46	1076.88
695.80	1075.03
696.14	1076.41
696.48	1079.53
696.81	1079.29
697.15	1080.27
697.49	1077.35
697.82	1078.03
698.16	1079.62
698.50	1076.88
698.83	1073.23
699.17	1076.74
699.51	1075.29
699.84	1072.43
700.18	1075.59
700.52	1074.94
700.85	1074.82
701.19	1072.69
701.53	1072.32
701.86	1073.14
702.20	1073.16
702.54	1073.32
702.87	1075.01
703.21	1077.11
703.55	1077.11
703.88	1079.97
704.22	1077.82
704.55	1079.31
704.89	1078.47
705.23	1076.41
705.56	1076.60
705.90	1077.14
706.23	1073.81
706.57	1076.27
706.91	1075.92
707.24	1078.38
707.58	1079.43
707.91	1082.40
708.25	1079.22
708.58	1080.81
708.92	1077.33
709.26	1076.11
709.59	1075.38
709.93	1076.53
710.26	1078.31
710.60	1077.70
710.93	1078.92
711.27	1077.56
711.60	1077.09
711.94	1075.03
712.27	1078.24
712.61	1079.48
712.94	1079.78
713.28	1079.76
713.61	1078.61
713.95	1077.18
714.28	1074.82
714.62	1077.49
714.95	1077.82
715.29	1075.45
715.62	1076.06
715.96	1076.13
716.29	1073.88
716.63	1074.70
716.96	1078.47
717.29	1076.11
717.63	1076.53
717.96	1076.88
718.30	1074.63
718.63	1074.75
718.97	1075.13
719.30	1075.48
719.63	1077.23
719.97	1079.88
720.30	1075.17
720.64	1073.49
720.97	1072.55
721.30	1072.50
721.64	1070.14
721.97	1076.39
722.31	1079.64
722.64	1077.79
722.97	1075.15
723.31	1075.76
723.64	1073.09
723.97	1072.76
724.31	1077.56
724.64	1079.69
724.98	1079.01
725.31	1074.77
725.64	1073.51
725.98	1069.13
726.31	1068.20
726.64	1068.76
726.97	1072.39
727.31	1071.90
727.64	1074.59
727.97	1072.27
728.31	1073.42
728.64	1071.90
728.97	1074.42
729.31	1074.21
729.64	1074.89
729.97	1073.77
730.30	1074.59
730.64	1070.02
730.97	1070.16
731.30	1070.30
731.63	1070.21
731.97	1070.70
732.30	1072.48
732.63	1070.07
732.96	1070.68
733.30	1073.44
733.63	1072.57
733.96	1073.49
734.29	1074.40
734.63	1072.46
734.96	1071.80
735.29	1073.21
735.62	1070.84
735.95	1073.67
736.29	1074.03
736.62	1074.75
736.95	1073.65
737.28	1077.68
737.61	1076.58
737.94	1076.23
738.28	1071.75
738.61	1070.98
738.94	1070.05
739.27	1071.36
739.60	1071.22
739.93	1075.38
740.27	1078.17
740.60	1077.23
740.93	1073.60
741.26	1079.88
741.59	1077.14
741.92	1077.33
742.25	1077.44
742.58	1083.20
742.91	1079.48
743.25	1082.12
743.58	1084.63
743.91	1083.83
744.24	1081.66
744.57	1079.78
744.90	1079.85
745.23	1076.53
745.56	1075.85
745.89	1074.52
746.22	1075.76
746.55	1072.67
746.88	1071.26
747.21	1072.22
747.54	1067.52
747.87	1069.77
748.20	1073.67
748.53	1074.87
748.87	1076.20
749.20	1078.64
749.53	1075.24
749.86	1072.20
750.19	1073.37
750.52	1072.15
750.85	1074.14
751.18	1078.68
751.51	1076.41
751.84	1075.41
752.16	1075.17
752.49	1074.31
752.82	1076.27
753.15	1078.14
753.48	1079.60
753.81	1079.15
754.14	1078.68
754.47	1072.90
754.80	1074.28
755.13	1072.46
755.46	1075.62
755.79	1078.03
756.12	1078.36
756.45	1077.09
756.78	1077.35
757.11	1072.39
757.43	1069.93
757.76	1071.19
758.09	1071.61
758.42	1073.16
758.75	1078.31
759.08	1080.16
759.41	1079.24
759.74	1080.27
760.07	1075.29
760.39	1070.77
760.72	1068.43
761.05	1066.51
761.38	1065.13
761.71	1068.03
762.04	1070.44
762.36	1070.68
762.69	1072.50
763.02	1074.31
763.35	1075.05
763.68	1076.34
764.01	1079.90
764.33	1081.07
764.66	1079.15
764.99	1078.64
765.32	1075.87
765.65	1073.02
