SpectraSuite Data File
++++++++++++++++++++++++++++++++++++
Date: Mon Aug 26 10:22:32 PDT 2019
User: corrico
Dark Spectrum Present: No
Reference Spectrum Present: No
Number of Sampled Component Spectra: 1
Spectrometers: USB2+H06089
Integration Time (usec): 2000 (USB2+H06089)
Spectra Averaged: 20 (USB2+H06089)
Boxcar Smoothing: 2 (USB2+H06089)
Correct for Electrical Dark: No (USB2+H06089)
Strobe/Lamp Enabled: No (USB2+H06089)
Correct for Detector Non-linearity: No (USB2+H06089)
Correct for Stray Light: No (USB2+H06089)
Number of Pixels in Processed Spectrum: 2048
>>>>>Begin Processed Spectral Data<<<<<
339.70	1045.40
340.07	1045.40
340.45	1009.15
340.82	982.32
341.19	956.13
341.57	927.04
341.94	917.79
342.31	905.04
342.69	901.04
343.06	898.09
343.43	895.98
343.81	896.35
344.18	902.04
344.55	907.00
344.93	913.25
345.30	917.28
345.67	922.90
346.04	930.97
346.42	938.60
346.79	944.38
347.16	956.67
347.54	963.58
347.91	970.46
348.28	978.62
348.65	988.85
349.03	997.56
349.40	1007.25
349.77	1014.51
350.14	1022.28
350.52	1029.81
350.89	1036.23
351.26	1041.54
351.63	1049.59
352.01	1053.19
352.38	1057.15
352.75	1062.37
353.12	1067.64
353.50	1071.17
353.87	1079.08
354.24	1080.34
354.61	1083.39
354.98	1084.67
355.36	1082.80
355.73	1080.77
356.10	1083.62
356.47	1081.96
356.84	1083.32
357.22	1085.10
357.59	1086.17
357.96	1083.55
358.33	1084.93
358.70	1083.46
359.08	1082.83
359.45	1082.22
359.82	1082.29
360.19	1079.48
360.56	1078.47
360.94	1079.10
361.31	1080.39
361.68	1081.54
362.05	1083.67
362.42	1084.28
362.79	1081.14
363.16	1079.10
363.54	1078.75
363.91	1076.20
364.28	1075.78
364.65	1078.50
365.02	1075.48
365.39	1073.86
365.76	1076.20
366.14	1073.00
366.51	1069.72
366.88	1072.78
367.25	1071.61
367.62	1067.61
367.99	1070.49
368.36	1071.85
368.73	1071.82
369.10	1073.07
369.48	1073.98
369.85	1076.60
370.22	1076.15
370.59	1076.95
370.96	1078.64
371.33	1081.47
371.70	1084.23
372.07	1084.91
372.44	1083.95
372.81	1084.72
373.18	1082.87
373.55	1079.03
373.93	1077.56
374.30	1075.05
374.67	1073.88
375.04	1074.52
375.41	1071.50
375.78	1073.79
376.15	1077.25
376.52	1079.69
376.89	1082.38
377.26	1085.47
377.63	1084.67
378.00	1083.55
378.37	1082.29
378.74	1081.33
379.11	1078.05
379.48	1080.34
379.85	1080.27
380.22	1078.85
380.59	1075.69
380.96	1078.68
381.33	1076.74
381.70	1076.06
382.07	1079.01
382.44	1083.29
382.81	1085.42
383.18	1087.44
383.55	1087.46
383.92	1087.11
384.29	1085.75
384.66	1081.07
385.03	1079.06
385.40	1082.12
385.77	1083.15
386.14	1081.98
386.51	1082.66
386.88	1082.61
387.25	1081.42
387.62	1080.72
387.99	1081.09
388.36	1082.85
388.73	1085.45
389.10	1083.48
389.46	1080.23
389.83	1081.66
390.20	1083.86
390.57	1082.19
390.94	1085.26
391.31	1087.88
391.68	1085.91
392.05	1084.81
392.42	1088.93
392.79	1089.47
393.16	1089.61
393.53	1091.81
393.89	1093.78
394.26	1088.79
394.63	1085.82
395.00	1085.80
395.37	1085.24
395.74	1081.12
396.11	1086.29
396.48	1088.49
396.84	1085.47
397.21	1086.36
397.58	1087.51
397.95	1081.63
398.32	1082.22
398.69	1083.64
399.06	1082.26
399.42	1086.41
399.79	1090.90
400.16	1091.32
400.53	1092.56
400.90	1094.88
401.27	1093.76
401.64	1094.01
402.00	1090.22
402.37	1093.40
402.74	1093.38
403.11	1090.76
403.48	1091.02
403.84	1092.42
404.21	1087.44
404.58	1087.04
404.95	1087.09
405.32	1084.23
405.68	1086.92
406.05	1088.40
406.42	1088.30
406.79	1089.73
407.16	1093.38
407.52	1095.18
407.89	1097.29
408.26	1097.36
408.63	1098.32
408.99	1101.01
409.36	1098.27
409.73	1099.82
410.10	1101.99
410.47	1100.82
410.83	1096.45
411.20	1098.51
411.57	1096.12
411.94	1094.76
412.30	1093.92
412.67	1094.32
413.04	1095.35
413.40	1095.75
413.77	1097.41
414.14	1099.40
414.51	1100.15
414.87	1099.68
415.24	1099.16
415.61	1098.20
415.97	1097.95
416.34	1100.45
416.71	1100.89
417.08	1104.64
417.44	1107.66
417.81	1109.81
418.18	1109.04
418.54	1110.47
418.91	1111.50
419.28	1110.65
419.64	1117.98
420.01	1119.27
420.38	1119.83
420.74	1120.39
421.11	1122.47
421.48	1118.19
421.84	1118.80
422.21	1124.32
422.58	1127.67
422.94	1130.50
423.31	1134.93
423.68	1137.52
424.04	1136.24
424.41	1139.91
424.77	1139.75
425.14	1140.12
425.51	1145.34
425.87	1150.00
426.24	1150.56
426.61	1159.29
426.97	1161.77
427.34	1169.64
427.70	1176.63
428.07	1185.41
428.44	1193.58
428.80	1204.93
429.17	1207.76
429.53	1215.74
429.90	1225.15
430.27	1233.09
430.63	1240.39
431.00	1250.88
431.36	1260.96
431.73	1270.82
432.09	1282.82
432.46	1301.01
432.83	1320.20
433.19	1337.05
433.56	1356.90
433.92	1374.99
434.29	1393.53
434.65	1414.39
435.02	1437.04
435.38	1462.27
435.75	1491.97
436.11	1523.27
436.48	1555.50
436.84	1589.50
437.21	1623.14
437.57	1658.11
437.94	1702.20
438.30	1744.78
438.67	1788.38
439.03	1836.45
439.40	1891.88
439.76	1937.99
440.13	1999.73
440.49	2070.37
440.86	2138.45
441.22	2203.80
441.59	2281.93
441.95	2360.95
442.32	2441.13
442.68	2536.09
443.05	2629.57
443.41	2726.77
443.78	2822.05
444.14	2928.74
444.51	3035.28
444.87	3177.04
445.24	3318.36
445.60	3470.92
445.96	3623.59
446.33	3791.97
446.69	3950.68
447.06	4123.13
447.42	4305.09
447.79	4497.20
448.15	4722.22
448.51	4947.00
448.88	5205.54
449.24	5449.89
449.61	5726.61
449.97	5987.93
450.33	6269.48
450.70	6530.35
451.06	6846.25
451.43	7141.19
451.79	7499.94
452.15	7889.76
452.52	8332.47
452.88	8790.96
453.24	9316.06
453.61	9880.45
453.97	10440.87
454.34	10983.83
454.70	11625.91
455.06	12272.41
455.43	12896.91
455.79	13486.00
456.15	14191.81
456.52	14837.29
456.88	15596.89
457.24	16300.19
457.61	17137.50
457.97	17889.14
458.33	18662.87
458.70	19412.94
459.06	20177.73
459.42	21005.37
459.79	21782.27
460.15	22669.87
460.51	23523.81
460.88	24445.23
461.24	25240.22
461.60	26201.17
461.96	27072.86
462.33	27897.43
462.69	28661.17
463.05	29478.79
463.42	30154.81
463.78	30766.22
464.14	31283.32
464.50	31857.17
464.87	32332.51
465.23	32680.83
465.59	33043.68
465.95	33364.78
466.32	33611.71
466.68	33841.01
467.04	33970.58
467.40	34083.61
467.77	34229.82
468.13	34223.38
468.49	34111.88
468.85	34053.13
469.22	33890.49
469.58	33536.25
469.94	33282.72
470.30	32970.42
470.66	32551.89
471.03	31968.04
471.39	31590.02
471.75	30968.03
472.11	30376.76
472.47	30011.73
472.84	29689.95
473.20	29189.92
473.56	28911.14
473.92	28479.45
474.28	27949.18
474.65	27459.38
475.01	26994.71
475.37	26437.45
475.73	25976.65
476.09	25458.43
476.45	24933.35
476.81	24425.36
477.18	23900.24
477.54	23485.66
477.90	23149.63
478.26	22757.80
478.62	22414.75
478.98	22132.71
479.34	21819.76
479.71	21429.43
480.07	21108.75
480.43	20774.20
480.79	20391.92
481.15	20032.79
481.51	19715.41
481.87	19449.24
482.23	19169.62
482.59	18936.22
482.96	18655.78
483.32	18370.14
483.68	18015.71
484.04	17678.35
484.40	17299.51
484.76	16945.71
485.12	16600.67
485.48	16288.72
485.84	15945.93
486.20	15603.77
486.56	15248.40
486.92	14935.73
487.28	14590.01
487.64	14232.33
488.00	13902.31
488.37	13574.12
488.73	13206.66
489.09	12843.53
489.45	12539.65
489.81	12230.54
490.17	11946.28
490.53	11670.59
490.89	11388.65
491.25	11093.37
491.61	10793.22
491.97	10475.42
492.33	10156.66
492.69	9861.38
493.05	9572.30
493.41	9295.34
493.77	9026.07
494.13	8770.24
494.49	8522.97
494.85	8283.32
495.21	8059.03
495.57	7852.61
495.93	7649.81
496.29	7452.13
496.64	7275.18
497.00	7083.21
497.36	6893.60
497.72	6707.27
498.08	6537.47
498.44	6349.29
498.80	6188.38
499.16	6031.70
499.52	5883.40
499.88	5755.96
500.24	5642.14
500.60	5529.47
500.96	5412.07
501.32	5299.93
501.68	5166.26
502.03	5034.16
502.39	4896.40
502.75	4762.55
503.11	4639.64
503.47	4527.56
503.83	4409.76
504.19	4301.88
504.55	4202.92
504.91	4111.20
505.26	4014.30
505.62	3931.98
505.98	3839.06
506.34	3746.80
506.70	3653.25
507.06	3566.60
507.42	3480.80
507.78	3407.31
508.13	3335.99
508.49	3262.52
508.85	3191.41
509.21	3120.14
509.57	3050.56
509.93	2981.28
510.28	2912.28
510.64	2852.69
511.00	2795.21
511.36	2739.36
511.72	2687.59
512.07	2643.45
512.43	2589.97
512.79	2536.84
513.15	2492.62
513.51	2442.68
513.86	2393.95
514.22	2355.84
514.58	2323.22
514.94	2281.09
515.30	2252.46
515.65	2219.13
516.01	2183.39
516.37	2150.53
516.73	2119.80
517.08	2088.25
517.44	2060.40
517.80	2036.73
518.16	2008.51
518.51	1986.18
518.87	1956.48
519.23	1932.58
519.59	1905.45
519.94	1878.96
520.30	1854.29
520.66	1833.13
521.01	1807.39
521.37	1785.97
521.73	1766.24
522.09	1741.71
522.44	1721.37
522.80	1704.94
523.16	1685.86
523.51	1663.91
523.87	1644.88
524.23	1626.49
524.58	1603.20
524.94	1586.27
525.30	1570.59
525.65	1557.23
526.01	1542.30
526.37	1531.55
526.72	1513.55
527.08	1501.92
527.44	1488.65
527.79	1472.92
528.15	1459.00
528.51	1447.83
528.86	1435.26
529.22	1421.92
529.58	1413.59
529.93	1402.75
530.29	1392.90
530.65	1383.37
531.00	1371.79
531.36	1361.79
531.71	1351.71
532.07	1341.78
532.43	1331.16
532.78	1330.50
533.14	1324.23
533.49	1318.47
533.85	1317.75
534.21	1314.33
534.56	1304.19
534.92	1296.94
535.27	1293.87
535.63	1285.80
535.98	1279.71
536.34	1274.47
536.69	1267.54
537.05	1260.99
537.41	1255.00
537.76	1249.64
538.12	1244.60
538.47	1241.44
538.83	1236.51
539.18	1232.76
539.54	1227.92
539.89	1224.64
540.25	1220.10
540.60	1216.40
540.96	1213.40
541.31	1212.33
541.67	1211.23
542.02	1211.25
542.38	1209.59
542.73	1203.81
543.09	1198.68
543.44	1195.87
543.80	1192.90
544.15	1189.39
544.51	1188.57
544.86	1188.15
545.22	1185.36
545.57	1180.66
545.93	1176.91
546.28	1172.77
546.64	1168.58
546.99	1162.24
547.35	1162.36
547.70	1159.83
548.05	1159.48
548.41	1155.92
548.76	1157.07
549.12	1152.39
549.47	1151.96
549.83	1151.47
550.18	1149.67
550.53	1146.70
550.89	1145.79
551.24	1141.92
551.60	1139.33
551.95	1142.72
552.30	1139.65
552.66	1140.38
553.01	1140.17
553.37	1138.04
553.72	1135.82
554.07	1138.62
554.43	1135.70
554.78	1135.46
555.13	1133.12
555.49	1130.15
555.84	1126.29
556.19	1123.50
556.55	1118.17
556.90	1120.25
557.26	1122.40
557.61	1123.95
557.96	1125.56
558.32	1129.71
558.67	1127.51
559.02	1122.24
559.37	1121.37
559.73	1118.05
560.08	1115.41
560.43	1114.68
560.79	1115.24
561.14	1114.00
561.49	1114.66
561.85	1113.39
562.20	1110.98
562.55	1108.50
562.90	1107.45
563.26	1105.08
563.61	1103.91
563.96	1106.58
564.32	1107.47
564.67	1106.00
565.02	1109.48
565.37	1106.46
565.73	1101.90
566.08	1102.02
566.43	1100.78
566.78	1097.80
567.14	1102.23
567.49	1104.76
567.84	1106.51
568.19	1107.64
568.54	1108.08
568.90	1106.42
569.25	1105.34
569.60	1102.11
569.95	1101.03
570.31	1099.28
570.66	1098.86
571.01	1097.38
571.36	1100.00
571.71	1097.66
572.06	1099.56
572.42	1100.57
572.77	1096.45
573.12	1095.23
573.47	1094.86
573.82	1091.51
574.18	1087.48
574.53	1092.89
574.88	1088.47
575.23	1095.28
575.58	1097.90
575.93	1098.74
576.28	1100.96
576.64	1103.77
576.99	1095.58
577.34	1094.62
577.69	1094.25
578.04	1091.49
578.39	1088.40
578.74	1090.24
579.09	1089.43
579.44	1091.42
579.80	1090.43
580.15	1092.14
580.50	1095.21
580.85	1095.39
581.20	1092.52
581.55	1094.53
581.90	1093.03
582.25	1092.37
582.60	1091.58
582.95	1094.46
583.30	1090.57
583.65	1091.02
584.00	1086.43
584.35	1084.93
584.71	1083.27
585.06	1086.24
585.41	1088.72
585.76	1089.22
586.11	1092.35
586.46	1092.23
586.81	1088.44
587.16	1085.80
587.51	1089.68
587.86	1088.72
588.21	1090.32
588.56	1094.34
588.91	1095.23
589.26	1095.32
589.61	1096.78
589.96	1097.76
590.31	1094.43
590.66	1093.01
591.01	1090.39
591.36	1087.46
591.71	1085.96
592.06	1087.16
592.41	1088.49
592.76	1088.00
593.10	1091.95
593.45	1089.07
593.80	1091.16
594.15	1090.48
594.50	1092.05
594.85	1090.29
595.20	1091.18
595.55	1092.12
595.90	1093.33
596.25	1093.24
596.60	1094.60
596.95	1096.66
597.30	1091.74
597.64	1099.35
597.99	1096.92
598.34	1092.47
598.69	1092.54
599.04	1093.57
599.39	1084.00
599.74	1083.90
600.09	1086.17
600.44	1086.92
600.78	1085.35
601.13	1083.79
601.48	1087.23
601.83	1083.53
602.18	1082.87
602.53	1084.65
602.88	1087.04
603.22	1084.89
603.57	1086.66
603.92	1085.07
604.27	1083.90
604.62	1082.85
604.97	1082.94
605.31	1083.55
605.66	1087.34
606.01	1088.04
606.36	1089.43
606.71	1088.19
607.05	1089.61
607.40	1086.48
607.75	1088.00
608.10	1086.24
608.44	1088.37
608.79	1087.51
609.14	1087.76
609.49	1086.52
609.84	1086.94
610.18	1083.90
610.53	1083.95
610.88	1083.48
611.23	1084.96
611.57	1085.17
611.92	1088.49
612.27	1088.16
612.62	1088.12
612.96	1084.81
613.31	1085.07
613.66	1084.42
614.00	1085.07
614.35	1085.63
614.70	1088.26
615.05	1087.48
615.39	1086.52
615.74	1087.69
616.09	1088.58
616.43	1089.50
616.78	1087.93
617.13	1087.02
617.47	1083.95
617.82	1083.29
618.17	1082.40
618.51	1084.25
618.86	1083.36
619.21	1085.24
619.55	1084.32
619.90	1084.60
620.25	1085.33
620.59	1085.45
620.94	1088.86
621.29	1087.79
621.63	1088.68
621.98	1091.27
622.32	1090.67
622.67	1085.40
623.02	1084.84
623.36	1083.04
623.71	1078.33
624.05	1081.58
624.40	1081.54
624.75	1080.56
625.09	1078.73
625.44	1079.24
625.78	1079.50
626.13	1079.17
626.48	1078.50
626.82	1081.07
627.17	1081.33
627.51	1081.80
627.86	1083.88
628.20	1086.76
628.55	1086.06
628.89	1087.16
629.24	1086.06
629.58	1085.26
629.93	1085.35
630.28	1085.19
630.62	1084.89
630.97	1082.43
631.31	1082.01
631.66	1082.33
632.00	1082.80
632.35	1081.47
632.69	1085.49
633.04	1086.94
633.38	1088.14
633.73	1091.46
634.07	1092.73
634.42	1090.08
634.76	1091.58
635.11	1089.50
635.45	1086.48
635.79	1086.48
636.14	1088.16
636.48	1086.08
636.83	1083.86
637.17	1083.90
637.52	1083.41
637.86	1080.16
638.21	1081.33
638.55	1084.09
638.89	1081.82
639.24	1080.65
639.58	1082.52
639.93	1078.57
640.27	1078.57
640.61	1081.37
640.96	1083.22
641.30	1082.43
641.65	1085.05
641.99	1084.00
642.33	1082.73
642.68	1081.82
643.02	1082.54
643.37	1081.00
643.71	1080.46
644.05	1079.74
644.40	1078.96
644.74	1078.05
645.08	1079.62
645.43	1078.57
645.77	1080.32
646.11	1082.92
646.46	1083.41
646.80	1082.40
647.14	1085.07
647.49	1081.37
647.83	1080.88
648.17	1083.15
648.52	1083.71
648.86	1083.11
649.20	1086.22
649.55	1084.72
649.89	1084.35
650.23	1087.20
650.57	1085.21
650.92	1084.09
651.26	1084.86
651.60	1086.36
651.95	1084.65
652.29	1087.16
652.63	1088.00
652.97	1090.29
653.32	1089.87
653.66	1088.49
654.00	1087.60
654.34	1086.20
654.69	1086.62
655.03	1085.84
655.37	1086.34
655.71	1090.06
656.05	1090.74
656.40	1089.52
656.74	1087.55
657.08	1088.96
657.42	1085.33
657.76	1082.47
658.11	1080.67
658.45	1081.51
658.79	1079.41
659.13	1081.91
659.47	1086.80
659.82	1088.35
660.16	1087.04
660.50	1087.32
660.84	1084.39
661.18	1080.86
661.52	1077.98
661.87	1079.36
662.21	1078.07
662.55	1078.19
662.89	1083.53
663.23	1083.46
663.57	1082.61
663.91	1082.85
664.25	1083.15
664.60	1078.12
664.94	1079.13
665.28	1081.21
665.62	1083.13
665.96	1083.53
666.30	1084.65
666.64	1081.16
666.98	1075.27
667.32	1074.96
667.66	1074.21
668.01	1074.14
668.35	1075.71
668.69	1082.15
669.03	1085.05
669.37	1085.75
669.71	1087.30
670.05	1090.06
670.39	1087.58
670.73	1085.26
671.07	1086.10
671.41	1084.77
671.75	1085.05
672.09	1086.92
672.43	1084.56
672.77	1084.79
673.11	1086.85
673.45	1086.08
673.79	1081.56
674.13	1083.62
674.47	1082.59
674.81	1080.20
675.15	1081.40
675.49	1085.21
675.83	1085.28
676.17	1082.17
676.51	1082.61
676.85	1081.16
677.19	1076.48
677.53	1076.30
677.87	1080.81
678.21	1080.44
678.55	1082.57
678.89	1087.27
679.23	1085.26
679.57	1085.59
679.90	1088.14
680.24	1087.09
680.58	1088.23
680.92	1090.60
681.26	1085.26
681.60	1081.87
681.94	1082.08
682.28	1079.34
682.62	1080.91
682.96	1085.14
683.29	1088.07
683.63	1087.44
683.97	1087.27
684.31	1081.75
684.65	1080.27
684.99	1078.17
685.33	1078.89
685.67	1077.14
686.00	1080.18
686.34	1081.87
686.68	1081.80
687.02	1082.78
687.36	1087.34
687.70	1088.40
688.03	1090.43
688.37	1090.97
688.71	1090.53
689.05	1085.70
689.39	1084.23
689.72	1080.79
690.06	1081.42
690.40	1078.99
690.74	1083.62
691.08	1083.93
691.41	1083.18
691.75	1080.53
692.09	1080.81
692.43	1079.01
692.76	1076.53
693.10	1077.11
693.44	1076.79
693.78	1076.18
694.11	1076.11
694.45	1076.44
694.79	1075.38
695.13	1075.08
695.46	1075.50
695.80	1077.42
696.14	1078.19
696.48	1076.55
696.81	1077.04
697.15	1077.23
697.49	1074.47
697.82	1077.58
698.16	1081.91
698.50	1084.49
698.83	1085.45
699.17	1085.45
699.51	1086.13
699.84	1082.61
700.18	1082.03
700.52	1081.23
700.85	1081.42
701.19	1078.61
701.53	1079.62
701.86	1080.98
702.20	1080.93
702.54	1078.71
702.87	1081.84
703.21	1082.85
703.55	1083.04
703.88	1082.90
704.22	1085.12
704.55	1083.79
704.89	1084.60
705.23	1080.79
705.56	1079.67
705.90	1080.86
706.23	1079.10
706.57	1077.93
706.91	1081.44
707.24	1081.49
707.58	1079.95
707.91	1080.13
708.25	1081.28
708.58	1078.64
708.92	1080.48
709.26	1077.93
709.59	1076.90
709.93	1076.32
710.26	1078.73
710.60	1078.64
710.93	1084.60
711.27	1086.80
711.60	1088.70
711.94	1087.37
712.27	1086.80
712.61	1083.41
712.94	1084.39
713.28	1081.77
713.61	1078.78
713.95	1080.34
714.28	1080.16
714.62	1078.36
714.95	1079.99
715.29	1086.08
715.62	1086.57
715.96	1089.94
716.29	1090.85
716.63	1092.73
716.96	1088.47
717.29	1088.75
717.63	1085.26
717.96	1085.38
718.30	1084.00
718.63	1086.01
718.97	1083.08
719.30	1080.74
719.63	1079.06
719.97	1077.49
720.30	1077.18
720.64	1076.23
720.97	1077.23
721.30	1078.31
721.64	1079.08
721.97	1079.36
722.31	1079.76
722.64	1081.14
722.97	1081.05
723.31	1079.62
723.64	1081.00
723.97	1081.19
724.31	1082.29
724.64	1081.33
724.98	1082.10
725.31	1080.09
725.64	1078.92
725.98	1077.86
726.31	1079.83
726.64	1081.12
726.97	1082.24
727.31	1084.42
727.64	1085.45
727.97	1081.73
728.31	1080.34
728.64	1080.20
728.97	1081.73
729.31	1080.39
729.64	1080.77
729.97	1078.78
730.30	1077.02
730.64	1074.17
730.97	1076.08
731.30	1078.45
731.63	1082.50
731.97	1081.16
732.30	1083.41
732.63	1082.33
732.96	1078.28
733.30	1074.38
733.63	1072.27
733.96	1071.05
734.29	1070.02
734.63	1073.53
734.96	1074.03
735.29	1078.52
735.62	1075.52
735.95	1074.24
736.29	1075.64
736.62	1075.76
736.95	1074.47
737.28	1078.36
737.61	1081.98
737.94	1081.19
738.28	1087.34
738.61	1089.68
738.94	1089.78
739.27	1089.59
739.60	1090.22
739.93	1085.21
740.27	1082.92
740.60	1082.29
740.93	1084.35
741.26	1081.19
741.59	1080.53
741.92	1082.01
742.25	1083.48
742.58	1079.97
742.91	1082.57
743.25	1081.87
743.58	1081.82
743.91	1079.41
744.24	1079.36
744.57	1077.16
744.90	1076.15
745.23	1075.38
745.56	1077.54
745.89	1079.50
746.22	1081.96
746.55	1087.93
746.88	1089.14
747.21	1088.61
747.54	1089.50
747.87	1089.94
748.20	1084.63
748.53	1081.14
748.87	1079.46
749.20	1076.58
749.53	1074.47
749.86	1075.71
750.19	1079.99
750.52	1081.56
750.85	1081.63
751.18	1084.07
751.51	1082.94
751.84	1083.32
752.16	1081.28
752.49	1081.23
752.82	1077.72
753.15	1078.78
753.48	1076.60
753.81	1077.70
754.14	1079.10
754.47	1080.91
754.80	1081.98
755.13	1083.79
755.46	1083.13
755.79	1085.45
756.12	1086.31
756.45	1084.70
756.78	1081.51
757.11	1078.80
757.43	1076.08
757.76	1072.69
758.09	1075.76
758.42	1076.13
758.75	1078.96
759.08	1077.28
759.41	1078.89
759.74	1079.31
760.07	1078.64
760.39	1079.27
760.72	1078.99
761.05	1080.02
761.38	1077.42
761.71	1080.98
762.04	1079.50
762.36	1080.95
762.69	1081.21
763.02	1081.47
763.35	1076.88
763.68	1083.36
764.01	1084.39
