SpectraSuite Data File
++++++++++++++++++++++++++++++++++++
Date: Mon Aug 26 10:22:23 PDT 2019
User: corrico
Dark Spectrum Present: No
Reference Spectrum Present: No
Number of Sampled Component Spectra: 1
Spectrometers: USB2+H06089
Integration Time (usec): 2000 (USB2+H06089)
Spectra Averaged: 20 (USB2+H06089)
Boxcar Smoothing: 2 (USB2+H06089)
Correct for Electrical Dark: No (USB2+H06089)
Strobe/Lamp Enabled: No (USB2+H06089)
Correct for Detector Non-linearity: No (USB2+H06089)
Correct for Stray Light: No (USB2+H06089)
Number of Pixels in Processed Spectrum: 2048
>>>>>Begin Processed Spectral Data<<<<<
339.70	1027.50
340.07	1027.50
340.45	996.44
340.82	976.07
341.19	951.50
341.57	926.10
341.94	916.11
342.31	906.54
342.69	900.64
343.06	901.06
343.43	900.31
343.81	900.66
344.18	902.65
344.55	904.64
344.93	908.64
345.30	914.54
345.67	922.17
346.04	930.22
346.42	937.90
346.79	946.40
347.16	955.50
347.54	961.33
347.91	969.17
348.28	979.80
348.65	989.37
349.03	998.73
349.40	1009.66
349.77	1019.65
350.14	1028.81
350.52	1035.43
350.89	1040.95
351.26	1047.39
351.63	1051.30
352.01	1056.96
352.38	1061.95
352.75	1068.45
353.12	1069.72
353.50	1072.90
353.87	1074.40
354.24	1074.28
354.61	1077.93
354.98	1080.56
355.36	1083.25
355.73	1083.95
356.10	1086.43
356.47	1083.90
356.84	1087.62
357.22	1087.41
357.59	1084.04
357.96	1084.35
358.33	1084.60
358.70	1080.53
359.08	1080.77
359.45	1085.28
359.82	1083.53
360.19	1080.86
360.56	1083.46
360.94	1084.07
361.31	1081.58
361.68	1079.41
362.05	1080.67
362.42	1077.86
362.79	1077.14
363.16	1077.96
363.54	1080.93
363.91	1081.61
364.28	1082.17
364.65	1080.72
365.02	1077.96
365.39	1075.38
365.76	1073.86
366.14	1071.38
366.51	1070.82
366.88	1070.96
367.25	1072.22
367.62	1075.01
367.99	1077.61
368.36	1078.89
368.73	1081.23
369.10	1080.04
369.48	1078.94
369.85	1078.19
370.22	1074.35
370.59	1073.67
370.96	1072.39
371.33	1071.59
371.70	1070.65
372.07	1074.47
372.44	1075.97
372.81	1077.37
373.18	1076.08
373.55	1078.31
373.93	1076.44
374.30	1074.05
374.67	1075.69
375.04	1077.75
375.41	1078.43
375.78	1079.08
376.15	1082.66
376.52	1080.98
376.89	1076.88
377.26	1074.70
377.63	1076.37
378.00	1073.60
378.37	1075.59
378.74	1081.75
379.11	1081.91
379.48	1082.33
379.85	1083.55
380.22	1084.25
380.59	1082.15
380.96	1083.41
381.33	1082.80
381.70	1085.47
382.07	1084.91
382.44	1084.58
382.81	1084.04
383.18	1083.86
383.55	1081.47
383.92	1080.95
384.29	1081.56
384.66	1082.76
385.03	1083.04
385.40	1081.14
385.77	1081.19
386.14	1080.27
386.51	1081.54
386.88	1081.47
387.25	1084.23
387.62	1084.74
387.99	1084.35
388.36	1079.71
388.73	1079.17
389.10	1079.15
389.46	1079.03
389.83	1081.07
390.20	1082.71
390.57	1085.59
390.94	1085.73
391.31	1084.14
391.68	1087.79
392.05	1090.08
392.42	1090.10
392.79	1088.89
393.16	1092.73
393.53	1088.28
393.89	1087.20
394.26	1087.32
394.63	1088.89
395.00	1088.21
395.37	1089.12
395.74	1087.02
396.11	1085.91
396.48	1087.83
396.84	1086.29
397.21	1087.48
397.58	1092.77
397.95	1092.45
398.32	1089.75
398.69	1092.87
399.06	1091.42
399.42	1090.78
399.79	1089.68
400.16	1090.62
400.53	1090.64
400.90	1092.96
401.27	1089.66
401.64	1093.01
402.00	1094.65
402.37	1095.35
402.74	1094.06
403.11	1097.10
403.48	1092.30
403.84	1091.27
404.21	1087.04
404.58	1085.35
404.95	1081.75
405.32	1081.66
405.68	1083.15
406.05	1086.76
406.42	1090.34
406.79	1091.63
407.16	1096.89
407.52	1094.41
407.89	1091.09
408.26	1091.37
408.63	1094.06
408.99	1096.56
409.36	1097.06
409.73	1099.91
410.10	1095.60
410.47	1098.51
410.83	1092.14
411.20	1094.60
411.57	1096.38
411.94	1100.10
412.30	1093.87
412.67	1098.09
413.04	1098.39
413.40	1097.62
413.77	1096.45
414.14	1103.56
414.51	1104.43
414.87	1103.61
415.24	1103.80
415.61	1104.87
415.97	1103.98
416.34	1104.01
416.71	1107.42
417.08	1104.50
417.44	1105.32
417.81	1103.68
418.18	1102.13
418.54	1099.75
418.91	1105.13
419.28	1110.79
419.64	1114.45
420.01	1119.15
420.38	1119.97
420.74	1119.01
421.11	1117.04
421.48	1119.17
421.84	1120.72
422.21	1123.86
422.58	1127.74
422.94	1131.06
423.31	1131.09
423.68	1132.75
424.04	1136.17
424.41	1138.95
424.77	1141.34
425.14	1142.93
425.51	1148.20
425.87	1150.68
426.24	1155.08
426.61	1157.79
426.97	1165.66
427.34	1167.79
427.70	1173.24
428.07	1177.22
428.44	1184.80
428.80	1190.72
429.17	1199.29
429.53	1208.21
429.90	1221.24
430.27	1229.09
430.63	1241.49
431.00	1250.43
431.36	1265.11
431.73	1276.22
432.09	1289.24
432.46	1301.53
432.83	1316.08
433.19	1331.44
433.56	1348.94
433.92	1370.41
434.29	1392.48
434.65	1418.25
435.02	1440.39
435.38	1469.46
435.75	1497.31
436.11	1524.53
436.48	1555.47
436.84	1588.10
437.21	1619.81
437.57	1656.00
437.94	1699.44
438.30	1743.96
438.67	1792.73
439.03	1844.67
439.40	1900.26
439.76	1954.72
440.13	2012.28
440.49	2076.97
440.86	2140.42
441.22	2210.82
441.59	2281.91
441.95	2366.42
442.32	2445.37
442.68	2544.56
443.05	2639.89
443.41	2740.04
443.78	2837.03
444.14	2950.78
444.51	3055.69
444.87	3191.34
445.24	3335.92
445.60	3492.83
445.96	3653.55
446.33	3821.39
446.69	3979.00
447.06	4157.35
447.42	4330.46
447.79	4512.44
448.15	4735.93
448.51	4968.49
448.88	5224.99
449.24	5477.39
449.61	5759.43
449.97	6029.31
450.33	6312.57
450.70	6569.11
451.06	6894.02
451.43	7192.82
451.79	7562.81
452.15	7969.55
452.52	8420.87
452.88	8882.01
453.24	9419.88
453.61	9988.07
453.97	10541.75
454.34	11089.22
454.70	11733.32
455.06	12362.26
455.43	12996.22
455.79	13603.59
456.15	14322.30
456.52	14982.17
456.88	15760.35
457.24	16475.99
457.61	17320.01
457.97	18089.91
458.33	18864.74
458.70	19626.33
459.06	20380.36
459.42	21206.47
459.79	21959.12
460.15	22874.43
460.51	23735.84
460.88	24661.45
461.24	25451.76
461.60	26433.00
461.96	27276.32
462.33	28100.14
462.69	28885.18
463.05	29742.90
463.42	30458.51
463.78	31097.48
464.14	31642.66
464.50	32219.79
464.87	32691.88
465.23	33046.00
465.59	33403.87
465.95	33725.69
466.32	33990.24
466.68	34202.88
467.04	34338.40
467.40	34497.13
467.77	34658.96
468.13	34636.07
468.49	34554.41
468.85	34467.20
469.22	34296.62
469.58	33958.15
469.94	33723.26
470.30	33418.22
470.66	33020.96
471.03	32440.95
471.39	32046.22
471.75	31439.95
472.11	30843.60
472.47	30487.98
472.84	30172.29
473.20	29699.62
473.56	29430.22
473.92	29009.23
474.28	28483.83
474.65	27992.69
475.01	27514.82
475.37	26934.63
475.73	26469.54
476.09	25947.90
476.45	25416.44
476.81	24899.98
477.18	24366.01
477.54	23931.63
477.90	23581.83
478.26	23155.22
478.62	22804.49
478.98	22504.63
479.34	22177.30
479.71	21769.21
480.07	21442.79
480.43	21088.69
480.79	20718.73
481.15	20364.51
481.51	20042.08
481.87	19777.67
482.23	19492.66
482.59	19230.24
482.96	18949.77
483.32	18651.31
483.68	18275.28
484.04	17923.52
484.40	17565.18
484.76	17193.15
485.12	16832.92
485.48	16531.32
485.84	16182.32
486.20	15825.81
486.56	15457.30
486.92	15158.01
487.28	14807.17
487.64	14458.82
488.00	14128.64
488.37	13824.82
488.73	13461.22
489.09	13103.11
489.45	12796.53
489.81	12488.58
490.17	12173.78
490.53	11887.30
490.89	11594.17
491.25	11291.24
491.61	10970.58
491.97	10664.60
492.33	10340.84
492.69	10042.23
493.05	9745.99
493.41	9462.72
493.77	9180.05
494.13	8924.58
494.49	8671.97
494.85	8429.21
495.21	8200.09
495.57	7981.91
495.93	7770.67
496.29	7565.03
496.64	7372.85
497.00	7183.34
497.36	6993.40
497.72	6797.20
498.08	6616.30
498.44	6429.78
498.80	6266.29
499.16	6105.12
499.52	5956.62
499.88	5827.30
500.24	5712.85
500.60	5587.28
500.96	5477.18
501.32	5357.53
501.68	5230.28
502.03	5104.92
502.39	4976.75
502.75	4838.66
503.11	4717.35
503.47	4605.52
503.83	4479.20
504.19	4360.51
504.55	4257.90
504.91	4160.33
505.26	4060.36
505.62	3979.00
505.98	3894.35
506.34	3803.02
506.70	3711.90
507.06	3622.03
507.42	3532.52
507.78	3454.54
508.13	3377.02
508.49	3299.24
508.85	3227.67
509.21	3149.24
509.57	3080.24
509.93	3012.22
510.28	2946.48
510.64	2890.05
511.00	2831.21
511.36	2764.52
511.72	2710.01
512.07	2656.39
512.43	2599.07
512.79	2551.96
513.15	2511.96
513.51	2460.61
513.86	2413.05
514.22	2373.75
514.58	2331.95
514.94	2291.45
515.30	2256.98
515.65	2228.80
516.01	2193.01
516.37	2160.76
516.73	2129.54
517.08	2105.41
517.44	2075.05
517.80	2045.42
518.16	2022.95
518.51	1995.07
518.87	1963.26
519.23	1936.89
519.59	1908.24
519.94	1879.10
520.30	1858.55
520.66	1837.23
521.01	1810.12
521.37	1791.26
521.73	1770.62
522.09	1749.50
522.44	1730.10
522.80	1715.99
523.16	1696.61
523.51	1677.70
523.87	1657.19
524.23	1639.76
524.58	1620.12
524.94	1601.21
525.30	1584.29
525.65	1568.07
526.01	1547.37
526.37	1533.50
526.72	1520.48
527.08	1507.42
527.44	1495.58
527.79	1480.44
528.15	1468.36
528.51	1458.41
528.86	1445.94
529.22	1434.12
529.58	1425.43
529.93	1414.13
530.29	1401.07
530.65	1389.51
531.00	1378.74
531.36	1369.63
531.71	1361.23
532.07	1351.26
532.43	1345.04
532.78	1338.44
533.14	1333.36
533.49	1326.22
533.85	1323.01
534.21	1313.32
534.56	1309.20
534.92	1302.41
535.27	1292.89
535.63	1285.49
535.98	1282.99
536.34	1273.04
536.69	1267.45
537.05	1264.31
537.41	1258.60
537.76	1251.30
538.12	1246.73
538.47	1240.74
538.83	1236.72
539.18	1234.14
539.54	1230.07
539.89	1223.98
540.25	1221.55
540.60	1218.04
540.96	1214.15
541.31	1208.32
541.67	1207.65
542.02	1207.20
542.38	1204.04
542.73	1201.63
543.09	1200.51
543.44	1198.26
543.80	1192.57
544.15	1190.49
544.51	1188.20
544.86	1187.66
545.22	1184.19
545.57	1180.45
545.93	1177.13
546.28	1172.61
546.64	1170.90
546.99	1167.39
547.35	1165.75
547.70	1162.92
548.05	1159.48
548.41	1157.30
548.76	1157.28
549.12	1155.71
549.47	1152.32
549.83	1152.34
550.18	1148.45
550.53	1147.71
550.89	1144.62
551.24	1144.10
551.60	1140.26
551.95	1136.82
552.30	1134.36
552.66	1132.84
553.01	1133.83
553.37	1135.84
553.72	1139.56
554.07	1139.82
554.43	1139.28
554.78	1138.30
555.13	1136.70
555.49	1131.63
555.84	1130.71
556.19	1129.73
556.55	1126.03
556.90	1124.70
557.26	1125.10
557.61	1124.30
557.96	1123.62
558.32	1124.07
558.67	1120.81
559.02	1122.29
559.37	1119.76
559.73	1120.27
560.08	1118.05
560.43	1117.42
560.79	1114.63
561.14	1117.47
561.49	1114.17
561.85	1114.33
562.20	1115.92
562.55	1112.67
562.90	1108.59
563.26	1108.03
563.61	1106.58
563.96	1106.42
564.32	1108.71
564.67	1105.65
565.02	1108.10
565.37	1106.84
565.73	1102.35
566.08	1100.82
566.43	1105.36
566.78	1105.76
567.14	1109.53
567.49	1113.56
567.84	1112.69
568.19	1105.97
568.54	1103.66
568.90	1101.25
569.25	1100.08
569.60	1101.69
569.95	1102.46
570.31	1101.11
570.66	1100.64
571.01	1097.36
571.36	1095.16
571.71	1095.30
572.06	1093.99
572.42	1094.08
572.77	1095.39
573.12	1097.62
573.47	1099.65
573.82	1099.91
574.18	1098.48
574.53	1097.64
574.88	1096.03
575.23	1095.37
575.58	1096.42
575.93	1094.53
576.28	1094.43
576.64	1095.02
576.99	1094.36
577.34	1094.74
577.69	1096.07
578.04	1096.49
578.39	1093.92
578.74	1099.26
579.09	1097.95
579.44	1098.04
579.80	1095.91
580.15	1098.18
580.50	1093.73
580.85	1093.94
581.20	1092.66
581.55	1095.28
581.90	1093.57
582.25	1092.33
582.60	1089.82
582.95	1089.31
583.30	1090.69
583.65	1090.36
584.00	1091.98
584.35	1092.70
584.71	1092.19
585.06	1088.70
585.41	1088.91
585.76	1090.55
586.11	1091.79
586.46	1094.46
586.81	1096.78
587.16	1092.70
587.51	1090.39
587.86	1089.38
588.21	1090.39
588.56	1088.33
588.91	1093.69
589.26	1091.86
589.61	1090.67
589.96	1088.23
590.31	1091.16
590.66	1090.74
591.01	1089.92
591.36	1089.19
591.71	1089.96
592.06	1087.55
592.41	1084.84
592.76	1086.29
593.10	1089.43
593.45	1088.54
593.80	1090.06
594.15	1093.92
594.50	1092.82
594.85	1090.36
595.20	1088.75
595.55	1086.90
595.90	1084.63
596.25	1082.80
596.60	1083.76
596.95	1084.96
597.30	1086.03
597.64	1096.70
597.99	1097.15
598.34	1095.75
598.69	1095.82
599.04	1096.40
599.39	1082.38
599.74	1081.44
600.09	1082.47
600.44	1081.94
600.78	1079.03
601.13	1081.89
601.48	1084.18
601.83	1083.90
602.18	1081.70
602.53	1083.04
602.88	1082.33
603.22	1083.81
603.57	1085.84
603.92	1086.34
604.27	1084.25
604.62	1084.74
604.97	1082.69
605.31	1082.73
605.66	1083.86
606.01	1082.03
606.36	1084.58
606.71	1087.81
607.05	1085.61
607.40	1086.99
607.75	1089.57
608.10	1087.13
608.44	1084.11
608.79	1086.10
609.14	1085.54
609.49	1087.27
609.84	1086.66
610.18	1088.44
610.53	1089.36
610.88	1088.96
611.23	1089.64
611.57	1091.06
611.92	1087.27
612.27	1085.70
612.62	1085.52
612.96	1081.49
613.31	1083.81
613.66	1085.56
614.00	1083.83
614.35	1082.97
614.70	1083.62
615.05	1078.12
615.39	1078.03
615.74	1074.68
616.09	1076.51
616.43	1077.23
616.78	1078.71
617.13	1078.19
617.47	1083.08
617.82	1081.51
618.17	1082.12
618.51	1084.14
618.86	1084.28
619.21	1085.70
619.55	1084.89
619.90	1085.89
620.25	1084.93
620.59	1086.43
620.94	1082.87
621.29	1085.31
621.63	1082.83
621.98	1079.95
622.32	1079.95
622.67	1082.64
623.02	1082.08
623.36	1083.48
623.71	1085.42
624.05	1086.73
624.40	1083.95
624.75	1084.04
625.09	1085.07
625.44	1084.42
625.78	1080.91
626.13	1081.94
626.48	1080.30
626.82	1080.95
627.17	1079.41
627.51	1081.33
627.86	1081.33
628.20	1081.28
628.55	1079.67
628.89	1085.26
629.24	1084.81
629.58	1083.93
629.93	1084.63
630.28	1086.15
630.62	1082.26
630.97	1081.80
631.31	1080.25
631.66	1076.86
632.00	1077.28
632.35	1081.44
632.69	1081.44
633.04	1084.91
633.38	1088.21
633.73	1084.30
634.07	1079.48
634.42	1080.86
634.76	1081.19
635.11	1079.41
635.45	1080.39
635.79	1084.37
636.14	1083.64
636.48	1084.67
636.83	1086.22
637.17	1086.94
637.52	1083.67
637.86	1083.55
638.21	1083.83
638.55	1082.80
638.89	1080.98
639.24	1080.20
639.58	1080.16
639.93	1075.71
640.27	1077.72
640.61	1080.77
640.96	1080.25
641.30	1078.96
641.65	1080.27
641.99	1078.21
642.33	1073.14
642.68	1073.51
643.02	1071.80
643.37	1075.76
643.71	1081.07
644.05	1084.32
644.40	1085.82
644.74	1086.08
645.08	1085.80
645.43	1080.58
645.77	1081.63
646.11	1082.50
646.46	1086.92
646.80	1084.04
647.14	1083.53
647.49	1086.34
647.83	1085.70
648.17	1085.07
648.52	1083.22
648.86	1084.53
649.20	1082.17
649.55	1082.97
649.89	1085.61
650.23	1087.06
650.57	1086.43
650.92	1085.96
651.26	1083.29
651.60	1080.74
651.95	1079.69
652.29	1083.97
652.63	1082.05
652.97	1083.67
653.32	1079.10
653.66	1082.59
654.00	1078.68
654.34	1079.88
654.69	1081.28
655.03	1085.10
655.37	1082.12
655.71	1079.48
656.05	1077.33
656.40	1075.73
656.74	1073.46
657.08	1076.30
657.42	1077.54
657.76	1080.32
658.11	1081.16
658.45	1086.71
658.79	1087.60
659.13	1089.43
659.47	1087.37
659.82	1086.38
660.16	1079.64
660.50	1074.35
660.84	1075.45
661.18	1073.88
661.52	1074.00
661.87	1076.72
662.21	1078.66
662.55	1078.33
662.89	1086.27
663.23	1085.80
663.57	1084.11
663.91	1088.04
664.25	1086.41
664.60	1080.58
664.94	1077.28
665.28	1080.18
665.62	1077.68
665.96	1077.93
666.30	1078.19
666.64	1080.37
666.98	1079.31
667.32	1076.53
667.66	1074.84
668.01	1074.61
668.35	1075.52
668.69	1074.70
669.03	1076.97
669.37	1079.97
669.71	1085.63
670.05	1087.48
670.39	1089.66
670.73	1092.42
671.07	1094.27
671.41	1088.91
671.75	1085.00
672.09	1082.31
672.43	1076.86
672.77	1073.42
673.11	1074.21
673.45	1077.82
673.79	1079.03
674.13	1080.11
674.47	1081.77
674.81	1082.24
675.15	1084.00
675.49	1083.04
675.83	1086.59
676.17	1085.17
676.51	1084.93
676.85	1078.10
677.19	1081.33
677.53	1080.13
677.87	1081.94
678.21	1084.18
678.55	1085.77
678.89	1083.18
679.23	1082.99
679.57	1081.16
679.90	1078.28
680.24	1078.94
680.58	1078.99
680.92	1078.43
681.26	1078.64
681.60	1076.69
681.94	1077.58
682.28	1077.02
682.62	1074.07
682.96	1075.10
683.29	1078.03
683.63	1080.25
683.97	1080.79
684.31	1083.53
684.65	1083.39
684.99	1082.22
685.33	1078.73
685.67	1076.23
686.00	1076.76
686.34	1078.85
686.68	1077.25
687.02	1079.13
687.36	1080.44
687.70	1081.87
688.03	1079.22
688.37	1079.24
688.71	1079.20
689.05	1080.72
689.39	1077.33
689.72	1079.13
690.06	1083.69
690.40	1081.73
690.74	1083.11
691.08	1084.93
691.41	1084.67
691.75	1082.19
692.09	1083.74
692.43	1082.24
692.76	1083.15
693.10	1083.43
693.44	1082.26
693.78	1083.67
694.11	1083.13
694.45	1079.27
694.79	1078.71
695.13	1077.77
695.46	1077.65
695.80	1079.71
696.14	1082.94
696.48	1084.63
696.81	1085.42
697.15	1084.72
697.49	1082.01
697.82	1080.91
698.16	1077.49
698.50	1078.85
698.83	1076.55
699.17	1077.54
699.51	1075.99
699.84	1075.48
700.18	1075.20
700.52	1077.18
700.85	1076.27
701.19	1075.29
701.53	1076.88
701.86	1074.73
702.20	1073.28
702.54	1075.31
702.87	1077.09
703.21	1078.61
703.55	1083.08
703.88	1085.89
704.22	1086.90
704.55	1089.14
704.89	1089.03
705.23	1086.83
705.56	1087.27
705.90	1086.50
706.23	1085.52
706.57	1082.99
706.91	1082.99
707.24	1079.60
707.58	1078.71
707.91	1078.92
708.25	1078.07
708.58	1078.07
708.92	1080.98
709.26	1078.68
709.59	1075.83
709.93	1076.27
710.26	1078.33
710.60	1077.14
710.93	1079.29
711.27	1080.41
711.60	1079.60
711.94	1075.29
712.27	1075.24
712.61	1076.81
712.94	1078.47
713.28	1081.19
713.61	1085.24
713.95	1090.43
714.28	1089.33
714.62	1091.32
714.95	1091.44
715.29	1091.04
715.62	1087.27
715.96	1086.83
716.29	1085.38
716.63	1085.24
716.96	1084.04
717.29	1082.36
717.63	1078.73
717.96	1080.41
718.30	1076.44
718.63	1077.14
718.97	1077.61
719.30	1080.46
719.63	1075.73
719.97	1079.69
720.30	1077.51
720.64	1078.71
720.97	1082.61
721.30	1084.63
721.64	1084.63
721.97	1086.20
722.31	1084.96
722.64	1080.93
722.97	1079.13
723.31	1079.31
723.64	1077.89
723.97	1080.06
724.31	1077.82
724.64	1078.38
724.98	1078.19
725.31	1081.09
725.64	1078.47
725.98	1081.75
726.31	1079.92
726.64	1079.97
726.97	1077.93
727.31	1075.15
727.64	1074.49
727.97	1075.73
728.31	1075.01
728.64	1075.43
728.97	1080.02
729.31	1078.94
729.64	1081.98
729.97	1082.19
730.30	1082.57
730.64	1083.22
730.97	1084.46
731.30	1085.87
731.63	1083.64
731.97	1082.22
732.30	1081.66
732.63	1083.90
732.96	1081.05
733.30	1084.44
733.63	1083.55
733.96	1081.73
734.29	1079.76
734.63	1078.17
734.96	1078.78
735.29	1081.49
735.62	1084.04
735.95	1083.67
736.29	1085.10
736.62	1082.78
736.95	1080.06
737.28	1076.46
737.61	1076.67
737.94	1077.47
738.28	1074.42
738.61	1076.95
738.94	1078.38
739.27	1077.47
739.60	1077.49
739.93	1079.83
740.27	1079.17
740.60	1079.83
740.93	1077.54
741.26	1077.18
741.59	1078.82
741.92	1079.62
742.25	1076.72
742.58	1081.23
742.91	1082.19
743.25	1080.30
743.58	1078.92
743.91	1081.05
744.24	1078.10
744.57	1078.19
744.90	1080.41
745.23	1082.97
745.56	1083.13
745.89	1084.96
746.22	1081.73
746.55	1081.91
746.88	1079.76
747.21	1074.47
747.54	1072.39
747.87	1075.50
748.20	1075.17
748.53	1071.68
748.87	1076.53
749.20	1075.94
749.53	1071.38
749.86	1069.44
750.19	1073.04
750.52	1074.70
750.85	1079.34
751.18	1083.48
751.51	1083.41
751.84	1083.71
752.16	1082.59
752.49	1080.88
752.82	1081.02
753.15	1083.71
753.48	1085.70
753.81	1085.00
754.14	1082.15
754.47	1081.54
754.80	1081.66
755.13	1079.06
755.46	1078.75
755.79	1080.63
756.12	1081.28
756.45	1081.37
756.78	1083.13
757.11	1082.76
757.43	1084.16
757.76	1081.91
758.09	1079.92
758.42	1078.99
758.75	1081.44
759.08	1080.77
759.41	1083.32
759.74	1082.22
760.07	1079.60
760.39	1079.97
760.72	1080.18
761.05	1076.27
761.38	1080.23
761.71	1085.26
762.04	1081.00
762.36	1081.96
762.69	1083.04
763.02	1081.35
763.35	1076.74
763.68	1080.34
764.01	1079.48
