SpectraSuite Data File
++++++++++++++++++++++++++++++++++++
Date: Mon Aug 26 10:22:33 PDT 2019
User: corrico
Dark Spectrum Present: No
Reference Spectrum Present: No
Number of Sampled Component Spectra: 1
Spectrometers: USB2+H06089
Integration Time (usec): 2000 (USB2+H06089)
Spectra Averaged: 20 (USB2+H06089)
Boxcar Smoothing: 2 (USB2+H06089)
Correct for Electrical Dark: No (USB2+H06089)
Strobe/Lamp Enabled: No (USB2+H06089)
Correct for Detector Non-linearity: No (USB2+H06089)
Correct for Stray Light: No (USB2+H06089)
Number of Pixels in Processed Spectrum: 2048
>>>>>Begin Processed Spectral Data<<<<<
339.70	1037.91
340.07	1037.91
340.45	997.16
340.82	972.16
341.19	948.08
341.57	918.38
341.94	907.59
342.31	903.61
342.69	898.81
343.06	896.64
343.43	899.23
343.81	898.06
344.18	897.43
344.55	903.28
344.93	907.31
345.30	913.98
345.67	924.14
346.04	933.27
346.42	939.51
346.79	949.37
347.16	956.53
347.54	965.31
347.91	972.87
348.28	982.91
348.65	988.38
349.03	998.12
349.40	1009.47
349.77	1018.23
350.14	1026.75
350.52	1033.30
350.89	1040.06
351.26	1045.92
351.63	1053.01
352.01	1059.23
352.38	1068.67
352.75	1073.09
353.12	1073.65
353.50	1074.70
353.87	1074.68
354.24	1072.64
354.61	1073.44
354.98	1077.25
355.36	1075.52
355.73	1079.43
356.10	1083.01
356.47	1083.08
356.84	1077.58
357.22	1080.34
357.59	1080.23
357.96	1079.24
358.33	1078.68
358.70	1083.11
359.08	1089.12
359.45	1089.33
359.82	1090.29
360.19	1092.96
360.56	1090.71
360.94	1083.43
361.31	1080.84
361.68	1078.21
362.05	1075.94
362.42	1078.28
362.79	1079.43
363.16	1079.41
363.54	1080.18
363.91	1076.83
364.28	1075.92
364.65	1072.64
365.02	1071.45
365.39	1069.37
365.76	1072.85
366.14	1071.40
366.51	1073.98
366.88	1071.03
367.25	1072.48
367.62	1072.69
367.99	1073.98
368.36	1075.55
368.73	1079.99
369.10	1078.07
369.48	1079.03
369.85	1078.10
370.22	1077.49
370.59	1076.81
370.96	1078.47
371.33	1073.51
371.70	1070.26
372.07	1068.76
372.44	1067.49
372.81	1063.75
373.18	1068.41
373.55	1070.12
373.93	1069.95
374.30	1070.02
374.67	1073.74
375.04	1070.87
375.41	1075.50
375.78	1076.67
376.15	1076.97
376.52	1072.92
376.89	1073.37
377.26	1069.86
377.63	1068.62
378.00	1068.13
378.37	1071.92
378.74	1072.97
379.11	1073.07
379.48	1075.66
379.85	1076.04
380.22	1076.55
380.59	1078.50
380.96	1079.57
381.33	1079.60
381.70	1082.24
382.07	1080.91
382.44	1078.59
382.81	1076.37
383.18	1078.33
383.55	1074.56
383.92	1077.75
384.29	1078.00
384.66	1081.87
385.03	1079.29
385.40	1084.58
385.77	1079.41
386.14	1079.69
386.51	1079.15
386.88	1077.56
387.25	1075.52
387.62	1079.88
387.99	1079.69
388.36	1078.12
388.73	1080.74
389.10	1079.27
389.46	1079.24
389.83	1082.12
390.20	1083.08
390.57	1081.51
390.94	1083.46
391.31	1082.47
391.68	1081.84
392.05	1082.22
392.42	1088.00
392.79	1089.36
393.16	1089.66
393.53	1088.42
393.89	1089.40
394.26	1085.33
394.63	1083.55
395.00	1086.31
395.37	1086.92
395.74	1086.15
396.11	1084.00
396.48	1083.83
396.84	1082.50
397.21	1084.04
397.58	1083.27
397.95	1086.24
398.32	1086.38
398.69	1089.80
399.06	1091.04
399.42	1090.43
399.79	1088.56
400.16	1089.92
400.53	1086.62
400.90	1082.64
401.27	1085.82
401.64	1090.55
402.00	1090.29
402.37	1090.83
402.74	1094.25
403.11	1093.83
403.48	1089.47
403.84	1090.22
404.21	1089.73
404.58	1086.64
404.95	1088.79
405.32	1088.86
405.68	1090.62
406.05	1090.20
406.42	1091.13
406.79	1088.70
407.16	1089.45
407.52	1087.32
407.89	1091.81
408.26	1091.51
408.63	1092.56
408.99	1093.80
409.36	1093.55
409.73	1092.21
410.10	1095.42
410.47	1095.86
410.83	1095.82
411.20	1096.78
411.57	1097.66
411.94	1097.45
412.30	1096.63
412.67	1094.36
413.04	1093.03
413.40	1090.55
413.77	1089.17
414.14	1088.33
414.51	1093.62
414.87	1094.48
415.24	1096.94
415.61	1097.64
415.97	1099.23
416.34	1097.29
416.71	1099.26
417.08	1099.30
417.44	1100.71
417.81	1103.02
418.18	1102.84
418.54	1104.94
418.91	1102.58
419.28	1105.93
419.64	1104.71
420.01	1106.96
420.38	1109.88
420.74	1115.80
421.11	1115.38
421.48	1121.54
421.84	1125.33
422.21	1125.40
422.58	1127.93
422.94	1130.08
423.31	1129.66
423.68	1130.62
424.04	1135.02
424.41	1135.65
424.77	1138.09
425.14	1144.45
425.51	1149.55
425.87	1150.37
426.24	1153.84
426.61	1162.57
426.97	1166.41
427.34	1171.06
427.70	1175.14
428.07	1182.35
428.44	1187.31
428.80	1198.47
429.17	1208.21
429.53	1221.99
429.90	1229.32
430.27	1237.75
430.63	1239.83
431.00	1248.72
431.36	1258.65
431.73	1274.33
432.09	1286.05
432.46	1303.14
432.83	1318.87
433.19	1334.25
433.56	1351.59
433.92	1373.85
434.29	1392.76
434.65	1418.04
435.02	1442.14
435.38	1465.90
435.75	1493.71
436.11	1527.60
436.48	1557.53
436.84	1593.30
437.21	1631.92
437.57	1669.46
437.94	1709.93
438.30	1753.67
438.67	1797.65
439.03	1846.59
439.40	1901.85
439.76	1956.10
440.13	2016.42
440.49	2082.89
440.86	2149.22
441.22	2220.42
441.59	2294.36
441.95	2376.44
442.32	2460.56
442.68	2551.35
443.05	2641.04
443.41	2739.62
443.78	2834.93
444.14	2942.08
444.51	3053.25
444.87	3192.77
445.24	3336.43
445.60	3497.56
445.96	3655.00
446.33	3828.91
446.69	3987.52
447.06	4158.24
447.42	4329.41
447.79	4515.46
448.15	4737.41
448.51	4965.56
448.88	5230.18
449.24	5475.71
449.61	5755.66
449.97	6025.01
450.33	6304.96
450.70	6564.85
451.06	6883.94
451.43	7190.01
451.79	7555.06
452.15	7972.12
452.52	8427.82
452.88	8903.30
453.24	9447.46
453.61	10022.57
453.97	10560.43
454.34	11106.54
454.70	11754.76
455.06	12384.52
455.43	13016.28
455.79	13620.30
456.15	14332.74
456.52	14985.33
456.88	15754.92
457.24	16469.30
457.61	17336.54
457.97	18094.05
458.33	18871.53
458.70	19641.07
459.06	20417.20
459.42	21244.18
459.79	22030.62
460.15	22930.95
460.51	23791.36
460.88	24706.91
461.24	25489.70
461.60	26475.63
461.96	27352.60
462.33	28183.35
462.69	28949.50
463.05	29808.76
463.42	30491.61
463.78	31130.76
464.14	31670.28
464.50	32284.72
464.87	32759.50
465.23	33105.96
465.59	33449.93
465.95	33759.21
466.32	34012.22
466.68	34236.77
467.04	34379.38
467.40	34521.47
467.77	34673.77
468.13	34645.34
468.49	34537.06
468.85	34460.20
469.22	34288.68
469.58	33938.07
469.94	33698.52
470.30	33410.35
470.66	33005.30
471.03	32402.35
471.39	32017.55
471.75	31353.68
472.11	30721.73
472.47	30338.38
472.84	30041.08
473.20	29561.46
473.56	29303.18
473.92	28884.95
474.28	28376.26
474.65	27874.63
475.01	27403.53
475.37	26833.87
475.73	26369.41
476.09	25850.73
476.45	25322.30
476.81	24780.19
477.18	24246.50
477.54	23805.03
477.90	23446.20
478.26	23036.91
478.62	22710.01
478.98	22436.07
479.34	22130.63
479.71	21720.62
480.07	21375.69
480.43	21019.79
480.79	20619.09
481.15	20254.90
481.51	19943.31
481.87	19698.79
482.23	19417.51
482.59	19172.19
482.96	18889.90
483.32	18605.06
483.68	18228.47
484.04	17894.43
484.40	17522.44
484.76	17150.88
485.12	16781.66
485.48	16461.10
485.84	16099.80
486.20	15748.18
486.56	15394.45
486.92	15084.05
487.28	14730.14
487.64	14373.46
488.00	14048.60
488.37	13731.34
488.73	13362.94
489.09	13008.84
489.45	12699.02
489.81	12380.38
490.17	12073.40
490.53	11784.34
490.89	11489.50
491.25	11177.28
491.61	10873.52
491.97	10558.34
492.33	10240.24
492.69	9945.90
493.05	9649.40
493.41	9365.33
493.77	9087.74
494.13	8839.20
494.49	8595.10
494.85	8363.51
495.21	8138.79
495.57	7931.09
495.93	7721.78
496.29	7515.88
496.64	7330.46
497.00	7140.18
497.36	6945.35
497.72	6760.54
498.08	6584.70
498.44	6410.42
498.80	6246.21
499.16	6083.87
499.52	5931.90
499.88	5798.12
500.24	5672.71
500.60	5545.78
500.96	5427.30
501.32	5307.26
501.68	5185.27
502.03	5049.14
502.39	4923.71
502.75	4792.46
503.11	4665.25
503.47	4546.00
503.83	4430.07
504.19	4306.35
504.55	4203.25
504.91	4108.76
505.26	4018.33
505.62	3934.30
505.98	3856.13
506.34	3763.00
506.70	3669.63
507.06	3578.56
507.42	3494.86
507.78	3416.20
508.13	3349.19
508.49	3277.55
508.85	3206.93
509.21	3140.76
509.57	3069.71
509.93	3002.06
510.28	2941.75
510.64	2884.05
511.00	2818.36
511.36	2764.15
511.72	2712.21
512.07	2656.11
512.43	2602.79
512.79	2555.14
513.15	2504.77
513.51	2457.12
513.86	2415.95
514.22	2373.58
514.58	2332.37
514.94	2296.79
515.30	2262.53
515.65	2222.48
516.01	2189.59
516.37	2159.87
516.73	2126.96
517.08	2092.23
517.44	2066.25
517.80	2036.48
518.16	2005.46
518.51	1979.46
518.87	1954.09
519.23	1922.84
519.59	1896.89
519.94	1874.44
520.30	1856.40
520.66	1834.11
521.01	1812.72
521.37	1792.45
521.73	1774.15
522.09	1749.25
522.44	1726.68
522.80	1708.92
523.16	1688.88
523.51	1668.15
523.87	1648.95
524.23	1632.20
524.58	1614.64
524.94	1597.60
525.30	1574.50
525.65	1558.61
526.01	1547.26
526.37	1530.78
526.72	1516.13
527.08	1503.56
527.44	1491.41
527.79	1475.99
528.15	1463.26
528.51	1449.42
528.86	1441.84
529.22	1428.52
529.58	1416.63
529.93	1405.14
530.29	1394.80
530.65	1382.58
531.00	1370.27
531.36	1358.40
531.71	1351.73
532.07	1346.09
532.43	1339.56
532.78	1336.28
533.14	1330.81
533.49	1326.78
533.85	1319.57
534.21	1312.43
534.56	1305.83
534.92	1297.52
535.27	1291.18
535.63	1283.46
535.98	1274.26
536.34	1266.96
536.69	1262.34
537.05	1255.02
537.41	1250.10
537.76	1247.95
538.12	1243.81
538.47	1242.03
538.83	1237.86
539.18	1234.98
539.54	1232.53
539.89	1227.70
540.25	1218.55
540.60	1214.97
540.96	1209.45
541.31	1206.64
541.67	1202.75
542.02	1204.79
542.38	1202.03
542.73	1198.45
543.09	1195.36
543.44	1196.90
543.80	1194.09
544.15	1191.01
544.51	1191.61
544.86	1189.48
545.22	1185.15
545.57	1181.71
545.93	1178.13
546.28	1174.01
546.64	1168.79
546.99	1164.91
547.35	1161.65
547.70	1159.69
548.05	1161.70
548.41	1158.99
548.76	1157.89
549.12	1156.08
549.47	1154.35
549.83	1150.02
550.18	1149.72
550.53	1146.79
550.89	1144.26
551.24	1142.98
551.60	1138.88
551.95	1139.37
552.30	1137.83
552.66	1139.44
553.01	1140.59
553.37	1145.22
553.72	1142.91
554.07	1143.40
554.43	1138.79
554.78	1138.48
555.13	1132.77
555.49	1128.93
555.84	1125.70
556.19	1126.48
556.55	1121.02
556.90	1119.41
557.26	1120.79
557.61	1123.15
557.96	1121.61
558.32	1120.06
558.67	1122.12
559.02	1120.44
559.37	1116.62
559.73	1117.42
560.08	1119.03
560.43	1115.03
560.79	1114.40
561.14	1115.78
561.49	1112.18
561.85	1111.89
562.20	1110.33
562.55	1108.81
562.90	1107.45
563.26	1108.03
563.61	1106.79
563.96	1104.71
564.32	1106.35
564.67	1106.42
565.02	1105.67
565.37	1106.18
565.73	1109.86
566.08	1104.57
566.43	1105.15
566.78	1106.84
567.14	1106.37
567.49	1106.72
567.84	1109.79
568.19	1107.89
568.54	1106.77
568.90	1105.08
569.25	1104.36
569.60	1108.08
569.95	1105.88
570.31	1102.79
570.66	1102.63
571.01	1101.55
571.36	1098.62
571.71	1099.44
572.06	1100.59
572.42	1101.01
572.77	1100.66
573.12	1100.82
573.47	1101.29
573.82	1101.60
574.18	1102.95
574.53	1103.54
574.88	1100.08
575.23	1098.30
575.58	1098.41
575.93	1097.80
576.28	1094.67
576.64	1099.14
576.99	1098.79
577.34	1100.15
577.69	1099.40
578.04	1097.97
578.39	1091.84
578.74	1090.62
579.09	1087.97
579.44	1084.37
579.80	1087.11
580.15	1088.61
580.50	1090.74
580.85	1090.55
581.20	1091.49
581.55	1088.19
581.90	1089.31
582.25	1090.53
582.60	1088.16
582.95	1089.68
583.30	1092.49
583.65	1093.03
584.00	1088.98
584.35	1092.35
584.71	1088.86
585.06	1087.81
585.41	1087.69
585.76	1091.32
586.11	1090.83
586.46	1096.00
586.81	1094.90
587.16	1094.88
587.51	1093.15
587.86	1093.10
588.21	1087.83
588.56	1088.16
588.91	1087.60
589.26	1091.32
589.61	1090.69
589.96	1092.63
590.31	1093.22
590.66	1093.59
591.01	1090.88
591.36	1091.04
591.71	1091.79
592.06	1093.31
592.41	1092.52
592.76	1089.31
593.10	1087.90
593.45	1086.57
593.80	1084.30
594.15	1082.61
594.50	1085.05
594.85	1087.76
595.20	1088.23
595.55	1087.79
595.90	1090.67
596.25	1089.00
596.60	1089.92
596.95	1089.10
597.30	1089.36
597.64	1097.59
597.99	1097.24
598.34	1091.49
598.69	1090.15
599.04	1088.96
599.39	1077.07
599.74	1077.65
600.09	1081.94
600.44	1082.64
600.78	1084.39
601.13	1086.36
601.48	1086.76
601.83	1087.83
602.18	1088.04
602.53	1086.03
602.88	1086.08
603.22	1086.92
603.57	1085.45
603.92	1083.36
604.27	1084.42
604.62	1083.64
604.97	1083.55
605.31	1083.67
605.66	1085.77
606.01	1086.52
606.36	1086.31
606.71	1084.25
607.05	1084.30
607.40	1083.11
607.75	1080.95
608.10	1080.32
608.44	1080.20
608.79	1078.71
609.14	1080.79
609.49	1083.76
609.84	1084.11
610.18	1084.53
610.53	1087.02
610.88	1086.83
611.23	1086.78
611.57	1087.23
611.92	1087.62
612.27	1087.27
612.62	1089.38
612.96	1090.15
613.31	1092.82
613.66	1094.15
614.00	1091.39
614.35	1086.48
614.70	1082.08
615.05	1078.54
615.39	1075.20
615.74	1074.31
616.09	1076.27
616.43	1080.11
616.78	1080.09
617.13	1082.61
617.47	1085.45
617.82	1084.02
618.17	1083.69
618.51	1085.56
618.86	1083.76
619.21	1082.47
619.55	1084.67
619.90	1084.51
620.25	1081.91
620.59	1082.64
620.94	1082.73
621.29	1083.06
621.63	1081.66
621.98	1081.56
622.32	1083.76
622.67	1084.25
623.02	1082.31
623.36	1080.60
623.71	1082.12
624.05	1081.19
624.40	1079.27
624.75	1083.06
625.09	1086.78
625.44	1089.52
625.78	1088.82
626.13	1088.77
626.48	1085.05
626.82	1085.03
627.17	1081.42
627.51	1081.16
627.86	1081.00
628.20	1083.50
628.55	1084.14
628.89	1083.60
629.24	1084.53
629.58	1087.65
629.93	1087.72
630.28	1090.78
630.62	1091.74
630.97	1089.50
631.31	1088.26
631.66	1085.84
632.00	1082.19
632.35	1081.21
632.69	1081.94
633.04	1080.09
633.38	1080.98
633.73	1077.84
634.07	1080.30
634.42	1081.94
634.76	1083.81
635.11	1083.53
635.45	1087.58
635.79	1084.65
636.14	1085.59
636.48	1084.37
636.83	1082.78
637.17	1081.54
637.52	1085.10
637.86	1082.22
638.21	1083.74
638.55	1085.00
638.89	1084.70
639.24	1079.74
639.58	1079.81
639.93	1077.09
640.27	1078.03
640.61	1078.66
640.96	1079.95
641.30	1077.49
641.65	1077.75
641.99	1081.21
642.33	1080.70
642.68	1085.35
643.02	1084.81
643.37	1086.83
643.71	1079.76
644.05	1081.16
644.40	1079.95
644.74	1084.72
645.08	1082.66
645.43	1087.83
645.77	1086.38
646.11	1085.45
646.46	1083.79
646.80	1082.54
647.14	1080.88
647.49	1078.28
647.83	1076.81
648.17	1076.11
648.52	1077.93
648.86	1075.85
649.20	1079.41
649.55	1079.41
649.89	1078.59
650.23	1081.56
650.57	1082.54
650.92	1083.18
651.26	1086.06
651.60	1086.85
651.95	1080.91
652.29	1081.09
652.63	1080.16
652.97	1076.01
653.32	1077.61
653.66	1081.82
654.00	1082.17
654.34	1079.85
654.69	1082.29
655.03	1082.29
655.37	1082.78
655.71	1080.72
656.05	1081.61
656.40	1080.53
656.74	1080.20
657.08	1080.16
657.42	1081.84
657.76	1082.57
658.11	1080.46
658.45	1076.74
658.79	1075.71
659.13	1074.14
659.47	1074.17
659.82	1079.92
660.16	1082.17
660.50	1079.81
660.84	1080.09
661.18	1079.85
661.52	1075.24
661.87	1076.55
662.21	1079.27
662.55	1084.11
662.89	1081.54
663.23	1081.66
663.57	1081.51
663.91	1081.28
664.25	1077.75
664.60	1076.55
664.94	1078.52
665.28	1076.06
665.62	1077.11
665.96	1076.69
666.30	1081.02
666.64	1079.08
666.98	1081.91
667.32	1079.97
667.66	1081.42
668.01	1080.44
668.35	1083.74
668.69	1084.02
669.03	1083.81
669.37	1078.94
669.71	1080.23
670.05	1080.37
670.39	1077.96
670.73	1077.65
671.07	1081.49
671.41	1078.05
671.75	1078.50
672.09	1082.57
672.43	1084.28
672.77	1084.02
673.11	1087.90
673.45	1086.69
673.79	1085.33
674.13	1085.66
674.47	1087.13
674.81	1086.97
675.15	1085.99
675.49	1085.96
675.83	1084.44
676.17	1085.54
676.51	1083.48
676.85	1082.92
677.19	1084.39
677.53	1086.41
677.87	1081.19
678.21	1080.02
678.55	1079.64
678.89	1079.29
679.23	1077.86
679.57	1080.23
679.90	1078.68
680.24	1080.65
680.58	1079.34
680.92	1078.19
681.26	1076.55
681.60	1079.31
681.94	1077.84
682.28	1078.26
682.62	1079.53
682.96	1082.87
683.29	1078.82
683.63	1077.56
683.97	1078.28
684.31	1077.79
684.65	1075.80
684.99	1078.33
685.33	1078.14
685.67	1078.00
686.00	1078.38
686.34	1077.68
686.68	1080.53
687.02	1081.94
687.36	1080.93
687.70	1080.27
688.03	1083.71
688.37	1083.74
688.71	1084.28
689.05	1086.94
689.39	1086.22
689.72	1084.30
690.06	1081.80
690.40	1082.69
690.74	1078.94
691.08	1083.13
691.41	1082.47
691.75	1083.69
692.09	1082.43
692.43	1080.77
692.76	1078.10
693.10	1075.59
693.44	1074.84
693.78	1072.32
694.11	1073.23
694.45	1070.65
694.79	1075.27
695.13	1079.46
695.46	1081.84
695.80	1081.87
696.14	1081.98
696.48	1077.28
696.81	1071.17
697.15	1071.75
697.49	1073.09
697.82	1077.58
698.16	1081.09
698.50	1082.17
698.83	1084.14
699.17	1084.42
699.51	1082.87
699.84	1082.31
700.18	1084.07
700.52	1082.17
700.85	1080.67
701.19	1075.71
701.53	1075.64
701.86	1072.74
702.20	1070.19
702.54	1069.58
702.87	1073.63
703.21	1071.87
703.55	1074.03
703.88	1073.37
704.22	1073.09
704.55	1072.62
704.89	1073.70
705.23	1074.98
705.56	1080.39
705.90	1082.01
706.23	1082.76
706.57	1085.28
706.91	1080.86
707.24	1077.09
707.58	1077.14
707.91	1078.26
708.25	1077.35
708.58	1080.51
708.92	1085.63
709.26	1088.28
709.59	1085.07
709.93	1083.08
710.26	1083.06
710.60	1078.80
710.93	1076.23
711.27	1078.52
711.60	1077.61
711.94	1076.83
712.27	1077.63
712.61	1074.84
712.94	1073.86
713.28	1078.00
713.61	1078.38
713.95	1078.38
714.28	1079.92
714.62	1079.48
714.95	1079.03
715.29	1080.46
715.62	1079.71
715.96	1082.40
716.29	1085.49
716.63	1082.80
716.96	1083.01
717.29	1085.05
717.63	1084.98
717.96	1086.94
718.30	1088.35
718.63	1089.68
718.97	1087.67
719.30	1085.89
719.63	1078.75
719.97	1074.70
720.30	1073.51
720.64	1072.83
720.97	1074.49
721.30	1075.13
721.64	1081.40
721.97	1079.55
722.31	1077.89
722.64	1074.49
722.97	1075.73
723.31	1073.11
723.64	1074.31
723.97	1077.68
724.31	1079.55
724.64	1082.99
724.98	1082.38
725.31	1084.81
725.64	1084.28
725.98	1081.33
726.31	1078.00
726.64	1079.81
726.97	1076.88
727.31	1076.18
727.64	1077.91
727.97	1082.15
728.31	1081.02
728.64	1078.82
728.97	1079.83
729.31	1079.57
729.64	1076.60
729.97	1074.84
730.30	1076.60
730.64	1075.24
730.97	1077.58
731.30	1075.92
731.63	1078.40
731.97	1076.30
732.30	1075.24
732.63	1076.44
732.96	1079.83
733.30	1079.10
733.63	1080.95
733.96	1080.51
734.29	1077.00
734.63	1075.45
734.96	1073.30
735.29	1074.45
735.62	1077.18
735.95	1077.56
736.29	1075.24
736.62	1078.43
736.95	1076.93
737.28	1076.04
737.61	1078.54
737.94	1078.96
738.28	1078.75
738.61	1082.19
738.94	1083.25
739.27	1080.41
739.60	1078.05
739.93	1074.05
740.27	1070.05
740.60	1068.31
740.93	1073.11
741.26	1075.45
741.59	1076.41
741.92	1079.20
742.25	1080.93
742.58	1079.76
742.91	1079.76
743.25	1079.97
743.58	1078.43
743.91	1078.40
744.24	1074.31
744.57	1076.62
744.90	1077.58
745.23	1077.47
745.56	1077.14
745.89	1080.18
746.22	1080.25
746.55	1079.92
746.88	1079.29
747.21	1079.38
747.54	1080.98
747.87	1081.16
748.20	1080.34
748.53	1081.42
748.87	1081.40
749.20	1078.31
749.53	1077.42
749.86	1079.67
750.19	1081.84
750.52	1080.44
750.85	1082.43
751.18	1083.57
751.51	1086.69
751.84	1084.46
752.16	1083.57
752.49	1080.51
752.82	1079.92
753.15	1077.35
753.48	1075.71
753.81	1077.70
754.14	1079.20
754.47	1079.60
754.80	1079.27
755.13	1085.19
755.46	1086.36
755.79	1085.82
756.12	1088.09
756.45	1085.63
756.78	1082.19
757.11	1078.78
757.43	1077.93
757.76	1071.52
758.09	1072.64
758.42	1069.84
758.75	1069.23
759.08	1070.98
759.41	1077.33
759.74	1080.88
760.07	1082.19
760.39	1085.24
760.72	1081.82
761.05	1080.34
761.38	1078.68
761.71	1082.85
762.04	1083.25
762.36	1083.83
762.69	1080.27
763.02	1080.48
763.35	1077.23
763.68	1075.38
764.01	1075.62
