SpectraSuite Data File
++++++++++++++++++++++++++++++++++++
Date: Mon Aug 26 10:22:01 PDT 2019
User: corrico
Dark Spectrum Present: No
Reference Spectrum Present: No
Number of Sampled Component Spectra: 1
Spectrometers: USB2+H06089
Integration Time (usec): 2000 (USB2+H06089)
Spectra Averaged: 20 (USB2+H06089)
Boxcar Smoothing: 2 (USB2+H06089)
Correct for Electrical Dark: No (USB2+H06089)
Strobe/Lamp Enabled: No (USB2+H06089)
Correct for Detector Non-linearity: No (USB2+H06089)
Correct for Stray Light: No (USB2+H06089)
Number of Pixels in Processed Spectrum: 2048
>>>>>Begin Processed Spectral Data<<<<<
339.70	1024.69
340.07	1024.69
340.45	992.97
340.82	972.09
341.19	951.19
341.57	927.93
341.94	917.75
342.31	909.77
342.69	907.50
343.06	901.97
343.43	899.61
343.81	902.42
344.18	903.12
344.55	903.31
344.93	910.05
345.30	916.88
345.67	921.12
346.04	927.91
346.42	935.04
346.79	939.12
347.16	945.83
347.54	957.44
347.91	970.32
348.28	981.36
348.65	995.01
349.03	1004.91
349.40	1008.91
349.77	1017.55
350.14	1025.27
350.52	1032.64
350.89	1038.80
351.26	1047.04
351.63	1051.37
352.01	1056.28
352.38	1061.60
352.75	1068.57
353.12	1071.33
353.50	1072.71
353.87	1076.25
354.24	1076.37
354.61	1077.14
354.98	1080.02
355.36	1082.10
355.73	1081.30
356.10	1082.22
356.47	1080.58
356.84	1081.40
357.22	1078.00
357.59	1078.54
357.96	1079.27
358.33	1080.95
358.70	1080.67
359.08	1085.05
359.45	1085.42
359.82	1083.79
360.19	1085.54
360.56	1084.46
360.94	1083.13
361.31	1081.75
361.68	1082.52
362.05	1078.89
362.42	1076.27
362.79	1073.98
363.16	1075.62
363.54	1073.30
363.91	1073.49
364.28	1072.06
364.65	1074.24
365.02	1070.40
365.39	1071.64
365.76	1071.90
366.14	1075.24
366.51	1072.74
366.88	1071.97
367.25	1069.84
367.62	1066.37
367.99	1064.26
368.36	1064.99
368.73	1066.28
369.10	1065.76
369.48	1066.49
369.85	1065.90
370.22	1065.41
370.59	1066.00
370.96	1063.77
371.33	1063.47
371.70	1064.92
372.07	1068.17
372.44	1069.74
372.81	1072.18
373.18	1076.04
373.55	1076.67
373.93	1070.98
374.30	1069.98
374.67	1072.32
375.04	1071.38
375.41	1068.78
375.78	1073.02
376.15	1071.90
376.52	1070.89
376.89	1070.51
377.26	1075.55
377.63	1072.08
378.00	1072.78
378.37	1074.07
378.74	1075.80
379.11	1072.95
379.48	1076.62
379.85	1079.03
380.22	1078.85
380.59	1077.47
380.96	1077.61
381.33	1077.93
381.70	1075.43
382.07	1073.74
382.44	1073.14
382.81	1075.01
383.18	1076.46
383.55	1076.97
383.92	1078.36
384.29	1079.08
384.66	1079.13
385.03	1075.99
385.40	1077.37
385.77	1081.63
386.14	1080.60
386.51	1080.16
386.88	1081.37
387.25	1082.01
387.62	1077.86
387.99	1081.09
388.36	1082.33
388.73	1085.99
389.10	1084.07
389.46	1084.07
389.83	1083.36
390.20	1083.48
390.57	1083.06
390.94	1084.67
391.31	1084.89
391.68	1083.88
392.05	1082.66
392.42	1080.23
392.79	1080.37
393.16	1085.03
393.53	1084.63
393.89	1084.04
394.26	1086.27
394.63	1085.82
395.00	1081.87
395.37	1082.12
395.74	1079.48
396.11	1077.96
396.48	1076.60
396.84	1075.41
397.21	1077.93
397.58	1081.23
397.95	1078.07
398.32	1078.05
398.69	1081.96
399.06	1081.40
399.42	1082.19
399.79	1084.84
400.16	1088.30
400.53	1087.46
400.90	1085.77
401.27	1085.12
401.64	1084.09
402.00	1080.91
402.37	1078.89
402.74	1081.35
403.11	1082.59
403.48	1083.04
403.84	1086.62
404.21	1086.62
404.58	1083.67
404.95	1081.47
405.32	1082.66
405.68	1083.32
406.05	1086.15
406.42	1087.67
406.79	1089.54
407.16	1089.05
407.52	1086.27
407.89	1087.88
408.26	1092.02
408.63	1090.99
408.99	1092.82
409.36	1092.73
409.73	1092.37
410.10	1088.72
410.47	1091.34
410.83	1091.09
411.20	1090.67
411.57	1087.37
411.94	1091.06
412.30	1094.22
412.67	1094.32
413.04	1095.32
413.40	1098.83
413.77	1094.46
414.14	1090.06
414.51	1091.65
414.87	1097.62
415.24	1093.85
415.61	1097.20
415.97	1098.95
416.34	1102.60
416.71	1098.27
417.08	1103.38
417.44	1106.98
417.81	1107.96
418.18	1101.97
418.54	1106.28
418.91	1105.13
419.28	1103.75
419.64	1101.15
420.01	1105.44
420.38	1105.76
420.74	1108.38
421.11	1108.24
421.48	1112.69
421.84	1115.38
422.21	1115.59
422.58	1115.17
422.94	1114.87
423.31	1117.54
423.68	1119.17
424.04	1124.28
424.41	1130.24
424.77	1135.84
425.14	1141.32
425.51	1141.92
425.87	1142.16
426.24	1141.78
426.61	1142.74
426.97	1145.25
427.34	1150.98
427.70	1156.08
428.07	1166.01
428.44	1178.16
428.80	1185.15
429.17	1193.79
429.53	1203.11
429.90	1206.05
430.27	1212.23
430.63	1219.75
431.00	1226.70
431.36	1238.38
431.73	1254.83
432.09	1265.06
432.46	1274.52
432.83	1290.81
433.19	1305.64
433.56	1318.61
433.92	1340.57
434.29	1366.36
434.65	1388.99
435.02	1408.89
435.38	1437.63
435.75	1456.70
436.11	1483.24
436.48	1511.94
436.84	1542.95
437.21	1570.90
437.57	1608.04
437.94	1642.10
438.30	1679.08
438.67	1719.94
439.03	1767.78
439.40	1817.68
439.76	1868.78
440.13	1924.41
440.49	1987.11
440.86	2044.83
441.22	2110.51
441.59	2180.09
441.95	2256.23
442.32	2331.64
442.68	2417.31
443.05	2503.76
443.41	2597.60
443.78	2694.03
444.14	2795.35
444.51	2895.69
444.87	3020.13
445.24	3142.33
445.60	3270.10
445.96	3396.63
446.33	3550.64
446.69	3692.73
447.06	3851.30
447.42	4011.19
447.79	4190.42
448.15	4389.74
448.51	4587.29
448.88	4810.27
449.24	5025.53
449.61	5285.42
449.97	5540.91
450.33	5816.86
450.70	6076.38
451.06	6408.29
451.43	6700.25
451.79	7038.58
452.15	7402.06
452.52	7790.96
452.88	8166.46
453.24	8603.97
453.61	9064.33
453.97	9520.69
454.34	9991.49
454.70	10530.05
455.06	11057.49
455.43	11579.82
455.79	12100.99
456.15	12709.25
456.52	13306.04
456.88	14037.46
457.24	14757.34
457.61	15580.06
457.97	16341.18
458.33	17114.86
458.70	17853.23
459.06	18567.38
459.42	19330.20
459.79	20023.42
460.15	20799.64
460.51	21503.91
460.88	22249.11
461.24	22915.09
461.60	23731.25
461.96	24429.81
462.33	25094.66
462.69	25775.90
463.05	26520.24
463.42	27233.65
463.78	27887.04
464.14	28497.61
464.50	29152.40
464.87	29648.48
465.23	29904.88
465.59	30235.25
465.95	30527.28
466.32	30700.36
466.68	30844.28
467.04	31008.56
467.40	31083.44
467.77	31168.89
468.13	31173.43
468.49	31048.91
468.85	30931.12
469.22	30868.39
469.58	30704.81
469.94	30561.19
470.30	30410.07
470.66	30102.26
471.03	29591.60
471.39	29168.29
471.75	28545.55
472.11	27941.92
472.47	27534.34
472.84	27122.71
473.20	26536.74
473.56	26130.91
473.92	25651.43
474.28	25160.64
474.65	24687.17
475.01	24288.61
475.37	23802.92
475.73	23407.91
476.09	22938.82
476.45	22503.29
476.81	22102.76
477.18	21697.98
477.54	21328.46
477.90	20994.65
478.26	20605.51
478.62	20250.34
478.98	19999.83
479.34	19777.06
479.71	19520.65
480.07	19266.75
480.43	19005.50
480.79	18622.24
481.15	18214.52
481.51	17865.10
481.87	17580.42
482.23	17253.66
482.59	16991.26
482.96	16695.60
483.32	16421.69
483.68	16094.20
484.04	15791.48
484.40	15491.77
484.76	15236.63
485.12	14950.59
485.48	14731.17
485.84	14487.33
486.20	14219.20
486.56	13915.51
486.92	13626.69
487.28	13305.55
487.64	12978.93
488.00	12679.76
488.37	12362.69
488.73	12019.14
489.09	11685.48
489.45	11378.96
489.81	11074.29
490.17	10805.39
490.53	10530.33
490.89	10219.69
491.25	9927.50
491.61	9634.30
491.97	9353.72
492.33	9097.97
492.69	8879.59
493.05	8657.92
493.41	8450.62
493.77	8225.27
494.13	8006.41
494.49	7791.60
494.85	7594.57
495.21	7384.48
495.57	7202.62
495.93	7010.35
496.29	6820.65
496.64	6634.30
497.00	6457.58
497.36	6289.67
497.72	6137.26
498.08	5994.63
498.44	5844.65
498.80	5691.04
499.16	5523.69
499.52	5363.60
499.88	5215.46
500.24	5078.78
500.60	4960.41
500.96	4857.97
501.32	4750.19
501.68	4641.84
502.03	4531.07
502.39	4424.17
502.75	4320.93
503.11	4225.70
503.47	4137.32
503.83	4050.04
504.19	3964.61
504.55	3875.48
504.91	3785.70
505.26	3697.18
505.62	3614.84
505.98	3529.86
506.34	3440.07
506.70	3357.43
507.06	3282.81
507.42	3202.39
507.78	3128.59
508.13	3068.54
508.49	3006.89
508.85	2943.83
509.21	2887.85
509.57	2831.60
509.93	2775.48
510.28	2720.83
510.64	2674.32
511.00	2622.24
511.36	2573.35
511.72	2529.14
512.07	2481.62
512.43	2433.48
512.79	2398.77
513.15	2358.21
513.51	2315.12
513.86	2281.72
514.22	2245.28
514.58	2204.36
514.94	2166.49
515.30	2125.89
515.65	2087.13
516.01	2052.93
516.37	2019.81
516.73	1991.96
517.08	1966.59
517.44	1938.74
517.80	1909.50
518.16	1881.51
518.51	1857.75
518.87	1832.31
519.23	1811.55
519.59	1794.72
519.94	1777.08
520.30	1753.23
520.66	1734.57
521.01	1716.06
521.37	1695.25
521.73	1674.19
522.09	1655.30
522.44	1637.79
522.80	1618.60
523.16	1601.51
523.51	1581.13
523.87	1565.47
524.23	1547.66
524.58	1534.03
524.94	1520.93
525.30	1514.19
525.65	1499.67
526.01	1485.89
526.37	1473.09
526.72	1458.15
527.08	1442.82
527.44	1432.92
527.79	1425.62
528.15	1416.91
528.51	1411.48
528.86	1401.47
529.22	1392.10
529.58	1381.50
529.93	1373.31
530.29	1360.55
530.65	1352.01
531.00	1346.30
531.36	1341.36
531.71	1332.89
532.07	1324.93
532.43	1319.31
532.78	1310.61
533.14	1303.28
533.49	1294.76
533.85	1289.87
534.21	1282.57
534.56	1277.56
534.92	1267.54
535.27	1261.57
535.63	1257.36
535.98	1249.71
536.34	1243.53
536.69	1241.30
537.05	1234.52
537.41	1228.99
537.76	1226.37
538.12	1222.53
538.47	1215.04
538.83	1210.99
539.18	1207.11
539.54	1202.78
539.89	1199.41
540.25	1198.99
540.60	1198.71
540.96	1195.31
541.31	1193.60
541.67	1190.23
542.02	1187.14
542.38	1185.72
542.73	1180.78
543.09	1179.91
543.44	1175.70
543.80	1174.86
544.15	1169.87
544.51	1171.84
544.86	1173.29
545.22	1174.71
545.57	1174.01
545.93	1172.87
546.28	1169.47
546.64	1161.40
546.99	1155.45
547.35	1147.75
547.70	1143.16
548.05	1140.94
548.41	1141.25
548.76	1140.87
549.12	1144.48
549.47	1146.42
549.83	1143.56
550.18	1142.46
550.53	1143.09
550.89	1140.68
551.24	1137.38
551.60	1135.72
551.95	1132.54
552.30	1127.16
552.66	1123.90
553.01	1124.07
553.37	1119.71
553.72	1116.95
554.07	1115.69
554.43	1116.39
554.78	1115.80
555.13	1121.23
555.49	1124.04
555.84	1122.94
556.19	1121.80
556.55	1119.60
556.90	1115.90
557.26	1114.31
557.61	1114.24
557.96	1109.91
558.32	1110.21
558.67	1108.34
559.02	1106.77
559.37	1105.48
559.73	1108.62
560.08	1107.24
560.43	1108.27
560.79	1108.50
561.14	1108.64
561.49	1109.51
561.85	1110.70
562.20	1111.94
562.55	1110.87
562.90	1111.89
563.26	1107.89
563.61	1106.23
563.96	1102.72
564.32	1100.64
564.67	1100.87
565.02	1100.33
565.37	1096.12
565.73	1095.65
566.08	1096.12
566.43	1094.41
566.78	1092.80
567.14	1098.95
567.49	1098.58
567.84	1097.57
568.19	1097.78
568.54	1097.92
568.90	1093.52
569.25	1092.80
569.60	1090.24
569.95	1089.80
570.31	1091.77
570.66	1092.42
571.01	1095.67
571.36	1098.16
571.71	1097.95
572.06	1098.48
572.42	1097.57
572.77	1095.58
573.12	1096.59
573.47	1098.25
573.82	1095.14
574.18	1094.90
574.53	1095.63
574.88	1095.30
575.23	1095.51
575.58	1095.91
575.93	1093.40
576.28	1093.83
576.64	1090.48
576.99	1085.89
577.34	1085.07
577.69	1084.86
578.04	1085.84
578.39	1085.40
578.74	1084.42
579.09	1084.86
579.44	1087.09
579.80	1085.07
580.15	1090.03
580.50	1093.15
580.85	1094.76
581.20	1094.36
581.55	1093.45
581.90	1090.46
582.25	1091.32
582.60	1088.77
582.95	1088.68
583.30	1086.71
583.65	1088.09
584.00	1086.64
584.35	1087.16
584.71	1087.74
585.06	1091.11
585.41	1089.00
585.76	1090.60
586.11	1091.74
586.46	1088.19
586.81	1086.27
587.16	1087.51
587.51	1086.01
587.86	1086.17
588.21	1087.39
588.56	1083.62
588.91	1082.47
589.26	1078.96
589.61	1077.86
589.96	1080.32
590.31	1079.83
590.66	1080.30
591.01	1082.61
591.36	1083.53
591.71	1084.56
592.06	1089.73
592.41	1087.04
592.76	1087.44
593.10	1089.03
593.45	1087.53
593.80	1084.74
594.15	1086.97
594.50	1087.83
594.85	1084.72
595.20	1083.11
595.55	1083.88
595.90	1084.16
596.25	1085.96
596.60	1086.31
596.95	1084.77
597.30	1083.83
597.64	1095.32
597.99	1093.10
598.34	1091.56
598.69	1093.17
599.04	1090.88
599.39	1077.98
599.74	1076.58
600.09	1077.21
600.44	1077.79
600.78	1081.05
601.13	1080.86
601.48	1082.47
601.83	1085.89
602.18	1088.77
602.53	1089.29
602.88	1089.82
603.22	1088.84
603.57	1087.79
603.92	1082.80
604.27	1080.95
604.62	1081.73
604.97	1083.13
605.31	1078.87
605.66	1080.81
606.01	1082.78
606.36	1081.77
606.71	1077.86
607.05	1080.84
607.40	1080.48
607.75	1079.57
608.10	1082.38
608.44	1087.41
608.79	1085.38
609.14	1086.80
609.49	1089.96
609.84	1089.78
610.18	1087.74
610.53	1089.89
610.88	1091.60
611.23	1089.03
611.57	1086.43
611.92	1085.59
612.27	1084.70
612.62	1080.30
612.96	1079.29
613.31	1078.68
613.66	1080.32
614.00	1080.27
614.35	1082.97
614.70	1080.95
615.05	1081.09
615.39	1080.16
615.74	1078.43
616.09	1078.21
616.43	1082.33
616.78	1083.41
617.13	1082.54
617.47	1086.38
617.82	1082.87
618.17	1078.17
618.51	1081.14
618.86	1084.16
619.21	1078.24
619.55	1087.04
619.90	1090.71
620.25	1085.52
620.59	1084.04
620.94	1088.28
621.29	1082.29
621.63	1079.69
621.98	1078.28
622.32	1078.59
622.67	1079.10
623.02	1077.63
623.36	1080.25
623.71	1084.28
624.05	1083.27
624.40	1082.10
624.75	1080.91
625.09	1080.77
625.44	1079.46
625.78	1079.17
626.13	1080.72
626.48	1081.47
626.82	1083.04
627.17	1086.03
627.51	1087.23
627.86	1086.78
628.20	1087.32
628.55	1087.60
628.89	1080.58
629.24	1079.92
629.58	1080.58
629.93	1081.30
630.28	1080.81
630.62	1085.38
630.97	1082.66
631.31	1081.12
631.66	1080.65
632.00	1079.88
632.35	1081.68
632.69	1084.44
633.04	1081.84
633.38	1081.56
633.73	1079.57
634.07	1077.28
634.42	1075.01
634.76	1078.71
635.11	1084.21
635.45	1086.29
635.79	1086.08
636.14	1086.55
636.48	1086.66
636.83	1082.61
637.17	1081.70
637.52	1080.84
637.86	1081.42
638.21	1080.27
638.55	1078.52
638.89	1076.32
639.24	1082.47
639.58	1082.12
639.93	1080.51
640.27	1079.81
640.61	1080.63
640.96	1077.58
641.30	1075.90
641.65	1076.23
641.99	1078.66
642.33	1080.06
642.68	1077.84
643.02	1082.29
643.37	1084.18
643.71	1082.47
644.05	1081.07
644.40	1083.74
644.74	1082.97
645.08	1083.88
645.43	1085.05
645.77	1084.44
646.11	1085.59
646.46	1081.80
646.80	1081.14
647.14	1082.54
647.49	1087.88
647.83	1082.05
648.17	1082.59
648.52	1079.29
648.86	1077.70
649.20	1075.17
649.55	1079.74
649.89	1081.07
650.23	1080.91
650.57	1077.33
650.92	1076.51
651.26	1074.52
651.60	1073.98
651.95	1077.25
652.29	1081.56
652.63	1080.13
652.97	1080.72
653.32	1081.96
653.66	1080.41
654.00	1078.43
654.34	1080.67
654.69	1079.55
655.03	1077.11
655.37	1076.18
655.71	1074.52
656.05	1076.53
656.40	1075.57
656.74	1080.58
657.08	1082.29
657.42	1084.81
657.76	1081.80
658.11	1083.86
658.45	1083.83
658.79	1084.18
659.13	1081.84
659.47	1078.21
659.82	1077.61
660.16	1072.83
660.50	1073.93
660.84	1076.79
661.18	1082.47
661.52	1081.02
661.87	1082.33
662.21	1082.50
662.55	1080.56
662.89	1078.24
663.23	1078.78
663.57	1079.01
663.91	1078.92
664.25	1079.69
664.60	1079.64
664.94	1080.91
665.28	1078.14
665.62	1076.60
665.96	1075.01
666.30	1074.94
666.64	1074.59
666.98	1078.64
667.32	1080.06
667.66	1082.80
668.01	1081.75
668.35	1079.81
668.69	1079.03
669.03	1078.96
669.37	1076.51
669.71	1079.08
670.05	1079.17
670.39	1079.53
670.73	1077.02
671.07	1079.85
671.41	1078.82
671.75	1080.93
672.09	1078.14
672.43	1080.39
672.77	1080.72
673.11	1081.23
673.45	1081.89
673.79	1087.76
674.13	1084.63
674.47	1082.87
674.81	1081.26
675.15	1079.27
675.49	1072.76
675.83	1076.76
676.17	1075.22
676.51	1075.57
676.85	1076.65
677.19	1079.67
677.53	1076.58
677.87	1079.31
678.21	1077.47
678.55	1080.11
678.89	1081.47
679.23	1080.67
679.57	1081.61
679.90	1084.32
680.24	1081.30
680.58	1076.74
680.92	1079.71
681.26	1079.78
681.60	1080.51
681.94	1081.23
682.28	1084.86
682.62	1081.84
682.96	1080.67
683.29	1076.97
683.63	1073.09
683.97	1070.75
684.31	1072.29
684.65	1071.17
684.99	1073.79
685.33	1077.70
685.67	1078.61
686.00	1077.56
686.34	1080.86
686.68	1082.29
687.02	1080.02
687.36	1078.64
687.70	1081.26
688.03	1078.73
688.37	1075.57
688.71	1076.41
689.05	1077.54
689.39	1075.27
689.72	1074.66
690.06	1075.64
690.40	1078.31
690.74	1077.63
691.08	1077.84
691.41	1078.28
691.75	1079.29
692.09	1078.94
692.43	1083.55
692.76	1084.49
693.10	1088.02
693.44	1087.41
693.78	1084.67
694.11	1079.01
694.45	1080.27
694.79	1076.67
695.13	1077.86
695.46	1081.05
695.80	1081.63
696.14	1078.82
696.48	1078.40
696.81	1076.44
697.15	1076.39
697.49	1078.17
697.82	1079.88
698.16	1081.61
698.50	1078.61
698.83	1075.50
699.17	1075.05
699.51	1075.34
699.84	1072.83
700.18	1076.97
700.52	1078.31
700.85	1079.55
701.19	1078.12
701.53	1080.98
701.86	1082.69
702.20	1084.25
702.54	1087.32
702.87	1089.59
703.21	1087.34
703.55	1089.14
703.88	1086.24
704.22	1081.35
704.55	1079.97
704.89	1079.17
705.23	1076.86
705.56	1078.31
705.90	1080.41
706.23	1079.41
706.57	1079.38
706.91	1077.14
707.24	1077.07
707.58	1077.51
707.91	1078.66
708.25	1079.10
708.58	1079.53
708.92	1080.11
709.26	1079.74
709.59	1078.57
709.93	1081.63
710.26	1083.74
710.60	1078.68
710.93	1079.29
711.27	1079.48
711.60	1076.39
711.94	1073.91
712.27	1079.13
712.61	1077.11
712.94	1075.24
713.28	1078.47
713.61	1077.70
713.95	1075.55
714.28	1076.23
714.62	1078.71
714.95	1072.67
715.29	1076.11
715.62	1078.75
715.96	1076.83
716.29	1075.05
716.63	1081.14
716.96	1077.82
717.29	1077.00
717.63	1079.81
717.96	1083.36
718.30	1079.99
718.63	1082.31
718.97	1085.24
719.30	1084.11
719.63	1082.94
719.97	1084.09
720.30	1086.45
720.64	1082.69
720.97	1082.57
721.30	1079.43
721.64	1078.54
721.97	1075.52
722.31	1074.35
722.64	1075.41
722.97	1078.54
723.31	1079.88
723.64	1080.95
723.97	1080.95
724.31	1079.08
724.64	1079.34
724.98	1082.61
725.31	1081.19
725.64	1084.65
725.98	1086.59
726.31	1086.29
726.64	1081.26
726.97	1083.01
727.31	1083.43
727.64	1081.26
727.97	1080.09
728.31	1080.98
728.64	1080.13
728.97	1076.60
729.31	1077.58
729.64	1076.34
729.97	1078.14
730.30	1077.93
730.64	1076.01
730.97	1075.64
731.30	1078.33
731.63	1078.71
731.97	1079.43
732.30	1082.24
732.63	1081.35
732.96	1080.20
733.30	1077.54
733.63	1072.57
733.96	1074.89
734.29	1076.86
734.63	1076.30
734.96	1079.41
735.29	1080.81
735.62	1081.42
735.95	1083.95
736.29	1083.86
736.62	1083.57
736.95	1085.84
737.28	1086.57
737.61	1080.39
737.94	1082.59
738.28	1082.66
738.61	1082.12
738.94	1078.52
739.27	1081.21
739.60	1078.40
739.93	1078.12
740.27	1079.83
740.60	1079.53
740.93	1080.77
741.26	1084.44
741.59	1082.61
741.92	1079.60
742.25	1079.76
742.58	1078.47
742.91	1075.57
743.25	1075.29
743.58	1078.80
743.91	1080.18
744.24	1081.44
744.57	1083.15
744.90	1082.33
745.23	1082.05
745.56	1081.94
745.89	1080.06
746.22	1080.27
746.55	1080.60
746.88	1077.21
747.21	1075.78
747.54	1077.82
747.87	1076.76
748.20	1079.24
748.53	1080.74
748.87	1080.37
749.20	1078.96
749.53	1077.89
749.86	1077.23
750.19	1076.11
750.52	1076.95
750.85	1077.79
751.18	1077.04
751.51	1078.59
751.84	1078.45
752.16	1076.51
752.49	1074.47
752.82	1079.76
753.15	1078.14
753.48	1079.34
753.81	1079.36
754.14	1079.83
754.47	1077.47
754.80	1075.10
755.13	1076.83
755.46	1079.31
755.79	1078.28
756.12	1076.81
756.45	1075.24
756.78	1074.77
757.11	1071.90
757.43	1072.34
757.76	1074.52
758.09	1077.75
758.42	1076.83
758.75	1078.68
759.08	1077.04
759.41	1075.90
759.74	1074.21
760.07	1075.01
760.39	1077.07
760.72	1081.58
761.05	1078.07
761.38	1077.28
761.71	1077.70
762.04	1076.08
762.36	1075.57
762.69	1078.40
763.02	1078.94
763.35	1079.27
763.68	1081.75
764.01	1080.39
764.33	1084.39
