SpectraSuite Data File
++++++++++++++++++++++++++++++++++++
Date: Mon Aug 26 10:22:09 PDT 2019
User: corrico
Dark Spectrum Present: No
Reference Spectrum Present: No
Number of Sampled Component Spectra: 1
Spectrometers: USB2+H06089
Integration Time (usec): 2000 (USB2+H06089)
Spectra Averaged: 20 (USB2+H06089)
Boxcar Smoothing: 2 (USB2+H06089)
Correct for Electrical Dark: No (USB2+H06089)
Strobe/Lamp Enabled: No (USB2+H06089)
Correct for Detector Non-linearity: No (USB2+H06089)
Correct for Stray Light: No (USB2+H06089)
Number of Pixels in Processed Spectrum: 2048
>>>>>Begin Processed Spectral Data<<<<<
339.70	1034.05
340.07	1034.05
340.45	998.80
340.82	973.92
341.19	949.53
341.57	924.00
341.94	915.08
342.31	903.80
342.69	899.49
343.06	897.38
343.43	893.64
343.81	893.08
344.18	898.25
344.55	905.01
344.93	909.81
345.30	915.92
345.67	923.65
346.04	933.57
346.42	939.40
346.79	947.85
347.16	959.08
347.54	966.34
347.91	973.08
348.28	985.13
348.65	993.91
349.03	1006.38
349.40	1016.87
349.77	1023.59
350.14	1027.45
350.52	1033.72
350.89	1038.87
351.26	1043.27
351.63	1048.72
352.01	1057.29
352.38	1065.04
352.75	1067.80
353.12	1072.27
353.50	1077.70
353.87	1078.12
354.24	1076.15
354.61	1076.60
354.98	1075.29
355.36	1076.30
355.73	1081.94
356.10	1085.63
356.47	1089.03
356.84	1091.04
357.22	1091.72
357.59	1085.82
357.96	1083.76
358.33	1082.38
358.70	1081.58
359.08	1080.25
359.45	1082.87
359.82	1085.31
360.19	1086.57
360.56	1086.48
360.94	1084.67
361.31	1080.74
361.68	1075.66
362.05	1071.92
362.42	1071.82
362.79	1074.31
363.16	1074.87
363.54	1075.83
363.91	1076.44
364.28	1073.79
364.65	1070.65
365.02	1070.84
365.39	1071.36
365.76	1072.60
366.14	1075.01
366.51	1078.05
366.88	1077.16
367.25	1078.17
367.62	1077.07
367.99	1075.69
368.36	1074.07
368.73	1075.36
369.10	1072.39
369.48	1071.99
369.85	1071.90
370.22	1074.12
370.59	1073.16
370.96	1072.97
371.33	1074.91
371.70	1078.73
372.07	1076.48
372.44	1081.70
372.81	1083.39
373.18	1080.67
373.55	1079.60
373.93	1075.78
374.30	1071.29
374.67	1071.15
375.04	1074.10
375.41	1071.75
375.78	1076.74
376.15	1076.97
376.52	1079.85
376.89	1078.59
377.26	1080.30
377.63	1079.17
378.00	1081.82
378.37	1081.21
378.74	1081.73
379.11	1083.41
379.48	1085.61
379.85	1081.75
380.22	1077.09
380.59	1076.62
380.96	1071.87
381.33	1068.27
381.70	1068.95
382.07	1073.56
382.44	1074.12
382.81	1078.75
383.18	1083.57
383.55	1085.26
383.92	1084.35
384.29	1083.20
384.66	1082.57
385.03	1080.41
385.40	1081.16
385.77	1084.86
386.14	1086.85
386.51	1085.56
386.88	1084.02
387.25	1084.07
387.62	1081.56
387.99	1079.50
388.36	1081.87
388.73	1083.39
389.10	1083.20
389.46	1083.86
389.83	1081.94
390.20	1080.67
390.57	1077.82
390.94	1076.51
391.31	1077.02
391.68	1079.27
392.05	1077.70
392.42	1080.27
392.79	1079.34
393.16	1077.14
393.53	1080.18
393.89	1085.33
394.26	1085.45
394.63	1085.80
395.00	1086.76
395.37	1084.00
395.74	1083.32
396.11	1085.07
396.48	1086.03
396.84	1084.53
397.21	1087.58
397.58	1086.03
397.95	1084.04
398.32	1083.97
398.69	1085.68
399.06	1084.04
399.42	1085.05
399.79	1088.82
400.16	1093.57
400.53	1095.42
400.90	1098.30
401.27	1097.22
401.64	1093.45
402.00	1089.59
402.37	1087.39
402.74	1085.05
403.11	1085.54
403.48	1091.23
403.84	1093.62
404.21	1095.91
404.58	1096.87
404.95	1097.90
405.32	1097.36
405.68	1093.66
406.05	1091.74
406.42	1091.13
406.79	1091.27
407.16	1088.51
407.52	1094.34
407.89	1097.41
408.26	1097.52
408.63	1095.63
408.99	1096.49
409.36	1096.35
409.73	1096.66
410.10	1097.99
410.47	1099.89
410.83	1101.62
411.20	1098.74
411.57	1097.92
411.94	1097.92
412.30	1097.24
412.67	1099.49
413.04	1099.98
413.40	1100.52
413.77	1101.27
414.14	1102.86
414.51	1103.80
414.87	1103.66
415.24	1104.64
415.61	1103.12
415.97	1102.95
416.34	1098.46
416.71	1100.89
417.08	1102.72
417.44	1103.21
417.81	1106.72
418.18	1109.34
418.54	1114.47
418.91	1114.63
419.28	1119.64
419.64	1119.15
420.01	1121.65
420.38	1118.71
420.74	1121.75
421.11	1122.22
421.48	1123.64
421.84	1124.09
422.21	1127.27
422.58	1127.76
422.94	1129.50
423.31	1133.85
423.68	1138.79
424.04	1140.47
424.41	1141.67
424.77	1148.48
425.14	1150.94
425.51	1153.95
425.87	1160.95
426.24	1168.42
426.61	1170.43
426.97	1179.51
427.34	1185.50
427.70	1192.67
428.07	1199.50
428.44	1209.92
428.80	1216.31
429.17	1227.17
429.53	1238.19
429.90	1252.07
430.27	1263.89
430.63	1279.17
431.00	1291.44
431.36	1304.59
431.73	1317.30
432.09	1331.13
432.46	1347.54
432.83	1366.17
433.19	1385.53
433.56	1412.91
433.92	1437.14
434.29	1463.00
434.65	1495.06
435.02	1528.93
435.38	1558.91
435.75	1591.00
436.11	1626.70
436.48	1661.97
436.84	1703.96
437.21	1747.40
437.57	1799.29
437.94	1850.85
438.30	1904.21
438.67	1960.57
439.03	2024.45
439.40	2090.19
439.76	2158.25
440.13	2237.51
440.49	2318.98
440.86	2395.96
441.22	2484.31
441.59	2575.50
441.95	2679.28
442.32	2781.33
442.68	2904.98
443.05	3025.19
443.41	3153.10
443.78	3278.01
444.14	3412.81
444.51	3545.84
444.87	3712.53
445.24	3877.40
445.60	4058.68
445.96	4244.30
446.33	4455.98
446.69	4655.11
447.06	4876.90
447.42	5102.93
447.79	5340.61
448.15	5608.09
448.51	5884.83
448.88	6204.03
449.24	6512.47
449.61	6865.98
449.97	7212.69
450.33	7593.68
450.70	7951.60
451.06	8387.85
451.43	8788.08
451.79	9258.88
452.15	9745.48
452.52	10281.81
452.88	10823.76
453.24	11462.14
453.61	12159.04
453.97	12853.96
454.34	13547.21
454.70	14373.14
455.06	15181.23
455.43	15931.68
455.79	16650.17
456.15	17469.92
456.52	18206.21
456.88	19117.24
457.24	20027.17
457.61	21147.72
457.97	22202.72
458.33	23309.02
458.70	24357.46
459.06	25367.78
459.42	26371.85
459.79	27311.10
460.15	28357.67
460.51	29357.95
460.88	30459.12
461.24	31452.94
461.60	32602.12
461.96	33663.93
462.33	34703.52
462.69	35729.59
463.05	36832.82
463.42	37866.45
463.78	38786.52
464.14	39548.73
464.50	40265.20
464.87	40795.84
465.23	41127.43
465.59	41524.43
465.95	41830.99
466.32	42096.01
466.68	42340.31
467.04	42490.39
467.40	42503.75
467.77	42607.02
468.13	42517.14
468.49	42346.80
468.85	42232.95
469.22	42117.14
469.58	41868.91
469.94	41742.47
470.30	41538.47
470.66	41178.68
471.03	40682.98
471.39	40314.16
471.75	39589.95
472.11	38873.26
472.47	38389.30
472.84	37854.16
473.20	37137.42
473.56	36716.97
473.92	36142.90
474.28	35496.00
474.65	34832.60
475.01	34145.19
475.37	33337.16
475.73	32650.89
476.09	31942.37
476.45	31297.39
476.81	30744.20
477.18	30180.69
477.54	29716.71
477.90	29267.16
478.26	28711.63
478.62	28207.11
478.98	27770.08
479.34	27320.16
479.71	26753.24
480.07	26330.63
480.43	25884.50
480.79	25406.42
481.15	24935.86
481.51	24571.55
481.87	24225.60
482.23	23847.53
482.59	23534.18
482.96	23211.37
483.32	22886.09
483.68	22498.07
484.04	22171.15
484.40	21759.21
484.76	21319.92
485.12	20874.93
485.48	20432.17
485.84	19922.34
486.20	19467.43
486.56	19045.13
486.92	18660.11
487.28	18271.42
487.64	17873.57
488.00	17497.45
488.37	17111.84
488.73	16682.59
489.09	16221.18
489.45	15805.19
489.81	15360.40
490.17	14913.33
490.53	14506.94
490.89	14098.64
491.25	13676.27
491.61	13262.74
491.97	12871.24
492.33	12468.69
492.69	12107.24
493.05	11775.94
493.41	11469.21
493.77	11149.12
494.13	10846.67
494.49	10551.63
494.85	10277.13
495.21	9998.60
495.57	9737.31
495.93	9476.10
496.29	9219.67
496.64	8984.68
497.00	8729.17
497.36	8475.95
497.72	8225.74
498.08	8009.36
498.44	7775.10
498.80	7567.28
499.16	7372.13
499.52	7172.74
499.88	6988.47
500.24	6816.30
500.60	6652.90
500.96	6499.81
501.32	6352.87
501.68	6189.69
502.03	6005.58
502.39	5841.46
502.75	5669.41
503.11	5517.84
503.47	5370.83
503.83	5254.43
504.19	5126.24
504.55	5007.83
504.91	4887.04
505.26	4770.13
505.62	4651.60
505.98	4539.82
506.34	4421.53
506.70	4303.64
507.06	4196.23
507.42	4088.75
507.78	3991.90
508.13	3898.21
508.49	3817.37
508.85	3737.34
509.21	3655.07
509.57	3569.50
509.93	3487.16
510.28	3398.83
510.64	3312.35
511.00	3233.92
511.36	3161.34
511.72	3092.53
512.07	3038.67
512.43	2980.98
512.79	2922.28
513.15	2865.54
513.51	2807.71
513.86	2742.62
514.22	2690.38
514.58	2637.57
514.94	2588.12
515.30	2543.74
515.65	2500.86
516.01	2460.53
516.37	2419.58
516.73	2384.91
517.08	2347.53
517.44	2308.59
517.80	2265.83
518.16	2231.75
518.51	2189.81
518.87	2154.58
519.23	2122.12
519.59	2095.20
519.94	2063.04
520.30	2036.59
520.66	2006.45
521.01	1978.41
521.37	1949.90
521.73	1921.93
522.09	1897.10
522.44	1875.28
522.80	1853.89
523.16	1832.24
523.51	1812.04
523.87	1786.88
524.23	1766.05
524.58	1744.49
524.94	1722.28
525.30	1700.24
525.65	1682.05
526.01	1657.92
526.37	1638.61
526.72	1622.60
527.08	1606.26
527.44	1587.75
527.79	1574.45
528.15	1560.67
528.51	1542.04
528.86	1529.24
529.22	1515.08
529.58	1505.41
529.93	1491.13
530.29	1480.11
530.65	1466.91
531.00	1456.70
531.36	1441.82
531.71	1433.23
532.07	1423.79
532.43	1410.71
532.78	1399.22
533.14	1387.77
533.49	1378.55
533.85	1368.04
534.21	1362.40
534.56	1355.83
534.92	1352.60
535.27	1345.53
535.63	1340.61
535.98	1333.50
536.34	1325.40
536.69	1317.30
537.05	1308.29
537.41	1300.12
537.76	1292.42
538.12	1286.64
538.47	1278.21
538.83	1274.14
539.18	1269.97
539.54	1267.75
539.89	1262.74
540.25	1258.39
540.60	1251.27
540.96	1245.80
541.31	1241.70
541.67	1238.54
542.02	1235.03
542.38	1232.41
542.73	1231.47
543.09	1225.32
543.44	1220.29
543.80	1217.17
544.15	1213.92
544.51	1208.84
544.86	1206.83
545.22	1205.73
545.57	1200.46
545.93	1195.85
546.28	1193.81
546.64	1188.85
546.99	1184.47
547.35	1180.24
547.70	1177.92
548.05	1173.94
548.41	1171.88
548.76	1168.96
549.12	1170.01
549.47	1170.78
549.83	1170.36
550.18	1172.16
550.53	1170.22
550.89	1168.00
551.24	1163.71
551.60	1158.10
551.95	1152.46
552.30	1151.73
552.66	1150.33
553.01	1147.82
553.37	1148.15
553.72	1147.07
554.07	1146.37
554.43	1144.31
554.78	1142.84
555.13	1140.10
555.49	1138.81
555.84	1136.28
556.19	1134.36
556.55	1135.39
556.90	1135.16
557.26	1133.66
557.61	1131.93
557.96	1129.36
558.32	1124.30
558.67	1122.10
559.02	1121.87
559.37	1121.00
559.73	1122.03
560.08	1124.21
560.43	1123.81
560.79	1122.52
561.14	1122.59
561.49	1123.71
561.85	1121.02
562.20	1118.31
562.55	1119.53
562.90	1117.75
563.26	1113.11
563.61	1112.29
563.96	1115.12
564.32	1111.99
564.67	1112.53
565.02	1113.42
565.37	1115.12
565.73	1114.59
566.08	1113.86
566.43	1109.77
566.78	1109.72
567.14	1109.32
567.49	1108.34
567.84	1106.93
568.19	1111.85
568.54	1106.58
568.90	1102.42
569.25	1101.81
569.60	1099.05
569.95	1098.11
570.31	1101.83
570.66	1104.78
571.01	1103.45
571.36	1104.69
571.71	1100.40
572.06	1097.69
572.42	1096.19
572.77	1094.95
573.12	1094.97
573.47	1097.95
573.82	1101.90
574.18	1101.62
574.53	1103.00
574.88	1102.18
575.23	1100.22
575.58	1099.07
575.93	1095.86
576.28	1093.31
576.64	1092.61
576.99	1092.00
577.34	1090.69
577.69	1093.52
578.04	1096.61
578.39	1097.83
578.74	1098.95
579.09	1099.19
579.44	1097.01
579.80	1096.31
580.15	1097.57
580.50	1096.85
580.85	1095.70
581.20	1098.09
581.55	1097.78
581.90	1095.04
582.25	1095.96
582.60	1096.59
582.95	1096.33
583.30	1095.58
583.65	1093.17
584.00	1090.41
584.35	1086.83
584.71	1085.80
585.06	1083.20
585.41	1087.86
585.76	1089.52
586.11	1094.67
586.46	1095.02
586.81	1095.44
587.16	1095.39
587.51	1093.66
587.86	1093.03
588.21	1093.31
588.56	1094.88
588.91	1092.45
589.26	1092.19
589.61	1088.63
589.96	1086.85
590.31	1086.69
590.66	1088.09
591.01	1087.58
591.36	1086.20
591.71	1085.82
592.06	1083.22
592.41	1081.61
592.76	1080.70
593.10	1082.80
593.45	1084.04
593.80	1085.61
594.15	1085.52
594.50	1088.44
594.85	1091.30
595.20	1091.02
595.55	1090.97
595.90	1091.49
596.25	1089.03
596.60	1083.95
596.95	1081.87
597.30	1081.40
597.64	1090.81
597.99	1092.42
598.34	1096.85
598.69	1098.79
599.04	1099.00
599.39	1092.63
599.74	1091.77
600.09	1090.76
600.44	1091.27
600.78	1089.66
601.13	1084.51
601.48	1081.49
601.83	1078.75
602.18	1076.44
602.53	1077.96
602.88	1080.72
603.22	1086.34
603.57	1085.54
603.92	1087.95
604.27	1087.79
604.62	1086.38
604.97	1084.02
605.31	1085.17
605.66	1084.96
606.01	1086.34
606.36	1087.55
606.71	1089.24
607.05	1091.04
607.40	1085.96
607.75	1086.31
608.10	1087.34
608.44	1086.06
608.79	1086.27
609.14	1089.52
609.49	1089.89
609.84	1089.71
610.18	1087.46
610.53	1085.49
610.88	1086.52
611.23	1084.16
611.57	1082.31
611.92	1083.60
612.27	1084.86
612.62	1084.53
612.96	1084.32
613.31	1081.56
613.66	1082.54
614.00	1084.74
614.35	1087.53
614.70	1087.69
615.05	1087.60
615.39	1086.83
615.74	1083.48
616.09	1079.10
616.43	1080.46
616.78	1083.22
617.13	1085.54
617.47	1084.77
617.82	1087.30
618.17	1085.84
618.51	1085.33
618.86	1085.14
619.21	1085.40
619.55	1084.93
619.90	1082.22
620.25	1082.92
620.59	1082.05
620.94	1084.60
621.29	1085.54
621.63	1087.18
621.98	1088.86
622.32	1088.54
622.67	1090.60
623.02	1090.76
623.36	1089.45
623.71	1089.19
624.05	1090.36
624.40	1083.86
624.75	1080.30
625.09	1084.28
625.44	1082.87
625.78	1080.95
626.13	1083.50
626.48	1082.47
626.82	1081.68
627.17	1083.06
627.51	1081.54
627.86	1079.97
628.20	1082.73
628.55	1080.53
628.89	1074.40
629.24	1075.36
629.58	1080.46
629.93	1081.02
630.28	1083.83
630.62	1090.08
630.97	1091.86
631.31	1086.99
631.66	1087.37
632.00	1087.51
632.35	1086.03
632.69	1083.50
633.04	1086.10
633.38	1086.31
633.73	1085.96
634.07	1084.74
634.42	1084.56
634.76	1083.39
635.11	1079.81
635.45	1078.50
635.79	1081.80
636.14	1083.81
636.48	1082.69
636.83	1085.31
637.17	1087.23
637.52	1085.96
637.86	1085.19
638.21	1086.62
638.55	1086.71
638.89	1085.26
639.24	1082.69
639.58	1081.68
639.93	1078.96
640.27	1077.79
640.61	1076.76
640.96	1075.20
641.30	1074.28
641.65	1077.58
641.99	1078.99
642.33	1078.52
642.68	1080.58
643.02	1083.60
643.37	1083.60
643.71	1082.54
644.05	1085.89
644.40	1084.98
644.74	1085.26
645.08	1086.36
645.43	1087.06
645.77	1084.02
646.11	1086.92
646.46	1084.65
646.80	1083.88
647.14	1082.29
647.49	1083.90
647.83	1083.69
648.17	1083.29
648.52	1081.66
648.86	1080.77
649.20	1077.04
649.55	1076.27
649.89	1078.99
650.23	1077.42
650.57	1080.30
650.92	1083.27
651.26	1083.90
651.60	1082.69
651.95	1083.53
652.29	1081.51
652.63	1080.91
652.97	1078.54
653.32	1078.64
653.66	1079.43
654.00	1081.47
654.34	1080.41
654.69	1082.43
655.03	1080.86
655.37	1081.37
655.71	1082.64
656.05	1085.54
656.40	1083.69
656.74	1084.14
657.08	1083.57
657.42	1083.13
657.76	1082.54
658.11	1085.31
658.45	1085.05
658.79	1085.59
659.13	1083.29
659.47	1082.80
659.82	1083.20
660.16	1085.47
660.50	1084.70
660.84	1086.97
661.18	1088.77
661.52	1087.58
661.87	1084.60
662.21	1087.18
662.55	1084.23
662.89	1080.58
663.23	1081.73
663.57	1081.49
663.91	1079.17
664.25	1081.49
664.60	1081.70
664.94	1075.99
665.28	1077.75
665.62	1080.32
665.96	1076.86
666.30	1075.99
666.64	1079.20
666.98	1078.61
667.32	1075.15
667.66	1078.75
668.01	1078.73
668.35	1078.03
668.69	1078.87
669.03	1081.42
669.37	1079.60
669.71	1080.84
670.05	1079.64
670.39	1079.08
670.73	1076.18
671.07	1074.87
671.41	1075.48
671.75	1078.33
672.09	1078.82
672.43	1082.80
672.77	1087.39
673.11	1084.32
673.45	1083.32
673.79	1082.03
674.13	1079.22
674.47	1078.14
674.81	1080.84
675.15	1078.82
675.49	1080.56
675.83	1080.46
676.17	1079.31
676.51	1077.09
676.85	1079.15
677.19	1077.23
677.53	1078.59
677.87	1078.66
678.21	1082.47
678.55	1080.84
678.89	1081.49
679.23	1078.14
679.57	1079.03
679.90	1080.18
680.24	1085.68
680.58	1084.42
680.92	1086.34
681.26	1086.01
681.60	1082.29
681.94	1077.07
682.28	1076.62
682.62	1074.26
682.96	1075.87
683.29	1074.59
683.63	1076.06
683.97	1078.45
684.31	1079.03
684.65	1075.20
684.99	1074.35
685.33	1075.05
685.67	1074.31
686.00	1077.42
686.34	1079.46
686.68	1081.77
687.02	1082.66
687.36	1084.49
687.70	1083.90
688.03	1081.21
688.37	1083.53
688.71	1082.59
689.05	1080.39
689.39	1081.05
689.72	1083.15
690.06	1079.81
690.40	1077.09
690.74	1078.57
691.08	1077.56
691.41	1076.86
691.75	1078.82
692.09	1080.74
692.43	1081.00
692.76	1082.17
693.10	1083.95
693.44	1082.40
693.78	1082.10
694.11	1078.71
694.45	1077.51
694.79	1075.57
695.13	1077.09
695.46	1076.88
695.80	1078.78
696.14	1077.40
696.48	1077.96
696.81	1077.21
697.15	1077.18
697.49	1078.43
697.82	1080.60
698.16	1078.59
698.50	1078.12
698.83	1078.78
699.17	1077.65
699.51	1073.02
699.84	1073.21
700.18	1072.60
700.52	1072.67
700.85	1072.81
701.19	1079.10
701.53	1080.74
701.86	1082.94
702.20	1083.20
702.54	1084.23
702.87	1081.73
703.21	1079.69
703.55	1082.03
703.88	1083.04
704.22	1079.81
704.55	1079.08
704.89	1079.46
705.23	1076.20
705.56	1075.64
705.90	1077.61
706.23	1080.25
706.57	1083.22
706.91	1081.89
707.24	1081.47
707.58	1081.42
707.91	1083.20
708.25	1080.86
708.58	1083.32
708.92	1082.69
709.26	1082.76
709.59	1081.35
709.93	1084.16
710.26	1084.07
710.60	1083.93
710.93	1083.76
711.27	1083.01
711.60	1078.40
711.94	1078.43
712.27	1081.61
712.61	1080.72
712.94	1077.51
713.28	1079.20
713.61	1076.72
713.95	1070.80
714.28	1069.98
714.62	1072.39
714.95	1072.29
715.29	1073.58
715.62	1076.88
715.96	1080.06
716.29	1079.50
716.63	1080.41
716.96	1080.91
717.29	1081.07
717.63	1078.50
717.96	1077.68
718.30	1079.31
718.63	1080.09
718.97	1080.18
719.30	1082.69
719.63	1084.02
719.97	1086.87
720.30	1086.62
720.64	1083.90
720.97	1080.74
721.30	1080.34
721.64	1074.21
721.97	1074.84
722.31	1077.44
722.64	1075.97
722.97	1078.89
723.31	1082.83
723.64	1081.35
723.97	1082.78
724.31	1084.86
724.64	1081.70
724.98	1077.79
725.31	1076.81
725.64	1075.66
725.98	1079.76
726.31	1080.74
726.64	1084.46
726.97	1084.42
727.31	1083.43
727.64	1079.88
727.97	1077.37
728.31	1072.34
728.64	1072.95
728.97	1072.46
729.31	1074.14
729.64	1078.68
729.97	1080.25
730.30	1079.76
730.64	1078.85
730.97	1077.91
731.30	1079.15
731.63	1078.82
731.97	1082.05
732.30	1085.26
732.63	1085.10
732.96	1082.43
733.30	1083.11
733.63	1082.33
733.96	1079.50
734.29	1079.41
734.63	1076.23
734.96	1076.27
735.29	1074.17
735.62	1073.56
735.95	1073.09
736.29	1073.04
736.62	1073.25
736.95	1074.35
737.28	1076.48
737.61	1076.37
737.94	1077.98
738.28	1080.39
738.61	1080.74
738.94	1081.58
739.27	1082.29
739.60	1082.26
739.93	1081.87
740.27	1079.22
740.60	1081.12
740.93	1080.20
741.26	1076.95
741.59	1076.81
741.92	1080.60
742.25	1080.67
742.58	1081.91
742.91	1086.66
743.25	1083.53
743.58	1081.23
743.91	1076.88
744.24	1076.67
744.57	1075.05
744.90	1078.17
745.23	1078.50
745.56	1079.97
745.89	1079.95
746.22	1078.82
746.55	1076.51
746.88	1077.25
747.21	1078.21
747.54	1081.23
747.87	1084.49
748.20	1087.06
748.53	1088.09
748.87	1087.20
749.20	1084.07
749.53	1083.57
749.86	1081.19
750.19	1081.19
750.52	1082.57
750.85	1085.24
751.18	1083.13
751.51	1085.00
751.84	1084.16
752.16	1081.58
752.49	1076.13
752.82	1079.55
753.15	1076.39
753.48	1074.17
753.81	1076.58
754.14	1085.00
754.47	1079.06
754.80	1080.34
755.13	1079.81
755.46	1080.53
755.79	1075.31
756.12	1079.50
756.45	1081.42
756.78	1084.84
757.11	1082.87
757.43	1085.61
757.76	1083.67
758.09	1082.99
758.42	1082.47
758.75	1079.55
759.08	1075.38
759.41	1077.40
759.74	1078.21
760.07	1075.71
760.39	1078.92
760.72	1078.89
761.05	1075.36
761.38	1076.13
761.71	1077.35
762.04	1077.75
762.36	1078.47
762.69	1081.35
763.02	1080.60
763.35	1081.82
763.68	1084.00
