SpectraSuite Data File
++++++++++++++++++++++++++++++++++++
Date: Mon Aug 26 10:22:08 PDT 2019
User: corrico
Dark Spectrum Present: No
Reference Spectrum Present: No
Number of Sampled Component Spectra: 1
Spectrometers: USB2+H06089
Integration Time (usec): 2000 (USB2+H06089)
Spectra Averaged: 20 (USB2+H06089)
Boxcar Smoothing: 2 (USB2+H06089)
Correct for Electrical Dark: No (USB2+H06089)
Strobe/Lamp Enabled: No (USB2+H06089)
Correct for Detector Non-linearity: No (USB2+H06089)
Correct for Stray Light: No (USB2+H06089)
Number of Pixels in Processed Spectrum: 2048
>>>>>Begin Processed Spectral Data<<<<<
339.70	1008.89
340.07	1008.89
340.45	985.01
340.82	965.73
341.19	947.66
341.57	923.83
341.94	913.82
342.31	904.15
342.69	901.43
343.06	896.21
343.43	899.19
343.81	898.13
344.18	901.48
344.55	906.54
344.93	915.06
345.30	921.66
345.67	927.20
346.04	934.90
346.42	942.39
346.79	950.19
347.16	958.57
347.54	968.89
347.91	979.56
348.28	988.08
348.65	998.36
349.03	1005.89
349.40	1016.80
349.77	1024.80
350.14	1035.59
350.52	1041.98
350.89	1051.56
351.26	1056.24
351.63	1059.98
352.01	1062.35
352.38	1065.95
352.75	1065.34
353.12	1070.91
353.50	1071.85
353.87	1072.88
354.24	1073.09
354.61	1076.37
354.98	1075.66
355.36	1080.46
355.73	1080.53
356.10	1086.85
356.47	1089.10
356.84	1090.50
357.22	1089.75
357.59	1094.08
357.96	1092.49
358.33	1092.63
358.70	1089.87
359.08	1086.78
359.45	1083.79
359.82	1080.23
360.19	1076.83
360.56	1077.89
360.94	1078.66
361.31	1077.91
361.68	1078.78
362.05	1083.29
362.42	1081.07
362.79	1082.94
363.16	1083.20
363.54	1080.98
363.91	1077.07
364.28	1079.97
364.65	1079.53
365.02	1079.92
365.39	1079.36
365.76	1076.51
366.14	1072.46
366.51	1069.91
366.88	1067.00
367.25	1069.70
367.62	1074.14
367.99	1074.94
368.36	1075.97
368.73	1077.40
369.10	1074.21
369.48	1069.04
369.85	1073.07
370.22	1072.83
370.59	1075.62
370.96	1076.58
371.33	1079.24
371.70	1075.76
372.07	1075.05
372.44	1073.07
372.81	1072.11
373.18	1074.40
373.55	1079.69
373.93	1081.33
374.30	1082.29
374.67	1082.24
375.04	1082.52
375.41	1077.51
375.78	1078.85
376.15	1079.13
376.52	1080.65
376.89	1081.02
377.26	1082.26
377.63	1081.82
378.00	1081.66
378.37	1083.27
378.74	1081.26
379.11	1078.96
379.48	1078.57
379.85	1079.13
380.22	1079.69
380.59	1081.26
380.96	1084.35
381.33	1085.19
381.70	1083.81
382.07	1080.86
382.44	1080.46
382.81	1080.65
383.18	1078.96
383.55	1078.28
383.92	1081.51
384.29	1081.16
384.66	1081.12
385.03	1080.44
385.40	1079.76
385.77	1078.57
386.14	1078.94
386.51	1080.30
386.88	1081.23
387.25	1083.20
387.62	1084.00
387.99	1087.34
388.36	1085.61
388.73	1086.62
389.10	1088.00
389.46	1086.80
389.83	1086.01
390.20	1084.63
390.57	1083.81
390.94	1081.75
391.31	1081.19
391.68	1079.13
392.05	1080.09
392.42	1081.91
392.79	1086.29
393.16	1090.08
393.53	1089.61
393.89	1092.75
394.26	1091.63
394.63	1087.76
395.00	1088.14
395.37	1089.45
395.74	1086.13
396.11	1087.06
396.48	1087.30
396.84	1086.52
397.21	1085.05
397.58	1088.42
397.95	1088.12
398.32	1089.17
398.69	1089.68
399.06	1091.49
399.42	1092.35
399.79	1092.94
400.16	1094.50
400.53	1093.19
400.90	1093.15
401.27	1090.17
401.64	1090.53
402.00	1087.55
402.37	1086.36
402.74	1090.48
403.11	1093.15
403.48	1093.55
403.84	1095.60
404.21	1095.09
404.58	1090.24
404.95	1088.70
405.32	1089.14
405.68	1088.37
406.05	1090.27
406.42	1094.55
406.79	1096.00
407.16	1094.32
407.52	1098.30
407.89	1097.95
408.26	1096.28
408.63	1094.74
408.99	1096.21
409.36	1093.19
409.73	1092.40
410.10	1087.93
410.47	1090.24
410.83	1090.55
411.20	1092.21
411.57	1095.53
411.94	1100.64
412.30	1098.25
412.67	1099.35
413.04	1099.07
413.40	1100.26
413.77	1100.57
414.14	1102.86
414.51	1108.62
414.87	1107.10
415.24	1105.97
415.61	1106.16
415.97	1105.15
416.34	1100.31
416.71	1105.22
417.08	1107.31
417.44	1105.93
417.81	1110.30
418.18	1113.88
418.54	1111.68
418.91	1111.82
419.28	1113.23
419.64	1110.82
420.01	1111.73
420.38	1113.14
420.74	1113.79
421.11	1119.55
421.48	1124.11
421.84	1123.86
422.21	1130.81
422.58	1136.19
422.94	1139.35
423.31	1140.66
423.68	1143.52
424.04	1143.00
424.41	1145.39
424.77	1143.26
425.14	1146.23
425.51	1152.32
425.87	1159.64
426.24	1163.90
426.61	1171.70
426.97	1182.91
427.34	1190.26
427.70	1196.90
428.07	1204.60
428.44	1216.38
428.80	1221.39
429.17	1229.16
429.53	1239.73
429.90	1253.80
430.27	1261.81
430.63	1271.12
431.00	1288.14
431.36	1305.15
431.73	1316.72
432.09	1335.79
432.46	1355.47
432.83	1371.30
433.19	1389.20
433.56	1410.87
433.92	1436.11
434.29	1464.71
434.65	1492.26
435.02	1518.77
435.38	1554.65
435.75	1587.07
436.11	1623.98
436.48	1667.19
436.84	1714.07
437.21	1761.67
437.57	1807.43
437.94	1860.49
438.30	1912.69
438.67	1968.09
439.03	2025.85
439.40	2097.19
439.76	2167.13
440.13	2243.17
440.49	2325.39
440.86	2407.01
441.22	2494.47
441.59	2587.60
441.95	2687.96
442.32	2790.11
442.68	2908.09
443.05	3026.90
443.41	3147.81
443.78	3277.26
444.14	3411.19
444.51	3547.92
444.87	3717.38
445.24	3891.07
445.60	4077.10
445.96	4276.35
446.33	4491.53
446.69	4688.47
447.06	4904.78
447.42	5126.66
447.79	5353.65
448.15	5617.10
448.51	5897.54
448.88	6222.17
449.24	6523.05
449.61	6870.97
449.97	7222.66
450.33	7596.96
450.70	7943.92
451.06	8386.42
451.43	8805.17
451.79	9268.45
452.15	9762.19
452.52	10313.83
452.88	10870.03
453.24	11499.61
453.61	12200.81
453.97	12918.33
454.34	13606.70
454.70	14406.14
455.06	15226.50
455.43	15977.13
455.79	16656.94
456.15	17481.09
456.52	18238.44
456.88	19138.79
457.24	20056.33
457.61	21188.59
457.97	22254.02
458.33	23342.30
458.70	24383.30
459.06	25389.12
459.42	26414.35
459.79	27343.54
460.15	28406.52
460.51	29431.21
460.88	30543.22
461.24	31509.46
461.60	32658.17
461.96	33724.45
462.33	34741.48
462.69	35772.02
463.05	36899.20
463.42	37922.79
463.78	38848.82
464.14	39616.59
464.50	40347.89
464.87	40875.91
465.23	41219.53
465.59	41630.03
465.95	41943.20
466.32	42182.59
466.68	42431.41
467.04	42598.12
467.40	42615.54
467.77	42736.78
468.13	42673.65
468.49	42531.19
468.85	42416.59
469.22	42256.90
469.58	42000.89
469.94	41857.39
470.30	41613.67
470.66	41280.73
471.03	40822.38
471.39	40449.56
471.75	39734.17
472.11	39031.34
472.47	38501.37
472.84	37974.70
473.20	37258.43
473.56	36851.78
473.92	36285.70
474.28	35662.42
474.65	34989.32
475.01	34302.35
475.37	33479.14
475.73	32785.87
476.09	32071.66
476.45	31420.45
476.81	30877.75
477.18	30299.43
477.54	29823.74
477.90	29355.07
478.26	28786.39
478.62	28246.90
478.98	27823.82
479.34	27381.90
479.71	26829.72
480.07	26388.07
480.43	25953.66
480.79	25479.19
481.15	25006.61
481.51	24616.80
481.87	24308.73
482.23	23960.37
482.59	23624.92
482.96	23301.37
483.32	22998.17
483.68	22583.36
484.04	22216.25
484.40	21794.32
484.76	21364.78
485.12	20910.28
485.48	20480.74
485.84	19979.23
486.20	19548.76
486.56	19106.80
486.92	18720.54
487.28	18330.14
487.64	17942.45
488.00	17565.81
488.37	17174.85
488.73	16736.98
489.09	16273.86
489.45	15847.72
489.81	15389.86
490.17	14950.92
490.53	14549.57
490.89	14130.73
491.25	13710.95
491.61	13303.82
491.97	12897.26
492.33	12493.19
492.69	12140.62
493.05	11809.95
493.41	11499.50
493.77	11187.50
494.13	10876.52
494.49	10586.95
494.85	10301.28
495.21	10024.07
495.57	9765.56
495.93	9500.45
496.29	9243.01
496.64	9005.23
497.00	8742.28
497.36	8484.16
497.72	8253.45
498.08	8029.40
498.44	7796.70
498.80	7582.12
499.16	7392.54
499.52	7194.06
499.88	7007.84
500.24	6835.56
500.60	6677.64
500.96	6522.23
501.32	6366.54
501.68	6193.06
502.03	6025.36
502.39	5861.82
502.75	5681.02
503.11	5527.88
503.47	5395.78
503.83	5263.12
504.19	5131.20
504.55	5008.51
504.91	4894.93
505.26	4773.59
505.62	4657.22
505.98	4544.24
506.34	4438.43
506.70	4317.73
507.06	4207.46
507.42	4099.82
507.78	4004.84
508.13	3909.63
508.49	3827.43
508.85	3750.78
509.21	3670.52
509.57	3585.96
509.93	3503.64
510.28	3413.44
510.64	3332.52
511.00	3253.88
511.36	3176.39
511.72	3106.36
512.07	3048.71
512.43	2983.50
512.79	2924.80
513.15	2862.48
513.51	2803.56
513.86	2743.83
514.22	2691.59
514.58	2636.61
514.94	2600.71
515.30	2554.88
515.65	2510.01
516.01	2467.56
516.37	2429.38
516.73	2384.42
517.08	2347.60
517.44	2305.80
517.80	2266.90
518.16	2229.85
518.51	2194.95
518.87	2158.72
519.23	2133.45
519.59	2102.57
519.94	2069.95
520.30	2036.17
520.66	2007.41
521.01	1972.21
521.37	1944.00
521.73	1913.48
522.09	1889.91
522.44	1868.29
522.80	1847.34
523.16	1827.19
523.51	1809.59
523.87	1792.22
524.23	1771.36
524.58	1752.38
524.94	1731.65
525.30	1713.90
525.65	1695.79
526.01	1673.65
526.37	1653.80
526.72	1638.16
527.08	1617.31
527.44	1595.08
527.79	1582.93
528.15	1568.42
528.51	1549.06
528.86	1538.95
529.22	1525.70
529.58	1508.62
529.93	1494.27
530.29	1481.33
530.65	1464.96
531.00	1452.96
531.36	1441.86
531.71	1433.95
532.07	1422.04
532.43	1412.37
532.78	1400.65
533.14	1390.89
533.49	1378.51
533.85	1372.75
534.21	1364.56
534.56	1356.46
534.92	1347.47
535.27	1336.19
535.63	1324.30
535.98	1318.38
536.34	1311.75
536.69	1308.94
537.05	1302.51
537.41	1296.10
537.76	1288.91
538.12	1283.01
538.47	1274.05
538.83	1270.26
539.18	1266.89
539.54	1262.30
539.89	1257.71
540.25	1253.61
540.60	1251.11
540.96	1247.65
541.31	1242.59
541.67	1238.89
542.02	1235.36
542.38	1230.37
542.73	1226.18
543.09	1222.91
543.44	1222.11
543.80	1217.27
544.15	1213.90
544.51	1210.34
544.86	1210.41
545.22	1204.42
545.57	1201.40
545.93	1197.79
546.28	1191.82
546.64	1185.74
546.99	1183.33
547.35	1180.99
547.70	1178.16
548.05	1176.59
548.41	1175.21
548.76	1173.61
549.12	1171.16
549.47	1167.95
549.83	1163.95
550.18	1163.18
550.53	1159.67
550.89	1158.24
551.24	1161.16
551.60	1162.17
551.95	1158.38
552.30	1158.19
552.66	1156.41
553.01	1152.41
553.37	1154.56
553.72	1152.95
554.07	1151.12
554.43	1149.37
554.78	1148.22
555.13	1144.19
555.49	1143.75
555.84	1141.55
556.19	1141.78
556.55	1138.18
556.90	1139.02
557.26	1135.60
557.61	1134.43
557.96	1131.65
558.32	1130.43
558.67	1129.31
559.02	1126.27
559.37	1126.01
559.73	1124.74
560.08	1122.50
560.43	1119.13
560.79	1121.75
561.14	1118.40
561.49	1118.40
561.85	1119.31
562.20	1117.72
562.55	1116.95
562.90	1118.61
563.26	1119.31
563.61	1119.64
563.96	1118.40
564.32	1117.93
564.67	1118.10
565.02	1116.60
565.37	1115.01
565.73	1116.15
566.08	1113.93
566.43	1111.47
566.78	1109.88
567.14	1109.09
567.49	1106.72
567.84	1105.62
568.19	1105.62
568.54	1105.46
568.90	1106.35
569.25	1105.95
569.60	1103.84
569.95	1100.89
570.31	1103.84
570.66	1099.16
571.01	1100.99
571.36	1098.44
571.71	1102.49
572.06	1095.79
572.42	1098.86
572.77	1096.87
573.12	1100.96
573.47	1097.71
573.82	1102.11
574.18	1102.35
574.53	1101.53
574.88	1100.03
575.23	1099.02
575.58	1095.23
575.93	1094.72
576.28	1094.08
576.64	1095.65
576.99	1097.17
577.34	1098.11
577.69	1095.16
578.04	1097.71
578.39	1098.44
578.74	1094.72
579.09	1095.79
579.44	1097.24
579.80	1097.48
580.15	1093.97
580.50	1099.23
580.85	1100.29
581.20	1098.93
581.55	1097.78
581.90	1097.95
582.25	1093.83
582.60	1088.93
582.95	1090.97
583.30	1088.44
583.65	1085.59
584.00	1085.45
584.35	1087.65
584.71	1086.85
585.06	1087.81
585.41	1093.26
585.76	1094.88
586.11	1096.85
586.46	1095.79
586.81	1097.36
587.16	1095.91
587.51	1097.45
587.86	1093.47
588.21	1091.81
588.56	1089.99
588.91	1088.51
589.26	1084.98
589.61	1087.44
589.96	1089.24
590.31	1088.21
590.66	1088.35
591.01	1088.30
591.36	1089.40
591.71	1090.15
592.06	1093.33
592.41	1093.62
592.76	1093.59
593.10	1090.60
593.45	1088.65
593.80	1084.28
594.15	1084.77
594.50	1088.82
594.85	1091.25
595.20	1094.22
595.55	1093.85
595.90	1091.27
596.25	1090.01
596.60	1089.03
596.95	1088.14
597.30	1091.56
597.64	1104.69
597.99	1102.93
598.34	1100.75
598.69	1099.37
599.04	1096.96
599.39	1086.15
599.74	1085.24
600.09	1087.93
600.44	1089.10
600.78	1089.47
601.13	1088.14
601.48	1089.87
601.83	1087.97
602.18	1087.27
602.53	1086.08
602.88	1085.52
603.22	1082.19
603.57	1085.28
603.92	1085.87
604.27	1085.07
604.62	1087.48
604.97	1092.94
605.31	1092.68
605.66	1090.46
606.01	1092.56
606.36	1092.87
606.71	1089.96
607.05	1086.34
607.40	1088.12
607.75	1087.65
608.10	1086.62
608.44	1084.32
608.79	1084.89
609.14	1085.91
609.49	1086.31
609.84	1084.86
610.18	1088.30
610.53	1088.16
610.88	1089.31
611.23	1089.75
611.57	1088.79
611.92	1087.55
612.27	1088.14
612.62	1084.46
612.96	1084.37
613.31	1083.74
613.66	1082.94
614.00	1079.41
614.35	1078.36
614.70	1079.60
615.05	1081.12
615.39	1082.54
615.74	1085.96
616.09	1086.69
616.43	1087.95
616.78	1086.66
617.13	1084.23
617.47	1082.36
617.82	1082.01
618.17	1079.01
618.51	1079.01
618.86	1078.71
619.21	1079.78
619.55	1081.30
619.90	1080.04
620.25	1085.70
620.59	1088.33
620.94	1086.03
621.29	1087.39
621.63	1088.28
621.98	1084.84
622.32	1083.71
622.67	1085.68
623.02	1085.87
623.36	1084.07
623.71	1085.35
624.05	1085.28
624.40	1083.71
624.75	1083.41
625.09	1083.90
625.44	1080.56
625.78	1077.82
626.13	1079.69
626.48	1077.25
626.82	1082.08
627.17	1084.49
627.51	1086.41
627.86	1085.68
628.20	1085.40
628.55	1082.50
628.89	1081.66
629.24	1083.81
629.58	1084.63
629.93	1084.91
630.28	1083.60
630.62	1083.62
630.97	1083.25
631.31	1083.29
631.66	1083.81
632.00	1084.30
632.35	1087.62
632.69	1085.26
633.04	1084.67
633.38	1087.81
633.73	1088.16
634.07	1084.44
634.42	1085.33
634.76	1086.36
635.11	1084.39
635.45	1084.32
635.79	1082.29
636.14	1083.22
636.48	1085.33
636.83	1083.43
637.17	1082.71
637.52	1085.54
637.86	1086.15
638.21	1081.63
638.55	1083.06
638.89	1084.23
639.24	1083.69
639.58	1082.40
639.93	1081.75
640.27	1082.10
640.61	1081.30
640.96	1081.61
641.30	1079.97
641.65	1085.12
641.99	1085.33
642.33	1086.85
642.68	1086.13
643.02	1089.07
643.37	1090.20
643.71	1091.70
644.05	1090.24
644.40	1089.31
644.74	1083.27
645.08	1077.14
645.43	1074.45
645.77	1077.09
646.11	1078.96
646.46	1083.25
646.80	1082.85
647.14	1086.43
647.49	1087.58
647.83	1088.65
648.17	1089.43
648.52	1093.22
648.86	1090.57
649.20	1087.55
649.55	1084.14
649.89	1085.56
650.23	1087.34
650.57	1089.64
650.92	1089.03
651.26	1088.02
651.60	1085.94
651.95	1083.22
652.29	1080.95
652.63	1081.42
652.97	1083.81
653.32	1083.48
653.66	1081.42
654.00	1078.68
654.34	1076.46
654.69	1077.16
655.03	1079.01
655.37	1080.18
655.71	1081.70
656.05	1084.60
656.40	1085.75
656.74	1086.55
657.08	1086.31
657.42	1082.97
657.76	1080.44
658.11	1079.76
658.45	1078.89
658.79	1080.25
659.13	1084.28
659.47	1087.30
659.82	1086.38
660.16	1082.66
660.50	1082.52
660.84	1079.46
661.18	1076.83
661.52	1077.02
661.87	1077.11
662.21	1076.97
662.55	1076.93
662.89	1077.33
663.23	1075.97
663.57	1075.83
663.91	1072.85
664.25	1074.28
664.60	1075.29
664.94	1076.48
665.28	1077.40
665.62	1079.55
665.96	1079.92
666.30	1076.97
666.64	1077.42
666.98	1077.96
667.32	1079.03
667.66	1077.93
668.01	1080.74
668.35	1081.91
668.69	1080.93
669.03	1081.77
669.37	1082.54
669.71	1080.70
670.05	1075.69
670.39	1077.40
670.73	1076.25
671.07	1076.34
671.41	1075.43
671.75	1079.62
672.09	1081.05
672.43	1081.21
672.77	1081.28
673.11	1084.39
673.45	1080.34
673.79	1079.13
674.13	1078.89
674.47	1081.40
674.81	1081.28
675.15	1086.10
675.49	1088.79
675.83	1089.12
676.17	1088.33
676.51	1088.93
676.85	1087.25
677.19	1085.38
677.53	1086.01
677.87	1085.38
678.21	1080.98
678.55	1081.84
678.89	1078.68
679.23	1081.02
679.57	1079.85
679.90	1081.96
680.24	1077.89
680.58	1078.57
680.92	1074.96
681.26	1075.34
681.60	1077.11
681.94	1078.75
682.28	1082.29
682.62	1080.79
682.96	1080.30
683.29	1077.33
683.63	1074.45
683.97	1072.81
684.31	1077.23
684.65	1079.74
684.99	1084.02
685.33	1090.46
685.67	1088.56
686.00	1086.34
686.34	1086.34
686.68	1084.37
687.02	1081.77
687.36	1082.12
687.70	1081.47
688.03	1079.17
688.37	1080.70
688.71	1079.53
689.05	1078.28
689.39	1077.37
689.72	1075.59
690.06	1073.53
690.40	1075.83
690.74	1075.62
691.08	1079.03
691.41	1081.80
691.75	1081.49
692.09	1082.61
692.43	1085.35
692.76	1082.24
693.10	1080.51
693.44	1082.69
693.78	1084.60
694.11	1087.69
694.45	1088.14
694.79	1089.59
695.13	1086.10
695.46	1083.50
695.80	1080.32
696.14	1079.97
696.48	1080.60
696.81	1087.20
697.15	1087.93
697.49	1084.84
697.82	1087.30
698.16	1086.17
698.50	1079.46
698.83	1076.18
699.17	1079.22
699.51	1077.68
699.84	1080.27
700.18	1083.08
700.52	1081.68
700.85	1079.81
701.19	1081.07
701.53	1077.37
701.86	1076.48
702.20	1082.01
702.54	1084.96
702.87	1081.61
703.21	1080.09
703.55	1081.54
703.88	1075.87
704.22	1072.97
704.55	1074.42
704.89	1077.63
705.23	1074.77
705.56	1075.71
705.90	1076.08
706.23	1077.07
706.57	1077.49
706.91	1077.56
707.24	1079.10
707.58	1080.27
707.91	1078.71
708.25	1078.68
708.58	1080.81
708.92	1081.00
709.26	1083.08
709.59	1085.70
709.93	1086.24
710.26	1086.17
710.60	1088.30
710.93	1088.49
711.27	1086.08
711.60	1086.15
711.94	1085.26
712.27	1081.70
712.61	1078.50
712.94	1078.73
713.28	1076.11
713.61	1077.51
713.95	1078.10
714.28	1079.20
714.62	1079.38
714.95	1079.71
715.29	1077.82
715.62	1080.20
715.96	1078.50
716.29	1079.34
716.63	1080.32
716.96	1080.25
717.29	1081.09
717.63	1084.46
717.96	1084.93
718.30	1083.20
718.63	1084.84
718.97	1083.06
719.30	1080.95
719.63	1080.06
719.97	1083.46
720.30	1081.73
720.64	1080.81
720.97	1082.36
721.30	1082.59
721.64	1082.45
721.97	1083.60
722.31	1084.96
722.64	1083.79
722.97	1084.04
723.31	1083.25
723.64	1082.05
723.97	1081.98
724.31	1082.10
724.64	1081.58
724.98	1081.12
725.31	1078.38
725.64	1080.86
725.98	1080.09
726.31	1081.80
726.64	1082.29
726.97	1085.26
727.31	1085.80
727.64	1085.82
727.97	1083.34
728.31	1080.25
728.64	1079.46
728.97	1073.28
729.31	1073.79
729.64	1073.39
729.97	1074.82
730.30	1078.43
730.64	1083.29
730.97	1084.42
731.30	1086.38
731.63	1087.02
731.97	1083.43
732.30	1082.01
732.63	1081.02
732.96	1078.45
733.30	1077.77
733.63	1077.04
733.96	1075.83
734.29	1075.64
734.63	1077.44
734.96	1077.68
735.29	1080.18
735.62	1084.23
735.95	1086.45
736.29	1084.60
736.62	1083.41
736.95	1083.20
737.28	1078.52
737.61	1075.59
737.94	1077.09
738.28	1081.21
738.61	1082.26
738.94	1086.48
739.27	1086.03
739.60	1086.64
739.93	1085.17
740.27	1082.83
740.60	1077.00
740.93	1078.43
741.26	1079.15
741.59	1079.31
741.92	1079.85
742.25	1081.37
742.58	1080.11
742.91	1079.53
743.25	1080.41
743.58	1079.48
743.91	1077.86
744.24	1078.57
744.57	1076.51
744.90	1074.03
745.23	1076.27
745.56	1076.81
745.89	1077.30
746.22	1079.78
746.55	1081.96
746.88	1079.15
747.21	1078.45
747.54	1078.12
747.87	1075.73
748.20	1074.75
748.53	1074.66
748.87	1077.25
749.20	1077.89
749.53	1076.69
749.86	1076.25
750.19	1074.98
750.52	1073.51
750.85	1069.62
751.18	1071.26
751.51	1072.01
751.84	1075.92
752.16	1077.58
752.49	1080.93
752.82	1082.22
753.15	1081.87
753.48	1079.92
753.81	1080.70
754.14	1078.73
754.47	1079.88
754.80	1080.18
755.13	1082.76
755.46	1079.22
755.79	1080.11
756.12	1081.68
756.45	1079.74
756.78	1080.30
757.11	1081.16
757.43	1080.60
757.76	1078.00
758.09	1078.68
758.42	1076.69
758.75	1077.33
759.08	1078.14
759.41	1078.31
759.74	1079.62
760.07	1079.31
760.39	1079.90
760.72	1080.70
761.05	1080.06
761.38	1079.10
761.71	1078.26
762.04	1079.55
762.36	1080.98
762.69	1082.43
763.02	1084.25
763.35	1085.26
763.68	1081.40
