SpectraSuite Data File
++++++++++++++++++++++++++++++++++++
Date: Mon Aug 26 10:22:13 PDT 2019
User: corrico
Dark Spectrum Present: No
Reference Spectrum Present: No
Number of Sampled Component Spectra: 1
Spectrometers: USB2+H06089
Integration Time (usec): 2000 (USB2+H06089)
Spectra Averaged: 20 (USB2+H06089)
Boxcar Smoothing: 2 (USB2+H06089)
Correct for Electrical Dark: No (USB2+H06089)
Strobe/Lamp Enabled: No (USB2+H06089)
Correct for Detector Non-linearity: No (USB2+H06089)
Correct for Stray Light: No (USB2+H06089)
Number of Pixels in Processed Spectrum: 2048
>>>>>Begin Processed Spectral Data<<<<<
339.70	1032.64
340.07	1032.64
340.45	1001.87
340.82	982.21
341.19	956.95
341.57	931.11
341.94	915.78
342.31	904.48
342.69	901.29
343.06	901.06
343.43	898.58
343.81	901.64
344.18	906.68
344.55	908.27
344.93	912.60
345.30	917.16
345.67	926.15
346.04	932.80
346.42	939.23
346.79	951.12
347.16	965.14
347.54	973.87
347.91	979.47
348.28	988.22
348.65	992.90
349.03	998.05
349.40	1006.29
349.77	1018.76
350.14	1026.21
350.52	1034.98
350.89	1044.72
351.26	1050.69
351.63	1055.23
352.01	1061.76
352.38	1066.35
352.75	1072.55
353.12	1075.80
353.50	1083.20
353.87	1087.18
354.24	1088.49
354.61	1086.41
354.98	1085.33
355.36	1080.04
355.73	1079.41
356.10	1080.13
356.47	1081.84
356.84	1085.24
357.22	1086.76
357.59	1083.76
357.96	1084.63
358.33	1085.82
358.70	1085.33
359.08	1087.48
359.45	1086.80
359.82	1085.91
360.19	1083.32
360.56	1078.61
360.94	1079.88
361.31	1080.93
361.68	1078.94
362.05	1079.71
362.42	1080.77
362.79	1075.52
363.16	1076.76
363.54	1074.49
363.91	1072.34
364.28	1073.56
364.65	1076.06
365.02	1073.95
365.39	1077.54
365.76	1077.75
366.14	1079.10
366.51	1076.55
366.88	1077.84
367.25	1076.58
367.62	1078.54
367.99	1077.18
368.36	1079.71
368.73	1079.88
369.10	1077.77
369.48	1077.98
369.85	1078.36
370.22	1075.78
370.59	1073.35
370.96	1073.28
371.33	1072.78
371.70	1071.40
372.07	1073.95
372.44	1077.51
372.81	1081.82
373.18	1079.69
373.55	1081.44
373.93	1081.05
374.30	1078.54
374.67	1075.22
375.04	1075.15
375.41	1075.17
375.78	1071.05
376.15	1073.58
376.52	1073.79
376.89	1075.80
377.26	1072.62
377.63	1075.50
378.00	1075.10
378.37	1077.25
378.74	1074.49
379.11	1075.50
379.48	1079.50
379.85	1078.05
380.22	1077.04
380.59	1079.41
380.96	1081.84
381.33	1079.78
381.70	1081.77
382.07	1082.73
382.44	1082.97
382.81	1082.71
383.18	1082.40
383.55	1082.45
383.92	1083.32
384.29	1083.64
384.66	1080.67
385.03	1079.90
385.40	1080.65
385.77	1081.37
386.14	1081.84
386.51	1085.10
386.88	1087.37
387.25	1085.21
387.62	1083.67
387.99	1084.25
388.36	1085.33
388.73	1082.33
389.10	1084.96
389.46	1084.11
389.83	1080.44
390.20	1080.41
390.57	1083.36
390.94	1082.29
391.31	1081.82
391.68	1087.58
392.05	1084.32
392.42	1083.04
392.79	1086.10
393.16	1090.71
393.53	1089.68
393.89	1094.62
394.26	1093.62
394.63	1091.77
395.00	1088.21
395.37	1087.81
395.74	1087.58
396.11	1092.23
396.48	1093.08
396.84	1094.60
397.21	1094.86
397.58	1095.30
397.95	1091.53
398.32	1089.40
398.69	1091.23
399.06	1091.30
399.42	1089.75
399.79	1090.88
400.16	1095.46
400.53	1092.19
400.90	1093.80
401.27	1093.85
401.64	1095.28
402.00	1090.83
402.37	1092.59
402.74	1091.42
403.11	1090.15
403.48	1087.79
403.84	1086.57
404.21	1089.57
404.58	1086.45
404.95	1088.44
405.32	1090.29
405.68	1094.27
406.05	1094.76
406.42	1097.38
406.79	1098.93
407.16	1096.31
407.52	1095.21
407.89	1093.62
408.26	1094.27
408.63	1092.12
408.99	1093.94
409.36	1093.73
409.73	1094.08
410.10	1096.03
410.47	1096.54
410.83	1099.12
411.20	1100.96
411.57	1101.32
411.94	1097.64
412.30	1099.63
412.67	1099.16
413.04	1098.27
413.40	1098.69
413.77	1101.27
414.14	1102.37
414.51	1103.91
414.87	1103.66
415.24	1102.77
415.61	1102.53
415.97	1101.48
416.34	1101.13
416.71	1103.98
417.08	1105.34
417.44	1106.56
417.81	1108.71
418.18	1110.09
418.54	1110.28
418.91	1114.33
419.28	1118.14
419.64	1119.15
420.01	1122.36
420.38	1125.77
420.74	1126.34
421.11	1126.50
421.48	1127.23
421.84	1128.07
422.21	1127.81
422.58	1127.46
422.94	1129.66
423.31	1133.59
423.68	1137.64
424.04	1143.02
424.41	1145.67
424.77	1149.27
425.14	1153.09
425.51	1156.18
425.87	1158.54
426.24	1166.22
426.61	1174.36
426.97	1183.42
427.34	1192.57
427.70	1199.74
428.07	1208.16
428.44	1214.20
428.80	1219.93
429.17	1225.62
429.53	1236.48
429.90	1246.85
430.27	1258.62
430.63	1273.11
431.00	1288.82
431.36	1303.54
431.73	1319.38
432.09	1334.29
432.46	1351.05
432.83	1369.66
433.19	1391.71
433.56	1410.76
433.92	1435.83
434.29	1463.56
434.65	1489.26
435.02	1519.94
435.38	1554.16
435.75	1587.91
436.11	1622.32
436.48	1662.46
436.84	1699.70
437.21	1741.71
437.57	1787.56
437.94	1838.26
438.30	1892.74
438.67	1952.97
439.03	2018.10
439.40	2088.37
439.76	2155.68
440.13	2232.12
440.49	2308.70
440.86	2382.13
441.22	2466.95
441.59	2555.07
441.95	2650.89
442.32	2752.35
442.68	2873.29
443.05	2991.81
443.41	3120.54
443.78	3248.36
444.14	3385.87
444.51	3518.53
444.87	3676.44
445.24	3843.28
445.60	4023.78
445.96	4200.09
446.33	4411.96
446.69	4608.42
447.06	4818.53
447.42	5034.89
447.79	5267.75
448.15	5521.67
448.51	5793.93
448.88	6104.30
449.24	6403.99
449.61	6755.14
449.97	7096.79
450.33	7465.89
450.70	7819.26
451.06	8232.76
451.43	8620.59
451.79	9076.69
452.15	9568.06
452.52	10093.14
452.88	10644.62
453.24	11275.20
453.61	11984.64
453.97	12671.33
454.34	13348.36
454.70	14138.24
455.06	14916.84
455.43	15639.90
455.79	16309.06
456.15	17117.65
456.52	17856.84
456.88	18748.98
457.24	19634.43
457.61	20747.02
457.97	21783.86
458.33	22881.78
458.70	23932.42
459.06	24931.64
459.42	25916.42
459.79	26809.95
460.15	27810.25
460.51	28766.89
460.88	29842.09
461.24	30795.06
461.60	31947.14
461.96	32983.18
462.33	33997.33
462.69	34989.09
463.05	36078.12
463.42	37056.20
463.78	37933.90
464.14	38647.60
464.50	39355.24
464.87	39917.77
465.23	40264.42
465.59	40699.22
465.95	41061.52
466.32	41308.82
466.68	41519.35
467.04	41662.82
467.40	41667.78
467.77	41756.19
468.13	41697.91
468.49	41553.47
468.85	41444.40
469.22	41297.65
469.58	41053.44
469.94	40885.27
470.30	40619.90
470.66	40227.33
471.03	39724.46
471.39	39328.96
471.75	38610.06
472.11	37936.39
472.47	37447.82
472.84	36942.92
473.20	36240.08
473.56	35853.78
473.92	35290.62
474.28	34683.74
474.65	34039.35
475.01	33390.01
475.37	32600.29
475.73	31940.64
476.09	31266.42
476.45	30652.85
476.81	30126.44
477.18	29596.19
477.54	29139.88
477.90	28689.19
478.26	28135.86
478.62	27619.80
478.98	27141.65
479.34	26680.14
479.71	26132.69
480.07	25696.86
480.43	25257.61
480.79	24809.33
481.15	24356.06
481.51	24004.35
481.87	23712.93
482.23	23362.43
482.59	23064.08
482.96	22761.57
483.32	22456.69
483.68	22036.52
484.04	21690.35
484.40	21271.02
484.76	20837.74
485.12	20391.87
485.48	19972.42
485.84	19487.39
486.20	19072.04
486.56	18662.03
486.92	18291.12
487.28	17919.16
487.64	17520.45
488.00	17146.02
488.37	16783.37
488.73	16362.03
489.09	15926.39
489.45	15546.94
489.81	15108.81
490.17	14674.04
490.53	14273.17
490.89	13870.60
491.25	13458.03
491.61	13074.07
491.97	12686.59
492.33	12298.58
492.69	11928.75
493.05	11584.79
493.41	11251.40
493.77	10917.52
494.13	10612.08
494.49	10326.98
494.85	10056.21
495.21	9796.92
495.57	9554.30
495.93	9298.39
496.29	9061.78
496.64	8833.67
497.00	8589.46
497.36	8344.55
497.72	8114.89
498.08	7897.74
498.44	7679.67
498.80	7478.25
499.16	7280.35
499.52	7083.16
499.88	6906.52
500.24	6732.71
500.60	6562.18
500.96	6411.50
501.32	6260.82
501.68	6089.75
502.03	5924.93
502.39	5765.21
502.75	5590.67
503.11	5444.53
503.47	5305.13
503.83	5169.87
504.19	5045.45
504.55	4930.06
504.91	4808.65
505.26	4691.37
505.62	4573.34
505.98	4460.83
506.34	4351.71
506.70	4237.14
507.06	4129.36
507.42	4033.66
507.78	3939.26
508.13	3845.38
508.49	3765.52
508.85	3692.27
509.21	3607.73
509.57	3525.15
509.93	3443.30
510.28	3357.50
510.64	3272.05
511.00	3200.45
511.36	3128.71
511.72	3062.85
512.07	3004.17
512.43	2948.86
512.79	2886.26
513.15	2830.34
513.51	2775.38
513.86	2715.77
514.22	2656.81
514.58	2610.89
514.94	2561.81
515.30	2515.54
515.65	2472.59
516.01	2436.43
516.37	2388.42
516.73	2349.22
517.08	2315.94
517.44	2276.76
517.80	2242.42
518.16	2206.87
518.51	2175.90
518.87	2142.78
519.23	2117.15
519.59	2081.65
519.94	2057.73
520.30	2022.20
520.66	1983.72
521.01	1949.24
521.37	1921.49
521.73	1892.56
522.09	1874.42
522.44	1853.10
522.80	1837.62
523.16	1816.40
523.51	1793.27
523.87	1768.46
524.23	1751.40
524.58	1724.86
524.94	1705.29
525.30	1688.98
525.65	1669.22
526.01	1649.59
526.37	1631.31
526.72	1613.19
527.08	1594.86
527.44	1583.37
527.79	1571.08
528.15	1556.53
528.51	1543.86
528.86	1527.01
529.22	1506.23
529.58	1489.66
529.93	1483.41
530.29	1470.58
530.65	1461.10
531.00	1451.86
531.36	1440.88
531.71	1423.98
532.07	1410.83
532.43	1399.90
532.78	1392.27
533.14	1384.87
533.49	1377.90
533.85	1371.81
534.21	1364.65
534.56	1356.60
534.92	1349.86
535.27	1344.03
535.63	1333.15
535.98	1326.24
536.34	1318.12
536.69	1311.80
537.05	1303.16
537.41	1297.10
537.76	1287.88
538.12	1279.52
538.47	1271.66
538.83	1263.07
539.18	1259.82
539.54	1259.72
539.89	1256.91
540.25	1254.97
540.60	1256.54
540.96	1256.42
541.31	1246.45
541.67	1245.21
542.02	1237.91
542.38	1230.44
542.73	1219.00
543.09	1219.68
543.44	1212.26
543.80	1205.21
544.15	1206.15
544.51	1205.68
544.86	1198.03
545.22	1196.39
545.57	1198.10
545.93	1191.87
546.28	1190.58
546.64	1189.18
546.99	1185.11
547.35	1181.01
547.70	1180.17
548.05	1177.06
548.41	1175.81
548.76	1173.87
549.12	1172.42
549.47	1165.61
549.83	1164.53
550.18	1162.66
550.53	1162.99
550.89	1160.53
551.24	1161.35
551.60	1158.17
551.95	1157.68
552.30	1154.33
552.66	1149.39
553.01	1150.07
553.37	1151.68
553.72	1149.06
554.07	1147.92
554.43	1148.03
554.78	1145.55
555.13	1144.71
555.49	1142.77
555.84	1142.60
556.19	1144.38
556.55	1141.39
556.90	1136.45
557.26	1135.67
557.61	1133.92
557.96	1129.80
558.32	1126.03
558.67	1123.97
559.02	1124.74
559.37	1121.91
559.73	1123.43
560.08	1123.22
560.43	1123.11
560.79	1121.65
561.14	1120.32
561.49	1118.68
561.85	1120.30
562.20	1118.73
562.55	1115.34
562.90	1116.65
563.26	1114.94
563.61	1115.05
563.96	1116.18
564.32	1119.20
564.67	1117.72
565.02	1115.08
565.37	1113.25
565.73	1113.67
566.08	1110.82
566.43	1110.23
566.78	1107.66
567.14	1105.95
567.49	1102.70
567.84	1102.13
568.19	1102.53
568.54	1104.43
568.90	1107.66
569.25	1108.10
569.60	1105.72
569.95	1105.20
570.31	1105.06
570.66	1102.56
571.01	1101.97
571.36	1105.69
571.71	1103.63
572.06	1103.52
572.42	1103.21
572.77	1101.69
573.12	1098.53
573.47	1098.90
573.82	1100.85
574.18	1100.22
574.53	1099.05
574.88	1100.78
575.23	1100.38
575.58	1098.13
575.93	1099.61
576.28	1102.23
576.64	1101.97
576.99	1104.99
577.34	1106.37
577.69	1102.91
578.04	1100.80
578.39	1101.41
578.74	1098.72
579.09	1094.57
579.44	1095.25
579.80	1095.11
580.15	1093.08
580.50	1091.27
580.85	1094.22
581.20	1093.97
581.55	1094.60
581.90	1091.84
582.25	1091.16
582.60	1086.90
582.95	1088.51
583.30	1088.70
583.65	1088.86
584.00	1090.10
584.35	1093.36
584.71	1088.51
585.06	1087.95
585.41	1090.22
585.76	1091.88
586.11	1094.65
586.46	1098.55
586.81	1098.76
587.16	1099.54
587.51	1097.69
587.86	1095.67
588.21	1096.24
588.56	1099.58
588.91	1100.29
589.26	1102.70
589.61	1101.53
589.96	1098.30
590.31	1093.40
590.66	1091.84
591.01	1086.24
591.36	1089.24
591.71	1090.10
592.06	1091.04
592.41	1088.21
592.76	1093.01
593.10	1092.56
593.45	1094.04
593.80	1094.69
594.15	1095.63
594.50	1095.23
594.85	1092.19
595.20	1091.88
595.55	1089.80
595.90	1088.63
596.25	1085.87
596.60	1087.34
596.95	1087.11
597.30	1086.99
597.64	1101.36
597.99	1099.56
598.34	1098.65
598.69	1098.06
599.04	1096.07
599.39	1082.31
599.74	1084.63
600.09	1087.48
600.44	1088.09
600.78	1090.06
601.13	1091.11
601.48	1089.29
601.83	1085.49
602.18	1083.20
602.53	1080.39
602.88	1080.25
603.22	1080.37
603.57	1082.73
603.92	1086.03
604.27	1089.47
604.62	1092.14
604.97	1093.76
605.31	1090.34
605.66	1088.26
606.01	1087.67
606.36	1087.69
606.71	1088.61
607.05	1090.90
607.40	1087.76
607.75	1086.15
608.10	1083.36
608.44	1084.46
608.79	1086.62
609.14	1089.78
609.49	1092.87
609.84	1089.78
610.18	1086.17
610.53	1083.79
610.88	1086.13
611.23	1086.64
611.57	1090.74
611.92	1092.02
612.27	1089.75
612.62	1087.76
612.96	1083.97
613.31	1086.24
613.66	1087.53
614.00	1089.94
614.35	1088.72
614.70	1092.21
615.05	1088.61
615.39	1087.86
615.74	1085.73
616.09	1088.09
616.43	1085.99
616.78	1086.34
617.13	1085.03
617.47	1085.75
617.82	1082.19
618.17	1084.70
618.51	1085.61
618.86	1087.44
619.21	1087.34
619.55	1089.14
619.90	1090.06
620.25	1087.46
620.59	1086.57
620.94	1089.10
621.29	1087.95
621.63	1086.99
621.98	1090.43
622.32	1090.55
622.67	1086.69
623.02	1088.70
623.36	1086.15
623.71	1082.80
624.05	1080.51
624.40	1081.42
624.75	1077.02
625.09	1076.37
625.44	1077.54
625.78	1076.76
626.13	1078.05
626.48	1083.15
626.82	1082.36
627.17	1084.44
627.51	1085.10
627.86	1083.71
628.20	1079.64
628.55	1082.66
628.89	1080.72
629.24	1081.51
629.58	1083.39
629.93	1085.56
630.28	1085.70
630.62	1085.05
630.97	1083.41
631.31	1082.69
631.66	1080.20
632.00	1080.37
632.35	1078.64
632.69	1079.97
633.04	1079.34
633.38	1084.37
633.73	1083.22
634.07	1086.31
634.42	1086.52
634.76	1085.17
635.11	1085.26
635.45	1086.80
635.79	1086.55
636.14	1086.55
636.48	1087.97
636.83	1086.90
637.17	1083.18
637.52	1080.53
637.86	1081.56
638.21	1079.08
638.55	1078.14
638.89	1077.75
639.24	1079.38
639.58	1081.33
639.93	1082.99
640.27	1085.66
640.61	1089.40
640.96	1088.09
641.30	1087.58
641.65	1087.41
641.99	1083.39
642.33	1083.62
642.68	1083.74
643.02	1084.67
643.37	1084.91
643.71	1087.41
644.05	1086.15
644.40	1086.29
644.74	1083.62
645.08	1086.06
645.43	1085.54
645.77	1082.90
646.11	1084.49
646.46	1083.74
646.80	1082.87
647.14	1079.85
647.49	1081.89
647.83	1078.64
648.17	1077.47
648.52	1076.74
648.86	1075.80
649.20	1078.07
649.55	1081.23
649.89	1083.13
650.23	1085.19
650.57	1088.56
650.92	1085.73
651.26	1085.33
651.60	1084.11
651.95	1083.22
652.29	1080.63
652.63	1079.88
652.97	1079.03
653.32	1079.38
653.66	1082.64
654.00	1087.97
654.34	1088.86
654.69	1090.39
655.03	1090.57
655.37	1084.96
655.71	1080.86
656.05	1080.46
656.40	1078.82
656.74	1078.82
657.08	1078.87
657.42	1079.20
657.76	1080.70
658.11	1081.70
658.45	1082.43
658.79	1083.79
659.13	1083.29
659.47	1081.14
659.82	1082.24
660.16	1083.90
660.50	1086.80
660.84	1087.48
661.18	1089.85
661.52	1088.93
661.87	1088.49
662.21	1085.82
662.55	1085.77
662.89	1085.00
663.23	1081.47
663.57	1081.68
663.91	1082.24
664.25	1083.69
664.60	1084.21
664.94	1084.37
665.28	1083.79
665.62	1078.38
665.96	1074.07
666.30	1072.92
666.64	1075.80
666.98	1073.67
667.32	1075.24
667.66	1081.05
668.01	1080.63
668.35	1083.48
668.69	1085.84
669.03	1085.84
669.37	1083.08
669.71	1085.40
670.05	1083.62
670.39	1080.48
670.73	1081.98
671.07	1081.91
671.41	1080.95
671.75	1080.74
672.09	1079.85
672.43	1081.33
672.77	1082.01
673.11	1081.30
673.45	1080.95
673.79	1083.13
674.13	1082.94
674.47	1082.36
674.81	1082.26
675.15	1082.26
675.49	1085.28
675.83	1088.04
676.17	1085.49
676.51	1085.91
676.85	1085.03
677.19	1081.51
677.53	1078.40
677.87	1080.09
678.21	1078.05
678.55	1077.89
678.89	1078.80
679.23	1080.84
679.57	1083.50
679.90	1085.87
680.24	1086.06
680.58	1085.56
680.92	1082.64
681.26	1080.09
681.60	1079.24
681.94	1080.67
682.28	1084.21
682.62	1084.32
682.96	1083.64
683.29	1085.63
683.63	1085.61
683.97	1082.92
684.31	1080.06
684.65	1082.43
684.99	1079.53
685.33	1080.16
685.67	1081.61
686.00	1086.06
686.34	1084.53
686.68	1086.55
687.02	1083.04
687.36	1084.86
687.70	1085.07
688.03	1083.79
688.37	1083.11
688.71	1086.43
689.05	1082.64
689.39	1080.67
689.72	1080.86
690.06	1080.32
690.40	1080.72
690.74	1080.65
691.08	1080.63
691.41	1081.16
691.75	1082.94
692.09	1084.04
692.43	1084.91
692.76	1089.57
693.10	1091.60
693.44	1091.63
693.78	1090.24
694.11	1088.70
694.45	1085.75
694.79	1085.38
695.13	1086.15
695.46	1082.80
695.80	1087.60
696.14	1085.70
696.48	1086.80
696.81	1086.10
697.15	1086.76
697.49	1084.07
697.82	1086.08
698.16	1083.86
698.50	1084.18
698.83	1082.97
699.17	1081.37
699.51	1081.07
699.84	1083.55
700.18	1082.43
700.52	1084.09
700.85	1085.21
701.19	1084.77
701.53	1082.19
701.86	1082.97
702.20	1084.91
702.54	1084.14
702.87	1085.24
703.21	1084.79
703.55	1082.78
703.88	1080.18
704.22	1079.99
704.55	1078.19
704.89	1076.60
705.23	1075.31
705.56	1077.44
705.90	1080.25
706.23	1078.19
706.57	1080.39
706.91	1079.74
707.24	1080.81
707.58	1076.88
707.91	1077.96
708.25	1077.82
708.58	1079.74
708.92	1074.96
709.26	1076.51
709.59	1079.55
709.93	1080.58
710.26	1082.73
710.60	1083.93
710.93	1082.87
711.27	1082.31
711.60	1079.69
711.94	1078.14
712.27	1077.23
712.61	1079.85
712.94	1079.29
713.28	1080.46
713.61	1081.56
713.95	1080.41
714.28	1078.50
714.62	1080.34
714.95	1081.14
715.29	1081.14
715.62	1082.85
715.96	1082.80
716.29	1079.95
716.63	1079.99
716.96	1076.13
717.29	1077.56
717.63	1078.38
717.96	1078.14
718.30	1074.63
718.63	1078.36
718.97	1077.35
719.30	1075.17
719.63	1076.41
719.97	1081.84
720.30	1078.64
720.64	1079.06
720.97	1082.15
721.30	1080.98
721.64	1080.48
721.97	1081.61
722.31	1079.85
722.64	1076.41
722.97	1078.03
723.31	1077.07
723.64	1076.69
723.97	1078.43
724.31	1079.53
724.64	1078.66
724.98	1076.41
725.31	1077.11
725.64	1078.85
725.98	1077.04
726.31	1078.73
726.64	1079.64
726.97	1080.79
727.31	1079.78
727.64	1081.70
727.97	1080.30
728.31	1079.69
728.64	1080.30
728.97	1079.27
729.31	1082.52
729.64	1082.50
729.97	1081.30
730.30	1082.57
730.64	1085.03
730.97	1082.90
731.30	1083.86
731.63	1087.88
731.97	1087.25
732.30	1088.37
732.63	1085.33
732.96	1083.20
733.30	1083.81
733.63	1077.65
733.96	1071.68
734.29	1071.40
734.63	1072.53
734.96	1066.98
735.29	1071.80
735.62	1075.03
735.95	1078.26
736.29	1077.54
736.62	1083.11
736.95	1082.85
737.28	1086.01
737.61	1086.66
737.94	1087.72
738.28	1086.90
738.61	1087.51
738.94	1086.17
739.27	1088.28
739.60	1087.76
739.93	1083.57
740.27	1082.17
740.60	1080.09
740.93	1076.62
741.26	1076.23
741.59	1079.76
741.92	1079.29
742.25	1078.38
742.58	1076.51
742.91	1074.94
743.25	1074.70
743.58	1075.71
743.91	1073.95
744.24	1074.66
744.57	1074.89
744.90	1075.29
745.23	1077.33
745.56	1079.60
745.89	1080.48
746.22	1079.38
746.55	1077.61
746.88	1073.56
747.21	1074.52
747.54	1075.13
747.87	1079.64
748.20	1080.86
748.53	1081.56
748.87	1080.06
749.20	1078.10
749.53	1078.43
749.86	1078.50
750.19	1078.54
750.52	1076.83
750.85	1076.62
751.18	1074.75
751.51	1073.72
751.84	1075.01
752.16	1080.11
752.49	1081.68
752.82	1081.63
753.15	1084.42
753.48	1084.91
753.81	1082.29
754.14	1082.19
754.47	1080.18
754.80	1078.85
755.13	1079.48
755.46	1080.06
755.79	1079.76
756.12	1083.32
756.45	1083.27
756.78	1082.26
757.11	1081.96
757.43	1080.09
757.76	1075.57
758.09	1074.45
758.42	1076.06
758.75	1076.18
759.08	1079.46
759.41	1083.86
759.74	1085.10
760.07	1084.56
760.39	1087.46
760.72	1086.41
761.05	1082.99
761.38	1081.51
761.71	1081.26
762.04	1079.71
762.36	1081.94
762.69	1084.07
763.02	1084.42
763.35	1082.26
763.68	1080.70
