SpectraSuite Data File
++++++++++++++++++++++++++++++++++++
Date: Mon Aug 26 10:22:11 PDT 2019
User: corrico
Dark Spectrum Present: No
Reference Spectrum Present: No
Number of Sampled Component Spectra: 1
Spectrometers: USB2+H06089
Integration Time (usec): 2000 (USB2+H06089)
Spectra Averaged: 20 (USB2+H06089)
Boxcar Smoothing: 2 (USB2+H06089)
Correct for Electrical Dark: No (USB2+H06089)
Strobe/Lamp Enabled: No (USB2+H06089)
Correct for Detector Non-linearity: No (USB2+H06089)
Correct for Stray Light: No (USB2+H06089)
Number of Pixels in Processed Spectrum: 2048
>>>>>Begin Processed Spectral Data<<<<<
339.70	1031.83
340.07	1031.83
340.45	992.27
340.82	970.34
341.19	948.08
341.57	923.06
341.94	909.37
342.31	905.13
342.69	900.47
343.06	897.24
343.43	894.34
343.81	899.37
344.18	898.13
344.55	904.01
344.93	906.98
345.30	915.06
345.67	922.97
346.04	933.57
346.42	939.07
346.79	945.79
347.16	953.39
347.54	961.80
347.91	971.21
348.28	979.23
348.65	992.76
349.03	1004.82
349.40	1015.70
349.77	1023.52
350.14	1031.87
350.52	1039.85
350.89	1042.80
351.26	1047.32
351.63	1053.78
352.01	1060.59
352.38	1061.90
352.75	1067.87
353.12	1070.14
353.50	1074.91
353.87	1076.62
354.24	1078.31
354.61	1079.60
354.98	1081.63
355.36	1084.25
355.73	1083.39
356.10	1086.13
356.47	1088.72
356.84	1089.85
357.22	1084.96
357.59	1085.66
357.96	1085.91
358.33	1080.79
358.70	1082.31
359.08	1084.60
359.45	1084.02
359.82	1082.08
360.19	1085.47
360.56	1084.09
360.94	1083.39
361.31	1080.91
361.68	1079.64
362.05	1077.68
362.42	1076.55
362.79	1074.70
363.16	1078.10
363.54	1078.24
363.91	1080.04
364.28	1080.11
364.65	1079.27
365.02	1077.91
365.39	1077.51
365.76	1074.07
366.14	1071.78
366.51	1073.09
366.88	1077.04
367.25	1076.72
367.62	1075.24
367.99	1074.66
368.36	1075.13
368.73	1072.15
369.10	1070.12
369.48	1070.00
369.85	1072.27
370.22	1071.97
370.59	1070.82
370.96	1073.60
371.33	1075.52
371.70	1075.62
372.07	1074.77
372.44	1074.87
372.81	1074.77
373.18	1075.57
373.55	1076.60
373.93	1076.53
374.30	1077.65
374.67	1080.25
375.04	1082.61
375.41	1083.60
375.78	1082.33
376.15	1081.14
376.52	1077.47
376.89	1076.30
377.26	1074.70
377.63	1076.83
378.00	1080.81
378.37	1083.71
378.74	1081.49
379.11	1083.62
379.48	1082.45
379.85	1079.67
380.22	1081.19
380.59	1083.81
380.96	1083.71
381.33	1086.78
381.70	1087.53
382.07	1082.90
382.44	1082.05
382.81	1079.36
383.18	1076.11
383.55	1075.90
383.92	1078.87
384.29	1078.47
384.66	1082.29
385.03	1080.91
385.40	1082.10
385.77	1082.87
386.14	1083.62
386.51	1081.07
386.88	1086.52
387.25	1083.43
387.62	1080.41
387.99	1083.08
388.36	1083.76
388.73	1082.47
389.10	1085.38
389.46	1088.70
389.83	1088.07
390.20	1088.89
390.57	1086.10
390.94	1085.19
391.31	1085.77
391.68	1084.00
392.05	1084.07
392.42	1086.31
392.79	1086.94
393.16	1084.21
393.53	1084.46
393.89	1085.35
394.26	1086.13
394.63	1086.34
395.00	1087.27
395.37	1089.36
395.74	1086.01
396.11	1082.19
396.48	1083.04
396.84	1084.49
397.21	1083.18
397.58	1084.79
397.95	1089.31
398.32	1088.07
398.69	1088.65
399.06	1089.26
399.42	1090.03
399.79	1089.68
400.16	1085.42
400.53	1086.36
400.90	1084.18
401.27	1082.15
401.64	1081.09
402.00	1087.88
402.37	1087.69
402.74	1090.06
403.11	1089.52
403.48	1088.35
403.84	1088.04
404.21	1087.04
404.58	1089.73
404.95	1090.29
405.32	1097.22
405.68	1093.97
406.05	1096.47
406.42	1094.57
406.79	1095.89
407.16	1090.97
407.52	1091.98
407.89	1090.15
408.26	1087.83
408.63	1092.35
408.99	1092.42
409.36	1094.46
409.73	1093.64
410.10	1095.70
410.47	1093.87
410.83	1094.88
411.20	1094.29
411.57	1093.33
411.94	1094.83
412.30	1092.75
412.67	1093.92
413.04	1097.43
413.40	1098.83
413.77	1098.11
414.14	1098.60
414.51	1096.45
414.87	1094.46
415.24	1095.28
415.61	1096.28
415.97	1099.68
416.34	1104.76
416.71	1107.19
417.08	1110.68
417.44	1112.46
417.81	1111.17
418.18	1111.71
418.54	1112.74
418.91	1111.57
419.28	1111.54
419.64	1114.66
420.01	1116.44
420.38	1116.88
420.74	1119.34
421.11	1124.42
421.48	1125.75
421.84	1128.16
422.21	1129.57
422.58	1132.26
422.94	1131.44
423.31	1132.70
423.68	1134.67
424.04	1142.11
424.41	1144.15
424.77	1150.23
425.14	1155.05
425.51	1157.72
425.87	1159.78
426.24	1168.14
426.61	1173.61
426.97	1180.89
427.34	1188.29
427.70	1194.45
428.07	1202.78
428.44	1210.36
428.80	1219.07
429.17	1228.69
429.53	1240.58
429.90	1254.67
430.27	1265.36
430.63	1277.35
431.00	1289.87
431.36	1305.08
431.73	1315.31
432.09	1332.86
432.46	1350.00
432.83	1368.91
433.19	1387.68
433.56	1411.62
433.92	1437.09
434.29	1465.25
434.65	1495.58
435.02	1521.77
435.38	1555.68
435.75	1585.62
436.11	1624.36
436.48	1663.75
436.84	1710.07
437.21	1750.32
437.57	1796.20
437.94	1843.66
438.30	1897.96
438.67	1956.97
439.03	2021.73
439.40	2097.21
439.76	2169.65
440.13	2243.40
440.49	2323.50
440.86	2400.43
441.22	2481.72
441.59	2569.74
441.95	2671.60
442.32	2773.75
442.68	2896.76
443.05	3022.22
443.41	3154.34
443.78	3283.47
444.14	3419.57
444.51	3553.38
444.87	3711.64
445.24	3872.18
445.60	4055.56
445.96	4241.03
446.33	4449.87
446.69	4653.78
447.06	4870.44
447.42	5088.16
447.79	5323.67
448.15	5591.52
448.51	5863.23
448.88	6188.66
449.24	6496.11
449.61	6845.69
449.97	7202.23
450.33	7578.51
450.70	7931.09
451.06	8360.02
451.43	8766.45
451.79	9218.39
452.15	9717.69
452.52	10248.48
452.88	10789.38
453.24	11417.46
453.61	12125.43
453.97	12825.93
454.34	13523.31
454.70	14336.39
455.06	15134.68
455.43	15875.57
455.79	16545.95
456.15	17340.40
456.52	18093.75
456.88	18996.56
457.24	19908.92
457.61	21056.51
457.97	22124.85
458.33	23219.47
458.70	24267.05
459.06	25258.34
459.42	26248.27
459.79	27162.62
460.15	28209.05
460.51	29194.70
460.88	30270.17
461.24	31254.46
461.60	32431.00
461.96	33477.62
462.33	34513.87
462.69	35542.09
463.05	36636.64
463.42	37624.28
463.78	38534.14
464.14	39278.00
464.50	40039.80
464.87	40566.31
465.23	40885.30
465.59	41303.88
465.95	41634.60
466.32	41845.97
466.68	42117.26
467.04	42284.70
467.40	42274.57
467.77	42382.77
468.13	42309.65
468.49	42135.59
468.85	42034.10
469.22	41902.70
469.58	41619.52
469.94	41475.04
470.30	41245.27
470.66	40882.14
471.03	40385.66
471.39	40043.36
471.75	39318.78
472.11	38610.44
472.47	38103.36
472.84	37585.40
473.20	36873.92
473.56	36469.06
473.92	35895.04
474.28	35265.95
474.65	34588.65
475.01	33909.61
475.37	33087.57
475.73	32406.82
476.09	31687.93
476.45	31069.65
476.81	30510.36
477.18	29976.81
477.54	29512.03
477.90	29078.25
478.26	28513.97
478.62	27992.03
478.98	27554.89
479.34	27100.83
479.71	26557.59
480.07	26123.12
480.43	25689.42
480.79	25223.86
481.15	24775.53
481.51	24392.45
481.87	24076.34
482.23	23724.63
482.59	23387.66
482.96	23054.86
483.32	22750.73
483.68	22347.41
484.04	21989.38
484.40	21573.56
484.76	21158.26
485.12	20709.32
485.48	20276.11
485.84	19787.19
486.20	19368.99
486.56	18928.87
486.92	18545.75
487.28	18162.25
487.64	17764.81
488.00	17380.56
488.37	16997.30
488.73	16566.45
489.09	16114.26
489.45	15706.31
489.81	15257.58
490.17	14821.56
490.53	14422.92
490.89	14012.53
491.25	13598.21
491.61	13198.68
491.97	12812.98
492.33	12411.46
492.69	12057.27
493.05	11723.88
493.41	11403.91
493.77	11075.77
494.13	10780.74
494.49	10488.48
494.85	10203.19
495.21	9935.57
495.57	9680.69
495.93	9411.60
496.29	9170.55
496.64	8939.93
497.00	8687.06
497.36	8431.52
497.72	8191.59
498.08	7956.70
498.44	7721.94
498.80	7513.26
499.16	7316.21
499.52	7115.23
499.88	6939.06
500.24	6777.70
500.60	6614.42
500.96	6465.40
501.32	6310.41
501.68	6135.95
502.03	5960.22
502.39	5799.54
502.75	5625.97
503.11	5481.35
503.47	5343.21
503.83	5215.23
504.19	5086.87
504.55	4969.10
504.91	4856.89
505.26	4743.91
505.62	4628.34
505.98	4513.42
506.34	4393.82
506.70	4271.06
507.06	4159.58
507.42	4048.14
507.78	3953.82
508.13	3871.36
508.49	3799.27
508.85	3721.92
509.21	3644.35
509.57	3559.09
509.93	3469.96
510.28	3372.43
510.64	3293.53
511.00	3221.09
511.36	3150.27
511.72	3086.39
512.07	3031.18
512.43	2970.98
512.79	2912.89
513.15	2850.63
513.51	2791.09
513.86	2732.58
514.22	2680.29
514.58	2625.92
514.94	2578.69
515.30	2534.10
515.65	2489.37
516.01	2449.77
516.37	2407.17
516.73	2371.92
517.08	2335.36
517.44	2296.79
517.80	2255.32
518.16	2223.44
518.51	2186.55
518.87	2155.54
519.23	2128.69
519.59	2099.67
519.94	2064.82
520.30	2037.02
520.66	2004.60
521.01	1972.53
521.37	1945.20
521.73	1921.60
522.09	1891.64
522.44	1868.75
522.80	1843.27
523.16	1815.72
523.51	1792.52
523.87	1772.11
524.23	1748.92
524.58	1730.08
524.94	1714.75
525.30	1692.56
525.65	1675.96
526.01	1656.77
526.37	1641.44
526.72	1622.16
527.08	1607.99
527.44	1592.85
527.79	1577.94
528.15	1564.41
528.51	1546.91
528.86	1531.62
529.22	1516.15
529.58	1502.83
529.93	1488.09
530.29	1477.51
530.65	1467.91
531.00	1456.82
531.36	1444.04
531.71	1431.10
532.07	1418.83
532.43	1405.42
532.78	1392.17
533.14	1383.63
533.49	1372.63
533.85	1364.30
534.21	1357.07
534.56	1350.82
534.92	1345.50
535.27	1341.83
535.63	1337.05
535.98	1329.85
536.34	1323.62
536.69	1311.82
537.05	1301.41
537.41	1291.25
537.76	1284.46
538.12	1273.72
538.47	1268.94
538.83	1262.44
539.18	1255.25
539.54	1250.22
539.89	1251.25
540.25	1246.34
540.60	1243.90
540.96	1245.96
541.31	1243.69
541.67	1237.72
542.02	1236.34
542.38	1233.28
542.73	1228.06
543.09	1220.87
543.44	1218.69
543.80	1211.72
544.15	1209.19
544.51	1208.84
544.86	1205.05
545.22	1199.66
545.57	1199.45
545.93	1196.20
546.28	1189.51
546.64	1188.64
546.99	1188.62
547.35	1184.50
547.70	1179.30
548.05	1177.78
548.41	1175.44
548.76	1170.17
549.12	1170.85
549.47	1172.94
549.83	1171.53
550.18	1170.67
550.53	1166.29
550.89	1161.28
551.24	1157.75
551.60	1155.29
551.95	1152.99
552.30	1154.09
552.66	1152.32
553.01	1146.79
553.37	1142.63
553.72	1138.65
554.07	1136.49
554.43	1137.57
554.78	1141.13
555.13	1142.06
555.49	1139.89
555.84	1140.59
556.19	1137.92
556.55	1135.18
556.90	1135.65
557.26	1136.28
557.61	1133.94
557.96	1131.06
558.32	1125.17
558.67	1122.29
559.02	1120.09
559.37	1117.84
559.73	1117.47
560.08	1119.64
560.43	1119.06
560.79	1121.23
561.14	1119.76
561.49	1120.63
561.85	1120.91
562.20	1119.10
562.55	1116.15
562.90	1116.90
563.26	1113.35
563.61	1111.36
563.96	1110.23
564.32	1114.73
564.67	1115.29
565.02	1116.30
565.37	1114.40
565.73	1114.21
566.08	1112.06
566.43	1106.93
566.78	1105.95
567.14	1108.08
567.49	1110.77
567.84	1109.23
568.19	1112.22
568.54	1111.33
568.90	1108.31
569.25	1105.34
569.60	1101.99
569.95	1102.37
570.31	1102.86
570.66	1103.84
571.01	1104.41
571.36	1102.98
571.71	1103.54
572.06	1100.47
572.42	1098.18
572.77	1096.26
573.12	1097.43
573.47	1093.01
573.82	1096.47
574.18	1098.90
574.53	1100.45
574.88	1101.36
575.23	1103.66
575.58	1099.98
575.93	1100.68
576.28	1098.90
576.64	1100.40
576.99	1099.19
577.34	1100.10
577.69	1100.22
578.04	1100.89
578.39	1097.66
578.74	1096.59
579.09	1098.60
579.44	1095.58
579.80	1093.12
580.15	1091.18
580.50	1093.47
580.85	1089.05
581.20	1092.33
581.55	1092.37
581.90	1095.30
582.25	1093.52
582.60	1098.62
582.95	1096.40
583.30	1096.12
583.65	1092.16
584.00	1089.75
584.35	1089.47
584.71	1085.49
585.06	1084.53
585.41	1085.38
585.76	1086.73
586.11	1081.30
586.46	1085.42
586.81	1088.16
587.16	1092.05
587.51	1093.33
587.86	1095.32
588.21	1096.78
588.56	1094.27
588.91	1091.56
589.26	1089.52
589.61	1091.13
589.96	1087.25
590.31	1087.69
590.66	1087.34
591.01	1086.20
591.36	1083.79
591.71	1084.07
592.06	1080.98
592.41	1081.09
592.76	1083.36
593.10	1081.58
593.45	1084.63
593.80	1089.61
594.15	1091.25
594.50	1089.31
594.85	1091.16
595.20	1087.23
595.55	1086.57
595.90	1085.10
596.25	1085.99
596.60	1086.78
596.95	1089.78
597.30	1088.47
597.64	1096.52
597.99	1096.66
598.34	1095.37
598.69	1093.29
599.04	1094.95
599.39	1087.25
599.74	1085.05
600.09	1085.77
600.44	1088.30
600.78	1087.25
601.13	1088.07
601.48	1087.65
601.83	1087.90
602.18	1085.31
602.53	1084.28
602.88	1083.97
603.22	1088.82
603.57	1087.76
603.92	1088.07
604.27	1087.23
604.62	1085.47
604.97	1084.70
605.31	1087.48
605.66	1088.00
606.01	1088.58
606.36	1086.99
606.71	1086.20
607.05	1083.90
607.40	1084.02
607.75	1081.68
608.10	1084.11
608.44	1084.44
608.79	1083.32
609.14	1082.92
609.49	1087.20
609.84	1086.85
610.18	1086.97
610.53	1086.94
610.88	1087.04
611.23	1086.71
611.57	1088.14
611.92	1086.78
612.27	1088.56
612.62	1085.31
612.96	1082.22
613.31	1079.60
613.66	1080.84
614.00	1081.75
614.35	1084.67
614.70	1087.76
615.05	1089.52
615.39	1087.27
615.74	1086.59
616.09	1085.12
616.43	1083.57
616.78	1082.03
617.13	1081.49
617.47	1079.36
617.82	1078.21
618.17	1079.17
618.51	1082.64
618.86	1083.50
619.21	1087.02
619.55	1090.10
619.90	1091.77
620.25	1089.78
620.59	1089.68
620.94	1086.78
621.29	1085.12
621.63	1082.87
621.98	1081.07
622.32	1084.67
622.67	1083.27
623.02	1084.32
623.36	1081.21
623.71	1082.29
624.05	1079.50
624.40	1081.33
624.75	1081.40
625.09	1084.65
625.44	1084.46
625.78	1084.32
626.13	1084.79
626.48	1084.56
626.82	1088.84
627.17	1089.17
627.51	1089.68
627.86	1090.46
628.20	1089.59
628.55	1084.65
628.89	1084.60
629.24	1085.75
629.58	1086.34
629.93	1085.35
630.28	1085.31
630.62	1083.88
630.97	1084.91
631.31	1081.61
631.66	1081.80
632.00	1080.98
632.35	1083.29
632.69	1079.92
633.04	1081.35
633.38	1084.89
633.73	1083.88
634.07	1083.25
634.42	1084.67
634.76	1084.81
635.11	1082.45
635.45	1081.33
635.79	1081.16
636.14	1079.38
636.48	1080.06
636.83	1079.76
637.17	1082.54
637.52	1082.12
637.86	1083.18
638.21	1081.77
638.55	1083.43
638.89	1085.12
639.24	1083.97
639.58	1082.31
639.93	1085.28
640.27	1082.85
640.61	1082.92
640.96	1084.60
641.30	1084.63
641.65	1082.17
641.99	1080.95
642.33	1076.44
642.68	1078.61
643.02	1082.43
643.37	1084.86
643.71	1089.10
644.05	1094.65
644.40	1092.00
644.74	1089.52
645.08	1086.15
645.43	1085.28
645.77	1082.17
646.11	1082.26
646.46	1083.71
646.80	1083.27
647.14	1080.79
647.49	1081.49
647.83	1081.75
648.17	1078.89
648.52	1079.67
648.86	1079.22
649.20	1077.23
649.55	1077.93
649.89	1078.19
650.23	1079.97
650.57	1081.58
650.92	1079.78
651.26	1078.68
651.60	1081.68
651.95	1080.72
652.29	1080.34
652.63	1086.71
652.97	1087.02
653.32	1086.08
653.66	1087.58
654.00	1085.94
654.34	1082.03
654.69	1084.07
655.03	1081.28
655.37	1078.89
655.71	1077.61
656.05	1077.14
656.40	1076.55
656.74	1078.19
657.08	1078.78
657.42	1083.34
657.76	1083.29
658.11	1083.29
658.45	1086.62
658.79	1088.96
659.13	1088.89
659.47	1088.96
659.82	1085.52
660.16	1084.51
660.50	1081.80
660.84	1079.31
661.18	1083.46
661.52	1086.59
661.87	1083.29
662.21	1082.59
662.55	1084.16
662.89	1079.64
663.23	1078.94
663.57	1080.32
663.91	1084.98
664.25	1083.76
664.60	1086.73
664.94	1087.02
665.28	1086.52
665.62	1081.77
665.96	1079.69
666.30	1078.33
666.64	1079.20
666.98	1080.39
667.32	1081.73
667.66	1084.91
668.01	1086.24
668.35	1084.49
668.69	1083.25
669.03	1085.47
669.37	1084.44
669.71	1085.89
670.05	1082.22
670.39	1082.08
670.73	1081.02
671.07	1083.20
671.41	1078.89
671.75	1080.81
672.09	1078.38
672.43	1076.23
672.77	1074.87
673.11	1078.64
673.45	1077.00
673.79	1081.87
674.13	1081.94
674.47	1084.72
674.81	1079.81
675.15	1079.62
675.49	1076.74
675.83	1073.39
676.17	1071.03
676.51	1075.20
676.85	1077.07
677.19	1076.69
677.53	1079.71
677.87	1078.43
678.21	1078.64
678.55	1081.19
678.89	1082.05
679.23	1080.93
679.57	1082.87
679.90	1080.30
680.24	1077.47
680.58	1075.43
680.92	1075.85
681.26	1076.48
681.60	1078.71
681.94	1076.95
682.28	1079.97
682.62	1084.18
682.96	1082.54
683.29	1083.83
683.63	1088.09
683.97	1087.23
684.31	1085.17
684.65	1082.17
684.99	1079.69
685.33	1077.35
685.67	1077.30
686.00	1074.26
686.34	1077.96
686.68	1078.71
687.02	1079.71
687.36	1078.03
687.70	1081.63
688.03	1080.27
688.37	1077.54
688.71	1076.18
689.05	1081.16
689.39	1080.39
689.72	1079.46
690.06	1079.53
690.40	1078.89
690.74	1075.27
691.08	1074.98
691.41	1073.98
691.75	1077.16
692.09	1079.64
692.43	1081.05
692.76	1081.58
693.10	1083.32
693.44	1082.85
693.78	1083.62
694.11	1080.74
694.45	1080.70
694.79	1080.79
695.13	1079.01
695.46	1077.68
695.80	1080.81
696.14	1079.08
696.48	1080.04
696.81	1079.92
697.15	1081.49
697.49	1082.15
697.82	1083.67
698.16	1085.28
698.50	1085.35
698.83	1085.26
699.17	1085.21
699.51	1085.84
699.84	1084.16
700.18	1082.83
700.52	1084.23
700.85	1083.71
701.19	1082.59
701.53	1081.51
701.86	1081.70
702.20	1078.24
702.54	1075.13
702.87	1075.38
703.21	1077.07
703.55	1077.23
703.88	1077.54
704.22	1077.28
704.55	1076.67
704.89	1077.58
705.23	1078.14
705.56	1077.79
705.90	1078.50
706.23	1077.42
706.57	1077.33
706.91	1080.60
707.24	1082.03
707.58	1084.21
707.91	1084.28
708.25	1084.11
708.58	1084.37
708.92	1086.27
709.26	1085.40
709.59	1084.89
709.93	1084.39
710.26	1080.18
710.60	1075.59
710.93	1074.89
711.27	1078.14
711.60	1078.36
711.94	1080.09
712.27	1083.71
712.61	1086.17
712.94	1083.62
713.28	1084.60
713.61	1085.45
713.95	1085.89
714.28	1086.62
714.62	1086.64
714.95	1081.05
715.29	1079.99
715.62	1078.33
715.96	1077.28
716.29	1076.83
716.63	1077.77
716.96	1079.36
717.29	1079.67
717.63	1079.22
717.96	1077.75
718.30	1081.28
718.63	1083.55
718.97	1082.69
719.30	1081.66
719.63	1082.15
719.97	1081.16
720.30	1075.48
720.64	1074.68
720.97	1076.67
721.30	1077.77
721.64	1078.24
721.97	1081.23
722.31	1081.51
722.64	1075.80
722.97	1076.25
723.31	1074.24
723.64	1073.11
723.97	1072.46
724.31	1077.00
724.64	1078.26
724.98	1081.35
725.31	1081.66
725.64	1084.32
725.98	1084.77
726.31	1081.05
726.64	1077.21
726.97	1076.62
727.31	1076.44
727.64	1077.79
727.97	1081.66
728.31	1084.96
728.64	1086.52
728.97	1082.85
729.31	1079.83
729.64	1081.56
729.97	1078.07
730.30	1078.45
730.64	1080.86
730.97	1080.34
731.30	1080.13
731.63	1080.27
731.97	1078.73
732.30	1076.20
732.63	1078.45
732.96	1076.93
733.30	1077.16
733.63	1080.46
733.96	1085.12
734.29	1085.05
734.63	1087.23
734.96	1088.49
735.29	1083.18
735.62	1080.30
735.95	1079.92
736.29	1078.33
736.62	1082.17
736.95	1084.77
737.28	1087.60
737.61	1085.07
737.94	1083.86
738.28	1084.58
738.61	1080.74
738.94	1079.50
739.27	1078.96
739.60	1079.20
739.93	1075.83
740.27	1078.99
740.60	1077.63
740.93	1078.24
741.26	1078.89
741.59	1076.39
741.92	1074.84
742.25	1076.60
742.58	1079.22
742.91	1078.89
743.25	1080.25
743.58	1077.70
743.91	1077.30
744.24	1074.40
744.57	1072.67
744.90	1075.41
745.23	1079.01
745.56	1077.61
745.89	1078.43
746.22	1078.73
746.55	1074.94
746.88	1074.73
747.21	1074.94
747.54	1071.80
747.87	1070.77
748.20	1071.73
748.53	1071.68
748.87	1070.96
749.20	1075.62
749.53	1080.88
749.86	1080.77
750.19	1083.46
750.52	1087.55
750.85	1086.64
751.18	1082.73
751.51	1083.46
751.84	1080.95
752.16	1078.52
752.49	1079.92
752.82	1081.70
753.15	1081.84
753.48	1079.20
753.81	1080.63
754.14	1081.68
754.47	1081.37
754.80	1079.55
755.13	1079.38
755.46	1077.25
755.79	1076.20
756.12	1077.21
756.45	1075.43
756.78	1079.90
757.11	1077.42
757.43	1075.90
757.76	1072.27
758.09	1075.48
758.42	1072.92
758.75	1074.98
759.08	1075.92
759.41	1079.85
759.74	1079.46
760.07	1079.99
760.39	1081.94
760.72	1082.47
761.05	1080.18
761.38	1080.67
761.71	1081.30
762.04	1079.90
762.36	1078.82
762.69	1078.57
763.02	1080.02
763.35	1079.15
763.68	1081.23
