SpectraSuite Data File
++++++++++++++++++++++++++++++++++++
Date: Mon Aug 26 10:22:23 PDT 2019
User: corrico
Dark Spectrum Present: No
Reference Spectrum Present: No
Number of Sampled Component Spectra: 1
Spectrometers: USB2+H06089
Integration Time (usec): 2000 (USB2+H06089)
Spectra Averaged: 20 (USB2+H06089)
Boxcar Smoothing: 2 (USB2+H06089)
Correct for Electrical Dark: No (USB2+H06089)
Strobe/Lamp Enabled: No (USB2+H06089)
Correct for Detector Non-linearity: No (USB2+H06089)
Correct for Stray Light: No (USB2+H06089)
Number of Pixels in Processed Spectrum: 2048
>>>>>Begin Processed Spectral Data<<<<<
339.70	1016.14
340.07	1016.14
340.45	985.93
340.82	967.88
341.19	946.98
341.57	926.64
341.94	916.16
342.31	908.50
342.69	904.38
343.06	904.55
343.43	901.04
343.81	901.36
344.18	904.52
344.55	904.22
344.93	907.12
345.30	915.55
345.67	923.76
346.04	930.83
346.42	941.69
346.79	946.65
347.16	953.51
347.54	962.59
347.91	969.71
348.28	977.06
348.65	985.60
349.03	998.33
349.40	1006.03
349.77	1016.12
350.14	1025.58
350.52	1033.81
350.89	1038.05
351.26	1045.05
351.63	1053.43
352.01	1059.05
352.38	1065.04
352.75	1067.49
353.12	1070.96
353.50	1071.26
353.87	1074.12
354.24	1076.76
354.61	1080.16
354.98	1083.27
355.36	1087.18
355.73	1088.16
356.10	1088.07
356.47	1090.36
356.84	1088.65
357.22	1086.41
357.59	1086.20
357.96	1086.13
358.33	1082.31
358.70	1079.17
359.08	1078.52
359.45	1079.50
359.82	1079.06
360.19	1082.33
360.56	1087.20
360.94	1085.66
361.31	1084.65
361.68	1085.82
362.05	1081.28
362.42	1078.05
362.79	1080.34
363.16	1078.96
363.54	1080.27
363.91	1081.33
364.28	1080.79
364.65	1075.50
365.02	1073.02
365.39	1071.12
365.76	1072.32
366.14	1071.38
366.51	1071.24
366.88	1071.03
367.25	1070.21
367.62	1067.12
367.99	1071.17
368.36	1073.42
368.73	1075.92
369.10	1080.53
369.48	1080.93
369.85	1075.55
370.22	1077.75
370.59	1075.62
370.96	1068.92
371.33	1068.97
371.70	1069.23
372.07	1070.84
372.44	1073.86
372.81	1075.64
373.18	1078.66
373.55	1084.32
373.93	1081.30
374.30	1078.40
374.67	1080.65
375.04	1079.62
375.41	1076.65
375.78	1078.00
376.15	1078.64
376.52	1079.48
376.89	1078.52
377.26	1077.65
377.63	1076.32
378.00	1077.51
378.37	1074.05
378.74	1072.18
379.11	1076.06
379.48	1078.64
379.85	1078.38
380.22	1079.50
380.59	1082.19
380.96	1082.05
381.33	1077.86
381.70	1079.06
382.07	1077.54
382.44	1075.69
382.81	1073.51
383.18	1080.84
383.55	1082.45
383.92	1084.84
384.29	1089.54
384.66	1091.04
385.03	1085.56
385.40	1082.59
385.77	1082.80
386.14	1081.35
386.51	1080.53
386.88	1083.15
387.25	1083.88
387.62	1082.12
387.99	1080.74
388.36	1081.28
388.73	1081.21
389.10	1079.81
389.46	1080.67
389.83	1080.98
390.20	1080.74
390.57	1079.90
390.94	1083.79
391.31	1086.06
391.68	1089.78
392.05	1087.88
392.42	1090.27
392.79	1088.47
393.16	1087.20
393.53	1087.11
393.89	1088.12
394.26	1089.89
394.63	1088.44
395.00	1088.47
395.37	1087.20
395.74	1089.92
396.11	1088.96
396.48	1088.75
396.84	1088.44
397.21	1085.12
397.58	1086.41
397.95	1084.72
398.32	1087.46
398.69	1091.34
399.06	1095.39
399.42	1092.80
399.79	1090.17
400.16	1089.66
400.53	1085.38
400.90	1083.20
401.27	1082.92
401.64	1085.24
402.00	1086.17
402.37	1086.36
402.74	1087.06
403.11	1088.79
403.48	1089.50
403.84	1086.92
404.21	1087.62
404.58	1087.34
404.95	1086.66
405.32	1088.54
405.68	1090.88
406.05	1092.07
406.42	1094.20
406.79	1096.26
407.16	1092.33
407.52	1090.95
407.89	1088.33
408.26	1087.81
408.63	1087.27
408.99	1091.79
409.36	1095.37
409.73	1099.37
410.10	1099.26
410.47	1098.83
410.83	1097.24
411.20	1097.13
411.57	1096.82
411.94	1096.59
412.30	1094.34
412.67	1094.32
413.04	1091.72
413.40	1089.36
413.77	1091.09
414.14	1096.78
414.51	1096.42
414.87	1101.71
415.24	1105.55
415.61	1105.62
415.97	1105.81
416.34	1107.87
416.71	1103.66
417.08	1104.15
417.44	1103.82
417.81	1101.97
418.18	1101.67
418.54	1102.37
418.91	1104.87
419.28	1104.45
419.64	1106.02
420.01	1107.47
420.38	1114.28
420.74	1111.89
421.11	1112.76
421.48	1115.94
421.84	1119.85
422.21	1119.67
422.58	1123.46
422.94	1127.44
423.31	1127.20
423.68	1131.39
424.04	1133.47
424.41	1137.87
424.77	1142.60
425.14	1147.73
425.51	1146.44
425.87	1148.64
426.24	1149.46
426.61	1151.45
426.97	1155.01
427.34	1161.63
427.70	1170.38
428.07	1178.88
428.44	1186.18
428.80	1193.44
429.17	1200.04
429.53	1207.34
429.90	1218.46
430.27	1229.06
430.63	1241.02
431.00	1255.04
431.36	1267.40
431.73	1275.85
432.09	1289.85
432.46	1302.25
432.83	1313.27
433.19	1326.45
433.56	1348.66
433.92	1365.98
434.29	1387.45
434.65	1414.43
435.02	1440.08
435.38	1468.59
435.75	1495.51
436.11	1528.11
436.48	1556.62
436.84	1590.75
437.21	1622.62
437.57	1661.52
437.94	1701.10
438.30	1748.78
438.67	1795.33
439.03	1843.43
439.40	1903.60
439.76	1956.43
440.13	2016.70
440.49	2082.98
440.86	2153.57
441.22	2221.52
441.59	2295.83
441.95	2375.85
442.32	2455.64
442.68	2547.35
443.05	2643.71
443.41	2741.84
443.78	2841.32
444.14	2948.37
444.51	3055.76
444.87	3189.92
445.24	3331.00
445.60	3484.43
445.96	3642.46
446.33	3820.27
446.69	3981.91
447.06	4163.86
447.42	4343.14
447.79	4532.54
448.15	4744.76
448.51	4968.89
448.88	5216.28
449.24	5462.13
449.61	5747.14
449.97	6022.60
450.33	6321.76
450.70	6592.89
451.06	6913.54
451.43	7211.24
451.79	7573.20
452.15	7966.76
452.52	8414.69
452.88	8887.34
453.24	9427.68
453.61	10002.54
453.97	10568.01
454.34	11111.55
454.70	11752.81
455.06	12389.86
455.43	13024.45
455.79	13615.93
456.15	14343.13
456.52	14998.50
456.88	15784.55
457.24	16494.71
457.61	17355.35
457.97	18122.81
458.33	18892.08
458.70	19644.26
459.06	20413.12
459.42	21234.93
459.79	22012.36
460.15	22929.01
460.51	23799.34
460.88	24725.77
461.24	25528.74
461.60	26490.84
461.96	27366.88
462.33	28177.92
462.69	28971.08
463.05	29817.44
463.42	30526.32
463.78	31172.33
464.14	31729.50
464.50	32324.37
464.87	32772.49
465.23	33121.88
465.59	33457.75
465.95	33799.82
466.32	34060.44
466.68	34309.49
467.04	34455.24
467.40	34609.71
467.77	34744.01
468.13	34707.66
468.49	34605.27
468.85	34544.72
469.22	34384.18
469.58	34034.69
469.94	33809.90
470.30	33518.84
470.66	33081.39
471.03	32493.00
471.39	32107.94
471.75	31452.98
472.11	30862.75
472.47	30532.12
472.84	30223.06
473.20	29740.86
473.56	29505.52
473.92	29072.82
474.28	28537.26
474.65	28037.51
475.01	27562.71
475.37	26962.83
475.73	26521.57
476.09	26004.29
476.45	25498.47
476.81	24980.87
477.18	24453.29
477.54	23970.41
477.90	23623.28
478.26	23176.80
478.62	22821.04
478.98	22530.28
479.34	22214.40
479.71	21774.10
480.07	21433.64
480.43	21085.16
480.79	20701.90
481.15	20347.19
481.51	20054.58
481.87	19805.87
482.23	19520.91
482.59	19263.15
482.96	18992.32
483.32	18704.39
483.68	18326.49
484.04	17977.49
484.40	17617.56
484.76	17242.02
485.12	16854.53
485.48	16526.55
485.84	16167.34
486.20	15801.28
486.56	15437.35
486.92	15129.90
487.28	14784.91
487.64	14443.61
488.00	14114.34
488.37	13791.33
488.73	13440.85
489.09	13090.87
489.45	12784.73
489.81	12475.90
490.17	12177.29
490.53	11884.07
490.89	11585.00
491.25	11281.52
491.61	10975.19
491.97	10653.28
492.33	10335.48
492.69	10042.26
493.05	9737.14
493.41	9439.17
493.77	9172.28
494.13	8910.65
494.49	8661.04
494.85	8419.23
495.21	8203.55
495.57	7991.15
495.93	7769.13
496.29	7565.85
496.64	7374.63
497.00	7184.53
497.36	6986.05
497.72	6812.34
498.08	6625.26
498.44	6445.58
498.80	6278.42
499.16	6117.86
499.52	5962.89
499.88	5828.03
500.24	5707.72
500.60	5582.39
500.96	5474.07
501.32	5350.72
501.68	5235.36
502.03	5108.34
502.39	4982.56
502.75	4843.18
503.11	4721.52
503.47	4597.91
503.83	4477.26
504.19	4348.25
504.55	4238.31
504.91	4147.22
505.26	4052.64
505.62	3965.83
505.98	3885.41
506.34	3795.93
506.70	3699.71
507.06	3616.88
507.42	3529.48
507.78	3453.55
508.13	3377.21
508.49	3303.36
508.85	3222.57
509.21	3156.80
509.57	3084.12
509.93	3015.64
510.28	2946.55
510.64	2885.88
511.00	2822.41
511.36	2766.56
511.72	2712.87
512.07	2663.88
512.43	2611.31
512.79	2555.58
513.15	2501.38
513.51	2454.89
513.86	2405.79
514.22	2364.22
514.58	2324.76
514.94	2288.34
515.30	2252.06
515.65	2216.53
516.01	2184.59
516.37	2154.53
516.73	2125.58
517.08	2096.42
517.44	2073.18
517.80	2044.95
518.16	2020.26
518.51	1994.51
518.87	1964.79
519.23	1935.04
519.59	1908.96
519.94	1878.87
520.30	1854.15
520.66	1828.24
521.01	1807.81
521.37	1786.79
521.73	1767.15
522.09	1747.00
522.44	1732.07
522.80	1709.13
523.16	1686.26
523.51	1667.12
523.87	1646.94
524.23	1629.15
524.58	1614.74
524.94	1597.28
525.30	1578.69
525.65	1566.22
526.01	1546.02
526.37	1529.87
526.72	1519.01
527.08	1507.02
527.44	1491.53
527.79	1487.48
528.15	1477.81
528.51	1465.08
528.86	1452.77
529.22	1438.07
529.58	1421.29
529.93	1405.87
530.29	1395.17
530.65	1387.00
531.00	1378.74
531.36	1368.30
531.71	1363.03
532.07	1353.63
532.43	1343.96
532.78	1337.92
533.14	1337.03
533.49	1327.43
533.85	1321.61
534.21	1314.84
534.56	1308.27
534.92	1299.79
535.27	1294.62
535.63	1289.68
535.98	1283.29
536.34	1276.95
536.69	1270.47
537.05	1263.96
537.41	1256.56
537.76	1251.84
538.12	1246.50
538.47	1236.60
538.83	1232.27
539.18	1231.12
539.54	1226.70
539.89	1224.52
540.25	1226.60
540.60	1223.37
540.96	1215.04
541.31	1211.46
541.67	1208.82
542.02	1201.33
542.38	1197.25
542.73	1195.83
543.09	1192.81
543.44	1186.35
543.80	1182.72
544.15	1179.04
544.51	1178.95
544.86	1176.45
545.22	1177.92
545.57	1180.26
545.93	1179.72
546.28	1176.35
546.64	1178.93
546.99	1173.45
547.35	1166.38
547.70	1163.83
548.05	1163.36
548.41	1157.72
548.76	1157.39
549.12	1158.40
549.47	1156.86
549.83	1150.56
550.18	1151.82
550.53	1150.86
550.89	1148.71
551.24	1146.61
551.60	1146.93
551.95	1142.60
552.30	1141.39
552.66	1144.29
553.01	1143.94
553.37	1143.91
553.72	1144.38
554.07	1140.96
554.43	1135.58
554.78	1136.59
555.13	1134.86
555.49	1131.32
555.84	1130.53
556.19	1130.74
556.55	1127.25
556.90	1124.21
557.26	1122.01
557.61	1120.27
557.96	1115.76
558.32	1117.21
558.67	1119.95
559.02	1119.92
559.37	1121.61
559.73	1121.96
560.08	1119.38
560.43	1118.17
560.79	1117.40
561.14	1116.51
561.49	1113.53
561.85	1111.43
562.20	1108.52
562.55	1108.36
562.90	1105.88
563.26	1106.84
563.61	1108.97
563.96	1112.15
564.32	1113.46
564.67	1111.03
565.02	1113.95
565.37	1111.78
565.73	1106.65
566.08	1103.63
566.43	1104.55
566.78	1101.53
567.14	1100.57
567.49	1102.56
567.84	1103.26
568.19	1103.35
568.54	1104.24
568.90	1101.06
569.25	1102.13
569.60	1100.64
569.95	1099.16
570.31	1101.95
570.66	1104.08
571.01	1102.30
571.36	1100.99
571.71	1101.20
572.06	1098.55
572.42	1098.13
572.77	1096.56
573.12	1096.00
573.47	1097.17
573.82	1095.11
574.18	1096.12
574.53	1095.72
574.88	1098.79
575.23	1099.16
575.58	1098.13
575.93	1096.38
576.28	1097.20
576.64	1095.39
576.99	1092.63
577.34	1094.41
577.69	1096.49
578.04	1098.69
578.39	1099.61
578.74	1102.51
579.09	1100.82
579.44	1098.20
579.80	1092.30
580.15	1093.26
580.50	1093.78
580.85	1095.09
581.20	1094.06
581.55	1095.14
581.90	1093.62
582.25	1094.43
582.60	1094.20
582.95	1096.99
583.30	1099.77
583.65	1098.62
584.00	1095.56
584.35	1096.17
584.71	1093.83
585.06	1095.60
585.41	1095.77
585.76	1092.42
586.11	1087.55
586.46	1084.84
586.81	1078.82
587.16	1077.58
587.51	1081.56
587.86	1084.18
588.21	1086.48
588.56	1089.57
588.91	1090.57
589.26	1085.26
589.61	1086.55
589.96	1085.59
590.31	1087.34
590.66	1085.00
591.01	1087.30
591.36	1085.61
591.71	1083.50
592.06	1079.64
592.41	1081.56
592.76	1083.97
593.10	1085.05
593.45	1086.45
593.80	1088.04
594.15	1090.69
594.50	1091.81
594.85	1091.60
595.20	1092.35
595.55	1091.34
595.90	1087.39
596.25	1085.40
596.60	1088.89
596.95	1091.13
597.30	1089.75
597.64	1101.50
597.99	1100.08
598.34	1097.20
598.69	1098.13
599.04	1100.24
599.39	1089.73
599.74	1090.24
600.09	1087.81
600.44	1083.32
600.78	1084.09
601.13	1082.01
601.48	1082.92
601.83	1084.60
602.18	1086.06
602.53	1086.94
602.88	1091.56
603.22	1091.37
603.57	1090.97
603.92	1089.66
604.27	1089.40
604.62	1088.63
604.97	1090.55
605.31	1091.02
605.66	1094.72
606.01	1093.71
606.36	1090.90
606.71	1089.80
607.05	1087.97
607.40	1084.00
607.75	1084.02
608.10	1085.94
608.44	1085.31
608.79	1087.60
609.14	1092.26
609.49	1094.15
609.84	1092.05
610.18	1090.81
610.53	1091.37
610.88	1088.02
611.23	1084.93
611.57	1084.07
611.92	1085.59
612.27	1081.16
612.62	1081.47
612.96	1080.84
613.31	1080.81
613.66	1076.48
614.00	1079.85
614.35	1080.79
614.70	1081.89
615.05	1083.32
615.39	1086.78
615.74	1086.41
616.09	1083.20
616.43	1085.91
616.78	1085.26
617.13	1083.69
617.47	1079.27
617.82	1081.14
618.17	1078.99
618.51	1078.59
618.86	1077.42
619.21	1082.19
619.55	1082.73
619.90	1083.50
620.25	1083.83
620.59	1085.52
620.94	1083.34
621.29	1084.37
621.63	1081.28
621.98	1082.26
622.32	1082.47
622.67	1085.12
623.02	1082.15
623.36	1081.23
623.71	1084.42
624.05	1085.47
624.40	1083.69
624.75	1086.38
625.09	1089.40
625.44	1085.82
625.78	1084.93
626.13	1086.80
626.48	1086.31
626.82	1086.80
627.17	1085.45
627.51	1087.44
627.86	1085.33
628.20	1084.58
628.55	1082.87
628.89	1082.47
629.24	1080.93
629.58	1078.99
629.93	1078.05
630.28	1081.35
630.62	1082.66
630.97	1082.71
631.31	1083.97
631.66	1083.97
632.00	1077.77
632.35	1078.05
632.69	1078.12
633.04	1081.63
633.38	1083.27
633.73	1087.58
634.07	1087.32
634.42	1088.07
634.76	1082.69
635.11	1082.33
635.45	1081.05
635.79	1081.73
636.14	1077.84
636.48	1080.23
636.83	1077.28
637.17	1078.14
637.52	1077.56
637.86	1082.43
638.21	1083.46
638.55	1086.48
638.89	1086.64
639.24	1086.36
639.58	1084.30
639.93	1086.94
640.27	1086.41
640.61	1085.33
640.96	1087.46
641.30	1088.56
641.65	1085.33
641.99	1085.45
642.33	1085.26
642.68	1082.64
643.02	1077.89
643.37	1079.06
643.71	1076.79
644.05	1076.81
644.40	1078.17
644.74	1081.80
645.08	1078.71
645.43	1080.88
645.77	1083.01
646.11	1077.47
646.46	1077.79
646.80	1082.12
647.14	1079.88
647.49	1076.53
647.83	1081.12
648.17	1079.53
648.52	1078.31
648.86	1080.06
649.20	1080.86
649.55	1082.71
649.89	1084.74
650.23	1083.39
650.57	1085.42
650.92	1086.01
651.26	1083.88
651.60	1081.66
651.95	1081.14
652.29	1078.19
652.63	1078.36
652.97	1079.48
653.32	1078.40
653.66	1078.64
654.00	1078.57
654.34	1081.77
654.69	1082.54
655.03	1086.22
655.37	1086.06
655.71	1087.60
656.05	1083.83
656.40	1079.41
656.74	1076.55
657.08	1075.45
657.42	1077.25
657.76	1077.61
658.11	1077.93
658.45	1077.89
658.79	1079.36
659.13	1075.92
659.47	1075.55
659.82	1079.85
660.16	1081.66
660.50	1083.48
660.84	1087.93
661.18	1088.28
661.52	1089.75
661.87	1088.75
662.21	1088.68
662.55	1086.78
662.89	1085.49
663.23	1083.01
663.57	1084.02
663.91	1081.66
664.25	1081.68
664.60	1083.11
664.94	1084.21
665.28	1086.36
665.62	1086.94
665.96	1087.74
666.30	1086.85
666.64	1084.79
666.98	1083.76
667.32	1085.45
667.66	1083.04
668.01	1084.21
668.35	1086.43
668.69	1084.16
669.03	1081.44
669.37	1082.05
669.71	1079.22
670.05	1074.24
670.39	1074.26
670.73	1072.22
671.07	1073.74
671.41	1077.68
671.75	1083.95
672.09	1084.72
672.43	1086.29
672.77	1083.48
673.11	1080.34
673.45	1077.11
673.79	1072.92
674.13	1075.27
674.47	1077.79
674.81	1079.27
675.15	1078.66
675.49	1085.00
675.83	1086.71
676.17	1082.61
676.51	1082.17
676.85	1086.06
677.19	1082.50
677.53	1082.50
677.87	1085.31
678.21	1084.14
678.55	1082.08
678.89	1083.69
679.23	1080.34
679.57	1079.78
679.90	1081.40
680.24	1080.11
680.58	1080.91
680.92	1082.43
681.26	1085.42
681.60	1083.27
681.94	1081.68
682.28	1081.07
682.62	1081.70
682.96	1075.69
683.29	1075.92
683.63	1077.72
683.97	1074.75
684.31	1073.25
684.65	1075.71
684.99	1079.74
685.33	1079.34
685.67	1081.42
686.00	1080.79
686.34	1080.58
686.68	1081.05
687.02	1080.74
687.36	1079.41
687.70	1081.19
688.03	1082.85
688.37	1081.23
688.71	1081.00
689.05	1082.43
689.39	1083.86
689.72	1082.24
690.06	1084.37
690.40	1085.77
690.74	1086.10
691.08	1081.16
691.41	1079.27
691.75	1075.27
692.09	1073.21
692.43	1073.46
692.76	1076.65
693.10	1084.32
693.44	1086.24
693.78	1087.06
694.11	1085.38
694.45	1084.74
694.79	1080.84
695.13	1079.29
695.46	1076.88
695.80	1076.58
696.14	1077.37
696.48	1077.18
696.81	1077.58
697.15	1080.91
697.49	1083.76
697.82	1082.85
698.16	1083.39
698.50	1085.89
698.83	1086.71
699.17	1086.73
699.51	1087.11
699.84	1086.85
700.18	1083.34
700.52	1080.23
700.85	1078.47
701.19	1080.88
701.53	1081.66
701.86	1083.81
702.20	1086.85
702.54	1086.97
702.87	1084.74
703.21	1083.48
703.55	1081.42
703.88	1079.38
704.22	1080.95
704.55	1081.66
704.89	1078.87
705.23	1080.11
705.56	1080.27
705.90	1077.72
706.23	1074.24
706.57	1075.15
706.91	1076.25
707.24	1075.36
707.58	1078.54
707.91	1080.63
708.25	1079.83
708.58	1081.00
708.92	1081.80
709.26	1081.35
709.59	1080.98
709.93	1084.00
710.26	1081.51
710.60	1081.98
710.93	1079.55
711.27	1079.08
711.60	1076.88
711.94	1076.15
712.27	1075.62
712.61	1076.11
712.94	1079.43
713.28	1082.29
713.61	1082.26
713.95	1084.63
714.28	1086.80
714.62	1084.74
714.95	1083.11
715.29	1082.73
715.62	1083.81
715.96	1081.37
716.29	1080.58
716.63	1079.24
716.96	1080.84
717.29	1077.33
717.63	1078.05
717.96	1079.69
718.30	1080.27
718.63	1079.92
718.97	1083.11
719.30	1083.29
719.63	1083.62
719.97	1085.61
720.30	1087.76
720.64	1083.29
720.97	1084.23
721.30	1084.04
721.64	1085.03
721.97	1083.32
722.31	1084.98
722.64	1084.35
722.97	1081.14
723.31	1081.61
723.64	1082.87
723.97	1083.69
724.31	1080.41
724.64	1079.81
724.98	1077.56
725.31	1076.23
725.64	1075.17
725.98	1081.82
726.31	1085.38
726.64	1085.28
726.97	1084.81
727.31	1084.51
727.64	1077.56
727.97	1077.07
728.31	1077.18
728.64	1077.23
728.97	1081.26
729.31	1084.44
729.64	1082.17
729.97	1082.05
730.30	1081.44
730.64	1077.63
730.97	1078.07
731.30	1080.06
731.63	1079.17
731.97	1078.59
732.30	1078.92
732.63	1078.12
732.96	1080.16
733.30	1082.40
733.63	1083.36
733.96	1081.00
734.29	1081.89
734.63	1079.53
734.96	1076.44
735.29	1078.05
735.62	1081.98
735.95	1078.40
736.29	1079.57
736.62	1082.17
736.95	1079.22
737.28	1079.13
737.61	1083.41
737.94	1081.96
738.28	1079.29
738.61	1085.80
738.94	1083.48
739.27	1081.96
739.60	1083.88
739.93	1085.82
740.27	1083.43
740.60	1084.74
740.93	1082.99
741.26	1083.08
741.59	1083.48
741.92	1080.48
742.25	1080.27
742.58	1081.98
742.91	1076.65
743.25	1075.03
743.58	1069.98
743.91	1070.77
744.24	1072.85
744.57	1075.69
744.90	1076.34
745.23	1082.24
745.56	1080.16
745.89	1078.52
746.22	1077.49
746.55	1074.24
746.88	1070.70
747.21	1071.94
747.54	1069.41
747.87	1070.21
748.20	1074.07
748.53	1077.49
748.87	1076.90
749.20	1076.39
749.53	1076.06
749.86	1074.98
750.19	1072.60
750.52	1073.28
750.85	1074.87
751.18	1076.69
751.51	1075.64
751.84	1080.79
752.16	1082.94
752.49	1083.60
752.82	1082.61
753.15	1083.93
753.48	1080.93
753.81	1080.77
754.14	1082.52
754.47	1085.42
754.80	1086.73
755.13	1084.49
755.46	1083.39
755.79	1081.12
756.12	1080.70
756.45	1074.31
756.78	1076.83
757.11	1075.94
757.43	1075.27
757.76	1072.29
758.09	1075.36
758.42	1073.42
758.75	1073.60
759.08	1074.28
759.41	1074.94
759.74	1077.33
760.07	1081.28
760.39	1082.38
760.72	1083.34
761.05	1081.75
761.38	1078.24
761.71	1074.56
762.04	1074.59
762.36	1075.76
762.69	1075.17
763.02	1080.04
763.35	1080.18
763.68	1077.00
764.01	1074.26
