SpectraSuite Data File
++++++++++++++++++++++++++++++++++++
Date: Mon Aug 26 10:22:10 PDT 2019
User: corrico
Dark Spectrum Present: No
Reference Spectrum Present: No
Number of Sampled Component Spectra: 1
Spectrometers: USB2+H06089
Integration Time (usec): 2000 (USB2+H06089)
Spectra Averaged: 20 (USB2+H06089)
Boxcar Smoothing: 2 (USB2+H06089)
Correct for Electrical Dark: No (USB2+H06089)
Strobe/Lamp Enabled: No (USB2+H06089)
Correct for Detector Non-linearity: No (USB2+H06089)
Correct for Stray Light: No (USB2+H06089)
Number of Pixels in Processed Spectrum: 2048
>>>>>Begin Processed Spectral Data<<<<<
339.70	1025.97
340.07	1025.97
340.45	990.80
340.82	969.96
341.19	947.92
341.57	918.66
341.94	908.48
342.31	903.00
342.69	898.48
343.06	895.40
343.43	898.30
343.81	901.43
344.18	903.24
344.55	907.07
344.93	909.95
345.30	914.59
345.67	919.15
346.04	928.49
346.42	937.71
346.79	949.56
347.16	959.67
347.54	969.03
347.91	976.64
348.28	985.65
348.65	992.64
349.03	1002.47
349.40	1014.62
349.77	1021.01
350.14	1024.83
350.52	1034.03
350.89	1040.06
351.26	1041.30
351.63	1047.83
352.01	1056.56
352.38	1058.44
352.75	1065.11
353.12	1067.68
353.50	1073.25
353.87	1079.06
354.24	1083.95
354.61	1079.41
354.98	1080.46
355.36	1077.35
355.73	1074.45
356.10	1073.42
356.47	1081.09
356.84	1083.74
357.22	1087.55
357.59	1085.26
357.96	1084.32
358.33	1082.03
358.70	1082.57
359.08	1081.37
359.45	1083.22
359.82	1083.86
360.19	1084.30
360.56	1082.90
360.94	1080.09
361.31	1077.00
361.68	1077.30
362.05	1073.70
362.42	1073.81
362.79	1077.40
363.16	1078.47
363.54	1077.51
363.91	1073.37
364.28	1070.61
364.65	1070.58
365.02	1070.91
365.39	1069.62
365.76	1072.48
366.14	1074.89
366.51	1069.37
366.88	1065.53
367.25	1066.84
367.62	1069.51
367.99	1070.98
368.36	1070.80
368.73	1073.44
369.10	1073.58
369.48	1071.36
369.85	1070.80
370.22	1073.30
370.59	1074.28
370.96	1073.09
371.33	1074.87
371.70	1077.70
372.07	1075.08
372.44	1073.25
372.81	1074.07
373.18	1073.93
373.55	1068.90
373.93	1071.19
374.30	1072.64
374.67	1073.60
375.04	1077.42
375.41	1078.78
375.78	1080.13
376.15	1079.46
376.52	1077.72
376.89	1078.03
377.26	1078.43
377.63	1077.51
378.00	1081.14
378.37	1082.80
378.74	1081.54
379.11	1081.23
379.48	1083.13
379.85	1084.04
380.22	1082.94
380.59	1081.00
380.96	1082.22
381.33	1082.05
381.70	1078.73
382.07	1078.57
382.44	1080.16
382.81	1080.13
383.18	1081.54
383.55	1081.70
383.92	1083.41
384.29	1081.02
384.66	1079.13
385.03	1079.60
385.40	1079.22
385.77	1076.01
386.14	1078.75
386.51	1082.76
386.88	1078.28
387.25	1074.63
387.62	1077.86
387.99	1075.24
388.36	1074.45
388.73	1075.17
389.10	1081.98
389.46	1079.50
389.83	1081.82
390.20	1080.46
390.57	1084.93
390.94	1082.87
391.31	1082.57
391.68	1084.98
392.05	1083.83
392.42	1080.65
392.79	1081.80
393.16	1085.31
393.53	1083.60
393.89	1083.86
394.26	1087.23
394.63	1084.53
395.00	1083.27
395.37	1081.80
395.74	1082.10
396.11	1080.06
396.48	1082.36
396.84	1084.37
397.21	1086.13
397.58	1087.37
397.95	1088.40
398.32	1090.27
398.69	1090.01
399.06	1089.78
399.42	1089.87
399.79	1087.90
400.16	1087.34
400.53	1091.84
400.90	1092.63
401.27	1095.00
401.64	1095.67
402.00	1094.48
402.37	1089.73
402.74	1087.32
403.11	1085.68
403.48	1088.68
403.84	1092.09
404.21	1092.21
404.58	1093.47
404.95	1095.60
405.32	1093.05
405.68	1089.38
406.05	1090.81
406.42	1093.17
406.79	1092.45
407.16	1095.86
407.52	1095.07
407.89	1092.23
408.26	1093.90
408.63	1091.63
408.99	1089.29
409.36	1089.85
409.73	1091.09
410.10	1089.14
410.47	1092.16
410.83	1092.68
411.20	1098.13
411.57	1099.07
411.94	1099.98
412.30	1100.47
412.67	1101.39
413.04	1100.87
413.40	1101.62
413.77	1103.21
414.14	1102.04
414.51	1100.89
414.87	1101.95
415.24	1100.47
415.61	1099.44
415.97	1101.97
416.34	1103.49
416.71	1101.15
417.08	1103.12
417.44	1105.76
417.81	1103.02
418.18	1104.41
418.54	1108.43
418.91	1112.11
419.28	1111.92
419.64	1117.75
420.01	1119.55
420.38	1119.99
420.74	1119.48
421.11	1120.65
421.48	1119.60
421.84	1125.75
422.21	1126.50
422.58	1130.10
422.94	1133.62
423.31	1136.31
423.68	1137.29
424.04	1141.67
424.41	1145.62
424.77	1148.66
425.14	1155.62
425.51	1159.95
425.87	1164.30
426.24	1171.37
426.61	1178.02
426.97	1181.83
427.34	1186.79
427.70	1195.97
428.07	1204.91
428.44	1213.05
428.80	1225.97
429.17	1236.25
429.53	1247.27
429.90	1254.20
430.27	1267.66
430.63	1276.81
431.00	1291.69
431.36	1305.95
431.73	1323.27
432.09	1334.57
432.46	1352.92
432.83	1368.79
433.19	1387.61
433.56	1411.93
433.92	1442.24
434.29	1466.13
434.65	1500.49
435.02	1529.33
435.38	1560.44
435.75	1590.28
436.11	1634.44
436.48	1672.62
436.84	1714.44
437.21	1761.91
437.57	1812.04
437.94	1857.59
438.30	1910.74
438.67	1970.82
439.03	2032.29
439.40	2100.91
439.76	2171.41
440.13	2244.64
440.49	2325.91
440.86	2398.07
441.22	2482.96
441.59	2576.41
441.95	2680.50
442.32	2786.71
442.68	2906.83
443.05	3025.94
443.41	3154.18
443.78	3279.77
444.14	3417.07
444.51	3560.73
444.87	3729.60
445.24	3897.18
445.60	4080.72
445.96	4263.96
446.33	4483.44
446.69	4685.82
447.06	4909.74
447.42	5141.03
447.79	5381.45
448.15	5646.14
448.51	5925.46
448.88	6242.09
449.24	6543.88
449.61	6894.49
449.97	7249.62
450.33	7634.43
450.70	7994.80
451.06	8428.15
451.43	8852.82
451.79	9313.95
452.15	9809.82
452.52	10351.86
452.88	10903.08
453.24	11531.33
453.61	12247.49
453.97	12943.23
454.34	13650.78
454.70	14475.35
455.06	15274.48
455.43	16017.03
455.79	16710.58
456.15	17520.60
456.52	18266.85
456.88	19187.64
457.24	20103.94
457.61	21237.23
457.97	22293.93
458.33	23401.64
458.70	24462.13
459.06	25462.64
459.42	26487.54
459.79	27422.72
460.15	28462.32
460.51	29446.75
460.88	30538.58
461.24	31527.27
461.60	32676.43
461.96	33734.28
462.33	34756.28
462.69	35809.68
463.05	36918.91
463.42	37942.03
463.78	38909.02
464.14	39698.22
464.50	40439.50
464.87	40981.42
465.23	41305.91
465.59	41675.11
465.95	41982.14
466.32	42208.45
466.68	42458.14
467.04	42630.73
467.40	42663.36
467.77	42777.53
468.13	42706.05
468.49	42509.65
468.85	42402.67
469.22	42236.75
469.58	41968.64
469.94	41817.98
470.30	41618.98
470.66	41256.34
471.03	40765.53
471.39	40418.24
471.75	39691.53
472.11	38970.81
472.47	38487.61
472.84	37970.70
473.20	37236.71
473.56	36826.67
473.92	36252.56
474.28	35616.14
474.65	34963.62
475.01	34267.20
475.37	33457.77
475.73	32779.69
476.09	32041.37
476.45	31398.17
476.81	30868.93
477.18	30318.93
477.54	29843.35
477.90	29412.39
478.26	28835.99
478.62	28315.29
478.98	27876.32
479.34	27440.74
479.71	26886.62
480.07	26446.34
480.43	25982.78
480.79	25500.11
481.15	25017.03
481.51	24626.02
481.87	24312.24
482.23	23957.35
482.59	23618.67
482.96	23285.36
483.32	22965.38
483.68	22567.89
484.04	22225.59
484.40	21810.40
484.76	21379.13
485.12	20937.45
485.48	20493.54
485.84	19993.42
486.20	19560.21
486.56	19117.31
486.92	18728.50
487.28	18339.95
487.64	17936.84
488.00	17542.76
488.37	17169.94
488.73	16727.29
489.09	16249.01
489.45	15809.90
489.81	15358.99
490.17	14905.05
490.53	14491.52
490.89	14093.37
491.25	13694.71
491.61	13296.91
491.97	12910.91
492.33	12512.20
492.69	12159.29
493.05	11819.54
493.41	11494.42
493.77	11171.17
494.13	10881.03
494.49	10580.13
494.85	10286.56
495.21	10016.70
495.57	9747.21
495.93	9478.96
496.29	9220.24
496.64	8997.02
497.00	8750.75
497.36	8502.74
497.72	8256.05
498.08	8027.41
498.44	7787.27
498.80	7573.81
499.16	7370.53
499.52	7177.44
499.88	6998.25
500.24	6832.73
500.60	6670.71
500.96	6525.51
501.32	6363.52
501.68	6195.33
502.03	6026.72
502.39	5856.93
502.75	5672.76
503.11	5512.99
503.47	5379.07
503.83	5248.32
504.19	5120.34
504.55	5007.62
504.91	4904.05
505.26	4780.97
505.62	4658.70
505.98	4548.15
506.34	4435.10
506.70	4310.59
507.06	4205.80
507.42	4098.93
507.78	3996.65
508.13	3910.52
508.49	3838.13
508.85	3762.83
509.21	3689.60
509.57	3608.57
509.93	3517.83
510.28	3422.89
510.64	3334.02
511.00	3246.18
511.36	3172.10
511.72	3106.94
512.07	3048.59
512.43	2983.71
512.79	2923.63
513.15	2864.79
513.51	2800.83
513.86	2736.84
514.22	2687.99
514.58	2640.99
514.94	2590.58
515.30	2549.69
515.65	2509.05
516.01	2465.08
516.37	2419.88
516.73	2380.04
517.08	2344.96
517.44	2303.37
517.80	2264.52
518.16	2232.43
518.51	2197.22
518.87	2156.52
519.23	2125.98
519.59	2096.16
519.94	2062.08
520.30	2038.37
520.66	2008.98
521.01	1979.58
521.37	1948.10
521.73	1919.92
522.09	1889.65
522.44	1868.36
522.80	1844.08
523.16	1822.69
523.51	1803.90
523.87	1782.32
524.23	1762.75
524.58	1743.16
524.94	1723.24
525.30	1701.69
525.65	1685.26
526.01	1662.06
526.37	1643.57
526.72	1627.37
527.08	1613.33
527.44	1593.86
527.79	1576.91
528.15	1561.70
528.51	1547.73
528.86	1530.99
529.22	1517.35
529.58	1505.41
529.93	1492.00
530.29	1474.44
530.65	1463.91
531.00	1453.38
531.36	1442.14
531.71	1430.84
532.07	1424.10
532.43	1412.93
532.78	1401.54
533.14	1390.77
533.49	1382.30
533.85	1373.33
534.21	1363.92
534.56	1356.67
534.92	1354.09
535.27	1341.34
535.63	1333.01
535.98	1326.45
536.34	1317.32
536.69	1307.75
537.05	1303.98
537.41	1297.03
537.76	1289.94
538.12	1282.61
538.47	1276.36
538.83	1272.34
539.18	1266.60
539.54	1261.36
539.89	1258.13
540.25	1251.32
540.60	1246.08
540.96	1243.08
541.31	1239.45
541.67	1237.09
542.02	1234.77
542.38	1232.99
542.73	1226.74
543.09	1227.52
543.44	1220.21
543.80	1215.60
544.15	1213.47
544.51	1211.93
544.86	1205.42
545.22	1206.90
545.57	1204.39
545.93	1199.78
546.28	1198.45
546.64	1194.49
546.99	1186.32
547.35	1180.07
547.70	1176.21
548.05	1174.46
548.41	1172.35
548.76	1172.89
549.12	1177.08
549.47	1171.86
549.83	1167.79
550.18	1166.31
550.53	1162.82
550.89	1158.38
551.24	1158.82
551.60	1156.44
551.95	1152.32
552.30	1151.03
552.66	1150.19
553.01	1148.08
553.37	1147.52
553.72	1144.85
554.07	1146.25
554.43	1144.73
554.78	1144.90
555.13	1143.89
555.49	1143.35
555.84	1142.06
556.19	1141.17
556.55	1137.99
556.90	1134.04
557.26	1136.77
557.61	1134.67
557.96	1131.37
558.32	1130.01
558.67	1129.75
559.02	1125.54
559.37	1122.33
559.73	1122.15
560.08	1122.85
560.43	1122.80
560.79	1121.96
561.14	1124.21
561.49	1121.77
561.85	1120.27
562.20	1120.60
562.55	1120.44
562.90	1118.99
563.26	1119.60
563.61	1118.21
563.96	1118.21
564.32	1118.26
564.67	1117.30
565.02	1114.59
565.37	1115.01
565.73	1110.91
566.08	1107.64
566.43	1105.06
566.78	1102.65
567.14	1100.71
567.49	1101.74
567.84	1099.56
568.19	1099.56
568.54	1102.35
568.90	1101.83
569.25	1101.88
569.60	1103.56
569.95	1104.22
570.31	1105.25
570.66	1107.28
571.01	1106.98
571.36	1105.65
571.71	1103.73
572.06	1102.23
572.42	1101.97
572.77	1099.33
573.12	1101.01
573.47	1099.40
573.82	1094.83
574.18	1093.57
574.53	1090.74
574.88	1089.92
575.23	1091.49
575.58	1095.84
575.93	1095.28
576.28	1098.41
576.64	1097.10
576.99	1095.18
577.34	1095.53
577.69	1095.28
578.04	1093.99
578.39	1094.90
578.74	1097.50
579.09	1095.30
579.44	1093.99
579.80	1094.06
580.15	1092.35
580.50	1089.52
580.85	1089.71
581.20	1090.13
581.55	1090.92
581.90	1096.66
582.25	1096.24
582.60	1094.88
582.95	1095.53
583.30	1092.96
583.65	1089.40
584.00	1089.40
584.35	1089.33
584.71	1087.55
585.06	1087.16
585.41	1084.16
585.76	1087.51
586.11	1086.29
586.46	1088.07
586.81	1090.81
587.16	1094.36
587.51	1093.24
587.86	1097.52
588.21	1097.36
588.56	1095.16
588.91	1095.56
589.26	1093.73
589.61	1090.64
589.96	1088.40
590.31	1088.02
590.66	1087.25
591.01	1089.38
591.36	1090.55
591.71	1091.23
592.06	1092.91
592.41	1090.43
592.76	1088.19
593.10	1086.97
593.45	1084.79
593.80	1085.03
594.15	1084.39
594.50	1083.13
594.85	1083.55
595.20	1085.54
595.55	1084.07
595.90	1085.00
596.25	1085.35
596.60	1084.74
596.95	1084.39
597.30	1083.88
597.64	1096.19
597.99	1096.68
598.34	1098.30
598.69	1098.65
599.04	1102.32
599.39	1090.57
599.74	1087.27
600.09	1086.01
600.44	1084.72
600.78	1081.05
601.13	1083.79
601.48	1089.00
601.83	1089.52
602.18	1092.02
602.53	1090.64
602.88	1087.37
603.22	1086.15
603.57	1086.36
603.92	1084.56
604.27	1086.83
604.62	1084.39
604.97	1083.43
605.31	1080.98
605.66	1079.60
606.01	1077.82
606.36	1081.91
606.71	1082.10
607.05	1084.44
607.40	1083.90
607.75	1084.46
608.10	1084.23
608.44	1086.03
608.79	1084.11
609.14	1086.71
609.49	1086.43
609.84	1081.21
610.18	1078.45
610.53	1082.36
610.88	1081.61
611.23	1083.64
611.57	1089.87
611.92	1091.72
612.27	1087.76
612.62	1086.31
612.96	1086.03
613.31	1081.63
613.66	1079.92
614.00	1080.65
614.35	1083.29
614.70	1082.59
615.05	1083.22
615.39	1085.56
615.74	1087.51
616.09	1088.35
616.43	1087.41
616.78	1089.57
617.13	1086.76
617.47	1085.14
617.82	1083.43
618.17	1082.57
618.51	1081.42
618.86	1080.04
619.21	1077.72
619.55	1077.58
619.90	1077.16
620.25	1076.74
620.59	1077.93
620.94	1079.41
621.29	1079.36
621.63	1082.03
621.98	1084.21
622.32	1083.67
622.67	1082.57
623.02	1080.88
623.36	1080.56
623.71	1076.34
624.05	1077.70
624.40	1075.59
624.75	1078.05
625.09	1077.72
625.44	1078.43
625.78	1078.31
626.13	1081.87
626.48	1081.66
626.82	1081.58
627.17	1083.48
627.51	1085.33
627.86	1082.45
628.20	1081.07
628.55	1080.53
628.89	1079.62
629.24	1080.51
629.58	1083.60
629.93	1082.80
630.28	1082.36
630.62	1083.50
630.97	1080.09
631.31	1079.57
631.66	1080.70
632.00	1083.48
632.35	1082.61
632.69	1086.03
633.04	1087.30
633.38	1089.66
633.73	1089.85
634.07	1089.29
634.42	1086.62
634.76	1084.35
635.11	1084.04
635.45	1083.53
635.79	1084.07
636.14	1083.29
636.48	1083.27
636.83	1081.80
637.17	1078.21
637.52	1076.88
637.86	1076.69
638.21	1076.23
638.55	1074.14
638.89	1075.27
639.24	1076.23
639.58	1075.90
639.93	1079.36
640.27	1079.81
640.61	1082.33
640.96	1083.83
641.30	1085.05
641.65	1084.07
641.99	1083.86
642.33	1081.87
642.68	1078.68
643.02	1079.88
643.37	1078.24
643.71	1079.50
644.05	1081.47
644.40	1080.74
644.74	1081.16
645.08	1082.22
645.43	1080.63
645.77	1078.57
646.11	1079.55
646.46	1077.16
646.80	1075.41
647.14	1078.45
647.49	1082.38
647.83	1083.64
648.17	1086.90
648.52	1092.21
648.86	1092.56
649.20	1088.86
649.55	1089.61
649.89	1085.91
650.23	1079.95
650.57	1079.81
650.92	1077.23
651.26	1075.17
651.60	1077.49
651.95	1081.28
652.29	1077.82
652.63	1080.16
652.97	1081.58
653.32	1081.07
653.66	1081.91
654.00	1083.46
654.34	1084.84
654.69	1085.45
655.03	1083.25
655.37	1078.78
655.71	1079.67
656.05	1079.38
656.40	1077.93
656.74	1079.13
657.08	1081.89
657.42	1083.39
657.76	1083.08
658.11	1085.35
658.45	1089.64
658.79	1089.89
659.13	1087.88
659.47	1087.83
659.82	1084.32
660.16	1079.88
660.50	1078.75
660.84	1078.28
661.18	1078.03
661.52	1080.11
661.87	1080.93
662.21	1081.21
662.55	1082.29
662.89	1080.74
663.23	1079.31
663.57	1079.81
663.91	1080.51
664.25	1079.34
664.60	1083.53
664.94	1086.50
665.28	1083.71
665.62	1085.89
665.96	1087.90
666.30	1084.18
666.64	1083.41
666.98	1086.59
667.32	1083.15
667.66	1082.66
668.01	1081.77
668.35	1081.02
668.69	1078.45
669.03	1080.88
669.37	1080.04
669.71	1084.21
670.05	1082.78
670.39	1087.46
670.73	1084.79
671.07	1087.25
671.41	1083.22
671.75	1082.97
672.09	1085.21
672.43	1085.49
672.77	1082.57
673.11	1083.67
673.45	1087.23
673.79	1080.72
674.13	1079.67
674.47	1077.84
674.81	1078.89
675.15	1079.50
675.49	1079.90
675.83	1082.36
676.17	1085.87
676.51	1085.80
676.85	1083.81
677.19	1082.78
677.53	1082.61
677.87	1081.28
678.21	1079.17
678.55	1078.14
678.89	1078.85
679.23	1077.89
679.57	1077.98
679.90	1080.32
680.24	1079.10
680.58	1081.37
680.92	1081.89
681.26	1081.82
681.60	1079.38
681.94	1080.41
682.28	1079.92
682.62	1076.51
682.96	1074.89
683.29	1078.94
683.63	1078.61
683.97	1076.34
684.31	1077.35
684.65	1080.77
684.99	1077.82
685.33	1079.85
685.67	1080.88
686.00	1085.21
686.34	1082.01
686.68	1084.67
687.02	1083.67
687.36	1086.03
687.70	1083.67
688.03	1083.15
688.37	1080.46
688.71	1079.46
689.05	1076.44
689.39	1076.23
689.72	1076.60
690.06	1076.32
690.40	1074.14
690.74	1075.05
691.08	1074.98
691.41	1079.13
691.75	1078.36
692.09	1079.90
692.43	1077.33
692.76	1074.61
693.10	1073.49
693.44	1075.38
693.78	1077.09
694.11	1079.50
694.45	1079.10
694.79	1076.69
695.13	1076.23
695.46	1074.49
695.80	1074.38
696.14	1075.52
696.48	1077.37
696.81	1075.41
697.15	1077.96
697.49	1079.06
697.82	1080.70
698.16	1079.41
698.50	1080.48
698.83	1076.97
699.17	1074.26
699.51	1075.50
699.84	1076.55
700.18	1078.00
700.52	1078.47
700.85	1076.08
701.19	1076.46
701.53	1074.10
701.86	1073.37
702.20	1074.84
702.54	1081.00
702.87	1077.91
703.21	1078.89
703.55	1079.01
703.88	1076.86
704.22	1073.21
704.55	1074.21
704.89	1074.40
705.23	1074.96
705.56	1076.62
705.90	1081.51
706.23	1085.28
706.57	1084.23
706.91	1085.00
707.24	1084.60
707.58	1082.59
707.91	1079.85
708.25	1079.50
708.58	1076.46
708.92	1076.86
709.26	1074.52
709.59	1073.77
709.93	1078.52
710.26	1077.84
710.60	1079.48
710.93	1080.13
711.27	1080.23
711.60	1078.26
711.94	1080.51
712.27	1076.93
712.61	1079.60
712.94	1081.80
713.28	1079.41
713.61	1080.23
713.95	1081.70
714.28	1078.57
714.62	1077.56
714.95	1080.27
715.29	1080.67
715.62	1080.51
715.96	1081.56
716.29	1078.43
716.63	1077.54
716.96	1073.14
717.29	1075.36
717.63	1076.83
717.96	1080.25
718.30	1080.41
718.63	1085.99
718.97	1083.74
719.30	1080.46
719.63	1077.00
719.97	1076.25
720.30	1075.50
720.64	1078.19
720.97	1081.23
721.30	1080.39
721.64	1077.14
721.97	1076.48
722.31	1075.76
722.64	1074.17
722.97	1077.35
723.31	1078.78
723.64	1074.05
723.97	1075.27
724.31	1076.72
724.64	1076.37
724.98	1074.38
725.31	1079.22
725.64	1078.61
725.98	1073.11
726.31	1073.46
726.64	1076.62
726.97	1074.40
727.31	1072.53
727.64	1074.24
727.97	1074.87
728.31	1073.81
728.64	1072.92
728.97	1075.01
729.31	1076.58
729.64	1076.83
729.97	1077.84
730.30	1080.20
730.64	1076.06
730.97	1078.21
731.30	1074.91
731.63	1074.80
731.97	1074.00
732.30	1077.11
732.63	1074.12
732.96	1072.60
733.30	1069.84
733.63	1069.58
733.96	1069.84
734.29	1070.75
734.63	1072.25
734.96	1075.10
735.29	1074.21
735.62	1073.98
735.95	1074.70
736.29	1077.68
736.62	1076.32
736.95	1081.07
737.28	1080.88
737.61	1078.19
737.94	1080.06
738.28	1079.95
738.61	1075.85
738.94	1074.91
739.27	1077.54
739.60	1072.57
739.93	1076.06
740.27	1076.37
740.60	1078.07
740.93	1077.89
741.26	1078.26
741.59	1073.58
741.92	1074.17
742.25	1075.52
742.58	1076.06
742.91	1079.69
743.25	1079.06
743.58	1077.65
743.91	1074.91
744.24	1072.83
744.57	1072.41
744.90	1076.30
745.23	1077.18
745.56	1078.24
745.89	1078.96
746.22	1079.64
746.55	1078.31
746.88	1078.19
747.21	1077.51
747.54	1079.01
747.87	1076.27
748.20	1073.72
748.53	1073.02
748.87	1072.43
749.20	1071.54
749.53	1072.18
749.86	1075.62
750.19	1075.17
750.52	1077.37
750.85	1078.00
751.18	1078.78
751.51	1077.98
751.84	1078.33
752.16	1076.86
752.49	1078.73
752.82	1079.48
753.15	1083.22
753.48	1082.94
753.81	1084.11
754.14	1081.87
754.47	1079.67
754.80	1078.26
755.13	1080.86
755.46	1080.30
755.79	1083.15
756.12	1084.42
756.45	1083.55
756.78	1084.04
757.11	1085.40
757.43	1083.95
757.76	1083.69
758.09	1083.90
758.42	1083.97
758.75	1083.13
759.08	1083.95
759.41	1082.54
759.74	1081.56
760.07	1081.02
760.39	1080.46
760.72	1076.06
761.05	1076.48
761.38	1076.04
761.71	1076.72
762.04	1079.13
762.36	1082.19
762.69	1081.35
763.02	1081.07
763.35	1077.75
763.68	1076.01
