SpectraSuite Data File
++++++++++++++++++++++++++++++++++++
Date: Mon Aug 26 10:22:28 PDT 2019
User: corrico
Dark Spectrum Present: No
Reference Spectrum Present: No
Number of Sampled Component Spectra: 1
Spectrometers: USB2+H06089
Integration Time (usec): 2000 (USB2+H06089)
Spectra Averaged: 20 (USB2+H06089)
Boxcar Smoothing: 2 (USB2+H06089)
Correct for Electrical Dark: No (USB2+H06089)
Strobe/Lamp Enabled: No (USB2+H06089)
Correct for Detector Non-linearity: No (USB2+H06089)
Correct for Stray Light: No (USB2+H06089)
Number of Pixels in Processed Spectrum: 2048
>>>>>Begin Processed Spectral Data<<<<<
339.70	1025.15
340.07	1025.15
340.45	990.89
340.82	968.44
341.19	944.36
341.57	920.53
341.94	910.77
342.31	906.30
342.69	903.66
343.06	901.57
343.43	899.96
343.81	900.45
344.18	904.52
344.55	908.01
344.93	913.07
345.30	917.54
345.67	924.82
346.04	929.19
346.42	936.17
346.79	942.21
347.16	950.12
347.54	956.62
347.91	964.72
348.28	978.18
348.65	994.14
349.03	1005.10
349.40	1013.29
349.77	1023.14
350.14	1026.96
350.52	1028.53
350.89	1036.44
351.26	1041.87
351.63	1045.38
352.01	1051.30
352.38	1057.59
352.75	1059.47
353.12	1063.56
353.50	1065.34
353.87	1068.62
354.24	1071.50
354.61	1073.35
354.98	1078.78
355.36	1084.46
355.73	1084.70
356.10	1085.31
356.47	1089.31
356.84	1089.87
357.22	1089.71
357.59	1088.86
357.96	1086.71
358.33	1086.45
358.70	1083.18
359.08	1083.81
359.45	1083.53
359.82	1083.53
360.19	1081.87
360.56	1080.56
360.94	1077.07
361.31	1077.37
361.68	1078.10
362.05	1076.15
362.42	1074.77
362.79	1073.49
363.16	1070.47
363.54	1071.12
363.91	1072.92
364.28	1077.35
364.65	1078.57
365.02	1079.90
365.39	1080.18
365.76	1080.11
366.14	1076.39
366.51	1075.48
366.88	1075.99
367.25	1074.80
367.62	1073.67
367.99	1075.87
368.36	1072.78
368.73	1071.80
369.10	1072.43
369.48	1073.16
369.85	1072.74
370.22	1075.99
370.59	1075.87
370.96	1073.14
371.33	1075.03
371.70	1072.88
372.07	1072.01
372.44	1074.87
372.81	1076.79
373.18	1073.98
373.55	1078.85
373.93	1081.80
374.30	1079.01
374.67	1077.70
375.04	1079.24
375.41	1076.90
375.78	1074.52
376.15	1075.85
376.52	1078.26
376.89	1079.50
377.26	1081.16
377.63	1084.65
378.00	1085.00
378.37	1084.49
378.74	1079.95
379.11	1077.96
379.48	1077.54
379.85	1076.55
380.22	1078.82
380.59	1082.61
380.96	1083.11
381.33	1078.75
381.70	1077.86
382.07	1072.88
382.44	1073.53
382.81	1072.53
383.18	1074.89
383.55	1074.66
383.92	1075.27
384.29	1075.03
384.66	1079.78
385.03	1078.99
385.40	1081.58
385.77	1083.53
386.14	1084.11
386.51	1081.87
386.88	1085.28
387.25	1085.45
387.62	1090.06
387.99	1092.49
388.36	1091.06
388.73	1089.50
389.10	1087.09
389.46	1083.57
389.83	1079.81
390.20	1081.63
390.57	1082.15
390.94	1083.34
391.31	1082.36
391.68	1082.87
392.05	1082.85
392.42	1081.56
392.79	1083.06
393.16	1084.86
393.53	1085.99
393.89	1088.58
394.26	1086.97
394.63	1089.57
395.00	1089.94
395.37	1083.74
395.74	1083.39
396.11	1087.90
396.48	1085.75
396.84	1083.25
397.21	1085.87
397.58	1082.73
397.95	1084.23
398.32	1084.39
398.69	1086.36
399.06	1088.58
399.42	1089.92
399.79	1086.73
400.16	1088.33
400.53	1089.64
400.90	1090.41
401.27	1090.69
401.64	1092.33
402.00	1090.71
402.37	1092.33
402.74	1094.76
403.11	1092.98
403.48	1089.29
403.84	1091.58
404.21	1090.15
404.58	1090.06
404.95	1091.84
405.32	1094.50
405.68	1094.86
406.05	1093.73
406.42	1093.31
406.79	1095.25
407.16	1095.79
407.52	1092.19
407.89	1093.08
408.26	1092.28
408.63	1091.58
408.99	1090.10
409.36	1093.40
409.73	1094.72
410.10	1097.50
410.47	1097.73
410.83	1100.36
411.20	1099.89
411.57	1100.24
411.94	1098.39
412.30	1100.08
412.67	1104.52
413.04	1106.09
413.40	1104.71
413.77	1101.64
414.14	1099.09
414.51	1095.51
414.87	1094.46
415.24	1096.03
415.61	1098.88
415.97	1100.40
416.34	1100.47
416.71	1104.01
417.08	1102.84
417.44	1104.45
417.81	1105.39
418.18	1103.49
418.54	1101.55
418.91	1103.56
419.28	1106.93
419.64	1105.93
420.01	1109.88
420.38	1111.71
420.74	1112.90
421.11	1113.28
421.48	1116.72
421.84	1116.13
422.21	1119.10
422.58	1123.27
422.94	1125.77
423.31	1128.61
423.68	1134.34
424.04	1137.13
424.41	1138.46
424.77	1142.13
425.14	1147.68
425.51	1152.74
425.87	1156.88
426.24	1160.53
426.61	1163.06
426.97	1165.42
427.34	1167.86
427.70	1173.26
428.07	1180.73
428.44	1188.15
428.80	1196.90
429.17	1206.01
429.53	1210.29
429.90	1219.70
430.27	1228.52
430.63	1237.68
431.00	1250.08
431.36	1265.04
431.73	1276.15
432.09	1287.51
432.46	1300.68
432.83	1312.83
433.19	1328.84
433.56	1347.94
433.92	1371.53
434.29	1393.53
434.65	1418.83
435.02	1442.24
435.38	1467.42
435.75	1488.67
436.11	1516.99
436.48	1548.48
436.84	1585.06
437.21	1619.30
437.57	1659.79
437.94	1699.91
438.30	1742.32
438.67	1785.34
439.03	1835.42
439.40	1888.79
439.76	1945.03
440.13	2004.20
440.49	2071.61
440.86	2137.31
441.22	2210.87
441.59	2286.07
441.95	2369.25
442.32	2454.19
442.68	2551.37
443.05	2646.61
443.41	2745.40
443.78	2843.75
444.14	2946.80
444.51	3058.59
444.87	3199.75
445.24	3343.13
445.60	3502.05
445.96	3658.96
446.33	3830.31
446.69	3993.14
447.06	4168.77
447.42	4343.26
447.79	4537.88
448.15	4760.16
448.51	4985.15
448.88	5246.47
449.24	5489.98
449.61	5773.19
449.97	6046.47
450.33	6330.33
450.70	6597.97
451.06	6927.52
451.43	7233.00
451.79	7589.26
452.15	7989.75
452.52	8434.99
452.88	8900.33
453.24	9428.47
453.61	10021.80
453.97	10599.42
454.34	11153.31
454.70	11803.56
455.06	12457.57
455.43	13071.40
455.79	13660.12
456.15	14388.72
456.52	15062.49
456.88	15825.65
457.24	16564.60
457.61	17422.27
457.97	18183.81
458.33	18966.02
458.70	19732.54
459.06	20485.21
459.42	21322.33
459.79	22110.50
460.15	23012.52
460.51	23882.99
460.88	24833.95
461.24	25625.38
461.60	26595.02
461.96	27468.18
462.33	28303.05
462.69	29070.60
463.05	29920.14
463.42	30599.91
463.78	31250.79
464.14	31782.09
464.50	32374.03
464.87	32834.81
465.23	33215.08
465.59	33549.03
465.95	33878.83
466.32	34158.57
466.68	34404.87
467.04	34537.32
467.40	34684.33
467.77	34841.14
468.13	34815.98
468.49	34725.19
468.85	34665.00
469.22	34483.93
469.58	34149.35
469.94	33883.16
470.30	33572.15
470.66	33161.27
471.03	32589.71
471.39	32190.86
471.75	31548.10
472.11	30920.33
472.47	30544.41
472.84	30224.98
473.20	29726.61
473.56	29487.31
473.92	29082.35
474.28	28566.29
474.65	28049.80
475.01	27566.57
475.37	26984.29
475.73	26505.70
476.09	25966.49
476.45	25450.26
476.81	24936.77
477.18	24384.94
477.54	23950.70
477.90	23597.82
478.26	23171.00
478.62	22833.35
478.98	22547.48
479.34	22219.20
479.71	21795.56
480.07	21465.83
480.43	21091.83
480.79	20696.12
481.15	20336.75
481.51	20030.26
481.87	19780.45
482.23	19498.96
482.59	19241.03
482.96	18974.72
483.32	18676.14
483.68	18292.01
484.04	17965.88
484.40	17613.16
484.76	17229.10
485.12	16861.29
485.48	16533.85
485.84	16172.12
486.20	15822.21
486.56	15454.67
486.92	15141.93
487.28	14792.37
487.64	14429.08
488.00	14098.40
488.37	13778.55
488.73	13419.63
489.09	13065.62
489.45	12762.45
489.81	12441.07
490.17	12145.46
490.53	11869.25
490.89	11577.18
491.25	11268.16
491.61	10961.57
491.97	10641.81
492.33	10314.72
492.69	10019.62
493.05	9718.07
493.41	9424.99
493.77	9149.93
494.13	8887.44
494.49	8633.89
494.85	8394.75
495.21	8173.62
495.57	7961.17
495.93	7758.29
496.29	7553.00
496.64	7361.06
497.00	7169.37
497.36	6974.23
497.72	6785.10
498.08	6606.49
498.44	6427.42
498.80	6253.23
499.16	6099.58
499.52	5933.54
499.88	5803.57
500.24	5689.66
500.60	5572.02
500.96	5455.09
501.32	5346.51
501.68	5225.81
502.03	5094.85
502.39	4966.43
502.75	4832.15
503.11	4708.43
503.47	4590.09
503.83	4467.54
504.19	4347.59
504.55	4242.29
504.91	4141.93
505.26	4039.27
505.62	3958.83
505.98	3868.27
506.34	3774.65
506.70	3685.20
507.06	3598.90
507.42	3507.08
507.78	3430.80
508.13	3356.42
508.49	3281.24
508.85	3213.32
509.21	3148.82
509.57	3084.59
509.93	3016.08
510.28	2951.95
510.64	2883.98
511.00	2820.93
511.36	2757.85
511.72	2705.19
512.07	2655.36
512.43	2611.64
512.79	2556.33
513.15	2514.79
513.51	2472.12
513.86	2429.03
514.22	2384.28
514.58	2346.78
514.94	2303.91
515.30	2263.63
515.65	2224.56
516.01	2187.37
516.37	2153.06
516.73	2126.82
517.08	2101.96
517.44	2071.98
517.80	2047.13
518.16	2024.66
518.51	1990.30
518.87	1956.20
519.23	1928.44
519.59	1902.95
519.94	1872.92
520.30	1852.65
520.66	1826.48
521.01	1803.48
521.37	1780.56
521.73	1766.36
522.09	1750.77
522.44	1735.04
522.80	1715.05
523.16	1692.96
523.51	1666.53
523.87	1643.83
524.23	1627.12
524.58	1611.08
524.94	1596.03
525.30	1579.60
525.65	1563.41
526.01	1547.73
526.37	1534.13
526.72	1518.89
527.08	1506.44
527.44	1493.47
527.79	1481.56
528.15	1468.50
528.51	1459.49
528.86	1448.58
529.22	1434.09
529.58	1422.06
529.93	1409.59
530.29	1396.11
530.65	1385.34
531.00	1379.72
531.36	1369.70
531.71	1362.38
532.07	1353.41
532.43	1345.32
532.78	1339.25
533.14	1331.48
533.49	1327.22
533.85	1323.22
534.21	1317.37
534.56	1305.71
534.92	1297.36
535.27	1289.45
535.63	1283.46
535.98	1278.73
536.34	1273.04
536.69	1272.67
537.05	1266.93
537.41	1262.20
537.76	1258.32
538.12	1254.85
538.47	1247.72
538.83	1239.48
539.18	1233.79
539.54	1230.35
539.89	1227.26
540.25	1224.29
540.60	1225.01
540.96	1222.46
541.31	1215.53
541.67	1211.16
542.02	1207.95
542.38	1205.59
542.73	1203.18
543.09	1199.52
543.44	1195.29
543.80	1192.22
544.15	1186.93
544.51	1182.35
544.86	1181.34
545.22	1183.96
545.57	1180.59
545.93	1177.38
546.28	1177.78
546.64	1174.34
546.99	1171.77
547.35	1168.47
547.70	1165.45
548.05	1159.08
548.41	1156.44
548.76	1154.12
549.12	1156.15
549.47	1156.62
549.83	1156.37
550.18	1154.54
550.53	1149.27
550.89	1144.94
551.24	1142.98
551.60	1143.09
551.95	1142.98
552.30	1141.01
552.66	1139.61
553.01	1136.00
553.37	1133.57
553.72	1135.56
554.07	1134.72
554.43	1133.78
554.78	1133.85
555.13	1130.88
555.49	1128.82
555.84	1128.75
556.19	1126.62
556.55	1125.98
556.90	1125.40
557.26	1124.58
557.61	1122.66
557.96	1123.06
558.32	1123.76
558.67	1123.11
559.02	1115.24
559.37	1115.45
559.73	1113.16
560.08	1112.64
560.43	1114.68
560.79	1117.07
561.14	1115.64
561.49	1115.01
561.85	1112.34
562.20	1109.04
562.55	1108.66
562.90	1110.23
563.26	1110.37
563.61	1111.29
563.96	1112.25
564.32	1113.21
564.67	1110.23
565.02	1108.88
565.37	1106.49
565.73	1104.83
566.08	1104.94
566.43	1104.99
566.78	1105.93
567.14	1107.31
567.49	1108.64
567.84	1107.40
568.19	1108.95
568.54	1108.90
568.90	1108.92
569.25	1106.77
569.60	1110.28
569.95	1109.20
570.31	1105.44
570.66	1103.84
571.01	1102.63
571.36	1100.17
571.71	1098.65
572.06	1098.11
572.42	1097.64
572.77	1096.49
573.12	1095.39
573.47	1094.93
573.82	1096.73
574.18	1094.90
574.53	1095.44
574.88	1094.76
575.23	1094.86
575.58	1095.49
575.93	1094.39
576.28	1094.39
576.64	1097.31
576.99	1095.75
577.34	1094.15
577.69	1096.56
578.04	1097.06
578.39	1093.59
578.74	1095.44
579.09	1096.42
579.44	1094.36
579.80	1093.80
580.15	1094.08
580.50	1096.31
580.85	1095.09
581.20	1094.69
581.55	1096.00
581.90	1094.32
582.25	1091.88
582.60	1089.61
582.95	1091.23
583.30	1088.72
583.65	1090.57
584.00	1092.70
584.35	1098.13
584.71	1097.83
585.06	1100.96
585.41	1097.73
585.76	1094.93
586.11	1089.68
586.46	1089.26
586.81	1086.48
587.16	1087.93
587.51	1087.37
587.86	1089.99
588.21	1089.31
588.56	1090.90
588.91	1093.36
589.26	1094.32
589.61	1095.72
589.96	1095.21
590.31	1093.31
590.66	1087.83
591.01	1086.62
591.36	1083.50
591.71	1084.74
592.06	1086.66
592.41	1094.22
592.76	1094.79
593.10	1095.77
593.45	1091.79
593.80	1089.64
594.15	1085.66
594.50	1085.35
594.85	1085.61
595.20	1089.10
595.55	1091.39
595.90	1089.89
596.25	1092.40
596.60	1094.11
596.95	1093.69
597.30	1093.94
597.64	1105.62
597.99	1101.20
598.34	1097.57
598.69	1094.39
599.04	1092.47
599.39	1079.41
599.74	1075.55
600.09	1077.51
600.44	1081.84
600.78	1083.25
601.13	1084.11
601.48	1092.61
601.83	1092.73
602.18	1090.34
602.53	1087.46
602.88	1087.44
603.22	1081.00
603.57	1075.99
603.92	1079.31
604.27	1080.65
604.62	1081.00
604.97	1083.83
605.31	1087.41
605.66	1084.23
606.01	1083.64
606.36	1084.51
606.71	1081.21
607.05	1083.48
607.40	1085.40
607.75	1084.09
608.10	1085.12
608.44	1088.35
608.79	1085.94
609.14	1082.59
609.49	1086.43
609.84	1085.59
610.18	1086.20
610.53	1084.60
610.88	1089.45
611.23	1086.01
611.57	1083.20
611.92	1081.21
612.27	1080.53
612.62	1077.77
612.96	1076.37
613.31	1079.38
613.66	1080.16
614.00	1084.44
614.35	1084.23
614.70	1087.04
615.05	1085.35
615.39	1083.97
615.74	1079.57
616.09	1080.41
616.43	1078.96
616.78	1076.95
617.13	1079.83
617.47	1081.07
617.82	1079.76
618.17	1082.10
618.51	1086.20
618.86	1085.87
619.21	1087.76
619.55	1088.35
619.90	1086.45
620.25	1083.95
620.59	1082.61
620.94	1081.73
621.29	1081.16
621.63	1078.96
621.98	1080.72
622.32	1080.84
622.67	1082.19
623.02	1082.94
623.36	1086.45
623.71	1084.58
624.05	1085.10
624.40	1085.10
624.75	1086.66
625.09	1087.23
625.44	1088.98
625.78	1089.78
626.13	1087.79
626.48	1087.20
626.82	1086.94
627.17	1086.99
627.51	1088.68
627.86	1087.44
628.20	1087.30
628.55	1088.33
628.89	1087.79
629.24	1086.45
629.58	1087.74
629.93	1085.05
630.28	1081.02
630.62	1081.96
630.97	1080.34
631.31	1081.37
631.66	1081.40
632.00	1082.52
632.35	1083.60
632.69	1083.90
633.04	1083.41
633.38	1088.35
633.73	1088.19
634.07	1088.54
634.42	1087.04
634.76	1088.12
635.11	1081.98
635.45	1080.93
635.79	1077.89
636.14	1080.60
636.48	1076.67
636.83	1077.75
637.17	1077.98
637.52	1079.41
637.86	1077.04
638.21	1079.10
638.55	1080.56
638.89	1079.46
639.24	1077.35
639.58	1077.75
639.93	1076.39
640.27	1074.49
640.61	1077.11
640.96	1076.83
641.30	1078.12
641.65	1081.00
641.99	1081.12
642.33	1081.19
642.68	1083.93
643.02	1084.11
643.37	1082.64
643.71	1083.69
644.05	1084.77
644.40	1083.74
644.74	1081.63
645.08	1083.06
645.43	1082.94
645.77	1082.03
646.11	1082.71
646.46	1085.47
646.80	1084.44
647.14	1083.64
647.49	1084.79
647.83	1082.15
648.17	1080.39
648.52	1081.33
648.86	1082.33
649.20	1079.57
649.55	1083.27
649.89	1083.79
650.23	1084.79
650.57	1084.58
650.92	1084.93
651.26	1081.70
651.60	1083.25
651.95	1082.87
652.29	1085.70
652.63	1084.79
652.97	1086.59
653.32	1085.77
653.66	1082.47
654.00	1082.01
654.34	1085.45
654.69	1084.46
655.03	1079.97
655.37	1079.83
655.71	1076.90
656.05	1071.43
656.40	1070.28
656.74	1074.21
657.08	1076.23
657.42	1076.86
657.76	1081.77
658.11	1082.80
658.45	1083.20
658.79	1082.38
659.13	1083.62
659.47	1082.59
659.82	1084.37
660.16	1082.29
660.50	1081.94
660.84	1081.73
661.18	1084.74
661.52	1083.90
661.87	1087.76
662.21	1089.38
662.55	1091.37
662.89	1088.51
663.23	1087.60
663.57	1087.48
663.91	1087.32
664.25	1079.48
664.60	1079.13
664.94	1082.71
665.28	1080.98
665.62	1081.21
665.96	1087.83
666.30	1088.61
666.64	1084.07
666.98	1082.45
667.32	1081.26
667.66	1078.07
668.01	1079.27
668.35	1077.56
668.69	1078.54
669.03	1079.71
669.37	1083.97
669.71	1080.77
670.05	1083.29
670.39	1080.86
670.73	1080.51
671.07	1078.89
671.41	1079.71
671.75	1078.96
672.09	1083.76
672.43	1079.64
672.77	1078.68
673.11	1080.06
673.45	1080.37
673.79	1075.34
674.13	1083.01
674.47	1082.05
674.81	1079.92
675.15	1081.21
675.49	1082.15
675.83	1081.73
676.17	1085.35
676.51	1086.27
676.85	1084.35
677.19	1087.95
677.53	1084.63
677.87	1083.11
678.21	1080.41
678.55	1081.26
678.89	1078.24
679.23	1078.24
679.57	1076.51
679.90	1078.54
680.24	1078.80
680.58	1078.87
680.92	1080.37
681.26	1080.39
681.60	1079.43
681.94	1081.35
682.28	1083.46
682.62	1081.16
682.96	1081.70
683.29	1084.49
683.63	1084.02
683.97	1083.18
684.31	1086.29
684.65	1086.17
684.99	1084.30
685.33	1081.28
685.67	1081.70
686.00	1078.38
686.34	1077.70
686.68	1078.64
687.02	1078.71
687.36	1080.56
687.70	1078.50
688.03	1078.71
688.37	1078.40
688.71	1083.93
689.05	1082.57
689.39	1084.46
689.72	1087.53
690.06	1087.72
690.40	1083.01
690.74	1081.40
691.08	1085.73
691.41	1087.39
691.75	1087.06
692.09	1086.06
692.43	1084.04
692.76	1077.82
693.10	1074.38
693.44	1075.50
693.78	1076.20
694.11	1079.55
694.45	1084.09
694.79	1084.70
695.13	1083.83
695.46	1086.22
695.80	1085.56
696.14	1085.56
696.48	1083.55
696.81	1085.70
697.15	1085.80
697.49	1085.38
697.82	1081.82
698.16	1083.01
698.50	1079.88
698.83	1078.78
699.17	1075.01
699.51	1075.48
699.84	1074.54
700.18	1075.08
700.52	1077.42
700.85	1079.50
701.19	1081.84
701.53	1082.99
701.86	1085.49
702.20	1081.96
702.54	1083.79
702.87	1084.77
703.21	1085.35
703.55	1086.10
703.88	1088.33
704.22	1087.79
704.55	1085.14
704.89	1083.81
705.23	1080.16
705.56	1078.31
705.90	1078.87
706.23	1077.02
706.57	1077.16
706.91	1078.59
707.24	1080.51
707.58	1080.81
707.91	1082.15
708.25	1081.94
708.58	1081.70
708.92	1080.37
709.26	1077.79
709.59	1080.51
709.93	1083.67
710.26	1084.60
710.60	1082.83
710.93	1084.63
711.27	1085.07
711.60	1082.54
711.94	1080.39
712.27	1078.78
712.61	1076.67
712.94	1073.56
713.28	1073.98
713.61	1075.38
713.95	1079.62
714.28	1082.01
714.62	1083.81
714.95	1080.11
715.29	1081.61
715.62	1079.53
715.96	1078.36
716.29	1078.05
716.63	1077.49
716.96	1074.61
717.29	1077.63
717.63	1080.51
717.96	1079.38
718.30	1085.33
718.63	1086.50
718.97	1086.22
719.30	1083.55
719.63	1084.60
719.97	1081.56
720.30	1079.67
720.64	1080.88
720.97	1080.65
721.30	1080.93
721.64	1082.24
721.97	1083.36
722.31	1082.87
722.64	1083.97
722.97	1082.78
723.31	1081.94
723.64	1083.53
723.97	1080.16
724.31	1080.34
724.64	1082.94
724.98	1086.08
725.31	1083.36
725.64	1082.01
725.98	1083.79
726.31	1084.02
726.64	1081.28
726.97	1082.12
727.31	1082.45
727.64	1079.83
727.97	1078.82
728.31	1080.27
728.64	1084.35
728.97	1087.27
729.31	1087.74
729.64	1084.44
729.97	1080.81
730.30	1075.13
730.64	1074.33
730.97	1074.91
731.30	1076.88
731.63	1079.36
731.97	1081.09
732.30	1082.29
732.63	1085.73
732.96	1084.07
733.30	1081.33
733.63	1078.47
733.96	1076.44
734.29	1073.28
734.63	1075.97
734.96	1079.97
735.29	1081.94
735.62	1080.95
735.95	1081.05
736.29	1082.76
736.62	1081.70
736.95	1084.44
737.28	1086.57
737.61	1086.85
737.94	1081.82
738.28	1081.44
738.61	1078.75
738.94	1080.30
739.27	1076.95
739.60	1079.01
739.93	1077.51
740.27	1076.53
740.60	1076.69
740.93	1081.26
741.26	1080.67
741.59	1084.42
741.92	1085.07
742.25	1081.77
742.58	1079.64
742.91	1081.98
743.25	1079.57
743.58	1082.10
743.91	1083.81
744.24	1081.61
744.57	1079.90
744.90	1077.33
745.23	1076.81
745.56	1075.62
745.89	1076.81
746.22	1073.77
746.55	1073.86
746.88	1073.56
747.21	1077.21
747.54	1078.99
747.87	1082.01
748.20	1085.03
748.53	1084.39
748.87	1081.09
749.20	1081.77
749.53	1080.70
749.86	1079.90
750.19	1081.23
750.52	1080.63
750.85	1078.85
751.18	1079.43
751.51	1079.50
751.84	1076.65
752.16	1077.84
752.49	1076.81
752.82	1077.91
753.15	1075.83
753.48	1077.89
753.81	1078.59
754.14	1076.67
754.47	1074.87
754.80	1076.25
755.13	1078.36
755.46	1079.90
755.79	1081.42
756.12	1082.59
756.45	1081.82
756.78	1077.30
757.11	1072.62
757.43	1072.78
757.76	1070.51
758.09	1071.87
758.42	1074.19
758.75	1076.51
759.08	1077.40
759.41	1079.95
759.74	1080.93
760.07	1080.23
760.39	1080.56
760.72	1084.21
761.05	1083.57
761.38	1085.21
761.71	1086.99
762.04	1084.67
762.36	1079.53
762.69	1080.74
763.02	1079.99
763.35	1079.10
763.68	1081.51
764.01	1085.56
