SpectraSuite Data File
++++++++++++++++++++++++++++++++++++
Date: Mon Aug 26 10:21:53 PDT 2019
User: corrico
Dark Spectrum Present: No
Reference Spectrum Present: No
Number of Sampled Component Spectra: 1
Spectrometers: USB2+H06089
Integration Time (usec): 2000 (USB2+H06089)
Spectra Averaged: 20 (USB2+H06089)
Boxcar Smoothing: 2 (USB2+H06089)
Correct for Electrical Dark: No (USB2+H06089)
Strobe/Lamp Enabled: No (USB2+H06089)
Correct for Detector Non-linearity: No (USB2+H06089)
Correct for Stray Light: No (USB2+H06089)
Number of Pixels in Processed Spectrum: 2048
>>>>>Begin Processed Spectral Data<<<<<
339.70	1021.18
340.07	1021.18
340.45	988.74
340.82	965.24
341.19	945.08
341.57	920.30
341.94	908.69
342.31	899.94
342.69	895.18
343.06	889.10
343.43	889.36
343.81	888.42
344.18	891.84
344.55	897.64
344.93	904.17
345.30	906.23
345.67	915.69
346.04	926.52
346.42	935.18
346.79	944.41
347.16	956.76
347.54	965.45
347.91	971.65
348.28	982.70
348.65	987.54
349.03	994.87
349.40	1002.76
349.77	1008.35
350.14	1010.69
350.52	1020.33
350.89	1027.38
351.26	1033.32
351.63	1042.92
352.01	1051.77
352.38	1053.05
352.75	1056.00
353.12	1058.02
353.50	1059.58
353.87	1061.46
354.24	1067.17
354.61	1069.44
354.98	1071.54
355.36	1073.25
355.73	1074.47
356.10	1077.21
356.47	1075.22
356.84	1076.62
357.22	1078.10
357.59	1078.00
357.96	1075.97
358.33	1077.51
358.70	1074.96
359.08	1069.81
359.45	1066.37
359.82	1062.72
360.19	1060.33
360.56	1059.33
360.94	1060.33
361.31	1061.22
361.68	1060.45
362.05	1063.63
362.42	1064.66
362.79	1062.91
363.16	1062.16
363.54	1063.61
363.91	1059.82
364.28	1058.91
364.65	1058.65
365.02	1058.55
365.39	1058.79
365.76	1060.29
366.14	1058.11
366.51	1060.82
366.88	1059.86
367.25	1059.96
367.62	1059.42
367.99	1062.04
368.36	1060.87
368.73	1064.01
369.10	1063.70
369.48	1063.77
369.85	1064.17
370.22	1062.42
370.59	1058.30
370.96	1060.87
371.33	1061.13
371.70	1060.71
372.07	1063.56
372.44	1064.55
372.81	1062.49
373.18	1062.56
373.55	1062.93
373.93	1061.06
374.30	1062.67
374.67	1062.44
375.04	1062.28
375.41	1064.92
375.78	1067.47
376.15	1069.34
376.52	1068.59
376.89	1070.70
377.26	1067.38
377.63	1068.13
378.00	1065.15
378.37	1067.71
378.74	1065.83
379.11	1065.74
379.48	1062.84
379.85	1063.89
380.22	1061.95
380.59	1062.44
380.96	1066.25
381.33	1071.19
381.70	1071.57
382.07	1071.71
382.44	1071.90
382.81	1066.84
383.18	1064.26
383.55	1065.39
383.92	1064.94
384.29	1065.46
384.66	1067.68
385.03	1066.56
385.40	1066.14
385.77	1066.65
386.14	1068.90
386.51	1070.14
386.88	1071.68
387.25	1069.30
387.62	1065.37
387.99	1061.67
388.36	1062.53
388.73	1058.95
389.10	1059.70
389.46	1064.45
389.83	1065.55
390.20	1066.58
390.57	1066.86
390.94	1068.71
391.31	1066.02
391.68	1066.11
392.05	1063.80
392.42	1065.18
392.79	1064.50
393.16	1066.61
393.53	1065.69
393.89	1065.51
394.26	1065.06
394.63	1065.25
395.00	1065.11
395.37	1068.08
395.74	1068.99
396.11	1069.18
396.48	1067.71
396.84	1071.03
397.21	1072.25
397.58	1068.95
397.95	1071.73
398.32	1075.62
398.69	1070.28
399.06	1069.65
399.42	1074.07
399.79	1072.74
400.16	1070.16
400.53	1072.67
400.90	1068.95
401.27	1067.64
401.64	1066.93
402.00	1067.75
402.37	1066.51
402.74	1069.95
403.11	1069.72
403.48	1072.64
403.84	1074.98
404.21	1073.25
404.58	1072.32
404.95	1072.64
405.32	1071.47
405.68	1067.12
406.05	1070.37
406.42	1070.68
406.79	1071.15
407.16	1068.81
407.52	1070.56
407.89	1069.67
408.26	1069.93
408.63	1070.30
408.99	1072.22
409.36	1072.20
409.73	1072.60
410.10	1072.15
410.47	1070.80
410.83	1070.70
411.20	1070.58
411.57	1069.65
411.94	1069.95
412.30	1069.70
412.67	1069.44
413.04	1070.94
413.40	1071.24
413.77	1068.31
414.14	1067.89
414.51	1070.14
414.87	1070.16
415.24	1073.79
415.61	1076.53
415.97	1076.18
416.34	1074.00
416.71	1072.39
417.08	1070.56
417.44	1069.88
417.81	1071.80
418.18	1072.62
418.54	1071.45
418.91	1072.43
419.28	1072.53
419.64	1072.36
420.01	1075.24
420.38	1076.95
420.74	1075.66
421.11	1080.41
421.48	1082.90
421.84	1082.24
422.21	1082.26
422.58	1085.59
422.94	1081.07
423.31	1079.83
423.68	1076.20
424.04	1078.73
424.41	1078.17
424.77	1081.54
425.14	1082.61
425.51	1083.29
425.87	1085.31
426.24	1081.28
426.61	1081.51
426.97	1079.20
427.34	1083.39
427.70	1079.57
428.07	1082.33
428.44	1080.30
428.80	1086.17
429.17	1089.45
429.53	1092.61
429.90	1095.67
430.27	1095.86
430.63	1092.49
431.00	1090.67
431.36	1089.17
431.73	1089.47
432.09	1095.75
432.46	1100.57
432.83	1103.80
433.19	1108.03
433.56	1108.48
433.92	1109.16
434.29	1110.09
434.65	1107.89
435.02	1111.31
435.38	1115.85
435.75	1115.12
436.11	1116.48
436.48	1121.58
436.84	1124.51
437.21	1130.17
437.57	1135.89
437.94	1142.74
438.30	1147.38
438.67	1151.80
439.03	1154.96
439.40	1164.37
439.76	1173.03
440.13	1180.33
440.49	1186.37
440.86	1194.31
441.22	1196.53
441.59	1201.14
441.95	1210.97
442.32	1218.13
442.68	1228.20
443.05	1241.79
443.41	1253.71
443.78	1262.60
444.14	1278.31
444.51	1290.38
444.87	1300.78
445.24	1310.11
445.60	1327.72
445.96	1341.92
446.33	1357.67
446.69	1377.55
447.06	1396.62
447.42	1409.82
447.79	1428.85
448.15	1449.14
448.51	1468.66
448.88	1494.95
449.24	1522.61
449.61	1551.61
449.97	1581.20
450.33	1610.59
450.70	1636.34
451.06	1663.89
451.43	1690.12
451.79	1723.66
452.15	1762.82
452.52	1807.85
452.88	1850.76
453.24	1898.50
453.61	1948.17
453.97	1997.48
454.34	2045.70
454.70	2102.43
455.06	2160.36
455.43	2212.27
455.79	2262.92
456.15	2320.20
456.52	2373.00
456.88	2441.01
457.24	2516.94
457.61	2597.20
457.97	2675.68
458.33	2766.47
458.70	2843.49
459.06	2916.42
459.42	3000.85
459.79	3074.34
460.15	3153.85
460.51	3234.20
460.88	3319.79
461.24	3389.14
461.60	3480.63
461.96	3564.87
462.33	3648.94
462.69	3722.86
463.05	3804.54
463.42	3877.31
463.78	3943.38
464.14	4002.20
464.50	4067.59
464.87	4116.11
465.23	4144.39
465.59	4173.36
465.95	4204.02
466.32	4234.90
466.68	4265.84
467.04	4299.52
467.40	4318.73
467.77	4330.83
468.13	4326.41
468.49	4326.90
468.85	4319.74
469.22	4315.32
469.58	4299.42
469.94	4291.02
470.30	4269.61
470.66	4240.86
471.03	4206.01
471.39	4184.71
471.75	4135.82
472.11	4087.14
472.47	4049.88
472.84	4010.72
473.20	3948.60
473.56	3908.04
473.92	3860.20
474.28	3813.46
474.65	3765.95
475.01	3733.20
475.37	3678.25
475.73	3637.38
476.09	3593.73
476.45	3550.78
476.81	3502.00
477.18	3468.00
477.54	3428.25
477.90	3388.96
478.26	3344.79
478.62	3300.53
478.98	3266.92
479.34	3238.11
479.71	3200.78
480.07	3171.96
480.43	3148.37
480.79	3119.00
481.15	3082.70
481.51	3057.23
481.87	3032.40
482.23	3002.53
482.59	2974.03
482.96	2947.37
483.32	2919.61
483.68	2885.65
484.04	2859.74
484.40	2828.65
484.76	2805.39
485.12	2778.99
485.48	2756.89
485.84	2725.48
486.20	2693.49
486.56	2653.98
486.92	2618.03
487.28	2579.64
487.64	2546.78
488.00	2517.74
488.37	2488.41
488.73	2455.81
489.09	2424.40
489.45	2392.57
489.81	2355.40
490.17	2317.86
490.53	2282.68
490.89	2243.82
491.25	2203.17
491.61	2172.91
491.97	2146.11
492.33	2118.68
492.69	2096.63
493.05	2075.61
493.41	2047.41
493.77	2021.97
494.13	1998.44
494.49	1970.05
494.85	1943.58
495.21	1915.92
495.57	1889.49
495.93	1864.61
496.29	1840.90
496.64	1819.51
497.00	1802.40
497.36	1779.46
497.72	1752.73
498.08	1729.98
498.44	1711.45
498.80	1688.67
499.16	1673.74
499.52	1660.54
499.88	1648.21
500.24	1634.77
500.60	1622.69
500.96	1608.11
501.32	1595.12
501.68	1583.84
502.03	1566.52
502.39	1547.28
502.75	1533.26
503.11	1518.28
503.47	1502.48
503.83	1492.68
504.19	1486.22
504.55	1475.33
504.91	1466.02
505.26	1454.78
505.62	1439.20
505.98	1426.42
506.34	1411.69
506.70	1401.51
507.06	1390.68
507.42	1380.59
507.78	1371.44
508.13	1361.91
508.49	1349.25
508.85	1342.39
509.21	1335.18
509.57	1324.39
509.93	1319.95
510.28	1312.57
510.64	1301.24
511.00	1295.25
511.36	1291.27
511.72	1283.29
512.07	1277.68
512.43	1270.68
512.79	1261.64
513.15	1255.88
513.51	1250.64
513.86	1246.50
514.22	1244.79
514.58	1243.29
514.94	1236.97
515.30	1231.61
515.65	1224.33
516.01	1218.53
516.37	1211.13
516.73	1207.15
517.08	1203.46
517.44	1198.54
517.80	1193.44
518.16	1191.24
518.51	1188.41
518.87	1186.77
519.23	1185.20
519.59	1182.65
519.94	1176.66
520.30	1171.02
520.66	1165.14
521.01	1157.58
521.37	1155.03
521.73	1152.95
522.09	1152.32
522.44	1151.24
522.80	1152.08
523.16	1149.39
523.51	1149.02
523.87	1146.82
524.23	1142.56
524.58	1141.88
524.94	1139.65
525.30	1140.12
525.65	1137.13
526.01	1135.63
526.37	1134.46
526.72	1134.41
527.08	1129.05
527.44	1127.55
527.79	1126.03
528.15	1123.01
528.51	1121.30
528.86	1119.29
529.22	1117.14
529.58	1116.83
529.93	1117.47
530.29	1113.84
530.65	1114.82
531.00	1114.17
531.36	1111.59
531.71	1107.87
532.07	1108.62
532.43	1109.23
532.78	1106.51
533.14	1109.25
533.49	1108.99
533.85	1106.46
534.21	1103.91
534.56	1104.83
534.92	1100.82
535.27	1100.85
535.63	1101.46
535.98	1101.41
536.34	1100.15
536.69	1100.00
537.05	1097.80
537.41	1097.24
537.76	1094.36
538.12	1097.22
538.47	1096.19
538.83	1094.72
539.18	1095.63
539.54	1094.15
539.89	1088.63
540.25	1087.69
540.60	1090.50
540.96	1086.55
541.31	1087.53
541.67	1090.83
542.02	1091.60
542.38	1093.01
542.73	1095.00
543.09	1095.11
543.44	1093.92
543.80	1093.19
544.15	1089.68
544.51	1090.71
544.86	1092.87
545.22	1090.92
545.57	1089.80
545.93	1087.81
546.28	1085.54
546.64	1083.29
546.99	1084.77
547.35	1087.41
547.70	1090.17
548.05	1089.00
548.41	1086.62
548.76	1086.29
549.12	1083.64
549.47	1080.84
549.83	1082.15
550.18	1082.76
550.53	1084.11
550.89	1083.53
551.24	1085.35
551.60	1081.23
551.95	1083.29
552.30	1081.54
552.66	1082.29
553.01	1078.92
553.37	1082.76
553.72	1079.55
554.07	1080.13
554.43	1081.44
554.78	1082.66
555.13	1080.70
555.49	1083.18
555.84	1084.37
556.19	1085.54
556.55	1085.26
556.90	1083.69
557.26	1081.42
557.61	1077.40
557.96	1072.36
558.32	1075.05
558.67	1076.30
559.02	1076.44
559.37	1077.77
559.73	1079.20
560.08	1079.60
560.43	1084.35
560.79	1085.17
561.14	1085.05
561.49	1086.29
561.85	1084.46
562.20	1082.45
562.55	1084.98
562.90	1085.66
563.26	1082.73
563.61	1079.69
563.96	1082.08
564.32	1079.08
564.67	1078.47
565.02	1079.78
565.37	1083.22
565.73	1077.07
566.08	1075.17
566.43	1074.87
566.78	1074.89
567.14	1075.59
567.49	1075.57
567.84	1079.15
568.19	1080.98
568.54	1080.25
568.90	1079.20
569.25	1082.08
569.60	1079.13
569.95	1075.64
570.31	1075.62
570.66	1076.13
571.01	1074.14
571.36	1075.57
571.71	1078.57
572.06	1078.96
572.42	1080.06
572.77	1084.44
573.12	1083.48
573.47	1081.96
573.82	1082.97
574.18	1081.19
574.53	1078.03
574.88	1076.72
575.23	1076.44
575.58	1076.58
575.93	1075.36
576.28	1073.39
576.64	1071.17
576.99	1071.22
577.34	1070.30
577.69	1071.10
578.04	1072.64
578.39	1074.47
578.74	1074.05
579.09	1073.86
579.44	1070.40
579.80	1070.21
580.15	1074.26
580.50	1072.76
580.85	1075.15
581.20	1077.30
581.55	1076.18
581.90	1076.51
582.25	1078.00
582.60	1076.32
582.95	1078.75
583.30	1082.47
583.65	1078.78
584.00	1080.46
584.35	1078.47
584.71	1077.37
585.06	1075.85
585.41	1076.74
585.76	1077.14
586.11	1079.29
586.46	1081.75
586.81	1081.82
587.16	1081.42
587.51	1081.98
587.86	1080.51
588.21	1076.55
588.56	1075.22
588.91	1074.26
589.26	1070.89
589.61	1072.22
589.96	1077.47
590.31	1076.62
590.66	1078.50
591.01	1079.69
591.36	1079.69
591.71	1074.63
592.06	1075.85
592.41	1075.31
592.76	1077.58
593.10	1077.30
593.45	1076.58
593.80	1076.08
594.15	1076.08
594.50	1072.90
594.85	1070.02
595.20	1070.42
595.55	1070.12
595.90	1068.90
596.25	1068.29
596.60	1070.05
596.95	1069.65
597.30	1071.33
597.64	1083.69
597.99	1086.41
598.34	1088.58
598.69	1087.97
599.04	1086.08
599.39	1074.05
599.74	1073.28
600.09	1073.23
600.44	1077.02
600.78	1077.75
601.13	1080.37
601.48	1079.46
601.83	1077.89
602.18	1075.78
602.53	1075.05
602.88	1072.20
603.22	1073.74
603.57	1075.66
603.92	1076.58
604.27	1076.90
604.62	1077.58
604.97	1077.40
605.31	1077.16
605.66	1078.10
606.01	1076.46
606.36	1074.96
606.71	1074.77
607.05	1072.27
607.40	1069.20
607.75	1073.32
608.10	1072.15
608.44	1069.04
608.79	1070.42
609.14	1070.35
609.49	1068.90
609.84	1073.46
610.18	1079.03
610.53	1080.20
610.88	1085.00
611.23	1086.10
611.57	1085.12
611.92	1082.59
612.27	1079.83
612.62	1076.79
612.96	1076.15
613.31	1076.93
613.66	1077.47
614.00	1080.02
614.35	1082.22
614.70	1080.09
615.05	1078.24
615.39	1074.03
615.74	1073.21
616.09	1071.47
616.43	1074.75
616.78	1074.87
617.13	1079.55
617.47	1078.71
617.82	1076.48
618.17	1074.63
618.51	1074.61
618.86	1075.34
619.21	1075.05
619.55	1076.01
619.90	1074.28
620.25	1073.07
620.59	1072.48
620.94	1074.07
621.29	1074.21
621.63	1075.20
621.98	1077.77
622.32	1075.64
622.67	1074.77
623.02	1077.91
623.36	1080.34
623.71	1080.20
624.05	1076.41
624.40	1075.08
624.75	1073.46
625.09	1072.06
625.44	1070.54
625.78	1075.27
626.13	1074.07
626.48	1075.03
626.82	1073.77
627.17	1076.67
627.51	1073.72
627.86	1075.90
628.20	1074.52
628.55	1077.09
628.89	1073.60
629.24	1075.83
629.58	1074.38
629.93	1072.57
630.28	1070.05
630.62	1071.05
630.97	1070.12
631.31	1069.67
631.66	1070.51
632.00	1070.14
632.35	1070.12
632.69	1071.31
633.04	1074.10
633.38	1076.11
633.73	1078.38
634.07	1079.22
634.42	1079.69
634.76	1080.67
635.11	1080.72
635.45	1076.04
635.79	1076.06
636.14	1075.59
636.48	1073.56
636.83	1071.61
637.17	1077.02
637.52	1076.39
637.86	1077.65
638.21	1079.83
638.55	1082.10
638.89	1081.02
639.24	1083.67
639.58	1080.60
639.93	1080.60
640.27	1083.11
640.61	1081.26
640.96	1080.98
641.30	1083.43
641.65	1081.87
641.99	1078.64
642.33	1078.38
642.68	1073.44
643.02	1076.13
643.37	1076.20
643.71	1074.24
644.05	1078.38
644.40	1081.23
644.74	1080.06
645.08	1082.66
645.43	1084.74
645.77	1084.25
646.11	1084.30
646.46	1080.51
646.80	1079.85
647.14	1080.93
647.49	1078.89
647.83	1077.54
648.17	1077.63
648.52	1073.32
648.86	1070.63
649.20	1069.06
649.55	1071.50
649.89	1071.66
650.23	1071.26
650.57	1069.81
650.92	1071.38
651.26	1070.75
651.60	1071.52
651.95	1075.05
652.29	1078.12
652.63	1076.65
652.97	1077.51
653.32	1077.09
653.66	1077.11
654.00	1072.92
654.34	1070.30
654.69	1068.20
655.03	1067.73
655.37	1067.99
655.71	1070.26
656.05	1074.59
656.40	1074.40
656.74	1073.81
657.08	1071.40
657.42	1071.45
657.76	1070.26
658.11	1070.07
658.45	1068.01
658.79	1067.78
659.13	1068.90
659.47	1068.69
659.82	1068.99
660.16	1071.78
660.50	1073.42
660.84	1071.43
661.18	1070.98
661.52	1068.78
661.87	1067.68
662.21	1068.83
662.55	1068.97
662.89	1069.09
663.23	1072.20
663.57	1073.30
663.91	1071.59
664.25	1072.69
664.60	1074.63
664.94	1072.76
665.28	1074.14
665.62	1079.50
665.96	1076.53
666.30	1076.55
666.64	1078.80
666.98	1078.31
667.32	1071.90
667.66	1075.59
668.01	1074.73
668.35	1073.79
668.69	1076.90
669.03	1076.53
669.37	1075.62
669.71	1076.06
670.05	1074.19
670.39	1069.18
670.73	1066.54
671.07	1068.81
671.41	1066.93
671.75	1068.57
672.09	1069.95
672.43	1074.33
672.77	1073.70
673.11	1073.35
673.45	1073.23
673.79	1073.23
674.13	1071.97
674.47	1070.16
674.81	1072.41
675.15	1073.16
675.49	1072.34
675.83	1073.21
676.17	1071.59
676.51	1071.40
676.85	1070.16
677.19	1072.64
677.53	1070.00
677.87	1073.56
678.21	1071.40
678.55	1071.57
678.89	1069.70
679.23	1072.57
679.57	1071.73
679.90	1073.30
680.24	1075.97
680.58	1073.35
680.92	1070.87
681.26	1070.28
681.60	1071.45
681.94	1069.98
682.28	1072.29
682.62	1075.45
682.96	1075.99
683.29	1076.76
683.63	1076.46
683.97	1076.30
684.31	1076.06
684.65	1073.37
684.99	1071.80
685.33	1076.06
685.67	1076.06
686.00	1075.48
686.34	1077.91
686.68	1075.94
687.02	1071.78
687.36	1071.61
687.70	1070.65
688.03	1069.60
688.37	1070.00
688.71	1070.35
689.05	1073.51
689.39	1072.95
689.72	1075.17
690.06	1079.20
690.40	1077.21
690.74	1075.66
691.08	1074.73
691.41	1073.88
691.75	1073.42
692.09	1078.47
692.43	1077.65
692.76	1079.06
693.10	1075.03
693.44	1070.82
693.78	1067.31
694.11	1067.24
694.45	1069.79
694.79	1073.51
695.13	1074.68
695.46	1075.24
695.80	1074.73
696.14	1072.22
696.48	1071.50
696.81	1072.67
697.15	1070.65
697.49	1070.16
697.82	1070.82
698.16	1071.38
698.50	1072.55
698.83	1072.41
699.17	1072.67
699.51	1074.28
699.84	1074.17
700.18	1072.29
700.52	1074.38
700.85	1076.44
701.19	1074.21
701.53	1075.03
701.86	1075.87
702.20	1077.28
702.54	1079.57
702.87	1081.40
703.21	1079.41
703.55	1078.64
703.88	1079.48
704.22	1075.52
704.55	1072.83
704.89	1074.35
705.23	1077.56
705.56	1074.26
705.90	1072.18
706.23	1072.48
706.57	1072.95
706.91	1072.69
707.24	1074.77
707.58	1075.97
707.91	1076.30
708.25	1077.91
708.58	1078.85
708.92	1082.78
709.26	1083.79
709.59	1083.62
709.93	1083.67
710.26	1080.04
710.60	1074.77
710.93	1074.31
711.27	1076.53
711.60	1071.71
711.94	1073.09
712.27	1071.90
712.61	1075.76
712.94	1075.17
713.28	1073.04
713.61	1072.41
713.95	1074.03
714.28	1070.44
714.62	1069.60
714.95	1074.38
715.29	1071.82
715.62	1071.71
715.96	1075.03
716.29	1076.06
716.63	1076.39
716.96	1077.28
717.29	1076.39
717.63	1075.69
717.96	1074.75
718.30	1076.27
718.63	1079.03
718.97	1081.37
719.30	1081.16
719.63	1080.39
719.97	1078.17
720.30	1076.34
720.64	1075.31
720.97	1074.56
721.30	1076.97
721.64	1078.89
721.97	1078.57
722.31	1080.27
722.64	1080.67
722.97	1082.59
723.31	1081.96
723.64	1083.69
723.97	1082.10
724.31	1079.53
724.64	1077.04
724.98	1077.86
725.31	1078.12
725.64	1077.40
725.98	1079.17
726.31	1079.53
726.64	1077.77
726.97	1076.90
727.31	1076.65
727.64	1077.63
727.97	1075.03
728.31	1073.21
728.64	1072.29
728.97	1073.95
729.31	1073.25
729.64	1074.66
729.97	1075.45
730.30	1072.57
730.64	1069.39
730.97	1071.10
731.30	1070.44
731.63	1069.39
731.97	1070.02
732.30	1070.91
732.63	1068.71
732.96	1070.65
733.30	1073.04
733.63	1073.79
733.96	1074.75
734.29	1077.68
734.63	1075.69
734.96	1072.36
735.29	1075.03
735.62	1073.93
735.95	1069.53
736.29	1072.53
736.62	1074.54
736.95	1076.34
737.28	1077.09
737.61	1079.95
737.94	1074.75
738.28	1075.57
738.61	1072.83
738.94	1073.42
739.27	1070.16
739.60	1074.21
739.93	1074.80
740.27	1074.26
740.60	1073.11
740.93	1073.79
741.26	1072.20
741.59	1070.94
741.92	1071.92
742.25	1072.46
742.58	1074.63
742.91	1074.38
743.25	1071.33
743.58	1070.23
743.91	1069.46
744.24	1070.72
744.57	1071.38
744.90	1077.04
745.23	1076.30
745.56	1074.35
745.89	1070.56
746.22	1071.87
746.55	1070.96
746.88	1071.57
747.21	1071.66
747.54	1075.45
747.87	1073.37
748.20	1073.00
748.53	1073.74
748.87	1074.26
749.20	1071.24
749.53	1071.10
749.86	1068.90
750.19	1067.82
750.52	1071.45
750.85	1071.29
751.18	1073.11
751.51	1072.46
751.84	1072.01
752.16	1071.22
752.49	1070.28
752.82	1069.13
753.15	1070.84
753.48	1073.25
753.81	1075.15
754.14	1080.48
754.47	1080.32
754.80	1082.10
755.13	1078.21
755.46	1073.70
755.79	1068.99
756.12	1068.01
756.45	1066.68
756.78	1068.03
757.11	1070.19
757.43	1070.44
757.76	1070.44
758.09	1072.46
758.42	1075.97
758.75	1076.15
759.08	1079.31
759.41	1081.05
759.74	1078.47
760.07	1075.55
760.39	1075.45
760.72	1073.30
761.05	1074.19
761.38	1072.55
761.71	1075.31
762.04	1076.60
762.36	1077.37
762.69	1076.74
763.02	1078.50
763.35	1076.76
763.68	1076.81
764.01	1077.09
764.33	1075.05
764.66	1075.29
764.99	1073.11
765.32	1073.32
765.65	1075.29
765.97	1075.99
766.30	1075.34
