SpectraSuite Data File
++++++++++++++++++++++++++++++++++++
Date: Mon Aug 26 10:22:00 PDT 2019
User: corrico
Dark Spectrum Present: No
Reference Spectrum Present: No
Number of Sampled Component Spectra: 1
Spectrometers: USB2+H06089
Integration Time (usec): 2000 (USB2+H06089)
Spectra Averaged: 20 (USB2+H06089)
Boxcar Smoothing: 2 (USB2+H06089)
Correct for Electrical Dark: No (USB2+H06089)
Strobe/Lamp Enabled: No (USB2+H06089)
Correct for Detector Non-linearity: No (USB2+H06089)
Correct for Stray Light: No (USB2+H06089)
Number of Pixels in Processed Spectrum: 2048
>>>>>Begin Processed Spectral Data<<<<<
339.70	1029.48
340.07	1029.48
340.45	999.85
340.82	976.59
341.19	951.29
341.57	928.00
341.94	915.31
342.31	908.13
342.69	906.75
343.06	908.48
343.43	906.98
343.81	908.06
344.18	906.26
344.55	910.40
344.93	913.65
345.30	919.46
345.67	925.28
346.04	931.44
346.42	936.57
346.79	945.41
347.16	952.97
347.54	965.78
347.91	975.89
348.28	984.13
348.65	993.53
349.03	1002.10
349.40	1005.35
349.77	1015.42
350.14	1025.62
350.52	1033.63
350.89	1040.34
351.26	1047.02
351.63	1051.49
352.01	1053.92
352.38	1056.26
352.75	1062.79
353.12	1068.29
353.50	1074.03
353.87	1079.36
354.24	1079.08
354.61	1076.15
354.98	1075.71
355.36	1072.57
355.73	1072.62
356.10	1074.07
356.47	1075.80
356.84	1078.47
357.22	1079.27
357.59	1080.06
357.96	1080.60
358.33	1084.67
358.70	1084.02
359.08	1085.61
359.45	1082.73
359.82	1083.86
360.19	1080.58
360.56	1082.54
360.94	1083.29
361.31	1087.69
361.68	1084.72
362.05	1085.45
362.42	1079.64
362.79	1078.54
363.16	1073.51
363.54	1076.01
363.91	1074.59
364.28	1077.77
364.65	1078.17
365.02	1080.23
365.39	1077.21
365.76	1076.72
366.14	1075.59
366.51	1074.98
366.88	1076.25
367.25	1074.98
367.62	1075.31
367.99	1073.81
368.36	1071.10
368.73	1066.72
369.10	1068.71
369.48	1066.51
369.85	1064.34
370.22	1068.81
370.59	1070.84
370.96	1071.87
371.33	1072.88
371.70	1075.03
372.07	1073.23
372.44	1070.72
372.81	1070.47
373.18	1069.81
373.55	1072.32
373.93	1072.25
374.30	1073.07
374.67	1072.41
375.04	1072.95
375.41	1069.41
375.78	1071.33
376.15	1075.41
376.52	1074.05
376.89	1073.02
377.26	1074.91
377.63	1072.34
378.00	1070.02
378.37	1073.32
378.74	1074.17
379.11	1077.16
379.48	1078.54
379.85	1078.17
380.22	1075.78
380.59	1078.26
380.96	1075.50
381.33	1075.85
381.70	1077.91
382.07	1077.70
382.44	1078.52
382.81	1077.30
383.18	1076.72
383.55	1073.98
383.92	1072.92
384.29	1073.70
384.66	1078.10
385.03	1079.10
385.40	1081.16
385.77	1085.33
386.14	1082.33
386.51	1080.13
386.88	1080.06
387.25	1078.05
387.62	1078.38
387.99	1080.95
388.36	1082.80
388.73	1082.40
389.10	1086.17
389.46	1086.03
389.83	1084.04
390.20	1083.97
390.57	1081.33
390.94	1080.25
391.31	1079.53
391.68	1078.66
392.05	1076.79
392.42	1081.47
392.79	1080.81
393.16	1081.16
393.53	1082.97
393.89	1083.29
394.26	1080.72
394.63	1082.43
395.00	1084.96
395.37	1085.07
395.74	1083.01
396.11	1084.70
396.48	1082.90
396.84	1080.11
397.21	1081.35
397.58	1083.46
397.95	1084.14
398.32	1083.74
398.69	1085.73
399.06	1085.26
399.42	1084.89
399.79	1080.74
400.16	1081.07
400.53	1080.65
400.90	1080.11
401.27	1081.23
401.64	1086.10
402.00	1087.79
402.37	1087.02
402.74	1086.38
403.11	1089.00
403.48	1088.26
403.84	1089.29
404.21	1088.21
404.58	1088.89
404.95	1086.55
405.32	1085.89
405.68	1086.10
406.05	1087.44
406.42	1090.69
406.79	1091.04
407.16	1093.31
407.52	1093.17
407.89	1093.97
408.26	1089.24
408.63	1088.51
408.99	1086.52
409.36	1083.86
409.73	1085.87
410.10	1090.55
410.47	1093.05
410.83	1096.47
411.20	1099.37
411.57	1099.56
411.94	1097.24
412.30	1096.80
412.67	1094.74
413.04	1093.66
413.40	1093.55
413.77	1094.43
414.14	1096.10
414.51	1095.37
414.87	1094.46
415.24	1097.03
415.61	1097.71
415.97	1098.51
416.34	1096.80
416.71	1097.55
417.08	1096.38
417.44	1097.62
417.81	1092.89
418.18	1095.21
418.54	1098.58
418.91	1097.29
419.28	1094.69
419.64	1099.44
420.01	1099.70
420.38	1100.43
420.74	1102.42
421.11	1107.12
421.48	1105.41
421.84	1109.84
422.21	1114.87
422.58	1115.71
422.94	1119.48
423.31	1123.50
423.68	1122.75
424.04	1119.60
424.41	1121.61
424.77	1122.29
425.14	1122.38
425.51	1126.34
425.87	1133.43
426.24	1135.21
426.61	1138.93
426.97	1149.51
427.34	1155.45
427.70	1157.21
428.07	1165.59
428.44	1171.09
428.80	1174.06
429.17	1177.45
429.53	1182.51
429.90	1187.63
430.27	1193.32
430.63	1200.37
431.00	1214.13
431.36	1229.67
431.73	1239.52
432.09	1251.44
432.46	1263.70
432.83	1274.28
433.19	1286.85
433.56	1307.12
433.92	1324.11
434.29	1340.85
434.65	1359.94
435.02	1379.46
435.38	1397.58
435.75	1421.64
436.11	1447.62
436.48	1473.72
436.84	1500.52
437.21	1528.49
437.57	1557.51
437.94	1591.52
438.30	1623.11
438.67	1656.12
439.03	1699.86
439.40	1745.69
439.76	1789.25
440.13	1840.32
440.49	1899.09
440.86	1948.40
441.22	2005.02
441.59	2069.20
441.95	2136.86
442.32	2201.70
442.68	2280.76
443.05	2361.93
443.41	2442.26
443.78	2528.74
444.14	2625.10
444.51	2716.80
444.87	2823.04
445.24	2936.72
445.60	3050.84
445.96	3167.17
446.33	3302.71
446.69	3436.16
447.06	3577.13
447.42	3726.69
447.79	3881.97
448.15	4060.03
448.51	4236.91
448.88	4435.95
449.24	4614.72
449.61	4843.27
449.97	5072.34
450.33	5308.03
450.70	5533.75
451.06	5816.70
451.43	6059.65
451.79	6348.21
452.15	6659.48
452.52	7011.38
452.88	7378.68
453.24	7794.52
453.61	8223.61
453.97	8644.28
454.34	9043.39
454.70	9502.93
455.06	9955.02
455.43	10388.02
455.79	10843.84
456.15	11401.55
456.52	11913.09
456.88	12554.45
457.24	13195.07
457.61	13919.80
457.97	14560.22
458.33	15262.52
458.70	15953.16
459.06	16628.03
459.42	17337.17
459.79	18011.66
460.15	18767.75
460.51	19377.83
460.88	20049.22
461.24	20664.99
461.60	21375.34
461.96	21955.56
462.33	22542.17
462.69	23114.90
463.05	23730.06
463.42	24333.26
463.78	24887.74
464.14	25392.07
464.50	25948.98
464.87	26381.98
465.23	26639.70
465.59	26933.08
465.95	27206.64
466.32	27385.79
466.68	27560.86
467.04	27714.85
467.40	27799.95
467.77	27919.69
468.13	27889.73
468.49	27712.08
468.85	27552.46
469.22	27432.60
469.58	27220.62
469.94	27055.96
470.30	26861.49
470.66	26560.80
471.03	26094.19
471.39	25713.41
471.75	25182.67
472.11	24695.72
472.47	24323.01
472.84	23971.06
473.20	23470.89
473.56	23106.54
473.92	22631.15
474.28	22166.44
474.65	21725.02
475.01	21319.94
475.37	20862.44
475.73	20520.55
476.09	20136.82
476.45	19771.61
476.81	19443.46
477.18	19088.54
477.54	18798.76
477.90	18553.03
478.26	18222.71
478.62	17942.06
478.98	17745.40
479.34	17555.89
479.71	17311.77
480.07	17099.06
480.43	16838.77
480.79	16505.72
481.15	16129.29
481.51	15805.50
481.87	15555.08
482.23	15279.70
482.59	15042.86
482.96	14814.84
483.32	14584.04
483.68	14310.32
484.04	14069.01
484.40	13827.23
484.76	13569.86
485.12	13316.81
485.48	13094.08
485.84	12857.24
486.20	12627.78
486.56	12394.68
486.92	12148.97
487.28	11866.21
487.64	11583.01
488.00	11306.99
488.37	11035.42
488.73	10753.92
489.09	10475.30
489.45	10224.07
489.81	9961.32
490.17	9702.22
490.53	9440.48
490.89	9164.93
491.25	8891.55
491.61	8628.60
491.97	8374.25
492.33	8140.43
492.69	7943.50
493.05	7746.61
493.41	7564.54
493.77	7378.09
494.13	7187.76
494.49	6999.49
494.85	6822.03
495.21	6636.82
495.57	6463.39
495.93	6297.14
496.29	6125.39
496.64	5963.08
497.00	5803.08
497.36	5657.96
497.72	5528.70
498.08	5407.97
498.44	5283.88
498.80	5168.02
499.16	5036.29
499.52	4895.23
499.88	4766.62
500.24	4632.90
500.60	4507.15
500.96	4403.53
501.32	4302.75
501.68	4203.02
502.03	4111.27
502.39	4024.27
502.75	3940.41
503.11	3867.03
503.47	3786.40
503.83	3700.93
504.19	3617.46
504.55	3533.18
504.91	3446.98
505.26	3370.51
505.62	3301.91
505.98	3227.06
506.34	3152.47
506.70	3080.96
507.06	3011.52
507.42	2950.01
507.78	2890.70
508.13	2837.71
508.49	2780.67
508.85	2727.52
509.21	2669.17
509.57	2617.44
509.93	2563.24
510.28	2517.36
510.64	2474.18
511.00	2429.71
511.36	2387.16
511.72	2344.98
512.07	2304.82
512.43	2264.80
512.79	2225.57
513.15	2190.93
513.51	2158.04
513.86	2124.01
514.22	2091.18
514.58	2056.91
514.94	2021.66
515.30	1988.24
515.65	1957.60
516.01	1931.97
516.37	1907.35
516.73	1881.46
517.08	1854.92
517.44	1826.06
517.80	1802.89
518.16	1781.22
518.51	1763.69
518.87	1744.85
519.23	1729.14
519.59	1707.61
519.94	1687.03
520.30	1665.01
520.66	1646.75
521.01	1626.46
521.37	1605.33
521.73	1590.32
522.09	1574.41
522.44	1557.46
522.80	1543.61
523.16	1530.59
523.51	1515.29
523.87	1503.37
524.23	1493.24
524.58	1479.20
524.94	1466.72
525.30	1456.91
525.65	1445.54
526.01	1433.23
526.37	1425.64
526.72	1415.70
527.08	1403.97
527.44	1392.45
527.79	1382.25
528.15	1374.39
528.51	1365.77
528.86	1358.38
529.22	1353.32
529.58	1346.65
529.93	1336.19
530.29	1330.17
530.65	1321.07
531.00	1307.17
531.36	1298.46
531.71	1291.79
532.07	1282.38
532.43	1275.29
532.78	1271.96
533.14	1263.73
533.49	1257.24
533.85	1253.94
534.21	1247.67
534.56	1240.25
534.92	1239.22
535.27	1232.95
535.63	1227.70
535.98	1226.63
536.34	1226.86
536.69	1223.21
537.05	1224.83
537.41	1221.27
537.76	1217.78
538.12	1212.40
538.47	1207.55
538.83	1200.58
539.18	1202.15
539.54	1196.65
539.89	1195.38
540.25	1195.19
540.60	1192.36
540.96	1184.64
541.31	1181.06
541.67	1176.94
542.02	1172.98
542.38	1171.67
542.73	1168.65
543.09	1169.54
543.44	1166.83
543.80	1163.85
544.15	1160.13
544.51	1158.57
544.86	1154.02
545.22	1152.74
545.57	1151.78
545.93	1150.79
546.28	1150.33
546.64	1150.94
546.99	1150.02
547.35	1148.57
547.70	1150.56
548.05	1144.33
548.41	1144.55
548.76	1140.45
549.12	1135.93
549.47	1132.19
549.83	1132.19
550.18	1128.00
550.53	1128.09
550.89	1126.64
551.24	1125.19
551.60	1129.17
551.95	1127.86
552.30	1127.18
552.66	1127.58
553.01	1123.81
553.37	1119.83
553.72	1117.21
554.07	1116.11
554.43	1115.31
554.78	1116.93
555.13	1115.69
555.49	1116.72
555.84	1115.36
556.19	1112.01
556.55	1111.26
556.90	1113.44
557.26	1112.78
557.61	1113.56
557.96	1117.02
558.32	1118.14
558.67	1115.71
559.02	1111.75
559.37	1110.54
559.73	1106.72
560.08	1102.74
560.43	1100.96
560.79	1103.56
561.14	1103.23
561.49	1107.52
561.85	1108.71
562.20	1109.16
562.55	1108.74
562.90	1109.67
563.26	1107.56
563.61	1106.72
563.96	1106.91
564.32	1107.35
564.67	1105.27
565.02	1101.60
565.37	1101.55
565.73	1098.93
566.08	1094.50
566.43	1094.55
566.78	1094.60
567.14	1090.92
567.49	1092.16
567.84	1093.59
568.19	1093.62
568.54	1094.27
568.90	1095.58
569.25	1096.28
569.60	1093.83
569.95	1091.09
570.31	1092.05
570.66	1091.34
571.01	1090.99
571.36	1093.59
571.71	1095.28
572.06	1093.97
572.42	1094.20
572.77	1094.97
573.12	1091.23
573.47	1090.03
573.82	1090.15
574.18	1091.20
574.53	1086.57
574.88	1090.69
575.23	1089.40
575.58	1089.92
575.93	1088.56
576.28	1091.77
576.64	1086.45
576.99	1085.91
577.34	1084.91
577.69	1084.35
578.04	1082.47
578.39	1086.20
578.74	1087.06
579.09	1085.73
579.44	1090.41
579.80	1089.71
580.15	1091.11
580.50	1095.53
580.85	1094.83
581.20	1091.20
581.55	1091.46
581.90	1090.17
582.25	1087.58
582.60	1089.89
582.95	1089.12
583.30	1090.76
583.65	1090.03
584.00	1088.65
584.35	1088.82
584.71	1090.01
585.06	1088.84
585.41	1087.69
585.76	1088.12
586.11	1086.94
586.46	1085.75
586.81	1085.56
587.16	1085.75
587.51	1086.20
587.86	1086.48
588.21	1086.43
588.56	1086.80
588.91	1086.64
589.26	1085.77
589.61	1085.96
589.96	1085.19
590.31	1085.12
590.66	1084.32
591.01	1086.90
591.36	1087.60
591.71	1088.09
592.06	1088.75
592.41	1092.91
592.76	1091.20
593.10	1089.89
593.45	1087.30
593.80	1084.98
594.15	1083.06
594.50	1084.25
594.85	1083.39
595.20	1087.34
595.55	1087.46
595.90	1086.64
596.25	1083.08
596.60	1083.83
596.95	1083.25
597.30	1082.22
597.64	1093.76
597.99	1096.61
598.34	1098.27
598.69	1097.31
599.04	1097.22
599.39	1086.80
599.74	1084.18
600.09	1080.39
600.44	1079.67
600.78	1080.41
601.13	1081.09
601.48	1079.24
601.83	1082.85
602.18	1081.91
602.53	1081.40
602.88	1081.70
603.22	1085.54
603.57	1084.93
603.92	1088.16
604.27	1089.31
604.62	1086.17
604.97	1083.27
605.31	1082.38
605.66	1082.19
606.01	1081.68
606.36	1082.83
606.71	1084.02
607.05	1082.90
607.40	1080.79
607.75	1081.98
608.10	1083.32
608.44	1082.83
608.79	1082.85
609.14	1084.02
609.49	1081.33
609.84	1078.33
610.18	1084.46
610.53	1084.11
610.88	1083.06
611.23	1087.09
611.57	1086.94
611.92	1081.77
612.27	1083.39
612.62	1085.70
612.96	1085.03
613.31	1085.99
613.66	1089.36
614.00	1089.92
614.35	1089.78
614.70	1089.45
615.05	1088.02
615.39	1083.39
615.74	1083.04
616.09	1081.84
616.43	1082.29
616.78	1085.07
617.13	1086.69
617.47	1086.45
617.82	1085.63
618.17	1086.55
618.51	1086.36
618.86	1085.87
619.21	1081.98
619.55	1081.02
619.90	1079.20
620.25	1078.17
620.59	1078.21
620.94	1080.41
621.29	1081.21
621.63	1079.99
621.98	1079.48
622.32	1079.55
622.67	1080.77
623.02	1081.77
623.36	1081.66
623.71	1083.50
624.05	1082.17
624.40	1078.66
624.75	1075.71
625.09	1076.11
625.44	1076.25
625.78	1077.00
626.13	1079.95
626.48	1079.43
626.82	1080.67
627.17	1079.43
627.51	1078.03
627.86	1076.46
628.20	1078.43
628.55	1078.14
628.89	1080.53
629.24	1081.37
629.58	1081.26
629.93	1082.97
630.28	1082.59
630.62	1081.37
630.97	1085.10
631.31	1085.26
631.66	1086.31
632.00	1085.47
632.35	1085.68
632.69	1083.11
633.04	1084.23
633.38	1083.25
633.73	1085.70
634.07	1081.80
634.42	1083.25
634.76	1084.42
635.11	1082.64
635.45	1082.54
635.79	1084.02
636.14	1082.71
636.48	1084.91
636.83	1084.63
637.17	1080.51
637.52	1080.25
637.86	1077.63
638.21	1072.29
638.55	1074.33
638.89	1077.21
639.24	1079.99
639.58	1080.46
639.93	1083.01
640.27	1079.95
640.61	1078.36
640.96	1076.06
641.30	1078.47
641.65	1078.43
641.99	1081.49
642.33	1080.91
642.68	1082.83
643.02	1081.21
643.37	1079.85
643.71	1081.70
644.05	1081.96
644.40	1081.02
644.74	1082.26
645.08	1082.85
645.43	1078.03
645.77	1079.92
646.11	1078.57
646.46	1078.17
646.80	1079.43
647.14	1081.63
647.49	1082.19
647.83	1082.50
648.17	1083.62
648.52	1081.63
648.86	1081.42
649.20	1079.99
649.55	1079.31
649.89	1077.25
650.23	1079.03
650.57	1080.74
650.92	1081.44
651.26	1083.71
651.60	1084.70
651.95	1083.48
652.29	1078.89
652.63	1078.85
652.97	1075.94
653.32	1078.89
653.66	1081.05
654.00	1085.52
654.34	1086.38
654.69	1086.17
655.03	1083.48
655.37	1079.62
655.71	1075.13
656.05	1072.53
656.40	1076.32
656.74	1075.01
657.08	1078.96
657.42	1081.16
657.76	1080.34
658.11	1077.70
658.45	1077.51
658.79	1075.34
659.13	1075.31
659.47	1077.42
659.82	1080.46
660.16	1082.99
660.50	1084.58
660.84	1087.58
661.18	1088.26
661.52	1085.99
661.87	1086.27
662.21	1082.85
662.55	1081.30
662.89	1081.82
663.23	1085.59
663.57	1085.07
663.91	1085.82
664.25	1087.30
664.60	1086.20
664.94	1082.40
665.28	1080.74
665.62	1080.48
665.96	1077.33
666.30	1076.15
666.64	1077.65
666.98	1077.44
667.32	1080.48
667.66	1080.88
668.01	1082.03
668.35	1080.39
668.69	1081.07
669.03	1080.04
669.37	1079.97
669.71	1079.88
670.05	1079.17
670.39	1080.81
670.73	1079.34
671.07	1082.73
671.41	1083.46
671.75	1085.07
672.09	1080.93
672.43	1080.04
672.77	1076.06
673.11	1072.55
673.45	1073.04
673.79	1073.49
674.13	1073.37
674.47	1074.12
674.81	1077.09
675.15	1076.23
675.49	1078.28
675.83	1080.63
676.17	1081.44
676.51	1078.47
676.85	1078.00
677.19	1079.92
677.53	1081.51
677.87	1080.34
678.21	1081.35
678.55	1083.90
678.89	1081.89
679.23	1080.44
679.57	1080.39
679.90	1081.28
680.24	1077.16
680.58	1077.28
680.92	1077.72
681.26	1077.58
681.60	1079.22
681.94	1082.47
682.28	1082.43
682.62	1080.67
682.96	1082.80
683.29	1085.40
683.63	1085.38
683.97	1082.64
684.31	1084.32
684.65	1080.44
684.99	1075.15
685.33	1073.23
685.67	1075.34
686.00	1074.21
686.34	1077.77
686.68	1081.77
687.02	1083.29
687.36	1085.73
687.70	1086.03
688.03	1089.12
688.37	1089.87
688.71	1089.10
689.05	1085.40
689.39	1085.96
689.72	1080.18
690.06	1076.93
690.40	1074.59
690.74	1075.83
691.08	1074.21
691.41	1077.37
691.75	1074.84
692.09	1076.32
692.43	1079.01
692.76	1080.53
693.10	1078.73
693.44	1082.90
693.78	1084.21
694.11	1080.67
694.45	1077.68
694.79	1078.85
695.13	1076.81
695.46	1076.97
695.80	1075.92
696.14	1078.57
696.48	1077.49
696.81	1076.11
697.15	1076.88
697.49	1080.88
697.82	1080.60
698.16	1083.06
698.50	1085.75
698.83	1082.29
699.17	1082.05
699.51	1082.64
699.84	1079.71
700.18	1079.29
700.52	1080.48
700.85	1083.20
701.19	1084.39
701.53	1083.53
701.86	1083.79
702.20	1084.44
702.54	1080.93
702.87	1078.68
703.21	1079.13
703.55	1078.68
703.88	1075.76
704.22	1072.08
704.55	1070.42
704.89	1071.24
705.23	1069.37
705.56	1073.79
705.90	1077.54
706.23	1081.12
706.57	1084.04
706.91	1085.38
707.24	1082.71
707.58	1078.64
707.91	1074.66
708.25	1072.62
708.58	1070.56
708.92	1074.63
709.26	1078.40
709.59	1080.81
709.93	1082.12
710.26	1084.46
710.60	1083.88
710.93	1083.53
711.27	1081.58
711.60	1081.82
711.94	1082.87
712.27	1080.39
712.61	1081.23
712.94	1083.60
713.28	1080.98
713.61	1079.41
713.95	1080.06
714.28	1077.51
714.62	1076.95
714.95	1077.00
715.29	1075.78
715.62	1076.44
715.96	1078.12
716.29	1079.08
716.63	1079.13
716.96	1077.98
717.29	1076.34
717.63	1075.66
717.96	1072.76
718.30	1071.38
718.63	1075.71
718.97	1078.21
719.30	1079.13
719.63	1081.56
719.97	1085.19
720.30	1085.00
720.64	1081.63
720.97	1080.04
721.30	1080.32
721.64	1079.43
721.97	1077.35
722.31	1079.22
722.64	1081.33
722.97	1081.75
723.31	1081.28
723.64	1085.03
723.97	1082.87
724.31	1081.89
724.64	1080.18
724.98	1080.51
725.31	1082.50
725.64	1086.64
725.98	1088.42
726.31	1090.27
726.64	1089.19
726.97	1082.78
727.31	1077.42
727.64	1074.70
727.97	1074.96
728.31	1073.07
728.64	1074.59
728.97	1078.19
729.31	1079.13
729.64	1079.76
729.97	1085.31
730.30	1084.51
730.64	1081.77
730.97	1080.04
731.30	1077.23
731.63	1075.03
731.97	1075.64
732.30	1079.50
732.63	1081.87
732.96	1081.84
733.30	1078.47
733.63	1076.62
733.96	1072.55
734.29	1069.74
734.63	1069.46
734.96	1070.70
735.29	1071.29
735.62	1071.85
735.95	1075.69
736.29	1077.89
736.62	1078.57
736.95	1080.41
737.28	1083.15
737.61	1081.16
737.94	1077.75
738.28	1078.43
738.61	1079.01
738.94	1079.57
739.27	1077.93
739.60	1079.43
739.93	1077.07
740.27	1078.19
740.60	1077.61
740.93	1079.20
741.26	1079.95
741.59	1080.74
741.92	1077.21
742.25	1077.21
742.58	1077.28
742.91	1077.86
743.25	1077.93
743.58	1077.93
743.91	1076.76
744.24	1073.70
744.57	1074.00
744.90	1075.27
745.23	1077.30
745.56	1078.78
745.89	1082.52
746.22	1083.01
746.55	1083.93
746.88	1083.62
747.21	1082.47
747.54	1081.84
747.87	1080.41
748.20	1080.13
748.53	1080.02
748.87	1080.44
749.20	1080.04
749.53	1079.62
749.86	1080.11
750.19	1077.91
750.52	1076.55
750.85	1076.34
751.18	1077.16
751.51	1077.16
751.84	1076.01
752.16	1077.58
752.49	1076.79
752.82	1077.25
753.15	1076.95
753.48	1079.20
753.81	1078.64
754.14	1080.56
754.47	1080.72
754.80	1077.93
755.13	1079.57
755.46	1080.70
755.79	1079.43
756.12	1076.76
756.45	1076.53
756.78	1075.34
757.11	1072.60
757.43	1074.68
757.76	1078.07
758.09	1077.79
758.42	1076.74
758.75	1076.58
759.08	1076.74
759.41	1075.90
759.74	1075.97
760.07	1075.97
760.39	1073.79
760.72	1073.25
761.05	1069.60
761.38	1070.37
761.71	1072.88
762.04	1075.78
762.36	1075.10
762.69	1079.85
763.02	1081.84
763.35	1081.61
763.68	1080.16
764.01	1078.33
764.33	1075.01
