SpectraSuite Data File
++++++++++++++++++++++++++++++++++++
Date: Mon Aug 26 10:21:55 PDT 2019
User: corrico
Dark Spectrum Present: No
Reference Spectrum Present: No
Number of Sampled Component Spectra: 1
Spectrometers: USB2+H06089
Integration Time (usec): 2000 (USB2+H06089)
Spectra Averaged: 20 (USB2+H06089)
Boxcar Smoothing: 2 (USB2+H06089)
Correct for Electrical Dark: No (USB2+H06089)
Strobe/Lamp Enabled: No (USB2+H06089)
Correct for Detector Non-linearity: No (USB2+H06089)
Correct for Stray Light: No (USB2+H06089)
Number of Pixels in Processed Spectrum: 2048
>>>>>Begin Processed Spectral Data<<<<<
339.70	1024.57
340.07	1024.57
340.45	991.38
340.82	971.98
341.19	947.40
341.57	922.29
341.94	911.03
342.31	902.98
342.69	894.65
343.06	894.69
343.43	891.84
343.81	894.81
344.18	897.85
344.55	902.74
344.93	904.73
345.30	912.50
345.67	917.75
346.04	926.03
346.42	934.34
346.79	943.33
347.16	952.48
347.54	959.53
347.91	965.07
348.28	974.97
348.65	983.47
349.03	992.67
349.40	1002.55
349.77	1013.73
350.14	1019.35
350.52	1029.06
350.89	1034.05
351.26	1041.51
351.63	1047.81
352.01	1051.95
352.38	1056.96
352.75	1059.77
353.12	1063.12
353.50	1063.56
353.87	1065.76
354.24	1066.86
354.61	1073.21
354.98	1070.96
355.36	1072.39
355.73	1075.87
356.10	1078.52
356.47	1076.62
356.84	1080.46
357.22	1079.64
357.59	1076.01
357.96	1074.26
358.33	1074.19
358.70	1076.83
359.08	1076.62
359.45	1079.64
359.82	1078.99
360.19	1075.66
360.56	1071.97
360.94	1076.23
361.31	1074.28
361.68	1073.70
362.05	1076.20
362.42	1075.41
362.79	1073.56
363.16	1074.66
363.54	1073.60
363.91	1074.21
364.28	1072.81
364.65	1069.37
365.02	1065.72
365.39	1065.65
365.76	1062.42
366.14	1062.21
366.51	1060.33
366.88	1062.21
367.25	1061.29
367.62	1063.26
367.99	1064.80
368.36	1065.29
368.73	1065.06
369.10	1065.53
369.48	1067.12
369.85	1065.97
370.22	1069.91
370.59	1070.21
370.96	1070.47
371.33	1067.45
371.70	1071.01
372.07	1070.37
372.44	1070.40
372.81	1067.35
373.18	1065.34
373.55	1059.16
373.93	1057.59
374.30	1059.05
374.67	1061.48
375.04	1066.02
375.41	1066.54
375.78	1067.75
376.15	1067.47
376.52	1067.73
376.89	1066.51
377.26	1070.19
377.63	1069.39
378.00	1069.72
378.37	1067.80
378.74	1063.66
379.11	1063.45
379.48	1057.08
379.85	1055.23
380.22	1058.69
380.59	1062.95
380.96	1059.65
381.33	1065.83
381.70	1066.07
382.07	1064.92
382.44	1065.83
382.81	1067.07
383.18	1067.10
383.55	1064.97
383.92	1067.33
384.29	1066.86
384.66	1066.82
385.03	1067.73
385.40	1072.15
385.77	1071.19
386.14	1070.02
386.51	1068.78
386.88	1067.21
387.25	1068.83
387.62	1062.86
387.99	1067.19
388.36	1071.01
388.73	1074.14
389.10	1069.04
389.46	1075.31
389.83	1072.57
390.20	1072.88
390.57	1070.87
390.94	1073.84
391.31	1071.12
391.68	1072.85
392.05	1071.78
392.42	1070.40
392.79	1071.59
393.16	1070.80
393.53	1069.60
393.89	1070.56
394.26	1073.30
394.63	1072.36
395.00	1077.07
395.37	1076.86
395.74	1077.16
396.11	1074.17
396.48	1076.13
396.84	1073.60
397.21	1073.65
397.58	1076.04
397.95	1080.48
398.32	1077.72
398.69	1078.00
399.06	1075.15
399.42	1071.12
399.79	1068.71
400.16	1070.14
400.53	1071.73
400.90	1075.69
401.27	1077.51
401.64	1078.19
402.00	1076.48
402.37	1073.72
402.74	1070.35
403.11	1070.23
403.48	1072.48
403.84	1073.14
404.21	1075.41
404.58	1078.82
404.95	1079.55
405.32	1076.23
405.68	1079.85
406.05	1079.88
406.42	1078.33
406.79	1076.76
407.16	1080.44
407.52	1078.78
407.89	1081.02
408.26	1081.73
408.63	1081.68
408.99	1080.88
409.36	1081.40
409.73	1079.38
410.10	1076.20
410.47	1077.65
410.83	1080.60
411.20	1082.05
411.57	1081.16
411.94	1086.69
412.30	1086.17
412.67	1080.86
413.04	1079.48
413.40	1081.37
413.77	1081.00
414.14	1080.32
414.51	1082.59
414.87	1082.29
415.24	1080.93
415.61	1079.99
415.97	1084.46
416.34	1083.25
416.71	1084.44
417.08	1085.19
417.44	1085.82
417.81	1082.92
418.18	1085.82
418.54	1083.88
418.91	1084.63
419.28	1085.42
419.64	1089.38
420.01	1087.97
420.38	1091.11
420.74	1093.01
421.11	1091.49
421.48	1088.21
421.84	1090.08
422.21	1089.19
422.58	1090.64
422.94	1092.42
423.31	1095.77
423.68	1094.79
424.04	1097.57
424.41	1096.33
424.77	1097.85
425.14	1096.56
425.51	1099.51
425.87	1100.94
426.24	1102.28
426.61	1105.62
426.97	1109.53
427.34	1110.02
427.70	1112.01
428.07	1115.92
428.44	1116.60
428.80	1117.14
429.17	1121.00
429.53	1124.35
429.90	1126.90
430.27	1130.55
430.63	1135.00
431.00	1140.78
431.36	1147.35
431.73	1150.19
432.09	1155.31
432.46	1160.88
432.83	1166.17
433.19	1168.98
433.56	1178.39
433.92	1188.36
434.29	1198.40
434.65	1206.90
435.02	1215.74
435.38	1225.74
435.75	1232.15
436.11	1243.50
436.48	1255.32
436.84	1268.85
437.21	1284.77
437.57	1298.90
437.94	1313.27
438.30	1330.59
438.67	1347.80
439.03	1365.63
439.40	1387.24
439.76	1408.32
440.13	1428.24
440.49	1452.70
440.86	1475.92
441.22	1505.34
441.59	1535.18
441.95	1570.59
442.32	1603.69
442.68	1640.15
443.05	1676.39
443.41	1721.04
443.78	1763.55
444.14	1811.01
444.51	1857.75
444.87	1914.49
445.24	1960.71
445.60	2010.52
445.96	2061.73
446.33	2122.16
446.69	2177.66
447.06	2244.85
447.42	2315.52
447.79	2387.21
448.15	2468.07
448.51	2552.35
448.88	2643.05
449.24	2727.87
449.61	2833.97
449.97	2940.09
450.33	3054.28
450.70	3169.81
451.06	3304.44
451.43	3430.52
451.79	3569.46
452.15	3712.98
452.52	3869.72
452.88	4029.93
453.24	4204.44
453.61	4402.78
453.97	4603.93
454.34	4806.88
454.70	5045.45
455.06	5273.02
455.43	5490.80
455.79	5698.29
456.15	5937.10
456.52	6162.19
456.88	6451.83
457.24	6731.10
457.61	7076.89
457.97	7386.36
458.33	7702.16
458.70	8015.19
459.06	8328.73
459.42	8658.16
459.79	8979.32
460.15	9351.87
460.51	9692.63
460.88	10062.45
461.24	10378.64
461.60	10730.63
461.96	11051.14
462.33	11351.72
462.69	11634.38
463.05	11932.12
463.42	12229.58
463.78	12503.12
464.14	12782.16
464.50	13064.22
464.87	13292.02
465.23	13459.74
465.59	13667.37
465.95	13857.68
466.32	14024.98
466.68	14168.99
467.04	14249.53
467.40	14255.38
467.77	14242.84
468.13	14219.71
468.49	14188.49
468.85	14190.41
469.22	14182.71
469.58	14142.17
469.94	14091.76
470.30	14009.86
470.66	13891.73
471.03	13717.86
471.39	13591.77
471.75	13339.04
472.11	13115.29
472.47	12917.11
472.84	12729.12
473.20	12484.35
473.56	12353.16
473.92	12171.98
474.28	12030.47
474.65	11882.97
475.01	11718.95
475.37	11517.31
475.73	11344.46
476.09	11144.91
476.45	10950.43
476.81	10776.06
477.18	10624.35
477.54	10477.03
477.90	10338.36
478.26	10196.15
478.62	10048.62
478.98	9859.34
479.34	9710.65
479.71	9526.19
480.07	9365.21
480.43	9233.02
480.79	9120.83
481.15	8974.62
481.51	8864.57
481.87	8747.68
482.23	8600.65
482.59	8463.56
482.96	8347.36
483.32	8218.02
483.68	8083.63
484.04	7971.40
484.40	7846.01
484.76	7714.43
485.12	7576.62
485.48	7457.44
485.84	7301.18
486.20	7151.53
486.56	7002.74
486.92	6871.60
487.28	6728.88
487.64	6603.35
488.00	6479.23
488.37	6348.14
488.73	6202.96
489.09	6036.45
489.45	5895.74
489.81	5776.42
490.17	5666.86
490.53	5558.35
490.89	5452.42
491.25	5325.49
491.61	5187.54
491.97	5057.06
492.33	4929.31
492.69	4814.48
493.05	4703.38
493.41	4596.84
493.77	4480.53
494.13	4372.10
494.49	4268.04
494.85	4177.11
495.21	4088.12
495.57	4003.04
495.93	3925.05
496.29	3844.17
496.64	3768.47
497.00	3689.11
497.36	3603.61
497.72	3522.67
498.08	3456.78
498.44	3386.87
498.80	3315.63
499.16	3250.42
499.52	3175.85
499.88	3103.11
500.24	3043.82
500.60	2985.31
500.96	2929.41
501.32	2872.19
501.68	2817.02
502.03	2754.46
502.39	2694.80
502.75	2641.32
503.11	2599.75
503.47	2562.14
503.83	2525.48
504.19	2487.57
504.55	2445.53
504.91	2403.59
505.26	2355.09
505.62	2311.86
505.98	2275.82
506.34	2238.07
506.70	2201.20
507.06	2171.64
507.42	2134.19
507.78	2094.87
508.13	2064.61
508.49	2036.17
508.85	2002.96
509.21	1968.04
509.57	1945.92
509.93	1915.07
510.28	1882.66
510.64	1853.82
511.00	1827.02
511.36	1794.51
511.72	1773.28
512.07	1754.93
512.43	1730.01
512.79	1709.25
513.15	1694.59
513.51	1670.28
513.86	1649.84
514.22	1635.64
514.58	1620.61
514.94	1600.29
515.30	1587.61
515.65	1572.07
516.01	1554.49
516.37	1540.99
516.73	1527.27
517.08	1514.00
517.44	1497.10
517.80	1484.04
518.16	1470.54
518.51	1454.48
518.87	1438.63
519.23	1429.74
519.59	1420.24
519.94	1409.82
520.30	1401.40
520.66	1393.67
521.01	1384.03
521.37	1375.18
521.73	1366.12
522.09	1357.14
522.44	1346.49
522.80	1337.55
523.16	1325.63
523.51	1314.21
523.87	1308.97
524.23	1306.35
524.58	1302.70
524.94	1298.97
525.30	1294.76
525.65	1287.65
526.01	1275.59
526.37	1265.81
526.72	1256.61
527.08	1253.38
527.44	1249.64
527.79	1244.21
528.15	1238.61
528.51	1238.87
528.86	1231.64
529.22	1227.75
529.58	1225.81
529.93	1221.67
530.29	1213.45
530.65	1208.02
531.00	1201.40
531.36	1198.21
531.71	1197.56
532.07	1195.59
532.43	1195.31
532.78	1192.78
533.14	1189.93
533.49	1182.04
533.85	1180.29
534.21	1174.64
534.56	1167.95
534.92	1161.26
535.27	1161.09
535.63	1155.78
535.98	1154.80
536.34	1154.56
536.69	1153.70
537.05	1148.22
537.41	1146.42
537.76	1145.95
538.12	1144.59
538.47	1140.87
538.83	1141.95
539.18	1141.03
539.54	1139.07
539.89	1135.77
540.25	1136.52
540.60	1136.63
540.96	1137.15
541.31	1133.19
541.67	1134.60
542.02	1134.46
542.38	1130.48
542.73	1127.72
543.09	1126.06
543.44	1121.28
543.80	1121.63
544.15	1122.47
544.51	1120.02
544.86	1117.18
545.22	1118.07
545.57	1118.31
545.93	1117.30
546.28	1116.95
546.64	1119.57
546.99	1117.98
547.35	1113.88
547.70	1111.66
548.05	1111.54
548.41	1109.02
548.76	1106.98
549.12	1104.97
549.47	1104.22
549.83	1102.70
550.18	1102.49
550.53	1104.05
550.89	1103.59
551.24	1103.98
551.60	1100.78
551.95	1098.95
552.30	1098.41
552.66	1098.72
553.01	1094.69
553.37	1094.90
553.72	1093.55
554.07	1095.21
554.43	1095.70
554.78	1097.48
555.13	1097.15
555.49	1099.58
555.84	1094.39
556.19	1091.65
556.55	1092.19
556.90	1090.76
557.26	1089.54
557.61	1089.19
557.96	1088.30
558.32	1086.48
558.67	1087.18
559.02	1087.76
559.37	1089.89
559.73	1090.67
560.08	1089.40
560.43	1093.01
560.79	1088.51
561.14	1086.64
561.49	1087.09
561.85	1088.42
562.20	1088.33
562.55	1091.42
562.90	1093.38
563.26	1090.99
563.61	1093.92
563.96	1092.16
564.32	1090.85
564.67	1090.62
565.02	1090.46
565.37	1088.28
565.73	1086.55
566.08	1086.20
566.43	1084.32
566.78	1082.24
567.14	1085.33
567.49	1086.45
567.84	1085.84
568.19	1085.17
568.54	1090.43
568.90	1085.38
569.25	1086.27
569.60	1087.58
569.95	1087.74
570.31	1085.00
570.66	1084.58
571.01	1079.27
571.36	1079.90
571.71	1081.84
572.06	1082.66
572.42	1083.18
572.77	1086.94
573.12	1085.75
573.47	1086.87
573.82	1086.31
574.18	1086.64
574.53	1084.09
574.88	1082.19
575.23	1077.70
575.58	1079.10
575.93	1081.05
576.28	1082.43
576.64	1086.22
576.99	1090.39
577.34	1091.44
577.69	1089.78
578.04	1088.79
578.39	1086.41
578.74	1081.12
579.09	1076.76
579.44	1076.18
579.80	1076.76
580.15	1074.21
580.50	1076.44
580.85	1076.81
581.20	1075.08
581.55	1075.13
581.90	1075.08
582.25	1075.31
582.60	1075.80
582.95	1076.25
583.30	1075.69
583.65	1078.17
584.00	1076.67
584.35	1078.57
584.71	1078.50
585.06	1078.36
585.41	1080.04
585.76	1082.17
586.11	1078.99
586.46	1079.55
586.81	1080.06
587.16	1076.72
587.51	1075.01
587.86	1075.97
588.21	1078.92
588.56	1079.83
588.91	1081.68
589.26	1082.76
589.61	1085.35
589.96	1083.88
590.31	1083.55
590.66	1083.34
591.01	1083.22
591.36	1082.73
591.71	1081.26
592.06	1079.62
592.41	1080.04
592.76	1078.64
593.10	1076.69
593.45	1077.77
593.80	1079.88
594.15	1077.07
594.50	1075.83
594.85	1076.53
595.20	1073.67
595.55	1071.68
595.90	1072.69
596.25	1075.03
596.60	1075.99
596.95	1078.19
597.30	1081.30
597.64	1091.67
597.99	1088.61
598.34	1087.11
598.69	1087.72
599.04	1088.14
599.39	1080.13
599.74	1083.90
600.09	1082.05
600.44	1082.24
600.78	1078.64
601.13	1076.55
601.48	1075.76
601.83	1075.13
602.18	1073.18
602.53	1077.54
602.88	1077.33
603.22	1074.38
603.57	1076.41
603.92	1076.72
604.27	1072.76
604.62	1075.17
604.97	1077.79
605.31	1080.81
605.66	1080.04
606.01	1081.51
606.36	1079.29
606.71	1081.49
607.05	1077.79
607.40	1078.85
607.75	1077.37
608.10	1079.10
608.44	1076.93
608.79	1078.24
609.14	1078.89
609.49	1080.58
609.84	1081.09
610.18	1080.11
610.53	1076.76
610.88	1076.06
611.23	1075.45
611.57	1073.63
611.92	1073.95
612.27	1074.12
612.62	1072.60
612.96	1074.05
613.31	1072.20
613.66	1073.53
614.00	1077.44
614.35	1077.21
614.70	1073.81
615.05	1074.63
615.39	1075.57
615.74	1072.88
616.09	1075.50
616.43	1075.38
616.78	1076.30
617.13	1075.57
617.47	1076.46
617.82	1075.94
618.17	1077.70
618.51	1075.76
618.86	1076.79
619.21	1078.99
619.55	1077.42
619.90	1077.18
620.25	1082.50
620.59	1083.74
620.94	1084.28
621.29	1085.91
621.63	1087.46
621.98	1086.22
622.32	1082.90
622.67	1079.60
623.02	1079.36
623.36	1076.95
623.71	1074.05
624.05	1073.84
624.40	1072.78
624.75	1073.86
625.09	1075.08
625.44	1077.54
625.78	1076.88
626.13	1076.08
626.48	1077.51
626.82	1077.93
627.17	1074.52
627.51	1074.40
627.86	1077.56
628.20	1075.52
628.55	1072.25
628.89	1072.48
629.24	1074.17
629.58	1075.78
629.93	1074.68
630.28	1076.76
630.62	1082.50
630.97	1080.11
631.31	1079.24
631.66	1077.51
632.00	1078.43
632.35	1074.17
632.69	1077.70
633.04	1074.45
633.38	1077.44
633.73	1076.55
634.07	1075.24
634.42	1072.20
634.76	1075.34
635.11	1074.56
635.45	1074.31
635.79	1074.56
636.14	1074.70
636.48	1073.18
636.83	1074.24
637.17	1074.12
637.52	1073.84
637.86	1075.31
638.21	1075.71
638.55	1075.29
638.89	1075.01
639.24	1076.74
639.58	1076.01
639.93	1074.98
640.27	1074.12
640.61	1078.59
640.96	1081.87
641.30	1085.33
641.65	1086.29
641.99	1084.07
642.33	1083.11
642.68	1079.67
643.02	1076.67
643.37	1076.06
643.71	1077.04
644.05	1077.33
644.40	1077.63
644.74	1077.86
645.08	1079.41
645.43	1082.40
645.77	1080.44
646.11	1079.31
646.46	1077.58
646.80	1076.60
647.14	1075.43
647.49	1074.33
647.83	1073.30
648.17	1074.19
648.52	1073.46
648.86	1073.39
649.20	1073.21
649.55	1074.24
649.89	1073.51
650.23	1075.50
650.57	1076.51
650.92	1079.48
651.26	1078.21
651.60	1078.68
651.95	1079.62
652.29	1076.83
652.63	1073.39
652.97	1074.84
653.32	1080.53
653.66	1078.31
654.00	1081.63
654.34	1080.95
654.69	1080.88
655.03	1075.27
655.37	1076.15
655.71	1075.08
656.05	1077.30
656.40	1078.26
656.74	1077.68
657.08	1076.83
657.42	1077.28
657.76	1076.95
658.11	1077.07
658.45	1080.18
658.79	1079.76
659.13	1078.50
659.47	1078.12
659.82	1075.45
660.16	1076.34
660.50	1077.77
660.84	1076.65
661.18	1078.43
661.52	1078.52
661.87	1072.67
662.21	1072.11
662.55	1074.96
662.89	1073.63
663.23	1076.18
663.57	1079.64
663.91	1079.31
664.25	1077.25
664.60	1077.84
664.94	1076.34
665.28	1074.52
665.62	1075.57
665.96	1075.15
666.30	1074.33
666.64	1075.43
666.98	1077.82
667.32	1073.49
667.66	1072.11
668.01	1071.99
668.35	1072.88
668.69	1069.88
669.03	1073.74
669.37	1073.98
669.71	1076.88
670.05	1074.26
670.39	1075.15
670.73	1074.28
671.07	1077.21
671.41	1074.42
671.75	1075.90
672.09	1075.62
672.43	1075.48
672.77	1074.75
673.11	1072.39
673.45	1074.54
673.79	1076.20
674.13	1079.20
674.47	1078.40
674.81	1079.69
675.15	1076.65
675.49	1075.71
675.83	1072.15
676.17	1072.67
676.51	1072.67
676.85	1071.26
677.19	1072.43
677.53	1073.60
677.87	1070.49
678.21	1072.11
678.55	1076.27
678.89	1074.31
679.23	1071.08
679.57	1075.71
679.90	1076.04
680.24	1075.94
680.58	1078.75
680.92	1081.70
681.26	1079.95
681.60	1080.63
681.94	1081.35
682.28	1079.64
682.62	1079.76
682.96	1079.99
683.29	1080.34
683.63	1078.99
683.97	1080.34
684.31	1082.24
684.65	1081.82
684.99	1080.11
685.33	1078.45
685.67	1077.16
686.00	1075.38
686.34	1074.82
686.68	1071.52
687.02	1074.00
687.36	1072.95
687.70	1069.88
688.03	1070.77
688.37	1074.63
688.71	1070.51
689.05	1071.64
689.39	1075.38
689.72	1073.23
690.06	1073.07
690.40	1076.48
690.74	1074.54
691.08	1075.80
691.41	1076.79
691.75	1077.04
692.09	1075.99
692.43	1077.47
692.76	1074.07
693.10	1073.23
693.44	1067.89
693.78	1066.51
694.11	1067.71
694.45	1072.27
694.79	1074.94
695.13	1083.22
695.46	1082.76
695.80	1081.96
696.14	1077.25
696.48	1075.15
696.81	1070.77
697.15	1073.44
697.49	1076.37
697.82	1076.72
698.16	1077.47
698.50	1079.29
698.83	1079.81
699.17	1078.36
699.51	1077.91
699.84	1077.89
700.18	1077.11
700.52	1074.75
700.85	1073.60
701.19	1074.14
701.53	1075.48
701.86	1074.59
702.20	1076.25
702.54	1076.83
702.87	1077.86
703.21	1078.05
703.55	1076.41
703.88	1073.84
704.22	1071.82
704.55	1073.25
704.89	1070.70
705.23	1073.07
705.56	1072.32
705.90	1074.73
706.23	1074.42
706.57	1075.97
706.91	1074.00
707.24	1078.05
707.58	1078.24
707.91	1076.11
708.25	1071.99
708.58	1072.64
708.92	1070.42
709.26	1071.10
709.59	1069.51
709.93	1073.58
710.26	1074.84
710.60	1076.44
710.93	1074.94
711.27	1076.04
711.60	1075.41
711.94	1077.37
712.27	1077.51
712.61	1077.72
712.94	1081.40
713.28	1080.56
713.61	1077.72
713.95	1076.39
714.28	1072.71
714.62	1068.06
714.95	1070.33
715.29	1071.05
715.62	1070.72
715.96	1074.59
716.29	1078.07
716.63	1077.77
716.96	1077.51
717.29	1077.42
717.63	1076.51
717.96	1075.73
718.30	1073.74
718.63	1074.66
718.97	1074.80
719.30	1076.97
719.63	1078.26
719.97	1081.61
720.30	1079.08
720.64	1078.89
720.97	1077.09
721.30	1076.55
721.64	1074.84
721.97	1076.65
722.31	1076.62
722.64	1078.38
722.97	1077.21
723.31	1075.94
723.64	1076.08
723.97	1075.29
724.31	1075.22
724.64	1078.24
724.98	1079.48
725.31	1076.46
725.64	1078.66
725.98	1077.25
726.31	1072.29
726.64	1071.33
726.97	1074.63
727.31	1074.96
727.64	1074.77
727.97	1072.20
728.31	1073.58
728.64	1074.56
728.97	1073.30
729.31	1069.84
729.64	1074.94
729.97	1073.63
730.30	1071.38
730.64	1074.26
730.97	1076.72
731.30	1075.38
731.63	1074.33
731.97	1075.43
732.30	1072.78
732.63	1071.19
732.96	1072.71
733.30	1075.38
733.63	1074.84
733.96	1073.53
734.29	1075.24
734.63	1075.36
734.96	1076.72
735.29	1075.71
735.62	1078.17
735.95	1080.81
736.29	1081.28
736.62	1078.73
736.95	1077.63
737.28	1076.13
737.61	1073.09
737.94	1074.35
738.28	1075.48
738.61	1078.47
738.94	1079.08
739.27	1081.89
739.60	1077.54
739.93	1075.45
740.27	1073.35
740.60	1075.62
740.93	1074.77
741.26	1075.62
741.59	1078.54
741.92	1080.23
742.25	1076.37
742.58	1076.76
742.91	1079.22
743.25	1079.17
743.58	1079.15
743.91	1079.60
744.24	1076.11
744.57	1075.66
744.90	1074.28
745.23	1076.06
745.56	1080.53
745.89	1081.98
746.22	1082.90
746.55	1082.92
746.88	1081.21
747.21	1075.22
747.54	1076.62
747.87	1073.25
748.20	1070.68
748.53	1069.41
748.87	1070.51
749.20	1070.26
749.53	1070.94
749.86	1076.11
750.19	1075.94
750.52	1079.01
750.85	1078.03
751.18	1077.82
751.51	1072.29
751.84	1075.85
752.16	1075.64
752.49	1073.91
752.82	1074.98
753.15	1078.61
753.48	1074.61
753.81	1074.14
754.14	1075.10
754.47	1076.86
754.80	1072.85
755.13	1075.36
755.46	1075.34
755.79	1078.14
756.12	1075.83
756.45	1077.77
756.78	1074.52
757.11	1071.24
757.43	1071.87
757.76	1068.59
758.09	1068.99
758.42	1070.09
758.75	1069.48
759.08	1065.90
759.41	1071.47
759.74	1071.75
760.07	1070.63
760.39	1072.29
760.72	1074.66
761.05	1071.36
761.38	1072.11
761.71	1075.34
762.04	1076.32
762.36	1077.82
762.69	1080.41
763.02	1081.19
763.35	1078.96
763.68	1077.37
764.01	1077.58
764.33	1075.64
764.66	1073.91
764.99	1074.66
765.32	1073.84
