SpectraSuite Data File
++++++++++++++++++++++++++++++++++++
Date: Mon Aug 26 10:22:13 PDT 2019
User: corrico
Dark Spectrum Present: No
Reference Spectrum Present: No
Number of Sampled Component Spectra: 1
Spectrometers: USB2+H06089
Integration Time (usec): 2000 (USB2+H06089)
Spectra Averaged: 20 (USB2+H06089)
Boxcar Smoothing: 2 (USB2+H06089)
Correct for Electrical Dark: No (USB2+H06089)
Strobe/Lamp Enabled: No (USB2+H06089)
Correct for Detector Non-linearity: No (USB2+H06089)
Correct for Stray Light: No (USB2+H06089)
Number of Pixels in Processed Spectrum: 2048
>>>>>Begin Processed Spectral Data<<<<<
339.70	1022.93
340.07	1022.93
340.45	990.07
340.82	969.59
341.19	947.89
341.57	924.56
341.94	913.89
342.31	907.47
342.69	902.49
343.06	899.58
343.43	898.02
343.81	900.97
344.18	901.32
344.55	903.38
344.93	907.73
345.30	912.90
345.67	921.80
346.04	929.94
346.42	937.22
346.79	943.66
347.16	953.58
347.54	959.90
347.91	970.15
348.28	984.27
348.65	996.01
349.03	1004.86
349.40	1014.53
349.77	1024.57
350.14	1031.26
350.52	1040.13
350.89	1046.01
351.26	1048.35
351.63	1051.06
352.01	1053.59
352.38	1055.28
352.75	1060.78
353.12	1064.50
353.50	1071.66
353.87	1074.89
354.24	1080.56
354.61	1080.70
354.98	1086.17
355.36	1087.16
355.73	1091.56
356.10	1089.19
356.47	1089.47
356.84	1086.59
357.22	1085.19
357.59	1084.93
357.96	1087.09
358.33	1089.31
358.70	1091.56
359.08	1091.18
359.45	1088.12
359.82	1086.34
360.19	1085.07
360.56	1081.77
360.94	1078.43
361.31	1078.94
361.68	1078.21
362.05	1078.45
362.42	1080.98
362.79	1082.24
363.16	1078.96
363.54	1080.74
363.91	1081.77
364.28	1080.04
364.65	1078.14
365.02	1082.36
365.39	1079.55
365.76	1074.87
366.14	1077.56
366.51	1077.93
366.88	1075.71
367.25	1076.32
367.62	1078.73
367.99	1075.62
368.36	1074.38
368.73	1069.16
369.10	1066.82
369.48	1067.68
369.85	1065.55
370.22	1069.04
370.59	1073.16
370.96	1077.42
371.33	1076.27
371.70	1078.94
372.07	1078.05
372.44	1080.53
372.81	1076.34
373.18	1077.44
373.55	1074.91
373.93	1075.43
374.30	1074.94
374.67	1077.23
375.04	1075.24
375.41	1075.94
375.78	1074.66
376.15	1074.80
376.52	1073.42
376.89	1074.19
377.26	1078.52
377.63	1080.39
378.00	1079.20
378.37	1079.31
378.74	1081.89
379.11	1080.81
379.48	1078.99
379.85	1081.30
380.22	1084.46
380.59	1083.27
380.96	1082.85
381.33	1085.31
381.70	1084.86
382.07	1084.53
382.44	1082.94
382.81	1084.09
383.18	1082.87
383.55	1081.07
383.92	1080.09
384.29	1080.18
384.66	1079.27
385.03	1081.21
385.40	1080.11
385.77	1078.73
386.14	1082.08
386.51	1081.09
386.88	1080.72
387.25	1081.54
387.62	1083.11
387.99	1080.63
388.36	1082.12
388.73	1079.36
389.10	1085.89
389.46	1086.52
389.83	1089.75
390.20	1091.93
390.57	1093.78
390.94	1088.33
391.31	1088.84
391.68	1086.97
392.05	1084.37
392.42	1086.71
392.79	1086.71
393.16	1083.27
393.53	1082.73
393.89	1081.98
394.26	1079.22
394.63	1081.61
395.00	1086.34
395.37	1086.20
395.74	1087.69
396.11	1090.13
396.48	1086.64
396.84	1087.93
397.21	1089.82
397.58	1089.19
397.95	1087.69
398.32	1089.54
398.69	1088.33
399.06	1087.76
399.42	1087.60
399.79	1087.04
400.16	1087.69
400.53	1088.65
400.90	1088.54
401.27	1088.98
401.64	1091.95
402.00	1093.69
402.37	1092.82
402.74	1092.47
403.11	1091.70
403.48	1092.00
403.84	1092.00
404.21	1092.37
404.58	1092.28
404.95	1090.03
405.32	1087.76
405.68	1087.88
406.05	1087.53
406.42	1090.03
406.79	1094.46
407.16	1096.80
407.52	1098.30
407.89	1097.34
408.26	1098.02
408.63	1098.02
408.99	1096.66
409.36	1094.04
409.73	1095.35
410.10	1093.55
410.47	1095.39
410.83	1095.28
411.20	1096.54
411.57	1096.52
411.94	1098.27
412.30	1098.79
412.67	1099.09
413.04	1099.05
413.40	1100.43
413.77	1101.25
414.14	1103.05
414.51	1105.88
414.87	1107.28
415.24	1111.36
415.61	1112.76
415.97	1113.02
416.34	1111.87
416.71	1113.70
417.08	1112.20
417.44	1112.55
417.81	1113.63
418.18	1115.31
418.54	1113.16
418.91	1113.86
419.28	1113.28
419.64	1112.11
420.01	1113.88
420.38	1115.43
420.74	1113.21
421.11	1115.31
421.48	1118.12
421.84	1121.94
422.21	1124.56
422.58	1127.11
422.94	1130.24
423.31	1133.73
423.68	1135.07
424.04	1139.89
424.41	1145.65
424.77	1148.66
425.14	1148.71
425.51	1153.23
425.87	1157.25
426.24	1162.12
426.61	1170.15
426.97	1182.74
427.34	1191.40
427.70	1200.60
428.07	1206.71
428.44	1215.60
428.80	1218.83
429.17	1226.74
429.53	1237.39
429.90	1255.11
430.27	1265.90
430.63	1279.95
431.00	1293.87
431.36	1307.14
431.73	1317.58
432.09	1333.33
432.46	1350.28
432.83	1371.39
433.19	1392.20
433.56	1413.33
433.92	1435.78
434.29	1460.92
434.65	1487.41
435.02	1518.14
435.38	1553.06
435.75	1584.50
436.11	1624.28
436.48	1661.97
436.84	1702.97
437.21	1746.60
437.57	1795.59
437.94	1843.03
438.30	1898.36
438.67	1951.49
439.03	2009.84
439.40	2077.01
439.76	2146.51
440.13	2215.97
440.49	2296.88
440.86	2376.98
441.22	2460.75
441.59	2553.57
441.95	2655.76
442.32	2757.53
442.68	2866.48
443.05	2989.00
443.41	3113.99
443.78	3239.96
444.14	3376.53
444.51	3519.42
444.87	3681.66
445.24	3840.73
445.60	4022.44
445.96	4204.00
446.33	4412.87
446.69	4604.09
447.06	4816.42
447.42	5026.77
447.79	5259.58
448.15	5515.31
448.51	5782.13
448.88	6102.22
449.24	6402.86
449.61	6750.36
449.97	7102.07
450.33	7478.64
450.70	7817.39
451.06	8238.76
451.43	8629.16
451.79	9075.83
452.15	9555.82
452.52	10093.16
452.88	10633.29
453.24	11256.92
453.61	11950.94
453.97	12645.66
454.34	13330.43
454.70	14120.80
455.06	14896.34
455.43	15621.93
455.79	16290.67
456.15	17075.19
456.52	17803.68
456.88	18695.59
457.24	19589.21
457.61	20707.59
457.97	21760.55
458.33	22872.42
458.70	23925.63
459.06	24907.77
459.42	25914.76
459.79	26809.83
460.15	27813.80
460.51	28780.09
460.88	29862.59
461.24	30808.99
461.60	31965.75
461.96	33002.28
462.33	34000.40
462.69	34972.96
463.05	36043.24
463.42	37014.17
463.78	37908.63
464.14	38651.02
464.50	39413.99
464.87	39954.42
465.23	40279.89
465.59	40721.88
465.95	41073.59
466.32	41325.29
466.68	41537.77
467.04	41684.05
467.40	41662.78
467.77	41782.17
468.13	41697.53
468.49	41574.44
468.85	41490.96
469.22	41356.40
469.58	41065.85
469.94	40908.54
470.30	40656.81
470.66	40245.63
471.03	39737.50
471.39	39364.81
471.75	38619.10
472.11	37918.79
472.47	37468.21
472.84	36969.91
473.20	36267.37
473.56	35899.04
473.92	35345.69
474.28	34717.85
474.65	34058.82
475.01	33407.29
475.37	32615.88
475.73	31973.15
476.09	31302.39
476.45	30685.99
476.81	30158.41
477.18	29642.98
477.54	29154.02
477.90	28708.82
478.26	28169.17
478.62	27645.03
478.98	27186.02
479.34	26741.91
479.71	26192.30
480.07	25759.75
480.43	25327.80
480.79	24852.04
481.15	24414.90
481.51	24062.35
481.87	23744.36
482.23	23378.28
482.59	23069.84
482.96	22748.42
483.32	22451.82
483.68	22068.86
484.04	21729.95
484.40	21330.14
484.76	20906.02
485.12	20449.66
485.48	20020.22
485.84	19537.72
486.20	19115.30
486.56	18704.93
486.92	18329.02
487.28	17943.16
487.64	17552.73
488.00	17175.90
488.37	16799.80
488.73	16380.03
489.09	15948.39
489.45	15566.11
489.81	15137.23
490.17	14703.60
490.53	14308.68
490.89	13910.97
491.25	13490.54
491.61	13087.90
491.97	12702.49
492.33	12297.08
492.69	11925.31
493.05	11582.59
493.41	11249.41
493.77	10926.56
494.13	10627.34
494.49	10339.71
494.85	10055.90
495.21	9805.09
495.57	9546.11
495.93	9284.51
496.29	9041.33
496.64	8824.29
497.00	8565.26
497.36	8321.99
497.72	8095.66
498.08	7879.55
498.44	7657.20
498.80	7461.37
499.16	7276.96
499.52	7091.28
499.88	6909.19
500.24	6739.15
500.60	6574.64
500.96	6413.63
501.32	6247.36
501.68	6085.77
502.03	5907.25
502.39	5744.47
502.75	5580.70
503.11	5429.36
503.47	5283.31
503.83	5159.29
504.19	5028.64
504.55	4906.11
504.91	4791.66
505.26	4681.07
505.62	4560.72
505.98	4454.32
506.34	4343.03
506.70	4231.50
507.06	4124.61
507.42	4029.96
507.78	3938.28
508.13	3848.89
508.49	3768.24
508.85	3693.11
509.21	3612.24
509.57	3524.47
509.93	3441.85
510.28	3351.48
510.64	3264.79
511.00	3188.61
511.36	3116.35
511.72	3053.07
512.07	2997.10
512.43	2938.40
512.79	2875.65
513.15	2820.49
513.51	2759.49
513.86	2707.72
514.22	2657.02
514.58	2607.33
514.94	2560.10
515.30	2518.60
515.65	2471.00
516.01	2429.31
516.37	2386.32
516.73	2350.41
517.08	2308.92
517.44	2266.74
517.80	2228.78
518.16	2192.45
518.51	2159.71
518.87	2133.42
519.23	2110.53
519.59	2080.71
519.94	2054.05
520.30	2023.81
520.66	1987.42
521.01	1956.17
521.37	1929.72
521.73	1902.01
522.09	1877.02
522.44	1859.49
522.80	1836.59
523.16	1816.23
523.51	1796.78
523.87	1772.11
524.23	1752.20
524.58	1732.28
524.94	1709.50
525.30	1691.01
525.65	1671.59
526.01	1647.88
526.37	1627.98
526.72	1615.51
527.08	1597.72
527.44	1584.22
527.79	1570.22
528.15	1556.08
528.51	1537.66
528.86	1523.64
529.22	1505.69
529.58	1494.60
529.93	1480.32
530.29	1468.48
530.65	1459.37
531.00	1449.89
531.36	1436.90
531.71	1427.17
532.07	1413.17
532.43	1401.14
532.78	1390.37
533.14	1383.21
533.49	1374.15
533.85	1370.08
534.21	1360.60
534.56	1354.33
534.92	1343.37
535.27	1334.69
535.63	1327.95
535.98	1319.73
536.34	1313.42
536.69	1308.34
537.05	1303.37
537.41	1294.13
537.76	1288.79
538.12	1277.96
538.47	1270.26
538.83	1262.77
539.18	1258.44
539.54	1256.49
539.89	1255.72
540.25	1253.57
540.60	1253.08
540.96	1247.06
541.31	1240.72
541.67	1236.97
542.02	1231.52
542.38	1223.77
542.73	1222.93
543.09	1220.03
543.44	1217.48
543.80	1213.05
544.15	1212.58
544.51	1210.55
544.86	1206.64
545.22	1203.41
545.57	1202.33
545.93	1200.09
546.28	1191.57
546.64	1187.96
546.99	1182.49
547.35	1173.94
547.70	1169.89
548.05	1174.08
548.41	1172.14
548.76	1169.80
549.12	1170.74
549.47	1169.92
549.83	1162.99
550.18	1160.27
550.53	1160.37
550.89	1160.93
551.24	1156.18
551.60	1156.72
551.95	1158.47
552.30	1158.66
552.66	1156.27
553.01	1154.98
553.37	1149.79
553.72	1147.33
554.07	1143.98
554.43	1144.57
554.78	1145.29
555.13	1144.85
555.49	1141.71
555.84	1139.30
556.19	1134.46
556.55	1130.67
556.90	1129.82
557.26	1131.72
557.61	1128.68
557.96	1126.15
558.32	1126.48
558.67	1123.97
559.02	1122.08
559.37	1124.49
559.73	1125.54
560.08	1126.64
560.43	1128.77
560.79	1127.97
561.14	1124.42
561.49	1122.26
561.85	1117.77
562.20	1114.45
562.55	1115.03
562.90	1117.75
563.26	1121.33
563.61	1124.07
563.96	1123.57
564.32	1116.72
564.67	1113.74
565.02	1110.77
565.37	1108.69
565.73	1110.98
566.08	1113.02
566.43	1109.69
566.78	1108.52
567.14	1108.69
567.49	1106.37
567.84	1106.65
568.19	1111.43
568.54	1109.88
568.90	1110.70
569.25	1106.93
569.60	1106.07
569.95	1101.76
570.31	1099.00
570.66	1095.86
571.01	1101.20
571.36	1102.46
571.71	1101.71
572.06	1101.97
572.42	1101.06
572.77	1097.97
573.12	1096.45
573.47	1098.60
573.82	1102.56
574.18	1103.59
574.53	1103.05
574.88	1101.57
575.23	1098.98
575.58	1095.56
575.93	1094.95
576.28	1097.73
576.64	1098.86
576.99	1099.30
577.34	1098.83
577.69	1099.40
578.04	1099.14
578.39	1094.95
578.74	1092.47
579.09	1094.53
579.44	1094.53
579.80	1092.12
580.15	1094.39
580.50	1094.95
580.85	1093.43
581.20	1091.18
581.55	1090.39
581.90	1090.39
582.25	1094.65
582.60	1092.00
582.95	1092.12
583.30	1091.58
583.65	1090.03
584.00	1086.80
584.35	1089.33
584.71	1089.29
585.06	1089.59
585.41	1092.96
585.76	1092.28
586.11	1092.54
586.46	1090.29
586.81	1088.07
587.16	1082.64
587.51	1081.77
587.86	1081.42
588.21	1082.43
588.56	1084.23
588.91	1088.75
589.26	1091.95
589.61	1091.11
589.96	1091.74
590.31	1091.91
590.66	1089.87
591.01	1089.29
591.36	1089.24
591.71	1088.51
592.06	1087.86
592.41	1089.57
592.76	1087.67
593.10	1089.68
593.45	1090.53
593.80	1088.61
594.15	1089.03
594.50	1088.58
594.85	1086.92
595.20	1084.56
595.55	1086.69
595.90	1086.08
596.25	1089.66
596.60	1089.85
596.95	1091.06
597.30	1091.25
597.64	1102.84
597.99	1100.22
598.34	1098.30
598.69	1098.74
599.04	1098.46
599.39	1086.94
599.74	1085.10
600.09	1086.83
600.44	1087.46
600.78	1088.77
601.13	1087.41
601.48	1089.47
601.83	1092.54
602.18	1089.47
602.53	1089.05
602.88	1088.72
603.22	1088.79
603.57	1081.40
603.92	1085.40
604.27	1084.04
604.62	1082.29
604.97	1081.51
605.31	1085.42
605.66	1082.45
606.01	1084.23
606.36	1083.90
606.71	1083.29
607.05	1083.46
607.40	1082.69
607.75	1081.73
608.10	1086.13
608.44	1089.45
608.79	1087.74
609.14	1091.63
609.49	1091.42
609.84	1089.00
610.18	1086.48
610.53	1087.93
610.88	1086.36
611.23	1084.49
611.57	1084.02
611.92	1085.33
612.27	1084.18
612.62	1082.10
612.96	1083.81
613.31	1083.18
613.66	1078.59
614.00	1080.11
614.35	1080.23
614.70	1079.71
615.05	1083.22
615.39	1086.85
615.74	1086.10
616.09	1088.70
616.43	1088.56
616.78	1083.15
617.13	1082.61
617.47	1083.53
617.82	1084.81
618.17	1083.39
618.51	1086.50
618.86	1084.91
619.21	1084.09
619.55	1084.28
619.90	1083.53
620.25	1083.93
620.59	1082.83
620.94	1084.39
621.29	1081.23
621.63	1081.23
621.98	1081.54
622.32	1084.56
622.67	1080.81
623.02	1079.62
623.36	1081.21
623.71	1079.46
624.05	1077.51
624.40	1081.54
624.75	1083.46
625.09	1083.50
625.44	1084.74
625.78	1086.34
626.13	1083.90
626.48	1085.77
626.82	1084.63
627.17	1083.86
627.51	1080.23
627.86	1079.76
628.20	1077.37
628.55	1080.79
628.89	1082.33
629.24	1085.26
629.58	1085.99
629.93	1084.42
630.28	1080.56
630.62	1080.48
630.97	1080.41
631.31	1081.61
631.66	1084.91
632.00	1086.31
632.35	1083.29
632.69	1085.17
633.04	1084.30
633.38	1079.90
633.73	1079.38
634.07	1078.99
634.42	1076.67
634.76	1076.44
635.11	1080.09
635.45	1081.96
635.79	1085.80
636.14	1086.73
636.48	1086.24
636.83	1084.65
637.17	1082.83
637.52	1082.94
637.86	1084.65
638.21	1083.43
638.55	1084.74
638.89	1084.11
639.24	1082.38
639.58	1080.95
639.93	1080.74
640.27	1081.35
640.61	1082.40
640.96	1081.21
641.30	1081.54
641.65	1085.52
641.99	1085.14
642.33	1084.37
642.68	1084.18
643.02	1082.97
643.37	1079.88
643.71	1077.35
644.05	1077.47
644.40	1080.41
644.74	1083.20
645.08	1084.46
645.43	1086.15
645.77	1086.13
646.11	1086.15
646.46	1086.45
646.80	1085.35
647.14	1082.80
647.49	1082.69
647.83	1080.27
648.17	1077.11
648.52	1077.89
648.86	1079.62
649.20	1079.15
649.55	1079.74
649.89	1079.64
650.23	1079.64
650.57	1077.75
650.92	1077.28
651.26	1075.48
651.60	1075.15
651.95	1075.34
652.29	1076.53
652.63	1081.26
652.97	1083.62
653.32	1082.73
653.66	1083.27
654.00	1086.69
654.34	1085.96
654.69	1084.96
655.03	1084.42
655.37	1085.45
655.71	1082.38
656.05	1079.90
656.40	1081.05
656.74	1082.59
657.08	1079.88
657.42	1080.32
657.76	1080.63
658.11	1079.17
658.45	1077.84
658.79	1077.42
659.13	1079.22
659.47	1079.24
659.82	1080.16
660.16	1080.41
660.50	1081.84
660.84	1080.77
661.18	1080.88
661.52	1077.25
661.87	1079.13
662.21	1078.40
662.55	1077.70
662.89	1079.41
663.23	1083.04
663.57	1082.24
663.91	1082.50
664.25	1081.00
664.60	1080.37
664.94	1080.53
665.28	1082.73
665.62	1084.89
665.96	1086.13
666.30	1085.87
666.64	1085.17
666.98	1085.17
667.32	1082.45
667.66	1084.39
668.01	1085.61
668.35	1088.68
668.69	1085.54
669.03	1086.24
669.37	1085.80
669.71	1083.48
670.05	1078.85
670.39	1081.98
670.73	1081.28
671.07	1079.29
671.41	1079.08
671.75	1080.84
672.09	1075.90
672.43	1076.32
672.77	1077.98
673.11	1077.86
673.45	1081.14
673.79	1084.46
674.13	1085.00
674.47	1086.10
674.81	1087.34
675.15	1084.37
675.49	1085.73
675.83	1086.52
676.17	1084.70
676.51	1085.19
676.85	1085.28
677.19	1085.21
677.53	1085.31
677.87	1084.53
678.21	1082.57
678.55	1079.88
678.89	1078.07
679.23	1073.53
679.57	1073.21
679.90	1071.50
680.24	1074.68
680.58	1072.92
680.92	1077.89
681.26	1082.08
681.60	1086.97
681.94	1088.54
682.28	1091.27
682.62	1090.50
682.96	1086.22
683.29	1083.60
683.63	1081.09
683.97	1081.19
684.31	1082.12
684.65	1084.81
684.99	1084.37
685.33	1081.87
685.67	1079.71
686.00	1077.79
686.34	1074.24
686.68	1072.62
687.02	1075.20
687.36	1080.11
687.70	1081.61
688.03	1084.63
688.37	1085.84
688.71	1082.01
689.05	1079.55
689.39	1076.69
689.72	1072.71
690.06	1074.28
690.40	1075.41
690.74	1071.03
691.08	1068.17
691.41	1072.53
691.75	1072.64
692.09	1072.39
692.43	1075.69
692.76	1080.04
693.10	1079.85
693.44	1077.02
693.78	1079.88
694.11	1083.36
694.45	1082.85
694.79	1077.33
695.13	1078.66
695.46	1080.74
695.80	1078.64
696.14	1079.50
696.48	1083.69
696.81	1083.34
697.15	1082.24
697.49	1077.21
697.82	1075.94
698.16	1076.32
698.50	1078.26
698.83	1077.98
699.17	1084.11
699.51	1087.46
699.84	1088.28
700.18	1087.18
700.52	1087.88
700.85	1083.01
701.19	1083.46
701.53	1083.20
701.86	1083.53
702.20	1081.63
702.54	1081.70
702.87	1078.59
703.21	1077.49
703.55	1076.67
703.88	1077.61
704.22	1082.50
704.55	1083.01
704.89	1084.74
705.23	1085.42
705.56	1086.34
705.90	1082.38
706.23	1082.59
706.57	1081.49
706.91	1084.53
707.24	1081.47
707.58	1081.51
707.91	1079.81
708.25	1081.23
708.58	1076.79
708.92	1077.72
709.26	1078.36
709.59	1079.99
709.93	1080.30
710.26	1080.30
710.60	1082.19
710.93	1085.21
711.27	1086.64
711.60	1087.39
711.94	1087.58
712.27	1086.27
712.61	1081.54
712.94	1078.57
713.28	1077.18
713.61	1077.77
713.95	1081.33
714.28	1080.70
714.62	1082.73
714.95	1083.46
715.29	1084.44
715.62	1081.89
715.96	1085.03
716.29	1087.69
716.63	1084.72
716.96	1083.25
717.29	1082.29
717.63	1082.10
717.96	1078.89
718.30	1079.34
718.63	1080.95
718.97	1077.72
719.30	1074.87
719.63	1072.13
719.97	1072.62
720.30	1073.44
720.64	1074.75
720.97	1076.37
721.30	1078.52
721.64	1079.90
721.97	1077.82
722.31	1077.30
722.64	1079.99
722.97	1079.83
723.31	1080.48
723.64	1081.00
723.97	1082.71
724.31	1080.44
724.64	1081.80
724.98	1079.78
725.31	1079.03
725.64	1080.81
725.98	1081.91
726.31	1082.03
726.64	1080.39
726.97	1081.09
727.31	1078.24
727.64	1077.72
727.97	1076.15
728.31	1077.89
728.64	1077.93
728.97	1081.35
729.31	1081.49
729.64	1084.81
729.97	1084.18
730.30	1081.87
730.64	1076.34
730.97	1076.20
731.30	1073.98
731.63	1073.37
731.97	1075.08
732.30	1076.88
732.63	1078.12
732.96	1077.77
733.30	1082.43
733.63	1080.72
733.96	1080.81
734.29	1078.64
734.63	1079.83
734.96	1077.25
735.29	1078.45
735.62	1078.28
735.95	1081.54
736.29	1077.58
736.62	1076.72
736.95	1083.50
737.28	1084.84
737.61	1078.80
737.94	1080.18
738.28	1080.37
738.61	1071.05
738.94	1072.46
739.27	1074.49
739.60	1075.66
739.93	1075.69
740.27	1079.71
740.60	1078.21
740.93	1083.79
741.26	1084.21
741.59	1083.60
741.92	1083.79
742.25	1086.87
742.58	1085.54
742.91	1086.97
743.25	1085.38
743.58	1084.91
743.91	1084.02
744.24	1084.56
744.57	1084.58
744.90	1088.61
745.23	1088.79
745.56	1087.69
745.89	1082.43
746.22	1081.63
746.55	1076.37
746.88	1075.71
747.21	1072.76
747.54	1073.56
747.87	1072.01
748.20	1073.60
748.53	1070.91
748.87	1072.81
749.20	1073.16
749.53	1072.50
749.86	1071.94
750.19	1074.63
750.52	1074.84
750.85	1075.99
751.18	1076.37
751.51	1077.16
751.84	1079.55
752.16	1078.80
752.49	1077.23
752.82	1077.86
753.15	1079.67
753.48	1076.27
753.81	1076.88
754.14	1075.87
754.47	1075.15
754.80	1075.41
755.13	1077.21
755.46	1077.93
755.79	1077.33
756.12	1075.90
756.45	1075.10
756.78	1072.60
757.11	1071.80
757.43	1072.39
757.76	1071.66
758.09	1072.97
758.42	1074.80
758.75	1076.60
759.08	1079.69
759.41	1081.33
759.74	1080.86
760.07	1082.45
760.39	1080.04
760.72	1076.30
761.05	1079.48
761.38	1078.96
761.71	1075.94
762.04	1076.97
762.36	1081.91
762.69	1077.47
763.02	1074.19
763.35	1074.28
763.68	1074.52
