SpectraSuite Data File
++++++++++++++++++++++++++++++++++++
Date: Mon Aug 26 10:22:16 PDT 2019
User: corrico
Dark Spectrum Present: No
Reference Spectrum Present: No
Number of Sampled Component Spectra: 1
Spectrometers: USB2+H06089
Integration Time (usec): 2000 (USB2+H06089)
Spectra Averaged: 20 (USB2+H06089)
Boxcar Smoothing: 2 (USB2+H06089)
Correct for Electrical Dark: No (USB2+H06089)
Strobe/Lamp Enabled: No (USB2+H06089)
Correct for Detector Non-linearity: No (USB2+H06089)
Correct for Stray Light: No (USB2+H06089)
Number of Pixels in Processed Spectrum: 2048
>>>>>Begin Processed Spectral Data<<<<<
339.70	1039.08
340.07	1039.08
340.45	1001.07
340.82	977.71
341.19	954.89
341.57	929.66
341.94	918.12
342.31	909.67
342.69	904.62
343.06	899.26
343.43	893.50
343.81	895.68
344.18	896.12
344.55	902.42
344.93	906.23
345.30	916.51
345.67	923.29
346.04	931.44
346.42	936.00
346.79	945.97
347.16	954.84
347.54	963.39
347.91	975.68
348.28	986.00
348.65	995.41
349.03	1004.37
349.40	1014.88
349.77	1022.44
350.14	1030.89
350.52	1036.58
350.89	1040.65
351.26	1044.21
351.63	1049.64
352.01	1055.21
352.38	1063.45
352.75	1068.57
353.12	1071.66
353.50	1071.45
353.87	1072.32
354.24	1074.33
354.61	1077.96
354.98	1083.04
355.36	1086.15
355.73	1087.37
356.10	1085.54
356.47	1086.64
356.84	1085.35
357.22	1086.94
357.59	1089.47
357.96	1090.76
358.33	1087.13
358.70	1087.76
359.08	1083.97
359.45	1081.61
359.82	1080.67
360.19	1081.30
360.56	1078.99
360.94	1081.91
361.31	1079.62
361.68	1078.17
362.05	1075.15
362.42	1074.49
362.79	1072.67
363.16	1073.39
363.54	1070.49
363.91	1070.61
364.28	1068.81
364.65	1069.02
365.02	1066.49
365.39	1067.71
365.76	1070.28
366.14	1071.50
366.51	1070.49
366.88	1070.21
367.25	1072.67
367.62	1071.38
367.99	1070.42
368.36	1071.75
368.73	1073.67
369.10	1072.46
369.48	1072.71
369.85	1073.37
370.22	1071.85
370.59	1070.35
370.96	1071.17
371.33	1070.80
371.70	1072.48
372.07	1072.18
372.44	1076.53
372.81	1075.13
373.18	1075.55
373.55	1078.21
373.93	1076.86
374.30	1076.95
374.67	1074.03
375.04	1076.86
375.41	1074.80
375.78	1079.76
376.15	1079.38
376.52	1084.89
376.89	1084.02
377.26	1082.57
377.63	1078.82
378.00	1076.11
378.37	1074.54
378.74	1074.10
379.11	1075.85
379.48	1079.29
379.85	1079.01
380.22	1078.94
380.59	1076.62
380.96	1078.40
381.33	1076.46
381.70	1076.37
382.07	1078.85
382.44	1079.34
382.81	1078.12
383.18	1079.13
383.55	1083.48
383.92	1081.37
384.29	1082.83
384.66	1082.54
385.03	1082.85
385.40	1083.71
385.77	1084.35
386.14	1086.24
386.51	1085.35
386.88	1087.86
387.25	1083.11
387.62	1083.64
387.99	1083.43
388.36	1084.96
388.73	1082.97
389.10	1085.99
389.46	1088.82
389.83	1090.71
390.20	1092.59
390.57	1094.06
390.94	1094.93
391.31	1089.61
391.68	1087.11
392.05	1087.20
392.42	1085.17
392.79	1083.22
393.16	1086.50
393.53	1087.95
393.89	1085.49
394.26	1087.93
394.63	1089.05
395.00	1089.61
395.37	1088.33
395.74	1090.78
396.11	1088.49
396.48	1084.25
396.84	1081.56
397.21	1080.53
397.58	1078.54
397.95	1080.60
398.32	1085.84
398.69	1088.82
399.06	1089.99
399.42	1090.83
399.79	1087.39
400.16	1085.68
400.53	1083.53
400.90	1083.67
401.27	1084.58
401.64	1087.97
402.00	1088.19
402.37	1089.24
402.74	1090.64
403.11	1087.86
403.48	1084.72
403.84	1088.35
404.21	1089.14
404.58	1088.72
404.95	1093.01
405.32	1096.31
405.68	1093.26
406.05	1094.48
406.42	1092.77
406.79	1092.12
407.16	1091.74
407.52	1093.24
407.89	1095.23
408.26	1099.44
408.63	1100.59
408.99	1100.38
409.36	1097.38
409.73	1094.41
410.10	1094.20
410.47	1093.38
410.83	1090.67
411.20	1094.90
411.57	1096.07
411.94	1094.95
412.30	1096.96
412.67	1099.91
413.04	1098.93
413.40	1096.17
413.77	1095.65
414.14	1095.46
414.51	1095.44
414.87	1096.03
415.24	1098.34
415.61	1098.65
415.97	1101.48
416.34	1106.00
416.71	1108.52
417.08	1107.33
417.44	1111.10
417.81	1108.59
418.18	1105.51
418.54	1105.83
418.91	1113.02
419.28	1113.93
419.64	1113.04
420.01	1117.49
420.38	1116.76
420.74	1117.79
421.11	1118.68
421.48	1120.55
421.84	1121.30
422.21	1125.19
422.58	1125.38
422.94	1128.35
423.31	1134.32
423.68	1134.06
424.04	1135.63
424.41	1136.03
424.77	1137.38
425.14	1140.40
425.51	1145.74
425.87	1147.87
426.24	1151.17
426.61	1155.08
426.97	1157.23
427.34	1161.44
427.70	1171.06
428.07	1175.14
428.44	1181.20
428.80	1186.30
429.17	1193.23
429.53	1197.39
429.90	1211.88
430.27	1222.11
430.63	1233.44
431.00	1242.94
431.36	1256.89
431.73	1264.33
432.09	1274.91
432.46	1285.87
432.83	1307.28
433.19	1323.27
433.56	1342.16
433.92	1362.61
434.29	1385.71
434.65	1406.08
435.02	1424.10
435.38	1450.29
435.75	1474.23
436.11	1504.59
436.48	1532.28
436.84	1570.78
437.21	1604.91
437.57	1642.33
437.94	1679.94
438.30	1723.99
438.67	1767.76
439.03	1817.10
439.40	1870.95
439.76	1925.93
440.13	1983.86
440.49	2048.41
440.86	2111.94
441.22	2183.28
441.59	2258.76
441.95	2335.41
442.32	2418.03
442.68	2511.23
443.05	2606.47
443.41	2702.57
443.78	2801.13
444.14	2901.19
444.51	3012.67
444.87	3140.37
445.24	3276.70
445.60	3426.43
445.96	3577.56
446.33	3742.38
446.69	3902.73
447.06	4074.36
447.42	4248.70
447.79	4433.58
448.15	4647.77
448.51	4867.45
448.88	5124.13
449.24	5365.58
449.61	5637.98
449.97	5898.41
450.33	6170.64
450.70	6422.31
451.06	6738.50
451.43	7039.93
451.79	7398.60
452.15	7796.91
452.52	8241.03
452.88	8702.11
453.24	9216.94
453.61	9779.30
453.97	10330.33
454.34	10866.26
454.70	11484.52
455.06	12119.04
455.43	12713.95
455.79	13293.42
456.15	13978.26
456.52	14604.33
456.88	15329.29
457.24	16032.62
457.61	16862.23
457.97	17627.96
458.33	18404.19
458.70	19172.52
459.06	19924.21
459.42	20730.92
459.79	21461.66
460.15	22327.24
460.51	23136.69
460.88	24024.64
461.24	24782.34
461.60	25710.74
461.96	26558.50
462.33	27379.61
462.69	28177.15
463.05	29046.24
463.42	29789.66
463.78	30464.18
464.14	31006.64
464.50	31576.73
464.87	32030.68
465.23	32352.78
465.59	32684.15
465.95	33013.05
466.32	33258.92
466.68	33468.89
467.04	33602.06
467.40	33721.99
467.77	33846.42
468.13	33856.53
468.49	33787.32
468.85	33740.65
469.22	33600.33
469.58	33278.51
469.94	33005.18
470.30	32706.20
470.66	32287.88
471.03	31697.78
471.39	31324.07
471.75	30743.97
472.11	30184.18
472.47	29866.64
472.84	29576.88
473.20	29118.93
473.56	28854.80
473.92	28429.50
474.28	27905.43
474.65	27438.71
475.01	26985.04
475.37	26442.34
475.73	25984.63
476.09	25505.00
476.45	25018.22
476.81	24525.65
477.18	23995.06
477.54	23555.50
477.90	23180.03
478.26	22741.63
478.62	22369.32
478.98	22052.97
479.34	21716.87
479.71	21295.53
480.07	20943.63
480.43	20585.48
480.79	20229.55
481.15	19872.27
481.51	19556.72
481.87	19299.68
482.23	19021.74
482.59	18767.89
482.96	18505.87
483.32	18243.05
483.68	17880.80
484.04	17558.46
484.40	17193.76
484.76	16846.38
485.12	16470.63
485.48	16162.62
485.84	15822.63
486.20	15480.26
486.56	15123.25
486.92	14827.27
487.28	14485.34
487.64	14143.86
488.00	13835.40
488.37	13526.99
488.73	13189.83
489.09	12864.15
489.45	12565.94
489.81	12246.99
490.17	11961.89
490.53	11680.58
490.89	11376.76
491.25	11080.63
491.61	10783.32
491.97	10470.15
492.33	10162.35
492.69	9882.82
493.05	9589.36
493.41	9306.02
493.77	9036.25
494.13	8772.49
494.49	8518.08
494.85	8278.66
495.21	8060.36
495.57	7843.46
495.93	7634.38
496.29	7433.73
496.64	7258.80
497.00	7072.30
497.36	6888.71
497.72	6709.47
498.08	6530.26
498.44	6345.36
498.80	6183.34
499.16	6015.95
499.52	5857.21
499.88	5725.56
500.24	5603.57
500.60	5480.88
500.96	5372.14
501.32	5262.79
501.68	5148.78
502.03	5021.29
502.39	4894.60
502.75	4761.14
503.11	4636.48
503.47	4515.57
503.83	4403.04
504.19	4287.30
504.55	4186.07
504.91	4096.50
505.26	4009.38
505.62	3923.23
505.98	3841.45
506.34	3753.00
506.70	3661.30
507.06	3571.03
507.42	3483.00
507.78	3409.06
508.13	3337.96
508.49	3261.51
508.85	3193.68
509.21	3129.23
509.57	3060.18
509.93	2993.78
510.28	2930.82
510.64	2861.82
511.00	2796.68
511.36	2734.12
511.72	2680.10
512.07	2631.86
512.43	2586.83
512.79	2540.98
513.15	2497.49
513.51	2445.44
513.86	2394.58
514.22	2353.60
514.58	2312.99
514.94	2275.61
515.30	2243.99
515.65	2216.98
516.01	2185.55
516.37	2155.42
516.73	2122.09
517.08	2091.76
517.44	2057.47
517.80	2027.61
518.16	2001.46
518.51	1977.61
518.87	1949.53
519.23	1928.65
519.59	1900.68
519.94	1874.28
520.30	1849.33
520.66	1827.23
521.01	1800.97
521.37	1783.35
521.73	1762.17
522.09	1742.65
522.44	1723.59
522.80	1703.37
523.16	1680.48
523.51	1662.13
523.87	1641.58
524.23	1624.24
524.58	1608.46
524.94	1596.88
525.30	1579.00
525.65	1564.23
526.01	1547.52
526.37	1533.73
526.72	1517.30
527.08	1500.70
527.44	1488.00
527.79	1475.59
528.15	1460.14
528.51	1441.35
528.86	1432.17
529.22	1419.75
529.58	1410.17
529.93	1400.18
530.29	1397.37
530.65	1388.31
531.00	1377.50
531.36	1365.42
531.71	1355.29
532.07	1342.86
532.43	1338.37
532.78	1334.92
533.14	1334.01
533.49	1325.21
533.85	1322.45
534.21	1313.32
534.56	1306.14
534.92	1294.64
535.27	1290.52
535.63	1284.35
535.98	1275.01
536.34	1268.24
536.69	1263.73
537.05	1263.33
537.41	1257.62
537.76	1254.20
538.12	1249.75
538.47	1245.52
538.83	1238.42
539.18	1232.71
539.54	1228.55
539.89	1227.12
540.25	1222.79
540.60	1219.89
540.96	1219.65
541.31	1219.00
541.67	1211.93
542.02	1206.99
542.38	1203.53
542.73	1195.43
543.09	1188.78
543.44	1183.66
543.80	1180.33
544.15	1176.47
544.51	1174.11
544.86	1174.06
545.22	1175.65
545.57	1174.55
545.93	1170.83
546.28	1171.30
546.64	1170.69
546.99	1168.21
547.35	1167.95
547.70	1168.09
548.05	1165.52
548.41	1161.72
548.76	1159.22
549.12	1156.27
549.47	1156.72
549.83	1155.24
550.18	1153.81
550.53	1150.33
550.89	1148.38
551.24	1146.32
551.60	1144.24
551.95	1141.20
552.30	1139.05
552.66	1134.90
553.01	1132.14
553.37	1128.26
553.72	1129.59
554.07	1129.10
554.43	1130.62
554.78	1129.64
555.13	1130.13
555.49	1129.43
555.84	1130.57
556.19	1127.11
556.55	1127.34
556.90	1128.11
557.26	1127.20
557.61	1124.09
557.96	1124.63
558.32	1120.11
558.67	1118.99
559.02	1117.35
559.37	1118.57
559.73	1120.72
560.08	1121.44
560.43	1115.59
560.79	1113.65
561.14	1113.37
561.49	1111.73
561.85	1111.19
562.20	1114.02
562.55	1111.12
562.90	1109.13
563.26	1104.85
563.61	1103.12
563.96	1101.99
564.32	1100.57
564.67	1097.85
565.02	1101.95
565.37	1101.74
565.73	1102.63
566.08	1102.04
566.43	1106.00
566.78	1105.51
567.14	1104.15
567.49	1102.81
567.84	1103.70
568.19	1101.46
568.54	1099.12
568.90	1098.23
569.25	1097.55
569.60	1094.69
569.95	1091.42
570.31	1091.25
570.66	1093.83
571.01	1094.50
571.36	1097.55
571.71	1100.40
572.06	1101.69
572.42	1098.25
572.77	1097.36
573.12	1098.39
573.47	1095.63
573.82	1094.20
574.18	1097.97
574.53	1097.50
574.88	1094.08
575.23	1095.58
575.58	1091.44
575.93	1088.84
576.28	1087.83
576.64	1091.84
576.99	1091.13
577.34	1093.10
577.69	1094.83
578.04	1094.36
578.39	1092.56
578.74	1094.48
579.09	1094.67
579.44	1091.34
579.80	1093.29
580.15	1092.87
580.50	1088.79
580.85	1090.03
581.20	1090.76
581.55	1092.42
581.90	1091.39
582.25	1094.20
582.60	1091.51
582.95	1091.93
583.30	1088.79
583.65	1088.56
584.00	1087.18
584.35	1086.73
584.71	1086.87
585.06	1088.68
585.41	1089.94
585.76	1089.87
586.11	1092.52
586.46	1091.93
586.81	1091.70
587.16	1090.55
587.51	1089.59
587.86	1086.22
588.21	1087.18
588.56	1085.59
588.91	1086.50
589.26	1089.64
589.61	1092.61
589.96	1089.82
590.31	1091.23
590.66	1095.16
591.01	1094.34
591.36	1092.82
591.71	1094.53
592.06	1095.11
592.41	1091.44
592.76	1087.44
593.10	1088.19
593.45	1088.44
593.80	1090.88
594.15	1090.55
594.50	1091.74
594.85	1091.88
595.20	1089.99
595.55	1084.35
595.90	1084.79
596.25	1087.34
596.60	1087.32
596.95	1090.34
597.30	1092.26
597.64	1100.66
597.99	1098.72
598.34	1096.87
598.69	1094.08
599.04	1089.80
599.39	1080.23
599.74	1080.48
600.09	1081.12
600.44	1084.39
600.78	1085.33
601.13	1083.36
601.48	1083.79
601.83	1084.93
602.18	1083.15
602.53	1083.64
602.88	1086.22
603.22	1083.11
603.57	1082.97
603.92	1085.05
604.27	1088.93
604.62	1089.17
604.97	1093.36
605.31	1095.51
605.66	1092.07
606.01	1090.46
606.36	1087.88
606.71	1085.91
607.05	1084.77
607.40	1087.65
607.75	1085.82
608.10	1086.83
608.44	1089.12
608.79	1087.25
609.14	1084.91
609.49	1084.16
609.84	1086.03
610.18	1083.32
610.53	1084.98
610.88	1086.06
611.23	1090.32
611.57	1086.94
611.92	1086.20
612.27	1084.51
612.62	1083.41
612.96	1082.47
613.31	1084.42
613.66	1082.54
614.00	1084.00
614.35	1084.23
614.70	1082.33
615.05	1083.08
615.39	1087.97
615.74	1087.37
616.09	1087.86
616.43	1090.67
616.78	1090.03
617.13	1089.31
617.47	1089.75
617.82	1088.07
618.17	1084.79
618.51	1084.72
618.86	1082.57
619.21	1079.55
619.55	1079.31
619.90	1081.12
620.25	1076.88
620.59	1076.37
620.94	1079.24
621.29	1078.61
621.63	1078.40
621.98	1080.23
622.32	1083.36
622.67	1082.87
623.02	1084.84
623.36	1083.39
623.71	1083.64
624.05	1082.33
624.40	1081.58
624.75	1082.31
625.09	1082.76
625.44	1084.81
625.78	1083.11
626.13	1083.48
626.48	1083.25
626.82	1085.03
627.17	1085.63
627.51	1088.33
627.86	1084.98
628.20	1084.46
628.55	1083.76
628.89	1081.75
629.24	1080.79
629.58	1081.44
629.93	1081.49
630.28	1081.51
630.62	1079.57
630.97	1082.15
631.31	1085.05
631.66	1086.57
632.00	1082.87
632.35	1085.56
632.69	1079.24
633.04	1080.67
633.38	1079.60
633.73	1080.95
634.07	1078.19
634.42	1080.41
634.76	1078.68
635.11	1076.90
635.45	1080.27
635.79	1085.45
636.14	1086.15
636.48	1085.82
636.83	1083.34
637.17	1080.02
637.52	1076.41
637.86	1076.79
638.21	1075.94
638.55	1079.57
638.89	1078.96
639.24	1079.20
639.58	1078.28
639.93	1079.20
640.27	1079.88
640.61	1083.06
640.96	1084.79
641.30	1085.33
641.65	1085.56
641.99	1084.16
642.33	1081.42
642.68	1079.43
643.02	1078.82
643.37	1080.67
643.71	1079.67
644.05	1082.45
644.40	1081.26
644.74	1079.74
645.08	1079.13
645.43	1081.33
645.77	1080.88
646.11	1083.25
646.46	1087.27
646.80	1086.15
647.14	1085.03
647.49	1085.87
647.83	1084.23
648.17	1082.19
648.52	1081.94
648.86	1082.24
649.20	1079.92
649.55	1081.33
649.89	1081.58
650.23	1081.56
650.57	1081.96
650.92	1081.61
651.26	1083.08
651.60	1084.51
651.95	1085.59
652.29	1083.06
652.63	1086.22
652.97	1084.16
653.32	1083.34
653.66	1084.25
654.00	1086.15
654.34	1084.65
654.69	1086.59
655.03	1084.91
655.37	1082.76
655.71	1080.60
656.05	1078.64
656.40	1074.91
656.74	1077.00
657.08	1079.24
657.42	1081.63
657.76	1082.73
658.11	1083.90
658.45	1081.70
658.79	1078.19
659.13	1077.09
659.47	1078.14
659.82	1079.17
660.16	1082.17
660.50	1085.59
660.84	1085.59
661.18	1087.41
661.52	1085.14
661.87	1083.22
662.21	1080.58
662.55	1083.01
662.89	1079.95
663.23	1082.94
663.57	1082.43
663.91	1083.71
664.25	1079.88
664.60	1075.71
664.94	1075.48
665.28	1079.17
665.62	1079.34
665.96	1081.73
666.30	1087.69
666.64	1088.63
666.98	1087.11
667.32	1083.29
667.66	1082.47
668.01	1082.17
668.35	1082.36
668.69	1080.02
669.03	1080.84
669.37	1081.89
669.71	1082.12
670.05	1081.77
670.39	1081.66
670.73	1085.89
671.07	1086.66
671.41	1085.00
671.75	1085.73
672.09	1084.79
672.43	1081.61
672.77	1080.37
673.11	1080.98
673.45	1079.20
673.79	1079.95
674.13	1076.32
674.47	1076.58
674.81	1074.19
675.15	1074.42
675.49	1075.59
675.83	1077.63
676.17	1080.98
676.51	1083.83
676.85	1085.96
677.19	1082.40
677.53	1082.90
677.87	1079.31
678.21	1078.33
678.55	1075.92
678.89	1077.68
679.23	1078.92
679.57	1078.00
679.90	1079.64
680.24	1080.48
680.58	1079.15
680.92	1076.69
681.26	1076.04
681.60	1073.18
681.94	1074.68
682.28	1079.17
682.62	1080.58
682.96	1083.53
683.29	1083.67
683.63	1082.59
683.97	1081.05
684.31	1085.28
684.65	1084.79
684.99	1085.19
685.33	1084.74
685.67	1084.11
686.00	1085.17
686.34	1084.18
686.68	1084.65
687.02	1082.64
687.36	1081.73
687.70	1078.54
688.03	1080.18
688.37	1079.97
688.71	1078.92
689.05	1081.26
689.39	1079.97
689.72	1075.45
690.06	1078.59
690.40	1079.64
690.74	1079.08
691.08	1078.00
691.41	1080.77
691.75	1079.67
692.09	1080.25
692.43	1079.43
692.76	1082.10
693.10	1084.44
693.44	1086.78
693.78	1090.90
694.11	1089.87
694.45	1087.93
694.79	1085.84
695.13	1082.71
695.46	1078.54
695.80	1078.24
696.14	1080.25
696.48	1079.43
696.81	1079.22
697.15	1079.36
697.49	1081.21
697.82	1079.95
698.16	1080.86
698.50	1080.32
698.83	1083.67
699.17	1082.01
699.51	1083.06
699.84	1084.04
700.18	1085.52
700.52	1081.66
700.85	1084.53
701.19	1084.00
701.53	1083.53
701.86	1079.78
702.20	1078.94
702.54	1078.64
702.87	1079.15
703.21	1076.48
703.55	1078.82
703.88	1083.13
704.22	1082.22
704.55	1085.49
704.89	1086.94
705.23	1087.74
705.56	1088.12
705.90	1087.88
706.23	1086.29
706.57	1090.27
706.91	1089.22
707.24	1085.84
707.58	1085.00
707.91	1082.97
708.25	1079.15
708.58	1075.99
708.92	1075.64
709.26	1077.09
709.59	1076.62
709.93	1077.23
710.26	1081.94
710.60	1084.74
710.93	1082.73
711.27	1082.17
711.60	1083.27
711.94	1080.09
712.27	1081.23
712.61	1082.92
712.94	1083.41
713.28	1080.72
713.61	1080.27
713.95	1075.15
714.28	1073.60
714.62	1074.82
714.95	1076.83
715.29	1079.48
715.62	1079.74
715.96	1082.29
716.29	1081.51
716.63	1081.37
716.96	1080.88
717.29	1084.21
717.63	1083.34
717.96	1083.08
718.30	1080.77
718.63	1079.69
718.97	1079.99
719.30	1080.98
719.63	1081.23
719.97	1082.24
720.30	1081.33
720.64	1079.55
720.97	1077.79
721.30	1075.83
721.64	1077.63
721.97	1080.56
722.31	1081.09
722.64	1079.46
722.97	1080.37
723.31	1079.67
723.64	1079.78
723.97	1082.19
724.31	1085.56
724.64	1087.86
724.98	1088.35
725.31	1085.89
725.64	1082.33
725.98	1080.58
726.31	1079.67
726.64	1075.24
726.97	1078.28
727.31	1076.83
727.64	1079.15
727.97	1077.04
728.31	1081.82
728.64	1082.05
728.97	1085.03
729.31	1080.88
729.64	1082.85
729.97	1081.30
730.30	1078.43
730.64	1076.97
730.97	1077.61
731.30	1079.20
731.63	1081.66
731.97	1082.45
732.30	1083.11
732.63	1084.58
732.96	1082.87
733.30	1081.14
733.63	1079.71
733.96	1079.83
734.29	1076.41
734.63	1073.95
734.96	1073.37
735.29	1075.08
735.62	1072.34
735.95	1074.66
736.29	1079.50
736.62	1081.16
736.95	1079.95
737.28	1080.91
737.61	1082.36
737.94	1079.31
738.28	1080.09
738.61	1084.02
738.94	1083.41
739.27	1080.25
739.60	1081.12
739.93	1080.65
740.27	1079.24
740.60	1081.33
740.93	1082.26
741.26	1080.60
741.59	1079.15
741.92	1078.80
742.25	1080.48
742.58	1081.66
742.91	1081.77
743.25	1082.12
743.58	1081.00
743.91	1079.46
744.24	1079.41
744.57	1080.98
744.90	1081.02
745.23	1083.81
745.56	1083.04
745.89	1082.69
746.22	1081.51
746.55	1081.80
746.88	1077.56
747.21	1078.85
747.54	1080.27
747.87	1085.07
748.20	1081.80
748.53	1082.94
748.87	1084.30
749.20	1083.60
749.53	1079.46
749.86	1083.06
750.19	1081.98
750.52	1079.76
750.85	1079.83
751.18	1080.60
751.51	1078.94
751.84	1079.83
752.16	1080.60
752.49	1082.33
752.82	1079.71
753.15	1079.29
753.48	1079.62
753.81	1078.50
754.14	1077.44
754.47	1079.20
754.80	1079.76
755.13	1080.27
755.46	1080.53
755.79	1080.16
756.12	1082.24
756.45	1082.10
756.78	1080.60
757.11	1079.50
757.43	1082.33
757.76	1080.93
758.09	1082.03
758.42	1081.42
758.75	1081.19
759.08	1079.76
759.41	1078.28
759.74	1078.99
760.07	1075.90
760.39	1077.70
760.72	1075.87
761.05	1076.08
761.38	1072.32
761.71	1077.02
762.04	1077.47
762.36	1077.70
762.69	1078.10
763.02	1078.75
763.35	1076.86
763.68	1076.76
764.01	1075.94
