SpectraSuite Data File
++++++++++++++++++++++++++++++++++++
Date: Mon Aug 26 10:22:30 PDT 2019
User: corrico
Dark Spectrum Present: No
Reference Spectrum Present: No
Number of Sampled Component Spectra: 1
Spectrometers: USB2+H06089
Integration Time (usec): 2000 (USB2+H06089)
Spectra Averaged: 20 (USB2+H06089)
Boxcar Smoothing: 2 (USB2+H06089)
Correct for Electrical Dark: No (USB2+H06089)
Strobe/Lamp Enabled: No (USB2+H06089)
Correct for Detector Non-linearity: No (USB2+H06089)
Correct for Stray Light: No (USB2+H06089)
Number of Pixels in Processed Spectrum: 2048
>>>>>Begin Processed Spectral Data<<<<<
339.70	1025.15
340.07	1025.15
340.45	990.77
340.82	969.99
341.19	945.79
341.57	921.42
341.94	912.76
342.31	903.03
342.69	897.27
343.06	896.26
343.43	897.90
343.81	900.08
344.18	904.69
344.55	907.64
344.93	910.66
345.30	915.71
345.67	920.81
346.04	928.68
346.42	938.91
346.79	948.95
347.16	955.78
347.54	962.48
347.91	970.97
348.28	978.16
348.65	989.16
349.03	998.59
349.40	1009.57
349.77	1015.51
350.14	1026.84
350.52	1030.73
350.89	1039.15
351.26	1042.94
351.63	1051.28
352.01	1055.04
352.38	1061.92
352.75	1065.76
353.12	1071.12
353.50	1074.26
353.87	1077.86
354.24	1081.98
354.61	1085.94
354.98	1086.29
355.36	1086.38
355.73	1086.57
356.10	1085.21
356.47	1080.77
356.84	1084.09
357.22	1085.14
357.59	1085.28
357.96	1083.55
358.33	1084.35
358.70	1082.12
359.08	1082.33
359.45	1080.74
359.82	1080.37
360.19	1080.74
360.56	1077.07
360.94	1073.93
361.31	1074.05
361.68	1078.07
362.05	1078.05
362.42	1082.85
362.79	1080.86
363.16	1079.41
363.54	1076.41
363.91	1072.88
364.28	1072.92
364.65	1075.92
365.02	1075.90
365.39	1074.45
365.76	1076.86
366.14	1075.64
366.51	1078.19
366.88	1078.31
367.25	1076.95
367.62	1074.75
367.99	1072.55
368.36	1071.12
368.73	1070.28
369.10	1068.81
369.48	1070.75
369.85	1071.33
370.22	1071.17
370.59	1073.72
370.96	1078.05
371.33	1081.75
371.70	1084.84
372.07	1083.69
372.44	1082.05
372.81	1080.67
373.18	1080.63
373.55	1080.98
373.93	1084.18
374.30	1083.50
374.67	1081.77
375.04	1081.05
375.41	1079.74
375.78	1076.74
376.15	1077.40
376.52	1082.40
376.89	1079.57
377.26	1077.51
377.63	1077.98
378.00	1079.92
378.37	1076.01
378.74	1078.12
379.11	1078.71
379.48	1078.66
379.85	1075.13
380.22	1077.35
380.59	1075.64
380.96	1075.99
381.33	1076.37
381.70	1078.33
382.07	1078.38
382.44	1082.05
382.81	1082.22
383.18	1085.99
383.55	1086.06
383.92	1085.73
384.29	1084.23
384.66	1082.71
385.03	1080.72
385.40	1079.50
385.77	1075.64
386.14	1074.84
386.51	1079.74
386.88	1081.61
387.25	1084.72
387.62	1087.69
387.99	1088.86
388.36	1085.89
388.73	1084.86
389.10	1082.19
389.46	1084.21
389.83	1082.12
390.20	1083.60
390.57	1080.60
390.94	1083.57
391.31	1086.34
391.68	1089.38
392.05	1086.92
392.42	1087.30
392.79	1086.27
393.16	1082.94
393.53	1081.23
393.89	1078.50
394.26	1079.55
394.63	1081.63
395.00	1081.61
395.37	1080.16
395.74	1083.69
396.11	1083.20
396.48	1080.93
396.84	1079.76
397.21	1081.75
397.58	1082.99
397.95	1083.11
398.32	1082.36
398.69	1083.13
399.06	1084.74
399.42	1084.35
399.79	1084.86
400.16	1088.75
400.53	1091.34
400.90	1090.41
401.27	1093.97
401.64	1095.98
402.00	1095.30
402.37	1092.77
402.74	1091.18
403.11	1089.75
403.48	1088.04
403.84	1087.18
404.21	1088.40
404.58	1091.39
404.95	1094.53
405.32	1097.90
405.68	1100.29
406.05	1100.64
406.42	1098.72
406.79	1093.94
407.16	1089.59
407.52	1090.90
407.89	1091.25
408.26	1088.70
408.63	1090.48
408.99	1093.36
409.36	1090.78
409.73	1093.29
410.10	1099.42
410.47	1097.99
410.83	1099.49
411.20	1097.76
411.57	1095.56
411.94	1093.59
412.30	1096.45
412.67	1091.84
413.04	1094.46
413.40	1093.97
413.77	1095.63
414.14	1098.51
414.51	1105.41
414.87	1107.52
415.24	1109.18
415.61	1109.27
415.97	1105.95
416.34	1104.29
416.71	1102.88
417.08	1103.12
417.44	1101.03
417.81	1101.85
418.18	1103.61
418.54	1106.28
418.91	1109.27
419.28	1111.47
419.64	1114.61
420.01	1112.34
420.38	1110.89
420.74	1112.83
421.11	1114.63
421.48	1113.18
421.84	1116.44
422.21	1119.62
422.58	1120.63
422.94	1124.72
423.31	1130.36
423.68	1133.59
424.04	1137.64
424.41	1137.52
424.77	1138.23
425.14	1138.95
425.51	1141.03
425.87	1146.30
426.24	1154.45
426.61	1159.31
426.97	1169.96
427.34	1178.74
427.70	1182.25
428.07	1187.07
428.44	1193.60
428.80	1197.51
429.17	1202.68
429.53	1210.53
429.90	1220.14
430.27	1234.75
430.63	1245.63
431.00	1254.93
431.36	1265.08
431.73	1278.75
432.09	1286.73
432.46	1298.20
432.83	1319.38
433.19	1337.29
433.56	1354.23
433.92	1376.47
434.29	1398.52
434.65	1418.62
435.02	1445.28
435.38	1469.76
435.75	1496.73
436.11	1524.53
436.48	1554.09
436.84	1588.64
437.21	1626.11
437.57	1664.28
437.94	1709.53
438.30	1752.85
438.67	1798.58
439.03	1846.80
439.40	1901.43
439.76	1956.01
440.13	2016.58
440.49	2079.92
440.86	2146.11
441.22	2214.92
441.59	2290.50
441.95	2376.67
442.32	2455.78
442.68	2551.46
443.05	2648.71
443.41	2748.30
443.78	2844.20
444.14	2959.16
444.51	3074.11
444.87	3211.05
445.24	3352.58
445.60	3510.45
445.96	3663.06
446.33	3833.12
446.69	3994.12
447.06	4163.91
447.42	4338.84
447.79	4526.39
448.15	4748.88
448.51	4985.90
448.88	5250.36
449.24	5502.88
449.61	5796.01
449.97	6061.80
450.33	6342.88
450.70	6606.84
451.06	6935.31
451.43	7231.74
451.79	7583.69
452.15	7986.98
452.52	8448.75
452.88	8904.85
453.24	9444.25
453.61	10035.21
453.97	10583.93
454.34	11127.56
454.70	11775.73
455.06	12417.38
455.43	13045.26
455.79	13659.67
456.15	14371.54
456.52	15041.76
456.88	15811.11
457.24	16539.07
457.61	17387.16
457.97	18155.98
458.33	18922.41
458.70	19692.38
459.06	20450.20
459.42	21281.30
459.79	22068.44
460.15	22985.56
460.51	23841.80
460.88	24792.43
461.24	25609.51
461.60	26583.27
461.96	27456.66
462.33	28299.89
462.69	29062.36
463.05	29899.27
463.42	30600.14
463.78	31228.76
464.14	31762.47
464.50	32366.12
464.87	32826.25
465.23	33182.71
465.59	33544.00
465.95	33863.50
466.32	34124.00
466.68	34368.96
467.04	34505.35
467.40	34622.91
467.77	34789.35
468.13	34769.59
468.49	34666.99
468.85	34592.44
469.22	34438.20
469.58	34078.69
469.94	33817.02
470.30	33508.42
470.66	33086.02
471.03	32492.93
471.39	32104.94
471.75	31460.31
472.11	30852.38
472.47	30477.29
472.84	30152.44
473.20	29646.07
473.56	29380.91
473.92	28959.57
474.28	28447.97
474.65	27933.54
475.01	27461.55
475.37	26877.14
475.73	26383.13
476.09	25831.06
476.45	25312.57
476.81	24786.41
477.18	24245.47
477.54	23812.63
477.90	23471.57
478.26	23075.32
478.62	22734.02
478.98	22456.01
479.34	22133.32
479.71	21728.60
480.07	21373.40
480.43	21016.37
480.79	20637.86
481.15	20296.24
481.51	19992.60
481.87	19761.80
482.23	19496.69
482.59	19250.32
482.96	18966.77
483.32	18664.06
483.68	18269.12
484.04	17916.22
484.40	17525.37
484.76	17141.22
485.12	16751.61
485.48	16445.47
485.84	16096.68
486.20	15748.46
486.56	15393.77
486.92	15099.03
487.28	14732.95
487.64	14362.91
488.00	14039.89
488.37	13716.10
488.73	13355.26
489.09	13016.07
489.45	12714.52
489.81	12407.76
490.17	12119.86
490.53	11833.94
490.89	11533.48
491.25	11222.10
491.61	10907.53
491.97	10581.07
492.33	10261.96
492.69	9961.25
493.05	9672.50
493.41	9390.77
493.77	9121.96
494.13	8877.89
494.49	8638.47
494.85	8396.25
495.21	8178.11
495.57	7963.13
495.93	7748.69
496.29	7541.88
496.64	7363.93
497.00	7162.74
497.36	6968.55
497.72	6777.89
498.08	6596.68
498.44	6403.42
498.80	6238.39
499.16	6078.02
499.52	5934.15
499.88	5807.83
500.24	5693.99
500.60	5573.87
500.96	5458.81
501.32	5340.21
501.68	5214.71
502.03	5088.84
502.39	4961.56
502.75	4825.01
503.11	4691.37
503.47	4569.94
503.83	4453.24
504.19	4333.34
504.55	4230.78
504.91	4137.15
505.26	4043.70
505.62	3951.25
505.98	3863.43
506.34	3776.10
506.70	3683.96
507.06	3593.66
507.42	3511.11
507.78	3430.24
508.13	3351.27
508.49	3277.66
508.85	3209.81
509.21	3138.73
509.57	3072.16
509.93	3007.82
510.28	2940.93
510.64	2875.25
511.00	2814.89
511.36	2758.04
511.72	2703.41
512.07	2655.01
512.43	2605.34
512.79	2555.54
513.15	2509.22
513.51	2460.42
513.86	2415.55
514.22	2375.74
514.58	2335.90
514.94	2298.92
515.30	2263.46
515.65	2229.36
516.01	2193.53
516.37	2160.34
516.73	2126.82
517.08	2095.51
517.44	2063.39
517.80	2034.67
518.16	2007.76
518.51	1981.80
518.87	1956.64
519.23	1931.34
519.59	1905.90
519.94	1880.36
520.30	1858.41
520.66	1836.67
521.01	1812.63
521.37	1788.68
521.73	1766.00
522.09	1742.44
522.44	1724.23
522.80	1707.91
523.16	1691.04
523.51	1675.03
523.87	1652.56
524.23	1629.55
524.58	1608.35
524.94	1590.30
525.30	1572.51
525.65	1556.43
526.01	1541.78
526.37	1527.20
526.72	1514.02
527.08	1498.90
527.44	1489.07
527.79	1478.19
528.15	1468.92
528.51	1458.81
528.86	1450.06
529.22	1437.02
529.58	1422.69
529.93	1410.48
530.29	1400.76
530.65	1389.67
531.00	1383.16
531.36	1372.93
531.71	1363.34
532.07	1354.14
532.43	1345.08
532.78	1336.33
533.14	1332.63
533.49	1326.15
533.85	1318.24
534.21	1312.76
534.56	1307.28
534.92	1302.41
535.27	1299.47
535.63	1292.98
535.98	1286.97
536.34	1281.19
536.69	1275.76
537.05	1265.43
537.41	1257.99
537.76	1248.61
538.12	1241.47
538.47	1231.92
538.83	1227.31
539.18	1226.96
539.54	1226.39
539.89	1225.29
540.25	1225.27
540.60	1224.33
540.96	1222.16
541.31	1217.27
541.67	1212.87
542.02	1208.84
542.38	1206.99
542.73	1200.51
543.09	1198.61
543.44	1195.38
543.80	1191.31
544.15	1187.40
544.51	1187.89
544.86	1184.57
545.22	1181.10
545.57	1177.83
545.93	1175.86
546.28	1172.94
546.64	1172.40
546.99	1169.96
547.35	1167.06
547.70	1165.21
548.05	1161.35
548.41	1156.76
548.76	1153.93
549.12	1158.75
549.47	1155.34
549.83	1155.15
550.18	1152.01
550.53	1151.68
550.89	1146.09
551.24	1143.56
551.60	1140.66
551.95	1140.66
552.30	1139.07
552.66	1137.90
553.01	1139.05
553.37	1135.16
553.72	1132.42
554.07	1131.11
554.43	1129.75
554.78	1126.92
555.13	1126.80
555.49	1128.28
555.84	1128.68
556.19	1124.81
556.55	1123.97
556.90	1124.32
557.26	1123.76
557.61	1117.30
557.96	1119.50
558.32	1117.77
558.67	1117.32
559.02	1115.69
559.37	1118.21
559.73	1114.94
560.08	1114.59
560.43	1110.79
560.79	1110.42
561.14	1109.69
561.49	1107.17
561.85	1106.49
562.20	1106.75
562.55	1106.56
562.90	1107.33
563.26	1111.26
563.61	1108.55
563.96	1110.19
564.32	1108.81
564.67	1107.38
565.02	1106.21
565.37	1107.07
565.73	1104.43
566.08	1107.73
566.43	1106.91
566.78	1105.15
567.14	1106.65
567.49	1107.85
567.84	1104.17
568.19	1102.37
568.54	1102.74
568.90	1098.60
569.25	1097.43
569.60	1095.14
569.95	1098.88
570.31	1099.68
570.66	1100.85
571.01	1101.01
571.36	1104.01
571.71	1100.59
572.06	1098.51
572.42	1097.69
572.77	1099.86
573.12	1093.40
573.47	1093.12
573.82	1093.97
574.18	1095.37
574.53	1091.46
574.88	1097.95
575.23	1098.04
575.58	1096.54
575.93	1097.59
576.28	1099.30
576.64	1094.20
576.99	1092.07
577.34	1092.59
577.69	1090.29
578.04	1090.29
578.39	1090.34
578.74	1094.67
579.09	1097.31
579.44	1099.26
579.80	1098.76
580.15	1101.29
580.50	1098.48
580.85	1094.55
581.20	1092.63
581.55	1092.66
581.90	1090.64
582.25	1092.68
582.60	1095.02
582.95	1095.77
583.30	1096.47
583.65	1097.66
584.00	1095.49
584.35	1094.60
584.71	1089.64
585.06	1089.54
585.41	1088.33
585.76	1088.65
586.11	1085.61
586.46	1089.07
586.81	1086.06
587.16	1087.93
587.51	1086.20
587.86	1087.83
588.21	1088.14
588.56	1091.37
588.91	1090.20
589.26	1090.34
589.61	1090.46
589.96	1090.90
590.31	1086.85
590.66	1088.04
591.01	1087.83
591.36	1089.99
591.71	1089.40
592.06	1087.79
592.41	1088.93
592.76	1089.87
593.10	1085.84
593.45	1083.79
593.80	1086.10
594.15	1084.93
594.50	1085.05
594.85	1084.74
595.20	1083.15
595.55	1084.63
595.90	1085.05
596.25	1084.60
596.60	1086.66
596.95	1090.92
597.30	1090.74
597.64	1100.68
597.99	1103.49
598.34	1103.70
598.69	1101.95
599.04	1099.12
599.39	1088.28
599.74	1083.76
600.09	1082.97
600.44	1081.14
600.78	1085.82
601.13	1083.86
601.48	1083.69
601.83	1083.06
602.18	1081.00
602.53	1079.20
602.88	1080.46
603.22	1085.07
603.57	1084.74
603.92	1086.24
604.27	1082.69
604.62	1081.30
604.97	1078.73
605.31	1081.00
605.66	1083.01
606.01	1085.66
606.36	1087.09
606.71	1089.14
607.05	1085.49
607.40	1085.19
607.75	1084.00
608.10	1082.80
608.44	1080.74
608.79	1081.30
609.14	1078.92
609.49	1080.93
609.84	1082.73
610.18	1086.22
610.53	1088.21
610.88	1089.96
611.23	1085.28
611.57	1085.54
611.92	1080.51
612.27	1081.16
612.62	1079.27
612.96	1081.68
613.31	1078.54
613.66	1080.74
614.00	1080.88
614.35	1084.93
614.70	1085.45
615.05	1084.42
615.39	1084.86
615.74	1082.31
616.09	1081.26
616.43	1080.79
616.78	1085.75
617.13	1083.83
617.47	1085.61
617.82	1084.72
618.17	1086.97
618.51	1083.04
618.86	1083.55
619.21	1083.46
619.55	1083.79
619.90	1084.23
620.25	1085.77
620.59	1081.75
620.94	1082.33
621.29	1083.60
621.63	1081.61
621.98	1081.33
622.32	1085.45
622.67	1082.17
623.02	1079.99
623.36	1076.20
623.71	1077.04
624.05	1079.03
624.40	1080.95
624.75	1081.80
625.09	1085.33
625.44	1083.22
625.78	1081.00
626.13	1082.52
626.48	1081.12
626.82	1081.42
627.17	1082.59
627.51	1082.87
627.86	1082.05
628.20	1082.40
628.55	1084.32
628.89	1084.28
629.24	1082.22
629.58	1080.18
629.93	1081.51
630.28	1078.73
630.62	1078.14
630.97	1079.92
631.31	1081.42
631.66	1081.70
632.00	1079.01
632.35	1077.49
632.69	1077.49
633.04	1077.42
633.38	1077.35
633.73	1080.46
634.07	1080.02
634.42	1082.22
634.76	1084.04
635.11	1085.87
635.45	1086.36
635.79	1088.86
636.14	1087.09
636.48	1088.09
636.83	1084.28
637.17	1084.98
637.52	1086.13
637.86	1088.33
638.21	1087.76
638.55	1091.39
638.89	1094.25
639.24	1092.02
639.58	1089.68
639.93	1086.43
640.27	1084.86
640.61	1080.60
640.96	1080.74
641.30	1080.23
641.65	1080.32
641.99	1079.08
642.33	1079.36
642.68	1078.94
643.02	1076.76
643.37	1079.27
643.71	1081.07
644.05	1083.27
644.40	1086.10
644.74	1088.89
645.08	1091.37
645.43	1089.85
645.77	1090.17
646.11	1089.14
646.46	1086.94
646.80	1083.79
647.14	1084.96
647.49	1083.46
647.83	1082.45
648.17	1086.55
648.52	1084.93
648.86	1083.34
649.20	1084.09
649.55	1083.06
649.89	1081.12
650.23	1083.08
650.57	1086.48
650.92	1087.79
651.26	1088.42
651.60	1088.61
651.95	1084.51
652.29	1083.71
652.63	1080.91
652.97	1084.44
653.32	1084.98
653.66	1089.59
654.00	1087.74
654.34	1085.61
654.69	1084.18
655.03	1081.82
655.37	1080.23
655.71	1081.87
656.05	1085.07
656.40	1082.83
656.74	1082.05
657.08	1081.02
657.42	1079.74
657.76	1081.54
658.11	1081.00
658.45	1081.40
658.79	1081.66
659.13	1082.64
659.47	1081.87
659.82	1083.25
660.16	1085.03
660.50	1084.65
660.84	1083.69
661.18	1080.20
661.52	1079.95
661.87	1080.27
662.21	1080.72
662.55	1080.79
662.89	1080.25
663.23	1079.38
663.57	1079.43
663.91	1080.39
664.25	1078.92
664.60	1082.12
664.94	1082.85
665.28	1080.23
665.62	1082.85
665.96	1081.98
666.30	1083.93
666.64	1085.77
666.98	1088.19
667.32	1084.18
667.66	1085.33
668.01	1081.70
668.35	1078.54
668.69	1077.42
669.03	1077.35
669.37	1077.68
669.71	1079.03
670.05	1082.66
670.39	1082.92
670.73	1081.91
671.07	1083.13
671.41	1081.49
671.75	1077.63
672.09	1075.13
672.43	1077.23
672.77	1076.65
673.11	1076.41
673.45	1078.17
673.79	1079.97
674.13	1082.87
674.47	1081.49
674.81	1082.43
675.15	1082.17
675.49	1084.46
675.83	1081.51
676.17	1081.07
676.51	1078.78
676.85	1077.79
677.19	1076.65
677.53	1075.22
677.87	1076.74
678.21	1077.75
678.55	1081.94
678.89	1078.19
679.23	1080.27
679.57	1080.34
679.90	1081.05
680.24	1077.91
680.58	1082.15
680.92	1082.80
681.26	1082.52
681.60	1083.22
681.94	1085.24
682.28	1083.71
682.62	1081.40
682.96	1080.20
683.29	1080.95
683.63	1077.25
683.97	1077.70
684.31	1079.43
684.65	1079.90
684.99	1079.27
685.33	1081.82
685.67	1082.57
686.00	1081.40
686.34	1081.54
686.68	1079.13
687.02	1078.52
687.36	1076.93
687.70	1075.24
688.03	1078.68
688.37	1081.68
688.71	1080.23
689.05	1079.38
689.39	1080.77
689.72	1078.10
690.06	1072.39
690.40	1076.34
690.74	1080.56
691.08	1080.65
691.41	1080.81
691.75	1082.38
692.09	1077.33
692.43	1076.04
692.76	1079.62
693.10	1081.23
693.44	1083.88
693.78	1085.49
694.11	1087.65
694.45	1083.25
694.79	1080.23
695.13	1081.28
695.46	1080.23
695.80	1078.17
696.14	1079.46
696.48	1081.05
696.81	1082.94
697.15	1082.52
697.49	1081.19
697.82	1082.73
698.16	1082.45
698.50	1081.42
698.83	1081.70
699.17	1081.33
699.51	1079.03
699.84	1077.11
700.18	1072.78
700.52	1071.99
700.85	1070.82
701.19	1071.68
701.53	1073.46
701.86	1076.30
702.20	1078.24
702.54	1083.13
702.87	1082.61
703.21	1083.53
703.55	1082.97
703.88	1083.67
704.22	1082.26
704.55	1082.22
704.89	1080.72
705.23	1081.80
705.56	1083.18
705.90	1080.65
706.23	1082.19
706.57	1082.08
706.91	1079.99
707.24	1080.60
707.58	1081.82
707.91	1077.25
708.25	1078.85
708.58	1079.74
708.92	1078.19
709.26	1080.81
709.59	1084.16
709.93	1081.14
710.26	1082.26
710.60	1081.14
710.93	1077.61
711.27	1080.09
711.60	1083.13
711.94	1079.08
712.27	1080.79
712.61	1081.77
712.94	1080.06
713.28	1077.37
713.61	1080.91
713.95	1078.12
714.28	1078.24
714.62	1076.04
714.95	1078.05
715.29	1078.31
715.62	1082.29
715.96	1081.89
716.29	1082.15
716.63	1081.98
716.96	1083.60
717.29	1080.58
717.63	1079.01
717.96	1080.25
718.30	1081.12
718.63	1078.33
718.97	1078.14
719.30	1081.44
719.63	1082.71
719.97	1083.71
720.30	1083.34
720.64	1083.60
720.97	1078.96
721.30	1075.55
721.64	1074.31
721.97	1072.76
722.31	1072.11
722.64	1074.19
722.97	1078.19
723.31	1076.18
723.64	1078.19
723.97	1078.12
724.31	1079.48
724.64	1077.84
724.98	1079.67
725.31	1082.66
725.64	1083.55
725.98	1082.76
726.31	1082.47
726.64	1081.66
726.97	1079.74
727.31	1082.33
727.64	1082.43
727.97	1082.47
728.31	1083.60
728.64	1083.81
728.97	1082.22
729.31	1081.70
729.64	1078.85
729.97	1077.21
730.30	1075.57
730.64	1074.19
730.97	1075.92
731.30	1080.91
731.63	1085.75
731.97	1088.58
732.30	1091.34
732.63	1090.48
732.96	1090.32
733.30	1084.60
733.63	1081.30
733.96	1076.25
734.29	1075.50
734.63	1071.75
734.96	1075.17
735.29	1077.54
735.62	1081.96
735.95	1081.33
736.29	1083.86
736.62	1080.41
736.95	1077.77
737.28	1077.56
737.61	1076.41
737.94	1074.87
738.28	1076.55
738.61	1077.63
738.94	1074.10
739.27	1076.76
739.60	1075.38
739.93	1074.00
740.27	1075.24
740.60	1074.40
740.93	1071.22
741.26	1074.42
741.59	1075.52
741.92	1073.51
742.25	1078.96
742.58	1079.20
742.91	1080.30
743.25	1078.61
743.58	1076.69
743.91	1071.92
744.24	1075.38
744.57	1072.34
744.90	1074.35
745.23	1078.00
745.56	1081.35
745.89	1082.05
746.22	1085.80
746.55	1082.52
746.88	1080.79
747.21	1079.95
747.54	1076.76
747.87	1075.34
748.20	1078.45
748.53	1079.17
748.87	1081.73
749.20	1081.47
749.53	1078.14
749.86	1078.43
750.19	1077.42
750.52	1074.19
750.85	1074.84
751.18	1076.76
751.51	1077.16
751.84	1078.10
752.16	1080.58
752.49	1082.66
752.82	1081.54
753.15	1081.19
753.48	1082.61
753.81	1083.88
754.14	1081.09
754.47	1078.61
754.80	1078.54
755.13	1077.51
755.46	1074.28
755.79	1075.22
756.12	1079.36
756.45	1077.72
756.78	1077.11
757.11	1078.36
757.43	1079.53
757.76	1077.25
758.09	1078.19
758.42	1077.77
758.75	1077.16
759.08	1077.11
759.41	1076.34
759.74	1077.04
760.07	1080.30
760.39	1079.31
760.72	1076.97
761.05	1077.21
761.38	1079.22
761.71	1076.08
762.04	1075.99
762.36	1077.04
762.69	1080.91
763.02	1076.20
763.35	1078.75
763.68	1080.02
764.01	1081.21
