SpectraSuite Data File
++++++++++++++++++++++++++++++++++++
Date: Mon Aug 26 10:22:14 PDT 2019
User: corrico
Dark Spectrum Present: No
Reference Spectrum Present: No
Number of Sampled Component Spectra: 1
Spectrometers: USB2+H06089
Integration Time (usec): 2000 (USB2+H06089)
Spectra Averaged: 20 (USB2+H06089)
Boxcar Smoothing: 2 (USB2+H06089)
Correct for Electrical Dark: No (USB2+H06089)
Strobe/Lamp Enabled: No (USB2+H06089)
Correct for Detector Non-linearity: No (USB2+H06089)
Correct for Stray Light: No (USB2+H06089)
Number of Pixels in Processed Spectrum: 2048
>>>>>Begin Processed Spectral Data<<<<<
339.70	1033.70
340.07	1033.70
340.45	1001.91
340.82	981.29
341.19	956.90
341.57	933.15
341.94	920.16
342.31	911.01
342.69	902.11
343.06	898.46
343.43	896.43
343.81	898.18
344.18	898.20
344.55	903.99
344.93	908.43
345.30	914.03
345.67	919.76
346.04	929.78
346.42	936.38
346.79	947.12
347.16	952.48
347.54	961.40
347.91	970.90
348.28	980.68
348.65	989.60
349.03	1000.09
349.40	1013.80
349.77	1022.11
350.14	1029.20
350.52	1036.79
350.89	1045.21
351.26	1045.99
351.63	1050.50
352.01	1057.90
352.38	1061.74
352.75	1065.29
353.12	1068.97
353.50	1072.39
353.87	1075.27
354.24	1078.87
354.61	1079.62
354.98	1083.13
355.36	1085.94
355.73	1084.23
356.10	1080.48
356.47	1082.64
356.84	1082.31
357.22	1082.57
357.59	1083.76
357.96	1086.01
358.33	1086.80
358.70	1086.62
359.08	1083.43
359.45	1085.31
359.82	1088.72
360.19	1088.40
360.56	1087.95
360.94	1089.87
361.31	1086.38
361.68	1083.74
362.05	1081.75
362.42	1083.60
362.79	1082.87
363.16	1083.67
363.54	1083.27
363.91	1083.13
364.28	1078.54
364.65	1073.51
365.02	1073.23
365.39	1071.22
365.76	1072.20
366.14	1074.77
366.51	1077.86
366.88	1077.11
367.25	1076.69
367.62	1074.05
367.99	1072.57
368.36	1072.39
368.73	1072.29
369.10	1070.94
369.48	1073.72
369.85	1074.80
370.22	1078.47
370.59	1079.88
370.96	1083.62
371.33	1085.28
371.70	1082.94
372.07	1079.13
372.44	1079.83
372.81	1080.41
373.18	1079.71
373.55	1081.66
373.93	1084.16
374.30	1081.28
374.67	1080.86
375.04	1080.06
375.41	1082.61
375.78	1083.22
376.15	1087.37
376.52	1089.07
376.89	1089.73
377.26	1086.20
377.63	1082.43
378.00	1080.84
378.37	1074.94
378.74	1073.25
379.11	1073.02
379.48	1074.07
379.85	1075.24
380.22	1080.67
380.59	1082.26
380.96	1086.52
381.33	1085.89
381.70	1083.20
382.07	1083.74
382.44	1082.47
382.81	1078.14
383.18	1083.36
383.55	1083.88
383.92	1081.28
384.29	1082.73
384.66	1084.89
385.03	1083.32
385.40	1086.69
385.77	1088.68
386.14	1087.74
386.51	1090.53
386.88	1089.87
387.25	1090.41
387.62	1090.36
387.99	1090.99
388.36	1086.80
388.73	1084.60
389.10	1080.79
389.46	1077.98
389.83	1076.55
390.20	1079.78
390.57	1084.21
390.94	1087.79
391.31	1087.58
391.68	1089.59
392.05	1088.61
392.42	1085.70
392.79	1086.73
393.16	1089.45
393.53	1091.39
393.89	1094.72
394.26	1094.29
394.63	1089.92
395.00	1088.98
395.37	1085.45
395.74	1083.48
396.11	1083.08
396.48	1087.41
396.84	1088.26
397.21	1090.55
397.58	1089.19
397.95	1089.36
398.32	1086.50
398.69	1087.25
399.06	1087.30
399.42	1087.60
399.79	1088.77
400.16	1092.63
400.53	1092.59
400.90	1092.47
401.27	1096.63
401.64	1096.05
402.00	1095.30
402.37	1096.92
402.74	1096.05
403.11	1092.54
403.48	1094.39
403.84	1092.47
404.21	1091.04
404.58	1092.07
404.95	1094.62
405.32	1091.32
405.68	1091.02
406.05	1092.21
406.42	1092.98
406.79	1090.95
407.16	1096.35
407.52	1097.71
407.89	1097.62
408.26	1096.70
408.63	1095.98
408.99	1094.83
409.36	1095.91
409.73	1097.62
410.10	1099.14
410.47	1102.04
410.83	1103.16
411.20	1102.56
411.57	1099.61
411.94	1100.71
412.30	1098.90
412.67	1100.78
413.04	1103.40
413.40	1103.33
413.77	1101.34
414.14	1101.32
414.51	1101.43
414.87	1100.92
415.24	1101.99
415.61	1105.25
415.97	1107.47
416.34	1106.21
416.71	1103.68
417.08	1106.16
417.44	1106.28
417.81	1103.73
418.18	1106.11
418.54	1107.40
418.91	1107.89
419.28	1110.51
419.64	1114.91
420.01	1112.41
420.38	1116.13
420.74	1119.10
421.11	1118.42
421.48	1123.27
421.84	1128.98
422.21	1132.35
422.58	1132.05
422.94	1132.66
423.31	1133.26
423.68	1132.59
424.04	1133.40
424.41	1140.19
424.77	1146.70
425.14	1150.49
425.51	1155.85
425.87	1162.87
426.24	1169.10
426.61	1175.28
426.97	1183.91
427.34	1190.70
427.70	1198.82
428.07	1201.42
428.44	1208.96
428.80	1217.50
429.17	1228.43
429.53	1236.11
429.90	1255.53
430.27	1265.93
430.63	1275.05
431.00	1288.96
431.36	1303.58
431.73	1315.47
432.09	1332.91
432.46	1353.16
432.83	1373.10
433.19	1393.44
433.56	1415.98
433.92	1439.73
434.29	1463.23
434.65	1490.71
435.02	1523.38
435.38	1551.17
435.75	1583.42
436.11	1622.55
436.48	1663.49
436.84	1703.32
437.21	1748.33
437.57	1795.33
437.94	1843.13
438.30	1890.45
438.67	1951.96
439.03	2017.73
439.40	2087.71
439.76	2157.83
440.13	2239.94
440.49	2318.72
440.86	2388.42
441.22	2477.93
441.59	2570.00
441.95	2666.69
442.32	2766.00
442.68	2892.79
443.05	3006.96
443.41	3131.59
443.78	3262.17
444.14	3394.99
444.51	3526.74
444.87	3695.54
445.24	3858.35
445.60	4035.48
445.96	4218.21
446.33	4434.85
446.69	4624.99
447.06	4842.90
447.42	5061.46
447.79	5301.76
448.15	5560.90
448.51	5834.02
448.88	6144.19
449.24	6441.60
449.61	6779.74
449.97	7120.00
450.33	7493.60
450.70	7849.31
451.06	8279.11
451.43	8683.74
451.79	9153.39
452.15	9645.84
452.52	10180.98
452.88	10719.37
453.24	11337.58
453.61	12024.17
453.97	12716.36
454.34	13399.05
454.70	14201.01
455.06	14990.62
455.43	15730.18
455.79	16402.45
456.15	17198.16
456.52	17923.05
456.88	18818.12
457.24	19706.23
457.61	20821.71
457.97	21871.84
458.33	22980.06
458.70	24059.91
459.06	25056.46
459.42	26065.33
459.79	26981.74
460.15	27997.23
460.51	28946.72
460.88	30018.56
461.24	30986.59
461.60	32132.42
461.96	33189.17
462.33	34212.34
462.69	35214.90
463.05	36262.29
463.42	37247.14
463.78	38145.70
464.14	38863.61
464.50	39632.76
464.87	40221.36
465.23	40582.27
465.59	41010.66
465.95	41375.76
466.32	41612.43
466.68	41839.16
467.04	41975.94
467.40	41977.34
467.77	42074.55
468.13	41983.83
468.49	41823.10
468.85	41710.38
469.22	41551.69
469.58	41263.53
469.94	41111.44
470.30	40865.82
470.66	40475.84
471.03	39965.33
471.39	39602.26
471.75	38854.06
472.11	38165.73
472.47	37692.22
472.84	37190.95
473.20	36503.04
473.56	36120.90
473.92	35552.83
474.28	34912.74
474.65	34280.21
475.01	33613.51
475.37	32849.40
475.73	32197.13
476.09	31529.50
476.45	30892.12
476.81	30364.14
477.18	29807.17
477.54	29330.14
477.90	28877.08
478.26	28334.55
478.62	27793.44
478.98	27337.46
479.34	26868.09
479.71	26315.65
480.07	25870.13
480.43	25448.32
480.79	24980.16
481.15	24528.39
481.51	24165.80
481.87	23865.88
482.23	23482.76
482.59	23179.52
482.96	22865.58
483.32	22564.78
483.68	22155.79
484.04	21812.48
484.40	21379.62
484.76	20953.95
485.12	20493.33
485.48	20064.06
485.84	19592.13
486.20	19173.86
486.56	18754.39
486.92	18391.86
487.28	18003.26
487.64	17608.65
488.00	17232.69
488.37	16868.62
488.73	16445.05
489.09	16009.99
489.45	15619.21
489.81	15181.79
490.17	14734.09
490.53	14333.67
490.89	13944.47
491.25	13525.00
491.61	13140.45
491.97	12764.77
492.33	12366.85
492.69	11996.16
493.05	11655.68
493.41	11319.58
493.77	10981.65
494.13	10670.81
494.49	10374.94
494.85	10093.35
495.21	9828.75
495.57	9582.67
495.93	9336.54
496.29	9090.41
496.64	8865.29
497.00	8621.71
497.36	8370.39
497.72	8125.66
498.08	7908.16
498.44	7680.28
498.80	7484.47
499.16	7299.29
499.52	7113.85
499.88	6939.36
500.24	6775.66
500.60	6602.30
500.96	6440.34
501.32	6286.84
501.68	6116.71
502.03	5938.78
502.39	5781.15
502.75	5615.20
503.11	5458.27
503.47	5322.03
503.83	5195.57
504.19	5058.53
504.55	4938.98
504.91	4827.57
505.26	4705.23
505.62	4589.91
505.98	4484.96
506.34	4370.01
506.70	4248.00
507.06	4139.33
507.42	4040.05
507.78	3944.34
508.13	3859.57
508.49	3788.98
508.85	3714.50
509.21	3629.96
509.57	3547.88
509.93	3464.18
510.28	3371.87
510.64	3284.97
511.00	3210.30
511.36	3137.07
511.72	3074.64
512.07	3016.34
512.43	2966.32
512.79	2903.53
513.15	2844.01
513.51	2782.10
513.86	2724.31
514.22	2664.04
514.58	2616.67
514.94	2565.84
515.30	2524.90
515.65	2484.67
516.01	2446.44
516.37	2404.08
516.73	2368.22
517.08	2329.77
517.44	2283.01
517.80	2239.78
518.16	2203.68
518.51	2170.54
518.87	2133.23
519.23	2103.81
519.59	2075.26
519.94	2048.32
520.30	2019.58
520.66	1989.92
521.01	1961.77
521.37	1932.37
521.73	1907.05
522.09	1876.74
522.44	1853.91
522.80	1836.36
523.16	1819.04
523.51	1793.81
523.87	1774.95
524.23	1755.99
524.58	1731.93
524.94	1708.24
525.30	1689.63
525.65	1670.35
526.01	1651.53
526.37	1631.66
526.72	1620.17
527.08	1601.77
527.44	1587.80
527.79	1570.38
528.15	1558.33
528.51	1540.92
528.86	1530.29
529.22	1518.26
529.58	1507.96
529.93	1496.07
530.29	1482.92
530.65	1470.39
531.00	1456.89
531.36	1441.82
531.71	1429.44
532.07	1418.34
532.43	1404.74
532.78	1390.65
533.14	1386.07
533.49	1376.59
533.85	1368.93
534.21	1362.14
534.56	1355.31
534.92	1341.83
535.27	1334.78
535.63	1328.46
535.98	1322.89
536.34	1318.26
536.69	1313.20
537.05	1308.57
537.41	1300.92
537.76	1291.81
538.12	1286.92
538.47	1281.09
538.83	1274.19
539.18	1268.90
539.54	1265.13
539.89	1259.58
540.25	1252.94
540.60	1249.71
540.96	1247.32
541.31	1241.51
541.67	1235.26
542.02	1234.87
542.38	1227.56
542.73	1222.34
543.09	1218.69
543.44	1217.27
543.80	1210.55
544.15	1208.28
544.51	1203.71
544.86	1204.11
545.22	1197.51
545.57	1195.78
545.93	1193.51
546.28	1192.67
546.64	1188.24
546.99	1185.74
547.35	1185.74
547.70	1184.97
548.05	1184.05
548.41	1182.25
548.76	1182.42
549.12	1180.40
549.47	1175.96
549.83	1171.81
550.18	1169.43
550.53	1168.30
550.89	1165.28
551.24	1162.31
551.60	1157.32
551.95	1151.36
552.30	1150.30
552.66	1145.90
553.01	1145.32
553.37	1146.75
553.72	1149.39
554.07	1145.11
554.43	1146.02
554.78	1146.96
555.13	1145.72
555.49	1145.39
555.84	1143.80
556.19	1140.80
556.55	1136.03
556.90	1133.80
557.26	1129.40
557.61	1129.96
557.96	1130.20
558.32	1133.83
558.67	1132.98
559.02	1132.73
559.37	1132.40
559.73	1132.05
560.08	1126.76
560.43	1124.25
560.79	1125.47
561.14	1124.35
561.49	1119.64
561.85	1119.29
562.20	1119.60
562.55	1118.40
562.90	1116.76
563.26	1121.07
563.61	1122.64
563.96	1119.95
564.32	1115.99
564.67	1115.01
565.02	1112.36
565.37	1112.04
565.73	1115.36
566.08	1119.60
566.43	1118.80
566.78	1117.25
567.14	1114.28
567.49	1113.09
567.84	1109.69
568.19	1108.24
568.54	1108.01
568.90	1108.01
569.25	1107.73
569.60	1109.55
569.95	1111.66
570.31	1110.84
570.66	1112.01
571.01	1110.54
571.36	1107.33
571.71	1103.07
572.06	1103.19
572.42	1100.22
572.77	1101.25
573.12	1099.44
573.47	1102.63
573.82	1099.49
574.18	1098.95
574.53	1096.59
574.88	1098.98
575.23	1095.42
575.58	1093.97
575.93	1095.49
576.28	1098.20
576.64	1097.36
576.99	1098.44
577.34	1101.29
577.69	1098.39
578.04	1094.76
578.39	1093.38
578.74	1092.56
579.09	1092.91
579.44	1095.91
579.80	1096.10
580.15	1096.59
580.50	1097.97
580.85	1097.43
581.20	1096.14
581.55	1096.35
581.90	1096.49
582.25	1095.35
582.60	1091.98
582.95	1092.54
583.30	1089.89
583.65	1088.68
584.00	1089.78
584.35	1093.40
584.71	1093.10
585.06	1095.70
585.41	1097.52
585.76	1099.54
586.11	1098.74
586.46	1098.55
586.81	1100.45
587.16	1099.96
587.51	1096.07
587.86	1095.70
588.21	1096.56
588.56	1092.87
588.91	1092.35
589.26	1094.55
589.61	1099.49
589.96	1100.94
590.31	1100.26
590.66	1099.42
591.01	1095.89
591.36	1090.17
591.71	1084.84
592.06	1090.08
592.41	1089.31
592.76	1091.88
593.10	1091.58
593.45	1093.85
593.80	1087.88
594.15	1086.73
594.50	1085.73
594.85	1087.62
595.20	1086.94
595.55	1088.16
595.90	1090.67
596.25	1091.56
596.60	1092.19
596.95	1090.27
597.30	1088.96
597.64	1098.86
597.99	1098.06
598.34	1094.46
598.69	1093.22
599.04	1095.58
599.39	1084.02
599.74	1081.70
600.09	1082.83
600.44	1083.06
600.78	1083.20
601.13	1084.11
601.48	1086.62
601.83	1085.68
602.18	1088.56
602.53	1089.45
602.88	1090.27
603.22	1086.99
603.57	1090.74
603.92	1088.56
604.27	1085.10
604.62	1084.14
604.97	1084.74
605.31	1082.31
605.66	1083.27
606.01	1086.22
606.36	1085.40
606.71	1084.63
607.05	1084.56
607.40	1087.18
607.75	1084.23
608.10	1082.76
608.44	1085.00
608.79	1086.85
609.14	1087.34
609.49	1089.50
609.84	1091.09
610.18	1091.72
610.53	1091.58
610.88	1090.76
611.23	1089.31
611.57	1089.45
611.92	1087.18
612.27	1086.45
612.62	1085.91
612.96	1085.40
613.31	1084.44
613.66	1084.39
614.00	1084.11
614.35	1086.29
614.70	1088.00
615.05	1086.97
615.39	1088.54
615.74	1087.67
616.09	1084.51
616.43	1082.36
616.78	1083.46
617.13	1082.76
617.47	1083.57
617.82	1083.11
618.17	1083.20
618.51	1083.46
618.86	1084.35
619.21	1079.53
619.55	1077.82
619.90	1078.26
620.25	1082.99
620.59	1084.23
620.94	1090.29
621.29	1091.34
621.63	1088.58
621.98	1083.41
622.32	1085.56
622.67	1081.19
623.02	1083.25
623.36	1087.53
623.71	1088.33
624.05	1084.32
624.40	1086.08
624.75	1084.00
625.09	1082.24
625.44	1081.82
625.78	1085.00
626.13	1085.38
626.48	1086.31
626.82	1086.15
627.17	1088.49
627.51	1086.29
627.86	1084.32
628.20	1083.74
628.55	1084.49
628.89	1082.12
629.24	1083.13
629.58	1085.70
629.93	1084.46
630.28	1082.71
630.62	1083.20
630.97	1081.21
631.31	1082.47
631.66	1085.12
632.00	1090.20
632.35	1090.74
632.69	1092.05
633.04	1091.13
633.38	1091.04
633.73	1087.76
634.07	1086.94
634.42	1088.35
634.76	1086.83
635.11	1083.88
635.45	1082.90
635.79	1080.81
636.14	1077.58
636.48	1076.88
636.83	1080.25
637.17	1080.02
637.52	1082.45
637.86	1083.88
638.21	1084.81
638.55	1081.40
638.89	1083.71
639.24	1084.58
639.58	1082.05
639.93	1080.23
640.27	1083.36
640.61	1082.47
640.96	1085.31
641.30	1088.21
641.65	1088.54
641.99	1088.58
642.33	1088.40
642.68	1085.61
643.02	1082.36
643.37	1082.08
643.71	1084.35
644.05	1084.44
644.40	1081.68
644.74	1080.02
645.08	1080.91
645.43	1075.10
645.77	1075.78
646.11	1076.04
646.46	1078.99
646.80	1081.66
647.14	1082.83
647.49	1083.06
647.83	1087.13
648.17	1088.49
648.52	1086.80
648.86	1086.76
649.20	1084.56
649.55	1083.60
649.89	1084.42
650.23	1084.84
650.57	1084.09
650.92	1084.98
651.26	1082.12
651.60	1078.85
651.95	1077.47
652.29	1078.19
652.63	1081.70
652.97	1082.15
653.32	1085.42
653.66	1087.18
654.00	1086.94
654.34	1085.84
654.69	1089.66
655.03	1086.97
655.37	1087.95
655.71	1088.58
656.05	1082.45
656.40	1078.40
656.74	1081.84
657.08	1080.63
657.42	1083.32
657.76	1089.36
658.11	1091.09
658.45	1086.71
658.79	1086.38
659.13	1080.51
659.47	1076.01
659.82	1074.47
660.16	1073.18
660.50	1071.10
660.84	1074.21
661.18	1075.64
661.52	1078.03
661.87	1079.69
662.21	1079.71
662.55	1076.86
662.89	1075.29
663.23	1070.84
663.57	1071.59
663.91	1073.58
664.25	1077.25
664.60	1079.20
664.94	1080.44
665.28	1081.89
665.62	1081.63
665.96	1081.00
666.30	1082.90
666.64	1086.17
666.98	1085.42
667.32	1086.59
667.66	1086.85
668.01	1082.15
668.35	1081.80
668.69	1080.93
669.03	1078.87
669.37	1077.18
669.71	1078.61
670.05	1073.18
670.39	1074.63
670.73	1077.68
671.07	1076.62
671.41	1081.00
671.75	1088.51
672.09	1087.18
672.43	1083.88
672.77	1084.02
673.11	1082.80
673.45	1080.09
673.79	1081.44
674.13	1083.13
674.47	1086.15
674.81	1083.34
675.15	1084.98
675.49	1086.69
675.83	1086.52
676.17	1084.37
676.51	1082.54
676.85	1078.71
677.19	1073.93
677.53	1075.45
677.87	1078.59
678.21	1085.63
678.55	1088.19
678.89	1089.89
679.23	1089.36
679.57	1086.34
679.90	1084.81
680.24	1084.60
680.58	1085.52
680.92	1084.70
681.26	1086.97
681.60	1085.80
681.94	1083.76
682.28	1085.17
682.62	1083.08
682.96	1082.31
683.29	1082.31
683.63	1081.87
683.97	1080.46
684.31	1082.43
684.65	1083.88
684.99	1079.92
685.33	1082.08
685.67	1083.67
686.00	1084.70
686.34	1083.39
686.68	1085.38
687.02	1085.21
687.36	1081.68
687.70	1078.50
688.03	1076.51
688.37	1078.85
688.71	1076.53
689.05	1077.00
689.39	1078.19
689.72	1080.44
690.06	1080.93
690.40	1081.82
690.74	1079.60
691.08	1081.28
691.41	1079.95
691.75	1080.27
692.09	1081.68
692.43	1084.58
692.76	1084.91
693.10	1087.16
693.44	1086.50
693.78	1085.66
694.11	1089.03
694.45	1086.15
694.79	1086.03
695.13	1082.08
695.46	1080.06
695.80	1078.66
696.14	1080.37
696.48	1081.91
696.81	1085.38
697.15	1086.17
697.49	1083.67
697.82	1082.47
698.16	1078.87
698.50	1077.40
698.83	1080.11
699.17	1083.13
699.51	1084.84
699.84	1085.77
700.18	1085.75
700.52	1085.59
700.85	1084.44
701.19	1083.46
701.53	1083.32
701.86	1083.57
702.20	1083.04
702.54	1084.21
702.87	1082.33
703.21	1080.91
703.55	1082.50
703.88	1081.23
704.22	1079.81
704.55	1081.19
704.89	1085.19
705.23	1087.79
705.56	1089.73
705.90	1089.73
706.23	1090.67
706.57	1087.06
706.91	1078.78
707.24	1078.94
707.58	1079.24
707.91	1079.48
708.25	1083.36
708.58	1086.80
708.92	1083.57
709.26	1084.25
709.59	1085.77
709.93	1084.65
710.26	1086.22
710.60	1088.33
710.93	1087.44
711.27	1083.60
711.60	1080.06
711.94	1080.37
712.27	1080.79
712.61	1079.06
712.94	1080.67
713.28	1081.87
713.61	1080.63
713.95	1082.47
714.28	1083.67
714.62	1085.28
714.95	1086.43
715.29	1088.51
715.62	1085.05
715.96	1085.42
716.29	1083.64
716.63	1082.71
716.96	1080.74
717.29	1076.97
717.63	1074.26
717.96	1075.34
718.30	1076.69
718.63	1076.95
718.97	1080.86
719.30	1083.67
719.63	1081.56
719.97	1079.83
720.30	1081.44
720.64	1081.23
720.97	1080.06
721.30	1082.71
721.64	1083.60
721.97	1080.41
722.31	1080.95
722.64	1082.94
722.97	1081.19
723.31	1083.22
723.64	1085.00
723.97	1085.47
724.31	1083.43
724.64	1082.01
724.98	1080.09
725.31	1078.36
725.64	1078.43
725.98	1079.36
726.31	1081.09
726.64	1079.41
726.97	1079.97
727.31	1081.80
727.64	1081.89
727.97	1084.18
728.31	1084.65
728.64	1084.58
728.97	1081.54
729.31	1079.92
729.64	1076.93
729.97	1078.03
730.30	1076.62
730.64	1077.89
730.97	1081.02
731.30	1079.74
731.63	1080.41
731.97	1082.76
732.30	1081.94
732.63	1080.63
732.96	1082.01
733.30	1080.34
733.63	1081.21
733.96	1081.07
734.29	1081.49
734.63	1080.30
734.96	1082.43
735.29	1082.99
735.62	1082.69
735.95	1083.36
736.29	1084.84
736.62	1083.60
736.95	1079.55
737.28	1082.26
737.61	1081.12
737.94	1079.57
738.28	1078.89
738.61	1079.88
738.94	1075.90
739.27	1076.13
739.60	1078.28
739.93	1079.60
740.27	1081.80
740.60	1082.22
740.93	1084.07
741.26	1082.52
741.59	1083.15
741.92	1080.58
742.25	1082.10
742.58	1078.57
742.91	1081.14
743.25	1079.17
743.58	1080.58
743.91	1085.07
744.24	1082.94
744.57	1079.95
744.90	1080.30
745.23	1079.71
745.56	1075.90
745.89	1078.05
746.22	1080.13
746.55	1079.85
746.88	1082.85
747.21	1081.98
747.54	1080.72
747.87	1083.57
748.20	1083.43
748.53	1081.09
748.87	1081.98
749.20	1087.32
749.53	1085.12
749.86	1086.20
750.19	1083.22
750.52	1080.34
750.85	1078.82
751.18	1079.71
751.51	1078.21
751.84	1080.63
752.16	1084.35
752.49	1083.55
752.82	1081.23
753.15	1081.00
753.48	1082.40
753.81	1080.30
754.14	1077.65
754.47	1077.91
754.80	1079.97
755.13	1078.54
755.46	1078.26
755.79	1079.69
756.12	1079.01
756.45	1078.50
756.78	1078.33
757.11	1081.58
757.43	1080.27
757.76	1079.97
758.09	1078.38
758.42	1076.27
758.75	1072.67
759.08	1074.35
759.41	1075.10
759.74	1076.97
760.07	1079.90
760.39	1081.68
760.72	1082.40
761.05	1083.83
761.38	1082.17
761.71	1083.22
762.04	1082.03
762.36	1082.40
762.69	1083.04
763.02	1081.30
763.35	1079.76
763.68	1081.07
