SpectraSuite Data File
++++++++++++++++++++++++++++++++++++
Date: Mon Aug 26 10:21:50 PDT 2019
User: corrico
Dark Spectrum Present: No
Reference Spectrum Present: No
Number of Sampled Component Spectra: 1
Spectrometers: USB2+H06089
Integration Time (usec): 2000 (USB2+H06089)
Spectra Averaged: 20 (USB2+H06089)
Boxcar Smoothing: 2 (USB2+H06089)
Correct for Electrical Dark: No (USB2+H06089)
Strobe/Lamp Enabled: No (USB2+H06089)
Correct for Detector Non-linearity: No (USB2+H06089)
Correct for Stray Light: No (USB2+H06089)
Number of Pixels in Processed Spectrum: 2048
>>>>>Begin Processed Spectral Data<<<<<
339.70	1037.91
340.07	1037.91
340.45	1002.10
340.82	979.12
341.19	952.60
341.57	926.55
341.94	915.83
342.31	904.20
342.69	898.23
343.06	897.03
343.43	895.21
343.81	897.36
344.18	899.14
344.55	903.31
344.93	906.82
345.30	914.73
345.67	919.53
346.04	928.56
346.42	938.30
346.79	948.10
347.16	956.18
347.54	966.43
347.91	974.46
348.28	983.66
348.65	988.41
349.03	994.26
349.40	999.83
349.77	1008.70
350.14	1013.31
350.52	1023.45
350.89	1031.54
351.26	1041.66
351.63	1046.83
352.01	1051.25
352.38	1055.18
352.75	1059.35
353.12	1058.72
353.50	1063.63
353.87	1070.12
354.24	1075.29
354.61	1078.26
354.98	1082.57
355.36	1083.57
355.73	1083.22
356.10	1081.47
356.47	1080.23
356.84	1079.50
357.22	1079.15
357.59	1080.06
357.96	1078.73
358.33	1078.05
358.70	1076.65
359.08	1078.66
359.45	1075.27
359.82	1077.00
360.19	1076.86
360.56	1078.28
360.94	1077.42
361.31	1079.20
361.68	1076.76
362.05	1078.38
362.42	1078.89
362.79	1077.51
363.16	1076.58
363.54	1078.54
363.91	1077.54
364.28	1075.10
364.65	1073.23
365.02	1071.80
365.39	1071.94
365.76	1073.30
366.14	1073.18
366.51	1075.62
366.88	1075.78
367.25	1071.31
367.62	1069.18
367.99	1068.92
368.36	1066.37
368.73	1065.34
369.10	1067.96
369.48	1066.14
369.85	1063.91
370.22	1064.43
370.59	1065.29
370.96	1065.51
371.33	1067.64
371.70	1071.15
372.07	1072.18
372.44	1071.43
372.81	1070.14
373.18	1068.29
373.55	1067.66
373.93	1066.25
374.30	1064.55
374.67	1064.85
375.04	1066.39
375.41	1067.82
375.78	1071.68
376.15	1073.86
376.52	1073.35
376.89	1070.65
377.26	1069.55
377.63	1066.75
378.00	1068.64
378.37	1068.95
378.74	1070.47
379.11	1069.86
379.48	1068.83
379.85	1066.65
380.22	1068.71
380.59	1071.82
380.96	1067.07
381.33	1067.47
381.70	1070.19
382.07	1070.89
382.44	1069.37
382.81	1072.67
383.18	1074.84
383.55	1074.68
383.92	1075.66
384.29	1075.45
384.66	1075.05
385.03	1071.26
385.40	1073.53
385.77	1071.92
386.14	1068.67
386.51	1070.65
386.88	1071.10
387.25	1070.51
387.62	1068.57
387.99	1073.39
388.36	1072.25
388.73	1075.62
389.10	1073.72
389.46	1074.17
389.83	1071.12
390.20	1074.45
390.57	1076.06
390.94	1074.75
391.31	1077.33
391.68	1081.16
392.05	1080.65
392.42	1074.33
392.79	1072.69
393.16	1072.97
393.53	1069.18
393.89	1070.61
394.26	1076.65
394.63	1077.33
395.00	1075.29
395.37	1080.74
395.74	1080.93
396.11	1079.60
396.48	1079.81
396.84	1078.24
397.21	1074.40
397.58	1071.54
397.95	1073.95
398.32	1076.20
398.69	1079.20
399.06	1078.75
399.42	1079.76
399.79	1077.84
400.16	1076.79
400.53	1078.75
400.90	1081.66
401.27	1082.38
401.64	1081.98
402.00	1084.89
402.37	1082.73
402.74	1083.20
403.11	1083.90
403.48	1083.39
403.84	1081.82
404.21	1081.26
404.58	1077.79
404.95	1075.17
405.32	1075.97
405.68	1076.34
406.05	1079.76
406.42	1081.42
406.79	1083.34
407.16	1084.11
407.52	1086.29
407.89	1084.04
408.26	1084.39
408.63	1080.51
408.99	1081.68
409.36	1079.38
409.73	1080.77
410.10	1085.21
410.47	1090.64
410.83	1088.47
411.20	1089.07
411.57	1086.57
411.94	1080.67
412.30	1078.43
412.67	1079.03
413.04	1079.46
413.40	1080.79
413.77	1082.22
414.14	1082.83
414.51	1082.40
414.87	1081.00
415.24	1085.03
415.61	1085.96
415.97	1089.22
416.34	1088.23
416.71	1090.81
417.08	1086.41
417.44	1086.66
417.81	1084.58
418.18	1086.13
418.54	1086.73
418.91	1090.27
419.28	1090.15
419.64	1089.22
420.01	1092.23
420.38	1093.12
420.74	1091.81
421.11	1095.82
421.48	1099.72
421.84	1098.81
422.21	1097.85
422.58	1098.58
422.94	1097.52
423.31	1098.55
423.68	1103.42
424.04	1106.14
424.41	1110.12
424.77	1109.58
425.14	1109.86
425.51	1109.95
425.87	1108.92
426.24	1106.61
426.61	1110.00
426.97	1112.74
427.34	1112.08
427.70	1117.07
428.07	1123.97
428.44	1129.12
428.80	1134.88
429.17	1140.75
429.53	1144.52
429.90	1147.47
430.27	1149.91
430.63	1154.07
431.00	1160.65
431.36	1168.70
431.73	1174.71
432.09	1184.36
432.46	1191.94
432.83	1197.37
433.19	1201.77
433.56	1212.51
433.92	1220.71
434.29	1230.68
434.65	1244.88
435.02	1259.37
435.38	1268.85
435.75	1279.62
436.11	1292.68
436.48	1306.00
436.84	1324.04
437.21	1343.49
437.57	1366.59
437.94	1389.67
438.30	1410.69
438.67	1432.22
439.03	1457.94
439.40	1482.71
439.76	1509.60
440.13	1542.30
440.49	1574.90
440.86	1608.44
441.22	1643.38
441.59	1678.98
441.95	1715.89
442.32	1749.81
442.68	1790.88
443.05	1836.92
443.41	1883.20
443.78	1929.40
444.14	1989.62
444.51	2053.40
444.87	2122.30
445.24	2190.74
445.60	2269.76
445.96	2341.92
446.33	2427.25
446.69	2508.98
447.06	2602.09
447.42	2690.35
447.79	2789.24
448.15	2890.82
448.51	2997.06
448.88	3112.87
449.24	3236.54
449.61	3370.47
449.97	3502.05
450.33	3642.29
450.70	3787.36
451.06	3956.56
451.43	4131.58
451.79	4333.81
452.15	4545.53
452.52	4754.80
452.88	4971.23
453.24	5210.59
453.61	5463.11
453.97	5726.92
454.34	5993.97
454.70	6290.63
455.06	6565.37
455.43	6842.49
455.79	7103.62
456.15	7414.47
456.52	7715.53
456.88	8100.29
457.24	8479.60
457.61	8916.86
457.97	9350.60
458.33	9810.50
458.70	10252.44
459.06	10658.33
459.42	11112.79
459.79	11536.38
460.15	11972.31
460.51	12370.25
460.88	12803.50
461.24	13196.20
461.60	13620.75
461.96	14009.74
462.33	14387.39
462.69	14751.34
463.05	15118.13
463.42	15458.63
463.78	15773.90
464.14	16103.99
464.50	16488.70
464.87	16795.87
465.23	17051.90
465.59	17386.72
465.95	17654.29
466.32	17839.05
466.68	18023.30
467.04	18129.88
467.40	18138.15
467.77	18186.97
468.13	18215.13
468.49	18197.85
468.85	18174.47
469.22	18123.42
469.58	17951.89
469.94	17787.67
470.30	17585.52
470.66	17393.36
471.03	17141.22
471.39	16994.54
471.75	16752.13
472.11	16514.00
472.47	16313.93
472.84	16127.11
473.20	15811.00
473.56	15560.79
473.92	15230.87
474.28	14934.19
474.65	14631.48
475.01	14390.78
475.37	14100.86
475.73	13900.84
476.09	13646.73
476.45	13409.61
476.81	13161.86
477.18	12925.00
477.54	12686.08
477.90	12453.66
478.26	12182.51
478.62	11965.38
478.98	11818.32
479.34	11659.03
479.71	11497.34
480.07	11375.14
480.43	11216.53
480.79	10971.87
481.15	10755.74
481.51	10545.78
481.87	10370.98
482.23	10192.24
482.59	10066.36
482.96	9959.66
483.32	9883.38
483.68	9747.84
484.04	9633.72
484.40	9498.92
484.76	9338.06
485.12	9156.34
485.48	9006.69
485.84	8826.23
486.20	8644.60
486.56	8454.90
486.92	8274.33
487.28	8099.10
487.64	7921.43
488.00	7756.02
488.37	7601.38
488.73	7432.25
489.09	7237.08
489.45	7038.53
489.81	6847.21
490.17	6662.69
490.53	6503.04
490.89	6346.74
491.25	6214.24
491.61	6088.83
491.97	5972.34
492.33	5838.91
492.69	5707.86
493.05	5573.07
493.41	5426.65
493.77	5279.71
494.13	5133.47
494.49	5002.82
494.85	4880.27
495.21	4767.46
495.57	4643.46
495.93	4532.75
496.29	4419.54
496.64	4321.45
497.00	4211.82
497.36	4121.45
497.72	4026.75
498.08	3938.93
498.44	3853.13
498.80	3776.76
499.16	3696.48
499.52	3618.37
499.88	3545.77
500.24	3466.64
500.60	3394.22
500.96	3320.42
501.32	3248.48
501.68	3178.68
502.03	3112.07
502.39	3046.35
502.75	2988.72
503.11	2939.01
503.47	2892.57
503.83	2842.51
504.19	2789.50
504.55	2738.05
504.91	2686.21
505.26	2627.16
505.62	2574.12
505.98	2533.16
506.34	2487.38
506.70	2440.97
507.06	2397.25
507.42	2357.25
507.78	2312.36
508.13	2272.66
508.49	2238.42
508.85	2206.63
509.21	2177.00
509.57	2143.06
509.93	2106.48
510.28	2069.99
510.64	2033.71
511.00	1993.81
511.36	1957.72
511.72	1926.68
512.07	1896.91
512.43	1870.70
512.79	1844.79
513.15	1821.03
513.51	1795.26
513.86	1769.30
514.22	1747.91
514.58	1727.22
514.94	1704.75
515.30	1687.74
515.65	1669.34
516.01	1650.62
516.37	1631.07
516.73	1613.38
517.08	1595.47
517.44	1577.99
517.80	1556.88
518.16	1542.90
518.51	1527.32
518.87	1512.64
519.23	1501.85
519.59	1494.34
519.94	1478.05
520.30	1469.74
520.66	1457.05
521.01	1444.46
521.37	1435.33
521.73	1427.05
522.09	1418.69
522.44	1411.97
522.80	1400.30
523.16	1385.01
523.51	1376.02
523.87	1368.02
524.23	1361.09
524.58	1351.92
524.94	1346.39
525.30	1339.93
525.65	1326.64
526.01	1317.60
526.37	1313.30
526.72	1304.29
527.08	1293.80
527.44	1285.91
527.79	1278.47
528.15	1269.13
528.51	1261.78
528.86	1258.88
529.22	1252.91
529.58	1246.97
529.93	1243.71
530.29	1240.41
530.65	1233.72
531.00	1230.49
531.36	1226.60
531.71	1224.03
532.07	1219.40
532.43	1213.94
532.78	1211.88
533.14	1209.07
533.49	1202.94
533.85	1199.20
534.21	1195.52
534.56	1190.61
534.92	1189.25
535.27	1186.68
535.63	1183.05
535.98	1180.94
536.34	1177.06
536.69	1168.09
537.05	1165.77
537.41	1161.21
537.76	1159.27
538.12	1158.54
538.47	1159.90
538.83	1154.82
539.18	1157.77
539.54	1157.65
539.89	1154.26
540.25	1152.15
540.60	1150.68
540.96	1146.53
541.31	1144.66
541.67	1141.53
542.02	1138.34
542.38	1139.68
542.73	1135.93
543.09	1132.21
543.44	1130.76
543.80	1131.13
544.15	1128.77
544.51	1131.16
544.86	1132.56
545.22	1133.29
545.57	1128.16
545.93	1125.10
546.28	1123.88
546.64	1122.94
546.99	1123.18
547.35	1122.40
547.70	1122.01
548.05	1121.35
548.41	1117.14
548.76	1114.59
549.12	1113.88
549.47	1114.54
549.83	1111.31
550.18	1111.15
550.53	1110.77
550.89	1112.67
551.24	1111.61
551.60	1112.83
551.95	1110.14
552.30	1108.36
552.66	1107.17
553.01	1105.90
553.37	1099.35
553.72	1099.30
554.07	1097.15
554.43	1095.44
554.78	1097.03
555.13	1099.19
555.49	1098.90
555.84	1101.97
556.19	1103.19
556.55	1099.84
556.90	1099.79
557.26	1101.18
557.61	1098.06
557.96	1093.52
558.32	1093.55
558.67	1096.82
559.02	1096.10
559.37	1093.55
559.73	1095.44
560.08	1097.78
560.43	1095.53
560.79	1094.48
561.14	1100.73
561.49	1101.18
561.85	1096.31
562.20	1095.35
562.55	1096.87
562.90	1093.01
563.26	1090.57
563.61	1094.43
563.96	1095.53
564.32	1092.59
564.67	1090.99
565.02	1090.92
565.37	1087.97
565.73	1085.40
566.08	1083.60
566.43	1082.76
566.78	1081.26
567.14	1081.94
567.49	1083.11
567.84	1085.77
568.19	1086.41
568.54	1088.54
568.90	1088.00
569.25	1085.73
569.60	1087.04
569.95	1090.76
570.31	1092.12
570.66	1091.56
571.01	1094.48
571.36	1090.34
571.71	1086.38
572.06	1084.44
572.42	1085.54
572.77	1081.75
573.12	1083.93
573.47	1083.62
573.82	1085.61
574.18	1085.56
574.53	1089.33
574.88	1088.04
575.23	1090.08
575.58	1087.37
575.93	1087.06
576.28	1086.83
576.64	1087.62
576.99	1084.53
577.34	1085.40
577.69	1086.24
578.04	1081.98
578.39	1080.20
578.74	1082.33
579.09	1084.14
579.44	1081.42
579.80	1080.95
580.15	1083.13
580.50	1081.54
580.85	1079.15
581.20	1078.68
581.55	1080.18
581.90	1082.45
582.25	1084.60
582.60	1087.32
582.95	1086.66
583.30	1088.23
583.65	1083.13
584.00	1081.35
584.35	1077.40
584.71	1077.35
585.06	1077.33
585.41	1078.92
585.76	1078.33
586.11	1079.57
586.46	1080.65
586.81	1079.83
587.16	1076.97
587.51	1078.10
587.86	1076.15
588.21	1075.83
588.56	1076.83
588.91	1081.26
589.26	1081.07
589.61	1081.91
589.96	1084.70
590.31	1086.43
590.66	1081.84
591.01	1081.75
591.36	1081.35
591.71	1080.09
592.06	1077.49
592.41	1081.47
592.76	1082.66
593.10	1084.21
593.45	1085.70
593.80	1085.52
594.15	1084.98
594.50	1081.61
594.85	1081.33
595.20	1078.87
595.55	1077.11
595.90	1077.75
596.25	1080.60
596.60	1080.18
596.95	1078.33
597.30	1080.23
597.64	1089.87
597.99	1090.27
598.34	1088.86
598.69	1089.87
599.04	1090.76
599.39	1081.58
599.74	1080.93
600.09	1084.44
600.44	1084.79
600.78	1087.13
601.13	1083.36
601.48	1082.24
601.83	1083.04
602.18	1082.19
602.53	1074.68
602.88	1076.01
603.22	1075.52
603.57	1073.09
603.92	1078.24
604.27	1082.29
604.62	1080.13
604.97	1079.64
605.31	1080.44
605.66	1075.73
606.01	1077.28
606.36	1080.39
606.71	1082.33
607.05	1081.37
607.40	1084.32
607.75	1083.04
608.10	1082.38
608.44	1079.90
608.79	1080.58
609.14	1077.16
609.49	1075.57
609.84	1078.03
610.18	1082.17
610.53	1080.20
610.88	1083.71
611.23	1085.94
611.57	1082.71
611.92	1080.27
612.27	1082.97
612.62	1084.30
612.96	1083.46
613.31	1084.79
613.66	1083.62
614.00	1083.76
614.35	1080.41
614.70	1077.30
615.05	1079.69
615.39	1079.10
615.74	1074.94
616.09	1075.17
616.43	1077.11
616.78	1076.39
617.13	1078.80
617.47	1082.54
617.82	1081.96
618.17	1082.22
618.51	1078.14
618.86	1077.72
619.21	1076.74
619.55	1077.98
619.90	1076.04
620.25	1077.42
620.59	1077.51
620.94	1075.73
621.29	1074.77
621.63	1081.16
621.98	1081.91
622.32	1082.24
622.67	1082.78
623.02	1083.29
623.36	1081.35
623.71	1081.73
624.05	1081.49
624.40	1083.11
624.75	1081.91
625.09	1079.83
625.44	1074.52
625.78	1072.46
626.13	1073.07
626.48	1074.68
626.82	1074.33
627.17	1080.13
627.51	1080.84
627.86	1077.35
628.20	1078.03
628.55	1078.66
628.89	1077.56
629.24	1076.18
629.58	1080.06
629.93	1075.62
630.28	1077.47
630.62	1075.29
630.97	1077.89
631.31	1076.04
631.66	1074.98
632.00	1069.93
632.35	1070.21
632.69	1071.94
633.04	1072.48
633.38	1079.41
633.73	1084.79
634.07	1088.91
634.42	1086.73
634.76	1087.46
635.11	1082.40
635.45	1078.24
635.79	1075.08
636.14	1075.20
636.48	1074.70
636.83	1077.14
637.17	1074.96
637.52	1077.25
637.86	1076.72
638.21	1075.01
638.55	1073.70
638.89	1075.50
639.24	1076.81
639.58	1079.78
639.93	1079.22
640.27	1080.20
640.61	1083.90
640.96	1080.98
641.30	1079.55
641.65	1082.03
641.99	1079.88
642.33	1073.35
642.68	1075.55
643.02	1073.79
643.37	1071.87
643.71	1074.59
644.05	1081.30
644.40	1080.65
644.74	1083.95
645.08	1086.15
645.43	1085.00
645.77	1084.39
646.11	1081.84
646.46	1078.45
646.80	1077.02
647.14	1076.53
647.49	1074.87
647.83	1074.21
648.17	1074.54
648.52	1075.59
648.86	1077.02
649.20	1076.74
649.55	1077.35
649.89	1079.83
650.23	1077.82
650.57	1073.58
650.92	1075.17
651.26	1076.58
651.60	1074.94
651.95	1074.49
652.29	1079.10
652.63	1080.23
652.97	1080.11
653.32	1079.29
653.66	1080.23
654.00	1079.90
654.34	1078.80
654.69	1078.45
655.03	1078.50
655.37	1078.99
655.71	1077.96
656.05	1078.05
656.40	1075.83
656.74	1072.76
657.08	1071.57
657.42	1069.79
657.76	1070.47
658.11	1073.74
658.45	1076.53
658.79	1077.56
659.13	1079.81
659.47	1079.38
659.82	1077.82
660.16	1081.16
660.50	1079.22
660.84	1077.09
661.18	1077.49
661.52	1078.68
661.87	1075.83
662.21	1076.81
662.55	1080.65
662.89	1080.16
663.23	1077.75
663.57	1078.07
663.91	1079.95
664.25	1079.83
664.60	1078.66
664.94	1081.87
665.28	1082.90
665.62	1082.83
665.96	1081.96
666.30	1082.83
666.64	1082.31
666.98	1081.21
667.32	1081.77
667.66	1079.55
668.01	1077.89
668.35	1076.41
668.69	1078.80
669.03	1078.68
669.37	1078.92
669.71	1078.75
670.05	1079.88
670.39	1076.34
670.73	1075.62
671.07	1078.52
671.41	1078.64
671.75	1078.26
672.09	1078.19
672.43	1078.12
672.77	1075.76
673.11	1078.00
673.45	1075.69
673.79	1075.55
674.13	1075.24
674.47	1074.75
674.81	1071.61
675.15	1074.73
675.49	1073.32
675.83	1073.86
676.17	1074.21
676.51	1076.51
676.85	1076.58
677.19	1079.34
677.53	1075.34
677.87	1074.66
678.21	1073.84
678.55	1072.48
678.89	1071.61
679.23	1075.59
679.57	1075.59
679.90	1071.71
680.24	1073.39
680.58	1074.42
680.92	1074.14
681.26	1076.55
681.60	1075.92
681.94	1075.64
682.28	1077.89
682.62	1079.34
682.96	1078.21
683.29	1083.32
683.63	1080.37
683.97	1078.19
684.31	1078.89
684.65	1082.40
684.99	1079.83
685.33	1084.70
685.67	1083.62
686.00	1078.82
686.34	1074.33
686.68	1076.11
687.02	1070.49
687.36	1074.77
687.70	1077.91
688.03	1077.82
688.37	1078.71
688.71	1080.84
689.05	1078.75
689.39	1078.12
689.72	1079.76
690.06	1077.86
690.40	1077.33
690.74	1078.26
691.08	1077.33
691.41	1076.79
691.75	1076.95
692.09	1077.65
692.43	1074.26
692.76	1074.10
693.10	1071.99
693.44	1071.38
693.78	1070.35
694.11	1069.44
694.45	1071.66
694.79	1073.98
695.13	1074.47
695.46	1073.98
695.80	1073.67
696.14	1073.70
696.48	1073.63
696.81	1077.54
697.15	1079.92
697.49	1081.61
697.82	1077.33
698.16	1075.27
698.50	1072.85
698.83	1071.75
699.17	1072.32
699.51	1074.66
699.84	1074.80
700.18	1074.73
700.52	1076.04
700.85	1076.48
701.19	1074.33
701.53	1074.28
701.86	1070.98
702.20	1070.49
702.54	1069.74
702.87	1072.48
703.21	1076.53
703.55	1080.06
703.88	1079.64
704.22	1078.50
704.55	1077.79
704.89	1076.90
705.23	1078.12
705.56	1078.17
705.90	1079.41
706.23	1080.60
706.57	1077.11
706.91	1074.59
707.24	1074.75
707.58	1071.33
707.91	1070.96
708.25	1072.39
708.58	1074.68
708.92	1077.84
709.26	1081.05
709.59	1081.82
709.93	1081.77
710.26	1078.68
710.60	1077.33
710.93	1077.70
711.27	1076.48
711.60	1076.39
711.94	1077.16
712.27	1072.88
712.61	1071.73
712.94	1071.71
713.28	1073.30
713.61	1072.32
713.95	1072.78
714.28	1074.94
714.62	1075.24
714.95	1076.53
715.29	1077.98
715.62	1075.50
715.96	1073.51
716.29	1072.01
716.63	1069.72
716.96	1070.05
717.29	1073.32
717.63	1074.77
717.96	1078.38
718.30	1078.21
718.63	1076.44
718.97	1078.14
719.30	1077.14
719.63	1076.27
719.97	1076.62
720.30	1077.18
720.64	1076.76
720.97	1077.07
721.30	1076.13
721.64	1078.87
721.97	1080.91
722.31	1081.98
722.64	1081.49
722.97	1081.23
723.31	1080.16
723.64	1079.01
723.97	1076.06
724.31	1073.95
724.64	1072.11
724.98	1071.47
725.31	1072.25
725.64	1073.91
725.98	1075.22
726.31	1077.51
726.64	1075.97
726.97	1074.70
727.31	1072.48
727.64	1075.27
727.97	1074.19
728.31	1075.62
728.64	1076.65
728.97	1078.26
729.31	1079.34
729.64	1079.31
729.97	1075.34
730.30	1075.45
730.64	1073.84
730.97	1072.01
731.30	1070.30
731.63	1073.79
731.97	1073.91
732.30	1074.12
732.63	1071.33
732.96	1073.65
733.30	1072.71
733.63	1074.89
733.96	1075.52
734.29	1077.07
734.63	1080.56
734.96	1080.39
735.29	1078.03
735.62	1078.17
735.95	1078.87
736.29	1075.76
736.62	1073.42
736.95	1073.04
737.28	1075.80
737.61	1076.32
737.94	1075.97
738.28	1080.06
738.61	1078.92
738.94	1078.24
739.27	1079.69
739.60	1079.99
739.93	1079.20
740.27	1080.56
740.60	1080.98
740.93	1079.17
741.26	1080.74
741.59	1080.86
741.92	1078.14
742.25	1078.21
742.58	1075.73
742.91	1071.08
743.25	1067.10
743.58	1069.84
743.91	1070.40
744.24	1073.00
744.57	1078.59
744.90	1082.47
745.23	1085.70
745.56	1086.57
745.89	1086.17
746.22	1084.16
746.55	1084.39
746.88	1082.22
747.21	1080.67
747.54	1081.91
747.87	1082.83
748.20	1078.50
748.53	1077.86
748.87	1076.20
749.20	1072.20
749.53	1071.68
749.86	1074.28
750.19	1075.87
750.52	1075.13
750.85	1075.92
751.18	1071.75
751.51	1072.15
751.84	1071.94
752.16	1074.70
752.49	1077.30
752.82	1081.63
753.15	1079.83
753.48	1074.80
753.81	1074.47
754.14	1074.45
754.47	1072.67
754.80	1075.43
755.13	1078.43
755.46	1077.68
755.79	1079.43
756.12	1080.56
756.45	1078.78
756.78	1079.83
757.11	1079.88
757.43	1076.20
757.76	1075.73
758.09	1079.90
758.42	1080.25
758.75	1081.26
759.08	1083.27
759.41	1082.61
759.74	1078.78
760.07	1080.34
760.39	1077.58
760.72	1079.46
761.05	1079.64
761.38	1079.64
761.71	1076.88
762.04	1078.21
762.36	1075.55
762.69	1074.14
763.02	1077.14
763.35	1076.23
763.68	1077.02
764.01	1076.69
764.33	1078.38
764.66	1077.42
764.99	1079.20
