SpectraSuite Data File
++++++++++++++++++++++++++++++++++++
Date: Mon Aug 26 10:22:18 PDT 2019
User: corrico
Dark Spectrum Present: No
Reference Spectrum Present: No
Number of Sampled Component Spectra: 1
Spectrometers: USB2+H06089
Integration Time (usec): 2000 (USB2+H06089)
Spectra Averaged: 20 (USB2+H06089)
Boxcar Smoothing: 2 (USB2+H06089)
Correct for Electrical Dark: No (USB2+H06089)
Strobe/Lamp Enabled: No (USB2+H06089)
Correct for Detector Non-linearity: No (USB2+H06089)
Correct for Stray Light: No (USB2+H06089)
Number of Pixels in Processed Spectrum: 2048
>>>>>Begin Processed Spectral Data<<<<<
339.70	1018.95
340.07	1018.95
340.45	989.56
340.82	971.51
341.19	950.09
341.57	928.94
341.94	918.03
342.31	907.89
342.69	900.19
343.06	896.21
343.43	892.31
343.81	891.37
344.18	895.47
344.55	897.24
344.93	901.79
345.30	907.87
345.67	914.07
346.04	920.77
346.42	931.09
346.79	942.86
347.16	950.87
347.54	962.71
347.91	972.98
348.28	985.32
348.65	993.07
349.03	1003.50
349.40	1010.74
349.77	1017.55
350.14	1025.65
350.52	1028.74
350.89	1033.49
351.26	1039.69
351.63	1047.11
352.01	1050.62
352.38	1054.29
352.75	1060.47
353.12	1065.27
353.50	1071.66
353.87	1073.49
354.24	1080.48
354.61	1082.17
354.98	1084.63
355.36	1082.90
355.73	1086.03
356.10	1089.03
356.47	1089.82
356.84	1090.76
357.22	1091.93
357.59	1092.07
357.96	1088.61
358.33	1089.40
358.70	1089.31
359.08	1087.72
359.45	1086.76
359.82	1089.31
360.19	1087.69
360.56	1084.89
360.94	1085.61
361.31	1084.58
361.68	1082.94
362.05	1079.46
362.42	1078.82
362.79	1076.88
363.16	1074.42
363.54	1076.32
363.91	1078.40
364.28	1080.58
364.65	1079.15
365.02	1078.40
365.39	1073.53
365.76	1074.05
366.14	1072.78
366.51	1075.55
366.88	1077.02
367.25	1082.71
367.62	1083.04
367.99	1081.21
368.36	1079.24
368.73	1077.21
369.10	1070.21
369.48	1070.58
369.85	1073.58
370.22	1073.51
370.59	1077.98
370.96	1081.56
371.33	1083.46
371.70	1081.80
372.07	1084.56
372.44	1083.86
372.81	1081.40
373.18	1077.49
373.55	1076.01
373.93	1073.14
374.30	1070.65
374.67	1071.75
375.04	1075.78
375.41	1076.65
375.78	1077.75
376.15	1080.72
376.52	1081.73
376.89	1081.09
377.26	1080.93
377.63	1080.23
378.00	1079.50
378.37	1082.05
378.74	1080.48
379.11	1082.64
379.48	1083.01
379.85	1080.86
380.22	1080.18
380.59	1080.56
380.96	1080.51
381.33	1081.14
381.70	1083.69
382.07	1084.51
382.44	1084.00
382.81	1085.42
383.18	1085.89
383.55	1085.56
383.92	1082.24
384.29	1082.64
384.66	1080.06
385.03	1080.09
385.40	1077.11
385.77	1080.25
386.14	1080.34
386.51	1079.69
386.88	1079.95
387.25	1082.85
387.62	1080.23
387.99	1083.48
388.36	1085.68
388.73	1087.81
389.10	1089.33
389.46	1092.40
389.83	1091.60
390.20	1091.77
390.57	1091.63
390.94	1089.50
391.31	1089.64
391.68	1086.83
392.05	1086.20
392.42	1083.83
392.79	1083.97
393.16	1082.43
393.53	1082.94
393.89	1084.37
394.26	1082.97
394.63	1082.43
395.00	1086.76
395.37	1090.03
395.74	1091.44
396.11	1095.53
396.48	1097.36
396.84	1093.66
397.21	1091.65
397.58	1089.52
397.95	1088.28
398.32	1086.57
398.69	1089.19
399.06	1088.23
399.42	1090.13
399.79	1090.92
400.16	1091.60
400.53	1090.88
400.90	1094.69
401.27	1092.40
401.64	1090.74
402.00	1090.36
402.37	1091.44
402.74	1090.43
403.11	1094.39
403.48	1095.98
403.84	1099.58
404.21	1097.45
404.58	1094.18
404.95	1096.40
405.32	1099.21
405.68	1098.86
406.05	1099.00
406.42	1103.40
406.79	1100.61
407.16	1096.49
407.52	1098.09
407.89	1098.62
408.26	1096.85
408.63	1093.36
408.99	1096.78
409.36	1094.97
409.73	1093.62
410.10	1091.04
410.47	1092.89
410.83	1090.62
411.20	1092.63
411.57	1093.08
411.94	1095.04
412.30	1094.60
412.67	1096.07
413.04	1093.71
413.40	1095.96
413.77	1097.62
414.14	1099.82
414.51	1103.54
414.87	1104.15
415.24	1102.25
415.61	1106.28
415.97	1106.32
416.34	1104.55
416.71	1108.08
417.08	1110.49
417.44	1106.35
417.81	1106.54
418.18	1107.12
418.54	1107.73
418.91	1109.69
419.28	1109.81
419.64	1107.00
420.01	1108.45
420.38	1105.25
420.74	1103.59
421.11	1109.16
421.48	1118.03
421.84	1117.32
422.21	1122.59
422.58	1125.82
422.94	1124.18
423.31	1124.79
423.68	1128.68
424.04	1128.86
424.41	1130.17
424.77	1136.33
425.14	1138.34
425.51	1139.49
425.87	1145.65
426.24	1152.15
426.61	1157.68
426.97	1164.56
427.34	1173.01
427.70	1178.58
428.07	1183.70
428.44	1187.19
428.80	1194.14
429.17	1203.18
429.53	1212.61
429.90	1224.31
430.27	1240.27
430.63	1252.47
431.00	1261.06
431.36	1273.72
431.73	1285.09
432.09	1293.99
432.46	1306.25
432.83	1323.29
433.19	1338.62
433.56	1359.73
433.92	1380.28
434.29	1401.86
434.65	1426.58
435.02	1454.34
435.38	1479.27
435.75	1507.07
436.11	1540.70
436.48	1572.02
436.84	1601.91
437.21	1638.59
437.57	1677.20
437.94	1716.74
438.30	1763.43
438.67	1814.34
439.03	1866.65
439.40	1923.87
439.76	1979.70
440.13	2038.70
440.49	2105.17
440.86	2174.38
441.22	2251.57
441.59	2330.49
441.95	2416.93
442.32	2505.87
442.68	2602.18
443.05	2693.63
443.41	2798.72
443.78	2898.71
444.14	3008.15
444.51	3121.69
444.87	3268.35
445.24	3410.23
445.60	3569.13
445.96	3726.06
446.33	3905.72
446.69	4065.42
447.06	4250.25
447.42	4439.18
447.79	4637.09
448.15	4859.26
448.51	5095.58
448.88	5361.42
449.24	5616.65
449.61	5905.85
449.97	6187.84
450.33	6486.47
450.70	6754.18
451.06	7084.40
451.43	7393.40
451.79	7770.18
452.15	8189.93
452.52	8660.43
452.88	9146.56
453.24	9715.26
453.61	10322.18
453.97	10899.57
454.34	11465.84
454.70	12135.12
455.06	12784.71
455.43	13408.34
455.79	14014.80
456.15	14739.69
456.52	15417.81
456.88	16215.68
457.24	16969.82
457.61	17861.35
457.97	18664.49
458.33	19463.08
458.70	20247.97
459.06	21027.02
459.42	21884.06
459.79	22679.84
460.15	23606.69
460.51	24487.97
460.88	25446.98
461.24	26244.10
461.60	27233.42
461.96	28138.51
462.33	29014.80
462.69	29846.42
463.05	30752.84
463.42	31522.36
463.78	32203.06
464.14	32779.30
464.50	33380.18
464.87	33857.82
465.23	34185.35
465.59	34505.72
465.95	34800.70
466.32	35067.22
466.68	35297.10
467.04	35468.55
467.40	35642.40
467.77	35817.38
468.13	35800.55
468.49	35685.19
468.85	35577.55
469.22	35399.15
469.58	35021.37
469.94	34755.34
470.30	34444.61
470.66	34027.62
471.03	33403.14
471.39	33013.91
471.75	32379.72
472.11	31788.34
472.47	31423.89
472.84	31108.34
473.20	30601.85
473.56	30302.42
473.92	29862.17
474.28	29322.04
474.65	28831.94
475.01	28354.96
475.37	27777.59
475.73	27304.29
476.09	26769.85
476.45	26237.31
476.81	25730.14
477.18	25182.39
477.54	24730.85
477.90	24376.96
478.26	23925.42
478.62	23546.94
478.98	23236.39
479.34	22880.80
479.71	22439.58
480.07	22061.16
480.43	21677.67
480.79	21251.69
481.15	20867.37
481.51	20540.73
481.87	20284.21
482.23	19985.67
482.59	19753.82
482.96	19490.83
483.32	19186.99
483.68	18813.79
484.04	18467.34
484.40	18079.37
484.76	17686.47
485.12	17308.14
485.48	16978.71
485.84	16610.13
486.20	16237.61
486.56	15859.47
486.92	15547.99
487.28	15195.32
487.64	14848.64
488.00	14534.82
488.37	14213.91
488.73	13832.94
489.09	13459.25
489.45	13130.71
489.81	12789.95
490.17	12473.23
490.53	12176.12
490.89	11868.97
491.25	11539.03
491.61	11221.42
491.97	10890.02
492.33	10553.15
492.69	10246.37
493.05	9949.50
493.41	9663.72
493.77	9391.94
494.13	9142.48
494.49	8892.23
494.85	8646.57
495.21	8405.66
495.57	8179.03
495.93	7948.27
496.29	7728.50
496.64	7535.92
497.00	7338.87
497.36	7142.75
497.72	6952.68
498.08	6772.95
498.44	6582.71
498.80	6403.54
499.16	6222.64
499.52	6063.70
499.88	5926.66
500.24	5799.47
500.60	5674.39
500.96	5557.67
501.32	5434.98
501.68	5305.99
502.03	5172.79
502.39	5041.12
502.75	4901.29
503.11	4774.97
503.47	4652.07
503.83	4529.99
504.19	4410.37
504.55	4310.61
504.91	4211.70
505.26	4111.34
505.62	4023.69
505.98	3933.64
506.34	3840.91
506.70	3746.82
507.06	3659.97
507.42	3572.17
507.78	3492.03
508.13	3410.28
508.49	3332.60
508.85	3263.69
509.21	3195.35
509.57	3130.65
509.93	3070.13
510.28	3003.35
510.64	2939.83
511.00	2874.97
511.36	2815.73
511.72	2758.65
512.07	2709.22
512.43	2655.31
512.79	2604.59
513.15	2550.86
513.51	2505.31
513.86	2464.12
514.22	2421.75
514.58	2379.11
514.94	2343.13
515.30	2302.17
515.65	2261.45
516.01	2226.29
516.37	2197.83
516.73	2164.20
517.08	2135.48
517.44	2101.96
517.80	2073.78
518.16	2041.11
518.51	2014.38
518.87	1988.29
519.23	1963.38
519.59	1934.73
519.94	1905.90
520.30	1879.17
520.66	1849.77
521.01	1824.10
521.37	1800.43
521.73	1782.15
522.09	1765.02
522.44	1746.46
522.80	1729.02
523.16	1710.21
523.51	1689.98
523.87	1669.90
524.23	1649.07
524.58	1629.32
524.94	1612.07
525.30	1594.12
525.65	1575.11
526.01	1559.52
526.37	1543.51
526.72	1529.10
527.08	1516.81
527.44	1502.79
527.79	1492.16
528.15	1477.67
528.51	1462.72
528.86	1451.27
529.22	1440.55
529.58	1432.24
529.93	1422.18
530.29	1413.64
530.65	1398.89
531.00	1389.72
531.36	1373.66
531.71	1366.97
532.07	1358.49
532.43	1350.70
532.78	1347.21
533.14	1341.08
533.49	1333.22
533.85	1327.95
534.21	1324.16
534.56	1314.02
534.92	1310.19
535.27	1305.78
535.63	1298.46
535.98	1291.46
536.34	1286.64
536.69	1279.57
537.05	1275.29
537.41	1269.30
537.76	1263.35
538.12	1253.71
538.47	1244.21
538.83	1237.84
539.18	1233.04
539.54	1227.66
539.89	1228.41
540.25	1230.07
540.60	1225.67
540.96	1223.33
541.31	1222.88
541.67	1217.27
542.02	1210.64
542.38	1206.48
542.73	1201.26
543.09	1195.76
543.44	1189.16
543.80	1188.38
544.15	1183.21
544.51	1181.06
544.86	1179.49
545.22	1179.02
545.57	1174.13
545.93	1174.79
546.28	1175.18
546.64	1170.83
546.99	1168.37
547.35	1168.49
547.70	1163.50
548.05	1158.38
548.41	1161.96
548.76	1158.19
549.12	1156.25
549.47	1158.19
549.83	1157.82
550.18	1155.36
550.53	1161.02
550.89	1156.95
551.24	1153.60
551.60	1150.58
551.95	1144.40
552.30	1139.33
552.66	1137.27
553.01	1136.66
553.37	1135.49
553.72	1135.46
554.07	1130.43
554.43	1131.74
554.78	1132.00
555.13	1131.84
555.49	1132.49
555.84	1134.43
556.19	1133.59
556.55	1130.97
556.90	1128.00
557.26	1127.23
557.61	1125.19
557.96	1122.43
558.32	1120.67
558.67	1123.88
559.02	1120.11
559.37	1121.49
559.73	1119.53
560.08	1118.80
560.43	1116.18
560.79	1114.80
561.14	1112.27
561.49	1113.39
561.85	1112.95
562.20	1110.47
562.55	1116.83
562.90	1116.83
563.26	1117.16
563.61	1119.53
563.96	1122.26
564.32	1115.99
564.67	1116.01
565.02	1115.01
565.37	1110.14
565.73	1105.06
566.08	1105.65
566.43	1107.75
566.78	1107.85
567.14	1110.09
567.49	1112.83
567.84	1109.53
568.19	1104.41
568.54	1101.50
568.90	1100.26
569.25	1101.25
569.60	1101.13
569.95	1100.47
570.31	1103.84
570.66	1100.61
571.01	1099.35
571.36	1101.29
571.71	1104.19
572.06	1103.94
572.42	1104.69
572.77	1104.83
573.12	1104.92
573.47	1103.19
573.82	1098.69
574.18	1098.62
574.53	1098.13
574.88	1096.89
575.23	1096.42
575.58	1096.35
575.93	1094.46
576.28	1092.98
576.64	1091.95
576.99	1091.81
577.34	1091.79
577.69	1092.84
578.04	1092.59
578.39	1092.37
578.74	1088.98
579.09	1091.34
579.44	1090.48
579.80	1090.76
580.15	1092.30
580.50	1094.39
580.85	1091.34
581.20	1091.09
581.55	1086.31
581.90	1085.61
582.25	1088.35
582.60	1090.13
582.95	1095.77
583.30	1097.45
583.65	1097.50
584.00	1094.01
584.35	1094.97
584.71	1089.54
585.06	1093.29
585.41	1093.55
585.76	1096.21
586.11	1094.01
586.46	1093.01
586.81	1091.34
587.16	1091.04
587.51	1090.22
587.86	1091.23
588.21	1092.09
588.56	1091.81
588.91	1093.99
589.26	1089.14
589.61	1089.36
589.96	1090.90
590.31	1089.03
590.66	1083.34
591.01	1086.10
591.36	1085.99
591.71	1085.80
592.06	1088.19
592.41	1090.13
592.76	1092.87
593.10	1092.49
593.45	1092.45
593.80	1091.63
594.15	1095.02
594.50	1093.24
594.85	1093.15
595.20	1091.51
595.55	1088.96
595.90	1084.70
596.25	1084.46
596.60	1084.16
596.95	1085.82
597.30	1088.37
597.64	1098.11
597.99	1097.01
598.34	1095.84
598.69	1095.09
599.04	1094.95
599.39	1086.27
599.74	1088.91
600.09	1090.46
600.44	1089.24
600.78	1087.58
601.13	1086.24
601.48	1080.44
601.83	1078.94
602.18	1077.86
602.53	1081.33
602.88	1084.23
603.22	1087.72
603.57	1086.71
603.92	1088.21
604.27	1084.44
604.62	1081.82
604.97	1078.80
605.31	1080.09
605.66	1078.64
606.01	1079.92
606.36	1082.71
606.71	1085.66
607.05	1085.07
607.40	1085.96
607.75	1086.55
608.10	1083.29
608.44	1084.02
608.79	1084.93
609.14	1083.25
609.49	1082.59
609.84	1084.09
610.18	1082.15
610.53	1078.17
610.88	1079.90
611.23	1079.85
611.57	1078.78
611.92	1080.51
612.27	1084.32
612.62	1086.08
612.96	1087.53
613.31	1089.22
613.66	1094.53
614.00	1094.27
614.35	1092.52
614.70	1090.46
615.05	1090.22
615.39	1083.29
615.74	1080.48
616.09	1080.09
616.43	1077.75
616.78	1078.82
617.13	1082.19
617.47	1084.96
617.82	1083.13
618.17	1085.24
618.51	1083.32
618.86	1079.43
619.21	1080.98
619.55	1081.94
619.90	1083.93
620.25	1082.38
620.59	1081.87
620.94	1078.19
621.29	1078.59
621.63	1074.80
621.98	1072.29
622.32	1074.73
622.67	1078.03
623.02	1078.17
623.36	1079.69
623.71	1083.93
624.05	1084.72
624.40	1082.50
624.75	1082.29
625.09	1084.63
625.44	1082.38
625.78	1079.57
626.13	1080.67
626.48	1078.64
626.82	1079.81
627.17	1082.29
627.51	1083.81
627.86	1083.39
628.20	1087.88
628.55	1085.66
628.89	1082.45
629.24	1082.43
629.58	1085.61
629.93	1083.69
630.28	1084.37
630.62	1084.28
630.97	1084.09
631.31	1081.09
631.66	1084.44
632.00	1082.31
632.35	1085.70
632.69	1086.97
633.04	1088.98
633.38	1086.78
633.73	1086.83
634.07	1087.06
634.42	1086.08
634.76	1084.25
635.11	1083.36
635.45	1084.37
635.79	1081.94
636.14	1082.59
636.48	1083.08
636.83	1085.17
637.17	1085.94
637.52	1088.63
637.86	1085.21
638.21	1083.01
638.55	1082.17
638.89	1079.71
639.24	1077.84
639.58	1081.30
639.93	1081.91
640.27	1081.84
640.61	1083.22
640.96	1083.60
641.30	1080.37
641.65	1083.36
641.99	1082.50
642.33	1082.19
642.68	1083.41
643.02	1082.69
643.37	1077.93
643.71	1077.91
644.05	1080.48
644.40	1079.17
644.74	1083.55
645.08	1084.81
645.43	1082.76
645.77	1078.24
646.11	1077.89
646.46	1076.48
646.80	1075.59
647.14	1076.44
647.49	1078.10
647.83	1077.49
648.17	1074.82
648.52	1073.39
648.86	1075.50
649.20	1076.34
649.55	1076.79
649.89	1077.98
650.23	1084.16
650.57	1081.63
650.92	1082.10
651.26	1083.69
651.60	1085.17
651.95	1082.26
652.29	1082.08
652.63	1080.11
652.97	1077.11
653.32	1077.98
653.66	1079.31
654.00	1079.62
654.34	1081.54
654.69	1083.90
655.03	1084.23
655.37	1085.70
655.71	1085.84
656.05	1082.43
656.40	1082.90
656.74	1084.28
657.08	1079.48
657.42	1079.92
657.76	1084.09
658.11	1081.33
658.45	1077.68
658.79	1081.89
659.13	1084.32
659.47	1083.50
659.82	1084.49
660.16	1085.96
660.50	1086.76
660.84	1086.38
661.18	1088.30
661.52	1086.73
661.87	1084.72
662.21	1082.22
662.55	1078.05
662.89	1074.21
663.23	1076.88
663.57	1079.01
663.91	1078.78
664.25	1081.09
664.60	1079.81
664.94	1079.01
665.28	1074.19
665.62	1072.29
665.96	1072.76
666.30	1072.69
666.64	1075.38
666.98	1079.71
667.32	1084.02
667.66	1084.39
668.01	1085.96
668.35	1083.57
668.69	1085.87
669.03	1085.05
669.37	1083.71
669.71	1083.46
670.05	1081.40
670.39	1078.14
670.73	1075.78
671.07	1076.48
671.41	1077.56
671.75	1080.02
672.09	1077.21
672.43	1078.12
672.77	1076.86
673.11	1076.65
673.45	1076.15
673.79	1079.83
674.13	1078.66
674.47	1081.68
674.81	1080.74
675.15	1079.20
675.49	1080.84
675.83	1078.87
676.17	1074.82
676.51	1075.85
676.85	1076.11
677.19	1074.07
677.53	1076.86
677.87	1080.86
678.21	1080.13
678.55	1080.32
678.89	1081.66
679.23	1080.77
679.57	1078.61
679.90	1076.65
680.24	1075.55
680.58	1073.88
680.92	1075.45
681.26	1075.34
681.60	1075.52
681.94	1078.10
682.28	1077.98
682.62	1077.30
682.96	1077.44
683.29	1077.79
683.63	1077.07
683.97	1079.10
684.31	1079.34
684.65	1080.02
684.99	1080.81
685.33	1078.71
685.67	1078.40
686.00	1079.78
686.34	1081.26
686.68	1081.54
687.02	1081.58
687.36	1081.35
687.70	1080.11
688.03	1076.11
688.37	1078.03
688.71	1080.34
689.05	1081.40
689.39	1081.19
689.72	1085.77
690.06	1083.79
690.40	1081.33
690.74	1076.83
691.08	1077.37
691.41	1073.56
691.75	1074.75
692.09	1077.02
692.43	1079.29
692.76	1076.39
693.10	1076.32
693.44	1075.87
693.78	1075.85
694.11	1077.42
694.45	1079.57
694.79	1082.29
695.13	1083.13
695.46	1083.36
695.80	1078.73
696.14	1078.68
696.48	1078.99
696.81	1078.10
697.15	1078.54
697.49	1081.66
697.82	1079.36
698.16	1075.48
698.50	1075.41
698.83	1076.32
699.17	1075.05
699.51	1077.42
699.84	1076.97
700.18	1079.97
700.52	1079.17
700.85	1078.47
701.19	1077.63
701.53	1079.97
701.86	1078.68
702.20	1075.71
702.54	1078.57
702.87	1080.41
703.21	1081.61
703.55	1078.54
703.88	1081.66
704.22	1081.21
704.55	1080.27
704.89	1079.03
705.23	1081.58
705.56	1079.90
705.90	1080.91
706.23	1079.10
706.57	1077.35
706.91	1076.34
707.24	1077.44
707.58	1076.01
707.91	1077.68
708.25	1081.37
708.58	1081.89
708.92	1082.40
709.26	1082.22
709.59	1082.05
709.93	1078.31
710.26	1077.00
710.60	1077.68
710.93	1078.89
711.27	1078.57
711.60	1082.01
711.94	1082.03
712.27	1079.06
712.61	1077.61
712.94	1078.14
713.28	1077.61
713.61	1078.59
713.95	1080.41
714.28	1078.45
714.62	1081.61
714.95	1079.76
715.29	1080.13
715.62	1079.27
715.96	1082.26
716.29	1078.66
716.63	1079.97
716.96	1079.76
717.29	1080.65
717.63	1080.67
717.96	1083.32
718.30	1084.00
718.63	1083.55
718.97	1084.39
719.30	1081.73
719.63	1077.18
719.97	1077.28
720.30	1076.72
720.64	1076.53
720.97	1078.87
721.30	1082.03
721.64	1079.29
721.97	1079.43
722.31	1079.41
722.64	1078.57
722.97	1077.68
723.31	1077.91
723.64	1078.50
723.97	1077.98
724.31	1076.20
724.64	1078.71
724.98	1078.85
725.31	1080.18
725.64	1079.06
725.98	1081.89
726.31	1079.43
726.64	1082.19
726.97	1080.56
727.31	1083.69
727.64	1085.35
727.97	1087.13
728.31	1085.59
728.64	1084.67
728.97	1080.16
729.31	1075.27
729.64	1073.77
729.97	1074.84
730.30	1074.63
730.64	1076.97
730.97	1083.11
731.30	1082.05
731.63	1081.23
731.97	1079.88
732.30	1078.85
732.63	1076.06
732.96	1077.89
733.30	1077.96
733.63	1081.58
733.96	1082.71
734.29	1082.33
734.63	1080.20
734.96	1081.61
735.29	1079.34
735.62	1081.02
735.95	1082.40
736.29	1085.31
736.62	1084.93
736.95	1085.42
737.28	1084.96
737.61	1083.06
737.94	1082.76
738.28	1081.75
738.61	1080.95
738.94	1078.82
739.27	1079.88
739.60	1080.81
739.93	1081.33
740.27	1082.57
740.60	1082.45
740.93	1078.59
741.26	1078.24
741.59	1075.90
741.92	1077.47
742.25	1076.55
742.58	1078.43
742.91	1077.54
743.25	1079.34
743.58	1077.49
743.91	1078.99
744.24	1078.14
744.57	1076.51
744.90	1076.11
745.23	1077.21
745.56	1078.50
745.89	1080.18
746.22	1080.16
746.55	1078.07
746.88	1078.05
747.21	1077.25
747.54	1076.44
747.87	1077.18
748.20	1076.18
748.53	1075.92
748.87	1075.97
749.20	1078.57
749.53	1076.88
749.86	1079.06
750.19	1079.22
750.52	1079.62
750.85	1078.45
751.18	1080.04
751.51	1081.80
751.84	1081.26
752.16	1081.00
752.49	1076.95
752.82	1076.79
753.15	1076.20
753.48	1074.45
753.81	1071.33
754.14	1078.96
754.47	1078.64
754.80	1079.74
755.13	1082.15
755.46	1085.82
755.79	1083.18
756.12	1082.83
756.45	1080.04
756.78	1078.75
757.11	1076.41
757.43	1074.03
757.76	1076.25
758.09	1078.21
758.42	1079.10
758.75	1080.79
759.08	1078.17
759.41	1075.03
759.74	1075.57
760.07	1072.76
760.39	1071.19
760.72	1074.66
761.05	1074.87
761.38	1073.74
761.71	1075.76
762.04	1074.07
762.36	1071.43
762.69	1073.21
763.02	1072.43
763.35	1074.10
763.68	1075.24
764.01	1077.68
