SpectraSuite Data File
++++++++++++++++++++++++++++++++++++
Date: Mon Aug 26 10:22:13 PDT 2019
User: corrico
Dark Spectrum Present: No
Reference Spectrum Present: No
Number of Sampled Component Spectra: 1
Spectrometers: USB2+H06089
Integration Time (usec): 2000 (USB2+H06089)
Spectra Averaged: 20 (USB2+H06089)
Boxcar Smoothing: 2 (USB2+H06089)
Correct for Electrical Dark: No (USB2+H06089)
Strobe/Lamp Enabled: No (USB2+H06089)
Correct for Detector Non-linearity: No (USB2+H06089)
Correct for Stray Light: No (USB2+H06089)
Number of Pixels in Processed Spectrum: 2048
>>>>>Begin Processed Spectral Data<<<<<
339.70	1029.02
340.07	1029.02
340.45	993.16
340.82	969.96
341.19	946.30
341.57	921.05
341.94	907.99
342.31	902.46
342.69	895.70
343.06	891.67
343.43	887.25
343.81	889.80
344.18	889.94
344.55	896.33
344.93	902.58
345.30	912.18
345.67	919.53
346.04	929.36
346.42	937.55
346.79	944.57
347.16	951.92
347.54	956.53
347.91	967.09
348.28	978.98
348.65	989.13
349.03	997.19
349.40	1009.22
349.77	1017.97
350.14	1024.92
350.52	1031.75
350.89	1041.02
351.26	1050.13
351.63	1053.26
352.01	1055.91
352.38	1064.43
352.75	1068.20
353.12	1068.22
353.50	1073.16
353.87	1077.77
354.24	1078.07
354.61	1079.46
354.98	1082.31
355.36	1080.06
355.73	1082.80
356.10	1082.36
356.47	1081.16
356.84	1079.99
357.22	1082.76
357.59	1078.45
357.96	1078.31
358.33	1078.68
358.70	1080.09
359.08	1082.15
359.45	1085.40
359.82	1086.55
360.19	1087.13
360.56	1084.28
360.94	1080.25
361.31	1078.66
361.68	1075.80
362.05	1077.79
362.42	1080.11
362.79	1083.81
363.16	1082.15
363.54	1085.17
363.91	1082.78
364.28	1080.70
364.65	1078.21
365.02	1078.00
365.39	1075.94
365.76	1075.90
366.14	1076.37
366.51	1078.40
366.88	1079.95
367.25	1079.08
367.62	1077.37
367.99	1075.59
368.36	1072.01
368.73	1072.41
369.10	1069.58
369.48	1070.96
369.85	1073.58
370.22	1075.05
370.59	1072.18
370.96	1073.72
371.33	1073.28
371.70	1071.75
372.07	1075.29
372.44	1079.20
372.81	1080.88
373.18	1085.00
373.55	1085.63
373.93	1082.03
374.30	1080.32
374.67	1079.27
375.04	1074.47
375.41	1073.79
375.78	1075.90
376.15	1076.74
376.52	1077.23
376.89	1078.43
377.26	1079.57
377.63	1079.53
378.00	1077.68
378.37	1081.44
378.74	1085.89
379.11	1085.47
379.48	1085.35
379.85	1085.05
380.22	1081.98
380.59	1081.51
380.96	1081.44
381.33	1081.47
381.70	1082.36
382.07	1086.01
382.44	1084.25
382.81	1088.12
383.18	1087.86
383.55	1088.28
383.92	1086.62
384.29	1086.85
384.66	1083.46
385.03	1084.58
385.40	1082.24
385.77	1079.50
386.14	1080.32
386.51	1080.63
386.88	1078.31
387.25	1079.64
387.62	1080.74
387.99	1081.14
388.36	1081.33
388.73	1080.56
389.10	1081.75
389.46	1082.90
389.83	1081.54
390.20	1085.87
390.57	1087.11
390.94	1089.26
391.31	1089.99
391.68	1091.77
392.05	1088.72
392.42	1090.20
392.79	1090.10
393.16	1089.19
393.53	1087.55
393.89	1088.12
394.26	1090.53
394.63	1089.43
395.00	1091.67
395.37	1092.30
395.74	1090.60
396.11	1087.16
396.48	1085.87
396.84	1085.80
397.21	1084.63
397.58	1084.65
397.95	1083.01
398.32	1082.80
398.69	1080.58
399.06	1079.97
399.42	1082.22
399.79	1085.54
400.16	1088.21
400.53	1091.46
400.90	1094.06
401.27	1093.03
401.64	1092.98
402.00	1095.37
402.37	1093.15
402.74	1091.34
403.11	1087.41
403.48	1085.17
403.84	1081.30
404.21	1081.54
404.58	1083.22
404.95	1090.46
405.32	1094.27
405.68	1096.52
406.05	1096.17
406.42	1098.65
406.79	1097.88
407.16	1096.96
407.52	1094.18
407.89	1092.45
408.26	1088.26
408.63	1087.95
408.99	1086.10
409.36	1088.79
409.73	1095.18
410.10	1097.66
410.47	1097.59
410.83	1098.81
411.20	1098.16
411.57	1095.56
411.94	1098.79
412.30	1098.55
412.67	1099.00
413.04	1100.92
413.40	1100.08
413.77	1098.95
414.14	1098.88
414.51	1104.05
414.87	1102.51
415.24	1104.80
415.61	1107.03
415.97	1110.33
416.34	1108.36
416.71	1109.25
417.08	1107.49
417.44	1106.25
417.81	1105.62
418.18	1106.44
418.54	1109.51
418.91	1113.95
419.28	1113.70
419.64	1116.04
420.01	1116.76
420.38	1119.71
420.74	1119.31
421.11	1122.52
421.48	1122.66
421.84	1124.60
422.21	1126.36
422.58	1126.15
422.94	1127.74
423.31	1132.68
423.68	1138.69
424.04	1138.62
424.41	1145.18
424.77	1147.52
425.14	1149.16
425.51	1149.23
425.87	1159.03
426.24	1167.81
426.61	1174.62
426.97	1181.43
427.34	1189.93
427.70	1196.93
428.07	1198.33
428.44	1205.54
428.80	1212.96
429.17	1221.17
429.53	1227.99
429.90	1242.89
430.27	1258.25
430.63	1271.96
431.00	1287.27
431.36	1303.82
431.73	1317.30
432.09	1332.30
432.46	1350.16
432.83	1365.89
433.19	1384.50
433.56	1407.25
433.92	1431.33
434.29	1454.57
434.65	1483.22
435.02	1510.77
435.38	1546.91
435.75	1576.75
436.11	1617.15
436.48	1656.26
436.84	1700.54
437.21	1739.39
437.57	1787.00
437.94	1836.74
438.30	1891.88
438.67	1946.81
439.03	2012.56
439.40	2083.33
439.76	2146.25
440.13	2218.73
440.49	2298.69
440.86	2373.96
441.22	2455.03
441.59	2548.14
441.95	2649.56
442.32	2752.80
442.68	2870.85
443.05	2993.55
443.41	3121.15
443.78	3248.92
444.14	3385.00
444.51	3516.26
444.87	3676.44
445.24	3838.24
445.60	4007.86
445.96	4184.34
446.33	4395.10
446.69	4587.71
447.06	4797.82
447.42	5028.13
447.79	5262.74
448.15	5525.00
448.51	5800.57
448.88	6120.15
449.24	6410.73
449.61	6755.14
449.97	7090.91
450.33	7456.15
450.70	7808.00
451.06	8228.46
451.43	8616.68
451.79	9076.50
452.15	9570.12
452.52	10091.29
452.88	10637.50
453.24	11281.52
453.61	11977.25
453.97	12666.16
454.34	13356.85
454.70	14152.49
455.06	14912.35
455.43	15648.03
455.79	16322.33
456.15	17123.94
456.52	17868.63
456.88	18771.89
457.24	19649.43
457.61	20761.98
457.97	21813.25
458.33	22911.60
458.70	23975.07
459.06	24982.32
459.42	25965.62
459.79	26852.12
460.15	27837.72
460.51	28808.39
460.88	29882.72
461.24	30857.15
461.60	31999.85
461.96	33056.53
462.33	34041.92
462.69	35029.49
463.05	36106.27
463.42	37088.15
463.78	37982.94
464.14	38710.03
464.50	39458.81
464.87	39990.49
465.23	40321.16
465.59	40735.41
465.95	41087.43
466.32	41328.27
466.68	41565.18
467.04	41715.56
467.40	41737.42
467.77	41854.63
468.13	41773.23
468.49	41639.32
468.85	41552.72
469.22	41398.95
469.58	41133.07
469.94	40967.12
470.30	40706.48
470.66	40333.14
471.03	39829.32
471.39	39458.46
471.75	38722.27
472.11	38039.88
472.47	37546.10
472.84	37019.67
473.20	36305.50
473.56	35944.59
473.92	35369.92
474.28	34728.07
474.65	34098.23
475.01	33443.68
475.37	32637.81
475.73	31983.94
476.09	31322.97
476.45	30708.44
476.81	30188.16
477.18	29653.51
477.54	29196.01
477.90	28750.79
478.26	28200.90
478.62	27677.12
478.98	27241.64
479.34	26789.77
479.71	26232.84
480.07	25796.07
480.43	25350.08
480.79	24871.66
481.15	24421.66
481.51	24084.49
481.87	23781.15
482.23	23445.29
482.59	23141.27
482.96	22825.98
483.32	22507.81
483.68	22109.05
484.04	21760.73
484.40	21354.21
484.76	20919.73
485.12	20475.17
485.48	20044.79
485.84	19553.12
486.20	19131.94
486.56	18716.52
486.92	18342.47
487.28	17955.68
487.64	17561.02
488.00	17177.99
488.37	16801.21
488.73	16379.49
489.09	15953.96
489.45	15546.52
489.81	15111.72
490.17	14693.25
490.53	14291.69
490.89	13888.01
491.25	13478.07
491.61	13096.87
491.97	12692.94
492.33	12293.59
492.69	11922.31
493.05	11596.86
493.41	11261.84
493.77	10939.45
494.13	10641.92
494.49	10352.17
494.85	10073.22
495.21	9805.98
495.57	9562.26
495.93	9304.50
496.29	9064.45
496.64	8834.19
497.00	8586.11
497.36	8341.79
497.72	8105.25
498.08	7885.76
498.44	7663.24
498.80	7466.03
499.16	7270.06
499.52	7091.64
499.88	6918.55
500.24	6748.09
500.60	6579.13
500.96	6418.87
501.32	6250.89
501.68	6082.63
502.03	5915.12
502.39	5751.91
502.75	5595.24
503.11	5448.70
503.47	5308.43
503.83	5171.60
504.19	5047.01
504.55	4928.49
504.91	4812.70
505.26	4693.80
505.62	4576.54
505.98	4466.14
506.34	4345.98
506.70	4226.14
507.06	4118.71
507.42	4025.25
507.78	3930.46
508.13	3843.46
508.49	3767.72
508.85	3698.14
509.21	3618.02
509.57	3531.35
509.93	3439.39
510.28	3353.33
510.64	3264.67
511.00	3186.66
511.36	3118.93
511.72	3066.38
512.07	3011.15
512.43	2953.24
512.79	2894.87
513.15	2833.34
513.51	2767.17
513.86	2710.25
514.22	2657.77
514.58	2602.91
514.94	2559.63
515.30	2515.70
515.65	2468.47
516.01	2429.62
516.37	2391.70
516.73	2347.98
517.08	2311.33
517.44	2273.10
517.80	2232.19
518.16	2198.04
518.51	2170.75
518.87	2138.43
519.23	2108.21
519.59	2080.46
519.94	2051.60
520.30	2022.25
520.66	1991.00
521.01	1961.51
521.37	1929.44
521.73	1901.12
522.09	1875.21
522.44	1857.40
522.80	1835.59
523.16	1815.65
523.51	1790.11
523.87	1765.02
524.23	1739.02
524.58	1720.74
524.94	1704.94
525.30	1688.13
525.65	1672.29
526.01	1658.11
526.37	1639.24
526.72	1621.59
527.08	1607.41
527.44	1587.21
527.79	1572.51
528.15	1554.89
528.51	1538.22
528.86	1521.91
529.22	1513.06
529.58	1495.49
529.93	1485.26
530.29	1470.93
530.65	1458.62
531.00	1447.11
531.36	1438.03
531.71	1425.25
532.07	1413.64
532.43	1401.68
532.78	1392.88
533.14	1380.24
533.49	1371.60
533.85	1368.58
534.21	1364.51
534.56	1356.25
534.92	1350.79
535.27	1344.40
535.63	1331.74
535.98	1321.56
536.34	1314.44
536.69	1303.82
537.05	1295.93
537.41	1291.46
537.76	1285.68
538.12	1275.97
538.47	1273.93
538.83	1267.99
539.18	1260.66
539.54	1255.70
539.89	1251.53
540.25	1247.27
540.60	1242.80
540.96	1243.69
541.31	1242.38
541.67	1238.28
542.02	1232.78
542.38	1229.32
542.73	1224.52
543.09	1217.17
543.44	1215.11
543.80	1211.86
544.15	1209.14
544.51	1201.00
544.86	1199.36
545.22	1194.09
545.57	1192.27
545.93	1188.01
546.28	1187.00
546.64	1183.77
546.99	1183.49
547.35	1181.48
547.70	1179.40
548.05	1176.91
548.41	1174.41
548.76	1169.40
549.12	1166.13
549.47	1166.41
549.83	1167.01
550.18	1162.73
550.53	1163.27
550.89	1159.88
551.24	1157.54
551.60	1156.51
551.95	1154.73
552.30	1151.94
552.66	1151.73
553.01	1149.46
553.37	1144.59
553.72	1145.97
554.07	1145.15
554.43	1144.29
554.78	1144.05
555.13	1140.66
555.49	1138.76
555.84	1139.00
556.19	1138.37
556.55	1135.91
556.90	1136.63
557.26	1137.03
557.61	1130.99
557.96	1130.46
558.32	1128.09
558.67	1128.93
559.02	1126.64
559.37	1129.38
559.73	1124.81
560.08	1125.45
560.43	1122.40
560.79	1122.08
561.14	1116.90
561.49	1118.64
561.85	1116.69
562.20	1113.53
562.55	1111.59
562.90	1113.77
563.26	1109.86
563.61	1108.06
563.96	1110.49
564.32	1109.13
564.67	1110.28
565.02	1111.24
565.37	1111.92
565.73	1113.74
566.08	1111.71
566.43	1109.55
566.78	1109.25
567.14	1107.45
567.49	1101.20
567.84	1104.43
568.19	1102.74
568.54	1101.50
568.90	1103.49
569.25	1106.75
569.60	1104.22
569.95	1103.68
570.31	1105.06
570.66	1103.87
571.01	1102.84
571.36	1101.78
571.71	1100.43
572.06	1101.01
572.42	1098.41
572.77	1095.42
573.12	1096.19
573.47	1097.06
573.82	1095.21
574.18	1097.06
574.53	1100.80
574.88	1099.93
575.23	1099.56
575.58	1101.50
575.93	1101.01
576.28	1097.13
576.64	1097.36
576.99	1097.29
577.34	1095.93
577.69	1098.51
578.04	1099.56
578.39	1098.09
578.74	1098.13
579.09	1097.13
579.44	1093.22
579.80	1093.52
580.15	1096.14
580.50	1096.07
580.85	1094.65
581.20	1095.51
581.55	1095.00
581.90	1092.33
582.25	1093.10
582.60	1093.87
582.95	1095.18
583.30	1094.27
583.65	1095.98
584.00	1095.91
584.35	1094.01
584.71	1091.23
585.06	1092.63
585.41	1093.38
585.76	1091.53
586.11	1091.74
586.46	1091.74
586.81	1090.27
587.16	1089.38
587.51	1090.08
587.86	1092.42
588.21	1093.76
588.56	1093.71
588.91	1091.72
589.26	1088.26
589.61	1088.58
589.96	1089.45
590.31	1093.80
590.66	1093.31
591.01	1096.49
591.36	1093.24
591.71	1091.91
592.06	1089.24
592.41	1090.36
592.76	1089.82
593.10	1094.25
593.45	1092.70
593.80	1092.89
594.15	1094.48
594.50	1095.86
594.85	1091.58
595.20	1094.01
595.55	1091.42
595.90	1088.82
596.25	1087.25
596.60	1086.34
596.95	1084.77
597.30	1085.54
597.64	1095.11
597.99	1095.79
598.34	1096.85
598.69	1095.72
599.04	1095.21
599.39	1084.63
599.74	1080.67
600.09	1084.11
600.44	1084.18
600.78	1085.59
601.13	1087.37
601.48	1092.14
601.83	1089.24
602.18	1090.43
602.53	1087.90
602.88	1087.09
603.22	1085.59
603.57	1085.91
603.92	1084.58
604.27	1083.93
604.62	1084.09
604.97	1084.14
605.31	1083.97
605.66	1084.65
606.01	1085.91
606.36	1086.15
606.71	1084.91
607.05	1085.73
607.40	1085.61
607.75	1085.00
608.10	1087.60
608.44	1089.94
608.79	1086.92
609.14	1084.63
609.49	1082.05
609.84	1078.24
610.18	1078.78
610.53	1080.25
610.88	1080.65
611.23	1084.35
611.57	1084.11
611.92	1085.80
612.27	1087.67
612.62	1089.12
612.96	1090.53
613.31	1092.68
613.66	1088.72
614.00	1086.20
614.35	1086.76
614.70	1084.56
615.05	1084.11
615.39	1081.63
615.74	1083.27
616.09	1083.67
616.43	1084.04
616.78	1084.32
617.13	1086.80
617.47	1084.07
617.82	1083.97
618.17	1084.09
618.51	1081.75
618.86	1083.04
619.21	1085.00
619.55	1083.74
619.90	1080.70
620.25	1080.20
620.59	1078.96
620.94	1078.14
621.29	1078.52
621.63	1081.66
621.98	1081.42
622.32	1081.61
622.67	1081.00
623.02	1079.55
623.36	1081.21
623.71	1084.91
624.05	1086.41
624.40	1089.31
624.75	1088.79
625.09	1086.73
625.44	1082.97
625.78	1081.84
626.13	1081.77
626.48	1083.67
626.82	1083.97
627.17	1086.10
627.51	1088.79
627.86	1086.66
628.20	1083.01
628.55	1081.33
628.89	1080.20
629.24	1076.37
629.58	1076.32
629.93	1078.71
630.28	1081.40
630.62	1083.06
630.97	1081.84
631.31	1081.77
631.66	1083.86
632.00	1083.50
632.35	1082.90
632.69	1084.65
633.04	1083.90
633.38	1081.63
633.73	1078.85
634.07	1080.44
634.42	1078.61
634.76	1078.47
635.11	1080.18
635.45	1084.56
635.79	1083.88
636.14	1083.93
636.48	1086.92
636.83	1085.68
637.17	1082.73
637.52	1083.90
637.86	1090.29
638.21	1091.63
638.55	1091.23
638.89	1090.78
639.24	1086.17
639.58	1080.18
639.93	1077.49
640.27	1080.06
640.61	1080.34
640.96	1079.64
641.30	1080.23
641.65	1080.77
641.99	1081.23
642.33	1081.40
642.68	1085.12
643.02	1085.49
643.37	1085.49
643.71	1083.57
644.05	1083.76
644.40	1082.36
644.74	1084.25
645.08	1083.64
645.43	1084.07
645.77	1084.30
646.11	1085.10
646.46	1082.36
646.80	1084.04
647.14	1083.64
647.49	1083.67
647.83	1078.47
648.17	1077.89
648.52	1077.16
648.86	1078.24
649.20	1076.48
649.55	1079.99
649.89	1081.89
650.23	1081.87
650.57	1077.61
650.92	1078.57
651.26	1081.94
651.60	1081.00
651.95	1081.75
652.29	1085.45
652.63	1086.52
652.97	1084.60
653.32	1085.17
653.66	1082.64
654.00	1081.44
654.34	1082.10
654.69	1081.75
655.03	1080.63
655.37	1081.02
655.71	1082.52
656.05	1081.49
656.40	1082.76
656.74	1081.16
657.08	1083.08
657.42	1082.59
657.76	1081.09
658.11	1079.46
658.45	1080.51
658.79	1077.30
659.13	1076.90
659.47	1076.81
659.82	1077.04
660.16	1080.98
660.50	1083.22
660.84	1080.51
661.18	1084.60
661.52	1087.60
661.87	1086.13
662.21	1085.28
662.55	1087.95
662.89	1088.04
663.23	1085.66
663.57	1087.02
663.91	1086.29
664.25	1088.04
664.60	1086.59
664.94	1086.08
665.28	1082.50
665.62	1083.88
665.96	1078.47
666.30	1076.51
666.64	1072.67
666.98	1074.84
667.32	1075.13
667.66	1080.41
668.01	1079.67
668.35	1083.53
668.69	1084.39
669.03	1082.36
669.37	1078.82
669.71	1081.94
670.05	1079.38
670.39	1077.23
670.73	1075.15
671.07	1077.21
671.41	1074.31
671.75	1077.09
672.09	1078.54
672.43	1083.93
672.77	1082.36
673.11	1082.69
673.45	1083.11
673.79	1082.94
674.13	1081.49
674.47	1084.74
674.81	1084.60
675.15	1083.20
675.49	1080.70
675.83	1082.15
676.17	1078.54
676.51	1077.65
676.85	1078.28
677.19	1079.50
677.53	1075.27
677.87	1076.46
678.21	1079.10
678.55	1078.40
678.89	1076.48
679.23	1078.50
679.57	1077.58
679.90	1076.93
680.24	1074.35
680.58	1077.56
680.92	1076.53
681.26	1078.10
681.60	1078.80
681.94	1082.78
682.28	1081.40
682.62	1083.20
682.96	1083.86
683.29	1082.15
683.63	1083.90
683.97	1085.80
684.31	1083.93
684.65	1083.67
684.99	1085.80
685.33	1083.08
685.67	1079.83
686.00	1082.94
686.34	1082.78
686.68	1083.93
687.02	1082.99
687.36	1085.42
687.70	1084.44
688.03	1083.53
688.37	1081.54
688.71	1080.04
689.05	1079.03
689.39	1075.71
689.72	1075.85
690.06	1074.80
690.40	1077.98
690.74	1078.73
691.08	1081.12
691.41	1079.31
691.75	1081.47
692.09	1079.74
692.43	1078.10
692.76	1078.89
693.10	1081.44
693.44	1082.85
693.78	1084.39
694.11	1088.07
694.45	1087.81
694.79	1085.84
695.13	1081.05
695.46	1080.70
695.80	1077.33
696.14	1076.46
696.48	1077.00
696.81	1079.31
697.15	1078.31
697.49	1079.17
697.82	1079.48
698.16	1078.89
698.50	1077.16
698.83	1078.85
699.17	1081.23
699.51	1083.04
699.84	1084.18
700.18	1085.70
700.52	1085.75
700.85	1087.27
701.19	1084.16
701.53	1082.69
701.86	1083.83
702.20	1079.97
702.54	1077.70
702.87	1080.77
703.21	1081.82
703.55	1081.54
703.88	1087.32
704.22	1085.94
704.55	1087.97
704.89	1091.16
705.23	1088.98
705.56	1083.74
705.90	1084.04
706.23	1081.14
706.57	1078.87
706.91	1082.64
707.24	1085.12
707.58	1085.33
707.91	1084.84
708.25	1086.71
708.58	1084.32
708.92	1084.51
709.26	1082.05
709.59	1080.48
709.93	1077.04
710.26	1075.92
710.60	1077.18
710.93	1081.14
711.27	1082.61
711.60	1084.09
711.94	1084.79
712.27	1083.76
712.61	1082.57
712.94	1080.39
713.28	1078.99
713.61	1078.19
713.95	1077.07
714.28	1074.47
714.62	1077.56
714.95	1077.72
715.29	1080.65
715.62	1080.51
715.96	1083.74
716.29	1083.29
716.63	1082.05
716.96	1080.48
717.29	1080.98
717.63	1081.84
717.96	1080.37
718.30	1082.97
718.63	1082.40
718.97	1082.05
719.30	1081.89
719.63	1083.67
719.97	1083.88
720.30	1085.21
720.64	1086.55
720.97	1081.96
721.30	1080.72
721.64	1081.14
721.97	1082.57
722.31	1082.08
722.64	1084.32
722.97	1084.39
723.31	1084.42
723.64	1080.63
723.97	1079.06
724.31	1081.02
724.64	1079.34
724.98	1079.60
725.31	1081.21
725.64	1082.61
725.98	1080.98
726.31	1082.33
726.64	1082.45
726.97	1079.92
727.31	1077.93
727.64	1074.94
727.97	1075.78
728.31	1073.56
728.64	1077.84
728.97	1078.64
729.31	1080.13
729.64	1079.67
729.97	1078.38
730.30	1076.65
730.64	1081.23
730.97	1082.03
731.30	1080.51
731.63	1079.78
731.97	1077.63
732.30	1073.58
732.63	1072.48
732.96	1072.69
733.30	1074.87
733.63	1077.79
733.96	1079.60
734.29	1079.57
734.63	1081.14
734.96	1083.46
735.29	1082.78
735.62	1078.21
735.95	1080.79
736.29	1078.36
736.62	1077.44
736.95	1074.45
737.28	1079.17
737.61	1078.21
737.94	1079.69
738.28	1078.87
738.61	1080.93
738.94	1079.06
739.27	1079.20
739.60	1080.51
739.93	1081.66
740.27	1078.38
740.60	1080.37
740.93	1077.77
741.26	1076.81
741.59	1073.84
741.92	1079.15
742.25	1075.66
742.58	1077.40
742.91	1076.97
743.25	1076.37
743.58	1075.17
743.91	1074.96
744.24	1072.13
744.57	1070.84
744.90	1075.97
745.23	1077.42
745.56	1080.98
745.89	1085.94
746.22	1086.50
746.55	1083.69
746.88	1083.18
747.21	1082.29
747.54	1080.53
747.87	1081.33
748.20	1082.40
748.53	1080.70
748.87	1080.51
749.20	1079.69
749.53	1076.69
749.86	1076.23
750.19	1075.15
750.52	1075.01
750.85	1075.99
751.18	1075.94
751.51	1074.96
751.84	1074.87
752.16	1073.23
752.49	1071.08
752.82	1073.91
753.15	1074.21
753.48	1072.13
753.81	1073.65
754.14	1073.21
754.47	1073.60
754.80	1074.40
755.13	1076.48
755.46	1074.54
755.79	1077.44
756.12	1079.38
756.45	1078.07
756.78	1078.21
757.11	1080.79
757.43	1079.17
757.76	1075.17
758.09	1074.54
758.42	1074.87
758.75	1073.65
759.08	1076.01
759.41	1078.73
759.74	1080.04
760.07	1082.22
760.39	1085.17
760.72	1082.99
761.05	1083.57
761.38	1082.38
761.71	1082.99
762.04	1082.71
762.36	1084.37
762.69	1082.15
763.02	1080.91
763.35	1078.87
763.68	1076.93
764.01	1075.45
