SpectraSuite Data File
++++++++++++++++++++++++++++++++++++
Date: Mon Aug 26 10:21:56 PDT 2019
User: corrico
Dark Spectrum Present: No
Reference Spectrum Present: No
Number of Sampled Component Spectra: 1
Spectrometers: USB2+H06089
Integration Time (usec): 2000 (USB2+H06089)
Spectra Averaged: 20 (USB2+H06089)
Boxcar Smoothing: 2 (USB2+H06089)
Correct for Electrical Dark: No (USB2+H06089)
Strobe/Lamp Enabled: No (USB2+H06089)
Correct for Detector Non-linearity: No (USB2+H06089)
Correct for Stray Light: No (USB2+H06089)
Number of Pixels in Processed Spectrum: 2048
>>>>>Begin Processed Spectral Data<<<<<
339.70	1029.60
340.07	1029.60
340.45	994.56
340.82	970.97
341.19	947.24
341.57	920.53
341.94	912.25
342.31	905.32
342.69	901.48
343.06	900.57
343.43	899.16
343.81	898.72
344.18	901.20
344.55	905.41
344.93	910.87
345.30	918.71
345.67	926.88
346.04	932.73
346.42	940.66
346.79	947.36
347.16	954.35
347.54	961.98
347.91	971.14
348.28	977.50
348.65	985.46
349.03	995.03
349.40	1002.76
349.77	1007.30
350.14	1018.13
350.52	1024.45
350.89	1030.33
351.26	1034.66
351.63	1041.63
352.01	1047.02
352.38	1050.64
352.75	1053.12
353.12	1059.47
353.50	1062.88
353.87	1064.36
354.24	1066.56
354.61	1069.98
354.98	1070.30
355.36	1069.72
355.73	1069.41
356.10	1071.05
356.47	1070.23
356.84	1071.78
357.22	1071.78
357.59	1072.55
357.96	1073.14
358.33	1075.83
358.70	1071.36
359.08	1067.42
359.45	1068.52
359.82	1067.10
360.19	1065.37
360.56	1068.97
360.94	1072.71
361.31	1071.43
361.68	1069.53
362.05	1067.19
362.42	1066.11
362.79	1066.14
363.16	1063.31
363.54	1064.15
363.91	1063.96
364.28	1063.47
364.65	1061.60
365.02	1063.21
365.39	1063.42
365.76	1064.90
366.14	1066.77
366.51	1067.45
366.88	1068.67
367.25	1064.92
367.62	1064.92
367.99	1061.92
368.36	1062.21
368.73	1060.99
369.10	1066.32
369.48	1064.55
369.85	1063.52
370.22	1063.28
370.59	1063.91
370.96	1063.12
371.33	1061.13
371.70	1063.28
372.07	1065.15
372.44	1064.55
372.81	1063.31
373.18	1069.67
373.55	1069.70
373.93	1068.01
374.30	1067.03
374.67	1065.01
375.04	1064.03
375.41	1062.74
375.78	1060.85
376.15	1062.14
376.52	1064.19
376.89	1059.65
377.26	1060.92
377.63	1062.28
378.00	1060.12
378.37	1059.70
378.74	1062.49
379.11	1059.94
379.48	1061.64
379.85	1060.94
380.22	1062.65
380.59	1061.85
380.96	1065.44
381.33	1064.19
381.70	1064.10
382.07	1064.36
382.44	1065.72
382.81	1067.17
383.18	1069.79
383.55	1074.05
383.92	1070.51
384.29	1068.88
384.66	1068.59
385.03	1067.94
385.40	1065.32
385.77	1070.96
386.14	1070.94
386.51	1067.92
386.88	1066.86
387.25	1067.45
387.62	1061.41
387.99	1062.44
388.36	1065.37
388.73	1067.47
389.10	1067.42
389.46	1068.92
389.83	1071.12
390.20	1071.78
390.57	1071.50
390.94	1075.15
391.31	1074.98
391.68	1071.78
392.05	1070.02
392.42	1070.44
392.79	1068.36
393.16	1071.08
393.53	1072.62
393.89	1074.07
394.26	1072.27
394.63	1069.91
395.00	1070.70
395.37	1070.70
395.74	1068.48
396.11	1070.84
396.48	1074.24
396.84	1072.67
397.21	1073.35
397.58	1072.97
397.95	1069.91
398.32	1067.40
398.69	1065.34
399.06	1065.93
399.42	1067.49
399.79	1070.37
400.16	1072.55
400.53	1075.64
400.90	1075.20
401.27	1071.80
401.64	1071.40
402.00	1071.90
402.37	1069.30
402.74	1067.75
403.11	1070.23
403.48	1068.88
403.84	1066.09
404.21	1067.59
404.58	1068.41
404.95	1070.42
405.32	1072.29
405.68	1072.20
406.05	1071.99
406.42	1074.17
406.79	1073.44
407.16	1070.82
407.52	1071.87
407.89	1073.51
408.26	1072.85
408.63	1071.17
408.99	1071.40
409.36	1071.90
409.73	1074.00
410.10	1073.70
410.47	1073.74
410.83	1073.02
411.20	1072.20
411.57	1070.07
411.94	1069.34
412.30	1068.95
412.67	1069.58
413.04	1070.91
413.40	1069.65
413.77	1071.59
414.14	1072.04
414.51	1072.32
414.87	1069.51
415.24	1071.71
415.61	1071.90
415.97	1074.38
416.34	1072.88
416.71	1076.51
417.08	1073.53
417.44	1071.47
417.81	1069.18
418.18	1073.91
418.54	1072.06
418.91	1075.22
419.28	1076.37
419.64	1075.97
420.01	1073.67
420.38	1076.18
420.74	1072.78
421.11	1072.08
421.48	1074.10
421.84	1071.99
422.21	1069.11
422.58	1071.59
422.94	1072.85
423.31	1077.40
423.68	1079.64
424.04	1081.05
424.41	1081.80
424.77	1081.84
425.14	1078.64
425.51	1078.47
425.87	1078.64
426.24	1079.38
426.61	1076.48
426.97	1076.81
427.34	1078.19
427.70	1079.50
428.07	1080.30
428.44	1082.99
428.80	1080.60
429.17	1082.31
429.53	1081.82
429.90	1079.13
430.27	1080.04
430.63	1085.14
431.00	1086.24
431.36	1089.03
431.73	1089.99
432.09	1089.50
432.46	1085.75
432.83	1084.25
433.19	1079.78
433.56	1080.37
433.92	1083.34
434.29	1085.49
434.65	1087.53
435.02	1093.94
435.38	1099.61
435.75	1100.64
436.11	1102.72
436.48	1102.30
436.84	1100.82
437.21	1100.94
437.57	1100.85
437.94	1103.66
438.30	1105.79
438.67	1107.96
439.03	1108.22
439.40	1112.32
439.76	1115.17
440.13	1120.60
440.49	1125.07
440.86	1128.63
441.22	1131.51
441.59	1134.79
441.95	1135.96
442.32	1138.76
442.68	1139.98
443.05	1146.82
443.41	1151.64
443.78	1160.98
444.14	1168.56
444.51	1173.54
444.87	1176.28
445.24	1180.68
445.60	1182.86
445.96	1187.42
446.33	1201.26
446.69	1206.55
447.06	1213.38
447.42	1223.56
447.79	1234.68
448.15	1242.31
448.51	1253.47
448.88	1266.72
449.24	1278.47
449.61	1288.23
449.97	1300.89
450.33	1314.12
450.70	1324.74
451.06	1335.25
451.43	1348.85
451.79	1364.32
452.15	1382.69
452.52	1399.48
452.88	1421.38
453.24	1439.57
453.61	1459.39
453.97	1483.03
454.34	1504.71
454.70	1525.75
455.06	1550.77
455.43	1572.44
455.79	1592.80
456.15	1623.98
456.52	1653.03
456.88	1684.32
457.24	1717.16
457.61	1750.79
457.97	1778.99
458.33	1811.74
458.70	1842.19
459.06	1874.49
459.42	1911.47
459.79	1940.89
460.15	1971.27
460.51	2008.23
460.88	2040.32
461.24	2065.73
461.60	2104.89
461.96	2139.86
462.33	2170.68
462.69	2200.17
463.05	2233.39
463.42	2265.76
463.78	2289.89
464.14	2309.66
464.50	2333.84
464.87	2355.09
465.23	2367.45
465.59	2390.37
465.95	2415.55
466.32	2434.48
466.68	2453.49
467.04	2467.81
467.40	2476.87
467.77	2482.11
468.13	2477.74
468.49	2467.72
468.85	2454.99
469.22	2447.55
469.58	2437.57
469.94	2441.53
470.30	2439.12
470.66	2435.94
471.03	2418.43
471.39	2402.23
471.75	2371.85
472.11	2346.93
472.47	2323.31
472.84	2300.98
473.20	2278.07
473.56	2266.25
473.92	2244.29
474.28	2227.58
474.65	2213.80
475.01	2195.19
475.37	2168.74
475.73	2153.74
476.09	2137.21
476.45	2121.95
476.81	2107.65
477.18	2095.51
477.54	2085.23
477.90	2072.17
478.26	2052.65
478.62	2034.32
478.98	2021.22
479.34	2001.37
479.71	1983.21
480.07	1971.25
480.43	1959.43
480.79	1947.75
481.15	1939.77
481.51	1931.69
481.87	1918.35
482.23	1902.15
482.59	1883.41
482.96	1867.65
483.32	1851.88
483.68	1837.86
484.04	1831.70
484.40	1821.71
484.76	1807.10
485.12	1793.83
485.48	1787.61
485.84	1772.56
486.20	1760.86
486.56	1750.72
486.92	1737.33
487.28	1717.65
487.64	1700.91
488.00	1689.77
488.37	1670.74
488.73	1655.06
489.09	1641.60
489.45	1631.84
489.81	1610.41
490.17	1600.43
490.53	1591.40
490.89	1578.06
491.25	1559.31
491.61	1551.38
491.97	1538.15
492.33	1527.50
492.69	1515.36
493.05	1506.18
493.41	1490.48
493.77	1479.50
494.13	1465.15
494.49	1450.92
494.85	1439.29
495.21	1431.59
495.57	1420.42
495.93	1410.03
496.29	1402.07
496.64	1397.16
497.00	1388.43
497.36	1378.83
497.72	1368.44
498.08	1360.58
498.44	1348.13
498.80	1339.70
499.16	1333.57
499.52	1327.58
499.88	1323.92
500.24	1321.07
500.60	1314.89
500.96	1308.38
501.32	1300.52
501.68	1291.02
502.03	1283.64
502.39	1278.33
502.75	1273.06
503.11	1265.83
503.47	1262.32
503.83	1255.18
504.19	1250.67
504.55	1243.53
504.91	1243.46
505.26	1235.57
505.62	1229.16
505.98	1220.80
506.34	1216.19
506.70	1209.96
507.06	1204.65
507.42	1204.60
507.78	1201.58
508.13	1197.96
508.49	1192.06
508.85	1189.41
509.21	1183.42
509.57	1179.23
509.93	1174.27
510.28	1173.03
510.64	1173.43
511.00	1170.15
511.36	1169.00
511.72	1168.18
512.07	1161.02
512.43	1157.21
512.79	1156.51
513.15	1151.75
513.51	1149.02
513.86	1149.76
514.22	1143.82
514.58	1139.54
514.94	1137.36
515.30	1137.29
515.65	1134.83
516.01	1134.53
516.37	1131.58
516.73	1132.26
517.08	1129.10
517.44	1126.17
517.80	1126.22
518.16	1127.25
518.51	1124.00
518.87	1121.16
519.23	1117.96
519.59	1112.20
519.94	1109.23
520.30	1106.35
520.66	1105.81
521.01	1106.93
521.37	1108.81
521.73	1107.68
522.09	1107.87
522.44	1107.10
522.80	1107.64
523.16	1107.19
523.51	1106.23
523.87	1106.02
524.23	1103.98
524.58	1103.80
524.94	1102.04
525.30	1099.68
525.65	1096.85
526.01	1095.44
526.37	1093.24
526.72	1092.63
527.08	1093.26
527.44	1094.39
527.79	1096.03
528.15	1093.38
528.51	1093.17
528.86	1092.07
529.22	1093.64
529.58	1095.35
529.93	1096.92
530.29	1096.19
530.65	1096.89
531.00	1091.37
531.36	1086.48
531.71	1087.20
532.07	1087.13
532.43	1083.53
532.78	1084.56
533.14	1082.15
533.49	1079.81
533.85	1079.08
534.21	1080.06
534.56	1082.38
534.92	1083.95
535.27	1082.61
535.63	1081.68
535.98	1079.22
536.34	1076.76
536.69	1076.11
537.05	1076.20
537.41	1079.38
537.76	1082.43
538.12	1082.36
538.47	1082.57
538.83	1081.07
539.18	1076.88
539.54	1078.85
539.89	1081.87
540.25	1080.81
540.60	1081.58
540.96	1083.22
541.31	1080.16
541.67	1077.70
542.02	1080.18
542.38	1079.46
542.73	1080.23
543.09	1084.67
543.44	1083.88
543.80	1082.94
544.15	1088.02
544.51	1084.84
544.86	1082.36
545.22	1083.86
545.57	1086.01
545.93	1082.94
546.28	1083.20
546.64	1082.66
546.99	1081.68
547.35	1078.87
547.70	1081.94
548.05	1082.99
548.41	1081.02
548.76	1079.83
549.12	1079.62
549.47	1075.22
549.83	1073.02
550.18	1071.97
550.53	1073.86
550.89	1075.87
551.24	1078.26
551.60	1081.12
551.95	1083.06
552.30	1081.63
552.66	1080.46
553.01	1079.57
553.37	1078.36
553.72	1077.93
554.07	1079.67
554.43	1079.78
554.78	1080.84
555.13	1079.55
555.49	1081.30
555.84	1078.78
556.19	1077.37
556.55	1075.48
556.90	1077.84
557.26	1077.58
557.61	1077.00
557.96	1079.76
558.32	1081.49
558.67	1081.00
559.02	1080.30
559.37	1082.05
559.73	1080.16
560.08	1079.64
560.43	1078.40
560.79	1078.03
561.14	1077.98
561.49	1076.60
561.85	1079.50
562.20	1080.27
562.55	1082.80
562.90	1082.24
563.26	1081.54
563.61	1079.64
563.96	1080.53
564.32	1076.67
564.67	1073.39
565.02	1073.23
565.37	1067.38
565.73	1067.64
566.08	1071.97
566.43	1075.43
566.78	1076.44
567.14	1080.81
567.49	1080.86
567.84	1076.72
568.19	1079.90
568.54	1080.88
568.90	1079.76
569.25	1079.67
569.60	1080.11
569.95	1076.76
570.31	1077.09
570.66	1076.48
571.01	1073.02
571.36	1073.04
571.71	1075.62
572.06	1072.04
572.42	1073.53
572.77	1073.70
573.12	1074.75
573.47	1072.57
573.82	1077.68
574.18	1077.75
574.53	1082.59
574.88	1080.48
575.23	1078.99
575.58	1075.41
575.93	1073.28
576.28	1068.95
576.64	1071.24
576.99	1073.77
577.34	1074.61
577.69	1075.13
578.04	1073.91
578.39	1071.80
578.74	1069.93
579.09	1071.99
579.44	1072.34
579.80	1075.64
580.15	1076.86
580.50	1076.23
580.85	1073.39
581.20	1073.35
581.55	1071.66
581.90	1069.79
582.25	1071.24
582.60	1071.05
582.95	1071.80
583.30	1074.07
583.65	1074.40
584.00	1070.05
584.35	1068.59
584.71	1069.91
585.06	1070.00
585.41	1073.07
585.76	1076.90
586.11	1078.59
586.46	1076.76
586.81	1075.83
587.16	1074.33
587.51	1073.95
587.86	1073.74
588.21	1074.10
588.56	1072.83
588.91	1072.25
589.26	1070.05
589.61	1070.49
589.96	1069.53
590.31	1071.10
590.66	1072.22
591.01	1073.30
591.36	1072.50
591.71	1074.03
592.06	1074.96
592.41	1075.10
592.76	1073.51
593.10	1075.92
593.45	1075.38
593.80	1073.30
594.15	1071.17
594.50	1073.70
594.85	1072.64
595.20	1072.76
595.55	1074.38
595.90	1074.66
596.25	1077.30
596.60	1078.61
596.95	1078.73
597.30	1076.44
597.64	1088.21
597.99	1085.19
598.34	1086.10
598.69	1085.28
599.04	1085.99
599.39	1073.23
599.74	1074.91
600.09	1072.81
600.44	1071.87
600.78	1072.81
601.13	1073.46
601.48	1072.64
601.83	1074.56
602.18	1074.70
602.53	1073.72
602.88	1075.52
603.22	1076.37
603.57	1072.25
603.92	1072.55
604.27	1072.88
604.62	1071.94
604.97	1069.27
605.31	1072.81
605.66	1071.99
606.01	1072.04
606.36	1074.80
606.71	1075.80
607.05	1072.55
607.40	1075.50
607.75	1075.24
608.10	1073.77
608.44	1075.97
608.79	1080.06
609.14	1078.94
609.49	1078.50
609.84	1078.14
610.18	1076.95
610.53	1075.05
610.88	1077.49
611.23	1076.62
611.57	1077.37
611.92	1077.93
612.27	1078.47
612.62	1076.53
612.96	1075.69
613.31	1073.58
613.66	1073.14
614.00	1070.35
614.35	1072.06
614.70	1074.54
615.05	1074.63
615.39	1074.70
615.74	1078.19
616.09	1076.58
616.43	1076.06
616.78	1076.01
617.13	1076.69
617.47	1077.65
617.82	1078.43
618.17	1078.43
618.51	1079.34
618.86	1080.63
619.21	1078.82
619.55	1076.13
619.90	1076.55
620.25	1077.00
620.59	1073.04
620.94	1071.54
621.29	1071.15
621.63	1072.41
621.98	1068.69
622.32	1071.54
622.67	1073.91
623.02	1074.84
623.36	1074.63
623.71	1075.36
624.05	1075.10
624.40	1075.38
624.75	1075.92
625.09	1073.63
625.44	1075.45
625.78	1073.53
626.13	1071.01
626.48	1068.90
626.82	1068.97
627.17	1070.96
627.51	1069.72
627.86	1070.28
628.20	1076.79
628.55	1078.59
628.89	1076.41
629.24	1079.67
629.58	1078.19
629.93	1078.43
630.28	1078.05
630.62	1080.16
630.97	1078.03
631.31	1081.94
631.66	1078.07
632.00	1079.38
632.35	1079.90
632.69	1082.10
633.04	1078.21
633.38	1075.94
633.73	1074.96
634.07	1075.24
634.42	1076.13
634.76	1078.19
635.11	1080.02
635.45	1077.35
635.79	1073.35
636.14	1071.94
636.48	1072.97
636.83	1071.59
637.17	1075.71
637.52	1079.24
637.86	1078.73
638.21	1076.55
638.55	1079.53
638.89	1074.91
639.24	1073.28
639.58	1074.38
639.93	1074.40
640.27	1073.11
640.61	1077.28
640.96	1078.85
641.30	1079.57
641.65	1082.08
641.99	1081.23
642.33	1079.24
642.68	1077.89
643.02	1077.16
643.37	1077.65
643.71	1077.49
644.05	1079.36
644.40	1079.81
644.74	1079.88
645.08	1078.07
645.43	1075.50
645.77	1071.90
646.11	1069.11
646.46	1067.07
646.80	1068.52
647.14	1069.55
647.49	1070.63
647.83	1071.87
648.17	1069.72
648.52	1069.67
648.86	1072.27
649.20	1075.85
649.55	1077.21
649.89	1078.00
650.23	1077.02
650.57	1076.32
650.92	1076.53
651.26	1078.07
651.60	1077.02
651.95	1075.57
652.29	1076.65
652.63	1074.42
652.97	1070.70
653.32	1072.90
653.66	1073.98
654.00	1073.49
654.34	1073.65
654.69	1072.81
655.03	1073.63
655.37	1074.33
655.71	1072.83
656.05	1070.47
656.40	1071.01
656.74	1069.88
657.08	1069.41
657.42	1069.02
657.76	1070.98
658.11	1074.40
658.45	1075.41
658.79	1073.46
659.13	1078.73
659.47	1079.20
659.82	1077.98
660.16	1079.13
660.50	1079.08
660.84	1077.44
661.18	1079.57
661.52	1078.89
661.87	1078.66
662.21	1079.20
662.55	1076.30
662.89	1073.79
663.23	1074.19
663.57	1074.98
663.91	1076.76
664.25	1079.01
664.60	1079.29
664.94	1079.99
665.28	1076.90
665.62	1075.38
665.96	1072.32
666.30	1075.92
666.64	1074.10
666.98	1073.37
667.32	1072.83
667.66	1075.08
668.01	1071.45
668.35	1073.28
668.69	1078.05
669.03	1078.96
669.37	1078.28
669.71	1077.51
670.05	1074.89
670.39	1070.75
670.73	1069.84
671.07	1071.87
671.41	1071.50
671.75	1072.15
672.09	1072.57
672.43	1071.92
672.77	1071.59
673.11	1073.30
673.45	1074.14
673.79	1075.97
674.13	1078.87
674.47	1075.80
674.81	1073.81
675.15	1073.81
675.49	1071.90
675.83	1070.75
676.17	1071.29
676.51	1073.30
676.85	1074.42
677.19	1074.59
677.53	1076.15
677.87	1075.80
678.21	1073.98
678.55	1070.09
678.89	1071.59
679.23	1070.12
679.57	1073.77
679.90	1073.28
680.24	1075.24
680.58	1074.89
680.92	1074.28
681.26	1072.15
681.60	1071.85
681.94	1073.46
682.28	1074.63
682.62	1072.88
682.96	1074.73
683.29	1074.26
683.63	1072.88
683.97	1072.60
684.31	1077.11
684.65	1073.81
684.99	1077.09
685.33	1075.50
685.67	1073.02
686.00	1070.91
686.34	1073.63
686.68	1069.20
687.02	1069.95
687.36	1069.88
687.70	1068.99
688.03	1066.72
688.37	1066.75
688.71	1067.40
689.05	1070.91
689.39	1073.63
689.72	1076.37
690.06	1078.64
690.40	1078.75
690.74	1074.28
691.08	1070.98
691.41	1071.94
691.75	1072.90
692.09	1071.68
692.43	1072.41
692.76	1072.29
693.10	1068.67
693.44	1069.32
693.78	1069.13
694.11	1072.22
694.45	1070.70
694.79	1070.56
695.13	1072.43
695.46	1074.98
695.80	1074.10
696.14	1078.00
696.48	1077.86
696.81	1075.59
697.15	1076.01
697.49	1077.65
697.82	1078.21
698.16	1079.57
698.50	1077.54
698.83	1076.97
699.17	1075.15
699.51	1073.49
699.84	1071.08
700.18	1072.22
700.52	1070.07
700.85	1069.70
701.19	1067.05
701.53	1071.71
701.86	1073.72
702.20	1077.72
702.54	1077.00
702.87	1076.86
703.21	1075.50
703.55	1075.05
703.88	1071.22
704.22	1070.30
704.55	1075.31
704.89	1073.70
705.23	1072.27
705.56	1075.01
705.90	1078.94
706.23	1077.42
706.57	1078.40
706.91	1078.47
707.24	1075.27
707.58	1074.61
707.91	1074.56
708.25	1075.05
708.58	1075.43
708.92	1078.71
709.26	1077.70
709.59	1078.21
709.93	1077.21
710.26	1079.24
710.60	1079.20
710.93	1079.17
711.27	1076.90
711.60	1078.73
711.94	1076.79
712.27	1077.16
712.61	1075.38
712.94	1076.55
713.28	1074.33
713.61	1076.20
713.95	1077.51
714.28	1078.85
714.62	1078.31
714.95	1076.95
715.29	1073.91
715.62	1070.84
715.96	1069.44
716.29	1068.48
716.63	1068.78
716.96	1070.05
717.29	1073.32
717.63	1073.35
717.96	1073.21
718.30	1073.77
718.63	1072.41
718.97	1066.56
719.30	1067.26
719.63	1067.78
719.97	1068.27
720.30	1069.34
720.64	1069.30
720.97	1068.74
721.30	1067.26
721.64	1065.46
721.97	1065.86
722.31	1067.38
722.64	1069.44
722.97	1073.16
723.31	1071.97
723.64	1070.44
723.97	1074.10
724.31	1075.48
724.64	1074.75
724.98	1075.97
725.31	1076.97
725.64	1073.67
725.98	1069.98
726.31	1068.57
726.64	1071.15
726.97	1073.16
727.31	1073.93
727.64	1075.08
727.97	1077.21
728.31	1078.80
728.64	1077.33
728.97	1080.60
729.31	1081.63
729.64	1081.73
729.97	1080.65
730.30	1080.37
730.64	1078.38
730.97	1080.74
731.30	1079.41
731.63	1078.36
731.97	1080.23
732.30	1080.93
732.63	1077.23
732.96	1078.82
733.30	1081.54
733.63	1080.23
733.96	1079.22
734.29	1080.72
734.63	1079.01
734.96	1074.68
735.29	1073.25
735.62	1072.53
735.95	1076.51
736.29	1076.20
736.62	1076.39
736.95	1078.96
737.28	1080.09
737.61	1077.54
737.94	1079.06
738.28	1080.48
738.61	1078.31
738.94	1075.62
739.27	1077.00
739.60	1076.04
739.93	1075.34
740.27	1078.07
740.60	1078.82
740.93	1074.35
741.26	1072.53
741.59	1071.38
741.92	1067.85
742.25	1066.47
742.58	1066.56
742.91	1067.05
743.25	1068.76
743.58	1071.05
743.91	1072.78
744.24	1072.29
744.57	1077.16
744.90	1078.40
745.23	1078.38
745.56	1077.56
745.89	1080.39
746.22	1078.66
746.55	1077.16
746.88	1074.68
747.21	1074.45
747.54	1074.00
747.87	1071.50
748.20	1071.08
748.53	1071.94
748.87	1074.96
749.20	1071.80
749.53	1072.46
749.86	1073.44
750.19	1072.50
750.52	1069.25
750.85	1073.21
751.18	1072.41
751.51	1071.85
751.84	1073.58
752.16	1072.78
752.49	1069.11
752.82	1071.01
753.15	1073.25
753.48	1072.55
753.81	1076.37
754.14	1077.07
754.47	1075.38
754.80	1070.16
755.13	1070.56
755.46	1071.24
755.79	1073.49
756.12	1075.22
756.45	1077.49
756.78	1075.50
757.11	1072.48
757.43	1074.24
757.76	1069.84
758.09	1073.23
758.42	1078.82
758.75	1080.32
759.08	1079.85
759.41	1083.83
759.74	1080.51
760.07	1075.69
760.39	1074.12
760.72	1073.65
761.05	1070.02
761.38	1072.20
761.71	1072.95
762.04	1073.58
762.36	1072.13
762.69	1075.73
763.02	1073.74
763.35	1072.92
763.68	1073.00
764.01	1073.02
764.33	1073.28
764.66	1074.26
764.99	1077.35
765.32	1078.73
765.65	1074.66
765.97	1073.30
766.30	1071.73
