SpectraSuite Data File
++++++++++++++++++++++++++++++++++++
Date: Mon Aug 26 10:22:31 PDT 2019
User: corrico
Dark Spectrum Present: No
Reference Spectrum Present: No
Number of Sampled Component Spectra: 1
Spectrometers: USB2+H06089
Integration Time (usec): 2000 (USB2+H06089)
Spectra Averaged: 20 (USB2+H06089)
Boxcar Smoothing: 2 (USB2+H06089)
Correct for Electrical Dark: No (USB2+H06089)
Strobe/Lamp Enabled: No (USB2+H06089)
Correct for Detector Non-linearity: No (USB2+H06089)
Correct for Stray Light: No (USB2+H06089)
Number of Pixels in Processed Spectrum: 2048
>>>>>Begin Processed Spectral Data<<<<<
339.70	1022.46
340.07	1022.46
340.45	990.23
340.82	968.63
341.19	947.24
341.57	922.43
341.94	913.86
342.31	904.29
342.69	901.86
343.06	899.63
343.43	902.77
343.81	904.13
344.18	909.02
344.55	910.28
344.93	913.18
345.30	915.90
345.67	920.63
346.04	928.51
346.42	939.26
346.79	949.34
347.16	957.49
347.54	968.77
347.91	975.25
348.28	984.27
348.65	989.23
349.03	1002.36
349.40	1007.88
349.77	1017.36
350.14	1023.07
350.52	1034.00
350.89	1038.36
351.26	1046.38
351.63	1051.77
352.01	1058.25
352.38	1063.07
352.75	1066.07
353.12	1069.51
353.50	1070.75
353.87	1074.47
354.24	1075.69
354.61	1077.28
354.98	1076.97
355.36	1081.23
355.73	1081.42
356.10	1082.94
356.47	1085.66
356.84	1089.89
357.22	1089.54
357.59	1087.62
357.96	1087.09
358.33	1089.22
358.70	1087.34
359.08	1085.49
359.45	1086.80
359.82	1087.81
360.19	1081.19
360.56	1083.13
360.94	1084.32
361.31	1084.70
361.68	1084.25
362.05	1085.07
362.42	1080.44
362.79	1078.85
363.16	1077.18
363.54	1075.45
363.91	1076.74
364.28	1076.58
364.65	1076.76
365.02	1077.30
365.39	1077.33
365.76	1077.14
366.14	1074.17
366.51	1078.14
366.88	1078.40
367.25	1071.61
367.62	1070.40
367.99	1072.29
368.36	1069.67
368.73	1070.37
369.10	1073.86
369.48	1070.61
369.85	1071.66
370.22	1070.72
370.59	1067.82
370.96	1070.30
371.33	1075.15
371.70	1075.97
372.07	1076.39
372.44	1078.12
372.81	1080.25
373.18	1077.11
373.55	1077.07
373.93	1077.04
374.30	1075.97
374.67	1076.23
375.04	1080.98
375.41	1084.37
375.78	1085.80
376.15	1084.74
376.52	1081.19
376.89	1078.54
377.26	1077.96
377.63	1076.13
378.00	1079.22
378.37	1080.67
378.74	1079.74
379.11	1076.74
379.48	1078.89
379.85	1078.26
380.22	1078.85
380.59	1081.89
380.96	1080.34
381.33	1080.65
381.70	1078.14
382.07	1080.27
382.44	1078.50
382.81	1080.53
383.18	1079.24
383.55	1082.73
383.92	1080.56
384.29	1083.34
384.66	1084.02
385.03	1087.41
385.40	1085.84
385.77	1088.98
386.14	1085.24
386.51	1086.92
386.88	1085.14
387.25	1083.74
387.62	1084.11
387.99	1086.31
388.36	1086.92
388.73	1083.48
389.10	1086.41
389.46	1084.98
389.83	1085.28
390.20	1084.18
390.57	1087.32
390.94	1088.58
391.31	1087.58
391.68	1088.00
392.05	1086.71
392.42	1085.68
392.79	1086.59
393.16	1086.76
393.53	1086.29
393.89	1089.22
394.26	1091.39
394.63	1088.61
395.00	1090.03
395.37	1091.93
395.74	1089.22
396.11	1089.96
396.48	1090.50
396.84	1090.88
397.21	1088.93
397.58	1090.71
397.95	1087.32
398.32	1087.48
398.69	1088.70
399.06	1089.89
399.42	1090.81
399.79	1093.24
400.16	1096.59
400.53	1095.49
400.90	1096.73
401.27	1094.53
401.64	1096.56
402.00	1094.32
402.37	1095.07
402.74	1093.19
403.11	1093.73
403.48	1092.23
403.84	1090.95
404.21	1088.96
404.58	1088.98
404.95	1088.98
405.32	1089.61
405.68	1089.73
406.05	1090.97
406.42	1092.26
406.79	1095.53
407.16	1092.30
407.52	1094.04
407.89	1095.32
408.26	1094.27
408.63	1092.66
408.99	1096.54
409.36	1096.82
409.73	1093.73
410.10	1093.50
410.47	1090.48
410.83	1089.24
411.20	1090.20
411.57	1094.39
411.94	1096.47
412.30	1099.56
412.67	1100.75
413.04	1101.48
413.40	1100.82
413.77	1099.93
414.14	1096.28
414.51	1097.73
414.87	1099.21
415.24	1096.92
415.61	1097.15
415.97	1099.91
416.34	1098.93
416.71	1097.43
417.08	1099.00
417.44	1101.15
417.81	1104.85
418.18	1104.69
418.54	1108.85
418.91	1111.85
419.28	1113.14
419.64	1112.55
420.01	1117.61
420.38	1117.09
420.74	1119.53
421.11	1121.91
421.48	1123.57
421.84	1122.92
422.21	1124.96
422.58	1127.30
422.94	1130.74
423.31	1135.74
423.68	1140.10
424.04	1139.23
424.41	1138.23
424.77	1137.85
425.14	1139.12
425.51	1141.71
425.87	1153.02
426.24	1158.40
426.61	1167.08
426.97	1171.20
427.34	1178.37
427.70	1179.79
428.07	1185.08
428.44	1193.39
428.80	1205.05
429.17	1208.21
429.53	1218.34
429.90	1232.39
430.27	1237.70
430.63	1247.97
431.00	1260.61
431.36	1271.22
431.73	1281.58
432.09	1295.74
432.46	1308.48
432.83	1323.39
433.19	1341.78
433.56	1358.80
433.92	1377.43
434.29	1396.13
434.65	1420.24
435.02	1441.65
435.38	1472.06
435.75	1498.90
436.11	1529.77
436.48	1560.95
436.84	1596.13
437.21	1630.04
437.57	1668.43
437.94	1710.09
438.30	1750.98
438.67	1797.39
439.03	1843.69
439.40	1897.05
439.76	1950.70
440.13	2015.65
440.49	2082.30
440.86	2150.65
441.22	2231.02
441.59	2309.76
441.95	2393.83
442.32	2479.63
442.68	2574.71
443.05	2662.97
443.41	2763.92
443.78	2862.85
444.14	2970.26
444.51	3084.71
444.87	3221.33
445.24	3360.52
445.60	3507.48
445.96	3662.17
446.33	3833.24
446.69	3998.74
447.06	4177.11
447.42	4365.73
447.79	4559.36
448.15	4779.63
448.51	5015.72
448.88	5281.35
449.24	5528.95
449.61	5811.06
449.97	6086.07
450.33	6369.02
450.70	6626.20
451.06	6959.16
451.43	7270.15
451.79	7637.54
452.15	8039.51
452.52	8505.09
452.88	8978.13
453.24	9519.33
453.61	10094.15
453.97	10666.92
454.34	11215.38
454.70	11855.23
455.06	12498.27
455.43	13135.44
455.79	13727.01
456.15	14448.38
456.52	15122.67
456.88	15907.17
457.24	16640.90
457.61	17518.14
457.97	18278.30
458.33	19046.09
458.70	19801.24
459.06	20570.20
459.42	21391.65
459.79	22190.83
460.15	23103.99
460.51	23973.99
460.88	24899.77
461.24	25697.58
461.60	26680.40
461.96	27567.74
462.33	28413.19
462.69	29195.96
463.05	30053.74
463.42	30735.49
463.78	31394.19
464.14	31956.08
464.50	32573.63
464.87	33057.61
465.23	33433.05
465.59	33774.89
465.95	34077.15
466.32	34326.09
466.68	34557.92
467.04	34695.75
467.40	34817.43
467.77	34976.64
468.13	34957.70
468.49	34846.13
468.85	34758.57
469.22	34575.12
469.58	34199.72
469.94	33945.12
470.30	33628.40
470.66	33211.83
471.03	32624.07
471.39	32224.47
471.75	31551.80
472.11	30927.77
472.47	30535.42
472.84	30218.87
473.20	29741.54
473.56	29490.70
473.92	29069.29
474.28	28583.18
474.65	28099.89
475.01	27622.44
475.37	27059.12
475.73	26618.51
476.09	26079.61
476.45	25563.64
476.81	25058.62
477.18	24506.63
477.54	24047.72
477.90	23684.16
478.26	23263.45
478.62	22920.12
478.98	22652.64
479.34	22355.67
479.71	21962.74
480.07	21593.53
480.43	21215.69
480.79	20815.32
481.15	20439.71
481.51	20118.36
481.87	19896.15
482.23	19616.31
482.59	19361.94
482.96	19079.53
483.32	18788.02
483.68	18398.81
484.04	18053.98
484.40	17684.27
484.76	17318.07
485.12	16939.88
485.48	16621.50
485.84	16266.96
486.20	15909.98
486.56	15532.31
486.92	15222.70
487.28	14853.55
487.64	14497.79
488.00	14174.24
488.37	13854.03
488.73	13499.25
489.09	13141.62
489.45	12828.52
489.81	12502.28
490.17	12196.67
490.53	11893.22
490.89	11594.90
491.25	11278.88
491.61	10964.29
491.97	10647.49
492.33	10323.96
492.69	10033.39
493.05	9741.50
493.41	9452.82
493.77	9172.18
494.13	8921.77
494.49	8668.76
494.85	8423.87
495.21	8208.28
495.57	7992.23
495.93	7777.60
496.29	7573.67
496.64	7391.20
497.00	7194.17
497.36	7019.29
497.72	6837.83
498.08	6658.00
498.44	6467.37
498.80	6298.71
499.16	6119.24
499.52	5952.90
499.88	5821.73
500.24	5707.21
500.60	5584.96
500.96	5478.37
501.32	5368.18
501.68	5240.44
502.03	5101.71
502.39	4975.51
502.75	4837.77
503.11	4709.27
503.47	4591.01
503.83	4472.30
504.19	4348.88
504.55	4239.01
504.91	4140.17
505.26	4037.38
505.62	3955.08
505.98	3865.56
506.34	3771.28
506.70	3677.36
507.06	3596.09
507.42	3507.76
507.78	3432.28
508.13	3361.81
508.49	3287.96
508.85	3222.89
509.21	3156.54
509.57	3085.06
509.93	3019.41
510.28	2957.95
510.64	2886.02
511.00	2823.76
511.36	2769.86
511.72	2715.28
512.07	2667.49
512.43	2619.04
512.79	2565.81
513.15	2515.07
513.51	2471.79
513.86	2426.95
514.22	2386.20
514.58	2348.33
514.94	2309.85
515.30	2269.43
515.65	2229.48
516.01	2199.00
516.37	2168.25
516.73	2138.73
517.08	2111.07
517.44	2082.96
517.80	2051.41
518.16	2020.91
518.51	1992.59
518.87	1968.18
519.23	1940.87
519.59	1912.97
519.94	1891.74
520.30	1869.57
520.66	1839.82
521.01	1814.83
521.37	1788.15
521.73	1765.33
522.09	1742.55
522.44	1725.12
522.80	1705.31
523.16	1693.59
523.51	1674.89
523.87	1655.39
524.23	1635.47
524.58	1619.16
524.94	1598.84
525.30	1580.45
525.65	1563.45
526.01	1548.12
526.37	1532.79
526.72	1519.80
527.08	1506.72
527.44	1495.49
527.79	1484.18
528.15	1473.51
528.51	1459.72
528.86	1446.90
529.22	1433.55
529.58	1421.92
529.93	1408.82
530.29	1403.62
530.65	1397.51
531.00	1391.21
531.36	1381.41
531.71	1375.18
532.07	1362.45
532.43	1350.44
532.78	1342.93
533.14	1333.78
533.49	1323.81
533.85	1321.02
534.21	1316.18
534.56	1308.78
534.92	1301.76
535.27	1295.67
535.63	1283.74
535.98	1274.63
536.34	1268.48
536.69	1266.91
537.05	1262.46
537.41	1260.19
537.76	1257.50
538.12	1251.91
538.47	1247.06
538.83	1243.06
539.18	1237.30
539.54	1234.59
539.89	1232.92
540.25	1226.96
540.60	1224.43
540.96	1221.41
541.31	1218.37
541.67	1216.07
542.02	1213.01
542.38	1206.99
542.73	1202.54
543.09	1198.45
543.44	1194.19
543.80	1189.39
544.15	1186.02
544.51	1186.37
544.86	1182.72
545.22	1178.65
545.57	1179.14
545.93	1177.90
546.28	1173.99
546.64	1173.87
546.99	1174.90
547.35	1172.47
547.70	1170.15
548.05	1169.85
548.41	1164.60
548.76	1163.55
549.12	1159.38
549.47	1157.84
549.83	1152.32
550.18	1151.64
550.53	1142.60
550.89	1145.20
551.24	1144.10
551.60	1145.25
551.95	1143.54
552.30	1145.95
552.66	1142.23
553.01	1140.38
553.37	1138.72
553.72	1136.80
554.07	1137.03
554.43	1136.73
554.78	1132.52
555.13	1130.22
555.49	1129.07
555.84	1127.13
556.19	1124.16
556.55	1124.79
556.90	1125.94
557.26	1127.53
557.61	1128.89
557.96	1125.91
558.32	1127.48
558.67	1121.42
559.02	1117.79
559.37	1114.42
559.73	1113.16
560.08	1115.12
560.43	1117.77
560.79	1118.33
561.14	1120.04
561.49	1122.10
561.85	1117.44
562.20	1116.20
562.55	1113.72
562.90	1108.69
563.26	1106.93
563.61	1104.57
563.96	1103.94
564.32	1104.78
564.67	1105.97
565.02	1106.46
565.37	1105.97
565.73	1107.40
566.08	1108.59
566.43	1106.00
566.78	1106.86
567.14	1105.20
567.49	1104.01
567.84	1101.39
568.19	1099.89
568.54	1095.44
568.90	1097.10
569.25	1095.39
569.60	1093.17
569.95	1094.65
570.31	1097.52
570.66	1098.74
571.01	1100.10
571.36	1099.70
571.71	1098.74
572.06	1097.50
572.42	1094.29
572.77	1091.09
573.12	1090.74
573.47	1093.47
573.82	1094.50
574.18	1095.91
574.53	1097.59
574.88	1100.19
575.23	1098.76
575.58	1098.30
575.93	1095.86
576.28	1093.83
576.64	1090.50
576.99	1092.40
577.34	1091.98
577.69	1096.19
578.04	1096.05
578.39	1101.34
578.74	1098.02
579.09	1095.53
579.44	1093.90
579.80	1096.70
580.15	1089.00
580.50	1088.75
580.85	1089.94
581.20	1089.36
581.55	1085.94
581.90	1089.94
582.25	1088.42
582.60	1089.07
582.95	1090.99
583.30	1090.32
583.65	1090.95
584.00	1092.49
584.35	1090.74
584.71	1087.69
585.06	1090.92
585.41	1090.92
585.76	1089.82
586.11	1090.92
586.46	1091.65
586.81	1089.68
587.16	1088.26
587.51	1090.01
587.86	1089.75
588.21	1090.76
588.56	1090.03
588.91	1091.06
589.26	1089.29
589.61	1089.92
589.96	1087.39
590.31	1086.03
590.66	1085.52
591.01	1086.57
591.36	1087.58
591.71	1088.49
592.06	1089.99
592.41	1087.81
592.76	1086.62
593.10	1081.87
593.45	1082.10
593.80	1084.51
594.15	1086.29
594.50	1087.30
594.85	1089.99
595.20	1089.45
595.55	1088.42
595.90	1087.37
596.25	1086.31
596.60	1087.18
596.95	1087.51
597.30	1086.31
597.64	1097.36
597.99	1094.88
598.34	1093.26
598.69	1096.07
599.04	1096.52
599.39	1083.62
599.74	1086.20
600.09	1084.46
600.44	1085.14
600.78	1082.92
601.13	1088.96
601.48	1087.20
601.83	1086.13
602.18	1081.66
602.53	1084.65
602.88	1080.46
603.22	1081.51
603.57	1088.63
603.92	1091.46
604.27	1090.29
604.62	1089.57
604.97	1090.60
605.31	1089.47
605.66	1087.58
606.01	1088.19
606.36	1085.12
606.71	1083.88
607.05	1082.71
607.40	1083.22
607.75	1081.70
608.10	1085.52
608.44	1087.83
608.79	1086.66
609.14	1088.58
609.49	1090.06
609.84	1092.89
610.18	1089.31
610.53	1090.67
610.88	1086.85
611.23	1086.99
611.57	1084.39
611.92	1086.17
612.27	1084.44
612.62	1086.31
612.96	1084.86
613.31	1084.63
613.66	1087.09
614.00	1084.89
614.35	1083.83
614.70	1083.60
615.05	1082.10
615.39	1080.04
615.74	1080.91
616.09	1078.47
616.43	1077.35
616.78	1078.45
617.13	1079.69
617.47	1080.95
617.82	1080.25
618.17	1081.05
618.51	1079.69
618.86	1077.82
619.21	1077.56
619.55	1079.97
619.90	1081.14
620.25	1084.30
620.59	1081.89
620.94	1081.14
621.29	1082.66
621.63	1085.70
621.98	1088.04
622.32	1090.20
622.67	1088.23
623.02	1088.84
623.36	1088.37
623.71	1084.98
624.05	1085.68
624.40	1090.39
624.75	1091.65
625.09	1090.20
625.44	1089.17
625.78	1091.23
626.13	1086.92
626.48	1082.94
626.82	1081.96
627.17	1081.19
627.51	1080.70
627.86	1083.55
628.20	1085.21
628.55	1086.92
628.89	1087.25
629.24	1087.09
629.58	1086.17
629.93	1084.70
630.28	1083.18
630.62	1084.35
630.97	1084.00
631.31	1085.00
631.66	1082.73
632.00	1084.42
632.35	1085.99
632.69	1085.96
633.04	1084.79
633.38	1089.38
633.73	1086.99
634.07	1086.66
634.42	1083.86
634.76	1081.58
635.11	1079.85
635.45	1081.42
635.79	1082.29
636.14	1083.93
636.48	1087.62
636.83	1087.93
637.17	1088.02
637.52	1086.94
637.86	1086.24
638.21	1083.25
638.55	1083.79
638.89	1082.01
639.24	1080.91
639.58	1078.33
639.93	1079.81
640.27	1078.61
640.61	1078.75
640.96	1077.72
641.30	1082.90
641.65	1080.41
641.99	1078.87
642.33	1077.79
642.68	1079.67
643.02	1080.09
643.37	1086.36
643.71	1089.87
644.05	1094.46
644.40	1096.42
644.74	1096.07
645.08	1092.77
645.43	1091.77
645.77	1089.87
646.11	1087.90
646.46	1085.82
646.80	1087.41
647.14	1089.40
647.49	1089.75
647.83	1088.51
648.17	1090.57
648.52	1090.13
648.86	1084.65
649.20	1085.33
649.55	1087.30
649.89	1085.42
650.23	1086.64
650.57	1089.75
650.92	1086.15
651.26	1085.14
651.60	1087.93
651.95	1084.67
652.29	1085.52
652.63	1086.03
652.97	1086.36
653.32	1084.63
653.66	1083.53
654.00	1083.55
654.34	1085.42
654.69	1084.02
655.03	1085.17
655.37	1086.45
655.71	1082.71
656.05	1083.90
656.40	1085.45
656.74	1081.68
657.08	1082.90
657.42	1085.47
657.76	1086.34
658.11	1085.42
658.45	1087.11
658.79	1086.97
659.13	1089.66
659.47	1084.84
659.82	1082.43
660.16	1084.67
660.50	1082.71
660.84	1081.54
661.18	1083.76
661.52	1083.67
661.87	1080.30
662.21	1080.91
662.55	1082.73
662.89	1083.53
663.23	1085.82
663.57	1089.92
663.91	1090.15
664.25	1089.24
664.60	1088.40
664.94	1088.49
665.28	1084.39
665.62	1084.37
665.96	1083.13
666.30	1081.09
666.64	1081.44
666.98	1082.36
667.32	1080.04
667.66	1081.44
668.01	1083.48
668.35	1084.93
668.69	1084.42
669.03	1088.56
669.37	1086.34
669.71	1083.57
670.05	1079.62
670.39	1080.16
670.73	1080.58
671.07	1078.64
671.41	1081.37
671.75	1082.61
672.09	1081.66
672.43	1079.90
672.77	1080.70
673.11	1078.96
673.45	1078.73
673.79	1080.77
674.13	1079.55
674.47	1081.54
674.81	1081.56
675.15	1082.40
675.49	1082.10
675.83	1086.27
676.17	1086.52
676.51	1086.71
676.85	1087.72
677.19	1088.35
677.53	1085.26
677.87	1084.70
678.21	1084.67
678.55	1084.16
678.89	1083.46
679.23	1082.26
679.57	1081.77
679.90	1082.64
680.24	1081.14
680.58	1079.41
680.92	1078.52
681.26	1078.71
681.60	1078.33
681.94	1078.57
682.28	1081.02
682.62	1082.69
682.96	1082.52
683.29	1082.15
683.63	1083.55
683.97	1082.26
684.31	1081.37
684.65	1083.34
684.99	1085.31
685.33	1082.57
685.67	1082.50
686.00	1081.73
686.34	1078.96
686.68	1079.38
687.02	1078.82
687.36	1078.24
687.70	1081.23
688.03	1081.21
688.37	1076.65
688.71	1077.98
689.05	1079.17
689.39	1080.11
689.72	1078.52
690.06	1083.41
690.40	1084.23
690.74	1083.15
691.08	1081.75
691.41	1083.48
691.75	1079.55
692.09	1079.76
692.43	1080.98
692.76	1079.03
693.10	1078.05
693.44	1082.05
693.78	1083.15
694.11	1084.21
694.45	1084.11
694.79	1086.87
695.13	1087.37
695.46	1088.35
695.80	1089.05
696.14	1090.74
696.48	1088.00
696.81	1083.53
697.15	1081.49
697.49	1077.98
697.82	1076.67
698.16	1077.63
698.50	1074.73
698.83	1074.35
699.17	1072.32
699.51	1072.48
699.84	1072.06
700.18	1078.47
700.52	1076.04
700.85	1077.51
701.19	1076.51
701.53	1075.22
701.86	1073.88
702.20	1077.89
702.54	1076.65
702.87	1077.51
703.21	1079.08
703.55	1075.83
703.88	1073.98
704.22	1075.22
704.55	1078.94
704.89	1078.75
705.23	1082.43
705.56	1083.08
705.90	1084.07
706.23	1084.23
706.57	1083.69
706.91	1081.94
707.24	1080.91
707.58	1079.69
707.91	1077.21
708.25	1079.78
708.58	1081.05
708.92	1080.04
709.26	1080.63
709.59	1076.76
709.93	1073.77
710.26	1072.15
710.60	1074.45
710.93	1074.75
711.27	1077.40
711.60	1078.99
711.94	1080.93
712.27	1079.90
712.61	1080.25
712.94	1083.22
713.28	1085.10
713.61	1085.52
713.95	1086.90
714.28	1087.51
714.62	1085.66
714.95	1083.93
715.29	1080.67
715.62	1082.71
715.96	1083.81
716.29	1081.77
716.63	1080.79
716.96	1082.52
717.29	1078.43
717.63	1077.00
717.96	1077.51
718.30	1076.01
718.63	1075.85
718.97	1077.35
719.30	1081.00
719.63	1082.01
719.97	1082.05
720.30	1084.37
720.64	1085.40
720.97	1081.68
721.30	1079.36
721.64	1080.91
721.97	1078.85
722.31	1078.38
722.64	1078.17
722.97	1081.35
723.31	1083.08
723.64	1082.92
723.97	1083.46
724.31	1083.81
724.64	1083.55
724.98	1079.06
725.31	1077.00
725.64	1075.13
725.98	1073.74
726.31	1072.34
726.64	1074.87
726.97	1081.51
727.31	1085.31
727.64	1089.29
727.97	1090.13
728.31	1092.26
728.64	1086.85
728.97	1082.19
729.31	1081.21
729.64	1077.18
729.97	1074.84
730.30	1076.15
730.64	1077.09
730.97	1074.77
731.30	1079.74
731.63	1078.40
731.97	1079.13
732.30	1081.80
732.63	1080.09
732.96	1078.73
733.30	1080.72
733.63	1079.92
733.96	1078.21
734.29	1081.54
734.63	1080.02
734.96	1079.34
735.29	1079.17
735.62	1077.84
735.95	1074.91
736.29	1074.52
736.62	1076.46
736.95	1074.21
737.28	1075.29
737.61	1074.73
737.94	1077.75
738.28	1076.90
738.61	1080.41
738.94	1084.23
739.27	1086.76
739.60	1086.36
739.93	1084.11
740.27	1081.00
740.60	1078.33
740.93	1078.80
741.26	1075.57
741.59	1077.61
741.92	1082.17
742.25	1082.50
742.58	1082.92
742.91	1086.43
743.25	1086.85
743.58	1082.10
743.91	1080.95
744.24	1077.93
744.57	1075.31
744.90	1075.87
745.23	1076.32
745.56	1075.15
745.89	1077.35
746.22	1076.67
746.55	1073.32
746.88	1073.67
747.21	1074.59
747.54	1074.21
747.87	1080.44
748.20	1082.78
748.53	1080.56
748.87	1081.42
749.20	1083.74
749.53	1077.86
749.86	1075.17
750.19	1079.38
750.52	1076.90
750.85	1075.41
751.18	1076.32
751.51	1081.42
751.84	1082.01
752.16	1081.96
752.49	1082.03
752.82	1082.87
753.15	1079.10
753.48	1078.87
753.81	1079.48
754.14	1078.47
754.47	1078.87
754.80	1079.17
755.13	1075.38
755.46	1075.15
755.79	1077.54
756.12	1079.38
756.45	1082.19
756.78	1085.40
757.11	1087.58
757.43	1086.57
757.76	1084.53
758.09	1082.64
758.42	1081.68
758.75	1079.60
759.08	1079.29
759.41	1080.65
759.74	1080.95
760.07	1080.32
760.39	1082.85
760.72	1081.54
761.05	1078.80
761.38	1080.27
761.71	1085.49
762.04	1082.90
762.36	1080.60
762.69	1084.72
763.02	1080.04
763.35	1074.40
763.68	1074.42
764.01	1077.75
