SpectraSuite Data File
++++++++++++++++++++++++++++++++++++
Date: Mon Aug 26 10:22:02 PDT 2019
User: corrico
Dark Spectrum Present: No
Reference Spectrum Present: No
Number of Sampled Component Spectra: 1
Spectrometers: USB2+H06089
Integration Time (usec): 2000 (USB2+H06089)
Spectra Averaged: 20 (USB2+H06089)
Boxcar Smoothing: 2 (USB2+H06089)
Correct for Electrical Dark: No (USB2+H06089)
Strobe/Lamp Enabled: No (USB2+H06089)
Correct for Detector Non-linearity: No (USB2+H06089)
Correct for Stray Light: No (USB2+H06089)
Number of Pixels in Processed Spectrum: 2048
>>>>>Begin Processed Spectral Data<<<<<
339.70	1030.89
340.07	1030.89
340.45	995.06
340.82	972.59
341.19	948.78
341.57	924.72
341.94	915.69
342.31	909.13
342.69	903.75
343.06	901.62
343.43	899.42
343.81	900.12
344.18	902.25
344.55	906.14
344.93	911.80
345.30	918.36
345.67	926.83
346.04	931.60
346.42	941.83
346.79	947.45
347.16	957.07
347.54	961.42
347.91	972.56
348.28	981.18
348.65	992.83
349.03	998.82
349.40	1012.66
349.77	1021.53
350.14	1029.30
350.52	1034.49
350.89	1044.56
351.26	1050.95
351.63	1056.99
352.01	1062.11
352.38	1068.03
352.75	1069.95
353.12	1069.20
353.50	1070.65
353.87	1072.50
354.24	1073.07
354.61	1074.73
354.98	1075.71
355.36	1078.66
355.73	1082.19
356.10	1080.44
356.47	1081.23
356.84	1085.24
357.22	1085.05
357.59	1085.03
357.96	1087.39
358.33	1090.03
358.70	1090.39
359.08	1087.60
359.45	1082.83
359.82	1085.59
360.19	1086.08
360.56	1086.20
360.94	1086.55
361.31	1085.45
361.68	1085.68
362.05	1085.00
362.42	1082.24
362.79	1084.04
363.16	1088.12
363.54	1085.54
363.91	1079.97
364.28	1077.93
364.65	1075.50
365.02	1072.11
365.39	1069.46
365.76	1067.64
366.14	1067.33
366.51	1069.09
366.88	1071.50
367.25	1072.85
367.62	1076.90
367.99	1077.40
368.36	1075.73
368.73	1073.98
369.10	1075.62
369.48	1075.38
369.85	1078.07
370.22	1078.94
370.59	1076.62
370.96	1074.80
371.33	1077.63
371.70	1076.23
372.07	1077.63
372.44	1080.56
372.81	1082.83
373.18	1078.17
373.55	1078.96
373.93	1078.12
374.30	1074.42
374.67	1077.72
375.04	1080.32
375.41	1079.50
375.78	1076.86
376.15	1078.57
376.52	1075.87
376.89	1074.75
377.26	1074.73
377.63	1078.33
378.00	1079.76
378.37	1080.65
378.74	1083.20
379.11	1083.08
379.48	1080.98
379.85	1079.74
380.22	1077.37
380.59	1076.93
380.96	1074.19
381.33	1073.81
381.70	1076.25
382.07	1075.87
382.44	1075.50
382.81	1077.18
383.18	1079.90
383.55	1076.81
383.92	1077.47
384.29	1078.96
384.66	1083.50
385.03	1082.22
385.40	1085.28
385.77	1084.86
386.14	1083.64
386.51	1079.46
386.88	1079.57
387.25	1081.12
387.62	1082.08
387.99	1084.21
388.36	1087.32
388.73	1088.40
389.10	1088.63
389.46	1085.42
389.83	1081.54
390.20	1081.44
390.57	1078.64
390.94	1078.54
391.31	1082.45
391.68	1083.34
392.05	1084.70
392.42	1083.25
392.79	1082.31
393.16	1080.02
393.53	1078.73
393.89	1078.59
394.26	1084.49
394.63	1087.72
395.00	1092.91
395.37	1095.21
395.74	1092.61
396.11	1090.32
396.48	1085.61
396.84	1082.83
397.21	1083.86
397.58	1085.75
397.95	1084.37
398.32	1084.63
398.69	1084.37
399.06	1080.18
399.42	1078.33
399.79	1079.31
400.16	1081.26
400.53	1080.70
400.90	1083.67
401.27	1086.15
401.64	1088.47
402.00	1089.85
402.37	1092.26
402.74	1093.03
403.11	1094.01
403.48	1091.06
403.84	1091.81
404.21	1092.96
404.58	1093.83
404.95	1094.83
405.32	1102.37
405.68	1099.82
406.05	1096.96
406.42	1097.52
406.79	1094.62
407.16	1089.64
407.52	1090.50
407.89	1091.63
408.26	1090.60
408.63	1093.10
408.99	1096.35
409.36	1097.29
409.73	1095.91
410.10	1098.32
410.47	1095.25
410.83	1091.18
411.20	1091.79
411.57	1094.46
411.94	1095.42
412.30	1098.41
412.67	1097.83
413.04	1098.16
413.40	1095.07
413.77	1093.03
414.14	1090.78
414.51	1094.95
414.87	1094.22
415.24	1097.80
415.61	1096.26
415.97	1100.15
416.34	1098.60
416.71	1100.57
417.08	1101.18
417.44	1107.40
417.81	1104.90
418.18	1108.10
418.54	1111.19
418.91	1110.65
419.28	1106.75
419.64	1108.10
420.01	1105.36
420.38	1105.01
420.74	1107.87
421.11	1109.09
421.48	1110.16
421.84	1114.63
422.21	1116.88
422.58	1119.85
422.94	1124.32
423.31	1127.34
423.68	1133.26
424.04	1135.07
424.41	1136.68
424.77	1140.00
425.14	1143.19
425.51	1145.60
425.87	1150.35
426.24	1151.96
426.61	1155.76
426.97	1163.27
427.34	1166.24
427.70	1167.20
428.07	1174.69
428.44	1183.49
428.80	1185.88
429.17	1196.32
429.53	1208.32
429.90	1219.19
430.27	1228.01
430.63	1241.47
431.00	1248.63
431.36	1260.57
431.73	1272.36
432.09	1282.33
432.46	1293.15
432.83	1307.98
433.19	1324.11
433.56	1342.79
433.92	1364.70
434.29	1387.05
434.65	1411.51
435.02	1436.27
435.38	1459.58
435.75	1482.87
436.11	1515.36
436.48	1548.26
436.84	1579.58
437.21	1614.13
437.57	1654.88
437.94	1692.46
438.30	1731.69
438.67	1773.38
439.03	1825.78
439.40	1877.23
439.76	1932.44
440.13	1992.62
440.49	2062.08
440.86	2123.94
441.22	2191.75
441.59	2268.19
441.95	2353.41
442.32	2433.45
442.68	2527.47
443.05	2627.60
443.41	2727.61
443.78	2826.78
444.14	2941.16
444.51	3052.76
444.87	3189.33
445.24	3317.01
445.60	3452.73
445.96	3587.62
446.33	3748.70
446.69	3896.57
447.06	4076.00
447.42	4261.04
447.79	4459.84
448.15	4681.52
448.51	4897.97
448.88	5137.10
449.24	5372.65
449.61	5648.74
449.97	5923.66
450.33	6226.62
450.70	6516.61
451.06	6869.05
451.43	7190.50
451.79	7572.59
452.15	7969.36
452.52	8388.95
452.88	8811.46
453.24	9298.04
453.61	9800.41
453.97	10306.95
454.34	10821.96
454.70	11442.57
455.06	12032.67
455.43	12599.38
455.79	13158.61
456.15	13831.04
456.52	14453.56
456.88	15247.47
457.24	16038.08
457.61	16952.48
457.97	17781.10
458.33	18635.84
458.70	19461.77
459.06	20270.77
459.42	21113.53
459.79	21896.37
460.15	22788.58
460.51	23564.14
460.88	24381.10
461.24	25107.37
461.60	25971.33
461.96	26701.51
462.33	27427.90
462.69	28169.99
463.05	28982.13
463.42	29765.06
463.78	30491.84
464.14	31150.87
464.50	31859.40
464.87	32423.11
465.23	32773.96
465.59	33160.24
465.95	33519.72
466.32	33800.68
466.68	34072.30
467.04	34280.77
467.40	34399.98
467.77	34516.54
468.13	34426.33
468.49	34229.91
468.85	34088.26
469.22	33998.25
469.58	33795.79
469.94	33692.50
470.30	33549.00
470.66	33246.70
471.03	32676.13
471.39	32225.20
471.75	31513.02
472.11	30832.53
472.47	30333.18
472.84	29890.70
473.20	29267.60
473.56	28876.69
473.92	28329.31
474.28	27795.62
474.65	27300.92
475.01	26851.00
475.37	26312.58
475.73	25911.56
476.09	25434.11
476.45	24981.19
476.81	24561.23
477.18	24109.83
477.54	23672.25
477.90	23286.90
478.26	22833.33
478.62	22432.96
478.98	22134.61
479.34	21881.50
479.71	21562.42
480.07	21260.07
480.43	20949.34
480.79	20542.13
481.15	20103.98
481.51	19739.89
481.87	19428.34
482.23	19074.13
482.59	18778.75
482.96	18489.06
483.32	18178.33
483.68	17814.00
484.04	17498.87
484.40	17157.11
484.76	16841.23
485.12	16505.22
485.48	16242.97
485.84	15946.23
486.20	15673.12
486.56	15335.21
486.92	15041.83
487.28	14698.00
487.64	14346.73
488.00	14021.33
488.37	13687.66
488.73	13319.17
489.09	12951.35
489.45	12627.05
489.81	12295.02
490.17	11994.40
490.53	11683.53
490.89	11357.75
491.25	11032.40
491.61	10690.23
491.97	10364.71
492.33	10079.87
492.69	9841.70
493.05	9578.74
493.41	9335.91
493.77	9080.88
494.13	8826.75
494.49	8553.56
494.85	8308.83
495.21	8076.16
495.57	7869.44
495.93	7647.65
496.29	7434.15
496.64	7238.79
497.00	7041.74
497.36	6849.23
497.72	6692.01
498.08	6549.24
498.44	6390.11
498.80	6228.52
499.16	6065.45
499.52	5889.07
499.88	5721.65
500.24	5576.75
500.60	5446.26
500.96	5326.33
501.32	5210.41
501.68	5092.09
502.03	4971.11
502.39	4849.50
502.75	4727.32
503.11	4616.96
503.47	4522.29
503.83	4421.34
504.19	4315.13
504.55	4213.88
504.91	4112.13
505.26	4010.37
505.62	3905.46
505.98	3816.06
506.34	3723.18
506.70	3635.32
507.06	3554.69
507.42	3474.03
507.78	3390.34
508.13	3315.95
508.49	3246.65
508.85	3172.36
509.21	3110.41
509.57	3051.85
509.93	2992.70
510.28	2927.57
510.64	2870.34
511.00	2807.85
511.36	2753.24
511.72	2700.04
512.07	2649.23
512.43	2600.66
512.79	2559.70
513.15	2509.99
513.51	2462.95
513.86	2417.02
514.22	2375.69
514.58	2328.20
514.94	2288.53
515.30	2245.65
515.65	2205.60
516.01	2171.41
516.37	2139.44
516.73	2104.59
517.08	2076.55
517.44	2051.41
517.80	2017.38
518.16	1992.12
518.51	1966.54
518.87	1938.74
519.23	1912.10
519.59	1889.40
519.94	1862.53
520.30	1840.18
520.66	1820.28
521.01	1798.07
521.37	1773.26
521.73	1751.56
522.09	1726.17
522.44	1703.70
522.80	1684.93
523.16	1672.76
523.51	1653.87
523.87	1641.60
524.23	1623.82
524.58	1606.75
524.94	1587.70
525.30	1569.31
525.65	1553.04
526.01	1540.03
526.37	1521.14
526.72	1505.53
527.08	1491.41
527.44	1477.72
527.79	1464.12
528.15	1456.23
528.51	1441.96
528.86	1433.79
529.22	1424.33
529.58	1412.70
529.93	1404.16
530.29	1396.71
530.65	1389.46
531.00	1379.04
531.36	1370.85
531.71	1359.36
532.07	1349.62
532.43	1340.50
532.78	1330.78
533.14	1322.64
533.49	1315.57
533.85	1311.03
534.21	1301.29
534.56	1294.76
534.92	1289.14
535.27	1283.53
535.63	1276.50
535.98	1272.71
536.34	1268.50
536.69	1266.09
537.05	1261.50
537.41	1259.47
537.76	1253.45
538.12	1250.10
538.47	1241.26
538.83	1237.16
539.18	1227.31
539.54	1221.74
539.89	1216.19
540.25	1212.98
540.60	1209.38
540.96	1207.83
541.31	1208.28
541.67	1205.05
542.02	1204.14
542.38	1202.38
542.73	1200.86
543.09	1197.72
543.44	1197.28
543.80	1193.77
544.15	1188.64
544.51	1188.31
544.86	1187.73
545.22	1183.28
545.57	1182.46
545.93	1179.72
546.28	1175.14
546.64	1171.18
546.99	1167.13
547.35	1158.68
547.70	1156.39
548.05	1154.40
548.41	1151.78
548.76	1149.60
549.12	1152.39
549.47	1153.81
549.83	1152.55
550.18	1149.18
550.53	1152.57
550.89	1148.97
551.24	1147.63
551.60	1146.58
551.95	1147.47
552.30	1139.91
552.66	1137.55
553.01	1132.73
553.37	1130.06
553.72	1124.93
554.07	1124.88
554.43	1124.11
554.78	1124.46
555.13	1124.51
555.49	1127.90
555.84	1126.13
556.19	1124.18
556.55	1124.56
556.90	1124.07
557.26	1120.34
557.61	1122.61
557.96	1125.42
558.32	1124.46
558.67	1122.38
559.02	1122.38
559.37	1121.35
559.73	1120.46
560.08	1116.95
560.43	1116.53
560.79	1114.33
561.14	1112.13
561.49	1110.23
561.85	1110.51
562.20	1110.21
562.55	1113.14
562.90	1114.24
563.26	1115.36
563.61	1115.20
563.96	1113.18
564.32	1111.59
564.67	1110.56
565.02	1107.59
565.37	1107.28
565.73	1106.25
566.08	1106.68
566.43	1104.17
566.78	1103.63
567.14	1102.32
567.49	1100.22
567.84	1098.18
568.19	1100.50
568.54	1101.36
568.90	1098.88
569.25	1101.78
569.60	1100.92
569.95	1097.41
570.31	1097.01
570.66	1099.82
571.01	1097.41
571.36	1097.10
571.71	1099.44
572.06	1099.14
572.42	1100.40
572.77	1098.74
573.12	1097.29
573.47	1096.70
573.82	1094.97
574.18	1093.57
574.53	1096.42
574.88	1097.71
575.23	1096.47
575.58	1096.96
575.93	1098.37
576.28	1097.06
576.64	1093.66
576.99	1095.25
577.34	1097.17
577.69	1094.25
578.04	1096.66
578.39	1099.63
578.74	1097.97
579.09	1096.33
579.44	1096.52
579.80	1092.91
580.15	1091.84
580.50	1089.99
580.85	1087.88
581.20	1086.55
581.55	1086.27
581.90	1088.19
582.25	1090.27
582.60	1092.82
582.95	1094.13
583.30	1094.22
583.65	1094.18
584.00	1094.90
584.35	1092.45
584.71	1090.97
585.06	1092.21
585.41	1090.08
585.76	1089.31
586.11	1088.75
586.46	1089.05
586.81	1088.61
587.16	1085.94
587.51	1082.85
587.86	1084.32
588.21	1084.98
588.56	1085.12
588.91	1087.27
589.26	1088.47
589.61	1087.18
589.96	1084.91
590.31	1087.23
590.66	1087.18
591.01	1086.73
591.36	1088.91
591.71	1088.47
592.06	1086.27
592.41	1086.80
592.76	1086.50
593.10	1085.31
593.45	1090.15
593.80	1087.16
594.15	1085.52
594.50	1087.13
594.85	1086.45
595.20	1084.00
595.55	1088.04
595.90	1088.68
596.25	1086.94
596.60	1088.93
596.95	1090.10
597.30	1087.79
597.64	1100.19
597.99	1103.35
598.34	1099.42
598.69	1100.15
599.04	1099.14
599.39	1087.58
599.74	1085.89
600.09	1090.20
600.44	1084.98
600.78	1084.84
601.13	1087.72
601.48	1086.62
601.83	1085.84
602.18	1087.11
602.53	1088.49
602.88	1085.52
603.22	1085.03
603.57	1084.23
603.92	1085.63
604.27	1085.19
604.62	1085.42
604.97	1086.45
605.31	1085.96
605.66	1084.42
606.01	1087.04
606.36	1086.43
606.71	1086.97
607.05	1087.04
607.40	1088.04
607.75	1086.76
608.10	1087.13
608.44	1088.58
608.79	1085.73
609.14	1086.45
609.49	1085.94
609.84	1083.76
610.18	1083.36
610.53	1087.86
610.88	1085.91
611.23	1085.73
611.57	1086.73
611.92	1087.86
612.27	1085.14
612.62	1089.14
612.96	1089.82
613.31	1088.51
613.66	1088.09
614.00	1089.12
614.35	1088.68
614.70	1089.73
615.05	1091.27
615.39	1090.36
615.74	1090.57
616.09	1088.37
616.43	1085.73
616.78	1083.71
617.13	1082.78
617.47	1085.14
617.82	1081.40
618.17	1083.27
618.51	1085.73
618.86	1083.74
619.21	1077.33
619.55	1081.23
619.90	1079.88
620.25	1079.01
620.59	1080.13
620.94	1084.89
621.29	1085.28
621.63	1083.86
621.98	1086.22
622.32	1086.29
622.67	1084.49
623.02	1084.79
623.36	1085.42
623.71	1083.06
624.05	1083.25
624.40	1086.06
624.75	1084.91
625.09	1085.54
625.44	1083.39
625.78	1083.53
626.13	1079.76
626.48	1079.31
626.82	1081.37
627.17	1084.39
627.51	1086.17
627.86	1090.39
628.20	1089.50
628.55	1089.31
628.89	1090.03
629.24	1087.86
629.58	1087.09
629.93	1088.56
630.28	1086.10
630.62	1082.64
630.97	1082.12
631.31	1078.61
631.66	1077.42
632.00	1075.48
632.35	1075.78
632.69	1076.69
633.04	1078.52
633.38	1076.53
633.73	1080.11
634.07	1080.65
634.42	1080.30
634.76	1079.41
635.11	1079.99
635.45	1077.58
635.79	1079.34
636.14	1080.53
636.48	1080.13
636.83	1082.03
637.17	1082.66
637.52	1082.43
637.86	1081.23
638.21	1082.17
638.55	1084.37
638.89	1083.13
639.24	1082.47
639.58	1080.65
639.93	1084.32
640.27	1080.34
640.61	1083.06
640.96	1085.21
641.30	1087.30
641.65	1084.65
641.99	1085.89
642.33	1085.49
642.68	1081.54
643.02	1081.21
643.37	1078.89
643.71	1078.64
644.05	1078.99
644.40	1082.05
644.74	1082.08
645.08	1083.01
645.43	1084.32
645.77	1082.99
646.11	1082.64
646.46	1083.22
646.80	1084.49
647.14	1084.25
647.49	1085.33
647.83	1086.52
648.17	1086.38
648.52	1086.06
648.86	1086.76
649.20	1087.39
649.55	1089.47
649.89	1091.53
650.23	1090.95
650.57	1089.14
650.92	1086.10
651.26	1082.08
651.60	1079.08
651.95	1078.45
652.29	1078.54
652.63	1081.70
652.97	1081.23
653.32	1083.69
653.66	1086.08
654.00	1089.26
654.34	1087.55
654.69	1090.69
655.03	1088.91
655.37	1089.26
655.71	1085.87
656.05	1086.41
656.40	1083.43
656.74	1083.06
657.08	1081.68
657.42	1082.71
657.76	1084.25
658.11	1082.87
658.45	1082.61
658.79	1080.67
659.13	1078.36
659.47	1076.48
659.82	1078.80
660.16	1080.98
660.50	1082.24
660.84	1082.47
661.18	1082.90
661.52	1082.01
661.87	1081.96
662.21	1079.34
662.55	1081.14
662.89	1079.83
663.23	1081.80
663.57	1079.22
663.91	1079.69
664.25	1078.26
664.60	1076.86
664.94	1075.64
665.28	1076.44
665.62	1076.88
665.96	1081.42
666.30	1084.07
666.64	1082.52
666.98	1081.91
667.32	1080.98
667.66	1077.28
668.01	1073.65
668.35	1075.17
668.69	1075.36
669.03	1076.48
669.37	1076.76
669.71	1082.03
670.05	1081.19
670.39	1081.19
670.73	1080.25
671.07	1078.80
671.41	1078.64
671.75	1079.50
672.09	1079.34
672.43	1082.45
672.77	1083.71
673.11	1080.84
673.45	1081.68
673.79	1083.55
674.13	1084.86
674.47	1087.58
674.81	1089.26
675.15	1087.30
675.49	1085.80
675.83	1082.73
676.17	1083.62
676.51	1082.71
676.85	1079.01
677.19	1080.27
677.53	1082.69
677.87	1080.84
678.21	1080.74
678.55	1086.45
678.89	1085.59
679.23	1082.33
679.57	1080.72
679.90	1080.39
680.24	1079.27
680.58	1079.17
680.92	1079.06
681.26	1081.49
681.60	1084.00
681.94	1081.35
682.28	1082.03
682.62	1084.32
682.96	1080.51
683.29	1080.06
683.63	1080.72
683.97	1080.18
684.31	1077.82
684.65	1077.42
684.99	1073.88
685.33	1078.31
685.67	1078.82
686.00	1080.27
686.34	1082.26
686.68	1085.47
687.02	1081.66
687.36	1080.04
687.70	1080.27
688.03	1079.67
688.37	1080.74
688.71	1082.69
689.05	1082.76
689.39	1084.46
689.72	1084.25
690.06	1083.29
690.40	1081.35
690.74	1081.07
691.08	1081.94
691.41	1084.23
691.75	1082.61
692.09	1082.43
692.43	1082.19
692.76	1080.06
693.10	1079.27
693.44	1079.27
693.78	1078.87
694.11	1079.83
694.45	1079.57
694.79	1080.53
695.13	1082.90
695.46	1087.95
695.80	1087.20
696.14	1087.51
696.48	1086.94
696.81	1083.36
697.15	1079.85
697.49	1081.49
697.82	1083.18
698.16	1084.28
698.50	1085.14
698.83	1082.71
699.17	1081.47
699.51	1079.31
699.84	1075.15
700.18	1074.87
700.52	1080.67
700.85	1082.17
701.19	1083.43
701.53	1086.27
701.86	1087.25
702.20	1082.40
702.54	1082.90
702.87	1077.56
703.21	1075.64
703.55	1074.38
703.88	1075.36
704.22	1073.46
704.55	1077.44
704.89	1078.50
705.23	1080.06
705.56	1079.97
705.90	1078.96
706.23	1080.11
706.57	1082.97
706.91	1084.11
707.24	1084.23
707.58	1083.76
707.91	1084.23
708.25	1079.60
708.58	1078.05
708.92	1077.56
709.26	1080.56
709.59	1080.09
709.93	1082.19
710.26	1080.34
710.60	1083.34
710.93	1081.66
711.27	1079.92
711.60	1080.37
711.94	1080.70
712.27	1078.14
712.61	1078.05
712.94	1078.45
713.28	1077.09
713.61	1079.13
713.95	1081.33
714.28	1082.59
714.62	1083.79
714.95	1086.66
715.29	1087.18
715.62	1087.44
715.96	1087.06
716.29	1086.41
716.63	1085.21
716.96	1082.94
717.29	1079.01
717.63	1077.91
717.96	1077.86
718.30	1077.11
718.63	1078.57
718.97	1084.23
719.30	1081.70
719.63	1085.33
719.97	1085.42
720.30	1084.25
720.64	1081.37
720.97	1083.57
721.30	1079.92
721.64	1078.78
721.97	1079.60
722.31	1079.17
722.64	1076.93
722.97	1075.43
723.31	1080.09
723.64	1080.34
723.97	1081.07
724.31	1085.82
724.64	1087.27
724.98	1087.30
725.31	1088.49
725.64	1087.51
725.98	1086.59
726.31	1085.94
726.64	1084.30
726.97	1081.14
727.31	1082.31
727.64	1080.91
727.97	1079.71
728.31	1077.44
728.64	1082.80
728.97	1080.60
729.31	1083.11
729.64	1085.52
729.97	1084.21
730.30	1080.13
730.64	1081.63
730.97	1081.05
731.30	1080.20
731.63	1079.92
731.97	1080.63
732.30	1081.02
732.63	1081.05
732.96	1078.66
733.30	1083.39
733.63	1083.67
733.96	1083.76
734.29	1082.17
734.63	1085.14
734.96	1084.23
735.29	1081.98
735.62	1080.93
735.95	1081.61
736.29	1079.53
736.62	1076.08
736.95	1077.61
737.28	1076.97
737.61	1076.37
737.94	1077.09
738.28	1077.91
738.61	1078.43
738.94	1080.13
739.27	1079.13
739.60	1081.56
739.93	1083.46
740.27	1082.76
740.60	1084.18
740.93	1085.10
741.26	1086.48
741.59	1085.52
741.92	1086.64
742.25	1084.63
742.58	1084.16
742.91	1083.13
743.25	1081.54
743.58	1079.67
743.91	1081.33
744.24	1079.27
744.57	1077.47
744.90	1080.41
745.23	1081.56
745.56	1078.59
745.89	1081.09
746.22	1080.30
746.55	1078.85
746.88	1078.64
747.21	1079.78
747.54	1079.76
747.87	1078.26
748.20	1080.02
748.53	1081.28
748.87	1083.25
749.20	1083.81
749.53	1087.67
749.86	1084.51
750.19	1082.73
750.52	1079.60
750.85	1079.50
751.18	1077.18
751.51	1078.87
751.84	1080.18
752.16	1080.41
752.49	1078.24
752.82	1076.62
753.15	1075.27
753.48	1075.64
753.81	1073.39
754.14	1077.33
754.47	1079.27
754.80	1080.04
755.13	1077.72
755.46	1078.26
755.79	1075.57
756.12	1074.87
756.45	1075.31
756.78	1074.91
757.11	1076.48
757.43	1075.27
757.76	1078.33
758.09	1078.85
758.42	1079.62
758.75	1082.71
759.08	1085.35
759.41	1083.79
759.74	1083.97
760.07	1086.10
760.39	1084.02
760.72	1082.33
761.05	1081.00
761.38	1082.43
761.71	1081.82
762.04	1081.44
762.36	1082.94
762.69	1084.91
763.02	1080.13
763.35	1079.78
763.68	1078.47
764.01	1074.03
