SpectraSuite Data File
++++++++++++++++++++++++++++++++++++
Date: Mon Aug 26 10:22:24 PDT 2019
User: corrico
Dark Spectrum Present: No
Reference Spectrum Present: No
Number of Sampled Component Spectra: 1
Spectrometers: USB2+H06089
Integration Time (usec): 2000 (USB2+H06089)
Spectra Averaged: 20 (USB2+H06089)
Boxcar Smoothing: 2 (USB2+H06089)
Correct for Electrical Dark: No (USB2+H06089)
Strobe/Lamp Enabled: No (USB2+H06089)
Correct for Detector Non-linearity: No (USB2+H06089)
Correct for Stray Light: No (USB2+H06089)
Number of Pixels in Processed Spectrum: 2048
>>>>>Begin Processed Spectral Data<<<<<
339.70	1032.64
340.07	1032.64
340.45	996.09
340.82	973.83
341.19	946.07
341.57	919.22
341.94	907.26
342.31	900.50
342.69	895.82
343.06	894.15
343.43	894.01
343.81	896.12
344.18	898.79
344.55	903.21
344.93	908.53
345.30	918.31
345.67	924.37
346.04	931.72
346.42	938.48
346.79	948.43
347.16	955.36
347.54	962.62
347.91	974.13
348.28	984.05
348.65	994.63
349.03	1005.56
349.40	1018.93
349.77	1027.66
350.14	1033.04
350.52	1041.75
350.89	1042.78
351.26	1046.08
351.63	1051.49
352.01	1058.93
352.38	1060.59
352.75	1065.69
353.12	1067.42
353.50	1067.38
353.87	1070.98
354.24	1075.57
354.61	1079.55
354.98	1083.86
355.36	1088.30
355.73	1090.03
356.10	1089.54
356.47	1089.26
356.84	1088.61
357.22	1086.15
357.59	1084.72
357.96	1083.64
358.33	1083.53
358.70	1082.99
359.08	1085.96
359.45	1085.80
359.82	1083.71
360.19	1082.85
360.56	1084.44
360.94	1081.75
361.31	1082.47
361.68	1084.37
362.05	1083.53
362.42	1080.74
362.79	1080.39
363.16	1079.15
363.54	1076.48
363.91	1076.30
364.28	1073.32
364.65	1073.56
365.02	1070.51
365.39	1074.07
365.76	1074.80
366.14	1076.04
366.51	1076.37
366.88	1076.53
367.25	1076.20
367.62	1077.65
367.99	1081.51
368.36	1083.41
368.73	1085.05
369.10	1082.45
369.48	1082.50
369.85	1079.20
370.22	1076.95
370.59	1076.25
370.96	1080.77
371.33	1080.60
371.70	1083.88
372.07	1081.30
372.44	1083.55
372.81	1080.34
373.18	1074.82
373.55	1074.14
373.93	1077.49
374.30	1075.20
374.67	1077.79
375.04	1081.37
375.41	1079.71
375.78	1079.34
376.15	1079.22
376.52	1079.31
376.89	1079.34
377.26	1078.26
377.63	1078.82
378.00	1079.92
378.37	1076.11
378.74	1079.17
379.11	1080.32
379.48	1081.35
379.85	1083.55
380.22	1085.61
380.59	1083.71
380.96	1084.49
381.33	1082.10
381.70	1080.74
382.07	1082.03
382.44	1081.82
382.81	1083.08
383.18	1087.44
383.55	1085.99
383.92	1085.59
384.29	1083.53
384.66	1084.89
385.03	1083.53
385.40	1088.40
385.77	1088.56
386.14	1095.86
386.51	1096.10
386.88	1092.63
387.25	1087.23
387.62	1084.21
387.99	1080.70
388.36	1077.37
388.73	1077.35
389.10	1079.10
389.46	1080.41
389.83	1077.23
390.20	1078.50
390.57	1083.18
390.94	1084.89
391.31	1088.02
391.68	1089.99
392.05	1092.02
392.42	1090.20
392.79	1090.50
393.16	1091.56
393.53	1090.97
393.89	1090.88
394.26	1089.57
394.63	1091.25
395.00	1089.22
395.37	1091.51
395.74	1088.19
396.11	1088.21
396.48	1083.29
396.84	1082.19
397.21	1082.01
397.58	1086.08
397.95	1089.31
398.32	1093.55
398.69	1093.71
399.06	1094.06
399.42	1092.45
399.79	1089.75
400.16	1087.69
400.53	1089.07
400.90	1086.62
401.27	1085.82
401.64	1086.55
402.00	1087.69
402.37	1087.90
402.74	1090.32
403.11	1091.88
403.48	1093.69
403.84	1092.16
404.21	1091.27
404.58	1089.14
404.95	1088.12
405.32	1086.99
405.68	1091.30
406.05	1093.50
406.42	1096.17
406.79	1099.28
407.16	1098.90
407.52	1097.80
407.89	1094.74
408.26	1094.01
408.63	1092.94
408.99	1094.43
409.36	1094.55
409.73	1097.62
410.10	1101.27
410.47	1102.37
410.83	1104.92
411.20	1105.93
411.57	1107.47
411.94	1104.29
412.30	1103.40
412.67	1100.94
413.04	1098.72
413.40	1097.83
413.77	1096.49
414.14	1096.73
414.51	1098.16
414.87	1099.72
415.24	1101.34
415.61	1104.38
415.97	1105.34
416.34	1105.22
416.71	1104.26
417.08	1101.97
417.44	1102.72
417.81	1101.74
418.18	1102.37
418.54	1106.39
418.91	1108.99
419.28	1112.06
419.64	1116.15
420.01	1115.73
420.38	1116.51
420.74	1117.16
421.11	1114.00
421.48	1114.87
421.84	1116.60
422.21	1115.20
422.58	1116.37
422.94	1121.80
423.31	1123.69
423.68	1127.55
424.04	1131.95
424.41	1135.28
424.77	1137.45
425.14	1139.30
425.51	1142.74
425.87	1147.21
426.24	1153.14
426.61	1161.00
426.97	1166.20
427.34	1173.64
427.70	1177.57
428.07	1181.10
428.44	1186.42
428.80	1197.35
429.17	1202.57
429.53	1212.00
429.90	1222.06
430.27	1224.78
430.63	1232.08
431.00	1240.51
431.36	1250.24
431.73	1262.88
432.09	1279.92
432.46	1293.05
432.83	1310.30
433.19	1328.44
433.56	1345.97
433.92	1365.77
434.29	1385.43
434.65	1407.39
435.02	1430.44
435.38	1456.70
435.75	1483.01
436.11	1516.48
436.48	1545.36
436.84	1578.50
437.21	1615.93
437.57	1655.37
437.94	1695.23
438.30	1742.41
438.67	1790.70
439.03	1840.71
439.40	1898.46
439.76	1951.02
440.13	2011.39
440.49	2077.27
440.86	2139.30
441.22	2203.40
441.59	2277.55
441.95	2357.04
442.32	2440.03
442.68	2537.70
443.05	2635.00
443.41	2738.19
443.78	2833.31
444.14	2933.84
444.51	3042.81
444.87	3180.44
445.24	3312.98
445.60	3470.57
445.96	3625.72
446.33	3789.49
446.69	3947.71
447.06	4127.02
447.42	4303.47
447.79	4497.41
448.15	4725.24
448.51	4952.76
448.88	5215.18
449.24	5456.77
449.61	5735.44
449.97	6002.44
450.33	6283.52
450.70	6544.82
451.06	6874.79
451.43	7180.04
451.79	7531.68
452.15	7929.97
452.52	8369.55
452.88	8829.74
453.24	9344.94
453.61	9911.07
453.97	10453.02
454.34	10977.21
454.70	11600.77
455.06	12236.16
455.43	12866.53
455.79	13469.57
456.15	14192.61
456.52	14851.99
456.88	15610.51
457.24	16312.64
457.61	17158.05
457.97	17919.73
458.33	18695.45
458.70	19461.79
459.06	20220.75
459.42	21037.32
459.79	21814.33
460.15	22697.49
460.51	23544.31
460.88	24453.66
461.24	25240.36
461.60	26181.51
461.96	27037.42
462.33	27853.97
462.69	28636.76
463.05	29489.06
463.42	30207.00
463.78	30838.90
464.14	31378.28
464.50	31962.50
464.87	32420.02
465.23	32761.37
465.59	33132.90
465.95	33471.88
466.32	33729.11
466.68	33953.54
467.04	34087.87
467.40	34214.75
467.77	34358.64
468.13	34354.52
468.49	34274.20
468.85	34231.90
469.22	34082.93
469.58	33728.27
469.94	33487.75
470.30	33201.27
470.66	32790.46
471.03	32222.32
471.39	31865.01
471.75	31238.78
472.11	30633.45
472.47	30269.31
472.84	29961.99
473.20	29465.71
473.56	29222.85
473.92	28813.02
474.28	28288.96
474.65	27782.74
475.01	27307.26
475.37	26707.15
475.73	26229.68
476.09	25692.06
476.45	25177.99
476.81	24689.98
477.18	24155.83
477.54	23716.62
477.90	23376.01
478.26	22942.98
478.62	22590.36
478.98	22319.70
479.34	21999.07
479.71	21585.38
480.07	21267.25
480.43	20914.84
480.79	20532.75
481.15	20183.12
481.51	19870.40
481.87	19604.33
482.23	19307.20
482.59	19037.50
482.96	18742.10
483.32	18452.90
483.68	18088.83
484.04	17757.48
484.40	17414.19
484.76	17070.95
485.12	16725.75
485.48	16410.74
485.84	16074.92
486.20	15731.09
486.56	15376.41
486.92	15067.76
487.28	14721.64
487.64	14365.55
488.00	14034.69
488.37	13702.34
488.73	13345.41
489.09	12995.36
489.45	12681.44
489.81	12365.45
490.17	12071.36
490.53	11784.01
490.89	11482.15
491.25	11190.08
491.61	10890.44
491.97	10585.31
492.33	10267.84
492.69	9984.94
493.05	9670.44
493.41	9376.98
493.77	9093.31
494.13	8837.89
494.49	8583.35
494.85	8359.06
495.21	8136.64
495.57	7918.27
495.93	7703.15
496.29	7497.30
496.64	7312.58
497.00	7117.43
497.36	6934.52
497.72	6749.85
498.08	6577.28
498.44	6390.25
498.80	6229.76
499.16	6075.87
499.52	5927.87
499.88	5804.06
500.24	5685.49
500.60	5561.42
500.96	5444.65
501.32	5329.87
501.68	5203.10
502.03	5077.21
502.39	4952.92
502.75	4815.49
503.11	4689.87
503.47	4570.95
503.83	4448.91
504.19	4328.80
504.55	4229.51
504.91	4130.65
505.26	4028.13
505.62	3946.49
505.98	3861.30
506.34	3769.85
506.70	3681.52
507.06	3593.87
507.42	3502.61
507.78	3428.42
508.13	3350.55
508.49	3274.67
508.85	3209.39
509.21	3145.63
509.57	3076.10
509.93	3008.41
510.28	2940.18
510.64	2871.91
511.00	2803.77
511.36	2746.06
511.72	2688.11
512.07	2643.85
512.43	2594.95
512.79	2547.70
513.15	2500.58
513.51	2455.74
513.86	2407.19
514.22	2368.53
514.58	2333.61
514.94	2295.83
515.30	2262.71
515.65	2225.99
516.01	2189.06
516.37	2154.11
516.73	2124.11
517.08	2094.48
517.44	2067.02
517.80	2038.96
518.16	2010.05
518.51	1981.90
518.87	1952.43
519.23	1927.20
519.59	1901.17
519.94	1875.33
520.30	1849.54
520.66	1824.49
521.01	1799.45
521.37	1779.16
521.73	1759.71
522.09	1735.69
522.44	1717.06
522.80	1696.56
523.16	1676.46
523.51	1656.63
523.87	1639.05
524.23	1623.23
524.58	1607.88
524.94	1591.89
525.30	1576.44
525.65	1562.31
526.01	1544.82
526.37	1530.22
526.72	1517.91
527.08	1505.99
527.44	1496.54
527.79	1485.84
528.15	1472.20
528.51	1457.99
528.86	1446.92
529.22	1430.25
529.58	1417.87
529.93	1410.15
530.29	1397.65
530.65	1383.44
531.00	1376.47
531.36	1366.17
531.71	1354.84
532.07	1345.41
532.43	1337.50
532.78	1327.95
533.14	1318.38
533.49	1311.92
533.85	1309.32
534.21	1302.20
534.56	1296.54
534.92	1294.29
535.27	1288.82
535.63	1283.83
535.98	1279.57
536.34	1272.95
536.69	1267.52
537.05	1263.21
537.41	1255.35
537.76	1250.38
538.12	1250.36
538.47	1245.68
538.83	1239.90
539.18	1237.98
539.54	1237.09
539.89	1225.81
540.25	1221.15
540.60	1214.53
540.96	1211.39
541.31	1205.28
541.67	1206.10
542.02	1199.43
542.38	1197.84
542.73	1195.03
543.09	1191.94
543.44	1187.07
543.80	1186.42
544.15	1183.59
544.51	1180.75
544.86	1177.64
545.22	1175.18
545.57	1174.67
545.93	1174.95
546.28	1171.88
546.64	1169.26
546.99	1169.59
547.35	1167.23
547.70	1163.50
548.05	1159.45
548.41	1159.27
548.76	1155.45
549.12	1152.25
549.47	1152.08
549.83	1151.12
550.18	1148.27
550.53	1147.17
550.89	1147.85
551.24	1145.04
551.60	1143.40
551.95	1140.71
552.30	1140.45
552.66	1138.37
553.01	1138.41
553.37	1136.28
553.72	1136.89
554.07	1135.70
554.43	1135.32
554.78	1131.60
555.13	1132.96
555.49	1129.92
555.84	1126.97
556.19	1120.81
556.55	1122.08
556.90	1119.69
557.26	1120.39
557.61	1119.78
557.96	1122.66
558.32	1121.07
558.67	1122.54
559.02	1124.98
559.37	1123.36
559.73	1125.84
560.08	1125.05
560.43	1122.94
560.79	1118.78
561.14	1118.92
561.49	1115.62
561.85	1112.64
562.20	1112.53
562.55	1112.83
562.90	1110.54
563.26	1112.39
563.61	1113.72
563.96	1111.97
564.32	1107.05
564.67	1107.52
565.02	1107.03
565.37	1104.85
565.73	1102.60
566.08	1104.26
566.43	1103.05
566.78	1098.37
567.14	1102.06
567.49	1103.14
567.84	1103.47
568.19	1104.45
568.54	1103.38
568.90	1102.65
569.25	1103.82
569.60	1103.82
569.95	1101.34
570.31	1102.84
570.66	1095.14
571.01	1091.65
571.36	1091.86
571.71	1095.28
572.06	1095.49
572.42	1102.02
572.77	1102.74
573.12	1102.30
573.47	1099.82
573.82	1100.45
574.18	1098.53
574.53	1099.82
574.88	1097.71
575.23	1096.56
575.58	1093.94
575.93	1093.38
576.28	1095.23
576.64	1095.18
576.99	1097.38
577.34	1098.06
577.69	1099.93
578.04	1097.36
578.39	1097.88
578.74	1097.13
579.09	1096.70
579.44	1093.36
579.80	1089.22
580.15	1090.32
580.50	1087.65
580.85	1089.14
581.20	1089.87
581.55	1090.08
581.90	1091.06
582.25	1094.08
582.60	1095.14
582.95	1094.08
583.30	1096.56
583.65	1094.95
584.00	1094.41
584.35	1092.91
584.71	1093.52
585.06	1092.91
585.41	1090.32
585.76	1090.32
586.11	1088.89
586.46	1086.57
586.81	1087.51
587.16	1089.33
587.51	1085.77
587.86	1086.03
588.21	1089.10
588.56	1087.86
588.91	1085.28
589.26	1087.46
589.61	1086.73
589.96	1087.39
590.31	1088.44
590.66	1089.94
591.01	1090.55
591.36	1091.56
591.71	1090.32
592.06	1091.09
592.41	1093.59
592.76	1092.63
593.10	1090.67
593.45	1087.93
593.80	1083.76
594.15	1083.13
594.50	1081.02
594.85	1079.83
595.20	1081.66
595.55	1085.24
595.90	1083.32
596.25	1086.06
596.60	1086.71
596.95	1087.04
597.30	1085.03
597.64	1097.76
597.99	1098.76
598.34	1097.69
598.69	1096.61
599.04	1095.82
599.39	1082.66
599.74	1080.34
600.09	1080.84
600.44	1082.05
600.78	1083.74
601.13	1081.54
601.48	1079.78
601.83	1083.53
602.18	1084.49
602.53	1084.65
602.88	1086.94
603.22	1090.67
603.57	1088.96
603.92	1088.93
604.27	1088.56
604.62	1091.30
604.97	1089.47
605.31	1088.56
605.66	1087.48
606.01	1085.68
606.36	1083.48
606.71	1084.07
607.05	1085.54
607.40	1084.81
607.75	1085.00
608.10	1084.72
608.44	1086.64
608.79	1086.71
609.14	1083.76
609.49	1086.52
609.84	1087.69
610.18	1086.22
610.53	1085.31
610.88	1089.40
611.23	1088.12
611.57	1087.41
611.92	1088.19
612.27	1084.93
612.62	1085.47
612.96	1088.26
613.31	1088.16
613.66	1087.34
614.00	1090.76
614.35	1090.08
614.70	1089.78
615.05	1088.79
615.39	1086.34
615.74	1085.00
616.09	1082.26
616.43	1078.45
616.78	1078.99
617.13	1078.10
617.47	1077.65
617.82	1076.74
618.17	1075.59
618.51	1077.65
618.86	1080.81
619.21	1084.96
619.55	1083.86
619.90	1082.69
620.25	1081.77
620.59	1080.88
620.94	1078.45
621.29	1080.58
621.63	1083.74
621.98	1084.04
622.32	1084.86
622.67	1085.19
623.02	1085.31
623.36	1085.05
623.71	1081.61
624.05	1078.54
624.40	1077.37
624.75	1076.97
625.09	1075.17
625.44	1074.00
625.78	1073.77
626.13	1073.49
626.48	1075.36
626.82	1077.68
627.17	1079.38
627.51	1080.81
627.86	1077.58
628.20	1075.52
628.55	1071.61
628.89	1073.84
629.24	1074.59
629.58	1078.14
629.93	1078.94
630.28	1083.69
630.62	1083.86
630.97	1082.64
631.31	1082.61
631.66	1081.91
632.00	1080.70
632.35	1076.39
632.69	1077.84
633.04	1079.31
633.38	1079.48
633.73	1078.71
634.07	1080.41
634.42	1081.40
634.76	1078.92
635.11	1081.14
635.45	1081.30
635.79	1083.27
636.14	1083.04
636.48	1081.26
636.83	1077.11
637.17	1077.47
637.52	1075.45
637.86	1074.19
638.21	1076.76
638.55	1077.84
638.89	1074.91
639.24	1075.52
639.58	1077.37
639.93	1080.27
640.27	1083.32
640.61	1087.74
640.96	1087.90
641.30	1087.32
641.65	1084.96
641.99	1083.25
642.33	1083.34
642.68	1084.96
643.02	1085.17
643.37	1086.85
643.71	1089.64
644.05	1086.03
644.40	1082.92
644.74	1079.29
645.08	1076.93
645.43	1073.53
645.77	1075.73
646.11	1078.99
646.46	1082.31
646.80	1083.55
647.14	1084.30
647.49	1086.36
647.83	1084.23
648.17	1084.56
648.52	1084.51
648.86	1083.22
649.20	1082.92
649.55	1083.81
649.89	1083.46
650.23	1079.34
650.57	1081.47
650.92	1078.45
651.26	1079.60
651.60	1080.39
651.95	1083.76
652.29	1084.07
652.63	1084.11
652.97	1082.22
653.32	1082.31
653.66	1082.33
654.00	1080.86
654.34	1079.55
654.69	1080.74
655.03	1081.70
655.37	1080.56
655.71	1080.63
656.05	1083.08
656.40	1080.70
656.74	1080.37
657.08	1079.60
657.42	1078.85
657.76	1080.32
658.11	1083.71
658.45	1081.42
658.79	1082.90
659.13	1087.13
659.47	1083.27
659.82	1082.31
660.16	1082.22
660.50	1083.06
660.84	1078.50
661.18	1081.37
661.52	1079.36
661.87	1077.33
662.21	1076.04
662.55	1077.65
662.89	1075.15
663.23	1073.09
663.57	1075.83
663.91	1076.88
664.25	1077.75
664.60	1080.11
664.94	1082.85
665.28	1086.01
665.62	1088.54
665.96	1089.36
666.30	1084.96
666.64	1086.76
666.98	1084.67
667.32	1082.69
667.66	1081.28
668.01	1083.57
668.35	1082.08
668.69	1082.12
669.03	1085.63
669.37	1085.96
669.71	1089.07
670.05	1088.37
670.39	1088.37
670.73	1084.28
671.07	1082.73
671.41	1082.03
671.75	1083.22
672.09	1084.49
672.43	1087.02
672.77	1088.70
673.11	1085.82
673.45	1083.76
673.79	1083.15
674.13	1083.46
674.47	1082.38
674.81	1083.50
675.15	1086.92
675.49	1084.63
675.83	1079.17
676.17	1079.17
676.51	1081.66
676.85	1081.75
677.19	1079.64
677.53	1082.64
677.87	1082.29
678.21	1080.67
678.55	1078.38
678.89	1080.91
679.23	1079.53
679.57	1080.74
679.90	1082.08
680.24	1083.50
680.58	1084.56
680.92	1083.86
681.26	1081.80
681.60	1078.71
681.94	1078.43
682.28	1074.52
682.62	1075.24
682.96	1077.98
683.29	1077.49
683.63	1077.42
683.97	1079.99
684.31	1079.90
684.65	1079.67
684.99	1079.74
685.33	1079.83
685.67	1082.45
686.00	1083.53
686.34	1082.24
686.68	1084.46
687.02	1083.67
687.36	1080.25
687.70	1080.27
688.03	1079.69
688.37	1078.78
688.71	1079.71
689.05	1082.85
689.39	1083.64
689.72	1086.97
690.06	1085.87
690.40	1085.49
690.74	1083.27
691.08	1082.61
691.41	1081.70
691.75	1081.42
692.09	1079.76
692.43	1077.23
692.76	1076.81
693.10	1074.91
693.44	1075.27
693.78	1077.04
694.11	1078.75
694.45	1075.78
694.79	1075.55
695.13	1078.17
695.46	1079.20
695.80	1076.65
696.14	1081.70
696.48	1084.02
696.81	1083.64
697.15	1082.45
697.49	1084.79
697.82	1083.46
698.16	1080.04
698.50	1080.81
698.83	1081.51
699.17	1085.12
699.51	1083.79
699.84	1087.46
700.18	1086.80
700.52	1084.63
700.85	1082.52
701.19	1083.36
701.53	1079.85
701.86	1078.87
702.20	1079.20
702.54	1077.86
702.87	1076.58
703.21	1080.70
703.55	1079.81
703.88	1082.90
704.22	1084.42
704.55	1084.77
704.89	1081.47
705.23	1085.68
705.56	1082.76
705.90	1082.26
706.23	1082.61
706.57	1085.07
706.91	1082.69
707.24	1082.54
707.58	1079.92
707.91	1078.78
708.25	1077.68
708.58	1075.10
708.92	1075.24
709.26	1076.55
709.59	1080.30
709.93	1081.66
710.26	1083.71
710.60	1083.27
710.93	1082.10
711.27	1080.44
711.60	1077.56
711.94	1075.31
712.27	1075.99
712.61	1079.85
712.94	1077.33
713.28	1078.47
713.61	1080.04
713.95	1075.85
714.28	1073.86
714.62	1075.34
714.95	1076.08
715.29	1075.69
715.62	1082.38
715.96	1081.37
716.29	1081.00
716.63	1079.03
716.96	1078.50
717.29	1076.88
717.63	1078.43
717.96	1079.67
718.30	1081.05
718.63	1084.21
718.97	1084.11
719.30	1081.91
719.63	1082.29
719.97	1084.07
720.30	1078.92
720.64	1079.20
720.97	1080.20
721.30	1078.89
721.64	1078.99
721.97	1078.78
722.31	1078.28
722.64	1081.40
722.97	1083.01
723.31	1082.85
723.64	1084.18
723.97	1085.82
724.31	1082.59
724.64	1081.68
724.98	1078.38
725.31	1080.48
725.64	1078.05
725.98	1081.42
726.31	1079.43
726.64	1080.13
726.97	1080.98
727.31	1081.19
727.64	1081.89
727.97	1082.54
728.31	1082.10
728.64	1079.64
728.97	1080.77
729.31	1074.45
729.64	1075.87
729.97	1075.17
730.30	1075.99
730.64	1076.51
730.97	1079.13
731.30	1078.10
731.63	1078.71
731.97	1077.44
732.30	1077.04
732.63	1076.01
732.96	1078.94
733.30	1077.09
733.63	1080.18
733.96	1079.08
734.29	1080.51
734.63	1080.51
734.96	1086.94
735.29	1086.36
735.62	1084.51
735.95	1082.01
736.29	1081.26
736.62	1080.88
736.95	1078.68
737.28	1081.37
737.61	1081.37
737.94	1078.28
738.28	1076.95
738.61	1079.60
738.94	1078.33
739.27	1082.05
739.60	1084.21
739.93	1081.80
740.27	1082.94
740.60	1083.18
740.93	1082.50
741.26	1081.07
741.59	1079.03
741.92	1076.90
742.25	1074.49
742.58	1074.89
742.91	1074.66
743.25	1075.78
743.58	1079.15
743.91	1084.21
744.24	1082.57
744.57	1084.91
744.90	1087.27
745.23	1085.94
745.56	1082.08
745.89	1083.20
746.22	1081.89
746.55	1081.89
746.88	1080.32
747.21	1083.53
747.54	1084.84
747.87	1083.34
748.20	1081.66
748.53	1081.37
748.87	1077.65
749.20	1075.36
749.53	1075.92
749.86	1077.63
750.19	1075.64
750.52	1076.37
750.85	1078.68
751.18	1081.26
751.51	1078.89
751.84	1078.31
752.16	1080.09
752.49	1079.62
752.82	1079.01
753.15	1082.24
753.48	1086.92
753.81	1084.84
754.14	1086.10
754.47	1085.31
754.80	1084.56
755.13	1083.11
755.46	1085.33
755.79	1084.28
756.12	1085.56
756.45	1084.51
756.78	1081.51
757.11	1079.15
757.43	1080.72
757.76	1078.45
758.09	1078.36
758.42	1080.18
758.75	1083.57
759.08	1077.89
759.41	1077.25
759.74	1077.44
760.07	1077.63
760.39	1073.18
760.72	1072.57
761.05	1076.06
761.38	1075.27
761.71	1074.28
762.04	1077.16
762.36	1081.91
762.69	1078.14
763.02	1078.47
763.35	1081.54
763.68	1081.35
764.01	1081.02
