SpectraSuite Data File
++++++++++++++++++++++++++++++++++++
Date: Mon Aug 26 10:22:30 PDT 2019
User: corrico
Dark Spectrum Present: No
Reference Spectrum Present: No
Number of Sampled Component Spectra: 1
Spectrometers: USB2+H06089
Integration Time (usec): 2000 (USB2+H06089)
Spectra Averaged: 20 (USB2+H06089)
Boxcar Smoothing: 2 (USB2+H06089)
Correct for Electrical Dark: No (USB2+H06089)
Strobe/Lamp Enabled: No (USB2+H06089)
Correct for Detector Non-linearity: No (USB2+H06089)
Correct for Stray Light: No (USB2+H06089)
Number of Pixels in Processed Spectrum: 2048
>>>>>Begin Processed Spectral Data<<<<<
339.70	1031.71
340.07	1031.71
340.45	997.37
340.82	974.29
341.19	950.12
341.57	924.30
341.94	913.39
342.31	903.40
342.69	902.28
343.06	902.46
343.43	900.31
343.81	902.70
344.18	907.17
344.55	908.69
344.93	910.21
345.30	916.98
345.67	922.83
346.04	930.32
346.42	937.92
346.79	946.96
347.16	954.52
347.54	962.22
347.91	973.12
348.28	982.98
348.65	995.59
349.03	1004.93
349.40	1013.10
349.77	1020.64
350.14	1026.37
350.52	1030.21
350.89	1038.12
351.26	1043.43
351.63	1050.62
352.01	1058.55
352.38	1061.90
352.75	1063.84
353.12	1068.24
353.50	1067.85
353.87	1068.01
354.24	1074.49
354.61	1078.26
354.98	1078.45
355.36	1080.74
355.73	1082.57
356.10	1079.90
356.47	1080.53
356.84	1084.21
357.22	1082.33
357.59	1081.47
357.96	1084.30
358.33	1085.19
358.70	1081.35
359.08	1084.21
359.45	1081.94
359.82	1079.74
360.19	1079.83
360.56	1083.76
360.94	1081.35
361.31	1085.54
361.68	1086.97
362.05	1086.57
362.42	1084.81
362.79	1083.36
363.16	1079.67
363.54	1074.82
363.91	1074.63
364.28	1074.47
364.65	1075.71
365.02	1077.47
365.39	1080.44
365.76	1081.37
366.14	1078.31
366.51	1077.02
366.88	1074.24
367.25	1072.64
367.62	1069.32
367.99	1070.82
368.36	1074.03
368.73	1076.79
369.10	1076.04
369.48	1078.05
369.85	1079.83
370.22	1077.93
370.59	1077.54
370.96	1074.21
371.33	1071.78
371.70	1071.82
372.07	1070.21
372.44	1069.62
372.81	1072.36
373.18	1073.04
373.55	1072.64
373.93	1076.58
374.30	1075.92
374.67	1075.85
375.04	1074.14
375.41	1071.75
375.78	1068.83
376.15	1073.00
376.52	1075.34
376.89	1077.04
377.26	1081.23
377.63	1082.57
378.00	1080.72
378.37	1079.06
378.74	1079.78
379.11	1076.95
379.48	1077.93
379.85	1077.51
380.22	1078.45
380.59	1079.22
380.96	1081.21
381.33	1080.70
381.70	1078.50
382.07	1077.68
382.44	1078.00
382.81	1076.62
383.18	1076.06
383.55	1079.48
383.92	1081.84
384.29	1081.44
384.66	1080.46
385.03	1078.68
385.40	1077.54
385.77	1075.52
386.14	1075.10
386.51	1080.58
386.88	1082.78
387.25	1082.99
387.62	1084.74
387.99	1084.53
388.36	1080.74
388.73	1083.50
389.10	1084.18
389.46	1083.81
389.83	1085.05
390.20	1084.60
390.57	1082.69
390.94	1081.07
391.31	1080.79
391.68	1080.91
392.05	1080.32
392.42	1078.75
392.79	1078.87
393.16	1081.16
393.53	1082.92
393.89	1085.03
394.26	1085.82
394.63	1087.51
395.00	1083.97
395.37	1083.67
395.74	1081.77
396.11	1084.49
396.48	1085.54
396.84	1090.78
397.21	1086.83
397.58	1090.53
397.95	1088.51
398.32	1089.33
398.69	1085.61
399.06	1089.61
399.42	1090.95
399.79	1093.69
400.16	1093.24
400.53	1094.43
400.90	1094.18
401.27	1089.29
401.64	1086.13
402.00	1085.17
402.37	1084.44
402.74	1085.47
403.11	1089.85
403.48	1092.14
403.84	1091.77
404.21	1094.53
404.58	1093.01
404.95	1091.09
405.32	1090.71
405.68	1091.25
406.05	1093.50
406.42	1092.16
406.79	1092.26
407.16	1092.49
407.52	1091.77
407.89	1090.57
408.26	1091.72
408.63	1091.63
408.99	1091.02
409.36	1093.36
409.73	1087.90
410.10	1090.41
410.47	1091.60
410.83	1091.65
411.20	1091.74
411.57	1094.04
411.94	1095.82
412.30	1096.70
412.67	1097.22
413.04	1097.50
413.40	1100.12
413.77	1095.53
414.14	1094.50
414.51	1096.42
414.87	1098.79
415.24	1099.33
415.61	1104.08
415.97	1104.73
416.34	1105.93
416.71	1104.08
417.08	1105.62
417.44	1106.04
417.81	1106.42
418.18	1105.72
418.54	1108.57
418.91	1112.08
419.28	1109.74
419.64	1109.53
420.01	1114.42
420.38	1112.97
420.74	1109.11
421.11	1113.93
421.48	1117.42
421.84	1115.80
422.21	1118.45
422.58	1123.20
422.94	1124.81
423.31	1126.22
423.68	1127.58
424.04	1130.06
424.41	1129.82
424.77	1130.08
425.14	1134.43
425.51	1140.66
425.87	1146.44
426.24	1150.35
426.61	1157.11
426.97	1165.66
427.34	1170.29
427.70	1173.01
428.07	1185.79
428.44	1194.31
428.80	1198.75
429.17	1204.93
429.53	1215.70
429.90	1220.19
430.27	1227.85
430.63	1236.46
431.00	1246.17
431.36	1259.51
431.73	1270.51
432.09	1285.75
432.46	1300.85
432.83	1317.37
433.19	1329.12
433.56	1348.92
433.92	1365.98
434.29	1385.39
434.65	1410.50
435.02	1438.26
435.38	1465.01
435.75	1489.91
436.11	1522.28
436.48	1549.04
436.84	1582.90
437.21	1615.81
437.57	1658.18
437.94	1701.03
438.30	1750.77
438.67	1796.74
439.03	1848.65
439.40	1903.46
439.76	1955.17
440.13	2017.24
440.49	2082.02
440.86	2143.60
441.22	2212.56
441.59	2285.74
441.95	2360.62
442.32	2441.27
442.68	2538.85
443.05	2633.45
443.41	2733.42
443.78	2834.81
444.14	2943.29
444.51	3051.38
444.87	3185.26
445.24	3323.86
445.60	3481.71
445.96	3638.39
446.33	3810.25
446.69	3971.49
447.06	4150.96
447.42	4323.48
447.79	4509.25
448.15	4724.23
448.51	4951.59
448.88	5209.82
449.24	5444.95
449.61	5728.30
449.97	6005.21
450.33	6291.38
450.70	6553.80
451.06	6885.69
451.43	7187.39
451.79	7547.74
452.15	7940.36
452.52	8392.15
452.88	8856.42
453.24	9378.15
453.61	9948.33
453.97	10508.23
454.34	11046.86
454.70	11692.12
455.06	12332.87
455.43	12950.32
455.79	13532.37
456.15	14236.96
456.52	14870.01
456.88	15623.82
457.24	16330.67
457.61	17182.36
457.97	17927.61
458.33	18716.73
458.70	19476.21
459.06	20243.95
459.42	21063.96
459.79	21847.92
460.15	22727.82
460.51	23588.39
460.88	24498.67
461.24	25298.85
461.60	26258.17
461.96	27125.29
462.33	27950.47
462.69	28732.25
463.05	29563.45
463.42	30257.65
463.78	30909.04
464.14	31436.91
464.50	32027.47
464.87	32492.70
465.23	32841.84
465.59	33177.44
465.95	33494.77
466.32	33732.81
466.68	33962.23
467.04	34093.09
467.40	34223.24
467.77	34378.82
468.13	34380.08
468.49	34288.08
468.85	34225.58
469.22	34049.90
469.58	33715.23
469.94	33456.30
470.30	33161.20
470.66	32751.58
471.03	32183.14
471.39	31795.71
471.75	31174.37
472.11	30574.30
472.47	30218.09
472.84	29916.45
473.20	29411.08
473.56	29148.91
473.92	28712.24
474.28	28187.70
474.65	27666.98
475.01	27208.59
475.37	26630.94
475.73	26159.11
476.09	25636.29
476.45	25123.90
476.81	24581.20
477.18	24034.12
477.54	23586.84
477.90	23234.97
478.26	22832.60
478.62	22524.12
478.98	22257.04
479.34	21958.72
479.71	21553.06
480.07	21211.34
480.43	20845.91
480.79	20460.73
481.15	20102.60
481.51	19796.39
481.87	19550.40
482.23	19276.82
482.59	19030.24
482.96	18756.91
483.32	18468.65
483.68	18097.89
484.04	17751.09
484.40	17382.74
484.76	17026.23
485.12	16649.38
485.48	16325.35
485.84	15981.15
486.20	15626.73
486.56	15273.42
486.92	14964.66
487.28	14614.09
487.64	14260.60
488.00	13951.25
488.37	13624.75
488.73	13276.43
489.09	12942.88
489.45	12635.08
489.81	12314.38
490.17	12015.23
490.53	11732.57
490.89	11428.70
491.25	11138.49
491.61	10827.11
491.97	10515.89
492.33	10205.93
492.69	9906.46
493.05	9600.99
493.41	9323.20
493.77	9054.95
494.13	8804.23
494.49	8560.86
494.85	8331.82
495.21	8103.08
495.57	7889.24
495.93	7670.24
496.29	7470.03
496.64	7290.93
497.00	7107.48
497.36	6916.99
497.72	6736.01
498.08	6561.55
498.44	6374.80
498.80	6205.35
499.16	6039.35
499.52	5889.93
499.88	5766.07
500.24	5656.82
500.60	5537.43
500.96	5422.95
501.32	5308.12
501.68	5178.39
502.03	5041.26
502.39	4921.70
502.75	4790.00
503.11	4661.39
503.47	4543.61
503.83	4423.07
504.19	4306.45
504.55	4204.91
504.91	4110.38
505.26	4014.79
505.62	3932.01
505.98	3844.47
506.34	3751.50
506.70	3657.09
507.06	3573.90
507.42	3494.49
507.78	3414.70
508.13	3345.12
508.49	3276.56
508.85	3207.33
509.21	3137.09
509.57	3070.43
509.93	3003.84
510.28	2937.26
510.64	2874.44
511.00	2804.01
511.36	2740.56
511.72	2683.82
512.07	2635.54
512.43	2581.05
512.79	2539.25
513.15	2495.55
513.51	2446.05
513.86	2399.80
514.22	2357.46
514.58	2316.76
514.94	2283.61
515.30	2249.21
515.65	2212.44
516.01	2181.96
516.37	2145.85
516.73	2113.97
517.08	2091.62
517.44	2066.04
517.80	2039.45
518.16	2018.74
518.51	1991.82
518.87	1958.07
519.23	1928.16
519.59	1905.76
519.94	1876.88
520.30	1850.47
520.66	1830.02
521.01	1810.90
521.37	1791.21
521.73	1770.29
522.09	1750.11
522.44	1729.23
522.80	1706.46
523.16	1678.56
523.51	1660.38
523.87	1642.38
524.23	1625.95
524.58	1610.27
524.94	1595.96
525.30	1574.45
525.65	1559.80
526.01	1542.48
526.37	1528.09
526.72	1513.39
527.08	1500.35
527.44	1486.92
527.79	1474.07
528.15	1462.11
528.51	1449.61
528.86	1441.51
529.22	1429.51
529.58	1419.42
529.93	1408.07
530.29	1400.76
530.65	1389.86
531.00	1378.25
531.36	1369.92
531.71	1361.84
532.07	1347.84
532.43	1341.36
532.78	1334.97
533.14	1325.45
533.49	1316.15
533.85	1312.36
534.21	1306.96
534.56	1301.34
534.92	1298.11
535.27	1293.71
535.63	1288.46
535.98	1279.52
536.34	1274.49
536.69	1266.58
537.05	1259.89
537.41	1256.40
537.76	1247.37
538.12	1240.88
538.47	1237.49
538.83	1234.02
539.18	1225.01
539.54	1226.30
539.89	1221.10
540.25	1219.35
540.60	1215.00
540.96	1215.60
541.31	1215.84
541.67	1214.64
542.02	1211.67
542.38	1210.83
542.73	1205.98
543.09	1198.99
543.44	1197.18
543.80	1194.09
544.15	1189.25
544.51	1187.96
544.86	1185.01
545.22	1180.64
545.57	1176.00
545.93	1173.99
546.28	1169.89
546.64	1168.89
546.99	1167.32
547.35	1166.41
547.70	1163.78
548.05	1163.13
548.41	1161.26
548.76	1159.06
549.12	1154.68
549.47	1151.94
549.83	1147.73
550.18	1144.29
550.53	1143.21
550.89	1141.88
551.24	1141.01
551.60	1142.86
551.95	1142.58
552.30	1139.58
552.66	1139.30
553.01	1137.73
553.37	1136.49
553.72	1134.25
554.07	1136.56
554.43	1133.47
554.78	1130.90
555.13	1127.53
555.49	1125.49
555.84	1122.24
556.19	1124.02
556.55	1127.51
556.90	1125.14
557.26	1126.24
557.61	1125.56
557.96	1122.90
558.32	1118.31
558.67	1117.51
559.02	1115.48
559.37	1114.28
559.73	1116.27
560.08	1116.39
560.43	1120.91
560.79	1120.98
561.14	1120.44
561.49	1119.53
561.85	1118.50
562.20	1114.35
562.55	1111.45
562.90	1107.38
563.26	1103.91
563.61	1103.63
563.96	1103.59
564.32	1104.36
564.67	1103.98
565.02	1106.32
565.37	1104.57
565.73	1103.73
566.08	1101.57
566.43	1104.71
566.78	1099.05
567.14	1101.78
567.49	1101.06
567.84	1104.90
568.19	1102.93
568.54	1108.31
568.90	1104.64
569.25	1103.91
569.60	1101.03
569.95	1101.67
570.31	1099.02
570.66	1101.20
571.01	1101.99
571.36	1104.26
571.71	1104.03
572.06	1105.13
572.42	1102.04
572.77	1100.40
573.12	1098.04
573.47	1098.16
573.82	1094.93
574.18	1096.10
574.53	1094.69
574.88	1094.25
575.23	1094.18
575.58	1095.11
575.93	1097.10
576.28	1097.95
576.64	1095.65
576.99	1094.34
577.34	1096.78
577.69	1095.46
578.04	1096.92
578.39	1101.03
578.74	1099.00
579.09	1097.41
579.44	1100.03
579.80	1100.43
580.15	1096.78
580.50	1096.40
580.85	1094.46
581.20	1089.43
581.55	1086.59
581.90	1087.44
582.25	1087.95
582.60	1085.87
582.95	1087.79
583.30	1087.83
583.65	1088.63
584.00	1089.52
584.35	1091.93
584.71	1089.00
585.06	1092.40
585.41	1089.82
585.76	1091.86
586.11	1092.91
586.46	1095.60
586.81	1092.28
587.16	1093.90
587.51	1092.56
587.86	1090.17
588.21	1087.30
588.56	1087.46
588.91	1085.63
589.26	1086.52
589.61	1087.23
589.96	1089.78
590.31	1091.88
590.66	1094.15
591.01	1094.04
591.36	1095.72
591.71	1094.13
592.06	1090.41
592.41	1089.29
592.76	1089.36
593.10	1084.89
593.45	1084.74
593.80	1087.69
594.15	1086.31
594.50	1082.22
594.85	1083.18
595.20	1084.18
595.55	1078.54
595.90	1080.11
596.25	1084.58
596.60	1088.12
596.95	1087.76
597.30	1090.34
597.64	1101.46
597.99	1102.39
598.34	1101.92
598.69	1101.53
599.04	1103.00
599.39	1090.92
599.74	1087.27
600.09	1087.04
600.44	1088.65
600.78	1087.72
601.13	1087.72
601.48	1086.62
601.83	1087.46
602.18	1087.18
602.53	1085.87
602.88	1088.75
603.22	1088.58
603.57	1085.91
603.92	1086.92
604.27	1088.91
604.62	1089.00
604.97	1090.76
605.31	1094.57
605.66	1091.30
606.01	1088.30
606.36	1085.31
606.71	1085.31
607.05	1082.15
607.40	1083.67
607.75	1085.47
608.10	1084.32
608.44	1082.33
608.79	1083.53
609.14	1081.14
609.49	1081.91
609.84	1085.05
610.18	1089.31
610.53	1087.74
610.88	1094.60
611.23	1094.15
611.57	1094.65
611.92	1087.18
612.27	1087.20
612.62	1083.50
612.96	1082.66
613.31	1078.10
613.66	1085.10
614.00	1086.31
614.35	1084.44
614.70	1085.12
615.05	1087.41
615.39	1086.24
615.74	1083.64
616.09	1085.31
616.43	1086.29
616.78	1086.13
617.13	1085.99
617.47	1087.58
617.82	1085.87
618.17	1085.10
618.51	1085.28
618.86	1084.79
619.21	1087.37
619.55	1087.04
619.90	1090.71
620.25	1091.20
620.59	1091.86
620.94	1089.22
621.29	1087.86
621.63	1084.77
621.98	1083.41
622.32	1083.13
622.67	1083.64
623.02	1086.03
623.36	1084.74
623.71	1085.12
624.05	1084.53
624.40	1081.35
624.75	1085.87
625.09	1084.77
625.44	1083.39
625.78	1080.79
626.13	1085.52
626.48	1080.67
626.82	1081.23
627.17	1083.08
627.51	1085.73
627.86	1085.49
628.20	1085.19
628.55	1087.23
628.89	1086.99
629.24	1083.90
629.58	1080.18
629.93	1077.70
630.28	1077.33
630.62	1075.92
630.97	1077.75
631.31	1075.97
631.66	1075.90
632.00	1074.89
632.35	1074.05
632.69	1073.77
633.04	1076.01
633.38	1079.57
633.73	1079.71
634.07	1085.21
634.42	1086.24
634.76	1086.73
635.11	1087.32
635.45	1086.69
635.79	1080.37
636.14	1079.41
636.48	1081.05
636.83	1079.36
637.17	1079.31
637.52	1083.43
637.86	1082.38
638.21	1079.67
638.55	1079.38
638.89	1081.94
639.24	1081.26
639.58	1079.74
639.93	1081.56
640.27	1080.39
640.61	1077.07
640.96	1076.95
641.30	1084.11
641.65	1082.03
641.99	1084.00
642.33	1085.66
642.68	1083.32
643.02	1080.58
643.37	1082.83
643.71	1083.39
644.05	1084.49
644.40	1087.34
644.74	1089.33
645.08	1086.31
645.43	1083.60
645.77	1082.59
646.11	1082.19
646.46	1080.09
646.80	1083.83
647.14	1082.52
647.49	1082.64
647.83	1083.32
648.17	1082.45
648.52	1081.19
648.86	1082.22
649.20	1081.89
649.55	1079.01
649.89	1076.72
650.23	1076.20
650.57	1078.85
650.92	1078.45
651.26	1077.42
651.60	1079.20
651.95	1080.81
652.29	1080.67
652.63	1083.95
652.97	1085.66
653.32	1083.83
653.66	1081.84
654.00	1080.16
654.34	1079.34
654.69	1079.43
655.03	1078.26
655.37	1075.83
655.71	1076.95
656.05	1076.34
656.40	1076.72
656.74	1080.16
657.08	1085.84
657.42	1085.96
657.76	1083.93
658.11	1085.19
658.45	1083.36
658.79	1080.67
659.13	1078.87
659.47	1076.32
659.82	1074.94
660.16	1075.73
660.50	1079.64
660.84	1079.31
661.18	1079.34
661.52	1078.33
661.87	1081.30
662.21	1079.24
662.55	1079.13
662.89	1083.25
663.23	1087.02
663.57	1085.63
663.91	1082.64
664.25	1083.81
664.60	1082.69
664.94	1080.04
665.28	1077.75
665.62	1080.04
665.96	1082.99
666.30	1084.14
666.64	1086.52
666.98	1086.38
667.32	1084.72
667.66	1082.92
668.01	1081.58
668.35	1080.63
668.69	1078.24
669.03	1079.95
669.37	1080.74
669.71	1080.95
670.05	1083.55
670.39	1085.84
670.73	1084.07
671.07	1081.37
671.41	1083.08
671.75	1080.51
672.09	1081.19
672.43	1082.19
672.77	1081.75
673.11	1077.75
673.45	1077.23
673.79	1076.65
674.13	1079.29
674.47	1081.02
674.81	1081.61
675.15	1083.48
675.49	1087.65
675.83	1082.66
676.17	1081.51
676.51	1082.29
676.85	1078.26
677.19	1076.04
677.53	1079.22
677.87	1079.50
678.21	1079.88
678.55	1082.36
678.89	1080.95
679.23	1077.30
679.57	1077.70
679.90	1078.43
680.24	1076.65
680.58	1075.01
680.92	1078.50
681.26	1078.96
681.60	1079.46
681.94	1081.58
682.28	1085.00
682.62	1085.17
682.96	1088.07
683.29	1089.54
683.63	1088.77
683.97	1088.02
684.31	1086.20
684.65	1083.97
684.99	1083.60
685.33	1082.97
685.67	1084.70
686.00	1085.47
686.34	1082.40
686.68	1080.77
687.02	1081.51
687.36	1078.07
687.70	1077.89
688.03	1082.17
688.37	1082.80
688.71	1080.06
689.05	1080.95
689.39	1079.85
689.72	1076.20
690.06	1075.83
690.40	1078.03
690.74	1078.12
691.08	1080.09
691.41	1085.70
691.75	1087.04
692.09	1087.97
692.43	1086.55
692.76	1085.91
693.10	1081.00
693.44	1079.85
693.78	1077.77
694.11	1080.98
694.45	1080.44
694.79	1080.93
695.13	1083.15
695.46	1083.62
695.80	1082.15
696.14	1083.81
696.48	1085.89
696.81	1082.59
697.15	1084.98
697.49	1086.50
697.82	1082.97
698.16	1080.81
698.50	1081.87
698.83	1079.60
699.17	1074.75
699.51	1080.04
699.84	1079.29
700.18	1078.19
700.52	1077.33
700.85	1082.99
701.19	1080.51
701.53	1081.12
701.86	1082.94
702.20	1085.19
702.54	1083.57
702.87	1083.25
703.21	1083.74
703.55	1083.20
703.88	1081.91
704.22	1080.95
704.55	1080.16
704.89	1081.35
705.23	1082.19
705.56	1083.60
705.90	1086.15
706.23	1086.29
706.57	1086.17
706.91	1083.01
707.24	1083.74
707.58	1081.42
707.91	1082.92
708.25	1083.22
708.58	1085.19
708.92	1084.74
709.26	1086.90
709.59	1083.67
709.93	1079.38
710.26	1076.95
710.60	1073.88
710.93	1072.46
711.27	1074.31
711.60	1076.32
711.94	1079.43
712.27	1081.14
712.61	1079.69
712.94	1080.60
713.28	1082.61
713.61	1081.94
713.95	1082.71
714.28	1082.85
714.62	1083.39
714.95	1083.57
715.29	1085.52
715.62	1084.67
715.96	1084.14
716.29	1083.32
716.63	1081.66
716.96	1078.75
717.29	1077.96
717.63	1080.77
717.96	1080.65
718.30	1083.69
718.63	1083.20
718.97	1084.25
719.30	1079.27
719.63	1080.20
719.97	1074.14
720.30	1074.82
720.64	1077.63
720.97	1080.44
721.30	1081.96
721.64	1084.81
721.97	1085.28
722.31	1083.32
722.64	1085.40
722.97	1083.83
723.31	1086.15
723.64	1085.42
723.97	1084.53
724.31	1085.70
724.64	1083.20
724.98	1082.92
725.31	1083.36
725.64	1082.38
725.98	1079.08
726.31	1082.45
726.64	1080.27
726.97	1081.70
727.31	1082.15
727.64	1082.31
727.97	1079.60
728.31	1081.30
728.64	1079.55
728.97	1079.20
729.31	1079.67
729.64	1084.44
729.97	1083.60
730.30	1083.76
730.64	1087.93
730.97	1088.07
731.30	1083.41
731.63	1080.04
731.97	1082.50
732.30	1079.01
732.63	1077.21
732.96	1077.68
733.30	1080.32
733.63	1080.74
733.96	1080.81
734.29	1083.08
734.63	1083.18
734.96	1084.60
735.29	1082.85
735.62	1082.57
735.95	1084.49
736.29	1082.73
736.62	1085.12
736.95	1081.77
737.28	1085.05
737.61	1085.96
737.94	1086.13
738.28	1080.79
738.61	1084.00
738.94	1078.59
739.27	1074.19
739.60	1074.05
739.93	1075.45
740.27	1077.56
740.60	1076.32
740.93	1076.44
741.26	1076.79
741.59	1077.25
741.92	1075.55
742.25	1079.53
742.58	1081.98
742.91	1082.22
743.25	1083.67
743.58	1082.99
743.91	1081.89
744.24	1079.74
744.57	1078.82
744.90	1079.71
745.23	1077.61
745.56	1078.07
745.89	1080.16
746.22	1080.81
746.55	1078.14
746.88	1078.45
747.21	1077.77
747.54	1077.58
747.87	1079.85
748.20	1080.95
748.53	1082.22
748.87	1083.13
749.20	1082.10
749.53	1079.62
749.86	1079.55
750.19	1078.75
750.52	1079.06
750.85	1079.78
751.18	1079.92
751.51	1078.31
751.84	1078.43
752.16	1076.60
752.49	1074.35
752.82	1074.63
753.15	1075.43
753.48	1077.28
753.81	1080.11
754.14	1080.67
754.47	1081.12
754.80	1079.38
755.13	1080.13
755.46	1081.12
755.79	1079.60
756.12	1079.85
756.45	1084.79
756.78	1082.12
757.11	1080.81
757.43	1081.73
757.76	1080.18
758.09	1076.01
758.42	1074.82
758.75	1073.63
759.08	1074.05
759.41	1075.78
759.74	1077.21
760.07	1080.56
760.39	1081.00
760.72	1080.48
761.05	1077.56
761.38	1076.58
761.71	1073.58
762.04	1074.26
762.36	1074.07
762.69	1078.05
763.02	1078.31
763.35	1079.53
763.68	1077.07
764.01	1078.47
