SpectraSuite Data File
++++++++++++++++++++++++++++++++++++
Date: Mon Aug 26 10:22:31 PDT 2019
User: corrico
Dark Spectrum Present: No
Reference Spectrum Present: No
Number of Sampled Component Spectra: 1
Spectrometers: USB2+H06089
Integration Time (usec): 2000 (USB2+H06089)
Spectra Averaged: 20 (USB2+H06089)
Boxcar Smoothing: 2 (USB2+H06089)
Correct for Electrical Dark: No (USB2+H06089)
Strobe/Lamp Enabled: No (USB2+H06089)
Correct for Detector Non-linearity: No (USB2+H06089)
Correct for Stray Light: No (USB2+H06089)
Number of Pixels in Processed Spectrum: 2048
>>>>>Begin Processed Spectral Data<<<<<
339.70	1040.13
340.07	1040.13
340.45	1000.42
340.82	977.06
341.19	953.02
341.57	926.10
341.94	915.41
342.31	910.98
342.69	905.06
343.06	899.91
343.43	901.34
343.81	903.56
344.18	903.87
344.55	907.50
344.93	912.43
345.30	914.03
345.67	917.07
346.04	921.73
346.42	927.91
346.79	937.10
347.16	945.23
347.54	956.41
347.91	967.23
348.28	980.45
348.65	991.40
349.03	1004.63
349.40	1013.01
349.77	1021.62
350.14	1031.15
350.52	1038.17
350.89	1043.60
351.26	1049.17
351.63	1056.05
352.01	1055.70
352.38	1057.29
352.75	1062.04
353.12	1066.82
353.50	1071.38
353.87	1076.55
354.24	1079.92
354.61	1080.20
354.98	1079.95
355.36	1079.53
355.73	1081.21
356.10	1084.07
356.47	1084.07
356.84	1086.69
357.22	1086.41
357.59	1087.53
357.96	1084.30
358.33	1085.61
358.70	1084.04
359.08	1086.48
359.45	1085.07
359.82	1084.81
360.19	1085.00
360.56	1086.66
360.94	1082.85
361.31	1082.08
361.68	1085.61
362.05	1084.74
362.42	1084.07
362.79	1083.34
363.16	1079.99
363.54	1076.46
363.91	1075.01
364.28	1068.50
364.65	1071.59
365.02	1074.19
365.39	1075.85
365.76	1078.40
366.14	1081.56
366.51	1080.74
366.88	1076.51
367.25	1073.18
367.62	1068.13
367.99	1068.95
368.36	1066.68
368.73	1069.09
369.10	1072.46
369.48	1075.87
369.85	1075.17
370.22	1076.53
370.59	1076.55
370.96	1074.61
371.33	1074.94
371.70	1073.30
372.07	1072.92
372.44	1072.27
372.81	1073.16
373.18	1073.49
373.55	1075.97
373.93	1074.03
374.30	1077.04
374.67	1075.34
375.04	1075.83
375.41	1075.13
375.78	1077.33
376.15	1076.06
376.52	1074.68
376.89	1074.61
377.26	1074.05
377.63	1073.49
378.00	1073.21
378.37	1074.61
378.74	1072.95
379.11	1074.35
379.48	1077.07
379.85	1078.31
380.22	1078.75
380.59	1080.53
380.96	1082.22
381.33	1080.09
381.70	1080.67
382.07	1083.48
382.44	1079.55
382.81	1080.11
383.18	1080.18
383.55	1080.48
383.92	1078.43
384.29	1081.21
384.66	1080.93
385.03	1080.91
385.40	1079.29
385.77	1079.50
386.14	1082.36
386.51	1081.73
386.88	1080.60
387.25	1080.41
387.62	1081.82
387.99	1082.03
388.36	1084.32
388.73	1085.24
389.10	1088.23
389.46	1087.30
389.83	1084.32
390.20	1083.48
390.57	1086.15
390.94	1087.69
391.31	1090.43
391.68	1093.10
392.05	1094.60
392.42	1094.97
392.79	1093.73
393.16	1089.61
393.53	1089.96
393.89	1087.55
394.26	1086.50
394.63	1084.86
395.00	1086.57
395.37	1082.19
395.74	1084.35
396.11	1085.14
396.48	1086.92
396.84	1088.98
397.21	1093.50
397.58	1092.49
397.95	1090.99
398.32	1089.00
398.69	1088.37
399.06	1084.67
399.42	1085.24
399.79	1087.25
400.16	1090.03
400.53	1089.64
400.90	1094.27
401.27	1093.90
401.64	1090.13
402.00	1089.03
402.37	1089.05
402.74	1087.95
403.11	1090.92
403.48	1094.57
403.84	1092.98
404.21	1093.47
404.58	1092.80
404.95	1092.59
405.32	1091.79
405.68	1094.06
406.05	1092.63
406.42	1090.06
406.79	1087.69
407.16	1090.17
407.52	1089.47
407.89	1092.12
408.26	1094.48
408.63	1094.79
408.99	1092.42
409.36	1091.95
409.73	1091.49
410.10	1095.84
410.47	1096.49
410.83	1097.88
411.20	1095.32
411.57	1093.55
411.94	1093.62
412.30	1096.10
412.67	1094.22
413.04	1099.09
413.40	1103.61
413.77	1101.34
414.14	1101.53
414.51	1105.34
414.87	1105.90
415.24	1102.72
415.61	1101.88
415.97	1102.46
416.34	1102.21
416.71	1105.95
417.08	1108.38
417.44	1110.47
417.81	1107.66
418.18	1105.51
418.54	1105.29
418.91	1105.97
419.28	1106.09
419.64	1107.45
420.01	1112.50
420.38	1110.12
420.74	1111.03
421.11	1119.03
421.48	1120.84
421.84	1122.87
422.21	1124.65
422.58	1130.81
422.94	1128.77
423.31	1131.70
423.68	1133.47
424.04	1139.30
424.41	1138.18
424.77	1140.59
425.14	1146.82
425.51	1147.61
425.87	1151.59
426.24	1154.16
426.61	1158.71
426.97	1163.62
427.34	1171.88
427.70	1177.34
428.07	1185.88
428.44	1192.71
428.80	1199.43
429.17	1205.82
429.53	1212.73
429.90	1221.57
430.27	1231.71
430.63	1242.71
431.00	1255.44
431.36	1267.94
431.73	1280.25
432.09	1293.61
432.46	1306.37
432.83	1320.44
433.19	1337.62
433.56	1361.47
433.92	1379.86
434.29	1398.80
434.65	1424.15
435.02	1447.71
435.38	1471.94
435.75	1498.81
436.11	1529.68
436.48	1559.10
436.84	1594.54
437.21	1630.82
437.57	1670.14
437.94	1715.87
438.30	1756.76
438.67	1801.49
439.03	1851.81
439.40	1907.23
439.76	1961.39
440.13	2028.94
440.49	2094.78
440.86	2158.96
441.22	2230.76
441.59	2301.14
441.95	2378.69
442.32	2467.32
442.68	2565.06
443.05	2658.47
443.41	2765.53
443.78	2872.33
444.14	2977.04
444.51	3085.13
444.87	3222.15
445.24	3358.32
445.60	3506.64
445.96	3664.62
446.33	3837.71
446.69	3998.52
447.06	4181.58
447.42	4365.57
447.79	4558.31
448.15	4776.14
448.51	5011.30
448.88	5272.48
449.24	5512.48
449.61	5799.92
449.97	6085.63
450.33	6372.58
450.70	6637.29
451.06	6978.00
451.43	7275.49
451.79	7626.14
452.15	8035.08
452.52	8495.14
452.88	8956.48
453.24	9503.96
453.61	10093.02
453.97	10658.89
454.34	11219.15
454.70	11877.80
455.06	12524.91
455.43	13152.87
455.79	13754.56
456.15	14475.37
456.52	15131.56
456.88	15902.98
457.24	16641.12
457.61	17511.21
457.97	18277.85
458.33	19064.53
458.70	19833.40
459.06	20606.92
459.42	21447.62
459.79	22227.97
460.15	23139.87
460.51	24014.93
460.88	24961.88
461.24	25754.41
461.60	26736.01
461.96	27626.89
462.33	28464.73
462.69	29236.59
463.05	30069.38
463.42	30761.94
463.78	31407.91
464.14	31949.90
464.50	32566.47
464.87	33072.94
465.23	33427.88
465.59	33758.60
465.95	34080.59
466.32	34316.93
466.68	34533.76
467.04	34696.69
467.40	34850.51
467.77	34988.93
468.13	34958.36
468.49	34858.93
468.85	34748.20
469.22	34563.86
469.58	34213.48
469.94	33950.52
470.30	33634.60
470.66	33216.48
471.03	32611.69
471.39	32221.17
471.75	31584.92
472.11	30943.01
472.47	30579.45
472.84	30279.37
473.20	29779.76
473.56	29509.73
473.92	29110.83
474.28	28602.12
474.65	28097.76
475.01	27626.09
475.37	27053.39
475.73	26579.22
476.09	26042.04
476.45	25521.60
476.81	24998.19
477.18	24458.79
477.54	24010.99
477.90	23661.27
478.26	23239.06
478.62	22899.66
478.98	22612.31
479.34	22317.99
479.71	21905.71
480.07	21558.07
480.43	21191.23
480.79	20815.98
481.15	20434.77
481.51	20128.63
481.87	19871.59
482.23	19596.95
482.59	19334.23
482.96	19057.55
483.32	18743.50
483.68	18372.99
484.04	18029.38
484.40	17660.91
484.76	17287.38
485.12	16939.91
485.48	16628.10
485.84	16279.95
486.20	15918.50
486.56	15568.73
486.92	15251.73
487.28	14873.99
487.64	14504.67
488.00	14181.07
488.37	13844.55
488.73	13473.97
489.09	13127.03
489.45	12810.73
489.81	12483.53
490.17	12182.35
490.53	11885.10
490.89	11587.41
491.25	11283.00
491.61	10977.11
491.97	10654.77
492.33	10331.22
492.69	10028.40
493.05	9732.16
493.41	9437.81
493.77	9166.05
494.13	8921.05
494.49	8672.20
494.85	8430.16
495.21	8211.44
495.57	7995.06
495.93	7772.50
496.29	7577.09
496.64	7389.35
497.00	7196.14
497.36	7002.11
497.72	6810.96
498.08	6623.93
498.44	6444.90
498.80	6269.71
499.16	6100.82
499.52	5954.32
499.88	5820.77
500.24	5699.46
500.60	5582.06
500.96	5470.63
501.32	5355.59
501.68	5234.37
502.03	5102.98
502.39	4978.04
502.75	4844.72
503.11	4717.98
503.47	4592.79
503.83	4466.77
504.19	4345.91
504.55	4245.31
504.91	4146.63
505.26	4049.69
505.62	3967.96
505.98	3878.53
506.34	3782.68
506.70	3692.27
507.06	3605.67
507.42	3519.96
507.78	3443.19
508.13	3363.37
508.49	3290.33
508.85	3223.27
509.21	3153.29
509.57	3087.00
509.93	3023.32
510.28	2957.24
510.64	2889.09
511.00	2832.28
511.36	2774.12
511.72	2722.86
512.07	2673.24
512.43	2631.11
512.79	2573.56
513.15	2526.80
513.51	2480.71
513.86	2435.12
514.22	2390.41
514.58	2350.09
514.94	2312.45
515.30	2274.72
515.65	2234.09
516.01	2204.83
516.37	2176.39
516.73	2143.09
517.08	2110.86
517.44	2082.37
517.80	2047.10
518.16	2021.08
518.51	1993.50
518.87	1966.14
519.23	1939.74
519.59	1917.41
519.94	1886.82
520.30	1860.12
520.66	1836.50
521.01	1813.35
521.37	1786.41
521.73	1768.88
522.09	1750.23
522.44	1731.81
522.80	1713.51
523.16	1698.74
523.51	1678.16
523.87	1658.85
524.23	1639.01
524.58	1617.90
524.94	1604.67
525.30	1587.63
525.65	1571.39
526.01	1555.80
526.37	1540.61
526.72	1518.89
527.08	1502.65
527.44	1491.88
527.79	1480.65
528.15	1470.02
528.51	1458.83
528.86	1452.72
529.22	1439.92
529.58	1429.93
529.93	1420.10
530.29	1409.96
530.65	1394.44
531.00	1384.78
531.36	1370.90
531.71	1363.53
532.07	1356.97
532.43	1351.40
532.78	1341.41
533.14	1336.63
533.49	1327.72
533.85	1319.29
534.21	1311.96
534.56	1308.50
534.92	1301.90
535.27	1296.52
535.63	1289.73
535.98	1284.74
536.34	1275.26
536.69	1267.80
537.05	1260.89
537.41	1256.56
537.76	1249.00
538.12	1248.96
538.47	1243.62
538.83	1240.02
539.18	1233.53
539.54	1227.94
539.89	1220.43
540.25	1218.81
540.60	1215.70
540.96	1211.95
541.31	1212.91
541.67	1211.02
542.02	1207.90
542.38	1203.11
542.73	1201.33
543.09	1195.76
543.44	1193.67
543.80	1188.57
544.15	1183.37
544.51	1177.27
544.86	1174.76
545.22	1170.03
545.57	1171.70
545.93	1172.82
546.28	1176.03
546.64	1175.42
546.99	1174.11
547.35	1172.07
547.70	1168.09
548.05	1162.54
548.41	1160.06
548.76	1155.15
549.12	1147.21
549.47	1146.46
549.83	1146.65
550.18	1145.58
550.53	1145.08
550.89	1147.10
551.24	1145.46
551.60	1144.76
551.95	1144.85
552.30	1145.20
552.66	1146.00
553.01	1144.12
553.37	1138.48
553.72	1133.71
554.07	1132.94
554.43	1128.26
554.78	1126.52
555.13	1127.74
555.49	1128.49
555.84	1125.54
556.19	1121.35
556.55	1123.36
556.90	1121.42
557.26	1120.34
557.61	1122.54
557.96	1128.16
558.32	1124.70
558.67	1126.31
559.02	1124.07
559.37	1121.21
559.73	1117.49
560.08	1118.80
560.43	1116.76
560.79	1117.16
561.14	1116.93
561.49	1120.70
561.85	1119.06
562.20	1118.38
562.55	1116.44
562.90	1111.52
563.26	1108.20
563.61	1105.04
563.96	1104.52
564.32	1103.63
564.67	1107.89
565.02	1105.25
565.37	1106.63
565.73	1105.51
566.08	1108.78
566.43	1108.88
566.78	1110.87
567.14	1111.89
567.49	1115.20
567.84	1116.20
568.19	1115.01
568.54	1109.86
568.90	1106.23
569.25	1104.92
569.60	1101.27
569.95	1100.15
570.31	1101.99
570.66	1102.11
571.01	1099.51
571.36	1096.96
571.71	1096.89
572.06	1098.58
572.42	1097.83
572.77	1097.62
573.12	1100.99
573.47	1100.40
573.82	1096.89
574.18	1097.29
574.53	1096.75
574.88	1094.53
575.23	1093.73
575.58	1092.12
575.93	1094.69
576.28	1094.43
576.64	1095.98
576.99	1095.42
577.34	1098.09
577.69	1095.96
578.04	1099.63
578.39	1096.33
578.74	1095.70
579.09	1094.29
579.44	1093.47
579.80	1091.46
580.15	1092.26
580.50	1093.85
580.85	1094.95
581.20	1096.85
581.55	1095.75
581.90	1094.36
582.25	1092.94
582.60	1093.19
582.95	1091.25
583.30	1087.46
583.65	1090.46
584.00	1092.30
584.35	1092.75
584.71	1092.66
585.06	1094.97
585.41	1090.71
585.76	1089.10
586.11	1088.37
586.46	1089.10
586.81	1089.50
587.16	1093.64
587.51	1095.35
587.86	1095.02
588.21	1093.26
588.56	1093.71
588.91	1091.42
589.26	1088.51
589.61	1086.27
589.96	1088.77
590.31	1086.36
590.66	1085.10
591.01	1085.66
591.36	1087.25
591.71	1087.62
592.06	1087.69
592.41	1088.30
592.76	1087.09
593.10	1087.32
593.45	1082.26
593.80	1083.74
594.15	1084.14
594.50	1086.41
594.85	1085.56
595.20	1089.82
595.55	1090.67
595.90	1091.23
596.25	1086.43
596.60	1086.22
596.95	1082.66
597.30	1084.14
597.64	1093.05
597.99	1097.27
598.34	1097.52
598.69	1099.93
599.04	1096.80
599.39	1087.48
599.74	1085.03
600.09	1087.83
600.44	1087.90
600.78	1089.10
601.13	1085.99
601.48	1085.47
601.83	1082.80
602.18	1083.41
602.53	1082.97
602.88	1087.06
603.22	1088.19
603.57	1088.51
603.92	1089.94
604.27	1089.17
604.62	1087.23
604.97	1088.14
605.31	1086.41
605.66	1082.43
606.01	1083.11
606.36	1086.45
606.71	1087.86
607.05	1088.79
607.40	1087.55
607.75	1084.84
608.10	1082.94
608.44	1080.37
608.79	1080.81
609.14	1085.21
609.49	1090.22
609.84	1087.16
610.18	1086.94
610.53	1086.29
610.88	1083.36
611.23	1079.57
611.57	1079.06
611.92	1082.45
612.27	1086.90
612.62	1089.17
612.96	1087.79
613.31	1089.64
613.66	1086.66
614.00	1081.96
614.35	1081.26
614.70	1084.07
615.05	1087.37
615.39	1088.49
615.74	1088.82
616.09	1087.79
616.43	1086.69
616.78	1083.71
617.13	1084.37
617.47	1082.54
617.82	1084.98
618.17	1083.64
618.51	1086.55
618.86	1084.49
619.21	1086.50
619.55	1087.23
619.90	1088.79
620.25	1085.05
620.59	1085.89
620.94	1087.41
621.29	1082.90
621.63	1081.89
621.98	1082.99
622.32	1082.85
622.67	1082.38
623.02	1084.72
623.36	1084.35
623.71	1084.49
624.05	1084.44
624.40	1084.74
624.75	1084.46
625.09	1084.30
625.44	1081.66
625.78	1081.84
626.13	1079.06
626.48	1077.65
626.82	1078.82
627.17	1079.46
627.51	1077.82
627.86	1079.78
628.20	1080.72
628.55	1079.62
628.89	1080.23
629.24	1078.75
629.58	1076.72
629.93	1075.05
630.28	1074.59
630.62	1076.58
630.97	1078.12
631.31	1081.80
631.66	1081.75
632.00	1085.17
632.35	1080.95
632.69	1083.57
633.04	1083.13
633.38	1084.51
633.73	1087.97
634.07	1093.94
634.42	1091.34
634.76	1091.65
635.11	1093.40
635.45	1089.07
635.79	1084.84
636.14	1082.87
636.48	1083.22
636.83	1078.94
637.17	1077.77
637.52	1078.75
637.86	1081.30
638.21	1077.89
638.55	1080.13
638.89	1079.06
639.24	1079.55
639.58	1081.58
639.93	1082.85
640.27	1082.31
640.61	1083.81
640.96	1083.81
641.30	1083.86
641.65	1084.72
641.99	1084.63
642.33	1084.18
642.68	1085.26
643.02	1084.53
643.37	1083.83
643.71	1085.42
644.05	1083.32
644.40	1078.75
644.74	1078.38
645.08	1078.75
645.43	1076.81
645.77	1080.27
646.11	1083.43
646.46	1083.71
646.80	1081.51
647.14	1083.15
647.49	1082.05
647.83	1082.71
648.17	1081.91
648.52	1085.73
648.86	1089.26
649.20	1089.54
649.55	1091.72
649.89	1091.39
650.23	1088.49
650.57	1084.46
650.92	1083.81
651.26	1083.29
651.60	1084.04
651.95	1082.26
652.29	1081.09
652.63	1080.25
652.97	1078.64
653.32	1077.84
653.66	1081.61
654.00	1083.25
654.34	1083.55
654.69	1084.25
655.03	1084.63
655.37	1084.28
655.71	1083.93
656.05	1085.99
656.40	1085.77
656.74	1085.68
657.08	1083.93
657.42	1083.39
657.76	1080.20
658.11	1081.05
658.45	1083.67
658.79	1084.49
659.13	1084.18
659.47	1086.97
659.82	1082.61
660.16	1082.19
660.50	1082.59
660.84	1082.33
661.18	1080.32
661.52	1084.16
661.87	1083.62
662.21	1084.91
662.55	1086.34
662.89	1088.93
663.23	1087.39
663.57	1088.09
663.91	1086.66
664.25	1087.60
664.60	1085.94
664.94	1086.45
665.28	1084.42
665.62	1084.02
665.96	1082.17
666.30	1082.45
666.64	1082.59
666.98	1082.83
667.32	1084.86
667.66	1084.70
668.01	1086.66
668.35	1085.49
668.69	1084.37
669.03	1083.55
669.37	1085.14
669.71	1082.59
670.05	1084.42
670.39	1086.36
670.73	1084.84
671.07	1084.74
671.41	1083.60
671.75	1080.51
672.09	1081.80
672.43	1085.94
672.77	1084.42
673.11	1083.86
673.45	1084.07
673.79	1079.20
674.13	1077.04
674.47	1078.17
674.81	1079.60
675.15	1081.54
675.49	1084.46
675.83	1084.09
676.17	1085.66
676.51	1084.63
676.85	1086.03
677.19	1084.91
677.53	1081.00
677.87	1077.82
678.21	1079.29
678.55	1074.10
678.89	1074.12
679.23	1075.87
679.57	1076.90
679.90	1077.61
680.24	1077.44
680.58	1078.26
680.92	1077.09
681.26	1074.61
681.60	1074.00
681.94	1078.82
682.28	1081.68
682.62	1084.28
682.96	1086.03
683.29	1085.03
683.63	1082.19
683.97	1083.15
684.31	1085.17
684.65	1084.65
684.99	1088.42
685.33	1093.40
685.67	1089.00
686.00	1089.29
686.34	1091.23
686.68	1089.54
687.02	1087.06
687.36	1085.94
687.70	1081.94
688.03	1079.95
688.37	1077.23
688.71	1075.01
689.05	1075.20
689.39	1076.30
689.72	1076.34
690.06	1076.32
690.40	1078.36
690.74	1081.21
691.08	1084.86
691.41	1086.83
691.75	1089.33
692.09	1089.85
692.43	1088.14
692.76	1084.53
693.10	1082.59
693.44	1080.56
693.78	1083.53
694.11	1085.47
694.45	1083.53
694.79	1083.74
695.13	1084.00
695.46	1079.01
695.80	1078.52
696.14	1079.53
696.48	1078.96
696.81	1080.37
697.15	1079.03
697.49	1078.73
697.82	1078.59
698.16	1082.24
698.50	1082.71
698.83	1084.21
699.17	1086.38
699.51	1086.27
699.84	1084.32
700.18	1082.52
700.52	1083.81
700.85	1078.66
701.19	1081.16
701.53	1077.65
701.86	1079.95
702.20	1081.73
702.54	1084.07
702.87	1083.67
703.21	1086.85
703.55	1086.62
703.88	1083.79
704.22	1079.88
704.55	1078.73
704.89	1080.18
705.23	1078.57
705.56	1080.70
705.90	1083.32
706.23	1081.58
706.57	1077.54
706.91	1075.38
707.24	1071.08
707.58	1072.85
707.91	1074.80
708.25	1080.72
708.58	1080.65
708.92	1081.26
709.26	1081.21
709.59	1078.24
709.93	1076.67
710.26	1078.61
710.60	1078.85
710.93	1078.89
711.27	1081.37
711.60	1082.47
711.94	1083.06
712.27	1085.12
712.61	1079.53
712.94	1077.47
713.28	1071.61
713.61	1071.10
713.95	1071.38
714.28	1077.40
714.62	1079.13
714.95	1080.72
715.29	1084.23
715.62	1083.83
715.96	1081.73
716.29	1082.90
716.63	1085.59
716.96	1080.09
717.29	1080.20
717.63	1080.02
717.96	1078.17
718.30	1078.43
718.63	1082.38
718.97	1083.67
719.30	1084.51
719.63	1084.98
719.97	1085.77
720.30	1084.86
720.64	1082.43
720.97	1084.35
721.30	1083.08
721.64	1081.82
721.97	1081.58
722.31	1081.40
722.64	1081.16
722.97	1083.60
723.31	1077.30
723.64	1077.63
723.97	1080.74
724.31	1077.93
724.64	1076.15
724.98	1081.09
725.31	1082.24
725.64	1080.63
725.98	1081.73
726.31	1083.93
726.64	1082.94
726.97	1080.32
727.31	1076.90
727.64	1076.25
727.97	1072.20
728.31	1072.53
728.64	1073.65
728.97	1074.70
729.31	1077.72
729.64	1080.74
729.97	1081.47
730.30	1079.81
730.64	1082.80
730.97	1079.41
731.30	1079.36
731.63	1079.43
731.97	1078.92
732.30	1077.63
732.63	1076.13
732.96	1078.50
733.30	1078.24
733.63	1083.88
733.96	1085.35
734.29	1088.77
734.63	1084.00
734.96	1085.31
735.29	1077.68
735.62	1076.25
735.95	1076.86
736.29	1078.99
736.62	1078.28
736.95	1083.25
737.28	1082.47
737.61	1081.28
737.94	1083.22
738.28	1082.19
738.61	1081.19
738.94	1083.41
739.27	1082.52
739.60	1081.89
739.93	1082.43
740.27	1082.33
740.60	1080.53
740.93	1083.04
741.26	1082.31
741.59	1080.25
741.92	1079.55
742.25	1080.70
742.58	1077.44
742.91	1076.53
743.25	1076.18
743.58	1077.54
743.91	1077.42
744.24	1080.23
744.57	1080.63
744.90	1081.23
745.23	1080.39
745.56	1078.89
745.89	1079.31
746.22	1079.13
746.55	1080.51
746.88	1080.93
747.21	1082.01
747.54	1076.86
747.87	1076.41
748.20	1077.96
748.53	1079.97
748.87	1080.56
749.20	1081.82
749.53	1083.18
749.86	1082.29
750.19	1079.36
750.52	1077.42
750.85	1079.22
751.18	1078.45
751.51	1079.10
751.84	1079.67
752.16	1078.38
752.49	1078.87
752.82	1075.99
753.15	1073.30
753.48	1074.87
753.81	1076.32
754.14	1078.17
754.47	1080.72
754.80	1084.14
755.13	1083.27
755.46	1083.97
755.79	1083.18
756.12	1081.82
756.45	1079.22
756.78	1078.54
757.11	1081.77
757.43	1077.21
757.76	1081.26
758.09	1080.98
758.42	1080.06
758.75	1076.41
759.08	1078.73
759.41	1076.58
759.74	1080.53
760.07	1080.13
760.39	1081.09
760.72	1083.74
761.05	1082.78
761.38	1077.86
761.71	1078.87
762.04	1074.84
762.36	1070.75
762.69	1072.22
763.02	1072.64
763.35	1071.75
763.68	1075.71
764.01	1078.94
