SpectraSuite Data File
++++++++++++++++++++++++++++++++++++
Date: Mon Aug 26 10:22:28 PDT 2019
User: corrico
Dark Spectrum Present: No
Reference Spectrum Present: No
Number of Sampled Component Spectra: 1
Spectrometers: USB2+H06089
Integration Time (usec): 2000 (USB2+H06089)
Spectra Averaged: 20 (USB2+H06089)
Boxcar Smoothing: 2 (USB2+H06089)
Correct for Electrical Dark: No (USB2+H06089)
Strobe/Lamp Enabled: No (USB2+H06089)
Correct for Detector Non-linearity: No (USB2+H06089)
Correct for Stray Light: No (USB2+H06089)
Number of Pixels in Processed Spectrum: 2048
>>>>>Begin Processed Spectral Data<<<<<
339.70	1029.95
340.07	1029.95
340.45	997.30
340.82	974.04
341.19	951.97
341.57	925.75
341.94	916.27
342.31	904.24
342.69	901.06
343.06	896.35
343.43	895.30
343.81	894.51
344.18	899.19
344.55	904.97
344.93	907.57
345.30	915.17
345.67	919.62
346.04	926.62
346.42	932.70
346.79	942.58
347.16	952.62
347.54	965.80
347.91	976.64
348.28	985.79
348.65	995.29
349.03	1005.19
349.40	1012.42
349.77	1019.35
350.14	1025.95
350.52	1032.78
350.89	1036.79
351.26	1044.07
351.63	1051.06
352.01	1057.52
352.38	1063.05
352.75	1070.96
353.12	1072.06
353.50	1073.98
353.87	1076.79
354.24	1079.71
354.61	1079.03
354.98	1081.54
355.36	1081.84
355.73	1082.45
356.10	1080.81
356.47	1081.07
356.84	1083.27
357.22	1086.71
357.59	1090.53
357.96	1093.83
358.33	1093.92
358.70	1091.77
359.08	1088.54
359.45	1085.38
359.82	1083.57
360.19	1079.88
360.56	1079.36
360.94	1079.31
361.31	1080.41
361.68	1080.04
362.05	1080.72
362.42	1079.76
362.79	1081.00
363.16	1076.13
363.54	1072.39
363.91	1073.02
364.28	1072.62
364.65	1072.11
365.02	1072.69
365.39	1074.54
365.76	1074.42
366.14	1073.72
366.51	1074.19
366.88	1073.53
367.25	1076.65
367.62	1077.25
367.99	1079.88
368.36	1082.61
368.73	1084.35
369.10	1081.91
369.48	1082.54
369.85	1079.85
370.22	1075.05
370.59	1073.79
370.96	1074.56
371.33	1074.03
371.70	1074.21
372.07	1072.85
372.44	1075.36
372.81	1075.57
373.18	1074.80
373.55	1076.69
373.93	1081.23
374.30	1079.99
374.67	1082.05
375.04	1082.73
375.41	1082.01
375.78	1082.33
376.15	1082.87
376.52	1079.01
376.89	1082.26
377.26	1083.97
377.63	1081.05
378.00	1078.96
378.37	1080.18
378.74	1077.47
379.11	1079.08
379.48	1080.81
379.85	1081.44
380.22	1081.23
380.59	1083.20
380.96	1081.42
381.33	1083.18
381.70	1084.09
382.07	1086.57
382.44	1086.94
382.81	1086.64
383.18	1085.63
383.55	1086.01
383.92	1084.72
384.29	1084.72
384.66	1087.58
385.03	1086.66
385.40	1083.88
385.77	1085.19
386.14	1082.76
386.51	1077.58
386.88	1076.18
387.25	1076.53
387.62	1072.25
387.99	1070.51
388.36	1075.20
388.73	1077.28
389.10	1080.18
389.46	1084.07
389.83	1086.59
390.20	1084.72
390.57	1084.74
390.94	1085.54
391.31	1088.44
391.68	1087.39
392.05	1086.52
392.42	1086.85
392.79	1085.14
393.16	1082.29
393.53	1083.46
393.89	1086.92
394.26	1086.83
394.63	1087.74
395.00	1090.53
395.37	1091.91
395.74	1090.78
396.11	1089.43
396.48	1088.86
396.84	1086.45
397.21	1084.25
397.58	1086.03
397.95	1087.72
398.32	1088.84
398.69	1090.83
399.06	1092.68
399.42	1090.97
399.79	1091.02
400.16	1091.67
400.53	1089.24
400.90	1087.67
401.27	1087.74
401.64	1088.37
402.00	1090.20
402.37	1089.96
402.74	1089.03
403.11	1090.97
403.48	1091.06
403.84	1087.39
404.21	1088.02
404.58	1086.83
404.95	1082.01
405.32	1080.98
405.68	1082.05
406.05	1084.11
406.42	1088.23
406.79	1089.24
407.16	1090.62
407.52	1094.01
407.89	1094.50
408.26	1093.92
408.63	1098.93
408.99	1099.26
409.36	1099.02
409.73	1099.61
410.10	1101.32
410.47	1100.33
410.83	1102.58
411.20	1101.39
411.57	1099.79
411.94	1100.59
412.30	1097.92
412.67	1095.98
413.04	1097.08
413.40	1097.08
413.77	1098.98
414.14	1100.66
414.51	1098.90
414.87	1100.64
415.24	1101.69
415.61	1097.92
415.97	1098.74
416.34	1100.59
416.71	1096.40
417.08	1101.85
417.44	1104.80
417.81	1109.34
418.18	1108.99
418.54	1114.68
418.91	1112.46
419.28	1114.70
419.64	1115.55
420.01	1120.77
420.38	1119.03
420.74	1119.57
421.11	1120.20
421.48	1114.59
421.84	1113.16
422.21	1116.15
422.58	1115.66
422.94	1118.96
423.31	1124.86
423.68	1127.83
424.04	1131.30
424.41	1138.74
424.77	1138.97
425.14	1144.15
425.51	1146.68
425.87	1153.23
426.24	1156.20
426.61	1161.07
426.97	1165.19
427.34	1173.59
427.70	1175.35
428.07	1181.24
428.44	1190.56
428.80	1199.66
429.17	1204.37
429.53	1214.41
429.90	1225.13
430.27	1232.69
430.63	1244.44
431.00	1255.53
431.36	1268.64
431.73	1279.41
432.09	1292.05
432.46	1302.48
432.83	1320.04
433.19	1336.19
433.56	1357.44
433.92	1382.88
434.29	1405.26
434.65	1425.85
435.02	1449.66
435.38	1472.71
435.75	1498.34
436.11	1531.06
436.48	1566.40
436.84	1603.45
437.21	1638.77
437.57	1668.99
437.94	1709.81
438.30	1754.49
438.67	1798.23
439.03	1848.53
439.40	1906.30
439.76	1960.36
440.13	2018.06
440.49	2085.96
440.86	2152.68
441.22	2227.89
441.59	2301.75
441.95	2384.56
442.32	2462.52
442.68	2559.89
443.05	2651.69
443.41	2751.63
443.78	2854.75
444.14	2967.71
444.51	3075.51
444.87	3210.58
445.24	3352.23
445.60	3508.25
445.96	3667.39
446.33	3842.34
446.69	4006.29
447.06	4185.44
447.42	4367.25
447.79	4556.81
448.15	4778.77
448.51	5012.73
448.88	5278.33
449.24	5521.60
449.61	5804.46
449.97	6077.97
450.33	6365.86
450.70	6628.63
451.06	6962.70
451.43	7269.00
451.79	7633.07
452.15	8045.17
452.52	8501.97
452.88	8981.64
453.24	9515.21
453.61	10107.42
453.97	10661.44
454.34	11212.62
454.70	11853.64
455.06	12509.41
455.43	13132.75
455.79	13747.98
456.15	14469.45
456.52	15126.41
456.88	15902.93
457.24	16623.33
457.61	17475.70
457.97	18242.65
458.33	19040.54
458.70	19821.18
459.06	20600.97
459.42	21442.51
459.79	22244.64
460.15	23154.83
460.51	24043.93
460.88	24980.89
461.24	25786.27
461.60	26774.44
461.96	27653.90
462.33	28461.31
462.69	29247.47
463.05	30105.89
463.42	30802.20
463.78	31438.61
464.14	31992.22
464.50	32581.78
464.87	33036.59
465.23	33384.18
465.59	33724.76
465.95	34036.40
466.32	34295.43
466.68	34528.59
467.04	34660.53
467.40	34813.74
467.77	34977.11
468.13	34960.37
468.49	34849.03
468.85	34762.01
469.22	34593.14
469.58	34229.35
469.94	33978.14
470.30	33673.57
470.66	33271.32
471.03	32667.93
471.39	32282.78
471.75	31650.43
472.11	31043.44
472.47	30660.13
472.84	30354.55
473.20	29870.15
473.56	29594.48
473.92	29185.64
474.28	28701.80
474.65	28204.27
475.01	27728.28
475.37	27150.54
475.73	26684.19
476.09	26130.86
476.45	25598.67
476.81	25062.67
477.18	24524.91
477.54	24072.50
477.90	23717.02
478.26	23293.13
478.62	22960.16
478.98	22675.48
479.34	22351.76
479.71	21936.48
480.07	21585.47
480.43	21212.70
480.79	20810.66
481.15	20450.22
481.51	20132.59
481.87	19885.43
482.23	19596.58
482.59	19360.49
482.96	19078.57
483.32	18790.17
483.68	18405.36
484.04	18065.35
484.40	17697.21
484.76	17327.31
485.12	16961.02
485.48	16647.50
485.84	16281.21
486.20	15913.72
486.56	15564.21
486.92	15233.10
487.28	14882.44
487.64	14542.47
488.00	14205.44
488.37	13872.10
488.73	13507.91
489.09	13142.74
489.45	12829.48
489.81	12522.54
490.17	12216.31
490.53	11940.97
490.89	11644.73
491.25	11327.89
491.61	11016.57
491.97	10698.94
492.33	10377.42
492.69	10076.01
493.05	9774.62
493.41	9476.90
493.77	9199.08
494.13	8940.35
494.49	8693.26
494.85	8459.77
495.21	8244.35
495.57	8017.60
495.93	7799.51
496.29	7587.92
496.64	7396.33
497.00	7197.78
497.36	7012.99
497.72	6826.34
498.08	6653.07
498.44	6469.83
498.80	6293.75
499.16	6122.89
499.52	5970.29
499.88	5831.80
500.24	5708.61
500.60	5586.30
500.96	5480.11
501.32	5361.72
501.68	5242.43
502.03	5116.04
502.39	4989.44
502.75	4844.89
503.11	4722.36
503.47	4602.66
503.83	4475.08
504.19	4360.91
504.55	4259.12
504.91	4156.30
505.26	4059.26
505.62	3981.70
505.98	3890.86
506.34	3802.18
506.70	3711.74
507.06	3621.93
507.42	3524.10
507.78	3447.30
508.13	3368.34
508.49	3296.97
508.85	3225.05
509.21	3162.41
509.57	3098.87
509.93	3034.86
510.28	2963.89
510.64	2902.01
511.00	2836.28
511.36	2771.19
511.72	2718.09
512.07	2670.93
512.43	2619.93
512.79	2569.18
513.15	2524.06
513.51	2470.55
513.86	2421.71
514.22	2379.83
514.58	2341.68
514.94	2300.63
515.30	2269.78
515.65	2235.24
516.01	2203.26
516.37	2175.36
516.73	2150.95
517.08	2123.03
517.44	2091.76
517.80	2064.31
518.16	2038.33
518.51	2007.24
518.87	1979.11
519.23	1954.60
519.59	1921.49
519.94	1887.36
520.30	1857.78
520.66	1828.85
521.01	1805.28
521.37	1785.62
521.73	1768.84
522.09	1748.22
522.44	1729.77
522.80	1708.54
523.16	1691.58
523.51	1670.42
523.87	1656.54
524.23	1638.59
524.58	1619.28
524.94	1599.55
525.30	1580.00
525.65	1562.14
526.01	1544.43
526.37	1531.95
526.72	1519.22
527.08	1508.26
527.44	1494.39
527.79	1485.82
528.15	1469.95
528.51	1457.80
528.86	1447.41
529.22	1433.74
529.58	1417.57
529.93	1410.78
530.29	1400.46
530.65	1388.17
531.00	1380.05
531.36	1374.32
531.71	1365.37
532.07	1356.79
532.43	1349.13
532.78	1342.98
533.14	1336.12
533.49	1329.99
533.85	1320.95
534.21	1314.37
534.56	1306.39
534.92	1297.10
535.27	1287.48
535.63	1282.52
535.98	1278.05
536.34	1271.57
536.69	1266.51
537.05	1260.57
537.41	1254.64
537.76	1248.07
538.12	1245.89
538.47	1242.85
538.83	1244.81
539.18	1242.82
539.54	1239.20
539.89	1231.15
540.25	1226.63
540.60	1218.86
540.96	1213.87
541.31	1208.35
541.67	1206.57
542.02	1201.16
542.38	1196.13
542.73	1191.03
543.09	1192.13
543.44	1189.72
543.80	1184.22
544.15	1183.91
544.51	1183.40
544.86	1178.95
545.22	1175.09
545.57	1179.42
545.93	1177.85
546.28	1173.85
546.64	1172.14
546.99	1169.05
547.35	1165.52
547.70	1161.91
548.05	1161.75
548.41	1159.78
548.76	1158.89
549.12	1155.01
549.47	1152.60
549.83	1153.37
550.18	1148.71
550.53	1143.33
550.89	1142.42
551.24	1141.15
551.60	1135.32
551.95	1136.61
552.30	1138.23
552.66	1135.42
553.01	1134.90
553.37	1132.35
553.72	1131.86
554.07	1131.79
554.43	1134.95
554.78	1134.25
555.13	1135.39
555.49	1133.76
555.84	1130.13
556.19	1125.77
556.55	1125.42
556.90	1125.61
557.26	1124.91
557.61	1128.49
557.96	1130.08
558.32	1126.71
558.67	1123.71
559.02	1121.12
559.37	1119.71
559.73	1118.52
560.08	1118.35
560.43	1118.85
560.79	1119.62
561.14	1117.09
561.49	1112.20
561.85	1115.27
562.20	1115.38
562.55	1111.78
562.90	1113.23
563.26	1114.66
563.61	1111.15
563.96	1109.25
564.32	1110.26
564.67	1109.18
565.02	1109.60
565.37	1108.06
565.73	1107.12
566.08	1107.21
566.43	1103.59
566.78	1104.62
567.14	1106.56
567.49	1106.44
567.84	1106.51
568.19	1106.21
568.54	1101.95
568.90	1096.63
569.25	1096.94
569.60	1096.73
569.95	1096.68
570.31	1098.04
570.66	1100.50
571.01	1102.91
571.36	1103.47
571.71	1106.11
572.06	1108.08
572.42	1107.54
572.77	1102.84
573.12	1100.94
573.47	1097.73
573.82	1094.62
574.18	1092.61
574.53	1094.50
574.88	1093.92
575.23	1097.50
575.58	1095.51
575.93	1096.12
576.28	1096.68
576.64	1095.49
576.99	1091.16
577.34	1094.32
577.69	1094.65
578.04	1093.08
578.39	1090.60
578.74	1091.98
579.09	1093.05
579.44	1091.25
579.80	1091.20
580.15	1093.26
580.50	1091.74
580.85	1089.17
581.20	1091.42
581.55	1092.09
581.90	1092.26
582.25	1090.55
582.60	1092.35
582.95	1096.66
583.30	1093.36
583.65	1093.57
584.00	1097.55
584.35	1095.56
584.71	1092.54
585.06	1092.66
585.41	1089.19
585.76	1085.96
586.11	1087.02
586.46	1084.04
586.81	1086.22
587.16	1089.24
587.51	1088.35
587.86	1084.70
588.21	1085.21
588.56	1086.87
588.91	1085.49
589.26	1084.56
589.61	1085.68
589.96	1086.45
590.31	1083.88
590.66	1083.29
591.01	1087.79
591.36	1090.39
591.71	1090.46
592.06	1088.30
592.41	1089.24
592.76	1087.60
593.10	1088.02
593.45	1085.26
593.80	1086.36
594.15	1085.96
594.50	1084.86
594.85	1085.33
595.20	1086.24
595.55	1087.72
595.90	1087.58
596.25	1087.72
596.60	1083.46
596.95	1085.10
597.30	1088.63
597.64	1098.39
597.99	1102.67
598.34	1102.70
598.69	1101.53
599.04	1096.78
599.39	1088.91
599.74	1086.55
600.09	1089.54
600.44	1091.67
600.78	1094.69
601.13	1092.00
601.48	1090.83
601.83	1089.19
602.18	1088.75
602.53	1084.16
602.88	1085.28
603.22	1084.04
603.57	1083.04
603.92	1079.06
604.27	1078.17
604.62	1076.39
604.97	1077.00
605.31	1076.18
605.66	1079.36
606.01	1085.40
606.36	1086.34
606.71	1086.41
607.05	1089.33
607.40	1088.91
607.75	1087.30
608.10	1090.20
608.44	1090.10
608.79	1089.59
609.14	1089.31
609.49	1085.03
609.84	1081.26
610.18	1077.04
610.53	1074.91
610.88	1076.23
611.23	1079.17
611.57	1077.79
611.92	1083.69
612.27	1085.77
612.62	1083.20
612.96	1081.16
613.31	1084.86
613.66	1084.14
614.00	1086.41
614.35	1088.19
614.70	1089.73
615.05	1089.22
615.39	1089.22
615.74	1085.10
616.09	1084.56
616.43	1082.87
616.78	1083.60
617.13	1082.64
617.47	1085.03
617.82	1084.81
618.17	1085.84
618.51	1087.23
618.86	1089.85
619.21	1089.12
619.55	1086.83
619.90	1087.37
620.25	1085.77
620.59	1084.49
620.94	1082.94
621.29	1085.68
621.63	1084.96
621.98	1083.06
622.32	1079.95
622.67	1079.92
623.02	1079.67
623.36	1084.93
623.71	1085.80
624.05	1087.93
624.40	1091.39
624.75	1093.43
625.09	1091.09
625.44	1095.51
625.78	1096.10
626.13	1092.21
626.48	1089.24
626.82	1088.65
627.17	1083.93
627.51	1085.33
627.86	1088.63
628.20	1091.25
628.55	1091.77
628.89	1094.60
629.24	1092.49
629.58	1091.53
629.93	1088.86
630.28	1086.55
630.62	1085.42
630.97	1084.35
631.31	1081.14
631.66	1084.51
632.00	1083.46
632.35	1082.24
632.69	1082.52
633.04	1085.05
633.38	1080.30
633.73	1080.04
634.07	1081.35
634.42	1083.32
634.76	1084.18
635.11	1084.25
635.45	1084.79
635.79	1083.20
636.14	1081.05
636.48	1079.97
636.83	1079.08
637.17	1076.13
637.52	1077.79
637.86	1078.68
638.21	1078.14
638.55	1082.05
638.89	1085.24
639.24	1083.90
639.58	1085.21
639.93	1084.04
640.27	1084.98
640.61	1084.49
640.96	1083.74
641.30	1080.37
641.65	1081.56
641.99	1077.49
642.33	1078.24
642.68	1079.38
643.02	1082.83
643.37	1083.15
643.71	1085.73
644.05	1087.48
644.40	1085.70
644.74	1085.77
645.08	1085.75
645.43	1085.49
645.77	1082.64
646.11	1085.68
646.46	1087.32
646.80	1087.51
647.14	1087.76
647.49	1087.51
647.83	1083.43
648.17	1080.20
648.52	1079.34
648.86	1077.58
649.20	1081.66
649.55	1082.94
649.89	1084.53
650.23	1084.30
650.57	1084.79
650.92	1082.03
651.26	1082.40
651.60	1080.72
651.95	1082.01
652.29	1085.26
652.63	1084.72
652.97	1085.00
653.32	1085.14
653.66	1083.48
654.00	1079.64
654.34	1079.64
654.69	1079.69
655.03	1080.74
655.37	1081.44
655.71	1081.54
656.05	1084.11
656.40	1082.50
656.74	1083.60
657.08	1082.66
657.42	1081.09
657.76	1079.60
658.11	1083.36
658.45	1080.74
658.79	1082.76
659.13	1087.39
659.47	1085.40
659.82	1084.44
660.16	1086.80
660.50	1085.61
660.84	1083.08
661.18	1085.21
661.52	1084.70
661.87	1085.07
662.21	1085.19
662.55	1085.84
662.89	1085.96
663.23	1087.16
663.57	1085.40
663.91	1084.07
664.25	1082.52
664.60	1081.49
664.94	1079.38
665.28	1074.80
665.62	1073.79
665.96	1074.07
666.30	1074.40
666.64	1076.41
666.98	1078.52
667.32	1079.71
667.66	1079.78
668.01	1079.92
668.35	1078.57
668.69	1079.15
669.03	1081.02
669.37	1080.30
669.71	1080.72
670.05	1080.16
670.39	1083.50
670.73	1081.61
671.07	1082.94
671.41	1081.12
671.75	1083.81
672.09	1081.82
672.43	1082.29
672.77	1080.41
673.11	1082.73
673.45	1081.70
673.79	1081.75
674.13	1083.08
674.47	1085.56
674.81	1086.62
675.15	1084.77
675.49	1083.95
675.83	1085.38
676.17	1085.42
676.51	1085.47
676.85	1086.50
677.19	1085.61
677.53	1082.97
677.87	1083.39
678.21	1080.58
678.55	1081.33
678.89	1083.76
679.23	1084.79
679.57	1085.00
679.90	1085.59
680.24	1085.14
680.58	1084.58
680.92	1083.15
681.26	1082.33
681.60	1082.10
681.94	1082.19
682.28	1080.51
682.62	1077.21
682.96	1074.17
683.29	1073.84
683.63	1072.92
683.97	1075.34
684.31	1078.50
684.65	1081.30
684.99	1082.76
685.33	1082.12
685.67	1079.57
686.00	1079.60
686.34	1079.95
686.68	1077.37
687.02	1078.03
687.36	1078.24
687.70	1079.24
688.03	1077.30
688.37	1077.93
688.71	1079.08
689.05	1080.32
689.39	1076.72
689.72	1078.94
690.06	1079.27
690.40	1078.96
690.74	1077.79
691.08	1081.77
691.41	1081.00
691.75	1080.16
692.09	1076.95
692.43	1078.12
692.76	1077.58
693.10	1078.07
693.44	1078.61
693.78	1083.08
694.11	1084.07
694.45	1082.90
694.79	1084.72
695.13	1082.40
695.46	1079.81
695.80	1079.13
696.14	1081.84
696.48	1078.99
696.81	1081.21
697.15	1081.16
697.49	1079.95
697.82	1077.58
698.16	1077.30
698.50	1077.56
698.83	1076.74
699.17	1077.30
699.51	1077.56
699.84	1078.52
700.18	1080.32
700.52	1079.17
700.85	1081.87
701.19	1083.39
701.53	1087.53
701.86	1086.97
702.20	1089.12
702.54	1087.72
702.87	1086.57
703.21	1081.84
703.55	1081.05
703.88	1080.74
704.22	1077.00
704.55	1074.26
704.89	1073.74
705.23	1073.51
705.56	1072.43
705.90	1075.66
706.23	1079.10
706.57	1081.28
706.91	1081.68
707.24	1084.14
707.58	1081.84
707.91	1080.18
708.25	1081.26
708.58	1079.95
708.92	1078.87
709.26	1080.34
709.59	1081.96
709.93	1078.31
710.26	1080.74
710.60	1083.67
710.93	1084.60
711.27	1083.55
711.60	1084.86
711.94	1082.45
712.27	1080.25
712.61	1076.30
712.94	1076.88
713.28	1076.39
713.61	1079.41
713.95	1079.85
714.28	1083.62
714.62	1085.66
714.95	1083.81
715.29	1082.38
715.62	1079.83
715.96	1078.92
716.29	1078.31
716.63	1081.12
716.96	1081.47
717.29	1081.23
717.63	1082.08
717.96	1082.54
718.30	1082.83
718.63	1082.40
718.97	1082.94
719.30	1080.30
719.63	1079.76
719.97	1077.65
720.30	1076.39
720.64	1077.79
720.97	1079.92
721.30	1079.13
721.64	1080.27
721.97	1080.56
722.31	1081.05
722.64	1080.23
722.97	1080.91
723.31	1081.26
723.64	1080.37
723.97	1079.71
724.31	1079.71
724.64	1078.45
724.98	1077.37
725.31	1080.51
725.64	1082.99
725.98	1083.81
726.31	1082.50
726.64	1083.76
726.97	1082.99
727.31	1081.61
727.64	1081.61
727.97	1083.74
728.31	1084.51
728.64	1085.66
728.97	1086.41
729.31	1088.86
729.64	1091.02
729.97	1087.44
730.30	1085.05
730.64	1082.33
730.97	1078.05
731.30	1074.89
731.63	1076.46
731.97	1076.01
732.30	1078.96
732.63	1081.91
732.96	1081.33
733.30	1082.29
733.63	1084.04
733.96	1082.03
734.29	1081.51
734.63	1084.70
734.96	1086.99
735.29	1086.97
735.62	1086.80
735.95	1086.80
736.29	1084.25
736.62	1082.24
736.95	1079.95
737.28	1076.15
737.61	1075.80
737.94	1076.79
738.28	1077.18
738.61	1079.41
738.94	1085.68
739.27	1085.89
739.60	1087.48
739.93	1085.07
740.27	1084.63
740.60	1081.58
740.93	1078.47
741.26	1076.53
741.59	1076.44
741.92	1076.37
742.25	1078.40
742.58	1081.80
742.91	1083.90
743.25	1084.30
743.58	1084.49
743.91	1082.33
744.24	1079.34
744.57	1077.16
744.90	1075.55
745.23	1074.75
745.56	1076.13
745.89	1081.00
746.22	1080.41
746.55	1080.72
746.88	1082.80
747.21	1080.20
747.54	1075.99
747.87	1076.72
748.20	1082.08
748.53	1081.14
748.87	1084.46
749.20	1086.24
749.53	1085.82
749.86	1082.01
750.19	1080.70
750.52	1078.68
750.85	1078.92
751.18	1076.74
751.51	1077.51
751.84	1077.18
752.16	1077.79
752.49	1077.18
752.82	1077.11
753.15	1076.90
753.48	1078.54
753.81	1075.62
754.14	1076.06
754.47	1078.82
754.80	1080.32
755.13	1081.44
755.46	1083.50
755.79	1084.16
756.12	1084.96
756.45	1083.62
756.78	1082.73
757.11	1084.02
757.43	1081.63
757.76	1078.43
758.09	1077.47
758.42	1076.97
758.75	1076.46
759.08	1076.88
759.41	1077.96
759.74	1080.79
760.07	1079.76
760.39	1080.86
760.72	1083.15
761.05	1083.60
761.38	1080.32
761.71	1079.76
762.04	1079.76
762.36	1080.04
762.69	1080.06
763.02	1083.88
763.35	1084.37
763.68	1085.28
764.01	1083.60
