SpectraSuite Data File
++++++++++++++++++++++++++++++++++++
Date: Mon Aug 26 10:22:00 PDT 2019
User: corrico
Dark Spectrum Present: No
Reference Spectrum Present: No
Number of Sampled Component Spectra: 1
Spectrometers: USB2+H06089
Integration Time (usec): 2000 (USB2+H06089)
Spectra Averaged: 20 (USB2+H06089)
Boxcar Smoothing: 2 (USB2+H06089)
Correct for Electrical Dark: No (USB2+H06089)
Strobe/Lamp Enabled: No (USB2+H06089)
Correct for Detector Non-linearity: No (USB2+H06089)
Correct for Stray Light: No (USB2+H06089)
Number of Pixels in Processed Spectrum: 2048
>>>>>Begin Processed Spectral Data<<<<<
339.70	1032.88
340.07	1032.88
340.45	993.63
340.82	972.42
341.19	947.61
341.57	921.96
341.94	915.59
342.31	908.46
342.69	901.79
343.06	898.60
343.43	900.80
343.81	898.77
344.18	898.37
344.55	902.49
344.93	909.60
345.30	912.95
345.67	921.98
346.04	930.34
346.42	936.17
346.79	942.39
347.16	949.49
347.54	957.07
347.91	968.05
348.28	979.40
348.65	989.93
349.03	999.01
349.40	1006.59
349.77	1014.58
350.14	1021.71
350.52	1028.55
350.89	1036.06
351.26	1043.81
351.63	1049.03
352.01	1052.05
352.38	1056.19
352.75	1058.16
353.12	1060.05
353.50	1062.09
353.87	1062.98
354.24	1064.03
354.61	1070.02
354.98	1077.61
355.36	1079.90
355.73	1084.39
356.10	1087.09
356.47	1085.40
356.84	1081.75
357.22	1083.67
357.59	1084.70
357.96	1084.37
358.33	1083.76
358.70	1087.69
359.08	1085.17
359.45	1083.32
359.82	1082.03
360.19	1080.37
360.56	1073.09
360.94	1073.53
361.31	1072.32
361.68	1071.19
362.05	1073.25
362.42	1073.35
362.79	1071.57
363.16	1072.27
363.54	1072.15
363.91	1070.63
364.28	1072.32
364.65	1071.36
365.02	1072.57
365.39	1071.57
365.76	1071.78
366.14	1072.83
366.51	1073.09
366.88	1075.08
367.25	1078.45
367.62	1077.75
367.99	1077.82
368.36	1076.27
368.73	1075.50
369.10	1074.68
369.48	1077.09
369.85	1073.86
370.22	1076.97
370.59	1075.05
370.96	1074.84
371.33	1072.50
371.70	1075.36
372.07	1076.11
372.44	1075.59
372.81	1076.76
373.18	1077.84
373.55	1079.27
373.93	1079.38
374.30	1079.55
374.67	1078.28
375.04	1077.70
375.41	1076.06
375.78	1071.66
376.15	1073.30
376.52	1074.66
376.89	1073.86
377.26	1072.11
377.63	1074.35
378.00	1074.84
378.37	1074.17
378.74	1073.39
379.11	1075.97
379.48	1076.88
379.85	1077.14
380.22	1073.42
380.59	1075.38
380.96	1074.33
381.33	1075.03
381.70	1073.14
382.07	1075.55
382.44	1076.76
382.81	1080.41
383.18	1080.67
383.55	1080.44
383.92	1082.01
384.29	1081.84
384.66	1077.70
385.03	1077.68
385.40	1077.86
385.77	1077.00
386.14	1075.76
386.51	1078.17
386.88	1077.89
387.25	1073.77
387.62	1074.19
387.99	1077.35
388.36	1076.30
388.73	1075.99
389.10	1081.19
389.46	1080.13
389.83	1077.28
390.20	1077.70
390.57	1077.65
390.94	1078.66
391.31	1078.87
391.68	1080.32
392.05	1081.21
392.42	1082.94
392.79	1083.04
393.16	1082.73
393.53	1082.76
393.89	1083.88
394.26	1080.93
394.63	1078.73
395.00	1079.31
395.37	1076.95
395.74	1076.34
396.11	1079.50
396.48	1079.99
396.84	1082.01
397.21	1084.37
397.58	1087.11
397.95	1086.94
398.32	1088.63
398.69	1087.48
399.06	1090.03
399.42	1087.90
399.79	1088.09
400.16	1088.00
400.53	1089.19
400.90	1086.43
401.27	1086.41
401.64	1086.76
402.00	1087.06
402.37	1087.30
402.74	1087.86
403.11	1087.76
403.48	1087.51
403.84	1085.14
404.21	1081.19
404.58	1081.26
404.95	1079.46
405.32	1074.70
405.68	1075.71
406.05	1078.52
406.42	1079.60
406.79	1082.50
407.16	1085.47
407.52	1083.88
407.89	1082.99
408.26	1084.28
408.63	1081.73
408.99	1081.12
409.36	1083.74
409.73	1084.72
410.10	1079.85
410.47	1079.43
410.83	1085.38
411.20	1087.46
411.57	1091.27
411.94	1099.37
412.30	1101.50
412.67	1099.02
413.04	1098.76
413.40	1097.27
413.77	1094.39
414.14	1095.42
414.51	1096.78
414.87	1096.75
415.24	1094.90
415.61	1092.33
415.97	1094.88
416.34	1093.69
416.71	1094.72
417.08	1095.67
417.44	1095.65
417.81	1093.92
418.18	1096.80
418.54	1098.18
418.91	1099.14
419.28	1098.32
419.64	1100.40
420.01	1099.00
420.38	1100.52
420.74	1101.48
421.11	1105.48
421.48	1103.82
421.84	1106.51
422.21	1103.61
422.58	1107.66
422.94	1109.91
423.31	1113.88
423.68	1116.32
424.04	1122.38
424.41	1125.98
424.77	1127.46
425.14	1129.82
425.51	1129.64
425.87	1133.03
426.24	1135.65
426.61	1140.45
426.97	1141.88
427.34	1149.41
427.70	1153.44
428.07	1158.42
428.44	1166.22
428.80	1172.35
429.17	1178.67
429.53	1183.70
429.90	1189.06
430.27	1192.97
430.63	1204.39
431.00	1210.69
431.36	1222.09
431.73	1234.28
432.09	1249.52
432.46	1260.36
432.83	1276.88
433.19	1288.09
433.56	1298.20
433.92	1310.79
434.29	1327.90
434.65	1340.96
435.02	1363.55
435.38	1388.05
435.75	1408.84
436.11	1429.15
436.48	1455.74
436.84	1479.66
437.21	1506.16
437.57	1539.02
437.94	1572.33
438.30	1603.64
438.67	1637.84
439.03	1673.48
439.40	1718.94
439.76	1760.95
440.13	1811.08
440.49	1862.13
440.86	1916.01
441.22	1965.32
441.59	2024.17
441.95	2088.11
442.32	2157.90
442.68	2232.85
443.05	2306.13
443.41	2387.42
443.78	2470.62
444.14	2555.79
444.51	2641.32
444.87	2742.52
445.24	2845.72
445.60	2949.61
445.96	3060.74
446.33	3194.27
446.69	3315.67
447.06	3445.53
447.42	3591.34
447.79	3745.65
448.15	3909.14
448.51	4090.30
448.88	4280.14
449.24	4452.07
449.61	4664.99
449.97	4884.67
450.33	5105.86
450.70	5328.18
451.06	5587.51
451.43	5816.63
451.79	6082.91
452.15	6377.56
452.52	6703.43
452.88	7046.91
453.24	7442.08
453.61	7856.71
453.97	8267.22
454.34	8667.50
454.70	9113.86
455.06	9542.97
455.43	9955.40
455.79	10364.03
456.15	10868.75
456.52	11344.27
456.88	11927.63
457.24	12524.60
457.61	13220.19
457.97	13838.53
458.33	14508.21
458.70	15164.99
459.06	15785.93
459.42	16448.79
459.79	17084.60
460.15	17770.10
460.51	18348.91
460.88	18997.10
461.24	19568.45
461.60	20241.23
461.96	20803.90
462.33	21363.90
462.69	21887.75
463.05	22484.71
463.42	23034.94
463.78	23565.78
464.14	24070.98
464.50	24619.49
464.87	25027.51
465.23	25273.57
465.59	25546.60
465.95	25783.55
466.32	25931.94
466.68	26065.42
467.04	26190.17
467.40	26271.16
467.77	26369.04
468.13	26340.32
468.49	26170.63
468.85	26057.42
469.22	25918.88
469.58	25698.54
469.94	25535.46
470.30	25353.76
470.66	25049.00
471.03	24642.45
471.39	24295.11
471.75	23817.67
472.11	23384.08
472.47	23042.90
472.84	22705.77
473.20	22261.61
473.56	21914.76
473.92	21463.77
474.28	21037.04
474.65	20623.33
475.01	20234.63
475.37	19796.63
475.73	19461.55
476.09	19048.73
476.45	18679.82
476.81	18344.49
477.18	18018.80
477.54	17752.05
477.90	17530.99
478.26	17225.15
478.62	16965.47
478.98	16775.46
479.34	16609.56
479.71	16383.05
480.07	16192.83
480.43	15953.42
480.79	15624.95
481.15	15256.57
481.51	14962.41
481.87	14704.84
482.23	14443.49
482.59	14210.45
482.96	13979.93
483.32	13757.04
483.68	13504.17
484.04	13275.61
484.40	13072.71
484.76	12850.24
485.12	12616.68
485.48	12427.14
485.84	12213.85
486.20	11981.30
486.56	11750.24
486.92	11514.80
487.28	11244.19
487.64	10984.23
488.00	10728.01
488.37	10472.59
488.73	10205.98
489.09	9942.41
489.45	9696.35
489.81	9457.24
490.17	9229.04
490.53	8983.70
490.89	8727.90
491.25	8468.15
491.61	8216.43
491.97	7969.59
492.33	7761.75
492.69	7570.77
493.05	7384.37
493.41	7213.16
493.77	7031.16
494.13	6847.05
494.49	6675.16
494.85	6509.31
495.21	6340.93
495.57	6187.11
495.93	6027.65
496.29	5857.66
496.64	5703.00
497.00	5548.26
497.36	5408.35
497.72	5291.79
498.08	5184.59
498.44	5067.42
498.80	4957.02
499.16	4833.37
499.52	4694.46
499.88	4567.88
500.24	4441.42
500.60	4328.66
500.96	4222.91
501.32	4125.57
501.68	4030.87
502.03	3937.53
502.39	3848.45
502.75	3766.51
503.11	3696.53
503.47	3621.77
503.83	3559.58
504.19	3485.15
504.55	3413.09
504.91	3331.45
505.26	3256.11
505.62	3176.11
505.98	3105.28
506.34	3032.16
506.70	2968.88
507.06	2907.34
507.42	2847.68
507.78	2787.72
508.13	2737.49
508.49	2681.22
508.85	2630.13
509.21	2579.25
509.57	2534.64
509.93	2487.52
510.28	2444.69
510.64	2401.04
511.00	2362.23
511.36	2321.04
511.72	2282.23
512.07	2241.34
512.43	2202.47
512.79	2164.55
513.15	2128.90
513.51	2091.53
513.86	2060.16
514.22	2031.70
514.58	1996.36
514.94	1961.81
515.30	1932.37
515.65	1903.30
516.01	1877.20
516.37	1852.91
516.73	1831.07
517.08	1813.45
517.44	1792.43
517.80	1772.67
518.16	1754.58
518.51	1735.37
518.87	1709.55
519.23	1690.64
519.59	1668.38
519.94	1647.34
520.30	1625.74
520.66	1610.87
521.01	1591.38
521.37	1573.03
521.73	1558.63
522.09	1546.37
522.44	1533.73
522.80	1521.37
523.16	1513.72
523.51	1501.71
523.87	1489.21
524.23	1472.74
524.58	1458.25
524.94	1440.76
525.30	1424.73
525.65	1411.67
526.01	1401.51
526.37	1396.50
526.72	1391.31
527.08	1383.70
527.44	1375.02
527.79	1365.09
528.15	1356.62
528.51	1345.27
528.86	1336.84
529.22	1332.58
529.58	1326.64
529.93	1319.52
530.29	1314.96
530.65	1310.26
531.00	1303.28
531.36	1295.11
531.71	1287.46
532.07	1278.75
532.43	1270.40
532.78	1262.63
533.14	1257.69
533.49	1251.98
533.85	1247.32
534.21	1244.18
534.56	1239.41
534.92	1234.47
535.27	1229.76
535.63	1228.06
535.98	1220.71
536.34	1217.31
536.69	1214.43
537.05	1209.85
537.41	1203.18
537.76	1201.26
538.12	1197.14
538.47	1190.82
538.83	1191.10
539.18	1188.76
539.54	1185.81
539.89	1183.84
540.25	1182.67
540.60	1177.76
540.96	1176.40
541.31	1174.60
541.67	1173.38
542.02	1171.51
542.38	1168.49
542.73	1165.77
543.09	1163.18
543.44	1159.03
543.80	1160.06
544.15	1157.68
544.51	1154.70
544.86	1153.88
545.22	1151.92
545.57	1148.50
545.93	1146.58
546.28	1147.21
546.64	1145.15
546.99	1141.74
547.35	1141.60
547.70	1140.05
548.05	1135.70
548.41	1136.35
548.76	1135.67
549.12	1134.04
549.47	1134.32
549.83	1132.35
550.18	1127.48
550.53	1128.93
550.89	1128.68
551.24	1126.01
551.60	1126.45
551.95	1126.59
552.30	1123.39
552.66	1121.07
553.01	1123.67
553.37	1125.42
553.72	1123.81
554.07	1125.75
554.43	1125.96
554.78	1121.14
555.13	1118.52
555.49	1120.63
555.84	1117.14
556.19	1112.92
556.55	1113.60
556.90	1111.12
557.26	1108.81
557.61	1108.36
557.96	1108.88
558.32	1106.56
558.67	1108.43
559.02	1108.92
559.37	1110.16
559.73	1109.48
560.08	1112.55
560.43	1107.52
560.79	1106.98
561.14	1105.44
561.49	1105.22
561.85	1106.16
562.20	1110.05
562.55	1108.66
562.90	1108.85
563.26	1108.74
563.61	1099.79
563.96	1097.43
564.32	1094.95
564.67	1093.03
565.02	1090.88
565.37	1097.15
565.73	1097.92
566.08	1098.04
566.43	1098.53
566.78	1099.56
567.14	1098.51
567.49	1098.90
567.84	1102.72
568.19	1100.08
568.54	1099.40
568.90	1098.53
569.25	1097.27
569.60	1092.37
569.95	1092.00
570.31	1091.81
570.66	1090.81
571.01	1089.89
571.36	1093.22
571.71	1096.26
572.06	1093.36
572.42	1091.34
572.77	1092.12
573.12	1090.36
573.47	1088.58
573.82	1090.92
574.18	1090.95
574.53	1090.69
574.88	1090.06
575.23	1089.71
575.58	1090.50
575.93	1091.79
576.28	1091.91
576.64	1093.03
576.99	1090.50
577.34	1089.99
577.69	1093.50
578.04	1095.23
578.39	1094.29
578.74	1094.36
579.09	1092.63
579.44	1089.57
579.80	1085.35
580.15	1083.57
580.50	1085.42
580.85	1084.96
581.20	1084.30
581.55	1087.53
581.90	1087.37
582.25	1086.15
582.60	1090.13
582.95	1089.07
583.30	1084.00
583.65	1083.48
584.00	1084.98
584.35	1079.88
584.71	1077.49
585.06	1082.10
585.41	1083.22
585.76	1081.84
586.11	1084.65
586.46	1087.74
586.81	1085.19
587.16	1081.82
587.51	1084.02
587.86	1082.47
588.21	1082.45
588.56	1085.38
588.91	1088.35
589.26	1087.09
589.61	1087.41
589.96	1088.16
590.31	1085.82
590.66	1085.10
591.01	1084.28
591.36	1086.27
591.71	1083.83
592.06	1083.15
592.41	1084.93
592.76	1086.38
593.10	1082.10
593.45	1083.88
593.80	1085.80
594.15	1084.58
594.50	1082.52
594.85	1083.90
595.20	1082.36
595.55	1082.76
595.90	1081.61
596.25	1085.68
596.60	1085.77
596.95	1084.84
597.30	1083.32
597.64	1093.62
597.99	1090.22
598.34	1093.52
598.69	1093.76
599.04	1095.39
599.39	1083.11
599.74	1082.52
600.09	1080.51
600.44	1080.86
600.78	1077.84
601.13	1078.14
601.48	1078.10
601.83	1077.30
602.18	1079.76
602.53	1084.09
602.88	1086.50
603.22	1088.30
603.57	1087.86
603.92	1085.89
604.27	1081.68
604.62	1081.73
604.97	1080.11
605.31	1082.47
605.66	1084.42
606.01	1087.18
606.36	1086.22
606.71	1086.62
607.05	1085.07
607.40	1082.45
607.75	1082.78
608.10	1086.29
608.44	1087.76
608.79	1089.85
609.14	1092.12
609.49	1088.70
609.84	1086.10
610.18	1085.05
610.53	1082.66
610.88	1083.13
611.23	1086.13
611.57	1086.59
611.92	1089.50
612.27	1089.05
612.62	1086.64
612.96	1084.93
613.31	1084.91
613.66	1083.55
614.00	1085.12
614.35	1087.53
614.70	1088.65
615.05	1086.83
615.39	1088.14
615.74	1088.98
616.09	1088.56
616.43	1087.20
616.78	1087.93
617.13	1083.04
617.47	1082.54
617.82	1079.15
618.17	1078.85
618.51	1082.69
618.86	1084.60
619.21	1081.16
619.55	1080.30
619.90	1081.37
620.25	1079.57
620.59	1080.44
620.94	1082.73
621.29	1083.93
621.63	1083.90
621.98	1081.44
622.32	1081.47
622.67	1081.07
623.02	1082.19
623.36	1080.79
623.71	1082.92
624.05	1083.08
624.40	1083.36
624.75	1085.17
625.09	1085.19
625.44	1084.28
625.78	1083.04
626.13	1082.73
626.48	1080.44
626.82	1079.53
627.17	1079.60
627.51	1081.35
627.86	1083.36
628.20	1082.45
628.55	1081.35
628.89	1078.14
629.24	1078.14
629.58	1074.66
629.93	1079.06
630.28	1079.57
630.62	1080.53
630.97	1079.15
631.31	1081.70
631.66	1078.24
632.00	1077.25
632.35	1082.12
632.69	1081.23
633.04	1079.38
633.38	1080.93
633.73	1080.37
634.07	1077.35
634.42	1075.99
634.76	1077.72
635.11	1079.15
635.45	1084.16
635.79	1085.89
636.14	1089.05
636.48	1088.84
636.83	1086.71
637.17	1084.46
637.52	1082.10
637.86	1079.90
638.21	1080.60
638.55	1080.63
638.89	1084.04
639.24	1084.70
639.58	1084.25
639.93	1081.58
640.27	1082.31
640.61	1078.61
640.96	1079.10
641.30	1078.07
641.65	1081.02
641.99	1079.13
642.33	1081.28
642.68	1078.33
643.02	1078.43
643.37	1074.82
643.71	1075.13
644.05	1075.52
644.40	1079.15
644.74	1080.04
645.08	1082.47
645.43	1084.00
645.77	1081.51
646.11	1081.05
646.46	1081.05
646.80	1081.00
647.14	1079.17
647.49	1079.55
647.83	1078.12
648.17	1080.79
648.52	1079.01
648.86	1080.04
649.20	1079.43
649.55	1080.25
649.89	1077.30
650.23	1076.39
650.57	1075.92
650.92	1076.93
651.26	1078.05
651.60	1077.77
651.95	1081.70
652.29	1081.58
652.63	1080.58
652.97	1078.40
653.32	1078.73
653.66	1076.27
654.00	1076.86
654.34	1077.82
654.69	1080.67
655.03	1081.21
655.37	1082.69
655.71	1081.77
656.05	1080.56
656.40	1077.51
656.74	1077.11
657.08	1075.92
657.42	1076.06
657.76	1077.35
658.11	1078.54
658.45	1081.98
658.79	1084.02
659.13	1085.26
659.47	1083.67
659.82	1084.56
660.16	1081.82
660.50	1079.67
660.84	1076.27
661.18	1076.51
661.52	1078.12
661.87	1079.24
662.21	1077.70
662.55	1081.19
662.89	1082.19
663.23	1079.92
663.57	1075.85
663.91	1076.39
664.25	1072.69
664.60	1073.98
664.94	1071.22
665.28	1072.57
665.62	1072.76
665.96	1075.76
666.30	1075.62
666.64	1078.33
666.98	1077.68
667.32	1078.89
667.66	1080.56
668.01	1078.24
668.35	1076.81
668.69	1080.16
669.03	1082.47
669.37	1078.85
669.71	1076.60
670.05	1077.25
670.39	1076.53
670.73	1073.16
671.07	1074.94
671.41	1076.25
671.75	1073.88
672.09	1073.49
672.43	1073.98
672.77	1073.98
673.11	1074.19
673.45	1076.67
673.79	1078.24
674.13	1079.85
674.47	1080.23
674.81	1081.73
675.15	1082.38
675.49	1079.88
675.83	1079.43
676.17	1077.28
676.51	1077.35
676.85	1073.84
677.19	1074.91
677.53	1073.98
677.87	1073.16
678.21	1072.95
678.55	1076.11
678.89	1077.28
679.23	1077.18
679.57	1078.43
679.90	1079.38
680.24	1080.91
680.58	1081.05
680.92	1081.02
681.26	1083.04
681.60	1080.79
681.94	1080.81
682.28	1081.33
682.62	1081.96
682.96	1080.25
683.29	1083.64
683.63	1085.10
683.97	1083.36
684.31	1081.94
684.65	1082.38
684.99	1079.22
685.33	1074.68
685.67	1075.78
686.00	1078.05
686.34	1078.71
686.68	1079.90
687.02	1081.09
687.36	1079.78
687.70	1079.43
688.03	1079.29
688.37	1080.09
688.71	1080.02
689.05	1078.21
689.39	1078.17
689.72	1078.38
690.06	1077.37
690.40	1078.00
690.74	1079.90
691.08	1079.27
691.41	1079.13
691.75	1078.59
692.09	1080.46
692.43	1078.47
692.76	1079.60
693.10	1081.16
693.44	1083.32
693.78	1082.36
694.11	1085.19
694.45	1085.80
694.79	1082.97
695.13	1082.78
695.46	1079.17
695.80	1078.54
696.14	1076.81
696.48	1077.44
696.81	1075.69
697.15	1079.81
697.49	1079.31
697.82	1082.38
698.16	1083.97
698.50	1083.60
698.83	1081.91
699.17	1083.36
699.51	1077.44
699.84	1076.44
700.18	1077.93
700.52	1076.46
700.85	1076.53
701.19	1079.83
701.53	1082.83
701.86	1083.69
702.20	1085.40
702.54	1081.47
702.87	1079.76
703.21	1076.13
703.55	1073.21
703.88	1076.65
704.22	1083.06
704.55	1084.30
704.89	1083.93
705.23	1086.34
705.56	1081.26
705.90	1076.06
706.23	1074.66
706.57	1075.22
706.91	1075.22
707.24	1076.65
707.58	1077.21
707.91	1076.69
708.25	1080.39
708.58	1079.97
708.92	1077.93
709.26	1077.23
709.59	1078.50
709.93	1076.20
710.26	1077.68
710.60	1080.13
710.93	1081.42
711.27	1081.87
711.60	1082.66
711.94	1081.23
712.27	1077.63
712.61	1078.52
712.94	1078.19
713.28	1077.37
713.61	1078.61
713.95	1082.73
714.28	1082.94
714.62	1082.76
714.95	1084.30
715.29	1082.64
715.62	1080.56
715.96	1083.74
716.29	1085.75
716.63	1084.77
716.96	1087.25
717.29	1089.66
717.63	1085.96
717.96	1082.52
718.30	1082.80
718.63	1080.74
718.97	1077.58
719.30	1079.06
719.63	1080.44
719.97	1077.91
720.30	1077.47
720.64	1079.67
720.97	1075.80
721.30	1077.44
721.64	1075.66
721.97	1073.56
722.31	1074.19
722.64	1074.26
722.97	1073.21
723.31	1075.15
723.64	1078.94
723.97	1077.09
724.31	1076.32
724.64	1078.59
724.98	1078.07
725.31	1076.48
725.64	1077.40
725.98	1081.07
726.31	1080.74
726.64	1079.99
726.97	1083.20
727.31	1085.49
727.64	1085.61
727.97	1084.74
728.31	1085.99
728.64	1081.77
728.97	1078.40
729.31	1077.47
729.64	1075.66
729.97	1077.44
730.30	1077.23
730.64	1080.67
730.97	1080.53
731.30	1079.90
731.63	1078.59
731.97	1080.27
732.30	1078.66
732.63	1078.75
732.96	1078.80
733.30	1077.25
733.63	1077.54
733.96	1077.18
734.29	1078.00
734.63	1080.41
734.96	1085.70
735.29	1083.86
735.62	1084.91
735.95	1085.68
736.29	1085.07
736.62	1081.47
736.95	1084.30
737.28	1082.43
737.61	1080.04
737.94	1080.18
738.28	1082.26
738.61	1080.74
738.94	1079.06
739.27	1080.18
739.60	1080.79
739.93	1076.53
740.27	1076.41
740.60	1078.52
740.93	1076.34
741.26	1075.34
741.59	1078.89
741.92	1080.77
742.25	1080.81
742.58	1080.95
742.91	1077.56
743.25	1073.51
743.58	1072.67
743.91	1070.70
744.24	1069.70
744.57	1072.78
744.90	1074.66
745.23	1073.25
745.56	1074.35
745.89	1078.54
746.22	1077.40
746.55	1079.43
746.88	1074.26
747.21	1073.09
747.54	1071.64
747.87	1070.89
748.20	1069.48
748.53	1072.60
748.87	1073.84
749.20	1073.58
749.53	1075.52
749.86	1076.08
750.19	1077.70
750.52	1080.37
750.85	1081.96
751.18	1082.38
751.51	1081.12
751.84	1079.38
752.16	1080.16
752.49	1076.83
752.82	1073.02
753.15	1072.64
753.48	1074.61
753.81	1072.71
754.14	1075.73
754.47	1081.14
754.80	1081.70
755.13	1084.39
755.46	1085.14
755.79	1084.11
756.12	1083.79
756.45	1084.56
756.78	1080.58
757.11	1080.77
757.43	1080.37
757.76	1077.09
758.09	1077.91
758.42	1080.34
758.75	1082.73
759.08	1082.83
759.41	1085.49
759.74	1082.50
760.07	1081.98
760.39	1077.70
760.72	1077.35
761.05	1075.85
761.38	1078.26
761.71	1079.50
762.04	1079.74
762.36	1082.50
762.69	1082.26
763.02	1081.98
763.35	1079.27
763.68	1078.33
764.01	1076.72
764.33	1076.55
