SpectraSuite Data File
++++++++++++++++++++++++++++++++++++
Date: Mon Aug 26 10:22:13 PDT 2019
User: corrico
Dark Spectrum Present: No
Reference Spectrum Present: No
Number of Sampled Component Spectra: 1
Spectrometers: USB2+H06089
Integration Time (usec): 2000 (USB2+H06089)
Spectra Averaged: 20 (USB2+H06089)
Boxcar Smoothing: 2 (USB2+H06089)
Correct for Electrical Dark: No (USB2+H06089)
Strobe/Lamp Enabled: No (USB2+H06089)
Correct for Detector Non-linearity: No (USB2+H06089)
Correct for Stray Light: No (USB2+H06089)
Number of Pixels in Processed Spectrum: 2048
>>>>>Begin Processed Spectral Data<<<<<
339.70	1023.98
340.07	1023.98
340.45	993.21
340.82	972.91
341.19	951.05
341.57	925.80
341.94	914.10
342.31	905.81
342.69	899.49
343.06	897.71
343.43	897.08
343.81	896.57
344.18	897.81
344.55	905.46
344.93	908.48
345.30	915.03
345.67	926.90
346.04	933.66
346.42	936.59
346.79	944.94
347.16	954.66
347.54	960.53
347.91	970.18
348.28	980.10
348.65	991.90
349.03	1001.63
349.40	1010.39
349.77	1021.64
350.14	1031.12
350.52	1038.29
350.89	1042.69
351.26	1047.04
351.63	1050.20
352.01	1055.77
352.38	1057.41
352.75	1061.55
353.12	1066.04
353.50	1065.06
353.87	1067.68
354.24	1071.12
354.61	1075.15
354.98	1076.72
355.36	1082.43
355.73	1082.99
356.10	1084.11
356.47	1083.55
356.84	1085.19
357.22	1086.43
357.59	1089.10
357.96	1089.31
358.33	1088.19
358.70	1089.43
359.08	1090.15
359.45	1089.45
359.82	1088.49
360.19	1091.37
360.56	1091.65
360.94	1092.94
361.31	1091.30
361.68	1089.43
362.05	1084.91
362.42	1085.28
362.79	1081.02
363.16	1078.00
363.54	1081.05
363.91	1081.19
364.28	1078.64
364.65	1080.63
365.02	1080.56
365.39	1079.64
365.76	1081.49
366.14	1079.64
366.51	1078.45
366.88	1080.46
367.25	1078.82
367.62	1080.53
367.99	1082.08
368.36	1081.94
368.73	1081.84
369.10	1080.39
369.48	1078.26
369.85	1078.54
370.22	1078.59
370.59	1075.71
370.96	1079.03
371.33	1083.18
371.70	1083.01
372.07	1081.49
372.44	1084.02
372.81	1084.18
373.18	1078.80
373.55	1078.96
373.93	1079.76
374.30	1078.96
374.67	1075.90
375.04	1076.51
375.41	1079.06
375.78	1081.30
376.15	1081.80
376.52	1085.03
376.89	1086.69
377.26	1085.26
377.63	1083.55
378.00	1085.21
378.37	1081.98
378.74	1078.78
379.11	1076.11
379.48	1075.38
379.85	1069.98
380.22	1073.28
380.59	1074.84
380.96	1075.73
381.33	1074.54
381.70	1078.75
382.07	1076.11
382.44	1077.72
382.81	1078.03
383.18	1080.37
383.55	1078.82
383.92	1080.81
384.29	1079.36
384.66	1081.14
385.03	1080.02
385.40	1083.50
385.77	1084.39
386.14	1088.49
386.51	1087.90
386.88	1088.86
387.25	1088.12
387.62	1087.93
387.99	1086.13
388.36	1085.87
388.73	1086.59
389.10	1082.99
389.46	1082.66
389.83	1080.79
390.20	1080.84
390.57	1081.80
390.94	1084.23
391.31	1083.13
391.68	1084.35
392.05	1085.49
392.42	1086.13
392.79	1087.58
393.16	1088.49
393.53	1088.40
393.89	1091.02
394.26	1089.78
394.63	1090.53
395.00	1090.67
395.37	1095.49
395.74	1092.02
396.11	1094.53
396.48	1092.94
396.84	1093.12
397.21	1088.14
397.58	1087.60
397.95	1085.56
398.32	1086.97
398.69	1088.72
399.06	1093.80
399.42	1093.71
399.79	1096.33
400.16	1097.10
400.53	1096.31
400.90	1092.96
401.27	1094.90
401.64	1092.91
402.00	1095.44
402.37	1096.87
402.74	1099.09
403.11	1097.66
403.48	1096.94
403.84	1095.58
404.21	1093.38
404.58	1093.03
404.95	1096.33
405.32	1097.95
405.68	1097.78
406.05	1103.14
406.42	1102.93
406.79	1098.44
407.16	1099.23
407.52	1095.72
407.89	1093.01
408.26	1091.37
408.63	1095.39
408.99	1094.74
409.36	1097.08
409.73	1096.59
410.10	1098.51
410.47	1099.61
410.83	1099.09
411.20	1101.64
411.57	1098.65
411.94	1099.16
412.30	1101.27
412.67	1101.97
413.04	1101.27
413.40	1104.71
413.77	1102.51
414.14	1101.46
414.51	1101.92
414.87	1103.94
415.24	1103.09
415.61	1104.15
415.97	1102.37
416.34	1106.70
416.71	1105.29
417.08	1109.11
417.44	1110.94
417.81	1114.19
418.18	1111.80
418.54	1114.19
418.91	1114.68
419.28	1117.58
419.64	1119.88
420.01	1118.71
420.38	1118.12
420.74	1117.61
421.11	1118.87
421.48	1121.73
421.84	1127.16
422.21	1131.39
422.58	1133.97
422.94	1137.24
423.31	1136.73
423.68	1138.09
424.04	1140.99
424.41	1143.09
424.77	1146.72
425.14	1149.48
425.51	1155.83
425.87	1158.68
426.24	1165.80
426.61	1172.42
426.97	1181.97
427.34	1188.76
427.70	1196.72
428.07	1207.41
428.44	1214.06
428.80	1222.23
429.17	1231.15
429.53	1246.34
429.90	1255.28
430.27	1267.89
430.63	1279.01
431.00	1292.49
431.36	1305.22
431.73	1319.62
432.09	1336.68
432.46	1354.84
432.83	1374.99
433.19	1391.19
433.56	1413.80
433.92	1434.35
434.29	1459.84
434.65	1487.11
435.02	1517.37
435.38	1547.05
435.75	1576.61
436.11	1611.48
436.48	1648.06
436.84	1687.57
437.21	1734.81
437.57	1788.22
437.94	1842.66
438.30	1894.41
438.67	1956.90
439.03	2019.88
439.40	2084.93
439.76	2150.39
440.13	2231.35
440.49	2310.06
440.86	2385.15
441.22	2472.00
441.59	2562.65
441.95	2661.38
442.32	2763.70
442.68	2881.90
443.05	2997.29
443.41	3126.84
443.78	3254.28
444.14	3392.07
444.51	3526.20
444.87	3690.46
445.24	3851.09
445.60	4022.54
445.96	4201.59
446.33	4413.57
446.69	4609.33
447.06	4827.54
447.42	5051.81
447.79	5284.09
448.15	5541.45
448.51	5812.28
448.88	6127.03
449.24	6426.32
449.61	6775.71
449.97	7125.48
450.33	7507.76
450.70	7855.00
451.06	8271.76
451.43	8667.05
451.79	9117.28
452.15	9602.07
452.52	10145.38
452.88	10693.04
453.24	11323.07
453.61	12016.59
453.97	12692.96
454.34	13355.38
454.70	14160.10
455.06	14935.50
455.43	15665.67
455.79	16342.60
456.15	17154.86
456.52	17884.67
456.88	18791.25
457.24	19695.58
457.61	20819.35
457.97	21864.77
458.33	22959.32
458.70	24021.13
459.06	25027.14
459.42	26027.65
459.79	26939.99
460.15	27962.57
460.51	28926.17
460.88	29995.25
461.24	30963.67
461.60	32112.15
461.96	33162.93
462.33	34175.66
462.69	35178.39
463.05	36268.33
463.42	37213.07
463.78	38090.07
464.14	38803.13
464.50	39540.80
464.87	40076.52
465.23	40454.01
465.59	40877.18
465.95	41220.65
466.32	41445.04
466.68	41670.64
467.04	41807.70
467.40	41833.14
467.77	41944.90
468.13	41875.30
468.49	41737.02
468.85	41641.27
469.22	41479.75
469.58	41211.22
469.94	41045.06
470.30	40781.31
470.66	40403.24
471.03	39899.86
471.39	39534.71
471.75	38830.94
472.11	38141.11
472.47	37628.49
472.84	37138.61
473.20	36434.21
473.56	36036.41
473.92	35472.50
474.28	34840.40
474.65	34167.87
475.01	33505.89
475.37	32702.78
475.73	32030.56
476.09	31373.50
476.45	30774.77
476.81	30241.92
477.18	29726.30
477.54	29286.68
477.90	28840.64
478.26	28268.22
478.62	27745.76
478.98	27274.10
479.34	26813.79
479.71	26252.62
480.07	25826.20
480.43	25382.85
480.79	24932.72
481.15	24473.86
481.51	24130.69
481.87	23813.41
482.23	23465.11
482.59	23142.23
482.96	22826.99
483.32	22512.70
483.68	22111.72
484.04	21766.33
484.40	21353.95
484.76	20930.12
485.12	20499.47
485.48	20078.07
485.84	19581.62
486.20	19162.76
486.56	18750.41
486.92	18350.64
487.28	17974.35
487.64	17588.56
488.00	17209.77
488.37	16814.48
488.73	16414.32
489.09	15973.01
489.45	15574.93
489.81	15145.65
490.17	14731.14
490.53	14329.18
490.89	13936.65
491.25	13526.28
491.61	13139.02
491.97	12744.73
492.33	12342.18
492.69	11966.78
493.05	11624.83
493.41	11285.55
493.77	10960.94
494.13	10661.96
494.49	10369.98
494.85	10094.10
495.21	9821.82
495.57	9568.88
495.93	9305.64
496.29	9062.13
496.64	8840.16
497.00	8605.35
497.36	8358.22
497.72	8129.73
498.08	7915.48
498.44	7687.98
498.80	7488.66
499.16	7294.86
499.52	7104.51
499.88	6925.25
500.24	6758.58
500.60	6587.91
500.96	6439.40
501.32	6282.33
501.68	6116.29
502.03	5946.60
502.39	5788.73
502.75	5614.57
503.11	5464.45
503.47	5322.38
503.83	5184.85
504.19	5056.00
504.55	4941.90
504.91	4823.00
505.26	4702.72
505.62	4591.34
505.98	4478.05
506.34	4357.56
506.70	4239.62
507.06	4136.90
507.42	4029.77
507.78	3933.74
508.13	3847.58
508.49	3770.11
508.85	3692.76
509.21	3613.95
509.57	3527.56
509.93	3445.34
510.28	3358.76
510.64	3277.90
511.00	3200.66
511.36	3130.72
511.72	3064.42
512.07	3003.61
512.43	2943.22
512.79	2888.74
513.15	2834.83
513.51	2779.50
513.86	2722.79
514.22	2671.51
514.58	2617.73
514.94	2568.71
515.30	2520.34
515.65	2475.30
516.01	2433.55
516.37	2395.14
516.73	2355.73
517.08	2317.08
517.44	2278.68
517.80	2239.26
518.16	2200.45
518.51	2164.50
518.87	2133.37
519.23	2106.39
519.59	2078.19
519.94	2053.73
520.30	2026.48
520.66	1994.77
521.01	1966.28
521.37	1937.71
521.73	1904.68
522.09	1877.18
522.44	1859.93
522.80	1832.29
523.16	1810.78
523.51	1791.02
523.87	1770.45
524.23	1746.69
524.58	1728.30
524.94	1707.89
525.30	1687.41
525.65	1666.88
526.01	1649.24
526.37	1632.76
526.72	1612.18
527.08	1598.59
527.44	1584.87
527.79	1568.70
528.15	1554.19
528.51	1541.24
528.86	1524.86
529.22	1506.18
529.58	1489.96
529.93	1476.62
530.29	1466.21
530.65	1456.66
531.00	1446.38
531.36	1436.15
531.71	1427.80
532.07	1416.73
532.43	1406.62
532.78	1401.21
533.14	1395.90
533.49	1386.98
533.85	1382.16
534.21	1373.73
534.56	1362.59
534.92	1353.18
535.27	1343.91
535.63	1331.84
535.98	1320.16
536.34	1317.72
536.69	1307.12
537.05	1299.49
537.41	1295.25
537.76	1292.87
538.12	1282.12
538.47	1276.11
538.83	1269.09
539.18	1265.22
539.54	1256.52
539.89	1250.36
540.25	1246.22
540.60	1243.11
540.96	1235.33
541.31	1233.02
541.67	1231.61
542.02	1229.11
542.38	1226.46
542.73	1221.67
543.09	1219.91
543.44	1214.71
543.80	1211.23
544.15	1208.18
544.51	1208.32
544.86	1202.99
545.22	1204.21
545.57	1203.20
545.93	1201.07
546.28	1197.93
546.64	1194.05
546.99	1188.08
547.35	1181.53
547.70	1178.23
548.05	1175.21
548.41	1175.02
548.76	1171.98
549.12	1172.91
549.47	1169.61
549.83	1165.63
550.18	1163.60
550.53	1163.76
550.89	1160.16
551.24	1157.56
551.60	1155.57
551.95	1154.40
552.30	1149.65
552.66	1148.15
553.01	1147.19
553.37	1145.81
553.72	1140.64
554.07	1142.20
554.43	1141.10
554.78	1143.12
555.13	1140.00
555.49	1140.87
555.84	1135.60
556.19	1133.99
556.55	1128.98
556.90	1129.17
557.26	1127.72
557.61	1129.10
557.96	1127.65
558.32	1124.04
558.67	1125.91
559.02	1125.24
559.37	1124.32
559.73	1120.84
560.08	1122.57
560.43	1121.14
560.79	1121.37
561.14	1117.68
561.49	1117.91
561.85	1116.95
562.20	1115.92
562.55	1114.02
562.90	1115.12
563.26	1117.37
563.61	1116.74
563.96	1116.81
564.32	1113.42
564.67	1111.24
565.02	1112.39
565.37	1113.72
565.73	1110.33
566.08	1112.83
566.43	1114.63
566.78	1112.95
567.14	1111.12
567.49	1112.90
567.84	1112.46
568.19	1111.64
568.54	1110.58
568.90	1110.94
569.25	1108.31
569.60	1108.99
569.95	1108.78
570.31	1107.33
570.66	1106.72
571.01	1107.05
571.36	1103.68
571.71	1104.43
572.06	1103.42
572.42	1103.35
572.77	1102.98
573.12	1106.02
573.47	1103.21
573.82	1101.55
574.18	1099.42
574.53	1099.54
574.88	1095.07
575.23	1096.61
575.58	1097.45
575.93	1097.10
576.28	1100.78
576.64	1104.59
576.99	1106.09
577.34	1105.81
577.69	1103.84
578.04	1100.40
578.39	1097.92
578.74	1095.58
579.09	1094.25
579.44	1095.09
579.80	1090.46
580.15	1088.75
580.50	1088.30
580.85	1091.53
581.20	1090.85
581.55	1094.48
581.90	1095.82
582.25	1094.55
582.60	1092.91
582.95	1090.97
583.30	1089.68
583.65	1088.75
584.00	1089.85
584.35	1089.22
584.71	1091.32
585.06	1093.33
585.41	1093.01
585.76	1092.40
586.11	1089.85
586.46	1088.33
586.81	1086.45
587.16	1088.96
587.51	1088.30
587.86	1089.31
588.21	1091.98
588.56	1092.42
588.91	1089.92
589.26	1092.14
589.61	1094.86
589.96	1096.92
590.31	1097.13
590.66	1098.60
591.01	1097.92
591.36	1099.98
591.71	1097.66
592.06	1097.15
592.41	1096.89
592.76	1093.73
593.10	1090.81
593.45	1091.23
593.80	1089.52
594.15	1088.93
594.50	1090.17
594.85	1089.43
595.20	1088.30
595.55	1088.23
595.90	1087.46
596.25	1087.88
596.60	1085.94
596.95	1085.07
597.30	1084.58
597.64	1095.32
597.99	1094.29
598.34	1096.07
598.69	1096.14
599.04	1098.58
599.39	1088.82
599.74	1088.96
600.09	1089.36
600.44	1086.24
600.78	1081.98
601.13	1083.11
601.48	1085.14
601.83	1085.19
602.18	1088.40
602.53	1091.27
602.88	1090.88
603.22	1088.09
603.57	1084.51
603.92	1085.70
604.27	1086.76
604.62	1085.10
604.97	1085.21
605.31	1086.06
605.66	1084.21
606.01	1082.01
606.36	1083.60
606.71	1085.89
607.05	1086.03
607.40	1089.14
607.75	1089.45
608.10	1088.44
608.44	1087.97
608.79	1085.59
609.14	1083.18
609.49	1081.21
609.84	1081.14
610.18	1079.76
610.53	1083.34
610.88	1082.40
611.23	1085.24
611.57	1084.16
611.92	1085.75
612.27	1086.29
612.62	1085.33
612.96	1085.33
613.31	1086.43
613.66	1084.00
614.00	1085.52
614.35	1089.78
614.70	1088.40
615.05	1091.70
615.39	1091.32
615.74	1088.65
616.09	1087.51
616.43	1086.50
616.78	1081.87
617.13	1084.86
617.47	1085.80
617.82	1086.62
618.17	1089.33
618.51	1091.16
618.86	1089.89
619.21	1087.65
619.55	1086.99
619.90	1082.92
620.25	1083.29
620.59	1081.70
620.94	1083.71
621.29	1083.86
621.63	1087.88
621.98	1085.87
622.32	1085.87
622.67	1086.59
623.02	1085.28
623.36	1081.73
623.71	1082.71
624.05	1085.07
624.40	1084.67
624.75	1082.54
625.09	1086.52
625.44	1087.46
625.78	1085.84
626.13	1086.29
626.48	1086.45
626.82	1088.47
627.17	1086.24
627.51	1087.27
627.86	1086.34
628.20	1083.48
628.55	1082.99
628.89	1084.56
629.24	1082.38
629.58	1080.86
629.93	1085.82
630.28	1082.66
630.62	1080.77
630.97	1080.79
631.31	1082.76
631.66	1080.20
632.00	1079.48
632.35	1079.67
632.69	1079.55
633.04	1076.55
633.38	1076.08
633.73	1077.63
634.07	1078.24
634.42	1078.78
634.76	1082.19
635.11	1085.07
635.45	1085.91
635.79	1087.06
636.14	1087.16
636.48	1086.24
636.83	1082.45
637.17	1080.84
637.52	1077.21
637.86	1077.30
638.21	1077.58
638.55	1080.16
638.89	1079.13
639.24	1080.95
639.58	1080.27
639.93	1082.08
640.27	1083.36
640.61	1084.49
640.96	1088.63
641.30	1090.76
641.65	1088.35
641.99	1085.96
642.33	1085.19
642.68	1081.82
643.02	1081.70
643.37	1082.03
643.71	1082.76
644.05	1080.58
644.40	1079.97
644.74	1078.92
645.08	1077.72
645.43	1076.51
645.77	1081.68
646.11	1083.32
646.46	1081.63
646.80	1082.10
647.14	1086.15
647.49	1082.40
647.83	1082.85
648.17	1085.96
648.52	1088.19
648.86	1087.30
649.20	1091.27
649.55	1085.56
649.89	1085.47
650.23	1082.15
650.57	1078.52
650.92	1077.63
651.26	1085.82
651.60	1085.89
651.95	1087.44
652.29	1090.55
652.63	1085.42
652.97	1082.69
653.32	1080.51
653.66	1080.11
654.00	1082.54
654.34	1086.71
654.69	1088.75
655.03	1088.75
655.37	1089.59
655.71	1084.81
656.05	1085.03
656.40	1085.63
656.74	1089.40
657.08	1088.54
657.42	1089.82
657.76	1087.48
658.11	1082.73
658.45	1078.85
658.79	1078.87
659.13	1078.82
659.47	1078.73
659.82	1079.95
660.16	1076.67
660.50	1079.41
660.84	1080.16
661.18	1083.01
661.52	1084.63
661.87	1088.96
662.21	1087.32
662.55	1087.51
662.89	1085.70
663.23	1086.41
663.57	1088.02
663.91	1088.47
664.25	1088.89
664.60	1090.88
664.94	1087.55
665.28	1084.96
665.62	1083.95
665.96	1084.91
666.30	1084.51
666.64	1083.97
666.98	1083.79
667.32	1081.98
667.66	1078.14
668.01	1077.18
668.35	1080.06
668.69	1081.05
669.03	1083.90
669.37	1086.50
669.71	1087.37
670.05	1084.53
670.39	1084.18
670.73	1085.45
671.07	1083.01
671.41	1082.19
671.75	1081.42
672.09	1083.34
672.43	1079.88
672.77	1080.72
673.11	1081.54
673.45	1082.15
673.79	1078.43
674.13	1078.28
674.47	1077.70
674.81	1076.83
675.15	1077.02
675.49	1076.53
675.83	1077.44
676.17	1079.46
676.51	1080.84
676.85	1083.13
677.19	1082.52
677.53	1085.49
677.87	1082.66
678.21	1080.09
678.55	1077.89
678.89	1079.36
679.23	1078.19
679.57	1078.61
679.90	1081.75
680.24	1082.57
680.58	1084.07
680.92	1082.50
681.26	1084.98
681.60	1083.32
681.94	1081.94
682.28	1081.80
682.62	1080.77
682.96	1079.46
683.29	1079.74
683.63	1080.06
683.97	1077.51
684.31	1078.05
684.65	1076.44
684.99	1076.65
685.33	1077.77
685.67	1080.09
686.00	1081.00
686.34	1082.92
686.68	1082.52
687.02	1084.53
687.36	1088.04
687.70	1087.46
688.03	1087.11
688.37	1088.12
688.71	1086.87
689.05	1083.22
689.39	1083.34
689.72	1083.43
690.06	1082.01
690.40	1080.18
690.74	1078.99
691.08	1077.56
691.41	1076.90
691.75	1076.37
692.09	1078.12
692.43	1077.89
692.76	1080.72
693.10	1081.16
693.44	1079.67
693.78	1080.93
694.11	1083.48
694.45	1083.57
694.79	1088.04
695.13	1090.78
695.46	1089.61
695.80	1087.27
696.14	1085.80
696.48	1082.71
696.81	1082.47
697.15	1081.19
697.49	1084.09
697.82	1083.01
698.16	1082.61
698.50	1081.84
698.83	1082.59
699.17	1079.01
699.51	1080.41
699.84	1080.63
700.18	1080.06
700.52	1077.30
700.85	1082.54
701.19	1082.50
701.53	1081.51
701.86	1085.91
702.20	1087.67
702.54	1084.21
702.87	1085.21
703.21	1086.76
703.55	1083.13
703.88	1082.64
704.22	1082.29
704.55	1081.56
704.89	1080.16
705.23	1079.15
705.56	1078.33
705.90	1077.33
706.23	1077.23
706.57	1075.27
706.91	1075.62
707.24	1076.18
707.58	1076.41
707.91	1075.87
708.25	1078.71
708.58	1078.75
708.92	1082.50
709.26	1083.29
709.59	1083.48
709.93	1080.72
710.26	1083.15
710.60	1082.54
710.93	1087.93
711.27	1088.56
711.60	1091.58
711.94	1087.67
712.27	1085.24
712.61	1078.38
712.94	1078.12
713.28	1076.18
713.61	1080.79
713.95	1083.13
714.28	1084.28
714.62	1082.29
714.95	1081.75
715.29	1079.55
715.62	1077.70
715.96	1079.43
716.29	1076.67
716.63	1080.39
716.96	1077.42
717.29	1078.31
717.63	1077.04
717.96	1083.22
718.30	1080.25
718.63	1082.36
718.97	1079.55
719.30	1081.49
719.63	1081.28
719.97	1082.71
720.30	1080.84
720.64	1082.29
720.97	1079.78
721.30	1078.92
721.64	1078.80
721.97	1079.10
722.31	1079.31
722.64	1079.67
722.97	1076.46
723.31	1073.32
723.64	1076.01
723.97	1076.41
724.31	1078.85
724.64	1083.57
724.98	1088.35
725.31	1086.57
725.64	1086.80
725.98	1083.62
726.31	1080.51
726.64	1079.27
726.97	1080.23
727.31	1078.03
727.64	1075.92
727.97	1078.14
728.31	1077.44
728.64	1079.64
728.97	1082.19
729.31	1084.93
729.64	1083.62
729.97	1083.86
730.30	1079.53
730.64	1077.02
730.97	1079.69
731.30	1081.33
731.63	1078.45
731.97	1079.15
732.30	1083.39
732.63	1081.82
732.96	1081.96
733.30	1082.97
733.63	1084.28
733.96	1084.25
734.29	1084.67
734.63	1085.56
734.96	1086.48
735.29	1084.58
735.62	1083.55
735.95	1081.75
736.29	1078.21
736.62	1076.95
736.95	1080.39
737.28	1079.34
737.61	1082.99
737.94	1086.62
738.28	1089.73
738.61	1090.15
738.94	1088.00
739.27	1085.73
739.60	1084.00
739.93	1081.84
740.27	1078.31
740.60	1079.88
740.93	1081.51
741.26	1079.76
741.59	1081.23
741.92	1082.43
742.25	1085.26
742.58	1083.95
742.91	1083.11
743.25	1082.05
743.58	1078.36
743.91	1074.70
744.24	1075.31
744.57	1076.81
744.90	1075.62
745.23	1083.15
745.56	1084.18
745.89	1081.91
746.22	1080.56
746.55	1080.88
746.88	1077.09
747.21	1077.35
747.54	1074.38
747.87	1074.05
748.20	1075.90
748.53	1076.39
748.87	1077.47
749.20	1081.94
749.53	1081.56
749.86	1080.70
750.19	1080.60
750.52	1082.52
750.85	1080.79
751.18	1085.24
751.51	1086.64
751.84	1086.69
752.16	1081.96
752.49	1084.51
752.82	1085.35
753.15	1083.18
753.48	1082.52
753.81	1081.21
754.14	1078.26
754.47	1076.39
754.80	1076.41
755.13	1075.78
755.46	1076.46
755.79	1081.21
756.12	1078.00
756.45	1079.03
756.78	1080.20
757.11	1080.18
757.43	1078.12
757.76	1078.99
758.09	1078.61
758.42	1081.07
758.75	1084.11
759.08	1083.97
759.41	1082.94
759.74	1085.28
760.07	1081.14
760.39	1079.64
760.72	1077.02
761.05	1077.75
761.38	1073.51
761.71	1075.38
762.04	1077.79
762.36	1079.97
762.69	1080.86
763.02	1082.17
763.35	1081.02
763.68	1078.92
