SpectraSuite Data File
++++++++++++++++++++++++++++++++++++
Date: Mon Aug 26 10:22:33 PDT 2019
User: corrico
Dark Spectrum Present: No
Reference Spectrum Present: No
Number of Sampled Component Spectra: 1
Spectrometers: USB2+H06089
Integration Time (usec): 2000 (USB2+H06089)
Spectra Averaged: 20 (USB2+H06089)
Boxcar Smoothing: 2 (USB2+H06089)
Correct for Electrical Dark: No (USB2+H06089)
Strobe/Lamp Enabled: No (USB2+H06089)
Correct for Detector Non-linearity: No (USB2+H06089)
Correct for Stray Light: No (USB2+H06089)
Number of Pixels in Processed Spectrum: 2048
>>>>>Begin Processed Spectral Data<<<<<
339.70	1041.54
340.07	1041.54
340.45	1006.06
340.82	983.75
341.19	957.54
341.57	932.96
341.94	916.69
342.31	908.08
342.69	902.96
343.06	900.50
343.43	896.66
343.81	896.68
344.18	900.66
344.55	902.32
344.93	907.38
345.30	911.90
345.67	918.22
346.04	924.77
346.42	935.58
346.79	943.91
347.16	953.63
347.54	966.83
347.91	977.15
348.28	983.19
348.65	992.01
349.03	1001.26
349.40	1010.55
349.77	1016.49
350.14	1027.31
350.52	1037.16
350.89	1043.90
351.26	1048.16
351.63	1055.79
352.01	1057.66
352.38	1060.92
352.75	1065.72
353.12	1068.81
353.50	1070.37
353.87	1074.63
354.24	1075.08
354.61	1075.80
354.98	1075.99
355.36	1079.03
355.73	1077.14
356.10	1080.91
356.47	1083.34
356.84	1085.07
357.22	1085.12
357.59	1089.82
357.96	1088.09
358.33	1087.62
358.70	1086.29
359.08	1085.73
359.45	1081.87
359.82	1077.79
360.19	1076.95
360.56	1077.72
360.94	1079.03
361.31	1079.48
361.68	1082.01
362.05	1082.17
362.42	1086.45
362.79	1082.17
363.16	1080.98
363.54	1080.93
363.91	1080.23
364.28	1078.73
364.65	1080.79
365.02	1085.05
365.39	1082.36
365.76	1077.72
366.14	1075.05
366.51	1073.16
366.88	1066.54
367.25	1070.44
367.62	1074.68
367.99	1074.24
368.36	1072.55
368.73	1074.07
369.10	1072.57
369.48	1076.55
369.85	1075.55
370.22	1079.20
370.59	1079.88
370.96	1080.04
371.33	1077.02
371.70	1080.09
372.07	1079.48
372.44	1081.02
372.81	1079.41
373.18	1078.68
373.55	1077.72
373.93	1074.42
374.30	1074.12
374.67	1074.49
375.04	1074.91
375.41	1073.93
375.78	1077.54
376.15	1076.53
376.52	1077.18
376.89	1077.47
377.26	1076.48
377.63	1077.40
378.00	1078.17
378.37	1080.37
378.74	1079.50
379.11	1079.71
379.48	1078.43
379.85	1077.00
380.22	1074.87
380.59	1076.76
380.96	1080.41
381.33	1080.27
381.70	1081.82
382.07	1082.26
382.44	1081.54
382.81	1082.19
383.18	1081.51
383.55	1082.08
383.92	1081.73
384.29	1086.62
384.66	1085.99
385.03	1086.22
385.40	1086.13
385.77	1088.68
386.14	1082.59
386.51	1078.36
386.88	1079.17
387.25	1077.98
387.62	1075.64
387.99	1076.32
388.36	1077.56
388.73	1074.52
389.10	1079.10
389.46	1079.38
389.83	1077.96
390.20	1079.41
390.57	1085.35
390.94	1081.35
391.31	1080.95
391.68	1081.40
392.05	1083.36
392.42	1082.90
392.79	1086.83
393.16	1088.54
393.53	1087.58
393.89	1085.84
394.26	1083.60
394.63	1085.26
395.00	1085.56
395.37	1089.92
395.74	1090.83
396.11	1089.80
396.48	1087.51
396.84	1087.44
397.21	1088.44
397.58	1088.93
397.95	1092.14
398.32	1091.98
398.69	1092.52
399.06	1091.25
399.42	1092.68
399.79	1090.34
400.16	1088.86
400.53	1090.48
400.90	1085.21
401.27	1085.87
401.64	1087.83
402.00	1087.86
402.37	1085.96
402.74	1089.22
403.11	1088.04
403.48	1086.27
403.84	1088.84
404.21	1089.45
404.58	1091.46
404.95	1089.33
405.32	1093.71
405.68	1094.93
406.05	1095.79
406.42	1093.47
406.79	1096.61
407.16	1095.14
407.52	1094.13
407.89	1093.12
408.26	1093.62
408.63	1092.09
408.99	1094.34
409.36	1095.60
409.73	1095.67
410.10	1099.21
410.47	1101.39
410.83	1099.68
411.20	1101.34
411.57	1102.65
411.94	1102.84
412.30	1101.88
412.67	1102.51
413.04	1099.51
413.40	1099.19
413.77	1100.47
414.14	1099.33
414.51	1100.96
414.87	1100.19
415.24	1100.78
415.61	1099.49
415.97	1098.93
416.34	1099.35
416.71	1098.62
417.08	1100.75
417.44	1099.02
417.81	1100.47
418.18	1100.59
418.54	1102.67
418.91	1104.36
419.28	1106.54
419.64	1109.06
420.01	1110.37
420.38	1111.38
420.74	1113.58
421.11	1116.04
421.48	1118.80
421.84	1122.26
422.21	1128.23
422.58	1125.80
422.94	1131.30
423.31	1136.54
423.68	1136.03
424.04	1136.21
424.41	1142.25
424.77	1142.30
425.14	1139.84
425.51	1144.03
425.87	1148.78
426.24	1154.52
426.61	1160.20
426.97	1165.96
427.34	1171.70
427.70	1180.61
428.07	1182.86
428.44	1190.14
428.80	1198.96
429.17	1207.95
429.53	1210.88
429.90	1221.90
430.27	1232.13
430.63	1242.26
431.00	1252.40
431.36	1265.76
431.73	1277.51
432.09	1289.66
432.46	1304.33
432.83	1317.89
433.19	1335.56
433.56	1352.55
433.92	1371.55
434.29	1391.73
434.65	1412.91
435.02	1437.58
435.38	1464.47
435.75	1492.28
436.11	1524.11
436.48	1558.73
436.84	1590.37
437.21	1626.41
437.57	1661.24
437.94	1699.74
438.30	1742.29
438.67	1791.05
439.03	1838.35
439.40	1893.87
439.76	1951.59
440.13	2014.43
440.49	2078.04
440.86	2147.25
441.22	2220.82
441.59	2295.32
441.95	2377.12
442.32	2462.15
442.68	2553.69
443.05	2644.97
443.41	2740.79
443.78	2836.99
444.14	2943.88
444.51	3060.32
444.87	3198.30
445.24	3344.23
445.60	3499.71
445.96	3651.42
446.33	3813.20
446.69	3974.35
447.06	4146.14
447.42	4331.04
447.79	4523.48
448.15	4751.99
448.51	4982.44
448.88	5250.10
449.24	5489.54
449.61	5774.29
449.97	6044.55
450.33	6332.25
450.70	6588.91
451.06	6912.77
451.43	7215.01
451.79	7585.25
452.15	7990.31
452.52	8450.48
452.88	8925.52
453.24	9465.27
453.61	10040.99
453.97	10592.02
454.34	11140.86
454.70	11787.20
455.06	12439.29
455.43	13066.37
455.79	13678.18
456.15	14383.25
456.52	15043.04
456.88	15801.00
457.24	16523.27
457.61	17385.10
457.97	18166.89
458.33	18948.84
458.70	19726.95
459.06	20498.67
459.42	21330.19
459.79	22108.28
460.15	23006.44
460.51	23862.23
460.88	24799.08
461.24	25597.55
461.60	26561.08
461.96	27442.17
462.33	28287.74
462.69	29051.50
463.05	29883.30
463.42	30595.88
463.78	31241.35
464.14	31794.38
464.50	32418.18
464.87	32919.03
465.23	33283.31
465.59	33635.60
465.95	33931.35
466.32	34184.13
466.68	34417.23
467.04	34564.31
467.40	34685.10
467.77	34859.54
468.13	34841.64
468.49	34713.82
468.85	34608.54
469.22	34423.38
469.58	34066.22
469.94	33789.99
470.30	33486.40
470.66	33073.20
471.03	32497.75
471.39	32101.97
471.75	31460.38
472.11	30841.73
472.47	30469.77
472.84	30151.90
473.20	29641.64
473.56	29360.64
473.92	28938.95
474.28	28420.82
474.65	27936.17
475.01	27477.05
475.37	26923.53
475.73	26485.92
476.09	25951.58
476.45	25413.77
476.81	24878.96
477.18	24337.57
477.54	23861.76
477.90	23524.12
478.26	23117.31
478.62	22786.22
478.98	22503.06
479.34	22196.66
479.71	21801.62
480.07	21442.30
480.43	21066.09
480.79	20667.84
481.15	20294.04
481.51	19946.65
481.87	19705.58
482.23	19425.07
482.59	19192.77
482.96	18911.36
483.32	18635.18
483.68	18263.53
484.04	17931.92
484.40	17551.84
484.76	17197.16
485.12	16829.08
485.48	16513.16
485.84	16153.18
486.20	15806.34
486.56	15434.50
486.92	15122.53
487.28	14768.55
487.64	14418.82
488.00	14085.79
488.37	13768.97
488.73	13411.81
489.09	13051.23
489.45	12732.56
489.81	12418.27
490.17	12107.97
490.53	11805.45
490.89	11505.63
491.25	11204.36
491.61	10891.73
491.97	10592.40
492.33	10276.54
492.69	9980.56
493.05	9670.65
493.41	9385.45
493.77	9103.21
494.13	8854.88
494.49	8616.57
494.85	8389.67
495.21	8171.75
495.57	7959.88
495.93	7739.64
496.29	7535.24
496.64	7359.98
497.00	7154.95
497.36	6961.17
497.72	6779.06
498.08	6593.85
498.44	6412.48
498.80	6256.74
499.16	6098.90
499.52	5943.74
499.88	5817.47
500.24	5687.20
500.60	5556.41
500.96	5440.67
501.32	5323.69
501.68	5194.77
502.03	5068.13
502.39	4945.62
502.75	4813.26
503.11	4688.07
503.47	4574.97
503.83	4454.91
504.19	4331.89
504.55	4223.24
504.91	4122.76
505.26	4021.60
505.62	3933.22
505.98	3847.21
506.34	3752.30
506.70	3669.49
507.06	3581.09
507.42	3500.25
507.78	3424.39
508.13	3352.77
508.49	3275.88
508.85	3201.88
509.21	3126.70
509.57	3056.18
509.93	2992.70
510.28	2928.06
510.64	2869.40
511.00	2813.04
511.36	2758.20
511.72	2704.49
512.07	2656.93
512.43	2607.99
512.79	2554.81
513.15	2503.32
513.51	2453.09
513.86	2410.82
514.22	2369.56
514.58	2331.06
514.94	2298.52
515.30	2261.71
515.65	2221.68
516.01	2189.27
516.37	2157.41
516.73	2127.43
517.08	2098.24
517.44	2067.07
517.80	2035.91
518.16	2008.25
518.51	1979.32
518.87	1951.12
519.23	1926.61
519.59	1900.54
519.94	1878.09
520.30	1851.86
520.66	1831.38
521.01	1810.03
521.37	1791.00
521.73	1769.82
522.09	1750.30
522.44	1731.41
522.80	1713.88
523.16	1692.58
523.51	1671.56
523.87	1652.11
524.23	1632.45
524.58	1607.97
524.94	1589.83
525.30	1572.51
525.65	1557.72
526.01	1538.83
526.37	1526.33
526.72	1516.50
527.08	1503.05
527.44	1489.26
527.79	1477.37
528.15	1464.54
528.51	1453.29
528.86	1443.60
529.22	1432.13
529.58	1424.59
529.93	1417.43
530.29	1405.02
530.65	1393.98
531.00	1383.21
531.36	1372.65
531.71	1364.09
532.07	1356.97
532.43	1346.44
532.78	1339.25
533.14	1334.22
533.49	1326.71
533.85	1319.36
534.21	1314.96
534.56	1307.70
534.92	1298.01
535.27	1290.03
535.63	1283.36
535.98	1273.72
536.34	1271.31
536.69	1265.32
537.05	1258.06
537.41	1253.24
537.76	1252.54
538.12	1245.26
538.47	1239.95
538.83	1237.35
539.18	1232.55
539.54	1226.65
539.89	1223.66
540.25	1222.06
540.60	1217.06
540.96	1212.30
541.31	1211.74
541.67	1207.69
542.02	1205.45
542.38	1206.50
542.73	1204.65
543.09	1203.15
543.44	1202.15
543.80	1198.85
544.15	1194.61
544.51	1191.26
544.86	1186.11
545.22	1180.75
545.57	1176.14
545.93	1172.02
546.28	1171.13
546.64	1166.36
546.99	1166.01
547.35	1165.47
547.70	1161.89
548.05	1160.62
548.41	1161.98
548.76	1159.83
549.12	1157.14
549.47	1157.11
549.83	1152.95
550.18	1151.66
550.53	1149.53
550.89	1147.49
551.24	1145.50
551.60	1143.14
551.95	1139.61
552.30	1138.09
552.66	1137.71
553.01	1135.98
553.37	1134.69
553.72	1131.46
554.07	1130.15
554.43	1126.57
554.78	1128.00
555.13	1130.06
555.49	1130.83
555.84	1128.47
556.19	1127.74
556.55	1120.95
556.90	1117.93
557.26	1116.20
557.61	1115.78
557.96	1114.66
558.32	1119.81
558.67	1116.74
559.02	1116.15
559.37	1115.62
559.73	1117.68
560.08	1114.28
560.43	1114.89
560.79	1114.91
561.14	1115.76
561.49	1113.37
561.85	1110.28
562.20	1106.63
562.55	1103.28
562.90	1102.09
563.26	1102.86
563.61	1104.52
563.96	1109.93
564.32	1114.70
564.67	1112.48
565.02	1110.05
565.37	1109.23
565.73	1108.64
566.08	1103.82
566.43	1104.33
566.78	1104.87
567.14	1104.45
567.49	1102.56
567.84	1100.57
568.19	1099.40
568.54	1099.40
568.90	1096.73
569.25	1095.70
569.60	1097.41
569.95	1096.99
570.31	1096.38
570.66	1096.00
571.01	1095.46
571.36	1095.32
571.71	1098.13
572.06	1098.67
572.42	1100.33
572.77	1099.00
573.12	1098.39
573.47	1095.77
573.82	1095.04
574.18	1097.90
574.53	1094.11
574.88	1095.00
575.23	1092.75
575.58	1090.22
575.93	1088.96
576.28	1094.60
576.64	1094.81
576.99	1096.92
577.34	1098.46
577.69	1095.91
578.04	1096.61
578.39	1098.90
578.74	1099.23
579.09	1097.15
579.44	1095.42
579.80	1093.97
580.15	1088.44
580.50	1088.61
580.85	1088.75
581.20	1089.89
581.55	1088.28
581.90	1088.00
582.25	1087.44
582.60	1090.85
582.95	1092.35
583.30	1092.84
583.65	1095.32
584.00	1096.14
584.35	1094.72
584.71	1095.32
585.06	1095.09
585.41	1095.07
585.76	1091.34
586.11	1092.80
586.46	1091.98
586.81	1093.15
587.16	1093.15
587.51	1093.66
587.86	1089.14
588.21	1087.37
588.56	1086.90
588.91	1087.02
589.26	1085.49
589.61	1085.59
589.96	1086.85
590.31	1085.38
590.66	1085.66
591.01	1091.32
591.36	1094.90
591.71	1094.15
592.06	1093.69
592.41	1093.90
592.76	1089.94
593.10	1085.99
593.45	1086.43
593.80	1086.29
594.15	1084.77
594.50	1087.30
594.85	1089.31
595.20	1090.43
595.55	1093.45
595.90	1091.27
596.25	1090.15
596.60	1088.89
596.95	1088.58
597.30	1086.71
597.64	1098.53
597.99	1098.74
598.34	1100.59
598.69	1095.91
599.04	1092.54
599.39	1080.88
599.74	1080.46
600.09	1074.40
600.44	1078.68
600.78	1082.15
601.13	1084.65
601.48	1082.69
601.83	1086.94
602.18	1086.15
602.53	1084.02
602.88	1084.86
603.22	1085.47
603.57	1086.73
603.92	1088.54
604.27	1086.43
604.62	1083.74
604.97	1084.25
605.31	1084.89
605.66	1085.26
606.01	1091.39
606.36	1091.23
606.71	1091.16
607.05	1090.88
607.40	1086.99
607.75	1082.90
608.10	1083.36
608.44	1083.88
608.79	1082.08
609.14	1083.95
609.49	1084.37
609.84	1082.92
610.18	1085.24
610.53	1088.98
610.88	1091.09
611.23	1093.69
611.57	1094.74
611.92	1091.11
612.27	1085.96
612.62	1083.86
612.96	1080.39
613.31	1084.53
613.66	1086.87
614.00	1088.79
614.35	1089.36
614.70	1090.29
615.05	1084.65
615.39	1084.44
615.74	1086.94
616.09	1085.00
616.43	1088.84
616.78	1091.88
617.13	1092.63
617.47	1089.24
617.82	1088.96
618.17	1086.38
618.51	1085.61
618.86	1084.89
619.21	1086.01
619.55	1089.33
619.90	1087.16
620.25	1086.52
620.59	1086.15
620.94	1087.04
621.29	1087.55
621.63	1086.78
621.98	1085.14
622.32	1081.30
622.67	1080.34
623.02	1076.20
623.36	1076.65
623.71	1077.89
624.05	1080.95
624.40	1081.58
624.75	1082.59
625.09	1083.13
625.44	1081.44
625.78	1083.04
626.13	1083.39
626.48	1085.77
626.82	1087.83
627.17	1094.08
627.51	1091.09
627.86	1090.67
628.20	1088.93
628.55	1088.28
628.89	1084.28
629.24	1085.61
629.58	1086.94
629.93	1087.62
630.28	1086.48
630.62	1086.97
630.97	1085.96
631.31	1086.50
631.66	1083.25
632.00	1085.21
632.35	1082.33
632.69	1078.99
633.04	1076.74
633.38	1075.73
633.73	1073.16
634.07	1074.82
634.42	1079.53
634.76	1078.78
635.11	1079.74
635.45	1080.11
635.79	1077.63
636.14	1078.14
636.48	1076.30
636.83	1081.40
637.17	1083.60
637.52	1087.53
637.86	1086.29
638.21	1088.33
638.55	1085.56
638.89	1083.46
639.24	1080.25
639.58	1082.22
639.93	1082.50
640.27	1082.87
640.61	1082.31
640.96	1085.19
641.30	1082.31
641.65	1080.13
641.99	1080.16
642.33	1080.53
642.68	1082.52
643.02	1083.22
643.37	1082.90
643.71	1084.93
644.05	1085.47
644.40	1081.87
644.74	1082.29
645.08	1085.63
645.43	1082.71
645.77	1083.34
646.11	1081.98
646.46	1083.29
646.80	1081.70
647.14	1083.34
647.49	1082.97
647.83	1083.13
648.17	1081.58
648.52	1081.75
648.86	1081.49
649.20	1079.38
649.55	1082.05
649.89	1080.13
650.23	1084.37
650.57	1081.94
650.92	1084.81
651.26	1087.18
651.60	1088.12
651.95	1085.03
652.29	1086.20
652.63	1085.91
652.97	1086.34
653.32	1089.03
653.66	1088.61
654.00	1089.73
654.34	1089.52
654.69	1089.68
655.03	1088.00
655.37	1088.07
655.71	1084.58
656.05	1083.57
656.40	1081.30
656.74	1082.78
657.08	1080.27
657.42	1081.26
657.76	1080.39
658.11	1079.50
658.45	1078.52
658.79	1080.98
659.13	1083.20
659.47	1083.93
659.82	1085.14
660.16	1084.25
660.50	1086.78
660.84	1088.23
661.18	1089.92
661.52	1089.12
661.87	1089.14
662.21	1086.17
662.55	1082.15
662.89	1078.71
663.23	1077.58
663.57	1077.56
663.91	1076.79
664.25	1077.98
664.60	1080.51
664.94	1082.69
665.28	1081.82
665.62	1080.34
665.96	1078.12
666.30	1076.97
666.64	1074.66
666.98	1076.18
667.32	1077.21
667.66	1081.66
668.01	1083.67
668.35	1086.03
668.69	1087.41
669.03	1088.14
669.37	1087.88
669.71	1087.74
670.05	1087.27
670.39	1086.22
670.73	1084.86
671.07	1081.70
671.41	1080.32
671.75	1077.40
672.09	1076.93
672.43	1078.45
672.77	1079.20
673.11	1080.63
673.45	1084.79
673.79	1083.41
674.13	1084.46
674.47	1086.06
674.81	1085.54
675.15	1081.30
675.49	1084.91
675.83	1084.04
676.17	1083.69
676.51	1081.21
676.85	1082.80
677.19	1079.97
677.53	1078.50
677.87	1079.43
678.21	1081.68
678.55	1084.46
678.89	1083.74
679.23	1085.17
679.57	1083.76
679.90	1080.91
680.24	1077.40
680.58	1077.44
680.92	1076.44
681.26	1076.90
681.60	1078.68
681.94	1080.09
682.28	1080.56
682.62	1082.08
682.96	1080.88
683.29	1081.07
683.63	1079.41
683.97	1082.78
684.31	1083.27
684.65	1083.39
684.99	1084.00
685.33	1085.42
685.67	1082.92
686.00	1085.17
686.34	1085.26
686.68	1084.79
687.02	1082.57
687.36	1083.93
687.70	1079.99
688.03	1077.44
688.37	1078.19
688.71	1079.13
689.05	1077.07
689.39	1077.49
689.72	1083.18
690.06	1081.09
690.40	1081.44
690.74	1083.39
691.08	1081.21
691.41	1081.98
691.75	1083.81
692.09	1084.77
692.43	1082.05
692.76	1083.55
693.10	1080.32
693.44	1081.35
693.78	1079.01
694.11	1080.48
694.45	1083.95
694.79	1084.91
695.13	1082.47
695.46	1082.17
695.80	1080.60
696.14	1079.01
696.48	1080.86
696.81	1082.36
697.15	1086.87
697.49	1086.73
697.82	1086.87
698.16	1085.24
698.50	1085.05
698.83	1082.36
699.17	1082.17
699.51	1079.90
699.84	1079.55
700.18	1079.62
700.52	1081.28
700.85	1079.29
701.19	1077.58
701.53	1074.26
701.86	1072.64
702.20	1069.77
702.54	1073.32
702.87	1077.28
703.21	1080.84
703.55	1079.13
703.88	1080.02
704.22	1077.00
704.55	1076.27
704.89	1072.62
705.23	1076.53
705.56	1077.54
705.90	1082.78
706.23	1084.79
706.57	1085.82
706.91	1084.86
707.24	1084.86
707.58	1082.94
707.91	1081.05
708.25	1084.02
708.58	1084.21
708.92	1083.27
709.26	1083.25
709.59	1081.40
709.93	1078.89
710.26	1079.81
710.60	1080.27
710.93	1080.67
711.27	1082.54
711.60	1083.90
711.94	1084.60
712.27	1084.96
712.61	1083.18
712.94	1082.59
713.28	1083.36
713.61	1081.51
713.95	1081.14
714.28	1084.00
714.62	1087.65
714.95	1086.41
715.29	1087.46
715.62	1084.51
715.96	1081.42
716.29	1077.00
716.63	1076.44
716.96	1076.13
717.29	1076.25
717.63	1079.38
717.96	1080.20
718.30	1082.78
718.63	1080.67
718.97	1086.27
719.30	1082.87
719.63	1081.84
719.97	1080.11
720.30	1082.17
720.64	1078.64
720.97	1080.37
721.30	1083.01
721.64	1081.33
721.97	1080.51
722.31	1081.68
722.64	1084.32
722.97	1080.23
723.31	1081.05
723.64	1081.70
723.97	1078.43
724.31	1073.95
724.64	1072.15
724.98	1073.25
725.31	1073.81
725.64	1078.21
725.98	1080.25
726.31	1081.63
726.64	1078.24
726.97	1076.79
727.31	1074.52
727.64	1072.06
727.97	1073.35
728.31	1075.66
728.64	1071.99
728.97	1071.29
729.31	1072.13
729.64	1073.18
729.97	1074.26
730.30	1078.26
730.64	1078.33
730.97	1079.24
731.30	1078.43
731.63	1078.05
731.97	1078.38
732.30	1081.02
732.63	1084.39
732.96	1085.82
733.30	1087.39
733.63	1088.49
733.96	1085.87
734.29	1086.45
734.63	1086.20
734.96	1084.51
735.29	1084.74
735.62	1083.88
735.95	1079.74
736.29	1081.98
736.62	1081.14
736.95	1078.43
737.28	1080.46
737.61	1079.90
737.94	1079.03
738.28	1080.06
738.61	1081.14
738.94	1084.14
739.27	1082.19
739.60	1080.23
739.93	1079.29
740.27	1080.11
740.60	1079.92
740.93	1082.69
741.26	1080.20
741.59	1081.98
741.92	1081.94
742.25	1081.91
742.58	1082.90
742.91	1086.97
743.25	1086.45
743.58	1085.42
743.91	1082.80
744.24	1081.07
744.57	1079.99
744.90	1077.86
745.23	1078.85
745.56	1077.77
745.89	1077.02
746.22	1076.76
746.55	1079.22
746.88	1076.55
747.21	1074.80
747.54	1076.67
747.87	1077.35
748.20	1075.13
748.53	1074.59
748.87	1073.21
749.20	1073.25
749.53	1074.12
749.86	1077.21
750.19	1079.46
750.52	1084.56
750.85	1081.02
751.18	1078.33
751.51	1077.28
751.84	1078.52
752.16	1075.03
752.49	1074.80
752.82	1075.52
753.15	1074.84
753.48	1070.87
753.81	1073.14
754.14	1075.01
754.47	1078.54
754.80	1076.20
755.13	1078.12
755.46	1076.86
755.79	1079.34
756.12	1075.66
756.45	1075.29
756.78	1080.20
757.11	1080.58
757.43	1079.83
757.76	1078.33
758.09	1078.68
758.42	1075.76
758.75	1078.17
759.08	1075.15
759.41	1076.60
759.74	1077.30
760.07	1076.81
760.39	1076.83
760.72	1081.77
761.05	1084.44
761.38	1084.39
761.71	1083.76
762.04	1082.03
762.36	1078.05
762.69	1079.10
763.02	1079.36
763.35	1083.36
763.68	1081.77
764.01	1081.82
