SpectraSuite Data File
++++++++++++++++++++++++++++++++++++
Date: Mon Aug 26 10:22:36 PDT 2019
User: corrico
Dark Spectrum Present: No
Reference Spectrum Present: No
Number of Sampled Component Spectra: 1
Spectrometers: USB2+H06089
Integration Time (usec): 2000 (USB2+H06089)
Spectra Averaged: 20 (USB2+H06089)
Boxcar Smoothing: 2 (USB2+H06089)
Correct for Electrical Dark: No (USB2+H06089)
Strobe/Lamp Enabled: No (USB2+H06089)
Correct for Detector Non-linearity: No (USB2+H06089)
Correct for Stray Light: No (USB2+H06089)
Number of Pixels in Processed Spectrum: 2048
>>>>>Begin Processed Spectral Data<<<<<
339.70	1031.71
340.07	1031.71
340.45	996.16
340.82	972.00
341.19	949.20
341.57	923.11
341.94	911.24
342.31	905.34
342.69	900.99
343.06	895.68
343.43	894.41
343.81	892.77
344.18	891.65
344.55	895.79
344.93	902.23
345.30	908.71
345.67	919.50
346.04	929.24
346.42	940.31
346.79	950.44
347.16	958.61
347.54	966.97
347.91	977.31
348.28	984.83
348.65	992.50
349.03	1001.19
349.40	1009.03
349.77	1018.20
350.14	1024.90
350.52	1030.19
350.89	1041.21
351.26	1047.60
351.63	1050.69
352.01	1055.11
352.38	1060.57
352.75	1062.70
353.12	1068.50
353.50	1073.23
353.87	1078.66
354.24	1080.84
354.61	1081.44
354.98	1081.80
355.36	1083.86
355.73	1082.08
356.10	1085.05
356.47	1085.73
356.84	1086.69
357.22	1085.59
357.59	1087.06
357.96	1086.99
358.33	1083.25
358.70	1080.67
359.08	1080.86
359.45	1081.09
359.82	1079.67
360.19	1084.98
360.56	1082.99
360.94	1082.22
361.31	1079.62
361.68	1077.84
362.05	1074.40
362.42	1073.28
362.79	1070.94
363.16	1068.83
363.54	1068.62
363.91	1066.63
364.28	1070.40
364.65	1072.92
365.02	1077.04
365.39	1073.58
365.76	1076.93
366.14	1073.04
366.51	1070.94
366.88	1068.83
367.25	1074.38
367.62	1072.53
367.99	1072.88
368.36	1070.72
368.73	1071.73
369.10	1071.82
369.48	1073.77
369.85	1076.65
370.22	1077.68
370.59	1077.61
370.96	1078.78
371.33	1077.33
371.70	1077.61
372.07	1079.64
372.44	1079.34
372.81	1075.50
373.18	1076.23
373.55	1075.90
373.93	1076.44
374.30	1075.78
374.67	1074.91
375.04	1074.31
375.41	1074.66
375.78	1072.95
376.15	1075.15
376.52	1074.21
376.89	1074.84
377.26	1074.61
377.63	1075.10
378.00	1075.41
378.37	1078.05
378.74	1080.39
379.11	1081.56
379.48	1081.66
379.85	1080.60
380.22	1076.53
380.59	1072.15
380.96	1069.88
381.33	1070.00
381.70	1068.24
382.07	1071.90
382.44	1077.28
382.81	1079.92
383.18	1079.83
383.55	1083.48
383.92	1081.96
384.29	1079.13
384.66	1074.33
385.03	1072.64
385.40	1070.96
385.77	1073.53
386.14	1072.88
386.51	1078.73
386.88	1083.90
387.25	1086.06
387.62	1088.42
387.99	1086.69
388.36	1084.11
388.73	1081.94
389.10	1078.66
389.46	1075.80
389.83	1078.71
390.20	1079.01
390.57	1079.64
390.94	1079.64
391.31	1081.14
391.68	1080.81
392.05	1082.99
392.42	1083.62
392.79	1082.94
393.16	1082.76
393.53	1081.00
393.89	1081.44
394.26	1078.36
394.63	1081.40
395.00	1080.84
395.37	1082.97
395.74	1079.43
396.11	1081.58
396.48	1080.46
396.84	1080.27
397.21	1079.03
397.58	1082.45
397.95	1083.83
398.32	1084.04
398.69	1086.08
399.06	1088.77
399.42	1086.43
399.79	1085.59
400.16	1087.37
400.53	1089.59
400.90	1090.46
401.27	1089.73
401.64	1090.20
402.00	1088.33
402.37	1085.89
402.74	1085.05
403.11	1088.00
403.48	1087.69
403.84	1091.32
404.21	1091.18
404.58	1091.42
404.95	1090.88
405.32	1090.55
405.68	1091.51
406.05	1092.07
406.42	1090.22
406.79	1089.59
407.16	1087.74
407.52	1088.42
407.89	1087.39
408.26	1091.63
408.63	1095.09
408.99	1098.67
409.36	1096.68
409.73	1096.82
410.10	1096.45
410.47	1093.38
410.83	1094.13
411.20	1093.38
411.57	1093.66
411.94	1091.98
412.30	1091.49
412.67	1093.03
413.04	1092.05
413.40	1094.50
413.77	1093.31
414.14	1093.43
414.51	1092.94
414.87	1093.10
415.24	1092.54
415.61	1092.21
415.97	1092.14
416.34	1092.59
416.71	1094.81
417.08	1095.91
417.44	1099.33
417.81	1103.49
418.18	1102.91
418.54	1104.50
418.91	1107.17
419.28	1113.04
419.64	1112.50
420.01	1111.22
420.38	1112.97
420.74	1114.89
421.11	1112.13
421.48	1116.01
421.84	1122.26
422.21	1122.94
422.58	1120.98
422.94	1119.53
423.31	1123.13
423.68	1127.32
424.04	1128.72
424.41	1133.24
424.77	1138.74
425.14	1138.90
425.51	1139.26
425.87	1145.34
426.24	1149.13
426.61	1155.57
426.97	1160.72
427.34	1166.73
427.70	1167.95
428.07	1171.44
428.44	1177.66
428.80	1186.16
429.17	1194.75
429.53	1208.72
429.90	1223.52
430.27	1234.89
430.63	1245.49
431.00	1257.03
431.36	1269.04
431.73	1275.66
432.09	1290.67
432.46	1303.30
432.83	1315.33
433.19	1331.48
433.56	1354.30
433.92	1369.99
434.29	1389.97
434.65	1412.93
435.02	1433.67
435.38	1460.54
435.75	1484.39
436.11	1511.63
436.48	1542.97
436.84	1575.95
437.21	1607.64
437.57	1642.03
437.94	1685.28
438.30	1729.73
438.67	1777.59
439.03	1826.48
439.40	1883.17
439.76	1936.49
440.13	1993.15
440.49	2053.47
440.86	2117.41
441.22	2187.84
441.59	2259.76
441.95	2333.58
442.32	2414.52
442.68	2506.22
443.05	2598.95
443.41	2692.90
443.78	2795.72
444.14	2897.40
444.51	3004.57
444.87	3134.91
445.24	3276.31
445.60	3425.02
445.96	3579.22
446.33	3746.17
446.69	3899.08
447.06	4071.46
447.42	4247.49
447.79	4435.57
448.15	4647.20
448.51	4877.98
448.88	5128.11
449.24	5368.70
449.61	5641.44
449.97	5903.58
450.33	6173.05
450.70	6425.61
451.06	6738.71
451.43	7027.67
451.79	7387.90
452.15	7783.22
452.52	8223.94
452.88	8674.82
453.24	9195.47
453.61	9744.61
453.97	10292.53
454.34	10818.94
454.70	11439.23
455.06	12064.57
455.43	12689.28
455.79	13267.82
456.15	13972.72
456.52	14624.79
456.88	15372.45
457.24	16064.50
457.61	16879.87
457.97	17603.10
458.33	18336.97
458.70	19078.62
459.06	19824.59
459.42	20646.54
459.79	21428.19
460.15	22333.49
460.51	23175.98
460.88	24097.92
461.24	24874.28
461.60	25824.09
461.96	26653.37
462.33	27452.96
462.69	28181.24
463.05	28980.86
463.42	29630.97
463.78	30242.90
464.14	30763.49
464.50	31351.27
464.87	31817.87
465.23	32168.67
465.59	32518.65
465.95	32824.68
466.32	33057.05
466.68	33270.39
467.04	33411.64
467.40	33543.65
467.77	33693.32
468.13	33672.23
468.49	33601.71
468.85	33516.00
469.22	33347.25
469.58	33031.58
469.94	32786.93
470.30	32466.60
470.66	32059.53
471.03	31465.62
471.39	31047.53
471.75	30410.25
472.11	29804.94
472.47	29428.02
472.84	29132.91
473.20	28654.27
473.56	28403.57
473.92	27997.65
474.28	27497.83
474.65	26987.38
475.01	26536.01
475.37	25965.74
475.73	25522.32
476.09	25010.78
476.45	24512.66
476.81	23997.42
477.18	23490.44
477.54	23041.12
477.90	22719.04
478.26	22346.05
478.62	22035.23
478.98	21758.95
479.34	21464.89
479.71	21067.89
480.07	20724.30
480.43	20378.51
480.79	20015.37
481.15	19680.46
481.51	19395.79
481.87	19162.50
482.23	18892.27
482.59	18642.74
482.96	18374.19
483.32	18073.43
483.68	17696.37
484.04	17358.51
484.40	17003.24
484.76	16643.83
485.12	16281.26
485.48	15991.29
485.84	15659.94
486.20	15325.01
486.56	14973.65
486.92	14673.73
487.28	14311.63
487.64	13943.58
488.00	13619.69
488.37	13300.21
488.73	12948.80
489.09	12613.90
489.45	12317.86
489.81	12008.26
490.17	11715.08
490.53	11443.00
490.89	11154.43
491.25	10873.68
491.61	10582.59
491.97	10280.38
492.33	9960.17
492.69	9678.51
493.05	9384.61
493.41	9095.16
493.77	8821.74
494.13	8585.37
494.49	8345.72
494.85	8110.00
495.21	7904.18
495.57	7705.44
495.93	7496.22
496.29	7298.16
496.64	7125.29
497.00	6937.18
497.36	6748.98
497.72	6573.14
498.08	6408.36
498.44	6228.75
498.80	6066.01
499.16	5918.37
499.52	5777.17
499.88	5644.88
500.24	5537.10
500.60	5419.25
500.96	5302.93
501.32	5182.60
501.68	5060.47
502.03	4932.54
502.39	4810.27
502.75	4682.19
503.11	4562.17
503.47	4447.23
503.83	4330.90
504.19	4214.42
504.55	4119.51
504.91	4025.02
505.26	3936.99
505.62	3851.94
505.98	3771.94
506.34	3675.25
506.70	3591.58
507.06	3506.05
507.42	3427.04
507.78	3349.05
508.13	3277.08
508.49	3202.09
508.85	3135.69
509.21	3068.23
509.57	3004.69
509.93	2940.42
510.28	2879.54
510.64	2813.70
511.00	2746.85
511.36	2693.98
511.72	2641.58
512.07	2591.70
512.43	2544.28
512.79	2498.38
513.15	2452.72
513.51	2411.06
513.86	2371.17
514.22	2335.36
514.58	2292.09
514.94	2253.21
515.30	2216.56
515.65	2181.31
516.01	2146.25
516.37	2121.95
516.73	2094.12
517.08	2065.45
517.44	2032.17
517.80	2004.53
518.16	1978.60
518.51	1954.00
518.87	1929.23
519.23	1909.74
519.59	1882.02
519.94	1853.82
520.30	1827.33
520.66	1805.65
521.01	1783.89
521.37	1764.79
521.73	1748.26
522.09	1732.79
522.44	1711.98
522.80	1688.13
523.16	1669.06
523.51	1651.55
523.87	1626.16
524.23	1605.72
524.58	1585.48
524.94	1567.97
525.30	1549.67
525.65	1537.12
526.01	1525.09
526.37	1516.32
526.72	1506.28
527.08	1493.89
527.44	1477.58
527.79	1466.93
528.15	1456.54
528.51	1446.64
528.86	1435.64
529.22	1428.24
529.58	1413.87
529.93	1399.73
530.29	1386.56
530.65	1372.05
531.00	1363.39
531.36	1353.56
531.71	1344.94
532.07	1336.98
532.43	1333.92
532.78	1324.95
533.14	1321.02
533.49	1315.47
533.85	1310.54
534.21	1306.58
534.56	1301.06
534.92	1293.94
535.27	1288.75
535.63	1280.95
535.98	1272.08
536.34	1268.36
536.69	1260.52
537.05	1251.72
537.41	1248.54
537.76	1243.25
538.12	1236.86
538.47	1231.54
538.83	1229.65
539.18	1223.75
539.54	1220.14
539.89	1216.17
540.25	1214.64
540.60	1209.50
540.96	1208.68
541.31	1209.33
541.67	1205.42
542.02	1201.68
542.38	1199.15
542.73	1193.28
543.09	1187.87
543.44	1184.43
543.80	1182.86
544.15	1183.05
544.51	1180.33
544.86	1178.04
545.22	1177.24
545.57	1173.19
545.93	1168.75
546.28	1168.23
546.64	1167.90
546.99	1164.86
547.35	1164.72
547.70	1162.61
548.05	1159.03
548.41	1154.89
548.76	1150.21
549.12	1149.62
549.47	1148.34
549.83	1146.37
550.18	1142.32
550.53	1145.25
550.89	1139.75
551.24	1134.69
551.60	1134.04
551.95	1134.83
552.30	1129.12
552.66	1128.23
553.01	1132.40
553.37	1128.00
553.72	1126.15
554.07	1129.00
554.43	1129.00
554.78	1123.53
555.13	1124.65
555.49	1124.32
555.84	1119.76
556.19	1119.43
556.55	1121.68
556.90	1118.89
557.26	1116.69
557.61	1116.74
557.96	1118.38
558.32	1116.20
558.67	1119.74
559.02	1122.68
559.37	1122.87
559.73	1121.02
560.08	1119.06
560.43	1115.99
560.79	1111.03
561.14	1110.09
561.49	1108.22
561.85	1112.57
562.20	1115.80
562.55	1117.63
562.90	1117.30
563.26	1114.40
563.61	1110.68
563.96	1106.32
564.32	1103.31
564.67	1102.25
565.02	1101.29
565.37	1101.46
565.73	1100.29
566.08	1103.42
566.43	1104.08
566.78	1104.73
567.14	1102.79
567.49	1104.38
567.84	1102.37
568.19	1100.92
568.54	1101.71
568.90	1099.09
569.25	1097.95
569.60	1096.85
569.95	1096.70
570.31	1094.57
570.66	1097.64
571.01	1096.40
571.36	1095.16
571.71	1098.41
572.06	1099.21
572.42	1098.04
572.77	1097.83
573.12	1097.31
573.47	1093.15
573.82	1092.19
574.18	1092.02
574.53	1091.34
574.88	1093.15
575.23	1089.38
575.58	1089.73
575.93	1088.93
576.28	1091.32
576.64	1090.27
576.99	1091.32
577.34	1088.61
577.69	1088.84
578.04	1086.97
578.39	1086.31
578.74	1088.61
579.09	1090.15
579.44	1087.74
579.80	1086.87
580.15	1088.72
580.50	1089.22
580.85	1087.62
581.20	1089.59
581.55	1090.29
581.90	1087.30
582.25	1085.82
582.60	1090.71
582.95	1089.29
583.30	1088.44
583.65	1088.82
584.00	1087.39
584.35	1084.07
584.71	1087.55
585.06	1087.97
585.41	1091.09
585.76	1093.10
586.11	1095.00
586.46	1091.02
586.81	1091.32
587.16	1089.24
587.51	1089.78
587.86	1091.49
588.21	1095.44
588.56	1097.66
588.91	1096.21
589.26	1094.15
589.61	1090.71
589.96	1086.62
590.31	1083.90
590.66	1084.56
591.01	1086.22
591.36	1087.48
591.71	1087.23
592.06	1088.61
592.41	1087.79
592.76	1086.90
593.10	1086.78
593.45	1088.42
593.80	1085.07
594.15	1085.05
594.50	1085.21
594.85	1086.03
595.20	1083.32
595.55	1082.52
595.90	1082.38
596.25	1079.90
596.60	1076.48
596.95	1077.09
597.30	1078.89
597.64	1091.34
597.99	1091.70
598.34	1095.04
598.69	1096.68
599.04	1095.32
599.39	1081.49
599.74	1082.90
600.09	1082.08
600.44	1081.07
600.78	1082.08
601.13	1082.26
601.48	1079.95
601.83	1075.94
602.18	1076.27
602.53	1076.34
602.88	1080.37
603.22	1083.74
603.57	1084.23
603.92	1083.20
604.27	1081.40
604.62	1076.53
604.97	1075.73
605.31	1075.78
605.66	1076.34
606.01	1079.83
606.36	1081.00
606.71	1081.14
607.05	1086.08
607.40	1085.66
607.75	1082.83
608.10	1082.78
608.44	1082.69
608.79	1079.10
609.14	1081.82
609.49	1083.06
609.84	1081.47
610.18	1082.19
610.53	1084.42
610.88	1084.35
611.23	1086.03
611.57	1092.14
611.92	1091.86
612.27	1089.36
612.62	1088.51
612.96	1088.82
613.31	1086.22
613.66	1083.08
614.00	1086.71
614.35	1086.80
614.70	1084.14
615.05	1083.95
615.39	1086.45
615.74	1082.26
616.09	1080.09
616.43	1080.30
616.78	1079.36
617.13	1078.82
617.47	1077.91
617.82	1079.67
618.17	1079.15
618.51	1078.24
618.86	1077.86
619.21	1078.07
619.55	1076.23
619.90	1078.24
620.25	1078.28
620.59	1075.22
620.94	1080.23
621.29	1083.32
621.63	1080.48
621.98	1080.06
622.32	1083.95
622.67	1082.10
623.02	1080.46
623.36	1081.87
623.71	1082.71
624.05	1081.28
624.40	1079.43
624.75	1079.60
625.09	1082.38
625.44	1083.81
625.78	1084.49
626.13	1086.08
626.48	1086.71
626.82	1084.25
627.17	1082.76
627.51	1083.04
627.86	1081.23
628.20	1080.81
628.55	1082.01
628.89	1082.73
629.24	1081.21
629.58	1083.39
629.93	1083.97
630.28	1084.00
630.62	1082.40
630.97	1086.29
631.31	1085.24
631.66	1085.21
632.00	1084.65
632.35	1086.64
632.69	1084.89
633.04	1083.08
633.38	1080.72
633.73	1078.36
634.07	1079.60
634.42	1078.24
634.76	1080.27
635.11	1081.07
635.45	1084.18
635.79	1081.61
636.14	1081.49
636.48	1083.27
636.83	1084.18
637.17	1081.44
637.52	1084.07
637.86	1085.00
638.21	1083.13
638.55	1082.12
638.89	1083.69
639.24	1080.20
639.58	1082.29
639.93	1083.22
640.27	1081.33
640.61	1081.87
640.96	1081.26
641.30	1079.10
641.65	1079.10
641.99	1082.40
642.33	1084.84
642.68	1090.27
643.02	1089.80
643.37	1087.95
643.71	1087.02
644.05	1083.36
644.40	1078.24
644.74	1079.41
645.08	1080.81
645.43	1083.67
645.77	1083.11
646.11	1083.64
646.46	1083.67
646.80	1083.34
647.14	1083.08
647.49	1083.04
647.83	1083.50
648.17	1083.50
648.52	1082.78
648.86	1079.17
649.20	1080.77
649.55	1082.52
649.89	1081.70
650.23	1078.66
650.57	1080.53
650.92	1079.50
651.26	1076.76
651.60	1075.34
651.95	1078.26
652.29	1079.46
652.63	1080.77
652.97	1081.16
653.32	1083.76
653.66	1083.90
654.00	1081.63
654.34	1077.72
654.69	1077.91
655.03	1079.67
655.37	1078.28
655.71	1077.21
656.05	1079.81
656.40	1081.09
656.74	1078.66
657.08	1081.96
657.42	1084.14
657.76	1084.44
658.11	1085.56
658.45	1086.80
658.79	1086.71
659.13	1087.53
659.47	1087.55
659.82	1087.44
660.16	1083.81
660.50	1082.94
660.84	1080.72
661.18	1080.06
661.52	1077.54
661.87	1077.86
662.21	1075.92
662.55	1076.83
662.89	1077.49
663.23	1078.73
663.57	1078.68
663.91	1082.08
664.25	1080.11
664.60	1079.78
664.94	1078.71
665.28	1081.73
665.62	1078.59
665.96	1080.56
666.30	1080.72
666.64	1079.81
666.98	1078.19
667.32	1078.14
667.66	1078.07
668.01	1078.80
668.35	1080.11
668.69	1077.79
669.03	1080.25
669.37	1080.09
669.71	1078.59
670.05	1078.92
670.39	1081.87
670.73	1080.34
671.07	1080.09
671.41	1082.59
671.75	1083.60
672.09	1084.56
672.43	1084.42
672.77	1083.20
673.11	1083.81
673.45	1082.33
673.79	1080.16
674.13	1080.32
674.47	1081.89
674.81	1080.27
675.15	1080.02
675.49	1080.30
675.83	1080.30
676.17	1080.84
676.51	1081.19
676.85	1082.19
677.19	1082.59
677.53	1082.66
677.87	1082.08
678.21	1080.20
678.55	1081.89
678.89	1082.43
679.23	1080.72
679.57	1082.40
679.90	1083.53
680.24	1081.19
680.58	1078.85
680.92	1081.44
681.26	1081.56
681.60	1077.58
681.94	1074.49
682.28	1078.38
682.62	1078.31
682.96	1077.40
683.29	1081.66
683.63	1086.62
683.97	1085.17
684.31	1080.65
684.65	1078.17
684.99	1076.30
685.33	1075.05
685.67	1074.80
686.00	1077.40
686.34	1077.98
686.68	1079.31
687.02	1079.95
687.36	1078.57
687.70	1077.09
688.03	1078.45
688.37	1078.85
688.71	1079.15
689.05	1081.51
689.39	1080.81
689.72	1077.68
690.06	1079.17
690.40	1075.73
690.74	1073.51
691.08	1077.02
691.41	1080.16
691.75	1078.00
692.09	1080.88
692.43	1083.97
692.76	1079.24
693.10	1077.42
693.44	1076.44
693.78	1076.67
694.11	1071.87
694.45	1074.87
694.79	1074.38
695.13	1074.63
695.46	1073.86
695.80	1076.44
696.14	1078.64
696.48	1081.42
696.81	1081.40
697.15	1082.03
697.49	1082.05
697.82	1078.47
698.16	1077.75
698.50	1079.27
698.83	1078.43
699.17	1078.00
699.51	1078.00
699.84	1077.23
700.18	1076.90
700.52	1077.30
700.85	1078.45
701.19	1081.98
701.53	1084.89
701.86	1084.23
702.20	1083.95
702.54	1084.28
702.87	1082.26
703.21	1079.81
703.55	1081.09
703.88	1081.87
704.22	1081.09
704.55	1085.99
704.89	1090.24
705.23	1088.37
705.56	1086.22
705.90	1087.58
706.23	1081.58
706.57	1079.31
706.91	1080.27
707.24	1082.94
707.58	1081.09
707.91	1084.18
708.25	1081.40
708.58	1081.77
708.92	1081.54
709.26	1079.31
709.59	1077.77
709.93	1080.13
710.26	1080.60
710.60	1079.06
710.93	1081.47
711.27	1083.06
711.60	1080.39
711.94	1079.76
712.27	1079.34
712.61	1077.58
712.94	1077.21
713.28	1076.27
713.61	1075.17
713.95	1077.25
714.28	1077.47
714.62	1077.21
714.95	1081.23
715.29	1081.28
715.62	1081.42
715.96	1086.41
716.29	1087.97
716.63	1082.69
716.96	1083.90
717.29	1083.08
717.63	1076.60
717.96	1075.76
718.30	1077.21
718.63	1078.71
718.97	1076.67
719.30	1079.90
719.63	1079.13
719.97	1081.30
720.30	1076.88
720.64	1076.93
720.97	1076.69
721.30	1078.96
721.64	1077.47
721.97	1079.13
722.31	1081.09
722.64	1078.38
722.97	1074.33
723.31	1076.15
723.64	1074.87
723.97	1075.03
724.31	1079.17
724.64	1078.61
724.98	1076.01
725.31	1076.76
725.64	1074.68
725.98	1070.98
726.31	1072.85
726.64	1073.37
726.97	1075.05
727.31	1074.35
727.64	1079.03
727.97	1078.28
728.31	1080.60
728.64	1078.24
728.97	1080.44
729.31	1077.11
729.64	1077.75
729.97	1076.06
730.30	1075.20
730.64	1074.07
730.97	1074.96
731.30	1074.33
731.63	1075.01
731.97	1076.76
732.30	1077.42
732.63	1077.84
732.96	1079.60
733.30	1084.32
733.63	1085.91
733.96	1087.30
734.29	1085.61
734.63	1083.46
734.96	1077.02
735.29	1075.05
735.62	1073.81
735.95	1071.90
736.29	1074.17
736.62	1073.37
736.95	1075.03
737.28	1075.69
737.61	1079.03
737.94	1074.82
738.28	1077.02
738.61	1077.07
738.94	1073.49
739.27	1073.14
739.60	1075.97
739.93	1075.13
740.27	1075.10
740.60	1078.52
740.93	1078.75
741.26	1076.06
741.59	1075.83
741.92	1074.19
742.25	1074.61
742.58	1075.13
742.91	1078.33
743.25	1081.54
743.58	1082.08
743.91	1080.25
744.24	1077.30
744.57	1077.89
744.90	1078.80
745.23	1076.58
745.56	1077.51
745.89	1081.96
746.22	1083.48
746.55	1082.59
746.88	1084.53
747.21	1085.42
747.54	1082.52
747.87	1076.65
748.20	1076.55
748.53	1078.10
748.87	1077.07
749.20	1075.20
749.53	1078.10
749.86	1073.14
750.19	1074.24
750.52	1076.06
750.85	1079.99
751.18	1081.75
751.51	1086.22
751.84	1086.13
752.16	1081.96
752.49	1077.04
752.82	1077.18
753.15	1073.98
753.48	1073.37
753.81	1077.63
754.14	1078.61
754.47	1076.44
754.80	1079.78
755.13	1077.84
755.46	1074.73
755.79	1077.35
756.12	1077.70
756.45	1077.77
756.78	1081.89
757.11	1084.25
757.43	1082.66
757.76	1082.29
758.09	1081.21
758.42	1079.88
758.75	1078.61
759.08	1081.42
759.41	1080.70
759.74	1076.86
760.07	1073.02
760.39	1071.36
760.72	1070.16
761.05	1071.01
761.38	1075.76
761.71	1076.97
762.04	1081.28
762.36	1080.67
762.69	1077.93
763.02	1075.43
763.35	1076.27
763.68	1074.75
764.01	1074.61
