SpectraSuite Data File
++++++++++++++++++++++++++++++++++++
Date: Mon Aug 26 10:25:49 PDT 2019
User: corrico
Dark Spectrum Present: No
Reference Spectrum Present: No
Number of Sampled Component Spectra: 1
Spectrometers: USB2+H06089
Integration Time (usec): 10000 (USB2+H06089)
Spectra Averaged: 2 (USB2+H06089)
Boxcar Smoothing: 2 (USB2+H06089)
Correct for Electrical Dark: No (USB2+H06089)
Strobe/Lamp Enabled: No (USB2+H06089)
Correct for Detector Non-linearity: No (USB2+H06089)
Correct for Stray Light: No (USB2+H06089)
Number of Pixels in Processed Spectrum: 2048
>>>>>Begin Processed Spectral Data<<<<<
339.70	1029.84
340.07	1029.84
340.45	998.00
340.82	980.45
341.19	960.79
341.57	929.89
341.94	916.55
342.31	908.13
342.69	899.47
343.06	889.40
343.43	892.45
343.81	899.23
344.18	895.96
344.55	892.45
344.93	907.19
345.30	914.45
345.67	923.58
346.04	929.66
346.42	937.85
346.79	937.15
347.16	952.60
347.54	962.66
347.91	966.64
348.28	989.58
348.65	997.30
349.03	998.00
349.40	1003.39
349.77	1026.79
350.14	1019.77
350.52	1026.56
350.89	1032.41
351.26	1037.56
351.63	1028.67
352.01	1035.92
352.38	1049.03
352.75	1055.82
353.12	1054.88
353.50	1065.65
353.87	1072.90
354.24	1069.86
354.61	1070.09
354.98	1071.03
355.36	1067.52
355.73	1061.90
356.10	1057.69
356.47	1066.11
356.84	1068.45
357.22	1062.84
357.59	1071.50
357.96	1073.60
358.33	1064.94
358.70	1064.01
359.08	1065.65
359.45	1067.52
359.82	1071.73
360.19	1070.56
360.56	1071.26
360.94	1077.58
361.31	1071.26
361.68	1067.28
362.05	1064.24
362.42	1064.01
362.79	1077.11
363.16	1082.50
363.54	1081.33
363.91	1075.48
364.28	1071.26
364.65	1060.96
365.02	1061.90
365.39	1065.41
365.76	1082.73
366.14	1093.03
366.51	1087.65
366.88	1085.07
367.25	1078.52
367.62	1067.52
367.99	1058.39
368.36	1060.96
368.73	1055.11
369.10	1066.35
369.48	1070.80
369.85	1076.65
370.22	1078.28
370.59	1086.94
370.96	1084.37
371.33	1073.37
371.70	1077.11
372.07	1071.26
372.44	1063.07
372.81	1058.39
373.18	1060.03
373.55	1053.01
373.93	1051.13
374.30	1054.41
374.67	1048.79
375.04	1055.11
375.41	1060.03
375.78	1071.50
376.15	1068.22
376.52	1066.35
376.89	1074.77
377.26	1064.01
377.63	1048.09
378.00	1045.99
378.37	1061.67
378.74	1057.22
379.11	1060.96
379.48	1077.35
379.85	1074.54
380.22	1062.14
380.59	1058.39
380.96	1057.69
381.33	1052.07
381.70	1057.22
382.07	1065.88
382.44	1067.05
382.81	1074.54
383.18	1070.56
383.55	1075.48
383.92	1068.92
384.29	1071.73
384.66	1068.22
385.03	1073.60
385.40	1071.73
385.77	1066.11
386.14	1062.84
386.51	1059.09
386.88	1053.01
387.25	1050.90
387.62	1060.50
387.99	1065.41
388.36	1071.73
388.73	1072.43
389.10	1065.41
389.46	1061.43
389.83	1046.45
390.20	1038.50
390.57	1040.37
390.94	1051.13
391.31	1049.96
391.68	1061.20
392.05	1062.37
392.42	1067.52
392.79	1063.54
393.16	1058.39
393.53	1055.11
393.89	1057.69
394.26	1059.33
394.63	1061.20
395.00	1067.75
395.37	1069.39
395.74	1070.56
396.11	1067.52
396.48	1076.41
396.84	1083.90
397.21	1077.35
397.58	1069.16
397.95	1069.39
398.32	1059.09
398.69	1054.18
399.06	1060.03
399.42	1070.09
399.79	1073.84
400.16	1084.60
400.53	1083.90
400.90	1089.99
401.27	1089.29
401.64	1077.82
402.00	1067.99
402.37	1070.33
402.74	1071.97
403.11	1083.43
403.48	1088.58
403.84	1095.14
404.21	1095.14
404.58	1085.54
404.95	1082.03
405.32	1071.50
405.68	1055.35
406.05	1050.90
406.42	1059.56
406.79	1053.48
407.16	1062.37
407.52	1070.56
407.89	1083.20
408.26	1084.60
408.63	1081.33
408.99	1074.77
409.36	1078.75
409.73	1071.03
410.10	1063.77
410.47	1065.18
410.83	1081.56
411.20	1081.56
411.57	1084.60
411.94	1088.58
412.30	1091.16
412.67	1089.29
413.04	1090.92
413.40	1086.24
413.77	1078.52
414.14	1073.37
414.51	1068.45
414.87	1063.77
415.24	1064.71
415.61	1070.80
415.97	1071.03
416.34	1075.94
416.71	1078.52
417.08	1079.46
417.44	1075.24
417.81	1083.20
418.18	1072.90
418.54	1071.03
418.91	1071.26
419.28	1074.77
419.64	1065.41
420.01	1073.14
420.38	1078.52
420.74	1070.09
421.11	1057.92
421.48	1063.31
421.84	1059.56
422.21	1055.82
422.58	1055.35
422.94	1062.37
423.31	1054.65
423.68	1052.54
424.04	1052.54
424.41	1057.45
424.77	1063.07
425.14	1069.62
425.51	1063.31
425.87	1068.22
426.24	1069.86
426.61	1064.94
426.97	1063.77
427.34	1070.80
427.70	1064.71
428.07	1070.56
428.44	1065.18
428.80	1066.58
429.17	1068.45
429.53	1075.24
429.90	1069.39
430.27	1080.86
430.63	1078.52
431.00	1076.41
431.36	1072.43
431.73	1076.88
432.09	1084.60
432.46	1086.01
432.83	1083.20
433.19	1081.80
433.56	1074.54
433.92	1065.65
434.29	1071.97
434.65	1081.80
435.02	1076.88
435.38	1085.31
435.75	1092.56
436.11	1087.88
436.48	1080.63
436.84	1078.52
437.21	1074.31
437.57	1064.48
437.94	1065.41
438.30	1071.50
438.67	1078.05
439.03	1073.14
439.40	1073.37
439.76	1064.94
440.13	1062.37
440.49	1064.48
440.86	1065.88
441.22	1065.18
441.59	1072.90
441.95	1074.07
442.32	1065.41
442.68	1065.41
443.05	1079.46
443.41	1078.05
443.78	1074.07
444.14	1081.33
444.51	1086.94
444.87	1080.86
445.24	1083.20
445.60	1088.58
445.96	1080.39
446.33	1080.63
446.69	1080.63
447.06	1080.39
447.42	1074.77
447.79	1079.92
448.15	1086.71
448.51	1080.86
448.88	1089.29
449.24	1091.16
449.61	1092.80
449.97	1085.77
450.33	1082.97
450.70	1081.33
451.06	1080.39
451.43	1075.71
451.79	1075.01
452.15	1068.92
452.52	1062.14
452.88	1066.58
453.24	1067.05
453.61	1073.14
453.97	1083.67
454.34	1084.37
454.70	1079.46
455.06	1083.67
455.43	1075.71
455.79	1088.12
456.15	1094.20
456.52	1101.46
456.88	1104.50
457.24	1104.73
457.61	1099.12
457.97	1093.97
458.33	1084.14
458.70	1079.69
459.06	1081.80
459.42	1082.50
459.79	1076.41
460.15	1085.31
460.51	1089.99
460.88	1086.71
461.24	1080.16
461.60	1080.86
461.96	1077.82
462.33	1079.46
462.69	1080.16
463.05	1068.22
463.42	1070.33
463.78	1071.26
464.14	1075.24
464.50	1083.20
464.87	1091.16
465.23	1097.95
465.59	1088.58
465.95	1079.92
466.32	1082.73
466.68	1074.54
467.04	1070.80
467.40	1079.69
467.77	1083.43
468.13	1072.67
468.49	1090.22
468.85	1090.46
469.22	1084.84
469.58	1079.69
469.94	1083.20
470.30	1064.48
470.66	1061.20
471.03	1059.79
471.39	1057.45
471.75	1056.75
472.11	1071.50
472.47	1068.69
472.84	1085.31
473.20	1086.01
473.56	1078.75
473.92	1082.97
474.28	1090.46
474.65	1079.69
475.01	1087.41
475.37	1092.33
475.73	1081.80
476.09	1087.18
476.45	1070.80
476.81	1062.37
477.18	1055.82
477.54	1054.41
477.90	1044.11
478.26	1050.90
478.62	1050.43
478.98	1062.14
479.34	1071.73
479.71	1077.11
480.07	1087.18
480.43	1088.35
480.79	1079.92
481.15	1083.67
481.51	1082.73
481.87	1089.75
482.23	1091.86
482.59	1102.39
482.96	1097.01
483.32	1094.20
483.68	1091.39
484.04	1099.12
484.40	1096.07
484.76	1093.26
485.12	1098.65
485.48	1110.58
485.84	1099.35
486.20	1097.01
486.56	1096.31
486.92	1094.67
487.28	1080.63
487.64	1091.86
488.00	1091.39
488.37	1094.67
488.73	1087.65
489.09	1085.54
489.45	1073.37
489.81	1072.90
490.17	1075.48
490.53	1076.88
490.89	1068.22
491.25	1079.46
491.61	1080.16
491.97	1078.75
492.33	1085.31
492.69	1095.14
493.05	1102.39
493.41	1102.63
493.77	1094.67
494.13	1096.07
494.49	1092.56
494.85	1079.46
495.21	1084.37
495.57	1095.60
495.93	1094.67
496.29	1095.14
496.64	1089.99
497.00	1086.94
497.36	1084.60
497.72	1084.84
498.08	1081.56
498.44	1089.75
498.80	1088.35
499.16	1085.07
499.52	1074.54
499.88	1078.05
500.24	1075.48
500.60	1070.09
500.96	1075.71
501.32	1074.77
501.68	1067.05
502.03	1059.33
502.39	1060.26
502.75	1052.07
503.11	1058.62
503.47	1056.52
503.83	1058.16
504.19	1067.05
504.55	1065.65
504.91	1069.16
505.26	1084.37
505.62	1087.41
505.98	1085.07
506.34	1090.92
506.70	1085.31
507.06	1074.54
507.42	1077.11
507.78	1070.56
508.13	1067.75
508.49	1073.37
508.85	1079.92
509.21	1080.16
509.57	1087.41
509.93	1087.18
510.28	1079.69
510.64	1086.71
511.00	1089.52
511.36	1083.67
511.72	1088.82
512.07	1098.18
512.43	1088.35
512.79	1090.22
513.15	1089.75
513.51	1081.56
513.86	1075.94
514.22	1084.37
514.58	1072.90
514.94	1071.26
515.30	1080.63
515.65	1084.84
516.01	1087.41
516.37	1097.01
516.73	1106.37
517.08	1105.67
517.44	1104.26
517.80	1099.58
518.16	1089.99
518.51	1089.99
518.87	1091.16
519.23	1084.60
519.59	1083.43
519.94	1086.01
520.30	1087.41
520.66	1080.39
521.01	1087.41
521.37	1076.18
521.73	1090.46
522.09	1082.26
522.44	1088.58
522.80	1083.43
523.16	1093.50
523.51	1083.67
523.87	1082.50
524.23	1077.58
524.58	1083.90
524.94	1078.75
525.30	1076.41
525.65	1087.18
526.01	1081.80
526.37	1088.35
526.72	1092.09
527.08	1096.07
527.44	1095.84
527.79	1089.29
528.15	1087.88
528.51	1093.50
528.86	1091.16
529.22	1077.82
529.58	1093.97
529.93	1078.05
530.29	1068.69
530.65	1074.54
531.00	1083.90
531.36	1082.03
531.71	1099.58
532.07	1108.71
532.43	1106.14
532.78	1107.54
533.14	1098.18
533.49	1096.31
533.85	1092.56
534.21	1095.14
534.56	1093.50
534.92	1106.14
535.27	1096.31
535.63	1102.39
535.98	1094.90
536.34	1095.14
536.69	1094.20
537.05	1095.60
537.41	1088.58
537.76	1090.92
538.12	1089.29
538.47	1091.63
538.83	1100.75
539.18	1099.82
539.54	1100.05
539.89	1095.84
540.25	1091.86
540.60	1085.77
540.96	1095.60
541.31	1100.75
541.67	1099.12
542.02	1101.46
542.38	1099.35
542.73	1094.43
543.09	1100.29
543.44	1109.88
543.80	1104.03
544.15	1104.26
544.51	1098.88
544.86	1091.63
545.22	1084.60
545.57	1092.33
545.93	1087.65
546.28	1092.80
546.64	1084.37
546.99	1085.54
547.35	1083.90
547.70	1089.52
548.05	1081.09
548.41	1091.86
548.76	1079.92
549.12	1080.39
549.47	1084.84
549.83	1087.65
550.18	1087.18
550.53	1093.73
550.89	1086.24
551.24	1087.18
551.60	1089.29
551.95	1078.99
552.30	1074.77
552.66	1083.20
553.01	1075.24
553.37	1066.82
553.72	1075.94
554.07	1079.22
554.43	1073.60
554.78	1065.41
555.13	1075.24
555.49	1065.18
555.84	1072.67
556.19	1063.31
556.55	1061.67
556.90	1058.39
557.26	1065.65
557.61	1062.84
557.96	1067.05
558.32	1073.37
558.67	1079.46
559.02	1072.43
559.37	1076.18
559.73	1074.07
560.08	1074.31
560.43	1071.03
560.79	1077.35
561.14	1073.60
561.49	1082.73
561.85	1088.58
562.20	1094.20
562.55	1086.71
562.90	1088.82
563.26	1083.20
563.61	1078.52
563.96	1069.16
564.32	1084.14
564.67	1089.29
565.02	1085.31
565.37	1088.58
565.73	1089.05
566.08	1076.88
566.43	1071.50
566.78	1081.09
567.14	1079.22
567.49	1080.39
567.84	1097.01
568.19	1091.63
568.54	1088.58
568.90	1082.97
569.25	1077.58
569.60	1066.11
569.95	1071.26
570.31	1069.62
570.66	1077.35
571.01	1076.41
571.36	1067.75
571.71	1072.43
572.06	1081.80
572.42	1081.80
572.77	1088.35
573.12	1095.60
573.47	1094.67
573.82	1090.22
574.18	1078.28
574.53	1070.80
574.88	1062.37
575.23	1052.77
575.58	1045.28
575.93	1054.88
576.28	1058.62
576.64	1071.26
576.99	1074.07
577.34	1081.80
577.69	1082.50
578.04	1090.92
578.39	1084.37
578.74	1085.31
579.09	1069.39
579.44	1071.73
579.80	1065.88
580.15	1063.31
580.50	1067.99
580.85	1077.35
581.20	1076.18
581.55	1085.54
581.90	1089.29
582.25	1086.48
582.60	1080.16
582.95	1081.80
583.30	1068.92
583.65	1070.56
584.00	1079.92
584.35	1080.16
584.71	1081.56
585.06	1085.77
585.41	1090.46
585.76	1079.46
586.11	1081.56
586.46	1071.73
586.81	1070.56
587.16	1070.80
587.51	1069.86
587.86	1073.60
588.21	1077.82
588.56	1082.50
588.91	1079.69
589.26	1074.31
589.61	1074.07
589.96	1086.01
590.31	1086.01
590.66	1087.18
591.01	1093.97
591.36	1093.73
591.71	1077.58
592.06	1080.39
592.41	1078.52
592.76	1075.24
593.10	1080.86
593.45	1094.90
593.80	1086.01
594.15	1088.35
594.50	1101.46
594.85	1097.01
595.20	1091.16
595.55	1095.14
595.90	1098.41
596.25	1090.69
596.60	1086.71
596.95	1085.77
597.30	1081.09
597.64	1115.97
597.99	1119.95
598.34	1131.88
598.69	1125.56
599.04	1126.73
599.39	1081.80
599.74	1078.99
600.09	1076.88
600.44	1081.09
600.78	1080.63
601.13	1087.41
601.48	1089.75
601.83	1078.99
602.18	1086.94
602.53	1089.75
602.88	1088.82
603.22	1078.99
603.57	1086.01
603.92	1085.77
604.27	1086.01
604.62	1079.69
604.97	1089.75
605.31	1094.20
605.66	1086.48
606.01	1082.73
606.36	1089.99
606.71	1083.90
607.05	1079.92
607.40	1087.88
607.75	1089.29
608.10	1079.46
608.44	1081.56
608.79	1086.24
609.14	1077.11
609.49	1089.05
609.84	1090.69
610.18	1088.35
610.53	1083.43
610.88	1083.90
611.23	1070.33
611.57	1072.20
611.92	1072.90
612.27	1068.45
612.62	1069.39
612.96	1075.48
613.31	1077.11
613.66	1081.80
614.00	1089.29
614.35	1088.35
614.70	1085.77
615.05	1091.39
615.39	1086.94
615.74	1090.46
616.09	1098.18
616.43	1093.50
616.78	1087.65
617.13	1078.52
617.47	1078.05
617.82	1074.31
618.17	1078.99
618.51	1084.37
618.86	1094.20
619.21	1089.75
619.55	1086.01
619.90	1080.63
620.25	1073.14
620.59	1071.97
620.94	1073.14
621.29	1074.54
621.63	1089.75
621.98	1086.01
622.32	1087.65
622.67	1081.09
623.02	1091.39
623.36	1079.22
623.71	1080.16
624.05	1083.43
624.40	1095.37
624.75	1088.35
625.09	1096.78
625.44	1105.90
625.78	1102.63
626.13	1098.88
626.48	1096.31
626.82	1080.63
627.17	1070.56
627.51	1073.84
627.86	1072.90
628.20	1071.26
628.55	1087.65
628.89	1080.86
629.24	1079.69
629.58	1072.20
629.93	1076.41
630.28	1063.31
630.62	1076.65
630.97	1074.77
631.31	1081.09
631.66	1074.54
632.00	1087.18
632.35	1088.12
632.69	1094.20
633.04	1089.52
633.38	1087.41
633.73	1087.41
634.07	1096.31
634.42	1086.01
634.76	1082.03
635.11	1091.63
635.45	1095.60
635.79	1089.29
636.14	1091.86
636.48	1097.24
636.83	1094.20
637.17	1079.22
637.52	1075.24
637.86	1070.80
638.21	1072.20
638.55	1072.67
638.89	1075.01
639.24	1071.73
639.58	1076.18
639.93	1080.16
640.27	1086.24
640.61	1084.14
640.96	1088.12
641.30	1093.26
641.65	1093.97
641.99	1085.54
642.33	1083.67
642.68	1083.43
643.02	1077.58
643.37	1078.52
643.71	1081.56
644.05	1090.92
644.40	1089.52
644.74	1087.65
645.08	1082.26
645.43	1077.82
645.77	1077.35
646.11	1078.52
646.46	1082.73
646.80	1079.92
647.14	1075.01
647.49	1073.14
647.83	1067.52
648.17	1064.01
648.52	1064.71
648.86	1072.90
649.20	1073.60
649.55	1082.26
649.89	1074.77
650.23	1083.43
650.57	1086.71
650.92	1077.11
651.26	1073.37
651.60	1084.84
651.95	1073.60
652.29	1070.80
652.63	1064.24
652.97	1062.37
653.32	1054.41
653.66	1060.96
654.00	1054.65
654.34	1069.16
654.69	1072.43
655.03	1084.60
655.37	1084.37
655.71	1086.71
656.05	1081.09
656.40	1085.31
656.74	1077.35
657.08	1070.09
657.42	1060.26
657.76	1071.03
658.11	1065.88
658.45	1059.09
658.79	1062.14
659.13	1078.52
659.47	1078.99
659.82	1081.80
660.16	1094.43
660.50	1089.52
660.84	1086.71
661.18	1071.97
661.52	1067.52
661.87	1059.09
662.21	1064.24
662.55	1058.86
662.89	1069.16
663.23	1073.60
663.57	1073.84
663.91	1068.92
664.25	1059.56
664.60	1054.41
664.94	1052.30
665.28	1057.22
665.62	1066.11
665.96	1080.16
666.30	1092.33
666.64	1088.35
666.98	1088.35
667.32	1086.94
667.66	1078.99
668.01	1067.28
668.35	1072.90
668.69	1071.26
669.03	1071.97
669.37	1075.94
669.71	1083.20
670.05	1076.88
670.39	1078.52
670.73	1084.84
671.07	1089.99
671.41	1087.65
671.75	1091.63
672.09	1092.09
672.43	1096.78
672.77	1091.39
673.11	1083.90
673.45	1077.58
673.79	1069.16
674.13	1052.77
674.47	1058.39
674.81	1058.39
675.15	1064.01
675.49	1069.62
675.83	1079.22
676.17	1073.14
676.51	1086.71
676.85	1086.94
677.19	1082.26
677.53	1079.92
677.87	1079.22
678.21	1072.67
678.55	1076.65
678.89	1085.77
679.23	1078.99
679.57	1080.16
679.90	1084.84
680.24	1079.92
680.58	1077.82
680.92	1081.56
681.26	1087.18
681.60	1077.58
681.94	1083.67
682.28	1087.18
682.62	1083.67
682.96	1070.80
683.29	1073.60
683.63	1070.56
683.97	1057.45
684.31	1061.90
684.65	1071.03
684.99	1074.07
685.33	1067.28
685.67	1079.46
686.00	1078.28
686.34	1069.62
686.68	1059.33
687.02	1072.90
687.36	1077.82
687.70	1080.63
688.03	1085.31
688.37	1088.58
688.71	1080.86
689.05	1061.43
689.39	1061.90
689.72	1063.31
690.06	1062.37
690.40	1058.62
690.74	1067.99
691.08	1062.84
691.41	1060.73
691.75	1065.65
692.09	1070.80
692.43	1068.69
692.76	1068.22
693.10	1067.75
693.44	1068.92
693.78	1064.71
694.11	1072.20
694.45	1075.24
694.79	1075.24
695.13	1079.22
695.46	1076.41
695.80	1078.28
696.14	1081.56
696.48	1091.39
696.81	1086.94
697.15	1094.67
697.49	1081.09
697.82	1080.39
698.16	1080.39
698.50	1076.88
698.83	1067.75
699.17	1078.52
699.51	1067.28
699.84	1063.31
700.18	1065.41
700.52	1069.86
700.85	1064.71
701.19	1078.05
701.53	1084.84
701.86	1082.50
702.20	1087.65
702.54	1084.60
702.87	1078.75
703.21	1076.65
703.55	1087.88
703.88	1080.16
704.22	1089.75
704.55	1086.94
704.89	1080.63
705.23	1071.26
705.56	1089.29
705.90	1081.56
706.23	1085.07
706.57	1091.63
706.91	1094.20
707.24	1079.92
707.58	1086.24
707.91	1084.84
708.25	1080.86
708.58	1086.48
708.92	1083.20
709.26	1083.20
709.59	1084.14
709.93	1085.54
710.26	1085.31
710.60	1089.75
710.93	1086.71
711.27	1098.41
711.60	1103.80
711.94	1093.03
712.27	1090.69
712.61	1092.80
712.94	1084.84
713.28	1077.11
713.61	1086.24
713.95	1087.65
714.28	1089.99
714.62	1088.82
714.95	1087.65
715.29	1076.65
715.62	1071.73
715.96	1061.90
716.29	1060.96
716.63	1059.79
716.96	1067.05
717.29	1073.37
717.63	1085.07
717.96	1079.46
718.30	1072.43
718.63	1077.11
718.97	1073.14
719.30	1078.75
719.63	1075.48
719.97	1086.48
720.30	1078.05
720.64	1076.65
720.97	1066.11
721.30	1067.99
721.64	1066.35
721.97	1068.92
722.31	1072.43
722.64	1061.20
722.97	1064.48
723.31	1062.60
723.64	1063.54
723.97	1063.77
724.31	1066.35
724.64	1068.69
724.98	1068.69
725.31	1058.16
725.64	1075.71
725.98	1083.90
726.31	1072.90
726.64	1083.67
726.97	1092.80
727.31	1076.88
727.64	1072.20
727.97	1082.97
728.31	1074.54
728.64	1072.43
728.97	1057.92
729.31	1055.82
729.64	1054.41
729.97	1060.26
730.30	1066.58
730.64	1082.50
730.97	1087.65
731.30	1099.35
731.63	1092.80
731.97	1099.12
732.30	1097.01
732.63	1103.56
732.96	1092.80
733.30	1096.78
733.63	1095.37
733.96	1100.05
734.29	1099.82
734.63	1097.24
734.96	1096.31
735.29	1087.41
735.62	1090.69
735.95	1079.22
736.29	1084.60
736.62	1079.46
736.95	1068.22
737.28	1051.13
737.61	1060.96
737.94	1049.96
738.28	1056.99
738.61	1067.05
738.94	1075.24
739.27	1075.01
739.60	1087.88
739.93	1087.88
740.27	1097.01
740.60	1097.48
740.93	1091.63
741.26	1084.60
741.59	1077.58
741.92	1067.99
742.25	1065.65
742.58	1067.52
742.91	1076.18
743.25	1088.58
743.58	1096.78
743.91	1095.84
744.24	1102.16
744.57	1093.50
744.90	1083.20
745.23	1092.09
745.56	1100.05
745.89	1091.86
746.22	1082.26
746.55	1082.26
746.88	1070.56
747.21	1065.88
747.54	1067.75
747.87	1075.24
748.20	1075.01
748.53	1074.77
748.87	1086.94
749.20	1084.84
749.53	1086.48
749.86	1090.69
750.19	1094.67
750.52	1079.46
750.85	1087.88
751.18	1092.80
751.51	1086.94
751.84	1082.73
752.16	1080.86
752.49	1078.05
752.82	1078.28
753.15	1082.50
753.48	1086.01
753.81	1085.77
754.14	1077.35
754.47	1068.69
754.80	1065.18
755.13	1063.31
755.46	1073.37
755.79	1082.26
756.12	1093.97
756.45	1096.07
756.78	1095.14
757.11	1082.97
757.43	1076.88
757.76	1069.16
758.09	1070.56
758.42	1063.77
758.75	1071.97
759.08	1075.94
759.41	1077.82
759.74	1076.18
760.07	1092.56
760.39	1093.26
760.72	1091.39
761.05	1085.54
761.38	1082.73
761.71	1063.31
762.04	1054.18
762.36	1056.52
762.69	1068.45
763.02	1069.86
763.35	1078.52
763.68	1084.84
764.01	1076.65
764.33	1079.46
764.66	1081.33
764.99	1084.60
765.32	1081.56
765.65	1090.92
765.97	1084.84
766.30	1081.80
