SpectraSuite Data File
++++++++++++++++++++++++++++++++++++
Date: Mon Aug 26 10:25:49 PDT 2019
User: corrico
Dark Spectrum Present: No
Reference Spectrum Present: No
Number of Sampled Component Spectra: 1
Spectrometers: USB2+H06089
Integration Time (usec): 10000 (USB2+H06089)
Spectra Averaged: 2 (USB2+H06089)
Boxcar Smoothing: 2 (USB2+H06089)
Correct for Electrical Dark: No (USB2+H06089)
Strobe/Lamp Enabled: No (USB2+H06089)
Correct for Detector Non-linearity: No (USB2+H06089)
Correct for Stray Light: No (USB2+H06089)
Number of Pixels in Processed Spectrum: 2048
>>>>>Begin Processed Spectral Data<<<<<
339.70	1020.47
340.07	1020.47
340.45	982.56
340.82	958.22
341.19	938.55
341.57	910.23
341.94	902.51
342.31	909.06
342.69	910.47
343.06	902.74
343.43	912.11
343.81	907.66
344.18	907.66
344.55	918.19
344.93	924.28
345.30	932.00
345.67	946.04
346.04	950.02
346.42	944.17
346.79	948.15
347.16	946.28
347.54	948.62
347.91	957.75
348.28	975.54
348.65	987.94
349.03	994.26
349.40	996.60
349.77	1002.69
350.14	1006.43
350.52	1016.73
350.89	1022.81
351.26	1034.98
351.63	1036.86
352.01	1042.71
352.38	1040.37
352.75	1056.28
353.12	1056.52
353.50	1069.62
353.87	1076.65
354.24	1081.09
354.61	1075.01
354.98	1072.90
355.36	1074.07
355.73	1064.24
356.10	1067.05
356.47	1073.37
356.84	1078.28
357.22	1080.39
357.59	1084.37
357.96	1089.99
358.33	1079.92
358.70	1079.22
359.08	1066.58
359.45	1071.03
359.82	1071.73
360.19	1073.60
360.56	1076.18
360.94	1078.28
361.31	1074.07
361.68	1068.22
362.05	1067.75
362.42	1063.31
362.79	1063.77
363.16	1063.77
363.54	1064.24
363.91	1063.07
364.28	1067.99
364.65	1068.92
365.02	1063.31
365.39	1058.39
365.76	1064.48
366.14	1060.03
366.51	1061.20
366.88	1065.88
367.25	1075.01
367.62	1078.99
367.99	1078.52
368.36	1081.09
368.73	1080.16
369.10	1071.73
369.48	1061.20
369.85	1071.50
370.22	1059.56
370.59	1063.31
370.96	1060.96
371.33	1061.67
371.70	1050.67
372.07	1053.48
372.44	1045.75
372.81	1051.37
373.18	1052.30
373.55	1043.18
373.93	1048.79
374.30	1053.01
374.67	1051.60
375.04	1057.69
375.41	1078.52
375.78	1076.65
376.15	1081.56
376.52	1080.63
376.89	1072.43
377.26	1065.65
377.63	1061.90
378.00	1053.01
378.37	1047.39
378.74	1056.28
379.11	1046.22
379.48	1054.41
379.85	1051.84
380.22	1059.09
380.59	1056.99
380.96	1067.99
381.33	1062.14
381.70	1066.82
382.07	1064.24
382.44	1058.16
382.81	1056.52
383.18	1055.82
383.55	1062.37
383.92	1068.22
384.29	1074.07
384.66	1083.43
385.03	1091.16
385.40	1088.82
385.77	1090.92
386.14	1086.24
386.51	1081.56
386.88	1075.94
387.25	1074.77
387.62	1070.56
387.99	1067.75
388.36	1065.88
388.73	1067.75
389.10	1068.22
389.46	1072.20
389.83	1077.35
390.20	1075.01
390.57	1079.92
390.94	1081.09
391.31	1079.22
391.68	1087.18
392.05	1084.14
392.42	1075.01
392.79	1074.31
393.16	1074.54
393.53	1072.90
393.89	1074.54
394.26	1079.22
394.63	1070.80
395.00	1077.82
395.37	1074.07
395.74	1070.09
396.11	1076.18
396.48	1080.86
396.84	1075.01
397.21	1069.86
397.58	1078.05
397.95	1073.84
398.32	1078.05
398.69	1081.80
399.06	1092.80
399.42	1090.22
399.79	1082.26
400.16	1075.94
400.53	1073.37
400.90	1059.79
401.27	1058.62
401.64	1061.90
402.00	1067.99
402.37	1068.69
402.74	1078.99
403.11	1075.01
403.48	1071.97
403.84	1071.03
404.21	1066.35
404.58	1067.52
404.95	1075.48
405.32	1086.24
405.68	1087.41
406.05	1087.18
406.42	1083.43
406.79	1082.50
407.16	1079.22
407.52	1080.86
407.89	1088.12
408.26	1094.67
408.63	1092.09
408.99	1087.18
409.36	1085.54
409.73	1079.46
410.10	1078.28
410.47	1073.60
410.83	1073.37
411.20	1064.24
411.57	1068.22
411.94	1065.41
412.30	1067.52
412.67	1071.73
413.04	1075.71
413.40	1068.45
413.77	1070.33
414.14	1071.26
414.51	1073.37
414.87	1078.05
415.24	1078.75
415.61	1071.26
415.97	1069.16
416.34	1073.60
416.71	1074.77
417.08	1082.26
417.44	1096.07
417.81	1104.73
418.18	1100.99
418.54	1101.46
418.91	1090.69
419.28	1077.11
419.64	1066.82
420.01	1060.73
420.38	1061.90
420.74	1067.75
421.11	1069.39
421.48	1069.62
421.84	1069.62
422.21	1079.22
422.58	1084.37
422.94	1086.24
423.31	1092.56
423.68	1101.69
424.04	1084.37
424.41	1077.58
424.77	1083.90
425.14	1086.94
425.51	1079.92
425.87	1087.41
426.24	1090.69
426.61	1089.75
426.97	1083.20
427.34	1087.65
427.70	1089.05
428.07	1089.75
428.44	1086.94
428.80	1092.33
429.17	1086.01
429.53	1084.84
429.90	1076.65
430.27	1074.54
430.63	1084.14
431.00	1077.35
431.36	1068.45
431.73	1072.20
432.09	1076.41
432.46	1061.67
432.83	1070.56
433.19	1074.77
433.56	1076.65
433.92	1072.20
434.29	1078.99
434.65	1078.99
435.02	1087.18
435.38	1079.46
435.75	1080.16
436.11	1070.09
436.48	1064.24
436.84	1054.18
437.21	1061.20
437.57	1051.84
437.94	1058.16
438.30	1067.05
438.67	1065.41
439.03	1067.52
439.40	1065.18
439.76	1065.88
440.13	1072.20
440.49	1079.46
440.86	1073.14
441.22	1091.86
441.59	1090.46
441.95	1074.54
442.32	1074.31
442.68	1083.43
443.05	1080.39
443.41	1076.18
443.78	1081.33
444.14	1089.29
444.51	1088.12
444.87	1084.14
445.24	1089.99
445.60	1089.29
445.96	1088.58
446.33	1087.88
446.69	1081.09
447.06	1075.01
447.42	1078.05
447.79	1071.03
448.15	1071.73
448.51	1082.73
448.88	1085.07
449.24	1086.01
449.61	1077.35
449.97	1071.26
450.33	1061.20
450.70	1063.54
451.06	1062.60
451.43	1072.20
451.79	1075.71
452.15	1088.35
452.52	1089.99
452.88	1090.92
453.24	1085.77
453.61	1085.31
453.97	1076.65
454.34	1078.75
454.70	1070.56
455.06	1076.88
455.43	1076.65
455.79	1074.07
456.15	1064.24
456.52	1076.88
456.88	1067.05
457.24	1069.86
457.61	1076.65
457.97	1076.65
458.33	1068.92
458.70	1071.03
459.06	1067.75
459.42	1070.09
459.79	1078.05
460.15	1080.86
460.51	1087.18
460.88	1089.52
461.24	1082.26
461.60	1083.90
461.96	1091.63
462.33	1089.29
462.69	1075.24
463.05	1082.50
463.42	1092.33
463.78	1082.26
464.14	1084.14
464.50	1094.67
464.87	1097.95
465.23	1084.60
465.59	1079.92
465.95	1085.07
466.32	1088.35
466.68	1080.16
467.04	1079.92
467.40	1081.09
467.77	1069.86
468.13	1072.67
468.49	1068.69
468.85	1064.01
469.22	1084.37
469.58	1094.90
469.94	1089.75
470.30	1090.22
470.66	1091.63
471.03	1075.24
471.39	1073.37
471.75	1075.48
472.11	1074.07
472.47	1075.48
472.84	1078.52
473.20	1080.63
473.56	1087.18
473.92	1081.80
474.28	1078.75
474.65	1076.18
475.01	1078.28
475.37	1066.82
475.73	1071.50
476.09	1077.58
476.45	1083.90
476.81	1075.48
477.18	1075.01
477.54	1077.35
477.90	1078.05
478.26	1087.41
478.62	1089.29
478.98	1097.95
479.34	1098.18
479.71	1092.80
480.07	1076.18
480.43	1078.05
480.79	1067.05
481.15	1068.92
481.51	1069.39
481.87	1072.67
482.23	1071.73
482.59	1076.41
482.96	1073.84
483.32	1080.63
483.68	1083.90
484.04	1088.35
484.40	1102.63
484.76	1097.95
485.12	1108.24
485.48	1101.22
485.84	1094.20
486.20	1087.18
486.56	1092.56
486.92	1075.94
487.28	1083.43
487.64	1086.71
488.00	1081.56
488.37	1081.09
488.73	1080.86
489.09	1080.63
489.45	1075.24
489.81	1069.16
490.17	1075.94
490.53	1088.58
490.89	1079.22
491.25	1084.14
491.61	1094.67
491.97	1094.67
492.33	1084.37
492.69	1089.52
493.05	1085.07
493.41	1089.05
493.77	1089.29
494.13	1093.50
494.49	1087.88
494.85	1089.75
495.21	1078.99
495.57	1079.69
495.93	1076.18
496.29	1083.20
496.64	1077.58
497.00	1073.84
497.36	1066.58
497.72	1074.77
498.08	1078.52
498.44	1080.63
498.80	1095.14
499.16	1096.07
499.52	1092.09
499.88	1092.33
500.24	1092.56
500.60	1092.56
500.96	1096.31
501.32	1089.99
501.68	1084.84
502.03	1087.41
502.39	1077.35
502.75	1063.77
503.11	1066.11
503.47	1062.60
503.83	1064.94
504.19	1071.26
504.55	1081.56
504.91	1082.26
505.26	1078.99
505.62	1086.48
505.98	1083.67
506.34	1076.88
506.70	1078.99
507.06	1088.82
507.42	1088.35
507.78	1081.33
508.13	1089.05
508.49	1085.77
508.85	1086.48
509.21	1074.07
509.57	1076.18
509.93	1076.65
510.28	1077.11
510.64	1075.71
511.00	1074.07
511.36	1078.75
511.72	1083.43
512.07	1073.37
512.43	1071.50
512.79	1068.92
513.15	1072.67
513.51	1073.84
513.86	1086.01
514.22	1085.07
514.58	1099.82
514.94	1095.37
515.30	1087.65
515.65	1086.24
516.01	1085.31
516.37	1079.22
516.73	1078.99
517.08	1082.03
517.44	1089.99
517.80	1093.73
518.16	1092.80
518.51	1099.58
518.87	1091.86
519.23	1087.41
519.59	1086.48
519.94	1083.20
520.30	1081.56
520.66	1083.43
521.01	1089.05
521.37	1083.67
521.73	1088.58
522.09	1079.92
522.44	1088.35
522.80	1073.60
523.16	1085.54
523.51	1085.31
523.87	1089.05
524.23	1093.97
524.58	1103.33
524.94	1095.37
525.30	1104.50
525.65	1099.82
526.01	1082.73
526.37	1077.11
526.72	1080.86
527.08	1073.84
527.44	1081.09
527.79	1085.77
528.15	1094.20
528.51	1088.58
528.86	1084.84
529.22	1081.80
529.58	1083.67
529.93	1074.77
530.29	1077.82
530.65	1075.01
531.00	1076.65
531.36	1083.90
531.71	1094.20
532.07	1090.69
532.43	1093.50
532.78	1085.31
533.14	1085.31
533.49	1083.90
533.85	1092.09
534.21	1097.71
534.56	1114.33
534.92	1112.92
535.27	1108.48
535.63	1113.63
535.98	1102.86
536.34	1079.22
536.69	1079.22
537.05	1082.73
537.41	1067.99
537.76	1073.37
538.12	1088.58
538.47	1078.99
538.83	1079.92
539.18	1092.56
539.54	1093.26
539.89	1097.24
540.25	1103.56
540.60	1102.63
540.96	1095.60
541.31	1086.71
541.67	1082.03
542.02	1081.09
542.38	1081.09
542.73	1078.52
543.09	1091.86
543.44	1093.03
543.80	1082.26
544.15	1076.65
544.51	1079.69
544.86	1073.14
545.22	1072.43
545.57	1079.92
545.93	1071.26
546.28	1069.39
546.64	1072.43
546.99	1070.56
547.35	1074.07
547.70	1084.14
548.05	1095.60
548.41	1099.58
548.76	1107.31
549.12	1106.37
549.47	1104.97
549.83	1092.80
550.18	1091.16
550.53	1082.26
550.89	1078.05
551.24	1084.84
551.60	1092.80
551.95	1089.29
552.30	1092.56
552.66	1092.56
553.01	1090.22
553.37	1088.58
553.72	1081.56
554.07	1085.54
554.43	1089.29
554.78	1084.14
555.13	1081.33
555.49	1092.09
555.84	1079.46
556.19	1088.58
556.55	1092.56
556.90	1085.77
557.26	1086.48
557.61	1091.39
557.96	1082.26
558.32	1079.69
558.67	1082.26
559.02	1075.94
559.37	1073.60
559.73	1082.26
560.08	1080.86
560.43	1081.09
560.79	1083.67
561.14	1098.18
561.49	1092.33
561.85	1089.29
562.20	1090.46
562.55	1095.84
562.90	1085.77
563.26	1083.67
563.61	1093.26
563.96	1089.05
564.32	1084.60
564.67	1081.09
565.02	1082.50
565.37	1074.07
565.73	1076.65
566.08	1080.39
566.43	1085.77
566.78	1093.50
567.14	1095.84
567.49	1090.92
567.84	1085.07
568.19	1091.39
568.54	1092.56
568.90	1092.33
569.25	1092.09
569.60	1099.58
569.95	1093.73
570.31	1087.41
570.66	1094.20
571.01	1109.41
571.36	1103.56
571.71	1091.39
572.06	1087.65
572.42	1091.16
572.77	1081.56
573.12	1084.60
573.47	1101.92
573.82	1110.82
574.18	1107.54
574.53	1111.52
574.88	1112.22
575.23	1100.75
575.58	1096.07
575.93	1091.86
576.28	1087.41
576.64	1089.52
576.99	1096.54
577.34	1095.84
577.69	1095.84
578.04	1106.84
578.39	1093.26
578.74	1101.46
579.09	1099.58
579.44	1097.71
579.80	1091.63
580.15	1095.84
580.50	1081.33
580.85	1082.03
581.20	1092.56
581.55	1091.16
581.90	1096.07
582.25	1091.63
582.60	1089.05
582.95	1076.65
583.30	1071.50
583.65	1076.18
584.00	1078.28
584.35	1076.18
584.71	1075.01
585.06	1086.48
585.41	1083.90
585.76	1093.73
586.11	1100.05
586.46	1102.86
586.81	1090.46
587.16	1095.14
587.51	1104.97
587.86	1106.61
588.21	1109.18
588.56	1112.22
588.91	1108.24
589.26	1086.71
589.61	1081.56
589.96	1081.33
590.31	1085.54
590.66	1084.37
591.01	1096.54
591.36	1096.07
591.71	1095.14
592.06	1084.14
592.41	1073.84
592.76	1073.60
593.10	1073.37
593.45	1073.37
593.80	1078.99
594.15	1086.24
594.50	1080.16
594.85	1074.07
595.20	1065.41
595.55	1065.88
595.90	1067.28
596.25	1059.33
596.60	1067.99
596.95	1076.88
597.30	1080.16
597.64	1127.20
597.99	1140.31
598.34	1133.76
598.69	1130.01
599.04	1125.33
599.39	1076.65
599.74	1069.62
600.09	1061.67
600.44	1064.48
600.78	1071.50
601.13	1075.71
601.48	1082.03
601.83	1093.26
602.18	1093.26
602.53	1091.63
602.88	1087.18
603.22	1088.12
603.57	1081.33
603.92	1079.22
604.27	1075.48
604.62	1077.35
604.97	1069.16
605.31	1088.35
605.66	1093.50
606.01	1100.29
606.36	1098.41
606.71	1103.56
607.05	1095.84
607.40	1090.46
607.75	1088.82
608.10	1088.35
608.44	1084.14
608.79	1081.80
609.14	1090.22
609.49	1090.22
609.84	1089.29
610.18	1096.54
610.53	1101.46
610.88	1095.60
611.23	1092.33
611.57	1092.09
611.92	1084.14
612.27	1073.60
612.62	1075.71
612.96	1075.48
613.31	1076.88
613.66	1085.54
614.00	1092.09
614.35	1090.22
614.70	1094.67
615.05	1103.33
615.39	1095.60
615.74	1097.48
616.09	1105.67
616.43	1090.92
616.78	1077.11
617.13	1078.99
617.47	1059.33
617.82	1046.22
618.17	1056.75
618.51	1059.33
618.86	1054.18
619.21	1075.48
619.55	1074.07
619.90	1072.67
620.25	1078.99
620.59	1078.28
620.94	1067.52
621.29	1078.52
621.63	1080.39
621.98	1071.73
622.32	1082.26
622.67	1090.69
623.02	1091.39
623.36	1095.37
623.71	1103.33
624.05	1083.67
624.40	1069.16
624.75	1064.71
625.09	1056.28
625.44	1051.37
625.78	1069.16
626.13	1080.39
626.48	1076.65
626.82	1086.71
627.17	1077.82
627.51	1079.22
627.86	1072.20
628.20	1076.41
628.55	1071.50
628.89	1084.37
629.24	1083.90
629.58	1098.18
629.93	1085.54
630.28	1091.63
630.62	1087.65
630.97	1086.94
631.31	1083.43
631.66	1096.07
632.00	1084.84
632.35	1089.52
632.69	1085.54
633.04	1081.56
633.38	1084.84
633.73	1085.54
634.07	1078.99
634.42	1082.50
634.76	1084.37
635.11	1075.71
635.45	1078.75
635.79	1082.26
636.14	1076.18
636.48	1070.09
636.83	1068.92
637.17	1063.77
637.52	1060.26
637.86	1061.43
638.21	1059.56
638.55	1060.26
638.89	1063.77
639.24	1073.60
639.58	1072.20
639.93	1079.92
640.27	1090.22
640.61	1090.22
640.96	1082.03
641.30	1086.48
641.65	1091.39
641.99	1080.86
642.33	1078.99
642.68	1075.24
643.02	1069.86
643.37	1067.52
643.71	1073.14
644.05	1081.33
644.40	1084.60
644.74	1088.35
645.08	1083.43
645.43	1080.86
645.77	1079.22
646.11	1067.99
646.46	1069.39
646.80	1076.65
647.14	1081.80
647.49	1078.05
647.83	1097.01
648.17	1096.07
648.52	1094.67
648.86	1090.46
649.20	1095.84
649.55	1097.71
649.89	1095.37
650.23	1089.52
650.57	1086.48
650.92	1084.14
651.26	1078.28
651.60	1080.16
651.95	1076.41
652.29	1076.65
652.63	1075.24
652.97	1072.67
653.32	1073.37
653.66	1084.14
654.00	1087.65
654.34	1085.77
654.69	1079.69
655.03	1081.56
655.37	1072.43
655.71	1069.39
656.05	1067.99
656.40	1078.75
656.74	1079.92
657.08	1082.97
657.42	1087.65
657.76	1085.07
658.11	1084.14
658.45	1082.26
658.79	1086.01
659.13	1084.14
659.47	1091.39
659.82	1096.31
660.16	1103.09
660.50	1100.05
660.84	1095.14
661.18	1093.26
661.52	1083.90
661.87	1069.86
662.21	1063.54
662.55	1063.07
662.89	1053.01
663.23	1049.50
663.57	1057.92
663.91	1067.75
664.25	1070.33
664.60	1077.58
664.94	1086.48
665.28	1086.94
665.62	1086.01
665.96	1089.75
666.30	1095.84
666.64	1095.60
666.98	1097.48
667.32	1093.73
667.66	1089.05
668.01	1091.39
668.35	1080.39
668.69	1082.26
669.03	1086.94
669.37	1084.60
669.71	1075.24
670.05	1082.26
670.39	1080.63
670.73	1072.90
671.07	1077.11
671.41	1081.80
671.75	1082.97
672.09	1077.11
672.43	1080.39
672.77	1084.37
673.11	1090.22
673.45	1082.50
673.79	1077.82
674.13	1077.58
674.47	1078.28
674.81	1074.31
675.15	1072.90
675.49	1079.22
675.83	1077.58
676.17	1080.39
676.51	1081.09
676.85	1093.97
677.19	1097.95
677.53	1098.88
677.87	1091.16
678.21	1082.03
678.55	1068.69
678.89	1065.88
679.23	1068.92
679.57	1066.58
679.90	1081.09
680.24	1084.84
680.58	1083.20
680.92	1079.92
681.26	1084.60
681.60	1072.67
681.94	1088.82
682.28	1095.14
682.62	1096.54
682.96	1100.99
683.29	1101.92
683.63	1088.58
683.97	1082.50
684.31	1084.14
684.65	1074.07
684.99	1074.54
685.33	1073.60
685.67	1074.31
686.00	1068.45
686.34	1079.69
686.68	1082.50
687.02	1090.22
687.36	1087.65
687.70	1083.90
688.03	1075.24
688.37	1063.77
688.71	1055.35
689.05	1054.88
689.39	1062.14
689.72	1063.77
690.06	1076.18
690.40	1074.77
690.74	1077.58
691.08	1073.14
691.41	1074.31
691.75	1079.92
692.09	1087.18
692.43	1089.05
692.76	1089.52
693.10	1085.77
693.44	1076.88
693.78	1081.33
694.11	1080.86
694.45	1077.82
694.79	1090.46
695.13	1096.54
695.46	1087.88
695.80	1085.31
696.14	1089.05
696.48	1077.58
696.81	1071.03
697.15	1069.86
697.49	1069.16
697.82	1068.92
698.16	1073.60
698.50	1082.97
698.83	1084.14
699.17	1082.03
699.51	1082.50
699.84	1077.58
700.18	1063.07
700.52	1072.20
700.85	1080.39
701.19	1083.20
701.53	1078.75
701.86	1084.37
702.20	1076.18
702.54	1062.84
702.87	1063.07
703.21	1080.16
703.55	1082.50
703.88	1088.58
704.22	1099.58
704.55	1108.71
704.89	1103.56
705.23	1103.09
705.56	1093.26
705.90	1085.54
706.23	1082.97
706.57	1068.69
706.91	1073.60
707.24	1082.03
707.58	1087.41
707.91	1084.37
708.25	1098.88
708.58	1097.48
708.92	1092.09
709.26	1087.18
709.59	1083.67
709.93	1074.07
710.26	1069.86
710.60	1076.65
710.93	1079.92
711.27	1080.63
711.60	1080.16
711.94	1082.97
712.27	1077.11
712.61	1080.39
712.94	1077.35
713.28	1081.80
713.61	1070.33
713.95	1071.97
714.28	1066.58
714.62	1069.39
714.95	1073.37
715.29	1081.80
715.62	1081.56
715.96	1088.35
716.29	1094.90
716.63	1092.09
716.96	1089.29
717.29	1086.01
717.63	1086.48
717.96	1082.26
718.30	1082.26
718.63	1091.16
718.97	1101.92
719.30	1094.20
719.63	1101.92
719.97	1104.50
720.30	1094.20
720.64	1082.97
720.97	1090.69
721.30	1085.31
721.64	1078.75
721.97	1075.48
722.31	1083.67
722.64	1078.75
722.97	1079.22
723.31	1081.56
723.64	1089.52
723.97	1087.65
724.31	1089.05
724.64	1081.56
724.98	1081.09
725.31	1080.86
725.64	1084.60
725.98	1074.07
726.31	1078.52
726.64	1076.18
726.97	1075.01
727.31	1072.90
727.64	1085.77
727.97	1092.09
728.31	1091.16
728.64	1100.99
728.97	1094.20
729.31	1100.29
729.64	1084.37
729.97	1083.90
730.30	1079.46
730.64	1083.20
730.97	1076.65
731.30	1083.67
731.63	1095.14
731.97	1097.95
732.30	1100.05
732.63	1106.14
732.96	1111.29
733.30	1109.88
733.63	1104.97
733.96	1097.24
734.29	1087.18
734.63	1080.16
734.96	1085.07
735.29	1086.94
735.62	1091.16
735.95	1100.05
736.29	1101.46
736.62	1087.18
736.95	1087.18
737.28	1085.07
737.61	1081.33
737.94	1079.46
738.28	1088.35
738.61	1078.52
738.94	1084.14
739.27	1089.52
739.60	1092.80
739.93	1075.48
740.27	1080.16
740.60	1074.54
740.93	1063.77
741.26	1056.28
741.59	1063.07
741.92	1063.31
742.25	1064.71
742.58	1067.05
742.91	1072.20
743.25	1073.84
743.58	1073.60
743.91	1066.58
744.24	1065.18
744.57	1069.16
744.90	1077.11
745.23	1072.67
745.56	1081.56
745.89	1081.09
746.22	1084.60
746.55	1084.37
746.88	1093.97
747.21	1093.97
747.54	1097.71
747.87	1093.26
748.20	1088.35
748.53	1092.56
748.87	1093.26
749.20	1090.22
749.53	1081.80
749.86	1082.73
750.19	1076.41
750.52	1080.16
750.85	1076.18
751.18	1085.54
751.51	1077.82
751.84	1078.99
752.16	1078.52
752.49	1085.07
752.82	1088.35
753.15	1094.90
753.48	1088.12
753.81	1078.52
754.14	1082.50
754.47	1074.54
754.80	1083.90
755.13	1090.22
755.46	1089.05
755.79	1081.33
756.12	1089.99
756.45	1078.28
756.78	1072.90
757.11	1075.01
757.43	1078.28
757.76	1069.16
758.09	1068.22
758.42	1066.35
758.75	1066.82
759.08	1058.62
759.41	1061.90
759.74	1071.50
760.07	1078.99
760.39	1081.09
760.72	1090.46
761.05	1094.67
761.38	1089.05
761.71	1091.63
762.04	1085.77
762.36	1085.77
762.69	1084.84
763.02	1093.03
763.35	1083.43
763.68	1094.20
764.01	1095.60
764.33	1086.24
764.66	1078.52
764.99	1078.99
765.32	1075.94
765.65	1075.94
765.97	1089.99
766.30	1090.92
