SpectraSuite Data File
++++++++++++++++++++++++++++++++++++
Date: Mon Aug 26 10:25:48 PDT 2019
User: corrico
Dark Spectrum Present: No
Reference Spectrum Present: No
Number of Sampled Component Spectra: 1
Spectrometers: USB2+H06089
Integration Time (usec): 10000 (USB2+H06089)
Spectra Averaged: 2 (USB2+H06089)
Boxcar Smoothing: 2 (USB2+H06089)
Correct for Electrical Dark: No (USB2+H06089)
Strobe/Lamp Enabled: No (USB2+H06089)
Correct for Detector Non-linearity: No (USB2+H06089)
Correct for Stray Light: No (USB2+H06089)
Number of Pixels in Processed Spectrum: 2048
>>>>>Begin Processed Spectral Data<<<<<
339.70	1041.54
340.07	1041.54
340.45	1003.15
340.82	978.34
341.19	958.68
341.57	932.00
341.94	918.19
342.31	910.00
342.69	910.94
343.06	898.53
343.43	899.70
343.81	886.83
344.18	886.36
344.55	884.72
344.93	884.02
345.30	886.13
345.67	902.98
346.04	914.21
346.42	926.38
346.79	942.77
347.16	956.58
347.54	963.83
347.91	968.51
348.28	974.37
348.65	982.09
349.03	978.34
349.40	982.09
349.77	1004.79
350.14	1016.49
350.52	1024.69
350.89	1038.26
351.26	1052.54
351.63	1055.35
352.01	1054.65
352.38	1063.31
352.75	1070.33
353.12	1075.48
353.50	1082.97
353.87	1075.48
354.24	1064.24
354.61	1066.11
354.98	1059.33
355.36	1054.18
355.73	1062.14
356.10	1068.22
356.47	1068.69
356.84	1075.01
357.22	1073.37
357.59	1080.39
357.96	1092.09
358.33	1093.50
358.70	1086.48
359.08	1083.67
359.45	1088.35
359.82	1080.16
360.19	1076.18
360.56	1086.71
360.94	1093.97
361.31	1076.88
361.68	1080.16
362.05	1073.60
362.42	1073.14
362.79	1067.05
363.16	1069.16
363.54	1053.71
363.91	1060.73
364.28	1053.48
364.65	1049.73
365.02	1045.05
365.39	1049.96
365.76	1044.35
366.14	1048.33
366.51	1049.96
366.88	1060.73
367.25	1065.65
367.62	1069.39
367.99	1072.20
368.36	1071.73
368.73	1062.14
369.10	1053.24
369.48	1061.20
369.85	1067.28
370.22	1071.97
370.59	1080.39
370.96	1093.03
371.33	1084.60
371.70	1080.86
372.07	1081.09
372.44	1086.24
372.81	1082.73
373.18	1079.46
373.55	1074.77
373.93	1068.92
374.30	1064.94
374.67	1058.39
375.04	1071.26
375.41	1074.07
375.78	1078.99
376.15	1078.75
376.52	1089.75
376.89	1087.88
377.26	1089.05
377.63	1085.54
378.00	1079.46
378.37	1085.54
378.74	1072.67
379.11	1069.39
379.48	1067.75
379.85	1070.33
380.22	1053.48
380.59	1054.41
380.96	1053.48
381.33	1065.88
381.70	1070.80
382.07	1084.14
382.44	1081.09
382.81	1075.01
383.18	1071.73
383.55	1061.90
383.92	1056.05
384.29	1064.01
384.66	1073.37
385.03	1068.69
385.40	1064.48
385.77	1058.86
386.14	1057.92
386.51	1053.01
386.88	1052.30
387.25	1069.39
387.62	1074.77
387.99	1078.05
388.36	1083.20
388.73	1084.84
389.10	1077.82
389.46	1078.05
389.83	1082.03
390.20	1078.75
390.57	1077.58
390.94	1081.09
391.31	1087.18
391.68	1074.07
392.05	1078.28
392.42	1068.45
392.79	1071.73
393.16	1067.28
393.53	1074.77
393.89	1066.58
394.26	1074.31
394.63	1071.97
395.00	1073.60
395.37	1078.52
395.74	1089.05
396.11	1090.46
396.48	1093.26
396.84	1084.37
397.21	1073.14
397.58	1055.58
397.95	1051.84
398.32	1048.79
398.69	1051.37
399.06	1066.11
399.42	1065.88
399.79	1078.52
400.16	1070.33
400.53	1073.37
400.90	1067.05
401.27	1073.84
401.64	1068.45
402.00	1079.69
402.37	1078.99
402.74	1076.65
403.11	1073.84
403.48	1060.50
403.84	1052.54
404.21	1049.73
404.58	1053.48
404.95	1070.33
405.32	1082.97
405.68	1080.39
406.05	1083.90
406.42	1075.94
406.79	1069.39
407.16	1073.84
407.52	1079.92
407.89	1076.18
408.26	1071.97
408.63	1066.82
408.99	1064.48
409.36	1069.39
409.73	1079.46
410.10	1100.99
410.47	1111.05
410.83	1101.22
411.20	1094.43
411.57	1087.65
411.94	1073.14
412.30	1058.16
412.67	1063.54
413.04	1064.24
413.40	1056.75
413.77	1056.75
414.14	1057.92
414.51	1053.71
414.87	1052.54
415.24	1067.28
415.61	1064.94
415.97	1064.48
416.34	1067.99
416.71	1072.90
417.08	1073.37
417.44	1088.58
417.81	1099.35
418.18	1104.73
418.54	1095.84
418.91	1083.90
419.28	1071.50
419.64	1062.14
420.01	1051.84
420.38	1056.28
420.74	1060.26
421.11	1066.35
421.48	1076.65
421.84	1076.65
422.21	1079.92
422.58	1086.94
422.94	1081.33
423.31	1086.48
423.68	1096.31
424.04	1096.07
424.41	1086.01
424.77	1094.43
425.14	1077.82
425.51	1072.20
425.87	1069.39
426.24	1072.20
426.61	1065.65
426.97	1070.09
427.34	1074.07
427.70	1069.16
428.07	1076.65
428.44	1072.20
428.80	1069.86
429.17	1066.35
429.53	1072.67
429.90	1064.24
430.27	1069.86
430.63	1068.45
431.00	1075.48
431.36	1066.82
431.73	1073.84
432.09	1079.69
432.46	1082.97
432.83	1078.75
433.19	1083.43
433.56	1074.77
433.92	1067.75
434.29	1067.05
434.65	1075.48
435.02	1088.82
435.38	1097.24
435.75	1093.26
436.11	1100.99
436.48	1093.73
436.84	1087.88
437.21	1088.35
437.57	1087.88
437.94	1090.92
438.30	1089.99
438.67	1090.92
439.03	1086.24
439.40	1096.54
439.76	1093.26
440.13	1091.39
440.49	1092.09
440.86	1094.67
441.22	1080.63
441.59	1092.80
441.95	1094.90
442.32	1088.58
442.68	1080.39
443.05	1082.03
443.41	1064.48
443.78	1061.90
444.14	1064.24
444.51	1066.82
444.87	1064.71
445.24	1068.45
445.60	1067.75
445.96	1073.14
446.33	1080.63
446.69	1084.37
447.06	1087.18
447.42	1088.82
447.79	1082.26
448.15	1078.99
448.51	1078.05
448.88	1074.54
449.24	1077.11
449.61	1071.73
449.97	1068.92
450.33	1077.11
450.70	1077.11
451.06	1072.67
451.43	1076.18
451.79	1082.50
452.15	1076.18
452.52	1075.48
452.88	1080.63
453.24	1078.05
453.61	1075.94
453.97	1094.67
454.34	1091.63
454.70	1089.05
455.06	1095.60
455.43	1096.54
455.79	1088.82
456.15	1085.54
456.52	1082.03
456.88	1076.18
457.24	1078.99
457.61	1075.71
457.97	1072.43
458.33	1074.31
458.70	1068.92
459.06	1061.43
459.42	1057.69
459.79	1072.20
460.15	1071.97
460.51	1078.99
460.88	1086.71
461.24	1086.48
461.60	1082.73
461.96	1083.43
462.33	1084.84
462.69	1082.03
463.05	1080.63
463.42	1081.56
463.78	1085.07
464.14	1086.01
464.50	1089.05
464.87	1091.86
465.23	1086.94
465.59	1091.86
465.95	1091.86
466.32	1081.80
466.68	1073.14
467.04	1077.58
467.40	1075.48
467.77	1073.84
468.13	1084.60
468.49	1087.65
468.85	1090.69
469.22	1079.22
469.58	1071.50
469.94	1066.35
470.30	1066.58
470.66	1063.31
471.03	1073.84
471.39	1082.26
471.75	1081.56
472.11	1092.09
472.47	1089.75
472.84	1085.31
473.20	1084.37
473.56	1088.35
473.92	1081.56
474.28	1076.65
474.65	1074.77
475.01	1083.43
475.37	1085.07
475.73	1083.67
476.09	1087.41
476.45	1097.95
476.81	1089.99
477.18	1090.46
477.54	1101.92
477.90	1106.14
478.26	1098.88
478.62	1104.50
478.98	1092.56
479.34	1079.92
479.71	1066.82
480.07	1067.52
480.43	1060.73
480.79	1064.94
481.15	1071.97
481.51	1075.24
481.87	1073.60
482.23	1070.09
482.59	1077.35
482.96	1070.80
483.32	1073.14
483.68	1071.03
484.04	1075.01
484.40	1066.58
484.76	1069.39
485.12	1078.75
485.48	1082.50
485.84	1088.12
486.20	1091.39
486.56	1094.90
486.92	1082.03
487.28	1075.94
487.64	1079.46
488.00	1082.97
488.37	1084.84
488.73	1095.14
489.09	1107.31
489.45	1103.56
489.81	1095.37
490.17	1087.88
490.53	1083.67
490.89	1076.65
491.25	1077.11
491.61	1089.99
491.97	1095.60
492.33	1100.75
492.69	1098.65
493.05	1099.58
493.41	1092.56
493.77	1094.20
494.13	1085.07
494.49	1075.24
494.85	1073.84
495.21	1078.75
495.57	1065.41
495.93	1073.37
496.29	1085.31
496.64	1085.07
497.00	1076.65
497.36	1083.43
497.72	1089.52
498.08	1077.35
498.44	1071.03
498.80	1075.94
499.16	1075.24
499.52	1065.65
499.88	1073.37
500.24	1075.01
500.60	1061.90
500.96	1064.71
501.32	1066.11
501.68	1075.71
502.03	1075.24
502.39	1078.28
502.75	1080.63
503.11	1075.94
503.47	1071.97
503.83	1073.37
504.19	1087.41
504.55	1078.99
504.91	1080.86
505.26	1080.63
505.62	1083.20
505.98	1080.63
506.34	1086.71
506.70	1093.03
507.06	1086.94
507.42	1084.37
507.78	1077.58
508.13	1077.82
508.49	1074.54
508.85	1088.35
509.21	1090.22
509.57	1084.37
509.93	1086.94
510.28	1084.60
510.64	1066.35
511.00	1068.92
511.36	1075.01
511.72	1071.50
512.07	1075.48
512.43	1084.14
512.79	1077.82
513.15	1079.69
513.51	1078.52
513.86	1079.22
514.22	1079.46
514.58	1083.90
514.94	1081.33
515.30	1087.18
515.65	1082.50
516.01	1082.97
516.37	1082.26
516.73	1083.20
517.08	1086.01
517.44	1088.58
517.80	1081.09
518.16	1075.48
518.51	1081.33
518.87	1068.69
519.23	1075.94
519.59	1080.16
519.94	1085.54
520.30	1095.14
520.66	1101.22
521.01	1088.58
521.37	1091.39
521.73	1086.24
522.09	1075.94
522.44	1083.43
522.80	1085.54
523.16	1077.35
523.51	1071.03
523.87	1070.33
524.23	1052.54
524.58	1054.65
524.94	1069.86
525.30	1084.84
525.65	1085.07
526.01	1092.33
526.37	1097.48
526.72	1093.97
527.08	1089.99
527.44	1090.69
527.79	1097.01
528.15	1084.84
528.51	1084.60
528.86	1085.31
529.22	1078.05
529.58	1068.69
529.93	1077.58
530.29	1074.31
530.65	1067.52
531.00	1066.11
531.36	1069.86
531.71	1067.52
532.07	1064.48
532.43	1072.90
532.78	1071.73
533.14	1071.50
533.49	1076.18
533.85	1074.54
534.21	1077.11
534.56	1078.75
534.92	1088.58
535.27	1086.71
535.63	1104.03
535.98	1104.73
536.34	1114.56
536.69	1102.86
537.05	1095.84
537.41	1079.46
537.76	1076.41
538.12	1079.92
538.47	1081.09
538.83	1084.14
539.18	1093.26
539.54	1087.41
539.89	1085.77
540.25	1090.92
540.60	1098.41
540.96	1092.80
541.31	1103.33
541.67	1099.12
542.02	1092.56
542.38	1089.52
542.73	1095.14
543.09	1089.75
543.44	1091.39
543.80	1102.63
544.15	1105.20
544.51	1088.12
544.86	1089.52
545.22	1082.03
545.57	1064.01
545.93	1052.07
546.28	1070.09
546.64	1069.16
546.99	1073.14
547.35	1088.35
547.70	1091.86
548.05	1097.01
548.41	1090.69
548.76	1090.92
549.12	1078.99
549.47	1086.71
549.83	1081.56
550.18	1076.41
550.53	1080.16
550.89	1078.05
551.24	1068.45
551.60	1059.79
551.95	1078.52
552.30	1064.24
552.66	1069.62
553.01	1059.79
553.37	1054.41
553.72	1038.73
554.07	1056.28
554.43	1053.48
554.78	1071.03
555.13	1073.60
555.49	1083.90
555.84	1079.22
556.19	1090.46
556.55	1087.18
556.90	1094.90
557.26	1086.94
557.61	1082.03
557.96	1077.35
558.32	1075.94
558.67	1068.45
559.02	1068.22
559.37	1068.69
559.73	1072.67
560.08	1072.90
560.43	1081.33
560.79	1081.56
561.14	1084.60
561.49	1077.82
561.85	1086.48
562.20	1080.63
562.55	1082.26
562.90	1075.01
563.26	1083.43
563.61	1069.16
563.96	1079.69
564.32	1075.71
564.67	1079.69
565.02	1082.03
565.37	1087.18
565.73	1078.05
566.08	1092.56
566.43	1098.18
566.78	1091.39
567.14	1089.05
567.49	1097.48
567.84	1081.09
568.19	1084.37
568.54	1087.18
568.90	1091.16
569.25	1079.92
569.60	1082.26
569.95	1074.31
570.31	1067.05
570.66	1065.18
571.01	1073.60
571.36	1083.67
571.71	1078.75
572.06	1079.22
572.42	1085.54
572.77	1080.63
573.12	1079.92
573.47	1083.43
573.82	1084.37
574.18	1074.31
574.53	1072.90
574.88	1076.18
575.23	1078.75
575.58	1087.65
575.93	1101.22
576.28	1104.26
576.64	1101.92
576.99	1100.52
577.34	1085.31
577.69	1074.07
578.04	1075.24
578.39	1071.26
578.74	1071.97
579.09	1076.65
579.44	1081.56
579.80	1076.41
580.15	1073.60
580.50	1071.26
580.85	1083.20
581.20	1082.97
581.55	1083.67
581.90	1090.92
582.25	1096.78
582.60	1082.03
582.95	1084.37
583.30	1084.37
583.65	1080.39
584.00	1082.73
584.35	1095.14
584.71	1091.86
585.06	1093.03
585.41	1093.26
585.76	1083.20
586.11	1070.56
586.46	1072.43
586.81	1075.71
587.16	1079.46
587.51	1088.82
587.86	1094.67
588.21	1080.39
588.56	1082.73
588.91	1076.88
589.26	1071.03
589.61	1059.33
589.96	1078.28
590.31	1086.71
590.66	1094.43
591.01	1097.24
591.36	1107.31
591.71	1097.95
592.06	1082.73
592.41	1078.99
592.76	1073.14
593.10	1081.56
593.45	1086.48
593.80	1082.73
594.15	1080.86
594.50	1086.71
594.85	1085.07
595.20	1082.03
595.55	1090.69
595.90	1087.41
596.25	1077.58
596.60	1074.77
596.95	1067.28
597.30	1061.43
597.64	1123.46
597.99	1138.67
598.34	1136.56
598.69	1141.95
599.04	1146.39
599.39	1084.37
599.74	1077.58
600.09	1067.52
600.44	1066.11
600.78	1067.52
601.13	1071.50
601.48	1075.24
601.83	1088.58
602.18	1086.48
602.53	1086.48
602.88	1094.20
603.22	1093.26
603.57	1085.54
603.92	1087.18
604.27	1090.69
604.62	1081.09
604.97	1076.41
605.31	1079.69
605.66	1082.50
606.01	1068.22
606.36	1064.48
606.71	1058.39
607.05	1062.37
607.40	1074.07
607.75	1089.52
608.10	1087.65
608.44	1099.58
608.79	1094.20
609.14	1088.58
609.49	1084.60
609.84	1095.84
610.18	1089.99
610.53	1097.01
610.88	1100.52
611.23	1100.99
611.57	1095.60
611.92	1099.12
612.27	1094.67
612.62	1092.56
612.96	1091.16
613.31	1086.71
613.66	1083.43
614.00	1078.28
614.35	1078.99
614.70	1076.41
615.05	1073.14
615.39	1069.62
615.74	1078.52
616.09	1073.37
616.43	1074.07
616.78	1082.97
617.13	1088.82
617.47	1085.77
617.82	1092.09
618.17	1086.01
618.51	1081.09
618.86	1074.54
619.21	1077.82
619.55	1075.24
619.90	1082.97
620.25	1086.24
620.59	1089.05
620.94	1090.46
621.29	1091.63
621.63	1083.20
621.98	1088.58
622.32	1099.12
622.67	1100.05
623.02	1099.12
623.36	1108.95
623.71	1100.05
624.05	1099.82
624.40	1096.54
624.75	1087.65
625.09	1089.29
625.44	1094.43
625.78	1092.09
626.13	1084.84
626.48	1095.60
626.82	1082.73
627.17	1078.28
627.51	1071.26
627.86	1083.67
628.20	1074.07
628.55	1079.69
628.89	1076.41
629.24	1083.67
629.58	1077.11
629.93	1071.26
630.28	1062.60
630.62	1074.31
630.97	1070.56
631.31	1068.22
631.66	1068.69
632.00	1086.94
632.35	1085.77
632.69	1095.14
633.04	1092.33
633.38	1097.48
633.73	1082.26
634.07	1076.65
634.42	1059.33
634.76	1064.94
635.11	1075.48
635.45	1084.14
635.79	1084.14
636.14	1093.97
636.48	1100.75
636.83	1100.52
637.17	1102.39
637.52	1105.90
637.86	1111.05
638.21	1111.52
638.55	1101.22
638.89	1103.09
639.24	1102.86
639.58	1097.24
639.93	1099.35
640.27	1095.60
640.61	1092.09
640.96	1081.56
641.30	1082.03
641.65	1072.67
641.99	1080.63
642.33	1084.60
642.68	1093.26
643.02	1095.37
643.37	1096.31
643.71	1093.50
644.05	1093.73
644.40	1097.24
644.74	1095.60
645.08	1095.60
645.43	1101.22
645.77	1087.18
646.11	1088.12
646.46	1083.67
646.80	1083.20
647.14	1074.77
647.49	1085.07
647.83	1081.56
648.17	1087.18
648.52	1086.94
648.86	1092.56
649.20	1097.48
649.55	1097.24
649.89	1106.61
650.23	1107.07
650.57	1098.88
650.92	1088.12
651.26	1083.43
651.60	1073.60
651.95	1071.73
652.29	1069.86
652.63	1069.62
652.97	1067.52
653.32	1057.22
653.66	1057.22
654.00	1064.94
654.34	1071.03
654.69	1085.07
655.03	1089.75
655.37	1090.69
655.71	1089.29
656.05	1079.22
656.40	1066.82
656.74	1065.88
657.08	1071.03
657.42	1073.37
657.76	1081.09
658.11	1082.97
658.45	1083.43
658.79	1067.05
659.13	1064.01
659.47	1063.54
659.82	1070.09
660.16	1070.80
660.50	1075.71
660.84	1082.03
661.18	1085.07
661.52	1078.05
661.87	1073.84
662.21	1071.26
662.55	1076.18
662.89	1081.33
663.23	1094.20
663.57	1104.97
663.91	1111.52
664.25	1103.56
664.60	1098.65
664.94	1094.43
665.28	1085.77
665.62	1085.54
665.96	1087.18
666.30	1091.86
666.64	1082.97
666.98	1082.03
667.32	1086.01
667.66	1088.58
668.01	1079.92
668.35	1090.92
668.69	1086.71
669.03	1086.01
669.37	1080.86
669.71	1083.43
670.05	1082.03
670.39	1086.01
670.73	1084.84
671.07	1085.31
671.41	1088.12
671.75	1077.58
672.09	1084.14
672.43	1084.14
672.77	1083.67
673.11	1077.58
673.45	1079.46
673.79	1078.28
674.13	1077.35
674.47	1078.52
674.81	1083.43
675.15	1082.26
675.49	1077.82
675.83	1074.07
676.17	1065.41
676.51	1065.41
676.85	1056.99
677.19	1052.07
677.53	1058.86
677.87	1071.03
678.21	1073.14
678.55	1095.14
678.89	1108.48
679.23	1098.18
679.57	1093.26
679.90	1097.24
680.24	1075.48
680.58	1069.86
680.92	1079.69
681.26	1079.69
681.60	1069.39
681.94	1083.67
682.28	1086.71
682.62	1082.50
682.96	1067.99
683.29	1071.26
683.63	1077.35
683.97	1078.52
684.31	1076.65
684.65	1088.58
684.99	1089.75
685.33	1077.58
685.67	1067.99
686.00	1071.97
686.34	1076.65
686.68	1071.03
687.02	1067.99
687.36	1064.24
687.70	1070.09
688.03	1068.92
688.37	1070.80
688.71	1082.50
689.05	1088.82
689.39	1082.73
689.72	1088.58
690.06	1093.03
690.40	1093.26
690.74	1098.65
691.08	1105.90
691.41	1096.78
691.75	1090.92
692.09	1079.69
692.43	1078.52
692.76	1066.11
693.10	1064.71
693.44	1063.77
693.78	1070.80
694.11	1071.03
694.45	1070.09
694.79	1074.77
695.13	1073.60
695.46	1066.82
695.80	1058.62
696.14	1064.24
696.48	1071.03
696.81	1077.82
697.15	1087.18
697.49	1091.16
697.82	1091.86
698.16	1078.99
698.50	1075.01
698.83	1065.18
699.17	1069.16
699.51	1070.33
699.84	1074.07
700.18	1070.56
700.52	1067.52
700.85	1066.35
701.19	1068.22
701.53	1076.65
701.86	1084.60
702.20	1091.39
702.54	1087.88
702.87	1088.58
703.21	1078.99
703.55	1083.43
703.88	1091.86
704.22	1093.50
704.55	1079.69
704.89	1081.09
705.23	1068.69
705.56	1060.03
705.90	1066.82
706.23	1075.94
706.57	1076.88
706.91	1089.05
707.24	1092.56
707.58	1088.58
707.91	1086.71
708.25	1105.44
708.58	1097.48
708.92	1087.41
709.26	1087.65
709.59	1103.33
709.93	1089.99
710.26	1091.86
710.60	1091.63
710.93	1092.33
711.27	1075.01
711.60	1069.86
711.94	1072.67
712.27	1081.09
712.61	1075.48
712.94	1075.71
713.28	1081.09
713.61	1080.63
713.95	1088.12
714.28	1087.41
714.62	1088.82
714.95	1080.16
715.29	1076.18
715.62	1068.92
715.96	1072.67
716.29	1076.41
716.63	1076.88
716.96	1077.35
717.29	1080.86
717.63	1080.86
717.96	1080.16
718.30	1097.01
718.63	1100.99
718.97	1095.14
719.30	1095.84
719.63	1105.67
719.97	1096.54
720.30	1104.26
720.64	1105.90
720.97	1110.12
721.30	1101.92
721.64	1100.52
721.97	1092.09
722.31	1082.97
722.64	1064.01
722.97	1061.20
723.31	1052.30
723.64	1049.26
723.97	1062.14
724.31	1075.48
724.64	1074.77
724.98	1073.60
725.31	1065.41
725.64	1064.01
725.98	1063.77
726.31	1062.84
726.64	1067.99
726.97	1083.20
727.31	1087.41
727.64	1081.56
727.97	1078.75
728.31	1082.50
728.64	1078.99
728.97	1076.18
729.31	1087.65
729.64	1089.29
729.97	1087.18
730.30	1084.84
730.64	1084.14
730.97	1079.92
731.30	1084.84
731.63	1085.31
731.97	1082.73
732.30	1078.99
732.63	1089.52
732.96	1091.39
733.30	1081.09
733.63	1081.09
733.96	1084.60
734.29	1070.56
734.63	1069.86
734.96	1084.14
735.29	1092.56
735.62	1089.05
735.95	1097.48
736.29	1084.60
736.62	1082.73
736.95	1071.26
737.28	1077.35
737.61	1076.41
737.94	1081.80
738.28	1090.69
738.61	1088.58
738.94	1082.73
739.27	1078.99
739.60	1080.63
739.93	1072.43
740.27	1082.26
740.60	1083.90
740.93	1082.50
741.26	1082.26
741.59	1094.20
741.92	1088.12
742.25	1088.82
742.58	1088.35
742.91	1087.41
743.25	1072.90
743.58	1077.58
743.91	1077.82
744.24	1072.90
744.57	1075.01
744.90	1080.16
745.23	1080.86
745.56	1077.82
745.89	1072.43
746.22	1079.92
746.55	1074.77
746.88	1069.16
747.21	1067.99
747.54	1069.62
747.87	1056.28
748.20	1054.41
748.53	1057.92
748.87	1066.58
749.20	1074.07
749.53	1085.77
749.86	1082.50
750.19	1077.11
750.52	1068.45
750.85	1076.88
751.18	1076.41
751.51	1076.65
751.84	1079.22
752.16	1077.58
752.49	1079.22
752.82	1068.92
753.15	1079.46
753.48	1082.03
753.81	1091.39
754.14	1083.20
754.47	1090.46
754.80	1082.73
755.13	1090.22
755.46	1086.24
755.79	1090.46
756.12	1097.24
756.45	1095.84
756.78	1080.63
757.11	1090.92
757.43	1088.35
757.76	1079.22
758.09	1083.43
758.42	1093.73
758.75	1082.26
759.08	1087.18
759.41	1088.82
759.74	1095.84
760.07	1099.35
760.39	1099.58
760.72	1091.16
761.05	1086.48
761.38	1077.35
761.71	1071.97
762.04	1066.58
762.36	1066.58
762.69	1082.26
763.02	1087.88
763.35	1085.77
763.68	1083.67
764.01	1091.16
764.33	1081.33
764.66	1080.63
764.99	1078.75
765.32	1089.52
765.65	1085.07
765.97	1091.63
766.30	1086.48
