SpectraSuite Data File
++++++++++++++++++++++++++++++++++++
Date: Mon Aug 26 10:25:45 PDT 2019
User: corrico
Dark Spectrum Present: No
Reference Spectrum Present: No
Number of Sampled Component Spectra: 1
Spectrometers: USB2+H06089
Integration Time (usec): 10000 (USB2+H06089)
Spectra Averaged: 2 (USB2+H06089)
Boxcar Smoothing: 2 (USB2+H06089)
Correct for Electrical Dark: No (USB2+H06089)
Strobe/Lamp Enabled: No (USB2+H06089)
Correct for Detector Non-linearity: No (USB2+H06089)
Correct for Stray Light: No (USB2+H06089)
Number of Pixels in Processed Spectrum: 2048
>>>>>Begin Processed Spectral Data<<<<<
339.70	995.90
340.07	995.90
340.45	975.07
340.82	965.94
341.19	946.98
341.57	929.89
341.94	923.58
342.31	918.89
342.69	902.28
343.06	904.38
343.43	909.30
343.81	906.26
344.18	901.11
344.55	912.81
344.93	917.26
345.30	913.98
345.67	926.15
346.04	946.75
346.42	949.56
346.79	956.81
347.16	969.92
347.54	971.79
347.91	977.41
348.28	983.02
348.65	988.88
349.03	994.49
349.40	1005.96
349.77	1008.54
350.14	1030.30
350.52	1037.79
350.89	1038.96
351.26	1041.30
351.63	1052.07
352.01	1045.52
352.38	1049.26
352.75	1055.58
353.12	1054.88
353.50	1061.43
353.87	1064.71
354.24	1071.97
354.61	1074.07
354.98	1080.39
355.36	1078.52
355.73	1083.20
356.10	1079.69
356.47	1078.52
356.84	1079.46
357.22	1073.14
357.59	1075.94
357.96	1079.46
358.33	1086.48
358.70	1086.48
359.08	1089.05
359.45	1082.26
359.82	1072.43
360.19	1074.54
360.56	1072.67
360.94	1059.56
361.31	1059.79
361.68	1069.16
362.05	1066.82
362.42	1063.54
362.79	1073.84
363.16	1079.69
363.54	1083.20
363.91	1076.41
364.28	1074.07
364.65	1065.65
365.02	1058.86
365.39	1056.28
365.76	1059.09
366.14	1064.01
366.51	1075.48
366.88	1078.52
367.25	1072.90
367.62	1073.84
367.99	1079.69
368.36	1075.01
368.73	1068.92
369.10	1062.14
369.48	1055.11
369.85	1048.33
370.22	1051.84
370.59	1057.22
370.96	1063.54
371.33	1080.16
371.70	1081.80
372.07	1071.73
372.44	1080.63
372.81	1080.86
373.18	1073.37
373.55	1074.77
373.93	1085.07
374.30	1072.90
374.67	1077.11
375.04	1075.24
375.41	1080.39
375.78	1072.43
376.15	1076.18
376.52	1068.69
376.89	1075.01
377.26	1070.56
377.63	1071.73
378.00	1060.50
378.37	1069.16
378.74	1057.69
379.11	1049.50
379.48	1056.99
379.85	1071.26
380.22	1077.82
380.59	1081.33
380.96	1089.52
381.33	1079.69
381.70	1069.86
382.07	1050.20
382.44	1048.33
382.81	1046.69
383.18	1044.11
383.55	1044.11
383.92	1042.01
384.29	1038.96
384.66	1031.24
385.03	1036.62
385.40	1039.90
385.77	1051.60
386.14	1055.82
386.51	1071.73
386.88	1081.33
387.25	1088.35
387.62	1092.56
387.99	1093.03
388.36	1084.14
388.73	1079.46
389.10	1077.11
389.46	1066.35
389.83	1068.22
390.20	1064.48
390.57	1061.67
390.94	1061.43
391.31	1067.05
391.68	1065.18
392.05	1079.69
392.42	1079.22
392.79	1081.56
393.16	1078.28
393.53	1083.67
393.89	1077.82
394.26	1075.48
394.63	1079.92
395.00	1086.24
395.37	1081.80
395.74	1083.43
396.11	1086.48
396.48	1073.84
396.84	1064.94
397.21	1065.65
397.58	1059.79
397.95	1058.62
398.32	1072.43
398.69	1078.52
399.06	1079.69
399.42	1079.22
399.79	1082.26
400.16	1078.05
400.53	1082.03
400.90	1083.90
401.27	1088.35
401.64	1082.73
402.00	1076.18
402.37	1072.20
402.74	1068.69
403.11	1074.31
403.48	1073.84
403.84	1082.97
404.21	1091.86
404.58	1096.54
404.95	1087.65
405.32	1096.07
405.68	1086.71
406.05	1087.18
406.42	1081.80
406.79	1084.84
407.16	1072.67
407.52	1076.41
407.89	1071.03
408.26	1073.14
408.63	1075.01
408.99	1083.20
409.36	1080.16
409.73	1081.09
410.10	1089.52
410.47	1078.28
410.83	1078.75
411.20	1088.12
411.57	1074.31
411.94	1058.16
412.30	1057.22
412.67	1047.86
413.04	1030.30
413.40	1037.79
413.77	1049.50
414.14	1066.11
414.51	1074.77
414.87	1080.39
415.24	1092.33
415.61	1097.24
415.97	1081.56
416.34	1072.90
416.71	1076.18
417.08	1063.07
417.44	1053.24
417.81	1058.62
418.18	1070.56
418.54	1067.52
418.91	1066.35
419.28	1068.45
419.64	1072.43
420.01	1066.11
420.38	1070.56
420.74	1069.39
421.11	1068.69
421.48	1063.54
421.84	1065.18
422.21	1058.62
422.58	1071.26
422.94	1075.24
423.31	1070.56
423.68	1079.92
424.04	1085.07
424.41	1077.82
424.77	1078.52
425.14	1084.84
425.51	1080.63
425.87	1084.14
426.24	1070.09
426.61	1069.16
426.97	1069.16
427.34	1064.01
427.70	1049.96
428.07	1062.14
428.44	1055.11
428.80	1055.82
429.17	1058.62
429.53	1082.50
429.90	1071.97
430.27	1075.48
430.63	1078.75
431.00	1085.77
431.36	1082.73
431.73	1105.44
432.09	1105.90
432.46	1111.05
432.83	1105.44
433.19	1094.43
433.56	1079.22
433.92	1079.22
434.29	1076.18
434.65	1072.20
435.02	1069.16
435.38	1078.28
435.75	1081.80
436.11	1081.80
436.48	1080.63
436.84	1085.07
437.21	1081.80
437.57	1085.54
437.94	1081.80
438.30	1094.20
438.67	1090.92
439.03	1089.75
439.40	1081.33
439.76	1082.03
440.13	1078.52
440.49	1088.12
440.86	1082.73
441.22	1081.33
441.59	1086.01
441.95	1079.92
442.32	1066.58
442.68	1067.52
443.05	1053.94
443.41	1050.67
443.78	1048.79
444.14	1056.99
444.51	1068.92
444.87	1086.01
445.24	1086.01
445.60	1088.12
445.96	1090.92
446.33	1086.71
446.69	1080.63
447.06	1080.16
447.42	1082.03
447.79	1083.67
448.15	1086.71
448.51	1096.78
448.88	1096.31
449.24	1101.22
449.61	1098.18
449.97	1092.33
450.33	1081.33
450.70	1079.46
451.06	1067.52
451.43	1067.05
451.79	1066.82
452.15	1075.94
452.52	1074.07
452.88	1073.37
453.24	1069.16
453.61	1067.28
453.97	1061.67
454.34	1062.14
454.70	1071.50
455.06	1069.39
455.43	1073.14
455.79	1065.41
456.15	1064.24
456.52	1048.79
456.88	1047.39
457.24	1037.33
457.61	1045.28
457.97	1037.33
458.33	1047.39
458.70	1049.26
459.06	1064.01
459.42	1072.90
459.79	1085.77
460.15	1083.67
460.51	1094.20
460.88	1087.41
461.24	1077.11
461.60	1073.37
461.96	1073.84
462.33	1067.99
462.69	1067.52
463.05	1064.71
463.42	1065.18
463.78	1064.94
464.14	1063.77
464.50	1066.11
464.87	1076.88
465.23	1081.33
465.59	1084.60
465.95	1081.56
466.32	1086.94
466.68	1077.35
467.04	1075.71
467.40	1065.65
467.77	1064.24
468.13	1047.16
468.49	1053.24
468.85	1053.24
469.22	1063.77
469.58	1066.11
469.94	1077.35
470.30	1072.90
470.66	1071.97
471.03	1075.48
471.39	1074.07
471.75	1067.05
472.11	1070.33
472.47	1065.88
472.84	1068.22
473.20	1071.03
473.56	1081.56
473.92	1074.07
474.28	1073.60
474.65	1069.86
475.01	1069.86
475.37	1062.37
475.73	1074.77
476.09	1084.37
476.45	1082.03
476.81	1087.65
477.18	1088.58
477.54	1074.54
477.90	1068.92
478.26	1063.07
478.62	1064.94
478.98	1069.39
479.34	1078.28
479.71	1083.43
480.07	1096.54
480.43	1094.90
480.79	1085.77
481.15	1089.75
481.51	1085.31
481.87	1083.67
482.23	1078.28
482.59	1100.99
482.96	1085.77
483.32	1085.31
483.68	1082.73
484.04	1077.82
484.40	1070.09
484.76	1093.26
485.12	1099.82
485.48	1101.92
485.84	1110.58
486.20	1093.73
486.56	1086.01
486.92	1088.58
487.28	1089.52
487.64	1077.82
488.00	1085.07
488.37	1079.69
488.73	1068.22
489.09	1063.77
489.45	1063.77
489.81	1067.05
490.17	1075.24
490.53	1079.22
490.89	1076.41
491.25	1078.99
491.61	1084.60
491.97	1082.03
492.33	1074.54
492.69	1068.22
493.05	1084.60
493.41	1080.39
493.77	1077.58
494.13	1080.16
494.49	1089.99
494.85	1081.56
495.21	1079.69
495.57	1083.20
495.93	1092.33
496.29	1085.54
496.64	1086.24
497.00	1084.60
497.36	1082.50
497.72	1077.35
498.08	1084.60
498.44	1083.67
498.80	1087.65
499.16	1086.71
499.52	1089.05
499.88	1091.16
500.24	1086.01
500.60	1083.43
500.96	1079.46
501.32	1076.41
501.68	1078.99
502.03	1078.52
502.39	1075.48
502.75	1083.67
503.11	1087.41
503.47	1086.01
503.83	1088.58
504.19	1090.46
504.55	1079.69
504.91	1072.90
505.26	1067.52
505.62	1072.20
505.98	1075.48
506.34	1083.20
506.70	1089.52
507.06	1096.54
507.42	1100.05
507.78	1108.95
508.13	1108.71
508.49	1113.86
508.85	1105.20
509.21	1101.22
509.57	1096.31
509.93	1088.12
510.28	1082.73
510.64	1088.35
511.00	1096.07
511.36	1092.33
511.72	1102.86
512.07	1102.39
512.43	1098.18
512.79	1088.35
513.15	1087.18
513.51	1079.46
513.86	1082.26
514.22	1086.94
514.58	1092.80
514.94	1095.84
515.30	1099.82
515.65	1098.41
516.01	1095.84
516.37	1084.14
516.73	1086.01
517.08	1093.97
517.44	1099.35
517.80	1103.09
518.16	1108.48
518.51	1096.54
518.87	1088.82
519.23	1085.54
519.59	1086.48
519.94	1083.90
520.30	1086.01
520.66	1084.60
521.01	1078.52
521.37	1082.03
521.73	1084.14
522.09	1086.24
522.44	1083.20
522.80	1085.31
523.16	1074.54
523.51	1076.88
523.87	1088.58
524.23	1088.82
524.58	1083.20
524.94	1084.60
525.30	1079.46
525.65	1078.05
526.01	1086.24
526.37	1089.29
526.72	1083.20
527.08	1090.46
527.44	1079.92
527.79	1072.90
528.15	1076.41
528.51	1082.97
528.86	1087.88
529.22	1090.22
529.58	1090.69
529.93	1089.29
530.29	1096.78
530.65	1088.82
531.00	1095.14
531.36	1091.86
531.71	1095.14
532.07	1088.58
532.43	1091.63
532.78	1084.37
533.14	1087.18
533.49	1076.41
533.85	1072.67
534.21	1075.94
534.56	1073.14
534.92	1070.80
535.27	1076.41
535.63	1076.18
535.98	1072.67
536.34	1078.05
536.69	1077.82
537.05	1077.82
537.41	1083.20
537.76	1086.01
538.12	1090.22
538.47	1093.97
538.83	1092.56
539.18	1085.54
539.54	1071.97
539.89	1068.22
540.25	1071.50
540.60	1083.20
540.96	1100.29
541.31	1113.86
541.67	1111.99
542.02	1110.12
542.38	1110.58
542.73	1102.63
543.09	1093.26
543.44	1087.65
543.80	1087.41
544.15	1067.28
544.51	1064.24
544.86	1073.14
545.22	1078.05
545.57	1081.33
545.93	1093.26
546.28	1089.99
546.64	1088.12
546.99	1092.80
547.35	1087.65
547.70	1085.77
548.05	1093.73
548.41	1091.39
548.76	1083.43
549.12	1079.92
549.47	1083.43
549.83	1076.41
550.18	1076.41
550.53	1077.82
550.89	1075.94
551.24	1071.50
551.60	1068.69
551.95	1068.22
552.30	1065.18
552.66	1067.75
553.01	1066.58
553.37	1075.48
553.72	1074.54
554.07	1071.03
554.43	1071.03
554.78	1075.48
555.13	1071.26
555.49	1069.39
555.84	1078.28
556.19	1082.97
556.55	1081.09
556.90	1073.14
557.26	1076.41
557.61	1076.88
557.96	1078.05
558.32	1075.01
558.67	1083.43
559.02	1076.18
559.37	1081.09
559.73	1078.52
560.08	1086.71
560.43	1078.52
560.79	1086.24
561.14	1087.18
561.49	1088.35
561.85	1082.73
562.20	1091.16
562.55	1089.05
562.90	1086.24
563.26	1092.56
563.61	1086.94
563.96	1079.46
564.32	1083.90
564.67	1079.46
565.02	1063.07
565.37	1074.77
565.73	1086.24
566.08	1080.86
566.43	1086.71
566.78	1094.43
567.14	1086.48
567.49	1084.14
567.84	1083.67
568.19	1072.20
568.54	1074.77
568.90	1078.28
569.25	1075.94
569.60	1075.48
569.95	1087.18
570.31	1079.22
570.66	1069.62
571.01	1076.88
571.36	1071.26
571.71	1062.60
572.06	1065.88
572.42	1067.28
572.77	1056.05
573.12	1068.92
573.47	1080.16
573.82	1081.80
574.18	1090.69
574.53	1090.92
574.88	1097.71
575.23	1087.18
575.58	1089.52
575.93	1089.29
576.28	1093.03
576.64	1082.73
576.99	1090.92
577.34	1089.99
577.69	1089.52
578.04	1085.07
578.39	1081.33
578.74	1069.39
579.09	1065.65
579.44	1069.39
579.80	1070.80
580.15	1067.75
580.50	1068.45
580.85	1075.24
581.20	1072.90
581.55	1079.22
581.90	1089.52
582.25	1089.99
582.60	1084.37
582.95	1087.41
583.30	1091.16
583.65	1083.20
584.00	1091.63
584.35	1097.48
584.71	1081.33
585.06	1070.80
585.41	1068.22
585.76	1064.01
586.11	1062.60
586.46	1067.75
586.81	1081.33
587.16	1086.24
587.51	1094.43
587.86	1087.41
588.21	1097.01
588.56	1090.69
588.91	1094.67
589.26	1082.50
589.61	1083.90
589.96	1078.05
590.31	1077.82
590.66	1071.26
591.01	1075.71
591.36	1084.84
591.71	1090.92
592.06	1085.54
592.41	1090.46
592.76	1090.22
593.10	1097.24
593.45	1094.43
593.80	1100.99
594.15	1094.67
594.50	1102.86
594.85	1089.75
595.20	1078.99
595.55	1080.63
595.90	1081.56
596.25	1081.80
596.60	1088.58
596.95	1087.41
597.30	1078.52
597.64	1134.93
597.99	1135.63
598.34	1131.18
598.69	1133.76
599.04	1136.80
599.39	1086.71
599.74	1074.31
600.09	1074.31
600.44	1074.54
600.78	1073.60
601.13	1071.50
601.48	1076.41
601.83	1078.28
602.18	1085.77
602.53	1086.71
602.88	1093.50
603.22	1095.37
603.57	1090.92
603.92	1096.07
604.27	1092.33
604.62	1090.46
604.97	1084.37
605.31	1078.99
605.66	1078.75
606.01	1073.37
606.36	1074.07
606.71	1083.67
607.05	1084.14
607.40	1084.14
607.75	1096.54
608.10	1092.56
608.44	1084.14
608.79	1093.50
609.14	1091.86
609.49	1091.39
609.84	1085.77
610.18	1089.75
610.53	1094.90
610.88	1093.50
611.23	1093.26
611.57	1094.90
611.92	1096.78
612.27	1093.73
612.62	1097.48
612.96	1099.82
613.31	1106.84
613.66	1104.97
614.00	1096.78
614.35	1094.20
614.70	1082.26
615.05	1075.24
615.39	1068.45
615.74	1063.07
616.09	1065.18
616.43	1072.90
616.78	1071.03
617.13	1075.48
617.47	1088.35
617.82	1087.65
618.17	1089.52
618.51	1089.75
618.86	1093.26
619.21	1093.03
619.55	1096.78
619.90	1095.60
620.25	1094.43
620.59	1086.01
620.94	1081.33
621.29	1074.07
621.63	1067.52
621.98	1084.84
622.32	1089.52
622.67	1093.50
623.02	1085.31
623.36	1090.92
623.71	1089.99
624.05	1094.43
624.40	1094.90
624.75	1104.03
625.09	1110.12
625.44	1098.65
625.78	1090.46
626.13	1081.33
626.48	1080.86
626.82	1079.69
627.17	1081.09
627.51	1084.37
627.86	1090.46
628.20	1082.26
628.55	1082.97
628.89	1078.28
629.24	1080.39
629.58	1082.73
629.93	1082.97
630.28	1064.24
630.62	1071.97
630.97	1063.54
631.31	1062.37
631.66	1065.65
632.00	1080.39
632.35	1081.80
632.69	1094.67
633.04	1091.16
633.38	1096.07
633.73	1095.60
634.07	1089.29
634.42	1081.56
634.76	1084.84
635.11	1081.33
635.45	1075.24
635.79	1077.35
636.14	1085.54
636.48	1086.71
636.83	1080.16
637.17	1089.52
637.52	1092.80
637.86	1083.20
638.21	1073.37
638.55	1088.58
638.89	1083.67
639.24	1073.84
639.58	1079.69
639.93	1085.07
640.27	1076.88
640.61	1081.09
640.96	1084.14
641.30	1084.14
641.65	1082.26
641.99	1082.97
642.33	1080.63
642.68	1081.09
643.02	1079.22
643.37	1082.03
643.71	1082.03
644.05	1076.88
644.40	1078.75
644.74	1081.80
645.08	1077.11
645.43	1066.35
645.77	1056.52
646.11	1058.16
646.46	1062.60
646.80	1055.11
647.14	1054.65
647.49	1067.05
647.83	1060.73
648.17	1051.84
648.52	1061.20
648.86	1075.24
649.20	1071.26
649.55	1082.26
649.89	1088.12
650.23	1093.73
650.57	1090.69
650.92	1096.31
651.26	1093.03
651.60	1086.71
651.95	1084.14
652.29	1084.60
652.63	1077.11
652.97	1070.80
653.32	1070.56
653.66	1080.63
654.00	1083.67
654.34	1087.65
654.69	1091.63
655.03	1095.60
655.37	1089.05
655.71	1086.24
656.05	1083.43
656.40	1087.65
656.74	1076.18
657.08	1061.43
657.42	1062.60
657.76	1071.26
658.11	1063.31
658.45	1068.22
658.79	1075.94
659.13	1082.03
659.47	1081.09
659.82	1083.43
660.16	1090.92
660.50	1096.78
660.84	1096.07
661.18	1090.46
661.52	1086.24
661.87	1094.67
662.21	1093.26
662.55	1084.14
662.89	1085.54
663.23	1096.07
663.57	1078.75
663.91	1076.18
664.25	1075.24
664.60	1071.50
664.94	1063.31
665.28	1065.18
665.62	1067.05
665.96	1065.41
666.30	1073.37
666.64	1073.84
666.98	1081.56
667.32	1082.26
667.66	1087.88
668.01	1088.82
668.35	1087.65
668.69	1075.71
669.03	1081.80
669.37	1082.26
669.71	1075.48
670.05	1080.16
670.39	1089.75
670.73	1082.26
671.07	1082.97
671.41	1085.31
671.75	1083.90
672.09	1076.88
672.43	1079.46
672.77	1075.01
673.11	1076.41
673.45	1074.31
673.79	1074.54
674.13	1075.01
674.47	1072.90
674.81	1071.03
675.15	1069.16
675.49	1076.65
675.83	1079.92
676.17	1090.22
676.51	1097.71
676.85	1101.69
677.19	1097.95
677.53	1095.14
677.87	1089.99
678.21	1075.94
678.55	1076.18
678.89	1073.84
679.23	1063.54
679.57	1065.18
679.90	1079.69
680.24	1071.97
680.58	1062.14
680.92	1062.37
681.26	1064.94
681.60	1045.28
681.94	1051.13
682.28	1062.60
682.62	1078.99
682.96	1069.16
683.29	1082.50
683.63	1083.43
683.97	1086.24
684.31	1082.50
684.65	1093.97
684.99	1090.46
685.33	1098.65
685.67	1090.46
686.00	1087.65
686.34	1084.37
686.68	1083.67
687.02	1082.73
687.36	1092.56
687.70	1088.35
688.03	1081.80
688.37	1093.50
688.71	1095.14
689.05	1093.03
689.39	1091.63
689.72	1090.22
690.06	1084.14
690.40	1070.80
690.74	1073.60
691.08	1078.52
691.41	1085.07
691.75	1085.31
692.09	1095.84
692.43	1095.60
692.76	1090.92
693.10	1083.43
693.44	1083.20
693.78	1070.33
694.11	1070.33
694.45	1074.77
694.79	1081.80
695.13	1071.03
695.46	1075.94
695.80	1070.33
696.14	1067.28
696.48	1063.31
696.81	1069.62
697.15	1073.37
697.49	1071.97
697.82	1064.01
698.16	1069.86
698.50	1074.07
698.83	1071.73
699.17	1069.16
699.51	1079.92
699.84	1071.03
700.18	1075.94
700.52	1088.35
700.85	1099.35
701.19	1088.82
701.53	1097.71
701.86	1087.88
702.20	1076.18
702.54	1077.35
702.87	1098.18
703.21	1097.01
703.55	1095.14
703.88	1081.33
704.22	1079.69
704.55	1065.65
704.89	1073.37
705.23	1086.48
705.56	1100.29
705.90	1097.48
706.23	1098.18
706.57	1090.22
706.91	1084.84
707.24	1079.22
707.58	1076.65
707.91	1077.35
708.25	1079.46
708.58	1071.50
708.92	1082.03
709.26	1090.92
709.59	1091.86
709.93	1091.86
710.26	1089.99
710.60	1085.07
710.93	1075.48
711.27	1066.58
711.60	1062.37
711.94	1066.82
712.27	1074.07
712.61	1071.97
712.94	1078.05
713.28	1071.73
713.61	1086.48
713.95	1080.86
714.28	1090.92
714.62	1092.80
714.95	1100.99
715.29	1093.97
715.62	1096.54
715.96	1089.52
716.29	1089.52
716.63	1095.14
716.96	1086.94
717.29	1077.11
717.63	1071.03
717.96	1072.20
718.30	1060.26
718.63	1055.82
718.97	1059.33
719.30	1060.50
719.63	1060.96
719.97	1063.54
720.30	1070.33
720.64	1072.67
720.97	1074.54
721.30	1081.80
721.64	1086.71
721.97	1089.29
722.31	1095.60
722.64	1103.09
722.97	1101.69
723.31	1096.54
723.64	1091.16
723.97	1081.56
724.31	1072.90
724.64	1065.65
724.98	1069.39
725.31	1068.92
725.64	1071.03
725.98	1071.73
726.31	1072.90
726.64	1074.77
726.97	1083.20
727.31	1088.82
727.64	1095.14
727.97	1092.80
728.31	1085.07
728.64	1072.43
728.97	1079.46
729.31	1080.39
729.64	1082.03
729.97	1085.54
730.30	1092.56
730.64	1081.09
730.97	1082.73
731.30	1087.41
731.63	1088.82
731.97	1093.50
732.30	1095.60
732.63	1095.37
732.96	1092.56
733.30	1091.86
733.63	1087.88
733.96	1088.82
734.29	1087.18
734.63	1080.39
734.96	1077.82
735.29	1074.77
735.62	1067.75
735.95	1068.22
736.29	1072.67
736.62	1077.35
736.95	1074.07
737.28	1085.54
737.61	1084.84
737.94	1077.11
738.28	1067.75
738.61	1071.97
738.94	1071.50
739.27	1060.73
739.60	1068.22
739.93	1071.03
740.27	1068.22
740.60	1062.60
740.93	1078.99
741.26	1080.16
741.59	1090.46
741.92	1092.33
742.25	1096.78
742.58	1088.58
742.91	1093.97
743.25	1092.56
743.58	1093.50
743.91	1082.73
744.24	1081.33
744.57	1075.01
744.90	1076.88
745.23	1075.48
745.56	1078.52
745.89	1082.26
746.22	1079.92
746.55	1066.82
746.88	1074.31
747.21	1064.24
747.54	1065.88
747.87	1078.75
748.20	1092.33
748.53	1089.05
748.87	1103.33
749.20	1096.31
749.53	1091.16
749.86	1075.01
750.19	1074.31
750.52	1071.73
750.85	1076.65
751.18	1073.37
751.51	1091.16
751.84	1091.63
752.16	1098.41
752.49	1101.69
752.82	1103.80
753.15	1090.22
753.48	1087.65
753.81	1077.35
754.14	1075.24
754.47	1066.35
754.80	1069.62
755.13	1081.80
755.46	1088.12
755.79	1085.31
756.12	1093.26
756.45	1102.39
756.78	1097.71
757.11	1094.43
757.43	1093.97
757.76	1091.39
758.09	1089.99
758.42	1081.33
758.75	1089.52
759.08	1085.07
759.41	1086.01
759.74	1082.50
760.07	1084.60
760.39	1080.86
760.72	1082.26
761.05	1084.37
761.38	1079.69
761.71	1077.82
762.04	1067.05
762.36	1062.84
762.69	1060.96
763.02	1062.37
763.35	1060.73
763.68	1064.48
764.01	1069.86
764.33	1067.99
764.66	1059.33
764.99	1070.09
765.32	1078.28
765.65	1075.01
765.97	1073.14
766.30	1082.97
