SpectraSuite Data File
++++++++++++++++++++++++++++++++++++
Date: Mon Aug 26 10:25:49 PDT 2019
User: corrico
Dark Spectrum Present: No
Reference Spectrum Present: No
Number of Sampled Component Spectra: 1
Spectrometers: USB2+H06089
Integration Time (usec): 10000 (USB2+H06089)
Spectra Averaged: 2 (USB2+H06089)
Boxcar Smoothing: 2 (USB2+H06089)
Correct for Electrical Dark: No (USB2+H06089)
Strobe/Lamp Enabled: No (USB2+H06089)
Correct for Detector Non-linearity: No (USB2+H06089)
Correct for Stray Light: No (USB2+H06089)
Number of Pixels in Processed Spectrum: 2048
>>>>>Begin Processed Spectral Data<<<<<
339.70	1046.22
340.07	1046.22
340.45	990.28
340.82	967.58
341.19	943.94
341.57	920.06
341.94	914.68
342.31	914.45
342.69	908.60
343.06	902.28
343.43	891.74
343.81	884.49
344.18	893.62
344.55	906.49
344.93	907.66
345.30	915.85
345.67	934.81
346.04	946.98
346.42	942.30
346.79	954.24
347.16	963.36
347.54	967.58
347.91	975.30
348.28	989.11
348.65	989.58
349.03	1000.11
349.40	1001.75
349.77	997.77
350.14	1001.75
350.52	1024.22
350.89	1042.47
351.26	1057.69
351.63	1061.67
352.01	1064.48
352.38	1056.05
352.75	1050.43
353.12	1049.50
353.50	1061.20
353.87	1061.67
354.24	1064.24
354.61	1070.09
354.98	1070.80
355.36	1072.90
355.73	1082.50
356.10	1085.77
356.47	1080.39
356.84	1075.71
357.22	1082.50
357.59	1088.58
357.96	1090.46
358.33	1089.05
358.70	1091.16
359.08	1086.71
359.45	1082.97
359.82	1089.99
360.19	1093.73
360.56	1103.80
360.94	1097.95
361.31	1095.84
361.68	1091.86
362.05	1092.56
362.42	1080.86
362.79	1078.52
363.16	1073.60
363.54	1067.52
363.91	1073.60
364.28	1082.50
364.65	1086.24
365.02	1086.94
365.39	1088.12
365.76	1076.41
366.14	1070.09
366.51	1060.03
366.88	1060.03
367.25	1069.39
367.62	1069.86
367.99	1073.60
368.36	1077.58
368.73	1078.52
369.10	1077.11
369.48	1076.18
369.85	1072.90
370.22	1074.77
370.59	1068.92
370.96	1055.11
371.33	1056.28
371.70	1055.58
372.07	1057.69
372.44	1060.50
372.81	1067.52
373.18	1058.86
373.55	1047.16
373.93	1047.39
374.30	1043.41
374.67	1051.37
375.04	1056.75
375.41	1065.88
375.78	1056.52
376.15	1068.22
376.52	1054.65
376.89	1056.99
377.26	1059.79
377.63	1067.75
378.00	1053.94
378.37	1062.84
378.74	1058.39
379.11	1063.31
379.48	1056.75
379.85	1062.37
380.22	1060.73
380.59	1059.79
380.96	1065.18
381.33	1067.28
381.70	1073.14
382.07	1072.43
382.44	1071.73
382.81	1069.39
383.18	1082.73
383.55	1078.05
383.92	1078.75
384.29	1082.03
384.66	1077.35
385.03	1067.28
385.40	1068.45
385.77	1067.28
386.14	1065.18
386.51	1067.75
386.88	1071.26
387.25	1056.75
387.62	1059.09
387.99	1062.84
388.36	1053.48
388.73	1056.05
389.10	1073.60
389.46	1070.80
389.83	1067.99
390.20	1074.77
390.57	1075.01
390.94	1069.39
391.31	1072.67
391.68	1074.07
392.05	1082.73
392.42	1073.14
392.79	1080.86
393.16	1072.67
393.53	1070.33
393.89	1066.58
394.26	1064.48
394.63	1056.52
395.00	1056.28
395.37	1060.73
395.74	1058.62
396.11	1058.86
396.48	1060.50
396.84	1068.22
397.21	1070.80
397.58	1066.82
397.95	1074.31
398.32	1074.07
398.69	1059.79
399.06	1047.16
399.42	1053.01
399.79	1055.11
400.16	1055.11
400.53	1064.94
400.90	1074.54
401.27	1065.41
401.64	1055.35
402.00	1059.79
402.37	1058.86
402.74	1066.58
403.11	1071.73
403.48	1075.01
403.84	1077.11
404.21	1089.75
404.58	1082.50
404.95	1077.58
405.32	1078.05
405.68	1072.90
406.05	1058.39
406.42	1065.18
406.79	1068.45
407.16	1076.18
407.52	1075.94
407.89	1084.14
408.26	1081.33
408.63	1077.11
408.99	1077.82
409.36	1077.82
409.73	1081.33
410.10	1075.48
410.47	1070.80
410.83	1071.03
411.20	1071.50
411.57	1066.58
411.94	1066.82
412.30	1069.39
412.67	1063.31
413.04	1058.39
413.40	1052.77
413.77	1060.50
414.14	1068.45
414.51	1077.58
414.87	1082.50
415.24	1086.01
415.61	1080.39
415.97	1077.11
416.34	1071.26
416.71	1070.80
417.08	1069.39
417.44	1073.14
417.81	1068.45
418.18	1065.88
418.54	1070.33
418.91	1071.73
419.28	1069.39
419.64	1074.07
420.01	1082.03
420.38	1078.28
420.74	1081.09
421.11	1081.80
421.48	1083.43
421.84	1074.77
422.21	1070.80
422.58	1070.09
422.94	1054.18
423.31	1049.73
423.68	1056.28
424.04	1065.65
424.41	1065.18
424.77	1089.52
425.14	1087.18
425.51	1084.14
425.87	1075.24
426.24	1080.63
426.61	1067.28
426.97	1078.52
427.34	1074.54
427.70	1081.56
428.07	1080.63
428.44	1084.84
428.80	1078.52
429.17	1090.69
429.53	1087.65
429.90	1093.03
430.27	1095.14
430.63	1102.16
431.00	1097.24
431.36	1090.92
431.73	1067.99
432.09	1064.94
432.46	1065.41
432.83	1064.01
433.19	1068.92
433.56	1078.28
433.92	1084.60
434.29	1085.77
434.65	1078.52
435.02	1075.71
435.38	1085.77
435.75	1077.11
436.11	1066.58
436.48	1069.62
436.84	1072.90
437.21	1073.37
437.57	1078.28
437.94	1073.60
438.30	1074.54
438.67	1079.22
439.03	1072.43
439.40	1078.05
439.76	1080.16
440.13	1079.46
440.49	1082.97
440.86	1094.43
441.22	1093.97
441.59	1104.50
441.95	1106.37
442.32	1101.46
442.68	1087.88
443.05	1087.41
443.41	1080.63
443.78	1084.84
444.14	1083.20
444.51	1075.71
444.87	1070.33
445.24	1066.35
445.60	1069.16
445.96	1069.86
446.33	1088.82
446.69	1082.97
447.06	1090.22
447.42	1087.88
447.79	1093.73
448.15	1075.71
448.51	1087.65
448.88	1087.65
449.24	1078.05
449.61	1063.31
449.97	1066.82
450.33	1061.20
450.70	1066.58
451.06	1077.82
451.43	1092.33
451.79	1096.54
452.15	1089.99
452.52	1085.07
452.88	1075.94
453.24	1060.26
453.61	1061.20
453.97	1076.65
454.34	1076.18
454.70	1079.69
455.06	1081.33
455.43	1070.33
455.79	1061.20
456.15	1062.84
456.52	1055.82
456.88	1064.71
457.24	1086.24
457.61	1079.92
457.97	1084.14
458.33	1097.48
458.70	1090.22
459.06	1088.35
459.42	1094.20
459.79	1100.29
460.15	1087.65
460.51	1095.14
460.88	1089.29
461.24	1087.65
461.60	1074.77
461.96	1079.69
462.33	1084.84
462.69	1085.54
463.05	1099.12
463.42	1100.99
463.78	1104.97
464.14	1091.86
464.50	1089.99
464.87	1074.54
465.23	1069.16
465.59	1064.48
465.95	1075.94
466.32	1068.22
466.68	1071.73
467.04	1070.80
467.40	1068.92
467.77	1067.05
468.13	1068.22
468.49	1069.39
468.85	1074.77
469.22	1072.43
469.58	1063.07
469.94	1076.88
470.30	1067.75
470.66	1064.01
471.03	1069.62
471.39	1077.35
471.75	1061.20
472.11	1064.24
472.47	1075.24
472.84	1079.69
473.20	1077.58
473.56	1090.22
473.92	1096.31
474.28	1089.99
474.65	1084.60
475.01	1083.43
475.37	1078.99
475.73	1080.86
476.09	1088.12
476.45	1092.33
476.81	1092.80
477.18	1092.80
477.54	1091.16
477.90	1078.99
478.26	1078.28
478.62	1081.33
478.98	1083.43
479.34	1086.94
479.71	1089.05
480.07	1090.92
480.43	1098.41
480.79	1086.24
481.15	1076.18
481.51	1074.31
481.87	1064.94
482.23	1059.79
482.59	1068.45
482.96	1071.26
483.32	1077.35
483.68	1080.63
484.04	1071.97
484.40	1073.14
484.76	1069.86
485.12	1072.43
485.48	1071.03
485.84	1068.92
486.20	1069.39
486.56	1082.97
486.92	1082.73
487.28	1086.24
487.64	1101.46
488.00	1102.63
488.37	1098.65
488.73	1085.54
489.09	1085.77
489.45	1074.77
489.81	1073.60
490.17	1079.22
490.53	1089.75
490.89	1096.54
491.25	1103.09
491.61	1100.29
491.97	1094.90
492.33	1093.26
492.69	1081.09
493.05	1067.75
493.41	1068.22
493.77	1071.03
494.13	1076.88
494.49	1071.03
494.85	1075.71
495.21	1078.52
495.57	1072.43
495.93	1070.09
496.29	1083.90
496.64	1090.22
497.00	1087.65
497.36	1085.77
497.72	1082.73
498.08	1072.67
498.44	1067.05
498.80	1066.35
499.16	1069.39
499.52	1066.11
499.88	1070.80
500.24	1075.71
500.60	1080.86
500.96	1077.35
501.32	1086.94
501.68	1099.12
502.03	1099.58
502.39	1092.33
502.75	1089.75
503.11	1087.41
503.47	1079.69
503.83	1075.48
504.19	1076.65
504.55	1085.07
504.91	1082.97
505.26	1077.82
505.62	1077.11
505.98	1082.26
506.34	1075.71
506.70	1074.54
507.06	1081.80
507.42	1082.50
507.78	1081.09
508.13	1081.56
508.49	1081.80
508.85	1080.63
509.21	1088.82
509.57	1090.46
509.93	1090.92
510.28	1090.92
510.64	1081.56
511.00	1077.58
511.36	1071.97
511.72	1069.16
512.07	1081.80
512.43	1087.88
512.79	1086.94
513.15	1093.97
513.51	1095.60
513.86	1078.75
514.22	1091.16
514.58	1094.90
514.94	1087.41
515.30	1096.31
515.65	1098.41
516.01	1089.29
516.37	1085.07
516.73	1091.16
517.08	1083.43
517.44	1093.26
517.80	1089.99
518.16	1090.92
518.51	1084.14
518.87	1081.80
519.23	1069.16
519.59	1077.82
519.94	1074.31
520.30	1085.54
520.66	1091.86
521.01	1099.58
521.37	1090.92
521.73	1095.60
522.09	1094.90
522.44	1089.99
522.80	1090.46
523.16	1094.67
523.51	1088.35
523.87	1083.90
524.23	1092.09
524.58	1093.97
524.94	1093.03
525.30	1096.54
525.65	1096.54
526.01	1087.41
526.37	1080.63
526.72	1081.09
527.08	1082.03
527.44	1086.48
527.79	1093.50
528.15	1103.09
528.51	1100.52
528.86	1097.48
529.22	1094.43
529.58	1094.90
529.93	1086.24
530.29	1082.50
530.65	1086.24
531.00	1090.46
531.36	1091.86
531.71	1094.67
532.07	1098.41
532.43	1096.54
532.78	1100.52
533.14	1094.20
533.49	1091.63
533.85	1090.92
534.21	1092.80
534.56	1085.54
534.92	1083.90
535.27	1085.07
535.63	1086.48
535.98	1083.90
536.34	1084.84
536.69	1093.50
537.05	1101.22
537.41	1104.26
537.76	1099.82
538.12	1095.84
538.47	1095.60
538.83	1080.39
539.18	1080.39
539.54	1080.39
539.89	1080.86
540.25	1074.54
540.60	1078.99
540.96	1078.99
541.31	1084.14
541.67	1083.67
542.02	1081.80
542.38	1085.77
542.73	1086.71
543.09	1091.39
543.44	1090.69
543.80	1095.84
544.15	1099.12
544.51	1093.03
544.86	1089.05
545.22	1096.07
545.57	1094.90
545.93	1084.37
546.28	1085.07
546.64	1086.24
546.99	1082.03
547.35	1092.09
547.70	1090.46
548.05	1083.67
548.41	1086.24
548.76	1088.12
549.12	1082.73
549.47	1093.73
549.83	1098.88
550.18	1090.92
550.53	1082.50
550.89	1078.75
551.24	1075.71
551.60	1079.22
551.95	1088.35
552.30	1091.86
552.66	1084.84
553.01	1090.69
553.37	1088.12
553.72	1084.37
554.07	1084.37
554.43	1082.03
554.78	1068.69
555.13	1073.60
555.49	1068.69
555.84	1065.65
556.19	1060.26
556.55	1063.31
556.90	1060.26
557.26	1068.92
557.61	1064.24
557.96	1075.01
558.32	1072.43
558.67	1078.05
559.02	1070.33
559.37	1085.31
559.73	1092.56
560.08	1108.48
560.43	1105.67
560.79	1092.33
561.14	1079.92
561.49	1072.43
561.85	1074.31
562.20	1077.11
562.55	1089.75
562.90	1093.97
563.26	1105.67
563.61	1090.69
563.96	1082.73
564.32	1082.50
564.67	1091.16
565.02	1083.43
565.37	1076.88
565.73	1079.92
566.08	1082.97
566.43	1075.71
566.78	1080.39
567.14	1093.50
567.49	1090.92
567.84	1092.09
568.19	1103.33
568.54	1100.29
568.90	1095.60
569.25	1107.78
569.60	1111.52
569.95	1099.58
570.31	1100.99
570.66	1099.58
571.01	1086.01
571.36	1081.56
571.71	1075.48
572.06	1064.24
572.42	1066.35
572.77	1063.77
573.12	1064.24
573.47	1067.28
573.82	1065.65
574.18	1053.24
574.53	1053.24
574.88	1048.33
575.23	1045.99
575.58	1056.75
575.93	1066.35
576.28	1064.24
576.64	1056.52
576.99	1058.86
577.34	1058.16
577.69	1063.77
578.04	1061.90
578.39	1067.52
578.74	1071.50
579.09	1070.56
579.44	1071.97
579.80	1085.77
580.15	1099.12
580.50	1098.18
580.85	1097.95
581.20	1096.54
581.55	1094.67
581.90	1084.37
582.25	1082.26
582.60	1084.60
582.95	1071.73
583.30	1078.05
583.65	1085.31
584.00	1094.20
584.35	1092.33
584.71	1106.14
585.06	1094.43
585.41	1088.58
585.76	1086.71
586.11	1088.12
586.46	1084.37
586.81	1086.71
587.16	1082.03
587.51	1074.31
587.86	1070.33
588.21	1068.92
588.56	1064.48
588.91	1071.50
589.26	1074.77
589.61	1075.71
589.96	1075.24
590.31	1074.77
590.66	1083.67
591.01	1086.94
591.36	1086.24
591.71	1084.84
592.06	1091.16
592.41	1088.35
592.76	1082.03
593.10	1082.50
593.45	1087.88
593.80	1085.54
594.15	1077.35
594.50	1089.52
594.85	1089.99
595.20	1082.97
595.55	1089.05
595.90	1082.97
596.25	1075.24
596.60	1070.56
596.95	1071.97
597.30	1070.33
597.64	1133.76
597.99	1137.27
598.34	1139.37
598.69	1143.35
599.04	1140.31
599.39	1080.16
599.74	1073.37
600.09	1070.09
600.44	1063.07
600.78	1054.41
601.13	1060.26
601.48	1063.07
601.83	1063.31
602.18	1073.84
602.53	1086.01
602.88	1082.97
603.22	1077.11
603.57	1085.77
603.92	1081.09
604.27	1081.09
604.62	1085.07
604.97	1091.86
605.31	1078.99
605.66	1083.20
606.01	1075.94
606.36	1081.33
606.71	1076.41
607.05	1086.48
607.40	1077.58
607.75	1078.05
608.10	1070.09
608.44	1071.26
608.79	1075.24
609.14	1082.26
609.49	1085.77
609.84	1083.90
610.18	1093.03
610.53	1089.75
610.88	1091.86
611.23	1096.78
611.57	1096.07
611.92	1095.14
612.27	1093.03
612.62	1086.01
612.96	1084.84
613.31	1079.46
613.66	1081.09
614.00	1086.01
614.35	1091.16
614.70	1086.71
615.05	1097.95
615.39	1087.65
615.74	1085.54
616.09	1085.07
616.43	1081.56
616.78	1059.09
617.13	1062.14
617.47	1060.96
617.82	1064.48
618.17	1067.52
618.51	1095.37
618.86	1086.24
619.21	1080.16
619.55	1069.86
619.90	1062.60
620.25	1055.82
620.59	1062.14
620.94	1066.82
621.29	1073.60
621.63	1080.16
621.98	1074.31
622.32	1080.86
622.67	1087.41
623.02	1089.29
623.36	1094.67
623.71	1099.12
624.05	1085.77
624.40	1081.56
624.75	1074.77
625.09	1073.37
625.44	1076.88
625.78	1098.41
626.13	1093.73
626.48	1105.67
626.82	1104.73
627.17	1099.58
627.51	1099.35
627.86	1110.35
628.20	1100.99
628.55	1101.92
628.89	1106.14
629.24	1097.48
629.58	1086.71
629.93	1088.58
630.28	1087.65
630.62	1099.82
630.97	1096.78
631.31	1097.48
631.66	1103.80
632.00	1105.44
632.35	1101.46
632.69	1102.16
633.04	1102.39
633.38	1094.43
633.73	1079.69
634.07	1073.37
634.42	1073.37
634.76	1073.84
635.11	1067.28
635.45	1075.71
635.79	1073.14
636.14	1079.92
636.48	1077.35
636.83	1082.03
637.17	1085.77
637.52	1078.05
637.86	1075.94
638.21	1079.46
638.55	1083.20
638.89	1082.50
639.24	1093.03
639.58	1088.12
639.93	1086.71
640.27	1081.09
640.61	1078.52
640.96	1072.90
641.30	1070.09
641.65	1082.73
641.99	1085.54
642.33	1087.65
642.68	1088.35
643.02	1097.24
643.37	1087.88
643.71	1101.22
644.05	1096.07
644.40	1108.01
644.74	1105.20
645.08	1111.75
645.43	1104.26
645.77	1110.82
646.11	1094.90
646.46	1092.33
646.80	1090.22
647.14	1089.75
647.49	1084.37
647.83	1086.48
648.17	1084.14
648.52	1071.50
648.86	1070.09
649.20	1080.39
649.55	1085.54
649.89	1077.11
650.23	1083.20
650.57	1074.54
650.92	1065.41
651.26	1063.54
651.60	1075.01
651.95	1069.86
652.29	1086.24
652.63	1085.07
652.97	1076.41
653.32	1073.60
653.66	1078.52
654.00	1070.33
654.34	1075.94
654.69	1077.58
655.03	1079.22
655.37	1085.54
655.71	1088.35
656.05	1083.90
656.40	1082.03
656.74	1076.65
657.08	1070.09
657.42	1075.24
657.76	1077.35
658.11	1082.97
658.45	1092.09
658.79	1091.16
659.13	1074.54
659.47	1068.22
659.82	1071.50
660.16	1065.41
660.50	1069.86
660.84	1083.20
661.18	1084.37
661.52	1077.58
661.87	1082.73
662.21	1089.52
662.55	1085.31
662.89	1090.46
663.23	1094.90
663.57	1089.99
663.91	1084.60
664.25	1087.88
664.60	1094.43
664.94	1093.97
665.28	1093.26
665.62	1090.46
665.96	1086.94
666.30	1077.35
666.64	1071.97
666.98	1070.56
667.32	1071.73
667.66	1066.35
668.01	1068.92
668.35	1075.48
668.69	1079.22
669.03	1074.77
669.37	1079.46
669.71	1080.16
670.05	1082.26
670.39	1078.28
670.73	1089.99
671.07	1084.84
671.41	1082.73
671.75	1076.88
672.09	1081.33
672.43	1071.26
672.77	1068.92
673.11	1069.39
673.45	1079.92
673.79	1077.11
674.13	1085.77
674.47	1097.01
674.81	1099.82
675.15	1093.03
675.49	1094.20
675.83	1082.03
676.17	1075.94
676.51	1077.58
676.85	1077.58
677.19	1082.50
677.53	1091.39
677.87	1090.46
678.21	1086.71
678.55	1089.05
678.89	1079.69
679.23	1064.94
679.57	1074.07
679.90	1075.48
680.24	1069.62
680.58	1083.43
680.92	1100.75
681.26	1088.58
681.60	1089.52
681.94	1082.97
682.28	1080.39
682.62	1076.41
682.96	1089.52
683.29	1088.12
683.63	1092.56
683.97	1084.14
684.31	1086.01
684.65	1072.90
684.99	1056.52
685.33	1062.60
685.67	1069.16
686.00	1069.39
686.34	1074.31
686.68	1092.09
687.02	1087.41
687.36	1080.86
687.70	1074.54
688.03	1077.35
688.37	1068.69
688.71	1082.03
689.05	1078.75
689.39	1088.35
689.72	1089.52
690.06	1099.35
690.40	1089.52
690.74	1095.84
691.08	1081.56
691.41	1072.20
691.75	1066.58
692.09	1070.56
692.43	1067.05
692.76	1069.16
693.10	1071.73
693.44	1076.18
693.78	1079.22
694.11	1083.67
694.45	1079.46
694.79	1077.11
695.13	1077.82
695.46	1061.90
695.80	1054.88
696.14	1071.50
696.48	1078.05
696.81	1076.41
697.15	1084.60
697.49	1086.01
697.82	1081.80
698.16	1074.31
698.50	1077.11
698.83	1075.24
699.17	1081.09
699.51	1077.82
699.84	1081.56
700.18	1073.37
700.52	1074.54
700.85	1075.01
701.19	1080.86
701.53	1079.92
701.86	1078.28
702.20	1088.12
702.54	1087.88
702.87	1081.09
703.21	1078.28
703.55	1086.01
703.88	1074.54
704.22	1074.77
704.55	1074.07
704.89	1075.01
705.23	1077.58
705.56	1077.35
705.90	1075.71
706.23	1073.37
706.57	1088.35
706.91	1085.77
707.24	1083.90
707.58	1077.11
707.91	1078.52
708.25	1077.11
708.58	1076.18
708.92	1079.46
709.26	1087.41
709.59	1090.46
709.93	1086.24
710.26	1086.94
710.60	1095.14
710.93	1090.22
711.27	1089.29
711.60	1086.48
711.94	1083.43
712.27	1075.94
712.61	1082.73
712.94	1084.14
713.28	1082.97
713.61	1081.56
713.95	1082.03
714.28	1082.03
714.62	1070.56
714.95	1063.77
715.29	1064.94
715.62	1064.94
715.96	1059.79
716.29	1067.28
716.63	1068.92
716.96	1075.01
717.29	1070.33
717.63	1074.07
717.96	1070.56
718.30	1068.45
718.63	1054.65
718.97	1056.52
719.30	1058.86
719.63	1064.94
719.97	1077.11
720.30	1084.14
720.64	1099.58
720.97	1081.09
721.30	1090.69
721.64	1082.97
721.97	1084.37
722.31	1078.52
722.64	1090.69
722.97	1082.97
723.31	1081.56
723.64	1082.97
723.97	1073.14
724.31	1080.63
724.64	1069.16
724.98	1064.01
725.31	1067.05
725.64	1075.01
725.98	1073.37
726.31	1071.26
726.64	1085.77
726.97	1081.33
727.31	1067.99
727.64	1063.77
727.97	1074.07
728.31	1066.58
728.64	1065.88
728.97	1085.77
729.31	1087.88
729.64	1088.12
729.97	1086.01
730.30	1089.29
730.64	1079.92
730.97	1070.56
731.30	1082.97
731.63	1086.01
731.97	1079.22
732.30	1077.58
732.63	1088.12
732.96	1076.65
733.30	1075.01
733.63	1074.07
733.96	1079.92
734.29	1073.84
734.63	1074.31
734.96	1080.16
735.29	1086.01
735.62	1088.82
735.95	1089.05
736.29	1075.48
736.62	1073.14
736.95	1076.65
737.28	1070.33
737.61	1072.43
737.94	1090.46
738.28	1080.39
738.61	1076.41
738.94	1080.63
739.27	1077.11
739.60	1077.35
739.93	1086.94
740.27	1091.39
740.60	1080.16
740.93	1076.18
741.26	1074.07
741.59	1068.92
741.92	1075.24
742.25	1076.18
742.58	1091.86
742.91	1086.24
743.25	1089.99
743.58	1075.01
743.91	1076.88
744.24	1069.86
744.57	1080.63
744.90	1082.50
745.23	1085.77
745.56	1090.46
745.89	1087.65
746.22	1089.52
746.55	1086.24
746.88	1086.24
747.21	1088.12
747.54	1090.46
747.87	1075.71
748.20	1076.41
748.53	1087.41
748.87	1082.73
749.20	1083.67
749.53	1083.67
749.86	1082.97
750.19	1072.67
750.52	1075.01
750.85	1073.84
751.18	1070.33
751.51	1071.97
751.84	1072.20
752.16	1068.69
752.49	1081.33
752.82	1087.18
753.15	1083.67
753.48	1076.65
753.81	1078.99
754.14	1066.11
754.47	1068.69
754.80	1070.56
755.13	1076.88
755.46	1075.71
755.79	1072.67
756.12	1075.01
756.45	1077.82
756.78	1076.88
757.11	1080.39
757.43	1081.33
757.76	1079.46
758.09	1075.48
758.42	1073.60
758.75	1066.82
759.08	1069.86
759.41	1066.11
759.74	1077.58
760.07	1088.12
760.39	1095.84
760.72	1101.46
761.05	1106.14
761.38	1097.95
761.71	1090.69
762.04	1082.03
762.36	1071.97
762.69	1067.75
763.02	1068.69
763.35	1073.14
763.68	1075.01
764.01	1083.20
764.33	1088.35
764.66	1089.29
764.99	1079.92
765.32	1085.07
765.65	1085.77
765.97	1082.26
766.30	1076.65
