SpectraSuite Data File
++++++++++++++++++++++++++++++++++++
Date: Mon Aug 26 10:25:49 PDT 2019
User: corrico
Dark Spectrum Present: No
Reference Spectrum Present: No
Number of Sampled Component Spectra: 1
Spectrometers: USB2+H06089
Integration Time (usec): 10000 (USB2+H06089)
Spectra Averaged: 2 (USB2+H06089)
Boxcar Smoothing: 2 (USB2+H06089)
Correct for Electrical Dark: No (USB2+H06089)
Strobe/Lamp Enabled: No (USB2+H06089)
Correct for Detector Non-linearity: No (USB2+H06089)
Correct for Stray Light: No (USB2+H06089)
Number of Pixels in Processed Spectrum: 2048
>>>>>Begin Processed Spectral Data<<<<<
339.70	1009.94
340.07	1009.94
340.45	992.62
340.82	978.81
341.19	955.17
341.57	939.26
341.94	925.68
342.31	910.47
342.69	909.30
343.06	902.28
343.43	892.91
343.81	891.74
344.18	908.13
344.55	909.77
344.93	914.68
345.30	922.41
345.67	933.64
346.04	939.73
346.42	946.98
346.79	960.79
347.16	970.62
347.54	969.68
347.91	970.62
348.28	966.41
348.65	967.81
349.03	974.13
349.40	977.64
349.77	986.77
350.14	1000.81
350.52	1018.13
350.89	1034.05
351.26	1048.79
351.63	1063.54
352.01	1061.90
352.38	1064.01
352.75	1053.48
353.12	1056.05
353.50	1052.07
353.87	1058.39
354.24	1056.75
354.61	1066.35
354.98	1067.05
355.36	1072.90
355.73	1073.84
356.10	1086.24
356.47	1089.52
356.84	1096.31
357.22	1087.65
357.59	1093.03
357.96	1091.16
358.33	1089.52
358.70	1082.73
359.08	1089.99
359.45	1091.16
359.82	1082.73
360.19	1069.39
360.56	1061.20
360.94	1042.47
361.31	1039.20
361.68	1043.64
362.05	1057.69
362.42	1064.01
362.79	1077.11
363.16	1074.31
363.54	1074.07
363.91	1069.39
364.28	1061.67
364.65	1075.48
365.02	1077.11
365.39	1074.07
365.76	1080.86
366.14	1089.05
366.51	1075.01
366.88	1079.46
367.25	1083.67
367.62	1080.63
367.99	1083.43
368.36	1078.75
368.73	1084.60
369.10	1082.73
369.48	1080.16
369.85	1075.24
370.22	1075.01
370.59	1062.37
370.96	1059.79
371.33	1056.28
371.70	1062.37
372.07	1072.20
372.44	1071.97
372.81	1059.33
373.18	1068.69
373.55	1068.22
373.93	1073.14
374.30	1075.01
374.67	1089.52
375.04	1080.16
375.41	1075.24
375.78	1064.24
376.15	1068.92
376.52	1064.01
376.89	1059.33
377.26	1065.88
377.63	1063.77
378.00	1059.09
378.37	1057.69
378.74	1074.31
379.11	1072.20
379.48	1081.56
379.85	1081.09
380.22	1094.67
380.59	1088.35
380.96	1086.48
381.33	1080.16
381.70	1081.09
382.07	1076.88
382.44	1077.35
382.81	1076.65
383.18	1074.07
383.55	1076.41
383.92	1073.84
384.29	1072.67
384.66	1062.37
385.03	1064.94
385.40	1062.14
385.77	1059.56
386.14	1057.69
386.51	1062.84
386.88	1069.39
387.25	1074.77
387.62	1079.22
387.99	1078.52
388.36	1082.50
388.73	1074.07
389.10	1071.73
389.46	1068.69
389.83	1075.24
390.20	1072.20
390.57	1073.60
390.94	1078.99
391.31	1079.22
391.68	1083.90
392.05	1083.43
392.42	1086.24
392.79	1074.54
393.16	1074.77
393.53	1057.69
393.89	1074.54
394.26	1071.50
394.63	1074.54
395.00	1068.22
395.37	1081.09
395.74	1063.07
396.11	1064.24
396.48	1060.50
396.84	1075.94
397.21	1072.43
397.58	1074.54
397.95	1077.11
398.32	1083.20
398.69	1067.75
399.06	1064.01
399.42	1069.16
399.79	1064.24
400.16	1066.58
400.53	1082.97
400.90	1080.39
401.27	1074.31
401.64	1075.94
402.00	1071.03
402.37	1061.43
402.74	1060.96
403.11	1072.43
403.48	1069.86
403.84	1064.71
404.21	1064.01
404.58	1069.39
404.95	1063.07
405.32	1064.94
405.68	1072.20
406.05	1069.39
406.42	1061.90
406.79	1052.77
407.16	1056.75
407.52	1059.56
407.89	1053.48
408.26	1052.30
408.63	1052.30
408.99	1055.82
409.36	1053.01
409.73	1063.77
410.10	1074.54
410.47	1078.75
410.83	1068.92
411.20	1070.33
411.57	1075.48
411.94	1076.65
412.30	1079.22
412.67	1082.73
413.04	1088.35
413.40	1087.41
413.77	1089.75
414.14	1086.71
414.51	1081.33
414.87	1076.88
415.24	1072.20
415.61	1074.77
415.97	1078.52
416.34	1084.84
416.71	1082.97
417.08	1084.84
417.44	1066.82
417.81	1068.92
418.18	1070.56
418.54	1068.92
418.91	1060.50
419.28	1071.03
419.64	1068.22
420.01	1069.62
420.38	1064.71
420.74	1072.20
421.11	1066.58
421.48	1063.77
421.84	1056.28
422.21	1070.09
422.58	1058.62
422.94	1065.65
423.31	1065.65
423.68	1068.22
424.04	1062.84
424.41	1068.69
424.77	1066.82
425.14	1076.41
425.51	1085.31
425.87	1085.31
426.24	1095.84
426.61	1095.14
426.97	1087.18
427.34	1084.14
427.70	1083.43
428.07	1076.88
428.44	1077.58
428.80	1081.56
429.17	1080.86
429.53	1086.71
429.90	1084.37
430.27	1089.52
430.63	1089.05
431.00	1085.07
431.36	1082.73
431.73	1086.24
432.09	1081.33
432.46	1078.28
432.83	1067.75
433.19	1062.84
433.56	1060.50
433.92	1054.65
434.29	1062.60
434.65	1068.69
435.02	1079.22
435.38	1075.48
435.75	1071.03
436.11	1067.99
436.48	1073.14
436.84	1059.09
437.21	1065.18
437.57	1078.28
437.94	1083.67
438.30	1089.99
438.67	1095.14
439.03	1088.12
439.40	1083.67
439.76	1085.07
440.13	1082.50
440.49	1077.58
440.86	1081.80
441.22	1089.99
441.59	1086.48
441.95	1083.67
442.32	1091.39
442.68	1100.75
443.05	1096.07
443.41	1089.05
443.78	1083.67
444.14	1075.94
444.51	1069.86
444.87	1064.24
445.24	1071.03
445.60	1070.80
445.96	1084.84
446.33	1086.24
446.69	1097.48
447.06	1093.26
447.42	1097.24
447.79	1092.33
448.15	1090.92
448.51	1081.80
448.88	1081.09
449.24	1085.54
449.61	1086.48
449.97	1093.03
450.33	1100.52
450.70	1104.03
451.06	1096.07
451.43	1093.26
451.79	1077.82
452.15	1069.62
452.52	1069.16
452.88	1077.35
453.24	1072.67
453.61	1083.43
453.97	1090.46
454.34	1088.12
454.70	1086.24
455.06	1088.35
455.43	1086.24
455.79	1084.37
456.15	1083.90
456.52	1085.31
456.88	1085.54
457.24	1086.24
457.61	1083.20
457.97	1082.50
458.33	1086.71
458.70	1081.56
459.06	1084.60
459.42	1083.90
459.79	1092.33
460.15	1083.20
460.51	1088.12
460.88	1077.58
461.24	1075.94
461.60	1067.28
461.96	1062.60
462.33	1064.48
462.69	1079.92
463.05	1086.94
463.42	1094.43
463.78	1090.46
464.14	1086.48
464.50	1071.97
464.87	1071.03
465.23	1059.56
465.59	1071.50
465.95	1076.41
466.32	1081.80
466.68	1077.58
467.04	1082.03
467.40	1077.11
467.77	1067.28
468.13	1071.97
468.49	1075.24
468.85	1066.82
469.22	1075.24
469.58	1082.73
469.94	1080.86
470.30	1067.52
470.66	1070.56
471.03	1057.22
471.39	1064.24
471.75	1063.54
472.11	1071.26
472.47	1083.67
472.84	1091.39
473.20	1087.18
473.56	1084.14
473.92	1082.50
474.28	1076.18
474.65	1077.35
475.01	1074.31
475.37	1070.56
475.73	1075.71
476.09	1073.84
476.45	1080.86
476.81	1077.35
477.18	1084.60
477.54	1084.14
477.90	1097.01
478.26	1093.50
478.62	1097.01
478.98	1095.60
479.34	1104.50
479.71	1089.99
480.07	1086.48
480.43	1087.65
480.79	1090.46
481.15	1079.69
481.51	1076.65
481.87	1075.24
482.23	1071.26
482.59	1067.05
482.96	1067.99
483.32	1075.01
483.68	1078.28
484.04	1091.39
484.40	1088.12
484.76	1090.46
485.12	1095.37
485.48	1090.22
485.84	1080.16
486.20	1091.39
486.56	1089.52
486.92	1084.60
487.28	1096.07
487.64	1099.58
488.00	1096.54
488.37	1107.54
488.73	1108.48
489.09	1096.07
489.45	1090.22
489.81	1090.22
490.17	1084.84
490.53	1096.31
490.89	1098.88
491.25	1098.65
491.61	1103.80
491.97	1103.80
492.33	1092.80
492.69	1097.71
493.05	1102.86
493.41	1089.99
493.77	1084.84
494.13	1086.24
494.49	1094.20
494.85	1097.48
495.21	1109.65
495.57	1109.88
495.93	1115.27
496.29	1101.22
496.64	1093.03
497.00	1084.60
497.36	1077.11
497.72	1067.05
498.08	1070.80
498.44	1083.67
498.80	1075.48
499.16	1080.16
499.52	1077.11
499.88	1074.31
500.24	1068.92
500.60	1078.75
500.96	1087.88
501.32	1090.46
501.68	1091.16
502.03	1082.26
502.39	1081.56
502.75	1068.69
503.11	1068.45
503.47	1065.41
503.83	1070.56
504.19	1071.26
504.55	1082.97
504.91	1092.56
505.26	1097.24
505.62	1098.41
505.98	1093.50
506.34	1082.50
506.70	1078.52
507.06	1072.67
507.42	1076.41
507.78	1075.24
508.13	1079.92
508.49	1075.24
508.85	1075.94
509.21	1067.99
509.57	1071.97
509.93	1074.54
510.28	1072.90
510.64	1073.60
511.00	1067.99
511.36	1083.20
511.72	1086.24
512.07	1092.80
512.43	1104.26
512.79	1111.99
513.15	1102.86
513.51	1102.39
513.86	1105.20
514.22	1107.07
514.58	1105.20
514.94	1106.14
515.30	1103.56
515.65	1095.14
516.01	1082.50
516.37	1081.09
516.73	1075.48
517.08	1083.20
517.44	1087.41
517.80	1093.50
518.16	1098.18
518.51	1094.43
518.87	1090.69
519.23	1091.39
519.59	1087.18
519.94	1090.46
520.30	1098.18
520.66	1092.33
521.01	1094.67
521.37	1093.73
521.73	1097.71
522.09	1093.26
522.44	1104.97
522.80	1104.97
523.16	1108.95
523.51	1093.73
523.87	1086.71
524.23	1075.94
524.58	1072.20
524.94	1070.33
525.30	1073.37
525.65	1082.97
526.01	1072.20
526.37	1078.75
526.72	1084.37
527.08	1095.60
527.44	1096.31
527.79	1109.65
528.15	1104.03
528.51	1097.48
528.86	1084.60
529.22	1084.14
529.58	1084.14
529.93	1087.65
530.29	1086.48
530.65	1093.97
531.00	1092.80
531.36	1091.16
531.71	1082.97
532.07	1092.33
532.43	1088.12
532.78	1086.24
533.14	1086.01
533.49	1089.52
533.85	1085.54
534.21	1080.86
534.56	1078.28
534.92	1077.82
535.27	1073.60
535.63	1068.69
535.98	1070.80
536.34	1071.73
536.69	1066.82
537.05	1068.69
537.41	1069.16
537.76	1075.94
538.12	1083.67
538.47	1098.41
538.83	1100.29
539.18	1113.16
539.54	1115.73
539.89	1110.82
540.25	1101.22
540.60	1104.03
540.96	1093.50
541.31	1080.16
541.67	1085.31
542.02	1083.90
542.38	1078.28
542.73	1083.90
543.09	1097.48
543.44	1095.84
543.80	1095.37
544.15	1090.92
544.51	1089.75
544.86	1086.71
545.22	1090.69
545.57	1099.58
545.93	1106.61
546.28	1105.90
546.64	1099.82
546.99	1090.69
547.35	1085.07
547.70	1081.80
548.05	1085.31
548.41	1100.52
548.76	1099.58
549.12	1096.07
549.47	1102.16
549.83	1087.18
550.18	1074.54
550.53	1067.28
550.89	1071.03
551.24	1063.54
551.60	1073.37
551.95	1076.88
552.30	1087.88
552.66	1074.07
553.01	1085.54
553.37	1081.33
553.72	1079.22
554.07	1076.88
554.43	1090.69
554.78	1087.88
555.13	1096.78
555.49	1107.07
555.84	1111.52
556.19	1109.18
556.55	1110.58
556.90	1099.82
557.26	1095.84
557.61	1082.73
557.96	1086.94
558.32	1087.18
558.67	1086.24
559.02	1083.90
559.37	1096.07
559.73	1097.48
560.08	1097.95
560.43	1104.97
560.79	1104.26
561.14	1102.63
561.49	1095.37
561.85	1085.77
562.20	1078.99
562.55	1083.20
562.90	1073.84
563.26	1079.46
563.61	1075.01
563.96	1080.86
564.32	1075.48
564.67	1088.35
565.02	1089.75
565.37	1101.22
565.73	1100.29
566.08	1097.24
566.43	1098.88
566.78	1087.65
567.14	1081.80
567.49	1080.16
567.84	1071.03
568.19	1068.69
568.54	1072.43
568.90	1070.56
569.25	1064.71
569.60	1071.73
569.95	1063.31
570.31	1063.07
570.66	1065.41
571.01	1082.50
571.36	1076.18
571.71	1084.14
572.06	1079.46
572.42	1080.39
572.77	1071.03
573.12	1072.43
573.47	1075.24
573.82	1083.90
574.18	1077.58
574.53	1081.80
574.88	1089.99
575.23	1085.54
575.58	1079.69
575.93	1092.80
576.28	1100.29
576.64	1091.86
576.99	1099.35
577.34	1103.80
577.69	1089.29
578.04	1077.82
578.39	1077.35
578.74	1069.86
579.09	1073.37
579.44	1085.77
579.80	1076.18
580.15	1089.99
580.50	1084.60
580.85	1095.60
581.20	1091.39
581.55	1099.82
581.90	1098.18
582.25	1100.99
582.60	1087.88
582.95	1087.41
583.30	1086.24
583.65	1079.69
584.00	1077.82
584.35	1071.26
584.71	1066.11
585.06	1078.28
585.41	1075.71
585.76	1075.94
586.11	1083.20
586.46	1085.77
586.81	1067.05
587.16	1072.67
587.51	1075.01
587.86	1069.16
588.21	1069.16
588.56	1074.54
588.91	1075.71
589.26	1071.50
589.61	1079.46
589.96	1081.09
590.31	1083.20
590.66	1067.99
591.01	1068.92
591.36	1063.77
591.71	1067.05
592.06	1068.69
592.41	1074.07
592.76	1078.05
593.10	1075.24
593.45	1072.43
593.80	1076.41
594.15	1086.94
594.50	1084.37
594.85	1089.99
595.20	1093.03
595.55	1085.31
595.90	1083.90
596.25	1085.07
596.60	1084.14
596.95	1093.03
597.30	1087.88
597.64	1132.59
597.99	1131.41
598.34	1134.46
598.69	1121.58
599.04	1123.46
599.39	1066.82
599.74	1071.26
600.09	1069.62
600.44	1073.14
600.78	1083.43
601.13	1092.56
601.48	1089.99
601.83	1093.26
602.18	1087.18
602.53	1082.73
602.88	1080.39
603.22	1080.16
603.57	1072.90
603.92	1078.99
604.27	1076.88
604.62	1082.73
604.97	1087.41
605.31	1091.86
605.66	1089.52
606.01	1091.16
606.36	1097.95
606.71	1096.54
607.05	1092.80
607.40	1098.18
607.75	1094.43
608.10	1080.16
608.44	1079.46
608.79	1081.80
609.14	1079.92
609.49	1089.29
609.84	1098.41
610.18	1099.35
610.53	1097.95
610.88	1102.16
611.23	1106.61
611.57	1112.46
611.92	1102.39
612.27	1106.37
612.62	1092.33
612.96	1081.80
613.31	1072.90
613.66	1081.33
614.00	1072.43
614.35	1079.46
614.70	1077.11
615.05	1082.73
615.39	1074.31
615.74	1077.35
616.09	1075.71
616.43	1073.84
616.78	1061.90
617.13	1066.82
617.47	1063.31
617.82	1064.01
618.17	1067.05
618.51	1068.69
618.86	1067.05
619.21	1071.73
619.55	1071.26
619.90	1069.86
620.25	1074.54
620.59	1075.24
620.94	1077.11
621.29	1071.73
621.63	1068.45
621.98	1074.77
622.32	1074.07
622.67	1066.58
623.02	1079.22
623.36	1090.92
623.71	1084.14
624.05	1083.90
624.40	1102.39
624.75	1095.84
625.09	1088.58
625.44	1101.22
625.78	1106.61
626.13	1093.73
626.48	1094.90
626.82	1095.60
627.17	1081.80
627.51	1074.77
627.86	1072.20
628.20	1070.56
628.55	1066.58
628.89	1065.41
629.24	1064.71
629.58	1073.60
629.93	1073.60
630.28	1074.54
630.62	1076.65
630.97	1079.69
631.31	1074.31
631.66	1077.35
632.00	1082.50
632.35	1092.33
632.69	1101.22
633.04	1100.29
633.38	1099.58
633.73	1101.46
634.07	1085.31
634.42	1070.33
634.76	1074.07
635.11	1079.46
635.45	1076.41
635.79	1084.84
636.14	1090.92
636.48	1074.31
636.83	1060.03
637.17	1048.79
637.52	1044.35
637.86	1049.73
638.21	1061.20
638.55	1071.26
638.89	1075.01
639.24	1081.09
639.58	1079.69
639.93	1070.56
640.27	1072.90
640.61	1085.54
640.96	1077.82
641.30	1072.20
641.65	1082.03
641.99	1069.62
642.33	1066.82
642.68	1072.43
643.02	1080.86
643.37	1086.48
643.71	1095.14
644.05	1099.82
644.40	1098.88
644.74	1097.95
645.08	1094.90
645.43	1092.09
645.77	1083.90
646.11	1086.01
646.46	1085.54
646.80	1082.50
647.14	1083.90
647.49	1083.20
647.83	1085.31
648.17	1082.03
648.52	1081.09
648.86	1081.09
649.20	1093.26
649.55	1085.54
649.89	1089.05
650.23	1089.99
650.57	1092.09
650.92	1083.67
651.26	1082.26
651.60	1076.65
651.95	1089.99
652.29	1094.90
652.63	1091.16
652.97	1092.56
653.32	1098.41
653.66	1086.48
654.00	1077.35
654.34	1074.07
654.69	1072.43
655.03	1063.07
655.37	1064.71
655.71	1064.94
656.05	1069.62
656.40	1070.09
656.74	1072.20
657.08	1069.16
657.42	1066.35
657.76	1064.71
658.11	1063.07
658.45	1066.11
658.79	1062.37
659.13	1072.67
659.47	1069.62
659.82	1071.26
660.16	1078.99
660.50	1084.60
660.84	1078.75
661.18	1089.05
661.52	1087.65
661.87	1078.99
662.21	1080.86
662.55	1081.56
662.89	1068.45
663.23	1076.18
663.57	1079.92
663.91	1079.22
664.25	1074.77
664.60	1088.82
664.94	1085.31
665.28	1086.48
665.62	1085.54
665.96	1079.22
666.30	1068.69
666.64	1068.69
666.98	1069.62
667.32	1074.31
667.66	1086.01
668.01	1090.46
668.35	1097.24
668.69	1091.63
669.03	1089.29
669.37	1086.01
669.71	1085.31
670.05	1085.54
670.39	1087.65
670.73	1086.94
671.07	1093.73
671.41	1090.22
671.75	1082.73
672.09	1089.05
672.43	1088.12
672.77	1084.14
673.11	1083.90
673.45	1078.52
673.79	1067.05
674.13	1064.01
674.47	1054.88
674.81	1055.58
675.15	1064.01
675.49	1066.35
675.83	1071.03
676.17	1085.77
676.51	1092.56
676.85	1095.84
677.19	1103.56
677.53	1100.29
677.87	1096.78
678.21	1102.63
678.55	1097.24
678.89	1099.58
679.23	1105.67
679.57	1102.86
679.90	1094.90
680.24	1099.12
680.58	1095.60
680.92	1085.07
681.26	1083.43
681.60	1084.37
681.94	1075.01
682.28	1068.69
682.62	1067.99
682.96	1071.03
683.29	1067.99
683.63	1072.43
683.97	1077.58
684.31	1079.46
684.65	1084.60
684.99	1073.84
685.33	1072.90
685.67	1059.79
686.00	1061.20
686.34	1052.77
686.68	1063.77
687.02	1066.82
687.36	1086.01
687.70	1086.71
688.03	1089.29
688.37	1091.39
688.71	1087.41
689.05	1075.48
689.39	1079.69
689.72	1082.97
690.06	1077.35
690.40	1078.99
690.74	1076.41
691.08	1078.52
691.41	1071.26
691.75	1074.77
692.09	1079.69
692.43	1079.46
692.76	1082.97
693.10	1079.46
693.44	1080.63
693.78	1076.18
694.11	1082.26
694.45	1078.52
694.79	1085.31
695.13	1080.86
695.46	1082.26
695.80	1073.37
696.14	1056.99
696.48	1057.69
696.81	1056.05
697.15	1056.52
697.49	1070.33
697.82	1082.03
698.16	1082.97
698.50	1084.14
698.83	1086.71
699.17	1077.11
699.51	1070.33
699.84	1066.11
700.18	1076.88
700.52	1076.41
700.85	1089.05
701.19	1091.39
701.53	1090.92
701.86	1078.28
702.20	1079.22
702.54	1077.58
702.87	1088.12
703.21	1096.78
703.55	1109.65
703.88	1095.60
704.22	1083.90
704.55	1076.65
704.89	1071.73
705.23	1070.33
705.56	1086.94
705.90	1092.33
706.23	1084.14
706.57	1087.88
706.91	1086.94
707.24	1083.67
707.58	1077.58
707.91	1083.43
708.25	1073.14
708.58	1065.41
708.92	1069.62
709.26	1077.11
709.59	1076.65
709.93	1085.07
710.26	1086.48
710.60	1075.94
710.93	1067.28
711.27	1073.60
711.60	1070.33
711.94	1078.52
712.27	1082.73
712.61	1093.03
712.94	1088.35
713.28	1087.18
713.61	1082.50
713.95	1075.01
714.28	1075.48
714.62	1074.07
714.95	1067.52
715.29	1066.35
715.62	1073.14
715.96	1067.99
716.29	1074.07
716.63	1085.07
716.96	1082.97
717.29	1074.77
717.63	1077.11
717.96	1079.69
718.30	1073.14
718.63	1069.86
718.97	1081.33
719.30	1073.84
719.63	1057.69
719.97	1059.33
720.30	1063.07
720.64	1060.50
720.97	1059.33
721.30	1078.52
721.64	1076.88
721.97	1068.45
722.31	1071.26
722.64	1087.88
722.97	1075.01
723.31	1079.69
723.64	1098.65
723.97	1092.09
724.31	1075.94
724.64	1084.14
724.98	1081.56
725.31	1074.07
725.64	1075.71
725.98	1095.84
726.31	1087.18
726.64	1094.67
726.97	1099.35
727.31	1103.56
727.64	1095.84
727.97	1103.80
728.31	1105.44
728.64	1095.60
728.97	1081.33
729.31	1077.58
729.64	1077.35
729.97	1066.11
730.30	1066.58
730.64	1083.20
730.97	1082.03
731.30	1077.35
731.63	1079.69
731.97	1089.52
732.30	1089.29
732.63	1093.97
732.96	1103.33
733.30	1106.37
733.63	1099.35
733.96	1095.14
734.29	1092.56
734.63	1082.50
734.96	1081.56
735.29	1085.54
735.62	1086.01
735.95	1082.73
736.29	1091.86
736.62	1092.09
736.95	1089.99
737.28	1082.97
737.61	1082.03
737.94	1077.35
738.28	1067.75
738.61	1071.50
738.94	1077.35
739.27	1083.67
739.60	1078.75
739.93	1093.03
740.27	1074.77
740.60	1074.54
740.93	1071.50
741.26	1075.24
741.59	1074.54
741.92	1083.20
742.25	1086.24
742.58	1079.92
742.91	1079.46
743.25	1069.62
743.58	1074.77
743.91	1077.58
744.24	1083.20
744.57	1079.46
744.90	1090.46
745.23	1084.37
745.56	1078.28
745.89	1070.33
746.22	1069.86
746.55	1061.67
746.88	1062.60
747.21	1052.54
747.54	1057.69
747.87	1064.71
748.20	1072.20
748.53	1079.69
748.87	1091.16
749.20	1092.56
749.53	1093.03
749.86	1087.41
750.19	1080.39
750.52	1075.71
750.85	1075.94
751.18	1077.11
751.51	1073.60
751.84	1081.09
752.16	1074.54
752.49	1071.50
752.82	1079.92
753.15	1081.09
753.48	1077.82
753.81	1092.33
754.14	1097.71
754.47	1086.01
754.80	1091.86
755.13	1092.56
755.46	1096.07
755.79	1092.80
756.12	1100.29
756.45	1099.58
756.78	1102.39
757.11	1099.82
757.43	1095.84
757.76	1082.03
758.09	1075.01
758.42	1078.99
758.75	1073.14
759.08	1073.14
759.41	1080.39
759.74	1083.67
760.07	1083.20
760.39	1082.50
760.72	1085.54
761.05	1087.18
761.38	1087.41
761.71	1086.48
762.04	1086.94
762.36	1084.84
762.69	1065.41
763.02	1058.62
763.35	1046.22
763.68	1045.05
764.01	1039.90
764.33	1055.35
764.66	1062.60
764.99	1076.88
765.32	1074.54
765.65	1087.65
765.97	1081.56
766.30	1089.29
