SpectraSuite Data File
++++++++++++++++++++++++++++++++++++
Date: Mon Aug 26 10:25:48 PDT 2019
User: corrico
Dark Spectrum Present: No
Reference Spectrum Present: No
Number of Sampled Component Spectra: 1
Spectrometers: USB2+H06089
Integration Time (usec): 10000 (USB2+H06089)
Spectra Averaged: 2 (USB2+H06089)
Boxcar Smoothing: 2 (USB2+H06089)
Correct for Electrical Dark: No (USB2+H06089)
Strobe/Lamp Enabled: No (USB2+H06089)
Correct for Detector Non-linearity: No (USB2+H06089)
Correct for Stray Light: No (USB2+H06089)
Number of Pixels in Processed Spectrum: 2048
>>>>>Begin Processed Spectral Data<<<<<
339.70	1069.62
340.07	1069.62
340.45	1025.15
340.82	1000.58
341.19	969.45
341.57	936.45
341.94	929.89
342.31	908.60
342.69	898.06
343.06	889.40
343.43	895.25
343.81	897.13
344.18	905.09
344.55	913.28
344.93	933.87
345.30	930.36
345.67	931.53
346.04	941.83
346.42	949.09
346.79	942.53
347.16	950.49
347.54	964.07
347.91	970.85
348.28	975.77
348.65	987.00
349.03	995.20
349.40	996.60
349.77	1000.58
350.14	1015.32
350.52	1017.43
350.89	1024.92
351.26	1026.32
351.63	1027.73
352.01	1019.07
352.38	1033.11
352.75	1041.54
353.12	1046.22
353.50	1050.67
353.87	1054.88
354.24	1056.75
354.61	1051.37
354.98	1068.22
355.36	1075.94
355.73	1079.92
356.10	1082.50
356.47	1086.71
356.84	1079.92
357.22	1076.88
357.59	1077.82
357.96	1073.84
358.33	1074.07
358.70	1067.75
359.08	1069.39
359.45	1067.52
359.82	1063.54
360.19	1068.45
360.56	1086.48
360.94	1083.67
361.31	1078.99
361.68	1085.54
362.05	1078.28
362.42	1066.58
362.79	1062.37
363.16	1073.14
363.54	1068.45
363.91	1067.52
364.28	1063.31
364.65	1071.73
365.02	1071.03
365.39	1082.97
365.76	1083.20
366.14	1085.07
366.51	1084.37
366.88	1078.28
367.25	1068.22
367.62	1073.60
367.99	1069.62
368.36	1063.54
368.73	1066.35
369.10	1060.26
369.48	1054.65
369.85	1059.33
370.22	1068.45
370.59	1068.92
370.96	1067.99
371.33	1071.97
371.70	1067.05
372.07	1060.96
372.44	1060.73
372.81	1070.56
373.18	1068.69
373.55	1069.39
373.93	1081.09
374.30	1080.16
374.67	1079.69
375.04	1082.03
375.41	1076.88
375.78	1068.45
376.15	1065.18
376.52	1059.79
376.89	1060.26
377.26	1067.52
377.63	1063.77
378.00	1060.26
378.37	1059.56
378.74	1062.60
379.11	1059.79
379.48	1064.48
379.85	1070.80
380.22	1078.75
380.59	1070.33
380.96	1061.20
381.33	1061.67
381.70	1065.65
382.07	1062.84
382.44	1070.80
382.81	1081.33
383.18	1074.77
383.55	1069.16
383.92	1071.03
384.29	1078.52
384.66	1089.05
385.03	1089.75
385.40	1095.14
385.77	1087.18
386.14	1086.94
386.51	1086.24
386.88	1089.75
387.25	1091.86
387.62	1100.75
387.99	1099.58
388.36	1093.73
388.73	1086.94
389.10	1075.71
389.46	1072.20
389.83	1056.52
390.20	1063.77
390.57	1076.18
390.94	1084.84
391.31	1090.22
391.68	1094.20
392.05	1082.03
392.42	1078.52
392.79	1075.01
393.16	1070.33
393.53	1072.20
393.89	1071.73
394.26	1075.48
394.63	1079.22
395.00	1070.80
395.37	1078.05
395.74	1080.86
396.11	1075.94
396.48	1080.39
396.84	1090.46
397.21	1082.03
397.58	1083.67
397.95	1080.39
398.32	1073.84
398.69	1068.92
399.06	1067.05
399.42	1069.16
399.79	1069.86
400.16	1072.20
400.53	1074.77
400.90	1075.24
401.27	1079.92
401.64	1083.20
402.00	1085.31
402.37	1081.80
402.74	1088.58
403.11	1084.37
403.48	1084.37
403.84	1072.67
404.21	1071.50
404.58	1063.54
404.95	1067.52
405.32	1062.84
405.68	1065.18
406.05	1069.62
406.42	1079.92
406.79	1071.73
407.16	1078.75
407.52	1071.26
407.89	1063.07
408.26	1053.71
408.63	1058.16
408.99	1047.86
409.36	1053.94
409.73	1060.50
410.10	1068.22
410.47	1064.94
410.83	1076.88
411.20	1079.46
411.57	1074.77
411.94	1069.62
412.30	1065.41
412.67	1053.94
413.04	1061.43
413.40	1069.62
413.77	1078.52
414.14	1080.39
414.51	1083.67
414.87	1075.48
415.24	1071.50
415.61	1067.05
415.97	1065.18
416.34	1068.69
416.71	1082.97
417.08	1090.22
417.44	1084.14
417.81	1089.29
418.18	1096.78
418.54	1079.46
418.91	1071.97
419.28	1073.84
419.64	1067.75
420.01	1058.62
420.38	1062.14
420.74	1053.24
421.11	1056.28
421.48	1068.22
421.84	1064.94
422.21	1067.28
422.58	1077.35
422.94	1078.52
423.31	1077.11
423.68	1072.67
424.04	1068.22
424.41	1063.54
424.77	1059.56
425.14	1055.11
425.51	1054.41
425.87	1066.58
426.24	1070.80
426.61	1070.56
426.97	1068.22
427.34	1071.97
427.70	1066.35
428.07	1065.65
428.44	1063.31
428.80	1065.88
429.17	1062.84
429.53	1058.86
429.90	1055.82
430.27	1054.18
430.63	1056.05
431.00	1067.05
431.36	1072.67
431.73	1073.14
432.09	1081.33
432.46	1078.75
432.83	1071.73
433.19	1071.26
433.56	1084.14
433.92	1082.03
434.29	1082.73
434.65	1083.20
435.02	1088.12
435.38	1075.71
435.75	1080.86
436.11	1089.52
436.48	1096.78
436.84	1080.16
437.21	1086.48
437.57	1083.90
437.94	1066.11
438.30	1064.94
438.67	1080.39
439.03	1079.69
439.40	1085.07
439.76	1097.71
440.13	1100.75
440.49	1088.58
440.86	1084.60
441.22	1084.37
441.59	1084.14
441.95	1077.11
442.32	1082.97
442.68	1090.46
443.05	1087.18
443.41	1088.82
443.78	1098.65
444.14	1105.67
444.51	1101.69
444.87	1095.14
445.24	1088.58
445.60	1066.58
445.96	1062.37
446.33	1069.16
446.69	1069.39
447.06	1073.84
447.42	1084.14
447.79	1087.41
448.15	1069.86
448.51	1066.35
448.88	1061.67
449.24	1067.28
449.61	1064.01
449.97	1063.31
450.33	1065.18
450.70	1068.45
451.06	1061.43
451.43	1063.07
451.79	1069.16
452.15	1069.86
452.52	1067.75
452.88	1074.77
453.24	1068.45
453.61	1063.31
453.97	1067.05
454.34	1071.26
454.70	1075.48
455.06	1067.75
455.43	1071.26
455.79	1062.84
456.15	1069.39
456.52	1062.37
456.88	1068.22
457.24	1078.99
457.61	1090.46
457.97	1088.82
458.33	1086.71
458.70	1093.50
459.06	1088.12
459.42	1076.41
459.79	1067.28
460.15	1074.54
460.51	1064.24
460.88	1063.54
461.24	1070.09
461.60	1073.60
461.96	1069.62
462.33	1078.52
462.69	1079.69
463.05	1087.18
463.42	1083.43
463.78	1081.33
464.14	1074.07
464.50	1073.14
464.87	1066.82
465.23	1064.94
465.59	1068.22
465.95	1072.43
466.32	1076.41
466.68	1075.94
467.04	1079.22
467.40	1073.60
467.77	1071.26
468.13	1075.48
468.49	1075.01
468.85	1067.52
469.22	1074.77
469.58	1076.88
469.94	1063.07
470.30	1061.20
470.66	1070.09
471.03	1062.84
471.39	1074.31
471.75	1074.54
472.11	1077.82
472.47	1073.37
472.84	1075.01
473.20	1054.41
473.56	1056.99
473.92	1053.48
474.28	1064.94
474.65	1062.60
475.01	1074.31
475.37	1080.16
475.73	1083.67
476.09	1073.37
476.45	1080.39
476.81	1080.63
477.18	1079.69
477.54	1079.92
477.90	1075.01
478.26	1079.92
478.62	1085.31
478.98	1079.22
479.34	1083.20
479.71	1082.03
480.07	1071.26
480.43	1068.45
480.79	1075.94
481.15	1075.01
481.51	1078.28
481.87	1084.14
482.23	1085.77
482.59	1078.52
482.96	1064.24
483.32	1068.92
483.68	1069.62
484.04	1067.05
484.40	1061.90
484.76	1072.20
485.12	1077.82
485.48	1074.54
485.84	1070.56
486.20	1080.63
486.56	1076.65
486.92	1072.90
487.28	1078.28
487.64	1088.12
488.00	1077.82
488.37	1083.67
488.73	1077.82
489.09	1069.39
489.45	1056.28
489.81	1070.56
490.17	1068.45
490.53	1080.86
490.89	1082.26
491.25	1085.54
491.61	1082.26
491.97	1076.18
492.33	1073.60
492.69	1083.43
493.05	1089.05
493.41	1088.82
493.77	1095.60
494.13	1089.99
494.49	1080.86
494.85	1076.41
495.21	1072.67
495.57	1070.56
495.93	1078.99
496.29	1082.73
496.64	1090.92
497.00	1095.84
497.36	1096.31
497.72	1085.54
498.08	1084.60
498.44	1074.31
498.80	1068.22
499.16	1067.28
499.52	1066.11
499.88	1065.65
500.24	1058.86
500.60	1061.43
500.96	1068.22
501.32	1066.35
501.68	1070.80
502.03	1083.20
502.39	1078.99
502.75	1068.45
503.11	1079.22
503.47	1080.86
503.83	1082.26
504.19	1082.50
504.55	1086.48
504.91	1088.58
505.26	1086.71
505.62	1088.58
505.98	1097.95
506.34	1102.39
506.70	1093.50
507.06	1090.22
507.42	1081.56
507.78	1077.58
508.13	1065.88
508.49	1072.43
508.85	1068.69
509.21	1065.65
509.57	1064.01
509.93	1080.86
510.28	1071.73
510.64	1075.48
511.00	1078.05
511.36	1070.56
511.72	1068.22
512.07	1068.45
512.43	1068.45
512.79	1080.63
513.15	1084.14
513.51	1079.69
513.86	1082.97
514.22	1086.24
514.58	1083.43
514.94	1082.03
515.30	1086.24
515.65	1088.35
516.01	1078.99
516.37	1077.58
516.73	1090.22
517.08	1086.48
517.44	1087.65
517.80	1093.50
518.16	1096.54
518.51	1091.39
518.87	1095.37
519.23	1085.54
519.59	1081.09
519.94	1080.39
520.30	1078.05
520.66	1086.48
521.01	1096.07
521.37	1104.50
521.73	1094.67
522.09	1094.20
522.44	1074.31
522.80	1073.37
523.16	1067.52
523.51	1078.75
523.87	1076.65
524.23	1078.75
524.58	1082.50
524.94	1087.65
525.30	1083.20
525.65	1082.97
526.01	1085.77
526.37	1086.24
526.72	1075.01
527.08	1074.77
527.44	1077.35
527.79	1077.58
528.15	1078.05
528.51	1079.92
528.86	1084.37
529.22	1095.14
529.58	1101.22
529.93	1087.88
530.29	1091.16
530.65	1085.77
531.00	1077.11
531.36	1070.80
531.71	1075.24
532.07	1079.92
532.43	1085.07
532.78	1088.35
533.14	1087.18
533.49	1083.90
533.85	1076.41
534.21	1066.35
534.56	1065.41
534.92	1072.90
535.27	1081.56
535.63	1089.99
535.98	1088.12
536.34	1091.39
536.69	1092.09
537.05	1092.33
537.41	1099.12
537.76	1104.97
538.12	1094.20
538.47	1083.67
538.83	1082.03
539.18	1071.73
539.54	1064.01
539.89	1064.71
540.25	1069.86
540.60	1062.14
540.96	1072.67
541.31	1086.01
541.67	1097.71
542.02	1100.75
542.38	1106.14
542.73	1104.73
543.09	1094.20
543.44	1090.22
543.80	1092.80
544.15	1091.39
544.51	1079.22
544.86	1092.33
545.22	1092.56
545.57	1082.50
545.93	1079.22
546.28	1084.60
546.64	1068.22
546.99	1061.67
547.35	1063.54
547.70	1069.16
548.05	1064.71
548.41	1075.71
548.76	1072.43
549.12	1070.56
549.47	1070.33
549.83	1074.07
550.18	1076.41
550.53	1085.07
550.89	1089.52
551.24	1098.88
551.60	1090.69
551.95	1093.50
552.30	1092.80
552.66	1087.65
553.01	1071.26
553.37	1078.05
553.72	1076.65
554.07	1078.52
554.43	1082.26
554.78	1101.46
555.13	1112.92
555.49	1105.67
555.84	1104.50
556.19	1105.90
556.55	1090.46
556.90	1080.16
557.26	1072.90
557.61	1071.73
557.96	1072.43
558.32	1074.07
558.67	1080.39
559.02	1089.99
559.37	1086.01
559.73	1083.90
560.08	1087.18
560.43	1077.82
560.79	1064.24
561.14	1071.26
561.49	1079.46
561.85	1079.69
562.20	1092.09
562.55	1103.56
562.90	1101.92
563.26	1095.84
563.61	1086.94
563.96	1077.58
564.32	1072.67
564.67	1069.86
565.02	1067.28
565.37	1077.82
565.73	1079.22
566.08	1073.14
566.43	1070.33
566.78	1072.43
567.14	1065.65
567.49	1070.80
567.84	1094.67
568.19	1099.12
568.54	1098.41
568.90	1103.56
569.25	1100.52
569.60	1087.88
569.95	1084.14
570.31	1083.67
570.66	1080.39
571.01	1072.43
571.36	1069.86
571.71	1071.73
572.06	1075.94
572.42	1077.82
572.77	1092.80
573.12	1100.52
573.47	1097.71
573.82	1097.71
574.18	1096.07
574.53	1083.67
574.88	1070.56
575.23	1071.26
575.58	1071.73
575.93	1083.20
576.28	1076.88
576.64	1082.97
576.99	1080.39
577.34	1077.82
577.69	1074.54
578.04	1082.97
578.39	1084.37
578.74	1085.54
579.09	1082.03
579.44	1074.07
579.80	1076.65
580.15	1073.14
580.50	1078.52
580.85	1081.56
581.20	1085.31
581.55	1089.75
581.90	1099.35
582.25	1097.24
582.60	1089.99
582.95	1091.16
583.30	1084.14
583.65	1084.60
584.00	1089.75
584.35	1087.88
584.71	1081.80
585.06	1079.69
585.41	1065.88
585.76	1068.92
586.11	1079.22
586.46	1081.80
586.81	1079.92
587.16	1086.48
587.51	1073.84
587.86	1074.54
588.21	1073.84
588.56	1072.67
588.91	1075.48
589.26	1078.75
589.61	1069.39
589.96	1068.69
590.31	1076.88
590.66	1077.11
591.01	1080.63
591.36	1086.48
591.71	1089.05
592.06	1081.56
592.41	1078.99
592.76	1072.67
593.10	1076.65
593.45	1071.97
593.80	1075.01
594.15	1074.77
594.50	1077.58
594.85	1080.39
595.20	1086.48
595.55	1089.75
595.90	1088.35
596.25	1096.78
596.60	1095.84
596.95	1100.29
597.30	1102.39
597.64	1151.54
597.99	1152.25
598.34	1145.22
598.69	1142.88
599.04	1133.76
599.39	1086.71
599.74	1080.39
600.09	1087.41
600.44	1088.82
600.78	1100.75
601.13	1100.75
601.48	1098.41
601.83	1090.69
602.18	1085.31
602.53	1078.99
602.88	1077.82
603.22	1078.28
603.57	1076.41
603.92	1076.65
604.27	1070.33
604.62	1077.58
604.97	1071.73
605.31	1070.56
605.66	1073.14
606.01	1073.84
606.36	1071.73
606.71	1077.82
607.05	1074.77
607.40	1067.99
607.75	1074.77
608.10	1073.37
608.44	1073.37
608.79	1085.31
609.14	1096.07
609.49	1100.52
609.84	1098.65
610.18	1105.90
610.53	1100.29
610.88	1086.01
611.23	1083.20
611.57	1080.63
611.92	1074.31
612.27	1078.75
612.62	1079.92
612.96	1077.82
613.31	1079.92
613.66	1076.41
614.00	1067.28
614.35	1075.94
614.70	1069.16
615.05	1069.16
615.39	1079.92
615.74	1091.86
616.09	1093.03
616.43	1092.56
616.78	1095.60
617.13	1090.69
617.47	1083.90
617.82	1079.92
618.17	1089.75
618.51	1080.63
618.86	1073.84
619.21	1081.33
619.55	1079.92
619.90	1078.28
620.25	1087.65
620.59	1083.90
620.94	1076.88
621.29	1080.86
621.63	1088.12
621.98	1086.01
622.32	1091.39
622.67	1097.01
623.02	1086.94
623.36	1073.84
623.71	1068.45
624.05	1072.20
624.40	1067.28
624.75	1078.05
625.09	1077.35
625.44	1079.92
625.78	1089.52
626.13	1094.20
626.48	1097.01
626.82	1116.44
627.17	1115.97
627.51	1104.73
627.86	1097.01
628.20	1089.99
628.55	1073.14
628.89	1059.79
629.24	1054.41
629.58	1060.73
629.93	1061.43
630.28	1065.65
630.62	1072.20
630.97	1086.01
631.31	1080.63
631.66	1076.41
632.00	1067.05
632.35	1077.82
632.69	1066.11
633.04	1074.31
633.38	1079.92
633.73	1078.99
634.07	1071.50
634.42	1075.94
634.76	1065.41
635.11	1063.77
635.45	1065.41
635.79	1075.01
636.14	1070.80
636.48	1069.16
636.83	1064.48
637.17	1061.90
637.52	1048.56
637.86	1056.52
638.21	1056.99
638.55	1066.82
638.89	1069.62
639.24	1083.20
639.58	1077.35
639.93	1076.41
640.27	1063.54
640.61	1070.80
640.96	1063.54
641.30	1065.65
641.65	1070.56
641.99	1076.65
642.33	1083.90
642.68	1089.52
643.02	1100.99
643.37	1104.97
643.71	1105.90
644.05	1105.44
644.40	1109.41
644.74	1103.33
645.08	1095.60
645.43	1101.92
645.77	1091.63
646.11	1087.65
646.46	1082.03
646.80	1082.50
647.14	1077.58
647.49	1086.24
647.83	1076.88
648.17	1079.22
648.52	1085.54
648.86	1085.77
649.20	1075.24
649.55	1070.09
649.89	1061.20
650.23	1063.07
650.57	1058.16
650.92	1063.07
651.26	1074.77
651.60	1074.77
651.95	1072.67
652.29	1086.24
652.63	1080.16
652.97	1078.28
653.32	1081.56
653.66	1083.20
654.00	1077.11
654.34	1078.99
654.69	1076.41
655.03	1088.35
655.37	1074.54
655.71	1066.11
656.05	1062.84
656.40	1068.92
656.74	1061.43
657.08	1071.50
657.42	1069.62
657.76	1068.92
658.11	1064.48
658.45	1058.16
658.79	1062.60
659.13	1064.94
659.47	1077.35
659.82	1083.67
660.16	1093.26
660.50	1099.58
660.84	1103.33
661.18	1103.33
661.52	1100.29
661.87	1100.05
662.21	1091.39
662.55	1092.09
662.89	1089.52
663.23	1090.92
663.57	1092.33
663.91	1090.46
664.25	1087.88
664.60	1082.26
664.94	1090.22
665.28	1083.90
665.62	1086.71
665.96	1085.54
666.30	1090.22
666.64	1070.56
666.98	1067.75
667.32	1071.26
667.66	1077.58
668.01	1073.37
668.35	1078.99
668.69	1082.73
669.03	1078.75
669.37	1075.48
669.71	1076.41
670.05	1081.33
670.39	1084.60
670.73	1083.43
671.07	1084.37
671.41	1087.65
671.75	1084.84
672.09	1080.16
672.43	1080.86
672.77	1082.26
673.11	1085.31
673.45	1091.16
673.79	1096.78
674.13	1089.05
674.47	1084.37
674.81	1080.86
675.15	1078.05
675.49	1078.52
675.83	1087.65
676.17	1090.22
676.51	1089.75
676.85	1086.71
677.19	1086.01
677.53	1086.01
677.87	1086.24
678.21	1088.12
678.55	1086.01
678.89	1074.54
679.23	1064.71
679.57	1062.84
679.90	1059.79
680.24	1065.65
680.58	1069.16
680.92	1071.50
681.26	1070.80
681.60	1080.39
681.94	1075.48
682.28	1084.84
682.62	1094.67
682.96	1099.12
683.29	1094.67
683.63	1099.82
683.97	1092.09
684.31	1082.26
684.65	1078.05
684.99	1068.45
685.33	1060.03
685.67	1058.86
686.00	1065.41
686.34	1059.33
686.68	1054.88
687.02	1060.50
687.36	1067.52
687.70	1067.05
688.03	1076.18
688.37	1082.03
688.71	1079.69
689.05	1066.82
689.39	1063.77
689.72	1067.52
690.06	1060.50
690.40	1069.16
690.74	1075.48
691.08	1072.20
691.41	1060.03
691.75	1074.31
692.09	1064.01
692.43	1064.71
692.76	1061.90
693.10	1082.26
693.44	1082.97
693.78	1088.35
694.11	1093.50
694.45	1105.20
694.79	1086.94
695.13	1077.11
695.46	1082.26
695.80	1075.71
696.14	1070.33
696.48	1085.54
696.81	1087.88
697.15	1072.67
697.49	1069.86
697.82	1071.97
698.16	1066.35
698.50	1069.16
698.83	1082.03
699.17	1082.26
699.51	1080.16
699.84	1075.01
700.18	1079.46
700.52	1077.58
700.85	1078.28
701.19	1078.99
701.53	1073.37
701.86	1064.94
702.20	1066.82
702.54	1073.37
702.87	1063.31
703.21	1071.26
703.55	1065.41
703.88	1058.16
704.22	1056.99
704.55	1070.56
704.89	1062.60
705.23	1066.58
705.56	1070.80
705.90	1072.20
706.23	1080.16
706.57	1089.05
706.91	1090.46
707.24	1084.14
707.58	1089.29
707.91	1075.24
708.25	1084.37
708.58	1087.88
708.92	1091.16
709.26	1083.90
709.59	1089.05
709.93	1077.58
710.26	1075.01
710.60	1076.18
710.93	1083.43
711.27	1088.12
711.60	1088.58
711.94	1096.78
712.27	1097.71
712.61	1086.24
712.94	1082.73
713.28	1077.58
713.61	1064.24
713.95	1058.86
714.28	1070.80
714.62	1068.22
714.95	1076.88
715.29	1090.22
715.62	1097.01
715.96	1093.03
716.29	1094.20
716.63	1087.41
716.96	1078.52
717.29	1074.54
717.63	1072.20
717.96	1066.58
718.30	1064.71
718.63	1071.26
718.97	1067.28
719.30	1071.03
719.63	1076.65
719.97	1081.33
720.30	1081.33
720.64	1092.09
720.97	1086.24
721.30	1078.99
721.64	1070.56
721.97	1065.88
722.31	1070.09
722.64	1064.94
722.97	1061.67
723.31	1067.52
723.64	1068.22
723.97	1063.07
724.31	1078.75
724.64	1083.67
724.98	1087.41
725.31	1083.67
725.64	1074.54
725.98	1057.45
726.31	1068.69
726.64	1063.77
726.97	1066.35
727.31	1069.86
727.64	1072.90
727.97	1063.77
728.31	1065.18
728.64	1064.71
728.97	1061.90
729.31	1064.71
729.64	1077.35
729.97	1082.97
730.30	1083.20
730.64	1087.18
730.97	1090.46
731.30	1076.65
731.63	1075.01
731.97	1076.88
732.30	1075.71
732.63	1073.60
732.96	1082.26
733.30	1086.94
733.63	1081.09
733.96	1078.52
734.29	1078.75
734.63	1075.94
734.96	1071.03
735.29	1089.05
735.62	1091.86
735.95	1088.82
736.29	1088.12
736.62	1084.37
736.95	1085.77
737.28	1100.05
737.61	1107.07
737.94	1098.88
738.28	1089.75
738.61	1077.58
738.94	1067.99
739.27	1064.24
739.60	1071.97
739.93	1083.90
740.27	1086.01
740.60	1084.60
740.93	1080.16
741.26	1078.05
741.59	1074.07
741.92	1078.28
742.25	1089.52
742.58	1097.48
742.91	1102.16
743.25	1106.61
743.58	1095.14
743.91	1091.39
744.24	1089.05
744.57	1081.56
744.90	1077.82
745.23	1074.77
745.56	1062.84
745.89	1060.26
746.22	1062.84
746.55	1068.45
746.88	1077.35
747.21	1080.16
747.54	1082.26
747.87	1083.20
748.20	1078.28
748.53	1076.18
748.87	1083.67
749.20	1084.14
749.53	1081.56
749.86	1091.39
750.19	1095.37
750.52	1084.60
750.85	1081.33
751.18	1082.50
751.51	1081.33
751.84	1080.86
752.16	1086.48
752.49	1088.35
752.82	1086.48
753.15	1070.80
753.48	1074.31
753.81	1075.48
754.14	1071.03
754.47	1075.01
754.80	1089.05
755.13	1078.05
755.46	1079.46
755.79	1091.86
756.12	1101.46
756.45	1091.86
756.78	1103.09
757.11	1091.86
757.43	1078.99
757.76	1070.33
758.09	1081.33
758.42	1075.71
758.75	1077.11
759.08	1088.35
759.41	1084.37
759.74	1079.22
760.07	1076.65
760.39	1081.56
760.72	1075.01
761.05	1069.16
761.38	1068.45
761.71	1073.60
762.04	1079.69
762.36	1079.46
762.69	1089.29
763.02	1088.12
763.35	1086.48
763.68	1073.37
764.01	1066.35
764.33	1065.18
764.66	1059.79
764.99	1052.77
765.32	1062.14
765.65	1069.62
765.97	1066.11
766.30	1076.18
