SpectraSuite Data File
++++++++++++++++++++++++++++++++++++
Date: Mon Aug 26 10:25:47 PDT 2019
User: corrico
Dark Spectrum Present: No
Reference Spectrum Present: No
Number of Sampled Component Spectra: 1
Spectrometers: USB2+H06089
Integration Time (usec): 10000 (USB2+H06089)
Spectra Averaged: 2 (USB2+H06089)
Boxcar Smoothing: 2 (USB2+H06089)
Correct for Electrical Dark: No (USB2+H06089)
Strobe/Lamp Enabled: No (USB2+H06089)
Correct for Detector Non-linearity: No (USB2+H06089)
Correct for Stray Light: No (USB2+H06089)
Number of Pixels in Processed Spectrum: 2048
>>>>>Begin Processed Spectral Data<<<<<
339.70	1028.67
340.07	1028.67
340.45	989.81
340.82	978.11
341.19	966.17
341.57	944.64
341.94	940.90
342.31	933.17
342.69	916.79
343.06	903.91
343.43	903.45
343.81	906.72
344.18	906.49
344.55	921.23
344.93	919.60
345.30	919.83
345.67	917.49
346.04	936.68
346.42	926.62
346.79	936.45
347.16	938.32
347.54	953.07
347.91	951.66
348.28	966.41
348.65	974.37
349.03	987.24
349.40	983.02
349.77	986.30
350.14	995.90
350.52	1005.49
350.89	1005.26
351.26	1028.20
351.63	1036.16
352.01	1039.67
352.38	1055.11
352.75	1068.22
353.12	1064.24
353.50	1074.77
353.87	1089.05
354.24	1075.01
354.61	1072.43
354.98	1075.48
355.36	1075.01
355.73	1059.79
356.10	1064.48
356.47	1073.37
356.84	1080.86
357.22	1070.09
357.59	1080.16
357.96	1088.82
358.33	1070.33
358.70	1056.52
359.08	1067.28
359.45	1068.92
359.82	1055.82
360.19	1074.07
360.56	1078.05
360.94	1075.71
361.31	1065.88
361.68	1070.56
362.05	1065.41
362.42	1068.45
362.79	1073.60
363.16	1078.28
363.54	1080.86
363.91	1075.01
364.28	1070.56
364.65	1065.88
365.02	1061.67
365.39	1066.35
365.76	1067.28
366.14	1078.52
366.51	1080.16
366.88	1085.77
367.25	1081.80
367.62	1081.56
367.99	1071.50
368.36	1067.99
368.73	1061.43
369.10	1055.58
369.48	1063.54
369.85	1065.18
370.22	1069.62
370.59	1067.05
370.96	1069.62
371.33	1071.97
371.70	1077.58
372.07	1078.99
372.44	1080.16
372.81	1090.46
373.18	1091.63
373.55	1083.43
373.93	1074.77
374.30	1076.41
374.67	1066.11
375.04	1063.54
375.41	1061.20
375.78	1065.88
376.15	1074.07
376.52	1069.86
376.89	1071.03
377.26	1078.28
377.63	1080.86
378.00	1082.26
378.37	1091.86
378.74	1089.29
379.11	1093.26
379.48	1086.01
379.85	1076.41
380.22	1068.45
380.59	1056.75
380.96	1053.24
381.33	1051.13
381.70	1056.28
382.07	1055.82
382.44	1062.37
382.81	1057.22
383.18	1062.37
383.55	1062.84
383.92	1063.77
384.29	1067.52
384.66	1078.75
385.03	1071.97
385.40	1072.20
385.77	1078.99
386.14	1075.71
386.51	1066.58
386.88	1078.05
387.25	1083.90
387.62	1083.67
387.99	1089.99
388.36	1089.75
388.73	1086.01
389.10	1072.20
389.46	1071.26
389.83	1070.80
390.20	1077.82
390.57	1075.01
390.94	1080.16
391.31	1078.52
391.68	1076.18
392.05	1067.99
392.42	1072.67
392.79	1066.35
393.16	1060.96
393.53	1065.65
393.89	1063.77
394.26	1057.45
394.63	1065.41
395.00	1064.24
395.37	1066.82
395.74	1074.77
396.11	1080.16
396.48	1077.58
396.84	1084.37
397.21	1075.71
397.58	1072.90
397.95	1073.60
398.32	1080.16
398.69	1074.77
399.06	1086.48
399.42	1087.88
399.79	1088.12
400.16	1088.82
400.53	1091.16
400.90	1078.52
401.27	1073.60
401.64	1074.54
402.00	1070.80
402.37	1071.03
402.74	1073.60
403.11	1074.54
403.48	1065.88
403.84	1066.58
404.21	1075.01
404.58	1082.03
404.95	1089.52
405.32	1093.50
405.68	1094.90
406.05	1087.65
406.42	1077.82
406.79	1078.52
407.16	1079.46
407.52	1076.88
407.89	1077.58
408.26	1087.65
408.63	1078.28
408.99	1076.65
409.36	1076.88
409.73	1083.90
410.10	1076.65
410.47	1072.20
410.83	1069.62
411.20	1065.41
411.57	1059.56
411.94	1057.92
412.30	1055.58
412.67	1068.92
413.04	1065.41
413.40	1065.41
413.77	1072.90
414.14	1086.01
414.51	1081.09
414.87	1091.86
415.24	1100.05
415.61	1104.03
415.97	1110.12
416.34	1105.90
416.71	1102.86
417.08	1093.97
417.44	1088.35
417.81	1078.28
418.18	1071.26
418.54	1066.11
418.91	1069.39
419.28	1070.33
419.64	1074.07
420.01	1083.67
420.38	1086.71
420.74	1088.82
421.11	1088.82
421.48	1083.67
421.84	1074.77
422.21	1082.73
422.58	1079.69
422.94	1071.26
423.31	1074.77
423.68	1085.77
424.04	1082.50
424.41	1072.90
424.77	1079.22
425.14	1080.63
425.51	1075.71
425.87	1065.18
426.24	1083.20
426.61	1077.35
426.97	1078.75
427.34	1082.97
427.70	1090.69
428.07	1077.35
428.44	1084.14
428.80	1084.60
429.17	1083.67
429.53	1086.48
429.90	1081.09
430.27	1089.52
430.63	1084.60
431.00	1090.92
431.36	1091.63
431.73	1102.86
432.09	1094.20
432.46	1099.12
432.83	1090.92
433.19	1083.90
433.56	1082.26
433.92	1085.31
434.29	1079.22
434.65	1085.31
435.02	1089.52
435.38	1088.82
435.75	1084.60
436.11	1089.52
436.48	1083.90
436.84	1080.16
437.21	1082.03
437.57	1079.22
437.94	1077.11
438.30	1070.80
438.67	1070.09
439.03	1061.20
439.40	1056.52
439.76	1059.56
440.13	1071.26
440.49	1068.69
440.86	1067.75
441.22	1076.88
441.59	1068.92
441.95	1064.71
442.32	1060.26
442.68	1062.84
443.05	1054.65
443.41	1056.05
443.78	1057.92
444.14	1068.45
444.51	1072.20
444.87	1076.65
445.24	1075.24
445.60	1077.11
445.96	1077.35
446.33	1081.09
446.69	1086.94
447.06	1095.37
447.42	1092.56
447.79	1099.35
448.15	1094.90
448.51	1084.84
448.88	1080.39
449.24	1083.90
449.61	1079.69
449.97	1087.41
450.33	1101.69
450.70	1103.80
451.06	1097.01
451.43	1087.41
451.79	1081.09
452.15	1076.88
452.52	1071.97
452.88	1074.77
453.24	1078.05
453.61	1073.14
453.97	1067.75
454.34	1085.77
454.70	1088.58
455.06	1094.67
455.43	1100.75
455.79	1103.56
456.15	1084.84
456.52	1086.71
456.88	1084.14
457.24	1082.50
457.61	1072.20
457.97	1081.80
458.33	1079.46
458.70	1074.07
459.06	1067.28
459.42	1071.73
459.79	1064.48
460.15	1057.45
460.51	1065.65
460.88	1066.35
461.24	1069.39
461.60	1068.45
461.96	1068.92
462.33	1064.94
462.69	1054.88
463.05	1052.54
463.42	1050.90
463.78	1045.99
464.14	1044.35
464.50	1060.26
464.87	1055.35
465.23	1055.58
465.59	1062.14
465.95	1063.54
466.32	1063.07
466.68	1077.11
467.04	1083.90
467.40	1081.80
467.77	1077.11
468.13	1081.56
468.49	1071.97
468.85	1072.90
469.22	1082.97
469.58	1091.39
469.94	1091.63
470.30	1091.86
470.66	1087.18
471.03	1070.09
471.39	1058.86
471.75	1058.39
472.11	1066.11
472.47	1064.94
472.84	1073.37
473.20	1082.97
473.56	1085.77
473.92	1075.48
474.28	1079.22
474.65	1082.73
475.01	1073.37
475.37	1064.01
475.73	1061.20
476.09	1058.39
476.45	1063.07
476.81	1069.62
477.18	1072.43
477.54	1086.01
477.90	1076.41
478.26	1067.05
478.62	1075.01
478.98	1077.11
479.34	1070.56
479.71	1077.11
480.07	1079.46
480.43	1076.18
480.79	1075.71
481.15	1072.43
481.51	1074.31
481.87	1080.63
482.23	1082.26
482.59	1091.63
482.96	1088.58
483.32	1092.56
483.68	1089.05
484.04	1082.26
484.40	1070.80
484.76	1073.84
485.12	1068.22
485.48	1051.13
485.84	1053.48
486.20	1052.54
486.56	1052.54
486.92	1050.90
487.28	1068.22
487.64	1060.73
488.00	1062.84
488.37	1067.99
488.73	1078.28
489.09	1068.92
489.45	1081.09
489.81	1083.43
490.17	1086.94
490.53	1082.97
490.89	1093.50
491.25	1085.31
491.61	1082.97
491.97	1075.48
492.33	1080.86
492.69	1078.52
493.05	1077.35
493.41	1074.07
493.77	1081.09
494.13	1068.92
494.49	1066.35
494.85	1073.84
495.21	1073.37
495.57	1078.05
495.93	1085.54
496.29	1101.46
496.64	1105.67
497.00	1101.92
497.36	1100.52
497.72	1098.18
498.08	1083.20
498.44	1081.33
498.80	1088.12
499.16	1080.39
499.52	1073.14
499.88	1072.43
500.24	1070.09
500.60	1080.63
500.96	1078.52
501.32	1096.31
501.68	1096.31
502.03	1087.18
502.39	1078.75
502.75	1069.39
503.11	1061.90
503.47	1069.16
503.83	1080.86
504.19	1080.63
504.55	1093.26
504.91	1101.46
505.26	1086.48
505.62	1085.54
505.98	1094.43
506.34	1092.56
506.70	1081.56
507.06	1098.18
507.42	1100.99
507.78	1097.01
508.13	1097.71
508.49	1106.37
508.85	1093.26
509.21	1085.31
509.57	1076.65
509.93	1078.05
510.28	1071.97
510.64	1076.41
511.00	1076.65
511.36	1082.26
511.72	1088.35
512.07	1084.14
512.43	1084.60
512.79	1087.88
513.15	1090.22
513.51	1087.88
513.86	1099.58
514.22	1102.39
514.58	1094.20
514.94	1092.80
515.30	1096.31
515.65	1088.82
516.01	1089.99
516.37	1098.88
516.73	1090.22
517.08	1091.39
517.44	1093.73
517.80	1095.60
518.16	1092.80
518.51	1102.16
518.87	1097.71
519.23	1099.35
519.59	1092.80
519.94	1090.92
520.30	1081.33
520.66	1078.28
521.01	1067.99
521.37	1067.99
521.73	1071.73
522.09	1073.84
522.44	1072.43
522.80	1072.20
523.16	1069.86
523.51	1068.92
523.87	1078.99
524.23	1083.67
524.58	1079.46
524.94	1091.39
525.30	1086.48
525.65	1086.94
526.01	1085.54
526.37	1094.67
526.72	1081.56
527.08	1088.58
527.44	1082.73
527.79	1083.20
528.15	1084.37
528.51	1079.69
528.86	1075.48
529.22	1078.05
529.58	1074.07
529.93	1070.56
530.29	1074.31
530.65	1076.41
531.00	1082.97
531.36	1086.24
531.71	1090.69
532.07	1102.63
532.43	1103.09
532.78	1094.20
533.14	1088.82
533.49	1086.94
533.85	1086.24
534.21	1083.43
534.56	1080.86
534.92	1078.28
535.27	1073.14
535.63	1069.62
535.98	1069.39
536.34	1071.50
536.69	1073.60
537.05	1067.52
537.41	1060.73
537.76	1065.65
538.12	1069.39
538.47	1069.62
538.83	1080.86
539.18	1086.24
539.54	1077.35
539.89	1068.69
540.25	1074.54
540.60	1070.33
540.96	1068.69
541.31	1074.07
541.67	1084.84
542.02	1082.73
542.38	1084.84
542.73	1082.50
543.09	1093.50
543.44	1094.20
543.80	1091.16
544.15	1096.78
544.51	1099.58
544.86	1089.52
545.22	1082.50
545.57	1085.31
545.93	1087.18
546.28	1091.63
546.64	1087.88
546.99	1085.54
547.35	1086.01
547.70	1080.16
548.05	1075.24
548.41	1090.22
548.76	1103.80
549.12	1102.63
549.47	1103.09
549.83	1102.39
550.18	1094.90
550.53	1087.18
550.89	1086.01
551.24	1089.75
551.60	1088.12
551.95	1080.39
552.30	1074.54
552.66	1078.75
553.01	1080.86
553.37	1082.50
553.72	1087.18
554.07	1088.35
554.43	1080.63
554.78	1069.16
555.13	1067.75
555.49	1061.20
555.84	1058.86
556.19	1065.65
556.55	1075.71
556.90	1075.71
557.26	1083.20
557.61	1084.60
557.96	1078.05
558.32	1072.67
558.67	1070.09
559.02	1079.22
559.37	1079.92
559.73	1085.54
560.08	1078.99
560.43	1086.71
560.79	1075.01
561.14	1073.14
561.49	1076.65
561.85	1089.05
562.20	1090.46
562.55	1087.41
562.90	1086.24
563.26	1081.09
563.61	1075.94
563.96	1063.54
564.32	1068.69
564.67	1078.05
565.02	1081.33
565.37	1080.86
565.73	1087.88
566.08	1092.56
566.43	1086.94
566.78	1082.03
567.14	1079.69
567.49	1085.54
567.84	1080.86
568.19	1073.84
568.54	1065.18
568.90	1066.82
569.25	1061.67
569.60	1065.18
569.95	1068.45
570.31	1086.71
570.66	1087.41
571.01	1085.54
571.36	1075.01
571.71	1087.41
572.06	1086.24
572.42	1087.41
572.77	1092.80
573.12	1095.14
573.47	1093.50
573.82	1087.41
574.18	1083.20
574.53	1080.63
574.88	1079.69
575.23	1070.80
575.58	1073.60
575.93	1076.41
576.28	1081.56
576.64	1082.97
576.99	1079.69
577.34	1087.18
577.69	1077.82
578.04	1068.45
578.39	1063.31
578.74	1073.60
579.09	1059.33
579.44	1070.56
579.80	1073.37
580.15	1081.56
580.50	1077.11
580.85	1082.03
581.20	1077.11
581.55	1079.22
581.90	1075.48
582.25	1077.58
582.60	1080.16
582.95	1089.29
583.30	1088.35
583.65	1092.09
584.00	1081.80
584.35	1077.35
584.71	1073.14
585.06	1065.65
585.41	1071.50
585.76	1075.24
586.11	1087.65
586.46	1090.92
586.81	1101.46
587.16	1100.99
587.51	1099.35
587.86	1092.56
588.21	1101.69
588.56	1095.14
588.91	1084.37
589.26	1083.20
589.61	1079.46
589.96	1070.56
590.31	1073.84
590.66	1072.67
591.01	1078.05
591.36	1073.37
591.71	1071.50
592.06	1080.39
592.41	1091.86
592.76	1089.05
593.10	1095.60
593.45	1089.52
593.80	1080.16
594.15	1066.82
594.50	1065.18
594.85	1063.54
595.20	1065.41
595.55	1064.71
595.90	1071.26
596.25	1080.63
596.60	1085.07
596.95	1086.01
597.30	1089.29
597.64	1137.27
597.99	1149.20
598.34	1149.20
598.69	1155.99
599.04	1152.48
599.39	1096.54
599.74	1080.39
600.09	1073.37
600.44	1061.43
600.78	1065.41
601.13	1067.99
601.48	1077.35
601.83	1082.97
602.18	1084.84
602.53	1079.92
602.88	1092.56
603.22	1092.33
603.57	1090.92
603.92	1096.07
604.27	1105.67
604.62	1094.67
604.97	1080.39
605.31	1068.92
605.66	1060.96
606.01	1053.94
606.36	1062.84
606.71	1064.48
607.05	1068.92
607.40	1066.11
607.75	1062.14
608.10	1060.50
608.44	1069.16
608.79	1065.65
609.14	1075.01
609.49	1082.26
609.84	1084.37
610.18	1077.82
610.53	1078.52
610.88	1086.71
611.23	1084.60
611.57	1080.16
611.92	1084.37
612.27	1092.56
612.62	1088.82
612.96	1090.92
613.31	1083.90
613.66	1077.58
614.00	1078.05
614.35	1073.37
614.70	1060.96
615.05	1073.14
615.39	1074.54
615.74	1074.31
616.09	1069.86
616.43	1087.41
616.78	1091.16
617.13	1093.73
617.47	1082.97
617.82	1094.20
618.17	1090.46
618.51	1080.63
618.86	1086.24
619.21	1096.78
619.55	1091.63
619.90	1090.22
620.25	1097.24
620.59	1084.37
620.94	1081.33
621.29	1087.88
621.63	1086.48
621.98	1086.24
622.32	1103.80
622.67	1105.20
623.02	1096.78
623.36	1086.94
623.71	1078.99
624.05	1063.54
624.40	1058.39
624.75	1056.99
625.09	1067.75
625.44	1073.60
625.78	1081.56
626.13	1085.77
626.48	1082.50
626.82	1072.20
627.17	1064.24
627.51	1064.94
627.86	1067.75
628.20	1078.75
628.55	1085.31
628.89	1089.29
629.24	1093.26
629.58	1092.80
629.93	1094.20
630.28	1094.67
630.62	1094.67
630.97	1084.84
631.31	1081.56
631.66	1076.18
632.00	1066.35
632.35	1067.99
632.69	1064.24
633.04	1065.65
633.38	1067.99
633.73	1075.24
634.07	1076.65
634.42	1086.94
634.76	1084.60
635.11	1088.35
635.45	1089.29
635.79	1083.90
636.14	1084.60
636.48	1091.39
636.83	1071.50
637.17	1067.99
637.52	1064.24
637.86	1055.82
638.21	1056.28
638.55	1069.86
638.89	1077.58
639.24	1083.67
639.58	1094.67
639.93	1093.03
640.27	1090.22
640.61	1087.65
640.96	1083.67
641.30	1071.03
641.65	1060.26
641.99	1064.48
642.33	1065.65
642.68	1061.67
643.02	1069.62
643.37	1070.56
643.71	1061.67
644.05	1049.50
644.40	1060.26
644.74	1058.86
645.08	1064.48
645.43	1066.35
645.77	1073.84
646.11	1067.52
646.46	1067.99
646.80	1068.22
647.14	1065.65
647.49	1062.84
647.83	1078.28
648.17	1076.65
648.52	1078.52
648.86	1088.35
649.20	1097.48
649.55	1084.14
649.89	1082.26
650.23	1085.07
650.57	1078.99
650.92	1076.88
651.26	1080.16
651.60	1081.09
651.95	1081.33
652.29	1092.56
652.63	1086.01
652.97	1079.92
653.32	1079.22
653.66	1078.28
654.00	1079.69
654.34	1086.71
654.69	1098.41
655.03	1092.56
655.37	1100.05
655.71	1101.92
656.05	1101.69
656.40	1093.03
656.74	1103.33
657.08	1098.18
657.42	1085.54
657.76	1080.39
658.11	1081.33
658.45	1079.92
658.79	1072.43
659.13	1070.09
659.47	1079.22
659.82	1075.71
660.16	1071.73
660.50	1068.92
660.84	1064.48
661.18	1056.99
661.52	1059.33
661.87	1066.35
662.21	1066.11
662.55	1081.33
662.89	1088.12
663.23	1085.31
663.57	1086.71
663.91	1087.41
664.25	1084.84
664.60	1085.07
664.94	1087.88
665.28	1079.69
665.62	1087.65
665.96	1082.73
666.30	1081.33
666.64	1081.09
666.98	1075.94
667.32	1078.75
667.66	1076.65
668.01	1077.11
668.35	1072.67
668.69	1087.88
669.03	1086.94
669.37	1087.18
669.71	1083.20
670.05	1087.65
670.39	1078.28
670.73	1073.37
671.07	1074.07
671.41	1071.03
671.75	1071.97
672.09	1075.94
672.43	1082.97
672.77	1086.71
673.11	1093.26
673.45	1092.80
673.79	1086.48
674.13	1076.18
674.47	1074.77
674.81	1074.77
675.15	1071.50
675.49	1073.60
675.83	1076.41
676.17	1079.46
676.51	1072.90
676.85	1078.28
677.19	1076.65
677.53	1072.20
677.87	1064.24
678.21	1064.94
678.55	1066.58
678.89	1073.14
679.23	1077.11
679.57	1081.56
679.90	1085.31
680.24	1077.11
680.58	1065.88
680.92	1070.33
681.26	1068.92
681.60	1068.45
681.94	1067.75
682.28	1072.67
682.62	1074.07
682.96	1078.99
683.29	1078.28
683.63	1088.58
683.97	1096.54
684.31	1084.37
684.65	1089.99
684.99	1100.52
685.33	1099.82
685.67	1099.35
686.00	1110.58
686.34	1101.69
686.68	1084.84
687.02	1080.39
687.36	1075.94
687.70	1072.20
688.03	1062.84
688.37	1069.39
688.71	1070.56
689.05	1067.28
689.39	1069.16
689.72	1069.39
690.06	1065.65
690.40	1072.90
690.74	1078.05
691.08	1085.07
691.41	1084.37
691.75	1086.48
692.09	1078.99
692.43	1077.11
692.76	1059.09
693.10	1065.41
693.44	1069.62
693.78	1070.56
694.11	1064.71
694.45	1073.14
694.79	1075.24
695.13	1064.94
695.46	1060.03
695.80	1067.05
696.14	1061.20
696.48	1056.52
696.81	1064.71
697.15	1061.67
697.49	1065.65
697.82	1069.16
698.16	1072.67
698.50	1071.50
698.83	1075.94
699.17	1075.24
699.51	1077.58
699.84	1084.14
700.18	1088.82
700.52	1094.90
700.85	1083.20
701.19	1090.22
701.53	1086.94
701.86	1082.26
702.20	1078.28
702.54	1089.75
702.87	1085.31
703.21	1086.24
703.55	1091.39
703.88	1092.56
704.22	1077.35
704.55	1073.14
704.89	1076.41
705.23	1067.52
705.56	1069.39
705.90	1080.86
706.23	1091.63
706.57	1090.22
706.91	1100.05
707.24	1096.31
707.58	1091.86
707.91	1075.48
708.25	1072.67
708.58	1074.07
708.92	1084.60
709.26	1100.52
709.59	1115.03
709.93	1110.12
710.26	1109.41
710.60	1098.88
710.93	1089.05
711.27	1085.07
711.60	1085.54
711.94	1090.69
712.27	1098.18
712.61	1098.88
712.94	1099.82
713.28	1110.82
713.61	1099.58
713.95	1092.80
714.28	1091.86
714.62	1088.58
714.95	1080.63
715.29	1082.50
715.62	1074.54
715.96	1073.60
716.29	1078.99
716.63	1078.28
716.96	1077.58
717.29	1076.88
717.63	1078.05
717.96	1078.28
718.30	1077.35
718.63	1073.14
718.97	1082.97
719.30	1077.58
719.63	1063.31
719.97	1065.18
720.30	1075.71
720.64	1076.88
720.97	1084.37
721.30	1093.73
721.64	1086.01
721.97	1073.84
722.31	1071.03
722.64	1063.07
722.97	1065.18
723.31	1064.94
723.64	1067.99
723.97	1077.11
724.31	1081.33
724.64	1079.46
724.98	1087.65
725.31	1089.05
725.64	1095.84
725.98	1097.01
726.31	1107.54
726.64	1106.61
726.97	1099.35
727.31	1079.69
727.64	1082.73
727.97	1077.35
728.31	1076.18
728.64	1086.71
728.97	1083.20
729.31	1077.11
729.64	1072.67
729.97	1072.20
730.30	1063.31
730.64	1064.48
730.97	1064.24
731.30	1060.73
731.63	1065.41
731.97	1071.73
732.30	1089.75
732.63	1094.20
732.96	1083.90
733.30	1079.46
733.63	1070.56
733.96	1058.16
734.29	1068.69
734.63	1089.29
734.96	1082.26
735.29	1092.56
735.62	1083.20
735.95	1073.60
736.29	1066.11
736.62	1072.20
736.95	1071.26
737.28	1081.33
737.61	1077.82
737.94	1067.52
738.28	1078.28
738.61	1076.41
738.94	1078.99
739.27	1071.03
739.60	1086.01
739.93	1068.69
740.27	1068.69
740.60	1075.94
740.93	1086.94
741.26	1082.03
741.59	1097.48
741.92	1098.65
742.25	1084.37
742.58	1082.97
742.91	1083.43
743.25	1066.35
743.58	1065.88
743.91	1065.65
744.24	1067.75
744.57	1069.39
744.90	1071.73
745.23	1065.88
745.56	1078.75
745.89	1080.39
746.22	1081.33
746.55	1089.29
746.88	1093.50
747.21	1093.26
747.54	1095.60
747.87	1094.90
748.20	1090.22
748.53	1101.92
748.87	1102.39
749.20	1083.20
749.53	1083.43
749.86	1087.88
750.19	1079.46
750.52	1072.90
750.85	1092.56
751.18	1089.52
751.51	1097.48
751.84	1095.60
752.16	1089.52
752.49	1074.07
752.82	1082.50
753.15	1082.73
753.48	1074.07
753.81	1071.03
754.14	1076.88
754.47	1063.77
754.80	1055.82
755.13	1062.84
755.46	1078.05
755.79	1071.97
756.12	1080.39
756.45	1085.54
756.78	1091.63
757.11	1093.97
757.43	1104.50
757.76	1093.97
758.09	1087.88
758.42	1079.22
758.75	1069.16
759.08	1066.35
759.41	1076.88
759.74	1079.92
760.07	1082.03
760.39	1082.97
760.72	1082.03
761.05	1069.16
761.38	1068.92
761.71	1072.67
762.04	1065.41
762.36	1071.03
762.69	1082.73
763.02	1073.84
763.35	1071.97
763.68	1079.92
764.01	1076.65
764.33	1073.37
764.66	1080.39
764.99	1092.09
765.32	1097.48
765.65	1104.26
765.97	1103.09
766.30	1104.73
