SpectraSuite Data File
++++++++++++++++++++++++++++++++++++
Date: Mon Aug 26 10:25:47 PDT 2019
User: corrico
Dark Spectrum Present: No
Reference Spectrum Present: No
Number of Sampled Component Spectra: 1
Spectrometers: USB2+H06089
Integration Time (usec): 10000 (USB2+H06089)
Spectra Averaged: 2 (USB2+H06089)
Boxcar Smoothing: 2 (USB2+H06089)
Correct for Electrical Dark: No (USB2+H06089)
Strobe/Lamp Enabled: No (USB2+H06089)
Correct for Detector Non-linearity: No (USB2+H06089)
Correct for Stray Light: No (USB2+H06089)
Number of Pixels in Processed Spectrum: 2048
>>>>>Begin Processed Spectral Data<<<<<
339.70	1049.73
340.07	1049.73
340.45	996.37
340.82	973.66
341.19	945.58
341.57	919.60
341.94	911.40
342.31	894.55
342.69	893.62
343.06	895.96
343.43	893.85
343.81	894.32
344.18	916.09
344.55	916.79
344.93	919.13
345.30	923.81
345.67	937.38
346.04	938.32
346.42	936.21
346.79	935.98
347.16	955.87
347.54	961.73
347.91	973.19
348.28	987.00
348.65	1000.81
349.03	990.28
349.40	1006.43
349.77	1013.45
350.14	1013.22
350.52	1021.64
350.89	1033.58
351.26	1040.60
351.63	1038.96
352.01	1050.43
352.38	1060.03
352.75	1068.22
353.12	1068.92
353.50	1082.97
353.87	1092.56
354.24	1094.67
354.61	1081.09
354.98	1075.71
355.36	1064.24
355.73	1064.24
356.10	1064.71
356.47	1073.60
356.84	1077.11
357.22	1080.16
357.59	1078.99
357.96	1072.43
358.33	1079.92
358.70	1077.58
359.08	1079.22
359.45	1066.82
359.82	1061.43
360.19	1056.99
360.56	1065.18
360.94	1061.90
361.31	1067.75
361.68	1079.22
362.05	1078.05
362.42	1067.52
362.79	1067.52
363.16	1060.03
363.54	1059.09
363.91	1064.48
364.28	1060.03
364.65	1072.43
365.02	1079.92
365.39	1058.16
365.76	1052.77
366.14	1062.60
366.51	1059.33
366.88	1063.07
367.25	1073.37
367.62	1073.14
367.99	1070.56
368.36	1070.56
368.73	1063.54
369.10	1066.35
369.48	1063.54
369.85	1070.80
370.22	1067.75
370.59	1077.11
370.96	1083.67
371.33	1085.77
371.70	1070.09
372.07	1068.92
372.44	1058.39
372.81	1047.62
373.18	1046.22
373.55	1055.11
373.93	1045.52
374.30	1049.26
374.67	1048.56
375.04	1046.69
375.41	1051.84
375.78	1060.50
376.15	1062.14
376.52	1066.82
376.89	1065.41
377.26	1069.16
377.63	1069.39
378.00	1069.86
378.37	1073.60
378.74	1076.18
379.11	1068.92
379.48	1054.41
379.85	1046.22
380.22	1049.03
380.59	1054.88
380.96	1047.39
381.33	1057.69
381.70	1063.07
382.07	1053.94
382.44	1049.96
382.81	1055.58
383.18	1056.05
383.55	1062.37
383.92	1063.54
384.29	1064.94
384.66	1073.60
385.03	1071.97
385.40	1065.18
385.77	1071.50
386.14	1068.92
386.51	1064.48
386.88	1068.69
387.25	1073.37
387.62	1064.24
387.99	1063.54
388.36	1047.86
388.73	1057.69
389.10	1063.31
389.46	1077.35
389.83	1078.99
390.20	1093.73
390.57	1087.41
390.94	1079.69
391.31	1068.69
391.68	1076.88
392.05	1064.48
392.42	1061.43
392.79	1059.33
393.16	1059.56
393.53	1058.16
393.89	1071.97
394.26	1078.28
394.63	1082.03
395.00	1089.05
395.37	1079.92
395.74	1077.35
396.11	1077.11
396.48	1082.26
396.84	1081.56
397.21	1093.26
397.58	1102.16
397.95	1097.24
398.32	1100.29
398.69	1101.46
399.06	1099.12
399.42	1090.69
399.79	1100.05
400.16	1089.52
400.53	1090.46
400.90	1083.43
401.27	1077.11
401.64	1064.94
402.00	1068.45
402.37	1064.24
402.74	1067.99
403.11	1069.16
403.48	1064.48
403.84	1060.50
404.21	1065.18
404.58	1064.94
404.95	1067.52
405.32	1078.52
405.68	1083.90
406.05	1080.39
406.42	1082.03
406.79	1073.14
407.16	1065.18
407.52	1057.45
407.89	1063.54
408.26	1062.14
408.63	1071.97
408.99	1066.35
409.36	1065.18
409.73	1062.84
410.10	1064.71
410.47	1058.16
410.83	1061.67
411.20	1068.45
411.57	1060.73
411.94	1052.54
412.30	1056.05
412.67	1069.86
413.04	1072.20
413.40	1075.48
413.77	1071.73
414.14	1072.67
414.51	1068.92
414.87	1062.60
415.24	1064.94
415.61	1075.01
415.97	1078.28
416.34	1082.97
416.71	1094.43
417.08	1093.03
417.44	1088.12
417.81	1084.84
418.18	1073.84
418.54	1072.67
418.91	1075.01
419.28	1070.56
419.64	1074.77
420.01	1071.73
420.38	1060.96
420.74	1060.03
421.11	1073.14
421.48	1071.97
421.84	1079.92
422.21	1082.50
422.58	1083.20
422.94	1078.28
423.31	1077.82
423.68	1067.99
424.04	1070.56
424.41	1065.65
424.77	1069.86
425.14	1067.52
425.51	1074.77
425.87	1078.28
426.24	1089.75
426.61	1090.46
426.97	1097.01
427.34	1098.41
427.70	1094.20
428.07	1086.48
428.44	1094.43
428.80	1090.22
429.17	1088.58
429.53	1085.54
429.90	1081.09
430.27	1068.69
430.63	1061.43
431.00	1062.84
431.36	1071.73
431.73	1068.92
432.09	1074.07
432.46	1082.73
432.83	1079.46
433.19	1075.71
433.56	1084.37
433.92	1079.69
434.29	1080.16
434.65	1089.29
435.02	1087.41
435.38	1083.67
435.75	1082.03
436.11	1086.71
436.48	1081.80
436.84	1079.22
437.21	1083.43
437.57	1079.69
437.94	1066.11
438.30	1061.90
438.67	1071.73
439.03	1065.18
439.40	1069.16
439.76	1073.37
440.13	1069.16
440.49	1069.62
440.86	1073.60
441.22	1082.50
441.59	1077.11
441.95	1095.60
442.32	1085.07
442.68	1082.03
443.05	1073.60
443.41	1085.77
443.78	1077.35
444.14	1087.41
444.51	1086.01
444.87	1092.80
445.24	1091.86
445.60	1088.12
445.96	1083.67
446.33	1088.82
446.69	1087.65
447.06	1083.67
447.42	1092.33
447.79	1093.50
448.15	1092.56
448.51	1087.41
448.88	1096.07
449.24	1083.90
449.61	1080.39
449.97	1079.69
450.33	1079.69
450.70	1072.90
451.06	1080.63
451.43	1081.09
451.79	1081.56
452.15	1086.01
452.52	1082.73
452.88	1078.99
453.24	1071.03
453.61	1064.94
453.97	1061.67
454.34	1062.60
454.70	1056.52
455.06	1065.65
455.43	1075.01
455.79	1075.24
456.15	1077.35
456.52	1089.75
456.88	1099.12
457.24	1104.97
457.61	1104.50
457.97	1112.92
458.33	1101.92
458.70	1089.75
459.06	1081.56
459.42	1088.58
459.79	1083.20
460.15	1090.92
460.51	1092.80
460.88	1096.54
461.24	1089.99
461.60	1083.43
461.96	1087.18
462.33	1088.58
462.69	1087.41
463.05	1084.60
463.42	1091.63
463.78	1091.16
464.14	1094.90
464.50	1092.33
464.87	1100.99
465.23	1091.39
465.59	1079.92
465.95	1071.73
466.32	1071.97
466.68	1064.01
467.04	1071.26
467.40	1080.86
467.77	1080.86
468.13	1072.90
468.49	1074.77
468.85	1070.09
469.22	1066.11
469.58	1065.18
469.94	1071.03
470.30	1067.99
470.66	1071.26
471.03	1065.18
471.39	1067.52
471.75	1067.75
472.11	1076.18
472.47	1081.56
472.84	1090.22
473.20	1086.71
473.56	1087.65
473.92	1080.16
474.28	1073.14
474.65	1071.26
475.01	1077.82
475.37	1082.73
475.73	1082.50
476.09	1077.82
476.45	1078.75
476.81	1080.86
477.18	1084.37
477.54	1087.18
477.90	1086.24
478.26	1088.82
478.62	1087.41
478.98	1083.90
479.34	1075.94
479.71	1085.07
480.07	1066.82
480.43	1060.03
480.79	1060.50
481.15	1065.65
481.51	1060.96
481.87	1083.20
482.23	1090.69
482.59	1080.63
482.96	1088.82
483.32	1093.50
483.68	1084.37
484.04	1074.07
484.40	1080.63
484.76	1072.20
485.12	1071.26
485.48	1072.43
485.84	1090.69
486.20	1086.94
486.56	1094.20
486.92	1090.46
487.28	1093.03
487.64	1079.69
488.00	1083.43
488.37	1076.88
488.73	1079.69
489.09	1083.20
489.45	1083.43
489.81	1076.88
490.17	1090.69
490.53	1091.39
490.89	1085.07
491.25	1080.86
491.61	1094.43
491.97	1086.01
492.33	1080.63
492.69	1077.82
493.05	1083.20
493.41	1077.58
493.77	1078.28
494.13	1078.28
494.49	1081.09
494.85	1077.58
495.21	1075.94
495.57	1072.43
495.93	1070.56
496.29	1081.33
496.64	1093.03
497.00	1090.92
497.36	1094.67
497.72	1090.69
498.08	1075.94
498.44	1063.31
498.80	1067.05
499.16	1053.71
499.52	1062.84
499.88	1067.75
500.24	1067.75
500.60	1055.82
500.96	1062.37
501.32	1059.79
501.68	1064.48
502.03	1067.99
502.39	1083.67
502.75	1088.12
503.11	1101.22
503.47	1096.31
503.83	1091.39
504.19	1086.48
504.55	1087.41
504.91	1081.09
505.26	1082.73
505.62	1086.48
505.98	1087.41
506.34	1086.94
506.70	1080.39
507.06	1078.05
507.42	1091.16
507.78	1089.29
508.13	1085.54
508.49	1086.24
508.85	1097.01
509.21	1090.69
509.57	1093.97
509.93	1090.46
510.28	1096.07
510.64	1078.99
511.00	1087.65
511.36	1087.88
511.72	1089.52
512.07	1088.82
512.43	1096.78
512.79	1079.46
513.15	1076.41
513.51	1079.46
513.86	1073.84
514.22	1066.82
514.58	1076.41
514.94	1080.86
515.30	1081.33
515.65	1084.60
516.01	1091.39
516.37	1098.88
516.73	1099.82
517.08	1100.52
517.44	1092.33
517.80	1089.05
518.16	1088.12
518.51	1079.46
518.87	1076.65
519.23	1082.97
519.59	1077.58
519.94	1067.05
520.30	1068.45
520.66	1077.35
521.01	1084.60
521.37	1096.07
521.73	1093.26
522.09	1101.69
522.44	1101.69
522.80	1096.07
523.16	1091.39
523.51	1090.22
523.87	1090.92
524.23	1089.05
524.58	1084.84
524.94	1093.97
525.30	1098.88
525.65	1083.90
526.01	1073.84
526.37	1087.65
526.72	1077.35
527.08	1069.62
527.44	1083.67
527.79	1096.07
528.15	1090.46
528.51	1097.24
528.86	1105.20
529.22	1096.78
529.58	1091.16
529.93	1093.50
530.29	1087.88
530.65	1084.60
531.00	1086.48
531.36	1086.48
531.71	1081.09
532.07	1089.29
532.43	1095.14
532.78	1096.78
533.14	1102.16
533.49	1108.24
533.85	1097.71
534.21	1099.82
534.56	1095.14
534.92	1096.31
535.27	1087.41
535.63	1092.56
535.98	1090.22
536.34	1087.88
536.69	1071.97
537.05	1068.92
537.41	1077.11
537.76	1065.41
538.12	1066.58
538.47	1080.16
538.83	1095.14
539.18	1088.82
539.54	1094.90
539.89	1104.03
540.25	1089.75
540.60	1075.24
540.96	1076.88
541.31	1077.82
541.67	1079.69
542.02	1094.43
542.38	1099.12
542.73	1089.52
543.09	1088.82
543.44	1078.52
543.80	1074.31
544.15	1066.82
544.51	1083.43
544.86	1086.01
545.22	1090.92
545.57	1090.92
545.93	1101.92
546.28	1103.33
546.64	1099.35
546.99	1096.54
547.35	1097.95
547.70	1094.67
548.05	1087.88
548.41	1093.50
548.76	1091.39
549.12	1083.20
549.47	1081.80
549.83	1078.05
550.18	1074.07
550.53	1082.50
550.89	1088.12
551.24	1094.90
551.60	1086.71
551.95	1101.22
552.30	1098.41
552.66	1100.99
553.01	1099.58
553.37	1112.46
553.72	1094.20
554.07	1089.29
554.43	1091.16
554.78	1095.37
555.13	1096.54
555.49	1086.24
555.84	1089.05
556.19	1089.05
556.55	1091.16
556.90	1082.97
557.26	1099.82
557.61	1095.84
557.96	1093.50
558.32	1082.97
558.67	1078.28
559.02	1088.35
559.37	1081.80
559.73	1074.54
560.08	1079.22
560.43	1085.07
560.79	1069.39
561.14	1075.48
561.49	1087.88
561.85	1082.50
562.20	1074.31
562.55	1081.80
562.90	1082.50
563.26	1079.22
563.61	1074.07
563.96	1085.31
564.32	1084.60
564.67	1089.05
565.02	1079.22
565.37	1082.97
565.73	1084.37
566.08	1081.56
566.43	1081.09
566.78	1075.48
567.14	1084.14
567.49	1072.43
567.84	1072.43
568.19	1075.94
568.54	1096.07
568.90	1096.78
569.25	1102.39
569.60	1101.46
569.95	1101.46
570.31	1084.84
570.66	1076.88
571.01	1078.52
571.36	1076.88
571.71	1069.62
572.06	1089.29
572.42	1084.84
572.77	1077.82
573.12	1084.14
573.47	1087.41
573.82	1079.92
574.18	1084.84
574.53	1088.82
574.88	1084.37
575.23	1082.50
575.58	1083.90
575.93	1083.67
576.28	1086.71
576.64	1092.09
576.99	1096.31
577.34	1094.20
577.69	1097.48
578.04	1095.37
578.39	1091.63
578.74	1093.73
579.09	1092.09
579.44	1086.24
579.80	1089.75
580.15	1086.01
580.50	1077.35
580.85	1068.92
581.20	1078.75
581.55	1076.41
581.90	1072.90
582.25	1070.80
582.60	1075.48
582.95	1074.54
583.30	1070.09
583.65	1072.20
584.00	1080.86
584.35	1091.63
584.71	1084.84
585.06	1088.12
585.41	1096.54
585.76	1094.20
586.11	1077.58
586.46	1077.35
586.81	1073.84
587.16	1069.62
587.51	1073.84
587.86	1083.20
588.21	1083.67
588.56	1095.60
588.91	1096.54
589.26	1097.24
589.61	1097.48
589.96	1093.73
590.31	1094.43
590.66	1096.54
591.01	1092.80
591.36	1084.37
591.71	1087.18
592.06	1072.67
592.41	1072.90
592.76	1076.41
593.10	1088.82
593.45	1092.56
593.80	1105.20
594.15	1105.44
594.50	1102.63
594.85	1102.86
595.20	1099.12
595.55	1091.63
595.90	1083.90
596.25	1086.94
596.60	1078.52
596.95	1075.94
597.30	1079.22
597.64	1145.69
597.99	1141.25
598.34	1133.05
598.69	1141.95
599.04	1136.33
599.39	1063.54
599.74	1061.20
600.09	1067.99
600.44	1064.48
600.78	1065.65
601.13	1077.35
601.48	1074.07
601.83	1076.88
602.18	1075.94
602.53	1072.90
602.88	1067.28
603.22	1064.48
603.57	1065.88
603.92	1063.77
604.27	1071.26
604.62	1079.69
604.97	1085.54
605.31	1081.33
605.66	1089.75
606.01	1079.92
606.36	1075.48
606.71	1078.99
607.05	1081.56
607.40	1075.01
607.75	1084.14
608.10	1082.73
608.44	1084.14
608.79	1078.05
609.14	1071.73
609.49	1063.07
609.84	1081.09
610.18	1081.80
610.53	1090.46
610.88	1101.92
611.23	1106.61
611.57	1095.37
611.92	1088.12
612.27	1084.14
612.62	1082.03
612.96	1089.29
613.31	1082.03
613.66	1091.39
614.00	1094.43
614.35	1099.12
614.70	1099.12
615.05	1107.54
615.39	1108.71
615.74	1112.92
616.09	1106.84
616.43	1098.18
616.78	1089.29
617.13	1079.22
617.47	1067.99
617.82	1061.90
618.17	1070.09
618.51	1077.82
618.86	1074.31
619.21	1071.03
619.55	1072.90
619.90	1068.45
620.25	1065.41
620.59	1060.50
620.94	1071.73
621.29	1077.58
621.63	1070.80
621.98	1075.01
622.32	1083.90
622.67	1080.86
623.02	1078.75
623.36	1089.99
623.71	1083.67
624.05	1087.65
624.40	1088.58
624.75	1089.52
625.09	1086.71
625.44	1089.05
625.78	1084.37
626.13	1086.94
626.48	1075.48
626.82	1075.48
627.17	1075.71
627.51	1071.50
627.86	1072.43
628.20	1090.92
628.55	1082.73
628.89	1083.90
629.24	1087.65
629.58	1089.05
629.93	1078.52
630.28	1088.12
630.62	1078.28
630.97	1091.39
631.31	1098.18
631.66	1090.69
632.00	1084.60
632.35	1087.41
632.69	1078.99
633.04	1068.92
633.38	1078.52
633.73	1083.20
634.07	1086.94
634.42	1090.92
634.76	1102.63
635.11	1097.01
635.45	1091.16
635.79	1095.37
636.14	1088.58
636.48	1074.54
636.83	1076.18
637.17	1088.82
637.52	1085.77
637.86	1087.65
638.21	1085.07
638.55	1086.94
638.89	1086.48
639.24	1086.94
639.58	1082.73
639.93	1084.60
640.27	1086.01
640.61	1080.16
640.96	1079.22
641.30	1093.97
641.65	1100.75
641.99	1098.41
642.33	1094.20
642.68	1094.20
643.02	1075.24
643.37	1062.14
643.71	1056.99
644.05	1061.90
644.40	1057.22
644.74	1069.16
645.08	1086.24
645.43	1100.05
645.77	1096.07
646.11	1103.80
646.46	1106.37
646.80	1097.48
647.14	1094.90
647.49	1098.41
647.83	1086.48
648.17	1081.56
648.52	1081.33
648.86	1081.33
649.20	1078.99
649.55	1077.82
649.89	1074.54
650.23	1074.54
650.57	1076.41
650.92	1084.60
651.26	1093.26
651.60	1095.60
651.95	1097.48
652.29	1092.80
652.63	1092.33
652.97	1092.56
653.32	1095.37
653.66	1085.31
654.00	1089.29
654.34	1082.26
654.69	1088.35
655.03	1090.69
655.37	1107.31
655.71	1098.65
656.05	1097.01
656.40	1092.56
656.74	1088.12
657.08	1086.71
657.42	1094.43
657.76	1097.95
658.11	1093.26
658.45	1095.37
658.79	1094.90
659.13	1092.33
659.47	1086.48
659.82	1091.63
660.16	1082.97
660.50	1075.94
660.84	1070.56
661.18	1076.88
661.52	1082.26
661.87	1089.99
662.21	1093.50
662.55	1088.35
662.89	1080.86
663.23	1086.24
663.57	1088.58
663.91	1082.26
664.25	1093.50
664.60	1103.80
664.94	1094.67
665.28	1098.18
665.62	1100.52
665.96	1092.33
666.30	1079.69
666.64	1069.39
666.98	1064.71
667.32	1070.56
667.66	1067.28
668.01	1063.31
668.35	1073.14
668.69	1066.11
669.03	1055.82
669.37	1062.37
669.71	1073.14
670.05	1067.99
670.39	1077.82
670.73	1081.33
671.07	1085.54
671.41	1083.67
671.75	1090.46
672.09	1092.80
672.43	1098.88
672.77	1091.16
673.11	1093.97
673.45	1093.73
673.79	1092.09
674.13	1080.63
674.47	1092.80
674.81	1104.26
675.15	1104.50
675.49	1104.97
675.83	1109.88
676.17	1104.97
676.51	1090.22
676.85	1077.82
677.19	1072.67
677.53	1070.80
677.87	1074.07
678.21	1077.58
678.55	1095.37
678.89	1093.26
679.23	1098.41
679.57	1090.92
679.90	1082.97
680.24	1073.37
680.58	1075.01
680.92	1071.26
681.26	1073.60
681.60	1076.18
681.94	1073.84
682.28	1061.43
682.62	1059.33
682.96	1058.86
683.29	1060.03
683.63	1066.35
683.97	1074.07
684.31	1082.26
684.65	1085.07
684.99	1087.41
685.33	1087.18
685.67	1086.24
686.00	1076.88
686.34	1073.37
686.68	1073.14
687.02	1067.28
687.36	1068.92
687.70	1077.11
688.03	1078.99
688.37	1081.33
688.71	1095.84
689.05	1097.95
689.39	1100.05
689.72	1101.46
690.06	1100.52
690.40	1096.07
690.74	1098.65
691.08	1097.95
691.41	1094.67
691.75	1106.37
692.09	1099.82
692.43	1100.05
692.76	1095.84
693.10	1093.03
693.44	1089.52
693.78	1094.20
694.11	1088.12
694.45	1084.60
694.79	1090.22
695.13	1078.28
695.46	1067.99
695.80	1073.60
696.14	1081.33
696.48	1084.60
696.81	1089.05
697.15	1104.97
697.49	1100.75
697.82	1100.52
698.16	1098.65
698.50	1103.33
698.83	1093.97
699.17	1083.90
699.51	1082.26
699.84	1079.46
700.18	1072.20
700.52	1068.45
700.85	1081.09
701.19	1083.20
701.53	1085.07
701.86	1083.67
702.20	1082.97
702.54	1074.77
702.87	1065.41
703.21	1063.54
703.55	1070.33
703.88	1076.18
704.22	1082.97
704.55	1086.24
704.89	1086.94
705.23	1075.71
705.56	1071.26
705.90	1077.11
706.23	1079.22
706.57	1081.33
706.91	1077.58
707.24	1071.50
707.58	1060.26
707.91	1054.88
708.25	1055.11
708.58	1056.28
708.92	1057.92
709.26	1051.37
709.59	1050.67
709.93	1052.54
710.26	1055.58
710.60	1063.54
710.93	1074.31
711.27	1078.05
711.60	1074.54
711.94	1085.07
712.27	1078.99
712.61	1080.63
712.94	1089.52
713.28	1098.41
713.61	1104.97
713.95	1107.78
714.28	1107.78
714.62	1100.05
714.95	1089.05
715.29	1081.09
715.62	1078.05
715.96	1074.54
716.29	1074.31
716.63	1085.07
716.96	1083.90
717.29	1089.29
717.63	1098.88
717.96	1104.73
718.30	1090.22
718.63	1089.75
718.97	1086.48
719.30	1079.46
719.63	1079.69
719.97	1079.69
720.30	1081.33
720.64	1085.77
720.97	1086.01
721.30	1078.28
721.64	1081.56
721.97	1080.16
722.31	1076.88
722.64	1067.99
722.97	1076.18
723.31	1068.69
723.64	1071.03
723.97	1077.11
724.31	1081.09
724.64	1074.07
724.98	1077.58
725.31	1069.16
725.64	1066.35
725.98	1072.90
726.31	1078.05
726.64	1071.73
726.97	1078.75
727.31	1074.54
727.64	1083.67
727.97	1081.33
728.31	1100.05
728.64	1102.39
728.97	1100.52
729.31	1089.52
729.64	1088.35
729.97	1082.03
730.30	1060.96
730.64	1049.96
730.97	1048.09
731.30	1046.92
731.63	1038.73
731.97	1056.99
732.30	1066.82
732.63	1074.77
732.96	1069.86
733.30	1071.97
733.63	1065.41
733.96	1071.50
734.29	1069.16
734.63	1076.18
734.96	1085.07
735.29	1087.41
735.62	1083.43
735.95	1078.52
736.29	1075.48
736.62	1070.56
736.95	1075.71
737.28	1082.97
737.61	1092.80
737.94	1087.88
738.28	1085.77
738.61	1077.82
738.94	1077.35
739.27	1067.05
739.60	1067.05
739.93	1075.94
740.27	1079.92
740.60	1079.46
740.93	1085.54
741.26	1099.12
741.59	1099.82
741.92	1104.73
742.25	1108.48
742.58	1112.92
742.91	1099.82
743.25	1089.75
743.58	1089.52
743.91	1084.84
744.24	1066.82
744.57	1071.73
744.90	1078.75
745.23	1078.05
745.56	1075.24
745.89	1091.63
746.22	1099.82
746.55	1094.43
746.88	1090.92
747.21	1084.37
747.54	1083.20
747.87	1072.43
748.20	1076.18
748.53	1074.54
748.87	1086.71
749.20	1081.80
749.53	1083.43
749.86	1081.09
750.19	1079.22
750.52	1067.52
750.85	1070.56
751.18	1071.03
751.51	1069.62
751.84	1082.50
752.16	1078.52
752.49	1082.26
752.82	1090.46
753.15	1096.78
753.48	1085.07
753.81	1090.92
754.14	1080.63
754.47	1071.97
754.80	1070.33
755.13	1064.24
755.46	1065.41
755.79	1068.22
756.12	1067.75
756.45	1069.86
756.78	1073.37
757.11	1079.92
757.43	1076.65
757.76	1079.92
758.09	1083.67
758.42	1087.41
758.75	1083.67
759.08	1098.18
759.41	1092.33
759.74	1083.67
760.07	1088.35
760.39	1095.37
760.72	1085.07
761.05	1089.75
761.38	1079.92
761.71	1075.71
762.04	1061.67
762.36	1061.67
762.69	1065.88
763.02	1073.60
763.35	1068.22
763.68	1075.01
764.01	1080.16
764.33	1076.88
764.66	1091.39
764.99	1102.63
765.32	1105.44
765.65	1099.12
765.97	1104.50
766.30	1095.14
