SpectraSuite Data File
++++++++++++++++++++++++++++++++++++
Date: Mon Aug 26 10:25:44 PDT 2019
User: corrico
Dark Spectrum Present: No
Reference Spectrum Present: No
Number of Sampled Component Spectra: 1
Spectrometers: USB2+H06089
Integration Time (usec): 10000 (USB2+H06089)
Spectra Averaged: 2 (USB2+H06089)
Boxcar Smoothing: 2 (USB2+H06089)
Correct for Electrical Dark: No (USB2+H06089)
Strobe/Lamp Enabled: No (USB2+H06089)
Correct for Detector Non-linearity: No (USB2+H06089)
Correct for Stray Light: No (USB2+H06089)
Number of Pixels in Processed Spectrum: 2048
>>>>>Begin Processed Spectral Data<<<<<
339.70	1066.11
340.07	1066.11
340.45	1018.84
340.82	998.47
341.19	962.19
341.57	925.92
341.94	917.26
342.31	910.94
342.69	895.49
343.06	885.89
343.43	882.85
343.81	882.62
344.18	887.53
344.55	890.34
344.93	899.00
345.30	912.81
345.67	918.66
346.04	924.04
346.42	935.51
346.79	952.13
347.16	961.73
347.54	979.28
347.91	983.73
348.28	994.03
348.65	1006.66
349.03	1014.86
349.40	1016.26
349.77	1035.22
350.14	1038.73
350.52	1043.88
350.89	1047.16
351.26	1051.37
351.63	1061.20
352.01	1064.94
352.38	1070.33
352.75	1081.09
353.12	1088.82
353.50	1080.86
353.87	1081.56
354.24	1084.60
354.61	1078.05
354.98	1075.24
355.36	1077.11
355.73	1085.07
356.10	1075.71
356.47	1074.54
356.84	1080.39
357.22	1072.90
357.59	1072.90
357.96	1080.39
358.33	1099.12
358.70	1097.48
359.08	1094.67
359.45	1093.03
359.82	1092.33
360.19	1084.37
360.56	1081.09
360.94	1084.84
361.31	1087.65
361.68	1088.12
362.05	1069.86
362.42	1066.58
362.79	1067.52
363.16	1051.37
363.54	1046.69
363.91	1052.77
364.28	1055.35
364.65	1056.52
365.02	1076.18
365.39	1081.33
365.76	1079.22
366.14	1077.11
366.51	1073.84
366.88	1061.90
367.25	1059.79
367.62	1064.48
367.99	1062.14
368.36	1064.94
368.73	1067.05
369.10	1066.11
369.48	1068.92
369.85	1070.56
370.22	1072.43
370.59	1068.69
370.96	1060.73
371.33	1055.82
371.70	1061.90
372.07	1061.90
372.44	1067.75
372.81	1077.82
373.18	1081.56
373.55	1074.31
373.93	1066.58
374.30	1066.35
374.67	1058.62
375.04	1061.90
375.41	1068.92
375.78	1076.18
376.15	1080.39
376.52	1090.22
376.89	1085.07
377.26	1077.82
377.63	1084.60
378.00	1076.18
378.37	1066.35
378.74	1065.41
379.11	1067.99
379.48	1055.82
379.85	1054.88
380.22	1056.05
380.59	1051.37
380.96	1051.37
381.33	1056.05
381.70	1057.69
382.07	1063.07
382.44	1066.82
382.81	1059.79
383.18	1058.62
383.55	1064.48
383.92	1062.37
384.29	1067.28
384.66	1073.14
385.03	1072.90
385.40	1075.24
385.77	1082.97
386.14	1086.24
386.51	1083.43
386.88	1084.37
387.25	1071.73
387.62	1063.07
387.99	1056.28
388.36	1059.09
388.73	1065.41
389.10	1080.16
389.46	1089.29
389.83	1081.80
390.20	1085.07
390.57	1084.60
390.94	1076.18
391.31	1071.97
391.68	1078.99
392.05	1067.28
392.42	1058.39
392.79	1067.52
393.16	1064.94
393.53	1069.86
393.89	1068.69
394.26	1070.09
394.63	1060.96
395.00	1054.41
395.37	1054.41
395.74	1057.92
396.11	1058.86
396.48	1061.20
396.84	1070.56
397.21	1067.05
397.58	1074.07
397.95	1078.28
398.32	1081.80
398.69	1083.90
399.06	1079.69
399.42	1084.14
399.79	1076.18
400.16	1076.18
400.53	1068.22
400.90	1078.05
401.27	1071.26
401.64	1074.54
402.00	1065.41
402.37	1073.37
402.74	1066.58
403.11	1070.09
403.48	1074.31
403.84	1085.77
404.21	1075.01
404.58	1079.46
404.95	1087.18
405.32	1087.65
405.68	1081.09
406.05	1087.18
406.42	1082.50
406.79	1064.94
407.16	1070.33
407.52	1077.11
407.89	1075.01
408.26	1080.39
408.63	1086.24
408.99	1078.75
409.36	1067.52
409.73	1063.07
410.10	1061.43
410.47	1063.31
410.83	1055.58
411.20	1066.82
411.57	1075.71
411.94	1075.71
412.30	1074.31
412.67	1078.28
413.04	1068.22
413.40	1056.99
413.77	1051.84
414.14	1054.88
414.51	1060.50
414.87	1061.43
415.24	1066.11
415.61	1067.75
415.97	1063.07
416.34	1061.43
416.71	1070.09
417.08	1074.77
417.44	1077.82
417.81	1082.50
418.18	1084.60
418.54	1084.60
418.91	1085.77
419.28	1078.52
419.64	1078.75
420.01	1070.09
420.38	1069.39
420.74	1067.05
421.11	1075.48
421.48	1074.07
421.84	1081.56
422.21	1073.84
422.58	1074.77
422.94	1078.28
423.31	1069.16
423.68	1067.75
424.04	1067.28
424.41	1065.18
424.77	1057.92
425.14	1067.52
425.51	1070.33
425.87	1069.16
426.24	1064.71
426.61	1067.52
426.97	1062.84
427.34	1056.28
427.70	1056.99
428.07	1065.65
428.44	1060.26
428.80	1066.58
429.17	1071.26
429.53	1070.09
429.90	1063.31
430.27	1075.24
430.63	1072.67
431.00	1065.41
431.36	1074.77
431.73	1083.43
432.09	1079.69
432.46	1072.20
432.83	1078.05
433.19	1072.67
433.56	1071.50
433.92	1070.56
434.29	1079.22
434.65	1086.94
435.02	1100.05
435.38	1103.09
435.75	1099.58
436.11	1102.63
436.48	1091.16
436.84	1074.54
437.21	1068.45
437.57	1067.52
437.94	1058.62
438.30	1066.35
438.67	1070.33
439.03	1072.20
439.40	1073.60
439.76	1075.48
440.13	1069.86
440.49	1069.16
440.86	1061.43
441.22	1067.75
441.59	1067.52
441.95	1068.22
442.32	1066.82
442.68	1075.01
443.05	1070.80
443.41	1076.41
443.78	1083.43
444.14	1086.01
444.51	1082.97
444.87	1082.73
445.24	1078.99
445.60	1076.41
445.96	1062.84
446.33	1066.82
446.69	1065.65
447.06	1068.45
447.42	1058.39
447.79	1069.16
448.15	1061.90
448.51	1061.43
448.88	1054.18
449.24	1050.90
449.61	1056.75
449.97	1068.45
450.33	1074.31
450.70	1077.58
451.06	1097.48
451.43	1093.50
451.79	1083.20
452.15	1077.58
452.52	1086.48
452.88	1071.03
453.24	1068.69
453.61	1071.73
453.97	1079.22
454.34	1080.39
454.70	1074.77
455.06	1085.54
455.43	1083.43
455.79	1075.24
456.15	1069.39
456.52	1080.39
456.88	1079.69
457.24	1075.48
457.61	1078.99
457.97	1080.63
458.33	1080.39
458.70	1080.39
459.06	1094.20
459.42	1097.24
459.79	1100.29
460.15	1101.69
460.51	1100.05
460.88	1092.80
461.24	1087.18
461.60	1091.86
461.96	1094.20
462.33	1101.46
462.69	1110.35
463.05	1108.95
463.42	1105.90
463.78	1098.18
464.14	1080.63
464.50	1062.60
464.87	1063.31
465.23	1047.39
465.59	1061.90
465.95	1062.84
466.32	1079.92
466.68	1079.22
467.04	1091.39
467.40	1076.18
467.77	1080.16
468.13	1068.69
468.49	1065.18
468.85	1065.41
469.22	1077.82
469.58	1086.24
469.94	1084.37
470.30	1094.43
470.66	1092.09
471.03	1084.84
471.39	1071.03
471.75	1066.35
472.11	1072.43
472.47	1063.54
472.84	1058.62
473.20	1061.90
473.56	1075.48
473.92	1069.39
474.28	1073.37
474.65	1078.28
475.01	1082.97
475.37	1079.46
475.73	1078.05
476.09	1089.99
476.45	1083.90
476.81	1078.52
477.18	1082.26
477.54	1080.86
477.90	1075.94
478.26	1082.03
478.62	1090.22
478.98	1084.60
479.34	1082.26
479.71	1082.26
480.07	1077.58
480.43	1068.92
480.79	1074.54
481.15	1070.56
481.51	1068.69
481.87	1078.52
482.23	1083.43
482.59	1078.05
482.96	1073.37
483.32	1072.90
483.68	1077.35
484.04	1075.01
484.40	1077.11
484.76	1086.48
485.12	1080.39
485.48	1079.46
485.84	1078.28
486.20	1076.65
486.56	1079.69
486.92	1085.54
487.28	1075.94
487.64	1079.92
488.00	1078.05
488.37	1076.41
488.73	1077.11
489.09	1082.03
489.45	1081.09
489.81	1083.43
490.17	1085.31
490.53	1081.09
490.89	1074.54
491.25	1071.73
491.61	1077.35
491.97	1077.82
492.33	1072.67
492.69	1072.43
493.05	1068.45
493.41	1068.69
493.77	1063.54
494.13	1070.80
494.49	1075.94
494.85	1080.63
495.21	1080.86
495.57	1085.54
495.93	1094.90
496.29	1089.99
496.64	1088.82
497.00	1081.33
497.36	1076.18
497.72	1070.56
498.08	1067.05
498.44	1067.99
498.80	1065.65
499.16	1066.82
499.52	1068.69
499.88	1070.09
500.24	1075.01
500.60	1083.20
500.96	1092.80
501.32	1091.39
501.68	1090.46
502.03	1094.43
502.39	1087.41
502.75	1085.31
503.11	1073.60
503.47	1074.54
503.83	1067.28
504.19	1077.35
504.55	1075.94
504.91	1077.35
505.26	1079.22
505.62	1076.88
505.98	1074.31
506.34	1074.54
506.70	1086.24
507.06	1087.88
507.42	1089.75
507.78	1083.67
508.13	1077.35
508.49	1075.24
508.85	1087.65
509.21	1081.56
509.57	1076.18
509.93	1084.14
510.28	1080.16
510.64	1067.99
511.00	1076.18
511.36	1085.31
511.72	1087.41
512.07	1088.82
512.43	1089.75
512.79	1091.16
513.15	1082.97
513.51	1069.16
513.86	1076.41
514.22	1086.48
514.58	1093.50
514.94	1110.35
515.30	1125.33
515.65	1129.78
516.01	1120.41
516.37	1112.92
516.73	1106.37
517.08	1100.05
517.44	1098.18
517.80	1096.54
518.16	1105.90
518.51	1106.37
518.87	1097.01
519.23	1094.90
519.59	1100.99
519.94	1097.71
520.30	1091.86
520.66	1104.50
521.01	1101.92
521.37	1095.60
521.73	1089.99
522.09	1088.12
522.44	1081.80
522.80	1077.58
523.16	1075.71
523.51	1071.50
523.87	1083.67
524.23	1083.67
524.58	1082.97
524.94	1098.18
525.30	1101.46
525.65	1094.20
526.01	1101.46
526.37	1106.37
526.72	1102.39
527.08	1099.58
527.44	1104.97
527.79	1105.44
528.15	1104.26
528.51	1091.39
528.86	1092.33
529.22	1091.63
529.58	1082.97
529.93	1085.54
530.29	1090.92
530.65	1100.52
531.00	1092.33
531.36	1091.63
531.71	1090.92
532.07	1093.97
532.43	1086.94
532.78	1095.84
533.14	1096.07
533.49	1099.35
533.85	1094.20
534.21	1090.46
534.56	1087.88
534.92	1086.24
535.27	1072.67
535.63	1076.65
535.98	1078.52
536.34	1078.99
536.69	1080.39
537.05	1091.16
537.41	1082.03
537.76	1071.73
538.12	1063.07
538.47	1060.03
538.83	1054.41
539.18	1071.03
539.54	1081.33
539.89	1089.99
540.25	1093.97
540.60	1091.39
540.96	1088.58
541.31	1083.20
541.67	1087.18
542.02	1093.03
542.38	1100.05
542.73	1090.69
543.09	1097.48
543.44	1092.80
543.80	1082.03
544.15	1080.63
544.51	1087.18
544.86	1091.63
545.22	1091.39
545.57	1096.07
545.93	1094.90
546.28	1093.50
546.64	1086.01
546.99	1089.75
547.35	1088.82
547.70	1085.31
548.05	1082.73
548.41	1090.92
548.76	1077.82
549.12	1074.07
549.47	1078.05
549.83	1077.82
550.18	1074.77
550.53	1082.73
550.89	1091.39
551.24	1087.65
551.60	1096.07
551.95	1085.54
552.30	1089.05
552.66	1089.05
553.01	1102.16
553.37	1089.05
553.72	1088.58
554.07	1087.41
554.43	1082.50
554.78	1070.56
555.13	1072.67
555.49	1075.71
555.84	1073.84
556.19	1070.80
556.55	1068.69
556.90	1063.07
557.26	1058.16
557.61	1056.05
557.96	1069.16
558.32	1078.28
558.67	1085.54
559.02	1086.01
559.37	1083.20
559.73	1070.56
560.08	1063.31
560.43	1066.11
560.79	1081.09
561.14	1085.07
561.49	1089.75
561.85	1083.67
562.20	1076.18
562.55	1058.86
562.90	1052.54
563.26	1053.24
563.61	1059.56
563.96	1066.82
564.32	1079.69
564.67	1090.22
565.02	1095.14
565.37	1101.22
565.73	1098.65
566.08	1093.73
566.43	1091.16
566.78	1082.26
567.14	1082.26
567.49	1084.84
567.84	1086.01
568.19	1088.12
568.54	1088.35
568.90	1073.60
569.25	1079.92
569.60	1077.82
569.95	1076.88
570.31	1071.73
570.66	1072.43
571.01	1070.80
571.36	1075.24
571.71	1068.45
572.06	1077.58
572.42	1091.16
572.77	1084.37
573.12	1078.75
573.47	1073.60
573.82	1071.03
574.18	1073.60
574.53	1069.62
574.88	1070.56
575.23	1081.80
575.58	1082.73
575.93	1078.75
576.28	1078.28
576.64	1075.48
576.99	1065.18
577.34	1060.26
577.69	1047.39
578.04	1057.92
578.39	1056.52
578.74	1060.96
579.09	1063.54
579.44	1071.26
579.80	1060.73
580.15	1065.41
580.50	1065.65
580.85	1064.94
581.20	1061.43
581.55	1060.73
581.90	1062.60
582.25	1063.31
582.60	1067.28
582.95	1071.73
583.30	1083.90
583.65	1093.50
584.00	1100.05
584.35	1097.95
584.71	1090.92
585.06	1086.01
585.41	1076.41
585.76	1064.24
586.11	1057.92
586.46	1070.80
586.81	1078.99
587.16	1084.84
587.51	1092.80
587.86	1093.26
588.21	1086.01
588.56	1072.43
588.91	1069.39
589.26	1080.86
589.61	1083.43
589.96	1093.50
590.31	1087.88
590.66	1091.16
591.01	1078.99
591.36	1082.03
591.71	1074.31
592.06	1097.24
592.41	1088.35
592.76	1081.56
593.10	1079.46
593.45	1080.63
593.80	1072.90
594.15	1074.54
594.50	1085.07
594.85	1089.29
595.20	1085.31
595.55	1072.90
595.90	1078.05
596.25	1069.62
596.60	1068.92
596.95	1073.84
597.30	1079.22
597.64	1122.52
597.99	1127.44
598.34	1138.67
598.69	1137.73
599.04	1134.69
599.39	1093.26
599.74	1090.69
600.09	1082.50
600.44	1077.58
600.78	1073.37
601.13	1065.41
601.48	1060.03
601.83	1059.33
602.18	1063.31
602.53	1072.90
602.88	1076.65
603.22	1091.86
603.57	1085.77
603.92	1077.35
604.27	1073.14
604.62	1066.82
604.97	1065.41
605.31	1078.05
605.66	1087.65
606.01	1089.29
606.36	1090.92
606.71	1084.60
607.05	1073.60
607.40	1077.58
607.75	1078.05
608.10	1088.82
608.44	1087.88
608.79	1091.16
609.14	1090.69
609.49	1092.09
609.84	1091.63
610.18	1096.78
610.53	1107.54
610.88	1106.14
611.23	1104.97
611.57	1094.43
611.92	1099.58
612.27	1087.41
612.62	1078.52
612.96	1075.48
613.31	1073.84
613.66	1062.60
614.00	1061.90
614.35	1079.22
614.70	1082.97
615.05	1089.99
615.39	1086.48
615.74	1092.56
616.09	1079.22
616.43	1077.11
616.78	1081.56
617.13	1087.18
617.47	1079.22
617.82	1078.05
618.17	1074.54
618.51	1066.58
618.86	1065.88
619.21	1062.60
619.55	1064.01
619.90	1076.88
620.25	1081.56
620.59	1076.41
620.94	1076.41
621.29	1079.22
621.63	1063.54
621.98	1060.96
622.32	1076.18
622.67	1084.84
623.02	1081.56
623.36	1095.37
623.71	1086.24
624.05	1068.45
624.40	1062.14
624.75	1070.09
625.09	1066.82
625.44	1081.09
625.78	1088.82
626.13	1089.05
626.48	1092.33
626.82	1091.16
627.17	1079.69
627.51	1080.16
627.86	1088.12
628.20	1082.26
628.55	1081.33
628.89	1080.63
629.24	1083.90
629.58	1078.28
629.93	1069.39
630.28	1071.03
630.62	1077.35
630.97	1070.09
631.31	1069.39
631.66	1075.24
632.00	1073.14
632.35	1070.80
632.69	1072.43
633.04	1078.52
633.38	1073.84
633.73	1070.09
634.07	1069.62
634.42	1060.03
634.76	1057.69
635.11	1058.39
635.45	1064.94
635.79	1060.26
636.14	1070.56
636.48	1061.90
636.83	1071.73
637.17	1070.09
637.52	1082.26
637.86	1080.39
638.21	1083.90
638.55	1076.65
638.89	1077.82
639.24	1078.52
639.58	1083.20
639.93	1084.14
640.27	1075.01
640.61	1072.67
640.96	1068.92
641.30	1069.16
641.65	1070.56
641.99	1081.80
642.33	1081.09
642.68	1074.54
643.02	1076.88
643.37	1084.37
643.71	1081.09
644.05	1080.16
644.40	1091.39
644.74	1100.05
645.08	1087.41
645.43	1090.69
645.77	1087.18
646.11	1082.03
646.46	1072.90
646.80	1075.24
647.14	1072.43
647.49	1071.26
647.83	1067.99
648.17	1066.58
648.52	1080.16
648.86	1083.43
649.20	1087.65
649.55	1097.24
649.89	1092.80
650.23	1085.54
650.57	1076.18
650.92	1085.31
651.26	1075.24
651.60	1081.56
651.95	1069.86
652.29	1078.28
652.63	1075.01
652.97	1087.88
653.32	1084.14
653.66	1095.60
654.00	1089.99
654.34	1079.69
654.69	1064.94
655.03	1062.14
655.37	1071.97
655.71	1078.75
656.05	1077.58
656.40	1083.67
656.74	1089.75
657.08	1078.52
657.42	1075.94
657.76	1080.16
658.11	1081.56
658.45	1078.28
658.79	1085.07
659.13	1082.26
659.47	1096.07
659.82	1094.67
660.16	1087.65
660.50	1074.07
660.84	1080.16
661.18	1074.77
661.52	1083.90
661.87	1091.86
662.21	1099.12
662.55	1093.03
662.89	1084.60
663.23	1065.88
663.57	1075.71
663.91	1075.48
664.25	1084.60
664.60	1084.84
664.94	1093.50
665.28	1092.33
665.62	1091.86
665.96	1083.43
666.30	1090.92
666.64	1091.86
666.98	1085.77
667.32	1071.50
667.66	1073.14
668.01	1078.28
668.35	1074.07
668.69	1067.05
669.03	1073.37
669.37	1066.35
669.71	1055.82
670.05	1061.90
670.39	1071.73
670.73	1083.67
671.07	1091.63
671.41	1089.75
671.75	1089.52
672.09	1079.69
672.43	1070.33
672.77	1064.94
673.11	1064.01
673.45	1065.88
673.79	1074.54
674.13	1078.05
674.47	1087.18
674.81	1095.37
675.15	1086.01
675.49	1093.97
675.83	1094.20
676.17	1091.63
676.51	1086.48
676.85	1092.09
677.19	1082.73
677.53	1078.75
677.87	1068.92
678.21	1068.45
678.55	1071.50
678.89	1068.45
679.23	1071.26
679.57	1081.80
679.90	1086.01
680.24	1083.20
680.58	1080.39
680.92	1077.35
681.26	1074.31
681.60	1072.67
681.94	1073.37
682.28	1073.14
682.62	1072.43
682.96	1072.20
683.29	1071.97
683.63	1073.37
683.97	1076.18
684.31	1088.35
684.65	1079.22
684.99	1069.86
685.33	1062.84
685.67	1069.86
686.00	1063.07
686.34	1074.77
686.68	1091.39
687.02	1093.50
687.36	1088.58
687.70	1086.24
688.03	1083.90
688.37	1070.09
688.71	1061.90
689.05	1052.54
689.39	1051.37
689.72	1053.48
690.06	1066.11
690.40	1081.33
690.74	1095.84
691.08	1097.95
691.41	1105.90
691.75	1090.46
692.09	1080.16
692.43	1078.99
692.76	1079.46
693.10	1069.39
693.44	1080.16
693.78	1086.24
694.11	1062.37
694.45	1067.99
694.79	1067.52
695.13	1062.84
695.46	1074.31
695.80	1084.60
696.14	1079.69
696.48	1083.43
696.81	1082.26
697.15	1077.82
697.49	1088.82
697.82	1084.14
698.16	1078.99
698.50	1082.97
698.83	1069.62
699.17	1060.03
699.51	1066.58
699.84	1065.65
700.18	1064.71
700.52	1067.99
700.85	1073.14
701.19	1068.22
701.53	1075.71
701.86	1073.60
702.20	1078.05
702.54	1070.80
702.87	1076.65
703.21	1061.90
703.55	1074.77
703.88	1075.01
704.22	1091.16
704.55	1086.24
704.89	1105.67
705.23	1097.24
705.56	1095.37
705.90	1100.99
706.23	1101.92
706.57	1103.56
706.91	1098.65
707.24	1098.41
707.58	1092.56
707.91	1091.16
708.25	1082.97
708.58	1088.12
708.92	1078.99
709.26	1067.28
709.59	1063.77
709.93	1063.54
710.26	1066.35
710.60	1075.48
710.93	1082.97
711.27	1086.01
711.60	1090.92
711.94	1082.50
712.27	1084.60
712.61	1078.52
712.94	1081.09
713.28	1080.39
713.61	1084.14
713.95	1082.73
714.28	1094.90
714.62	1090.46
714.95	1082.97
715.29	1088.12
715.62	1088.82
715.96	1081.80
716.29	1087.18
716.63	1078.75
716.96	1073.37
717.29	1081.56
717.63	1084.60
717.96	1079.92
718.30	1098.41
718.63	1097.01
718.97	1091.86
719.30	1089.52
719.63	1096.78
719.97	1084.84
720.30	1084.60
720.64	1083.67
720.97	1078.52
721.30	1072.20
721.64	1072.43
721.97	1075.24
722.31	1069.16
722.64	1071.26
722.97	1071.73
723.31	1079.92
723.64	1077.58
723.97	1086.71
724.31	1083.67
724.64	1083.20
724.98	1076.88
725.31	1079.46
725.64	1083.67
725.98	1080.63
726.31	1080.16
726.64	1084.37
726.97	1086.48
727.31	1079.69
727.64	1089.52
727.97	1093.03
728.31	1091.39
728.64	1083.90
728.97	1081.56
729.31	1076.41
729.64	1077.11
729.97	1072.43
730.30	1072.67
730.64	1074.31
730.97	1080.16
731.30	1079.22
731.63	1088.82
731.97	1098.65
732.30	1097.71
732.63	1098.18
732.96	1099.82
733.30	1095.37
733.63	1093.26
733.96	1089.05
734.29	1086.71
734.63	1092.80
734.96	1094.20
735.29	1095.14
735.62	1094.90
735.95	1090.46
736.29	1074.07
736.62	1079.22
736.95	1081.56
737.28	1084.14
737.61	1088.12
737.94	1100.05
738.28	1092.56
738.61	1088.12
738.94	1080.63
739.27	1077.35
739.60	1075.94
739.93	1065.41
740.27	1072.43
740.60	1081.33
740.93	1085.54
741.26	1074.77
741.59	1078.99
741.92	1063.54
742.25	1063.77
742.58	1062.60
742.91	1079.92
743.25	1088.35
743.58	1098.88
743.91	1096.31
744.24	1095.14
744.57	1081.80
744.90	1076.41
745.23	1081.56
745.56	1075.71
745.89	1074.77
746.22	1080.63
746.55	1078.99
746.88	1066.82
747.21	1071.97
747.54	1067.52
747.87	1064.71
748.20	1067.28
748.53	1065.41
748.87	1062.84
749.20	1064.71
749.53	1063.31
749.86	1056.75
750.19	1061.90
750.52	1060.50
750.85	1063.54
751.18	1069.62
751.51	1067.52
751.84	1067.52
752.16	1073.37
752.49	1077.11
752.82	1076.88
753.15	1085.07
753.48	1093.73
753.81	1102.86
754.14	1098.41
754.47	1096.31
754.80	1092.56
755.13	1083.43
755.46	1077.58
755.79	1084.60
756.12	1084.60
756.45	1093.03
756.78	1093.73
757.11	1096.78
757.43	1091.63
757.76	1093.97
758.09	1089.05
758.42	1085.07
758.75	1073.60
759.08	1077.11
759.41	1078.28
759.74	1082.73
760.07	1094.20
760.39	1103.09
760.72	1088.82
761.05	1090.22
761.38	1099.58
761.71	1096.07
762.04	1101.92
762.36	1112.69
762.69	1108.95
763.02	1097.48
763.35	1091.63
763.68	1078.75
764.01	1077.58
764.33	1074.54
764.66	1079.22
764.99	1077.58
765.32	1069.86
765.65	1071.03
765.97	1061.20
766.30	1051.84
