SpectraSuite Data File
++++++++++++++++++++++++++++++++++++
Date: Mon Aug 26 10:25:47 PDT 2019
User: corrico
Dark Spectrum Present: No
Reference Spectrum Present: No
Number of Sampled Component Spectra: 1
Spectrometers: USB2+H06089
Integration Time (usec): 10000 (USB2+H06089)
Spectra Averaged: 2 (USB2+H06089)
Boxcar Smoothing: 2 (USB2+H06089)
Correct for Electrical Dark: No (USB2+H06089)
Strobe/Lamp Enabled: No (USB2+H06089)
Correct for Detector Non-linearity: No (USB2+H06089)
Correct for Stray Light: No (USB2+H06089)
Number of Pixels in Processed Spectrum: 2048
>>>>>Begin Processed Spectral Data<<<<<
339.70	1052.07
340.07	1052.07
340.45	996.13
340.82	975.54
341.19	948.85
341.57	916.79
341.94	914.45
342.31	908.36
342.69	908.83
343.06	913.51
343.43	910.00
343.81	914.68
344.18	922.87
344.55	925.92
344.93	924.28
345.30	935.98
345.67	953.07
346.04	953.07
346.42	956.34
346.79	962.90
347.16	969.68
347.54	976.00
347.91	982.32
348.28	982.56
348.65	996.60
349.03	1020.47
349.40	1021.64
349.77	1034.75
350.14	1042.01
350.52	1040.60
350.89	1031.71
351.26	1025.39
351.63	1029.84
352.01	1033.35
352.38	1030.54
352.75	1030.77
353.12	1054.41
353.50	1058.86
353.87	1063.77
354.24	1075.48
354.61	1085.77
354.98	1075.71
355.36	1071.97
355.73	1069.86
356.10	1063.77
356.47	1060.03
356.84	1053.71
357.22	1058.86
357.59	1061.67
357.96	1072.43
358.33	1070.80
358.70	1085.07
359.08	1077.82
359.45	1077.35
359.82	1076.41
360.19	1084.14
360.56	1081.80
360.94	1087.18
361.31	1088.12
361.68	1087.65
362.05	1081.80
362.42	1082.73
362.79	1092.80
363.16	1101.69
363.54	1094.90
363.91	1094.20
364.28	1090.22
364.65	1073.60
365.02	1078.52
365.39	1084.37
365.76	1083.20
366.14	1091.39
366.51	1093.50
366.88	1071.97
367.25	1071.97
367.62	1064.94
367.99	1057.69
368.36	1060.50
368.73	1074.77
369.10	1069.16
369.48	1074.54
369.85	1073.37
370.22	1072.67
370.59	1069.86
370.96	1075.01
371.33	1076.41
371.70	1074.54
372.07	1072.67
372.44	1060.96
372.81	1050.67
373.18	1058.86
373.55	1051.37
373.93	1050.67
374.30	1062.60
374.67	1067.05
375.04	1055.11
375.41	1063.54
375.78	1066.58
376.15	1062.60
376.52	1068.69
376.89	1079.69
377.26	1085.54
377.63	1089.29
378.00	1082.73
378.37	1077.58
378.74	1060.96
379.11	1053.48
379.48	1052.54
379.85	1071.50
380.22	1071.97
380.59	1080.86
380.96	1076.65
381.33	1074.54
381.70	1067.05
382.07	1077.82
382.44	1068.69
382.81	1077.11
383.18	1076.88
383.55	1067.52
383.92	1062.60
384.29	1072.90
384.66	1068.69
385.03	1079.92
385.40	1083.43
385.77	1077.82
386.14	1071.97
386.51	1069.62
386.88	1060.50
387.25	1063.07
387.62	1058.39
387.99	1058.86
388.36	1065.65
388.73	1067.05
389.10	1060.73
389.46	1069.39
389.83	1074.54
390.20	1067.28
390.57	1067.52
390.94	1072.90
391.31	1064.71
391.68	1061.43
392.05	1073.37
392.42	1071.97
392.79	1076.88
393.16	1085.54
393.53	1095.60
393.89	1078.99
394.26	1075.71
394.63	1064.01
395.00	1060.96
395.37	1053.71
395.74	1056.52
396.11	1058.86
396.48	1064.24
396.84	1069.86
397.21	1069.86
397.58	1071.26
397.95	1066.35
398.32	1065.41
398.69	1057.45
399.06	1059.33
399.42	1055.82
399.79	1056.52
400.16	1055.11
400.53	1060.50
400.90	1057.22
401.27	1067.75
401.64	1073.84
402.00	1077.58
402.37	1081.56
402.74	1076.65
403.11	1083.20
403.48	1084.60
403.84	1085.54
404.21	1074.31
404.58	1081.33
404.95	1065.41
405.32	1057.22
405.68	1058.62
406.05	1057.69
406.42	1055.11
406.79	1058.62
407.16	1064.94
407.52	1057.22
407.89	1062.84
408.26	1062.84
408.63	1064.48
408.99	1058.16
409.36	1058.62
409.73	1053.24
410.10	1050.67
410.47	1050.20
410.83	1056.52
411.20	1060.03
411.57	1073.37
411.94	1084.37
412.30	1084.84
412.67	1085.54
413.04	1082.50
413.40	1073.60
413.77	1069.62
414.14	1068.69
414.51	1067.28
414.87	1069.16
415.24	1069.62
415.61	1062.14
415.97	1065.18
416.34	1070.09
416.71	1063.31
417.08	1059.79
417.44	1065.65
417.81	1065.18
418.18	1061.20
418.54	1065.18
418.91	1074.54
419.28	1078.52
419.64	1073.60
420.01	1067.75
420.38	1072.43
420.74	1067.05
421.11	1070.56
421.48	1075.24
421.84	1072.90
422.21	1077.82
422.58	1071.97
422.94	1057.45
423.31	1060.26
423.68	1059.56
424.04	1062.14
424.41	1063.54
424.77	1069.39
425.14	1061.67
425.51	1072.43
425.87	1066.58
426.24	1072.67
426.61	1079.22
426.97	1091.16
427.34	1090.22
427.70	1083.43
428.07	1081.09
428.44	1074.77
428.80	1073.14
429.17	1068.45
429.53	1075.94
429.90	1079.46
430.27	1090.92
430.63	1082.73
431.00	1085.77
431.36	1084.84
431.73	1079.46
432.09	1062.60
432.46	1067.99
432.83	1075.48
433.19	1075.01
433.56	1082.26
433.92	1086.01
434.29	1078.52
434.65	1070.09
435.02	1073.60
435.38	1078.05
435.75	1084.84
436.11	1084.84
436.48	1086.94
436.84	1076.65
437.21	1067.75
437.57	1060.96
437.94	1063.31
438.30	1061.20
438.67	1062.37
439.03	1072.43
439.40	1078.52
439.76	1070.09
440.13	1077.58
440.49	1086.01
440.86	1078.05
441.22	1078.99
441.59	1092.56
441.95	1075.01
442.32	1066.82
442.68	1058.39
443.05	1050.67
443.41	1050.67
443.78	1068.69
444.14	1071.73
444.51	1077.35
444.87	1076.41
445.24	1070.56
445.60	1057.92
445.96	1057.69
446.33	1064.48
446.69	1071.50
447.06	1074.07
447.42	1068.22
447.79	1069.39
448.15	1064.48
448.51	1070.09
448.88	1082.73
449.24	1093.03
449.61	1096.54
449.97	1099.58
450.33	1092.80
450.70	1084.84
451.06	1083.67
451.43	1085.31
451.79	1089.52
452.15	1090.92
452.52	1082.03
452.88	1087.18
453.24	1082.97
453.61	1079.46
453.97	1089.75
454.34	1097.48
454.70	1093.73
455.06	1090.92
455.43	1080.16
455.79	1068.45
456.15	1061.43
456.52	1055.82
456.88	1057.45
457.24	1074.07
457.61	1072.43
457.97	1080.86
458.33	1082.26
458.70	1081.56
459.06	1069.39
459.42	1074.07
459.79	1066.82
460.15	1068.69
460.51	1069.62
460.88	1081.80
461.24	1073.84
461.60	1085.77
461.96	1089.75
462.33	1093.03
462.69	1080.86
463.05	1084.60
463.42	1085.31
463.78	1087.18
464.14	1087.88
464.50	1086.48
464.87	1080.63
465.23	1079.92
465.59	1077.58
465.95	1076.18
466.32	1080.39
466.68	1086.94
467.04	1079.46
467.40	1074.07
467.77	1076.18
468.13	1066.82
468.49	1071.03
468.85	1078.28
469.22	1087.88
469.58	1091.16
469.94	1105.20
470.30	1100.52
470.66	1091.86
471.03	1080.86
471.39	1071.26
471.75	1068.69
472.11	1067.99
472.47	1070.80
472.84	1079.46
473.20	1082.26
473.56	1092.09
473.92	1090.22
474.28	1084.84
474.65	1087.65
475.01	1087.65
475.37	1080.39
475.73	1083.20
476.09	1089.05
476.45	1084.14
476.81	1079.22
477.18	1073.37
477.54	1078.99
477.90	1083.90
478.26	1087.65
478.62	1090.92
478.98	1091.86
479.34	1080.16
479.71	1070.56
480.07	1058.86
480.43	1056.05
480.79	1056.75
481.15	1068.45
481.51	1079.22
481.87	1080.86
482.23	1084.60
482.59	1079.92
482.96	1074.07
483.32	1064.94
483.68	1061.90
484.04	1061.67
484.40	1064.94
484.76	1068.69
485.12	1066.58
485.48	1075.71
485.84	1077.82
486.20	1080.86
486.56	1071.97
486.92	1075.24
487.28	1082.97
487.64	1082.97
488.00	1078.99
488.37	1083.20
488.73	1082.97
489.09	1067.75
489.45	1066.58
489.81	1065.88
490.17	1072.67
490.53	1079.22
490.89	1081.33
491.25	1077.35
491.61	1074.31
491.97	1063.07
492.33	1053.24
492.69	1052.30
493.05	1060.73
493.41	1063.77
493.77	1068.69
494.13	1060.03
494.49	1066.82
494.85	1069.86
495.21	1063.07
495.57	1066.58
495.93	1075.24
496.29	1075.48
496.64	1067.28
497.00	1067.99
497.36	1065.41
497.72	1064.48
498.08	1057.92
498.44	1064.71
498.80	1078.28
499.16	1086.01
499.52	1093.03
499.88	1103.80
500.24	1096.54
500.60	1095.84
500.96	1083.90
501.32	1086.94
501.68	1091.39
502.03	1094.90
502.39	1089.99
502.75	1099.82
503.11	1097.01
503.47	1091.39
503.83	1080.39
504.19	1076.88
504.55	1071.97
504.91	1072.20
505.26	1067.75
505.62	1074.54
505.98	1080.16
506.34	1075.94
506.70	1075.94
507.06	1083.67
507.42	1085.77
507.78	1083.43
508.13	1085.07
508.49	1068.22
508.85	1062.37
509.21	1061.67
509.57	1069.39
509.93	1071.26
510.28	1086.48
510.64	1079.92
511.00	1088.12
511.36	1085.54
511.72	1087.41
512.07	1093.73
512.43	1100.52
512.79	1095.60
513.15	1094.67
513.51	1094.20
513.86	1073.84
514.22	1073.37
514.58	1062.60
514.94	1061.90
515.30	1065.65
515.65	1076.88
516.01	1072.90
516.37	1089.05
516.73	1076.88
517.08	1071.26
517.44	1070.56
517.80	1069.16
518.16	1064.71
518.51	1075.24
518.87	1072.43
519.23	1075.01
519.59	1084.84
519.94	1082.73
520.30	1082.50
520.66	1083.67
521.01	1082.50
521.37	1080.16
521.73	1081.33
522.09	1092.09
522.44	1092.80
522.80	1101.46
523.16	1102.39
523.51	1100.52
523.87	1089.75
524.23	1089.99
524.58	1072.20
524.94	1065.65
525.30	1068.69
525.65	1076.65
526.01	1075.24
526.37	1086.71
526.72	1086.48
527.08	1083.67
527.44	1058.62
527.79	1052.77
528.15	1054.18
528.51	1061.90
528.86	1065.65
529.22	1083.67
529.58	1096.78
529.93	1100.05
530.29	1096.07
530.65	1092.80
531.00	1086.01
531.36	1080.16
531.71	1075.01
532.07	1074.07
532.43	1074.77
532.78	1076.88
533.14	1077.82
533.49	1084.60
533.85	1090.22
534.21	1089.99
534.56	1096.54
534.92	1095.84
535.27	1087.41
535.63	1082.03
535.98	1084.14
536.34	1083.67
536.69	1086.71
537.05	1080.16
537.41	1070.80
537.76	1070.09
538.12	1057.69
538.47	1060.26
538.83	1067.05
539.18	1067.05
539.54	1066.35
539.89	1076.65
540.25	1080.63
540.60	1084.37
540.96	1095.37
541.31	1088.58
541.67	1087.41
542.02	1084.84
542.38	1081.33
542.73	1082.73
543.09	1084.14
543.44	1086.48
543.80	1082.73
544.15	1082.03
544.51	1076.88
544.86	1075.24
545.22	1068.92
545.57	1067.75
545.93	1070.80
546.28	1072.90
546.64	1074.31
546.99	1073.60
547.35	1076.18
547.70	1078.52
548.05	1071.26
548.41	1082.73
548.76	1083.90
549.12	1069.62
549.47	1053.71
549.83	1054.41
550.18	1041.54
550.53	1040.84
550.89	1044.11
551.24	1049.73
551.60	1046.22
551.95	1054.18
552.30	1055.11
552.66	1062.14
553.01	1067.28
553.37	1073.60
553.72	1077.35
554.07	1082.73
554.43	1078.52
554.78	1078.28
555.13	1086.24
555.49	1089.52
555.84	1077.58
556.19	1083.20
556.55	1092.09
556.90	1077.58
557.26	1071.50
557.61	1084.14
557.96	1082.73
558.32	1075.48
558.67	1087.88
559.02	1087.41
559.37	1089.99
559.73	1088.12
560.08	1091.16
560.43	1089.29
560.79	1088.82
561.14	1081.80
561.49	1080.86
561.85	1077.82
562.20	1073.60
562.55	1071.50
562.90	1082.26
563.26	1080.16
563.61	1081.56
563.96	1076.41
564.32	1076.18
564.67	1066.35
565.02	1072.43
565.37	1069.62
565.73	1067.75
566.08	1073.37
566.43	1072.90
566.78	1070.09
567.14	1069.16
567.49	1081.56
567.84	1079.22
568.19	1082.26
568.54	1082.97
568.90	1076.88
569.25	1070.09
569.60	1071.26
569.95	1067.05
570.31	1068.45
570.66	1079.92
571.01	1082.50
571.36	1081.80
571.71	1077.82
572.06	1060.26
572.42	1053.24
572.77	1061.43
573.12	1054.65
573.47	1059.56
573.82	1072.67
574.18	1071.73
574.53	1061.20
574.88	1065.18
575.23	1065.88
575.58	1073.60
575.93	1076.41
576.28	1091.86
576.64	1082.50
576.99	1083.67
577.34	1079.69
577.69	1079.92
578.04	1069.39
578.39	1074.77
578.74	1070.56
579.09	1075.48
579.44	1081.33
579.80	1071.97
580.15	1070.56
580.50	1074.54
580.85	1074.07
581.20	1079.92
581.55	1081.80
581.90	1075.94
582.25	1075.94
582.60	1073.37
582.95	1058.39
583.30	1061.67
583.65	1071.73
584.00	1076.41
584.35	1079.22
584.71	1089.75
585.06	1102.63
585.41	1102.86
585.76	1091.63
586.11	1082.03
586.46	1079.69
586.81	1072.90
587.16	1067.99
587.51	1080.86
587.86	1081.33
588.21	1077.35
588.56	1067.52
588.91	1070.09
589.26	1058.86
589.61	1056.05
589.96	1056.99
590.31	1068.69
590.66	1071.03
591.01	1068.22
591.36	1082.03
591.71	1092.09
592.06	1088.35
592.41	1099.35
592.76	1110.12
593.10	1099.12
593.45	1083.20
593.80	1072.67
594.15	1054.18
594.50	1052.54
594.85	1057.45
595.20	1059.33
595.55	1071.03
595.90	1076.41
596.25	1078.05
596.60	1077.82
596.95	1081.09
597.30	1087.65
597.64	1147.80
597.99	1150.37
598.34	1147.80
598.69	1160.44
599.04	1151.54
599.39	1092.80
599.74	1091.16
600.09	1092.09
600.44	1079.22
600.78	1086.94
601.13	1081.56
601.48	1077.82
601.83	1083.20
602.18	1078.52
602.53	1068.69
602.88	1080.16
603.22	1082.26
603.57	1075.24
603.92	1086.71
604.27	1088.12
604.62	1070.56
604.97	1072.67
605.31	1079.46
605.66	1070.09
606.01	1070.56
606.36	1085.77
606.71	1087.88
607.05	1084.84
607.40	1097.24
607.75	1091.63
608.10	1093.03
608.44	1096.31
608.79	1093.50
609.14	1083.43
609.49	1092.33
609.84	1091.86
610.18	1079.46
610.53	1092.56
610.88	1098.65
611.23	1102.86
611.57	1109.41
611.92	1120.65
612.27	1117.37
612.62	1114.33
612.96	1107.31
613.31	1090.22
613.66	1082.03
614.00	1075.01
614.35	1076.65
614.70	1083.43
615.05	1092.33
615.39	1092.80
615.74	1098.18
616.09	1100.52
616.43	1092.33
616.78	1095.37
617.13	1094.67
617.47	1085.31
617.82	1076.41
618.17	1080.39
618.51	1078.99
618.86	1075.24
619.21	1088.35
619.55	1097.71
619.90	1098.41
620.25	1088.58
620.59	1093.50
620.94	1070.33
621.29	1062.37
621.63	1057.22
621.98	1069.16
622.32	1067.75
622.67	1079.92
623.02	1091.63
623.36	1104.50
623.71	1105.90
624.05	1104.97
624.40	1101.92
624.75	1095.60
625.09	1084.60
625.44	1081.09
625.78	1077.82
626.13	1085.77
626.48	1085.77
626.82	1095.37
627.17	1097.71
627.51	1102.86
627.86	1103.33
628.20	1094.43
628.55	1085.31
628.89	1079.46
629.24	1085.07
629.58	1075.94
629.93	1083.90
630.28	1085.54
630.62	1094.20
630.97	1092.56
631.31	1099.58
631.66	1097.48
632.00	1095.84
632.35	1086.01
632.69	1081.09
633.04	1081.33
633.38	1084.14
633.73	1086.94
634.07	1082.26
634.42	1083.43
634.76	1077.82
635.11	1080.63
635.45	1080.16
635.79	1082.03
636.14	1075.48
636.48	1076.65
636.83	1070.33
637.17	1070.80
637.52	1081.09
637.86	1087.41
638.21	1089.52
638.55	1093.03
638.89	1091.39
639.24	1086.71
639.58	1085.31
639.93	1080.16
640.27	1072.67
640.61	1075.48
640.96	1073.60
641.30	1075.48
641.65	1090.46
641.99	1101.22
642.33	1094.43
642.68	1093.03
643.02	1097.71
643.37	1084.14
643.71	1086.48
644.05	1095.37
644.40	1095.60
644.74	1094.43
645.08	1104.26
645.43	1098.41
645.77	1091.63
646.11	1098.65
646.46	1104.03
646.80	1095.37
647.14	1095.37
647.49	1095.60
647.83	1088.35
648.17	1081.33
648.52	1088.58
648.86	1086.94
649.20	1093.03
649.55	1097.71
649.89	1101.92
650.23	1114.10
650.57	1120.65
650.92	1114.09
651.26	1116.20
651.60	1109.18
651.95	1097.48
652.29	1099.35
652.63	1113.39
652.97	1107.78
653.32	1103.80
653.66	1096.31
654.00	1086.94
654.34	1077.58
654.69	1071.73
655.03	1070.09
655.37	1074.77
655.71	1079.22
656.05	1072.20
656.40	1080.16
656.74	1086.71
657.08	1090.69
657.42	1095.37
657.76	1100.99
658.11	1101.22
658.45	1103.56
658.79	1108.24
659.13	1103.56
659.47	1101.22
659.82	1108.48
660.16	1097.01
660.50	1085.31
660.84	1076.41
661.18	1085.77
661.52	1071.73
661.87	1078.28
662.21	1070.09
662.55	1067.75
662.89	1055.11
663.23	1059.33
663.57	1056.99
663.91	1070.80
664.25	1087.88
664.60	1099.82
664.94	1105.44
665.28	1107.31
665.62	1101.22
665.96	1082.73
666.30	1077.82
666.64	1077.82
666.98	1075.24
667.32	1078.52
667.66	1083.67
668.01	1078.75
668.35	1082.50
668.69	1093.97
669.03	1098.88
669.37	1096.07
669.71	1106.61
670.05	1106.37
670.39	1099.12
670.73	1095.84
671.07	1091.16
671.41	1084.14
671.75	1072.20
672.09	1060.96
672.43	1060.03
672.77	1063.07
673.11	1068.69
673.45	1070.09
673.79	1085.07
674.13	1087.18
674.47	1094.67
674.81	1081.56
675.15	1075.01
675.49	1071.97
675.83	1061.20
676.17	1053.94
676.51	1052.54
676.85	1062.84
677.19	1053.01
677.53	1056.52
677.87	1062.84
678.21	1063.54
678.55	1067.99
678.89	1076.41
679.23	1082.50
679.57	1082.97
679.90	1085.31
680.24	1071.50
680.58	1071.03
680.92	1058.86
681.26	1057.45
681.60	1052.30
681.94	1058.16
682.28	1066.82
682.62	1081.56
682.96	1076.41
683.29	1083.20
683.63	1090.46
683.97	1080.39
684.31	1075.01
684.65	1080.39
684.99	1074.54
685.33	1072.67
685.67	1072.67
686.00	1075.71
686.34	1070.80
686.68	1078.75
687.02	1073.84
687.36	1078.28
687.70	1074.77
688.03	1080.63
688.37	1074.31
688.71	1081.09
689.05	1069.16
689.39	1072.43
689.72	1075.48
690.06	1086.48
690.40	1080.16
690.74	1090.69
691.08	1089.52
691.41	1081.56
691.75	1083.20
692.09	1083.20
692.43	1087.65
692.76	1089.29
693.10	1097.48
693.44	1096.07
693.78	1102.16
694.11	1092.80
694.45	1086.01
694.79	1079.46
695.13	1075.71
695.46	1066.35
695.80	1073.60
696.14	1084.60
696.48	1092.80
696.81	1095.37
697.15	1091.39
697.49	1097.48
697.82	1089.52
698.16	1091.63
698.50	1076.41
698.83	1079.46
699.17	1072.43
699.51	1074.07
699.84	1058.16
700.18	1070.09
700.52	1070.56
700.85	1066.11
701.19	1059.09
701.53	1068.69
701.86	1075.71
702.20	1079.69
702.54	1089.29
702.87	1100.99
703.21	1101.92
703.55	1091.39
703.88	1089.99
704.22	1088.58
704.55	1087.18
704.89	1088.12
705.23	1094.20
705.56	1101.46
705.90	1094.67
706.23	1093.73
706.57	1089.05
706.91	1083.20
707.24	1078.99
707.58	1078.05
707.91	1071.73
708.25	1073.84
708.58	1076.41
708.92	1080.16
709.26	1085.07
709.59	1081.09
709.93	1079.69
710.26	1079.69
710.60	1078.05
710.93	1075.94
711.27	1082.50
711.60	1088.12
711.94	1087.41
712.27	1088.58
712.61	1092.09
712.94	1092.56
713.28	1094.43
713.61	1098.18
713.95	1099.82
714.28	1086.24
714.62	1087.88
714.95	1086.01
715.29	1082.26
715.62	1087.41
715.96	1104.03
716.29	1094.90
716.63	1092.56
716.96	1089.99
717.29	1068.92
717.63	1065.65
717.96	1075.24
718.30	1087.41
718.63	1082.73
718.97	1092.56
719.30	1086.48
719.63	1083.90
719.97	1069.62
720.30	1080.86
720.64	1080.39
720.97	1083.20
721.30	1081.09
721.64	1073.37
721.97	1068.22
722.31	1059.09
722.64	1058.62
722.97	1063.31
723.31	1076.41
723.64	1077.11
723.97	1085.07
724.31	1088.82
724.64	1080.39
724.98	1075.24
725.31	1077.35
725.64	1081.80
725.98	1074.31
726.31	1088.82
726.64	1089.75
726.97	1090.69
727.31	1086.48
727.64	1087.18
727.97	1085.77
728.31	1082.03
728.64	1087.65
728.97	1084.60
729.31	1089.52
729.64	1081.09
729.97	1083.67
730.30	1077.35
730.64	1086.24
730.97	1084.84
731.30	1090.69
731.63	1097.71
731.97	1098.65
732.30	1090.22
732.63	1088.12
732.96	1081.09
733.30	1077.11
733.63	1078.75
733.96	1087.41
734.29	1095.37
734.63	1098.41
734.96	1088.58
735.29	1082.73
735.62	1082.50
735.95	1074.07
736.29	1074.54
736.62	1078.52
736.95	1081.33
737.28	1088.58
737.61	1090.46
737.94	1102.16
738.28	1108.01
738.61	1115.73
738.94	1114.10
739.27	1122.99
739.60	1113.16
739.93	1107.07
740.27	1094.43
740.60	1087.41
740.93	1073.60
741.26	1070.56
741.59	1077.35
741.92	1091.39
742.25	1087.65
742.58	1092.56
742.91	1093.03
743.25	1083.90
743.58	1071.97
743.91	1068.45
744.24	1074.54
744.57	1063.54
744.90	1063.77
745.23	1068.92
745.56	1078.05
745.89	1072.90
746.22	1075.01
746.55	1072.90
746.88	1067.05
747.21	1058.86
747.54	1055.11
747.87	1068.92
748.20	1070.80
748.53	1069.39
748.87	1067.99
749.20	1072.67
749.53	1076.18
749.86	1081.56
750.19	1085.77
750.52	1093.73
750.85	1096.78
751.18	1090.69
751.51	1089.99
751.84	1092.09
752.16	1081.56
752.49	1072.20
752.82	1070.56
753.15	1067.28
753.48	1061.43
753.81	1067.28
754.14	1077.35
754.47	1075.71
754.80	1084.14
755.13	1082.50
755.46	1071.73
755.79	1060.73
756.12	1062.84
756.45	1055.11
756.78	1063.07
757.11	1078.75
757.43	1087.41
757.76	1083.90
758.09	1088.58
758.42	1096.07
758.75	1091.39
759.08	1085.77
759.41	1083.43
759.74	1075.94
760.07	1068.22
760.39	1070.80
760.72	1075.01
761.05	1074.77
761.38	1078.75
761.71	1086.24
762.04	1099.12
762.36	1102.86
762.69	1104.73
763.02	1102.86
763.35	1097.01
763.68	1081.80
764.01	1069.62
764.33	1076.65
764.66	1085.07
764.99	1079.46
765.32	1079.69
765.65	1087.18
765.97	1088.58
766.30	1082.03
