SpectraSuite Data File
++++++++++++++++++++++++++++++++++++
Date: Mon Aug 26 10:25:47 PDT 2019
User: corrico
Dark Spectrum Present: No
Reference Spectrum Present: No
Number of Sampled Component Spectra: 1
Spectrometers: USB2+H06089
Integration Time (usec): 10000 (USB2+H06089)
Spectra Averaged: 2 (USB2+H06089)
Boxcar Smoothing: 2 (USB2+H06089)
Correct for Electrical Dark: No (USB2+H06089)
Strobe/Lamp Enabled: No (USB2+H06089)
Correct for Detector Non-linearity: No (USB2+H06089)
Correct for Stray Light: No (USB2+H06089)
Number of Pixels in Processed Spectrum: 2048
>>>>>Begin Processed Spectral Data<<<<<
339.70	1043.88
340.07	1043.88
340.45	1005.49
340.82	980.45
341.19	967.11
341.57	942.30
341.94	922.41
342.31	922.87
342.69	916.79
343.06	898.06
343.43	898.77
343.81	900.64
344.18	902.98
344.55	914.45
344.93	917.49
345.30	922.17
345.67	921.23
346.04	923.11
346.42	923.34
346.79	934.34
347.16	935.51
347.54	950.96
347.91	963.83
348.28	978.34
348.65	992.15
349.03	1003.62
349.40	1016.03
349.77	1023.98
350.14	1023.75
350.52	1025.15
350.89	1027.03
351.26	1031.24
351.63	1046.92
352.01	1063.31
352.38	1063.07
352.75	1075.71
353.12	1079.92
353.50	1074.07
353.87	1067.99
354.24	1078.52
354.61	1077.58
354.98	1081.33
355.36	1075.48
355.73	1075.94
356.10	1073.37
356.47	1071.03
356.84	1076.65
357.22	1093.50
357.59	1086.24
357.96	1089.29
358.33	1094.90
358.70	1086.01
359.08	1072.43
359.45	1080.39
359.82	1075.71
360.19	1069.62
360.56	1062.37
360.94	1064.24
361.31	1063.07
361.68	1068.45
362.05	1066.82
362.42	1068.69
362.79	1059.56
363.16	1059.79
363.54	1055.11
363.91	1061.90
364.28	1062.14
364.65	1065.88
365.02	1063.54
365.39	1069.39
365.76	1060.26
366.14	1065.65
366.51	1071.03
366.88	1070.09
367.25	1067.99
367.62	1063.77
367.99	1065.65
368.36	1064.24
368.73	1068.22
369.10	1064.71
369.48	1075.24
369.85	1076.88
370.22	1075.24
370.59	1075.48
370.96	1077.82
371.33	1075.71
371.70	1067.05
372.07	1069.16
372.44	1064.71
372.81	1062.14
373.18	1059.79
373.55	1056.75
373.93	1051.13
374.30	1058.39
374.67	1076.41
375.04	1075.94
375.41	1088.35
375.78	1099.58
376.15	1094.20
376.52	1084.84
376.89	1086.01
377.26	1082.50
377.63	1077.11
378.00	1086.24
378.37	1073.60
378.74	1078.52
379.11	1068.92
379.48	1068.92
379.85	1063.31
380.22	1058.39
380.59	1058.62
380.96	1067.75
381.33	1064.71
381.70	1068.45
382.07	1076.18
382.44	1087.41
382.81	1086.48
383.18	1090.69
383.55	1091.39
383.92	1094.43
384.29	1083.67
384.66	1085.31
385.03	1084.14
385.40	1081.33
385.77	1081.56
386.14	1077.58
386.51	1071.26
386.88	1067.52
387.25	1077.11
387.62	1075.24
387.99	1079.22
388.36	1078.05
388.73	1089.99
389.10	1078.75
389.46	1079.46
389.83	1085.77
390.20	1087.65
390.57	1074.77
390.94	1075.71
391.31	1073.60
391.68	1072.20
392.05	1078.52
392.42	1082.03
392.79	1074.07
393.16	1069.86
393.53	1065.18
393.89	1057.92
394.26	1064.01
394.63	1070.56
395.00	1082.50
395.37	1086.48
395.74	1096.54
396.11	1092.09
396.48	1083.90
396.84	1074.31
397.21	1061.20
397.58	1054.65
397.95	1048.33
398.32	1058.86
398.69	1064.24
399.06	1065.88
399.42	1068.22
399.79	1062.60
400.16	1065.41
400.53	1060.96
400.90	1064.71
401.27	1053.24
401.64	1071.03
402.00	1061.43
402.37	1067.52
402.74	1071.73
403.11	1066.35
403.48	1059.56
403.84	1062.37
404.21	1056.05
404.58	1047.86
404.95	1058.16
405.32	1058.86
405.68	1057.22
406.05	1062.14
406.42	1064.94
406.79	1073.14
407.16	1077.58
407.52	1073.60
407.89	1065.65
408.26	1062.60
408.63	1049.50
408.99	1049.96
409.36	1054.18
409.73	1060.26
410.10	1069.62
410.47	1075.71
410.83	1072.90
411.20	1078.52
411.57	1084.37
411.94	1081.09
412.30	1071.26
412.67	1074.31
413.04	1070.56
413.40	1058.16
413.77	1054.18
414.14	1070.56
414.51	1062.14
414.87	1064.01
415.24	1071.97
415.61	1070.33
415.97	1064.48
416.34	1070.80
416.71	1074.31
417.08	1073.60
417.44	1082.97
417.81	1093.73
418.18	1099.35
418.54	1085.54
418.91	1086.71
419.28	1078.52
419.64	1072.90
420.01	1065.18
420.38	1071.26
420.74	1067.52
421.11	1070.09
421.48	1057.45
421.84	1062.84
422.21	1063.77
422.58	1064.01
422.94	1065.18
423.31	1073.37
423.68	1064.48
424.04	1066.82
424.41	1067.28
424.77	1065.18
425.14	1063.54
425.51	1057.92
425.87	1061.43
426.24	1073.60
426.61	1077.35
426.97	1079.22
427.34	1087.18
427.70	1086.01
428.07	1080.86
428.44	1089.05
428.80	1094.67
429.17	1094.20
429.53	1099.58
429.90	1095.14
430.27	1089.99
430.63	1086.48
431.00	1094.43
431.36	1087.18
431.73	1087.18
432.09	1084.84
432.46	1076.65
432.83	1069.86
433.19	1074.07
433.56	1078.99
433.92	1080.39
434.29	1090.92
434.65	1086.24
435.02	1089.29
435.38	1086.94
435.75	1085.31
436.11	1089.05
436.48	1100.75
436.84	1093.50
437.21	1090.69
437.57	1097.24
437.94	1095.84
438.30	1090.92
438.67	1097.01
439.03	1101.69
439.40	1090.69
439.76	1081.33
440.13	1080.63
440.49	1071.50
440.86	1070.33
441.22	1079.92
441.59	1083.20
441.95	1082.50
442.32	1088.82
442.68	1089.05
443.05	1080.63
443.41	1081.80
443.78	1084.37
444.14	1088.35
444.51	1077.11
444.87	1068.92
445.24	1064.94
445.60	1066.82
445.96	1060.50
446.33	1065.65
446.69	1079.69
447.06	1084.14
447.42	1079.92
447.79	1079.92
448.15	1081.80
448.51	1082.03
448.88	1085.54
449.24	1082.97
449.61	1076.88
449.97	1086.48
450.33	1086.71
450.70	1083.67
451.06	1080.86
451.43	1071.97
451.79	1062.84
452.15	1053.71
452.52	1053.71
452.88	1059.09
453.24	1074.07
453.61	1067.52
453.97	1080.39
454.34	1078.99
454.70	1081.33
455.06	1084.14
455.43	1093.26
455.79	1091.63
456.15	1086.48
456.52	1082.73
456.88	1078.75
457.24	1087.65
457.61	1083.20
457.97	1083.20
458.33	1097.01
458.70	1097.24
459.06	1089.29
459.42	1089.29
459.79	1090.46
460.15	1079.46
460.51	1082.73
460.88	1074.77
461.24	1073.37
461.60	1085.31
461.96	1088.82
462.33	1083.20
462.69	1087.18
463.05	1085.07
463.42	1080.16
463.78	1074.54
464.14	1066.82
464.50	1077.11
464.87	1080.63
465.23	1071.97
465.59	1081.56
465.95	1090.46
466.32	1083.90
466.68	1077.11
467.04	1080.86
467.40	1074.77
467.77	1075.71
468.13	1073.84
468.49	1074.07
468.85	1081.33
469.22	1071.03
469.58	1077.58
469.94	1076.65
470.30	1086.24
470.66	1078.52
471.03	1082.73
471.39	1081.56
471.75	1082.97
472.11	1077.82
472.47	1089.52
472.84	1091.39
473.20	1092.80
473.56	1098.18
473.92	1094.67
474.28	1077.82
474.65	1074.07
475.01	1069.86
475.37	1059.33
475.73	1064.94
476.09	1072.43
476.45	1077.11
476.81	1072.67
477.18	1077.35
477.54	1078.05
477.90	1080.39
478.26	1083.20
478.62	1088.58
478.98	1100.29
479.34	1109.65
479.71	1101.69
480.07	1107.54
480.43	1099.58
480.79	1080.63
481.15	1066.11
481.51	1073.37
481.87	1065.65
482.23	1067.99
482.59	1070.56
482.96	1079.22
483.32	1082.03
483.68	1096.31
484.04	1099.58
484.40	1096.78
484.76	1087.41
485.12	1088.12
485.48	1074.31
485.84	1074.77
486.20	1081.09
486.56	1081.33
486.92	1081.56
487.28	1080.63
487.64	1083.67
488.00	1091.86
488.37	1104.03
488.73	1098.65
489.09	1097.95
489.45	1091.86
489.81	1086.94
490.17	1087.65
490.53	1091.39
490.89	1092.56
491.25	1102.86
491.61	1101.22
491.97	1094.43
492.33	1083.43
492.69	1082.73
493.05	1074.07
493.41	1070.80
493.77	1055.11
494.13	1058.86
494.49	1050.67
494.85	1042.47
495.21	1042.47
495.57	1058.62
495.93	1068.69
496.29	1068.22
496.64	1082.26
497.00	1089.99
497.36	1078.28
497.72	1078.99
498.08	1084.84
498.44	1078.52
498.80	1067.52
499.16	1084.37
499.52	1068.22
499.88	1071.03
500.24	1067.99
500.60	1064.24
500.96	1050.90
501.32	1060.50
501.68	1067.75
502.03	1074.77
502.39	1076.88
502.75	1083.20
503.11	1078.75
503.47	1073.60
503.83	1070.80
504.19	1077.82
504.55	1071.26
504.91	1070.80
505.26	1064.24
505.62	1065.88
505.98	1056.75
506.34	1067.52
506.70	1067.99
507.06	1073.60
507.42	1074.77
507.78	1086.71
508.13	1082.97
508.49	1084.84
508.85	1091.86
509.21	1091.86
509.57	1097.01
509.93	1093.97
510.28	1094.20
510.64	1085.54
511.00	1090.69
511.36	1087.41
511.72	1083.90
512.07	1089.75
512.43	1089.52
512.79	1072.43
513.15	1076.88
513.51	1079.22
513.86	1072.20
514.22	1083.43
514.58	1086.01
514.94	1077.82
515.30	1086.24
515.65	1079.22
516.01	1078.05
516.37	1088.82
516.73	1095.14
517.08	1102.39
517.44	1113.86
517.80	1103.80
518.16	1094.67
518.51	1088.82
518.87	1078.28
519.23	1073.84
519.59	1076.88
519.94	1081.09
520.30	1077.35
520.66	1078.99
521.01	1080.16
521.37	1085.77
521.73	1087.41
522.09	1085.54
522.44	1089.75
522.80	1101.22
523.16	1097.48
523.51	1088.12
523.87	1103.09
524.23	1108.24
524.58	1103.33
524.94	1098.41
525.30	1102.39
525.65	1100.75
526.01	1091.86
526.37	1080.63
526.72	1085.07
527.08	1088.58
527.44	1085.07
527.79	1080.86
528.15	1098.18
528.51	1095.84
528.86	1098.41
529.22	1084.84
529.58	1082.26
529.93	1077.11
530.29	1084.37
530.65	1083.90
531.00	1090.46
531.36	1102.16
531.71	1104.26
532.07	1096.78
532.43	1096.54
532.78	1100.75
533.14	1096.78
533.49	1087.41
533.85	1091.63
534.21	1085.77
534.56	1081.09
534.92	1071.97
535.27	1081.33
535.63	1078.05
535.98	1084.37
536.34	1088.82
536.69	1088.35
537.05	1072.90
537.41	1070.09
537.76	1063.77
538.12	1064.24
538.47	1077.82
538.83	1079.22
539.18	1081.80
539.54	1091.16
539.89	1090.22
540.25	1087.41
540.60	1087.65
540.96	1082.50
541.31	1083.20
541.67	1086.94
542.02	1076.18
542.38	1082.73
542.73	1096.78
543.09	1091.86
543.44	1087.41
543.80	1093.97
544.15	1104.26
544.51	1093.26
544.86	1104.97
545.22	1099.82
545.57	1094.43
545.93	1085.31
546.28	1090.92
546.64	1076.88
546.99	1080.39
547.35	1079.92
547.70	1087.88
548.05	1095.84
548.41	1096.07
548.76	1112.92
549.12	1117.14
549.47	1113.86
549.83	1101.22
550.18	1100.99
550.53	1087.65
550.89	1085.07
551.24	1082.97
551.60	1093.50
551.95	1082.03
552.30	1078.52
552.66	1086.01
553.01	1088.12
553.37	1076.88
553.72	1090.46
554.07	1095.14
554.43	1092.33
554.78	1089.99
555.13	1088.82
555.49	1094.67
555.84	1086.71
556.19	1094.90
556.55	1087.65
556.90	1095.37
557.26	1091.16
557.61	1093.26
557.96	1075.94
558.32	1071.50
558.67	1075.71
559.02	1077.82
559.37	1083.20
559.73	1084.37
560.08	1083.43
560.43	1068.45
560.79	1057.45
561.14	1065.18
561.49	1077.58
561.85	1083.90
562.20	1091.16
562.55	1103.09
562.90	1096.07
563.26	1089.52
563.61	1089.99
563.96	1088.12
564.32	1082.03
564.67	1078.52
565.02	1075.94
565.37	1077.58
565.73	1079.92
566.08	1079.69
566.43	1071.50
566.78	1073.84
567.14	1075.24
567.49	1075.24
567.84	1078.99
568.19	1078.99
568.54	1083.43
568.90	1080.86
569.25	1080.16
569.60	1067.28
569.95	1079.92
570.31	1073.14
570.66	1072.43
571.01	1067.28
571.36	1074.77
571.71	1065.41
572.06	1060.96
572.42	1061.43
572.77	1067.28
573.12	1070.33
573.47	1082.03
573.82	1095.14
574.18	1096.78
574.53	1100.99
574.88	1104.97
575.23	1093.50
575.58	1089.99
575.93	1093.50
576.28	1096.07
576.64	1092.56
576.99	1098.41
577.34	1098.65
577.69	1092.33
578.04	1081.56
578.39	1088.58
578.74	1091.16
579.09	1093.03
579.44	1100.75
579.80	1105.20
580.15	1099.35
580.50	1094.43
580.85	1086.94
581.20	1081.80
581.55	1082.50
581.90	1076.41
582.25	1074.77
582.60	1079.22
582.95	1083.43
583.30	1078.75
583.65	1080.86
584.00	1081.33
584.35	1080.39
584.71	1073.14
585.06	1074.07
585.41	1064.71
585.76	1071.97
586.11	1067.52
586.46	1073.60
586.81	1072.90
587.16	1085.77
587.51	1093.26
587.86	1104.26
588.21	1108.71
588.56	1110.82
588.91	1108.95
589.26	1087.18
589.61	1079.92
589.96	1064.94
590.31	1068.22
590.66	1074.07
591.01	1087.65
591.36	1084.37
591.71	1089.75
592.06	1087.18
592.41	1082.97
592.76	1080.16
593.10	1080.16
593.45	1083.20
593.80	1083.67
594.15	1082.03
594.50	1080.86
594.85	1081.56
595.20	1084.60
595.55	1076.88
595.90	1084.14
596.25	1080.16
596.60	1072.90
596.95	1058.39
597.30	1073.84
597.64	1113.16
597.99	1114.33
598.34	1122.29
598.69	1135.16
599.04	1122.75
599.39	1078.99
599.74	1074.77
600.09	1074.07
600.44	1082.73
600.78	1089.05
601.13	1087.65
601.48	1096.78
601.83	1108.95
602.18	1102.16
602.53	1101.92
602.88	1097.24
603.22	1096.31
603.57	1102.39
603.92	1105.20
604.27	1102.86
604.62	1106.61
604.97	1108.48
605.31	1094.20
605.66	1090.46
606.01	1094.20
606.36	1095.37
606.71	1090.69
607.05	1081.80
607.40	1077.35
607.75	1067.28
608.10	1073.84
608.44	1074.54
608.79	1081.33
609.14	1087.18
609.49	1095.60
609.84	1094.20
610.18	1099.12
610.53	1101.22
610.88	1096.78
611.23	1096.78
611.57	1097.95
611.92	1102.16
612.27	1101.46
612.62	1100.05
612.96	1099.82
613.31	1094.90
613.66	1084.60
614.00	1084.84
614.35	1089.29
614.70	1083.90
615.05	1074.07
615.39	1074.31
615.74	1078.28
616.09	1087.88
616.43	1100.52
616.78	1103.33
617.13	1104.26
617.47	1106.14
617.82	1089.75
618.17	1084.14
618.51	1090.69
618.86	1088.82
619.21	1076.88
619.55	1076.41
619.90	1080.16
620.25	1082.50
620.59	1077.58
620.94	1079.22
621.29	1083.20
621.63	1075.94
621.98	1066.11
622.32	1071.26
622.67	1075.48
623.02	1077.35
623.36	1085.07
623.71	1093.26
624.05	1093.50
624.40	1090.92
624.75	1097.01
625.09	1086.24
625.44	1077.58
625.78	1076.65
626.13	1090.46
626.48	1089.29
626.82	1086.48
627.17	1084.14
627.51	1087.18
627.86	1073.14
628.20	1063.07
628.55	1072.20
628.89	1083.43
629.24	1082.50
629.58	1077.35
629.93	1080.16
630.28	1072.67
630.62	1071.73
630.97	1072.67
631.31	1083.90
631.66	1094.67
632.00	1091.86
632.35	1089.52
632.69	1086.94
633.04	1082.73
633.38	1072.90
633.73	1084.84
634.07	1089.75
634.42	1088.82
634.76	1082.73
635.11	1087.88
635.45	1074.54
635.79	1063.31
636.14	1073.60
636.48	1075.94
636.83	1074.54
637.17	1085.54
637.52	1088.12
637.86	1078.52
638.21	1075.48
638.55	1079.22
638.89	1079.69
639.24	1086.71
639.58	1083.90
639.93	1087.18
640.27	1078.05
640.61	1069.39
640.96	1063.07
641.30	1070.09
641.65	1071.73
641.99	1077.58
642.33	1078.05
642.68	1085.77
643.02	1088.12
643.37	1077.58
643.71	1069.86
644.05	1071.03
644.40	1067.99
644.74	1067.28
645.08	1074.31
645.43	1078.75
645.77	1076.41
646.11	1071.26
646.46	1072.90
646.80	1078.52
647.14	1071.73
647.49	1072.90
647.83	1080.39
648.17	1067.99
648.52	1070.09
648.86	1067.28
649.20	1069.39
649.55	1061.67
649.89	1070.33
650.23	1065.65
650.57	1071.26
650.92	1065.18
651.26	1071.26
651.60	1072.67
651.95	1071.03
652.29	1075.01
652.63	1090.69
652.97	1095.14
653.32	1091.63
653.66	1088.12
654.00	1090.92
654.34	1081.33
654.69	1077.58
655.03	1075.24
655.37	1080.63
655.71	1074.07
656.05	1080.86
656.40	1085.31
656.74	1082.97
657.08	1088.58
657.42	1083.20
657.76	1075.24
658.11	1065.88
658.45	1062.14
658.79	1047.16
659.13	1048.79
659.47	1044.11
659.82	1043.64
660.16	1051.60
660.50	1059.56
660.84	1077.82
661.18	1086.48
661.52	1086.01
661.87	1096.07
662.21	1102.39
662.55	1087.41
662.89	1090.22
663.23	1097.48
663.57	1092.33
663.91	1091.63
664.25	1092.09
664.60	1092.09
664.94	1087.65
665.28	1085.31
665.62	1094.90
665.96	1095.84
666.30	1089.75
666.64	1096.31
666.98	1099.58
667.32	1083.67
667.66	1086.48
668.01	1086.24
668.35	1075.94
668.69	1074.54
669.03	1079.22
669.37	1084.84
669.71	1085.31
670.05	1091.63
670.39	1084.60
670.73	1081.09
671.07	1071.50
671.41	1076.41
671.75	1075.94
672.09	1080.39
672.43	1086.71
672.77	1083.90
673.11	1075.24
673.45	1071.03
673.79	1071.97
674.13	1066.35
674.47	1064.94
674.81	1077.11
675.15	1069.86
675.49	1070.09
675.83	1066.58
676.17	1080.63
676.51	1075.71
676.85	1084.84
677.19	1085.31
677.53	1093.50
677.87	1083.43
678.21	1075.24
678.55	1074.54
678.89	1066.82
679.23	1058.62
679.57	1059.79
679.90	1066.35
680.24	1073.14
680.58	1072.67
680.92	1080.63
681.26	1091.86
681.60	1084.60
681.94	1080.16
682.28	1089.29
682.62	1090.22
682.96	1082.03
683.29	1086.94
683.63	1091.63
683.97	1094.90
684.31	1085.07
684.65	1092.33
684.99	1094.43
685.33	1079.46
685.67	1078.75
686.00	1075.24
686.34	1057.92
686.68	1054.88
687.02	1072.67
687.36	1061.67
687.70	1078.52
688.03	1083.20
688.37	1082.73
688.71	1075.01
689.05	1078.99
689.39	1073.60
689.72	1073.84
690.06	1078.52
690.40	1087.88
690.74	1089.05
691.08	1092.56
691.41	1094.20
691.75	1094.67
692.09	1084.60
692.43	1088.12
692.76	1075.48
693.10	1085.31
693.44	1089.52
693.78	1095.14
694.11	1089.75
694.45	1097.48
694.79	1089.52
695.13	1085.31
695.46	1081.33
695.80	1074.54
696.14	1073.60
696.48	1066.82
696.81	1064.71
697.15	1063.07
697.49	1071.97
697.82	1072.67
698.16	1082.26
698.50	1081.33
698.83	1081.09
699.17	1077.82
699.51	1076.18
699.84	1074.77
700.18	1075.94
700.52	1076.41
700.85	1085.31
701.19	1082.26
701.53	1079.69
701.86	1075.71
702.20	1079.22
702.54	1072.20
702.87	1071.50
703.21	1076.65
703.55	1079.46
703.88	1080.86
704.22	1077.11
704.55	1074.31
704.89	1066.82
705.23	1069.86
705.56	1060.50
705.90	1073.84
706.23	1081.33
706.57	1094.20
706.91	1104.97
707.24	1113.39
707.58	1104.03
707.91	1091.39
708.25	1074.07
708.58	1060.03
708.92	1061.67
709.26	1063.07
709.59	1082.03
709.93	1087.18
710.26	1079.92
710.60	1072.90
710.93	1063.77
711.27	1060.96
711.60	1067.52
711.94	1082.03
712.27	1093.97
712.61	1104.73
712.94	1091.86
713.28	1087.18
713.61	1082.26
713.95	1069.86
714.28	1064.01
714.62	1061.20
714.95	1058.86
715.29	1051.84
715.62	1055.11
715.96	1059.79
716.29	1073.37
716.63	1078.52
716.96	1079.22
717.29	1075.71
717.63	1081.56
717.96	1075.48
718.30	1077.58
718.63	1081.33
718.97	1085.31
719.30	1082.03
719.63	1087.41
719.97	1087.65
720.30	1092.09
720.64	1097.48
720.97	1098.88
721.30	1100.52
721.64	1094.67
721.97	1097.95
722.31	1093.03
722.64	1085.54
722.97	1085.07
723.31	1082.03
723.64	1075.48
723.97	1076.18
724.31	1076.41
724.64	1080.86
724.98	1084.60
725.31	1081.80
725.64	1072.43
725.98	1069.16
726.31	1073.84
726.64	1067.99
726.97	1067.99
727.31	1083.90
727.64	1094.90
727.97	1078.75
728.31	1087.18
728.64	1084.60
728.97	1074.07
729.31	1057.69
729.64	1060.03
729.97	1054.18
730.30	1069.62
730.64	1074.77
730.97	1090.92
731.30	1086.24
731.63	1085.07
731.97	1072.43
732.30	1062.60
732.63	1059.33
732.96	1059.33
733.30	1064.71
733.63	1074.77
733.96	1085.07
734.29	1090.69
734.63	1090.92
734.96	1092.33
735.29	1084.84
735.62	1078.75
735.95	1069.62
736.29	1074.77
736.62	1075.71
736.95	1074.07
737.28	1072.43
737.61	1075.94
737.94	1081.09
738.28	1087.65
738.61	1086.24
738.94	1085.54
739.27	1083.67
739.60	1081.33
739.93	1077.58
740.27	1083.20
740.60	1079.22
740.93	1073.84
741.26	1068.92
741.59	1070.56
741.92	1053.94
742.25	1060.50
742.58	1066.35
742.91	1078.28
743.25	1064.48
743.58	1069.39
743.91	1069.16
744.24	1074.54
744.57	1067.75
744.90	1077.11
745.23	1087.88
745.56	1084.60
745.89	1078.52
746.22	1085.54
746.55	1083.67
746.88	1085.54
747.21	1091.16
747.54	1093.03
747.87	1084.37
748.20	1084.84
748.53	1083.90
748.87	1081.56
749.20	1082.50
749.53	1088.12
749.86	1093.03
750.19	1091.86
750.52	1100.99
750.85	1095.60
751.18	1097.95
751.51	1106.37
751.84	1115.50
752.16	1106.37
752.49	1103.33
752.82	1096.78
753.15	1072.43
753.48	1059.56
753.81	1059.79
754.14	1066.35
754.47	1066.35
754.80	1083.43
755.13	1096.54
755.46	1102.86
755.79	1103.09
756.12	1102.39
756.45	1096.54
756.78	1091.86
757.11	1079.22
757.43	1078.05
757.76	1078.05
758.09	1074.54
758.42	1073.84
758.75	1082.03
759.08	1084.37
759.41	1081.33
759.74	1087.18
760.07	1078.75
760.39	1079.22
760.72	1082.50
761.05	1084.60
761.38	1076.65
761.71	1076.88
762.04	1079.92
762.36	1077.82
762.69	1072.90
763.02	1080.39
763.35	1086.01
763.68	1087.41
764.01	1078.52
764.33	1080.16
764.66	1084.14
764.99	1081.56
765.32	1075.24
765.65	1081.56
765.97	1080.86
766.30	1080.39
