SpectraSuite Data File
++++++++++++++++++++++++++++++++++++
Date: Mon Aug 26 10:25:46 PDT 2019
User: corrico
Dark Spectrum Present: No
Reference Spectrum Present: No
Number of Sampled Component Spectra: 1
Spectrometers: USB2+H06089
Integration Time (usec): 10000 (USB2+H06089)
Spectra Averaged: 2 (USB2+H06089)
Boxcar Smoothing: 2 (USB2+H06089)
Correct for Electrical Dark: No (USB2+H06089)
Strobe/Lamp Enabled: No (USB2+H06089)
Correct for Detector Non-linearity: No (USB2+H06089)
Correct for Stray Light: No (USB2+H06089)
Number of Pixels in Processed Spectrum: 2048
>>>>>Begin Processed Spectral Data<<<<<
339.70	1046.22
340.07	1046.22
340.45	1002.22
340.82	979.51
341.19	949.32
341.57	924.04
341.94	897.36
342.31	898.77
342.69	891.28
343.06	890.57
343.43	892.68
343.81	901.34
344.18	914.92
344.55	916.79
344.93	917.02
345.30	917.02
345.67	920.06
346.04	915.15
346.42	932.94
346.79	947.45
347.16	957.28
347.54	974.37
347.91	975.30
348.28	967.81
348.65	982.32
349.03	995.20
349.40	1004.79
349.77	1028.67
350.14	1037.33
350.52	1042.24
350.89	1039.67
351.26	1040.60
351.63	1043.88
352.01	1061.67
352.38	1061.43
352.75	1072.90
353.12	1070.56
353.50	1065.65
353.87	1057.69
354.24	1064.71
354.61	1066.11
354.98	1074.07
355.36	1079.46
355.73	1090.92
356.10	1094.67
356.47	1090.92
356.84	1095.14
357.22	1094.43
357.59	1092.09
357.96	1086.94
358.33	1088.12
358.70	1075.94
359.08	1078.99
359.45	1064.94
359.82	1062.14
360.19	1052.54
360.56	1050.43
360.94	1049.73
361.31	1058.16
361.68	1051.84
362.05	1060.73
362.42	1067.75
362.79	1064.24
363.16	1060.96
363.54	1065.88
363.91	1060.73
364.28	1066.35
364.65	1064.94
365.02	1062.14
365.39	1068.69
365.76	1072.67
366.14	1064.24
366.51	1063.77
366.88	1077.35
367.25	1073.60
367.62	1067.52
367.99	1071.97
368.36	1071.50
368.73	1066.58
369.10	1059.09
369.48	1056.75
369.85	1058.16
370.22	1064.48
370.59	1068.45
370.96	1070.33
371.33	1076.65
371.70	1073.37
372.07	1065.18
372.44	1059.33
372.81	1064.24
373.18	1061.67
373.55	1054.65
373.93	1055.82
374.30	1060.50
374.67	1064.48
375.04	1060.73
375.41	1071.03
375.78	1075.71
376.15	1069.16
376.52	1067.28
376.89	1073.84
377.26	1075.24
377.63	1067.99
378.00	1069.16
378.37	1063.54
378.74	1060.96
379.11	1057.45
379.48	1059.09
379.85	1058.16
380.22	1061.43
380.59	1069.16
380.96	1069.16
381.33	1078.05
381.70	1081.33
382.07	1084.84
382.44	1076.88
382.81	1076.65
383.18	1077.35
383.55	1072.20
383.92	1064.24
384.29	1075.71
384.66	1079.92
385.03	1080.86
385.40	1079.46
385.77	1081.09
386.14	1075.48
386.51	1073.14
386.88	1069.16
387.25	1070.33
387.62	1073.14
387.99	1073.60
388.36	1078.05
388.73	1068.45
389.10	1074.54
389.46	1063.31
389.83	1062.14
390.20	1059.56
390.57	1063.54
390.94	1063.77
391.31	1072.20
391.68	1072.43
392.05	1068.69
392.42	1070.80
392.79	1069.86
393.16	1071.26
393.53	1061.43
393.89	1051.84
394.26	1049.26
394.63	1046.69
395.00	1044.58
395.37	1056.05
395.74	1080.16
396.11	1090.69
396.48	1093.97
396.84	1099.35
397.21	1097.48
397.58	1089.52
397.95	1091.16
398.32	1094.90
398.69	1096.78
399.06	1098.88
399.42	1091.63
399.79	1088.82
400.16	1093.26
400.53	1090.22
400.90	1089.75
401.27	1096.07
401.64	1095.84
402.00	1096.54
402.37	1090.69
402.74	1083.90
403.11	1077.58
403.48	1067.05
403.84	1052.07
404.21	1053.01
404.58	1054.88
404.95	1059.33
405.32	1072.90
405.68	1073.37
406.05	1083.67
406.42	1100.52
406.79	1089.05
407.16	1077.58
407.52	1082.03
407.89	1075.94
408.26	1059.56
408.63	1071.97
408.99	1069.16
409.36	1075.01
409.73	1079.46
410.10	1077.58
410.47	1071.50
410.83	1071.97
411.20	1067.05
411.57	1065.65
411.94	1065.41
412.30	1072.20
412.67	1086.24
413.04	1082.97
413.40	1080.63
413.77	1083.20
414.14	1067.05
414.51	1057.69
414.87	1059.56
415.24	1047.39
415.61	1050.67
415.97	1064.01
416.34	1062.14
416.71	1064.94
417.08	1071.97
417.44	1072.43
417.81	1064.94
418.18	1057.22
418.54	1048.79
418.91	1057.69
419.28	1057.22
419.64	1057.92
420.01	1063.31
420.38	1073.84
420.74	1071.26
421.11	1070.80
421.48	1065.88
421.84	1072.20
422.21	1062.37
422.58	1055.35
422.94	1055.58
423.31	1064.01
423.68	1062.14
424.04	1062.37
424.41	1067.52
424.77	1058.39
425.14	1063.77
425.51	1060.50
425.87	1062.60
426.24	1061.20
426.61	1063.77
426.97	1060.26
427.34	1068.92
427.70	1064.24
428.07	1062.14
428.44	1054.41
428.80	1047.86
429.17	1052.54
429.53	1066.82
429.90	1071.26
430.27	1082.26
430.63	1085.77
431.00	1077.35
431.36	1064.94
431.73	1069.86
432.09	1082.97
432.46	1087.88
432.83	1097.95
433.19	1097.95
433.56	1087.65
433.92	1073.14
434.29	1064.48
434.65	1060.73
435.02	1074.31
435.38	1083.20
435.75	1092.56
436.11	1103.09
436.48	1095.60
436.84	1089.52
437.21	1085.77
437.57	1086.24
437.94	1082.26
438.30	1081.80
438.67	1083.90
439.03	1083.90
439.40	1082.50
439.76	1083.67
440.13	1082.50
440.49	1072.90
440.86	1068.22
441.22	1061.67
441.59	1058.62
441.95	1058.39
442.32	1065.18
442.68	1072.90
443.05	1075.48
443.41	1072.20
443.78	1077.11
444.14	1073.60
444.51	1062.14
444.87	1056.52
445.24	1062.60
445.60	1054.65
445.96	1058.62
446.33	1071.97
446.69	1084.60
447.06	1076.18
447.42	1084.60
447.79	1083.67
448.15	1076.88
448.51	1071.26
448.88	1077.11
449.24	1077.11
449.61	1074.31
449.97	1067.99
450.33	1064.01
450.70	1057.45
451.06	1059.09
451.43	1065.18
451.79	1072.67
452.15	1071.03
452.52	1074.77
452.88	1070.33
453.24	1064.24
453.61	1053.24
453.97	1062.14
454.34	1056.05
454.70	1056.52
455.06	1058.86
455.43	1073.37
455.79	1062.84
456.15	1069.86
456.52	1070.80
456.88	1069.86
457.24	1061.20
457.61	1065.88
457.97	1071.50
458.33	1074.31
458.70	1074.54
459.06	1081.80
459.42	1089.99
459.79	1093.97
460.15	1090.92
460.51	1086.48
460.88	1088.35
461.24	1087.88
461.60	1077.35
461.96	1072.67
462.33	1076.88
462.69	1065.18
463.05	1059.79
463.42	1057.92
463.78	1057.69
464.14	1056.75
464.50	1066.58
464.87	1072.67
465.23	1078.52
465.59	1077.58
465.95	1079.92
466.32	1084.84
466.68	1072.43
467.04	1064.01
467.40	1069.39
467.77	1071.50
468.13	1069.86
468.49	1084.60
468.85	1093.50
469.22	1092.56
469.58	1089.29
469.94	1086.24
470.30	1078.28
470.66	1069.86
471.03	1072.43
471.39	1068.69
471.75	1074.31
472.11	1076.65
472.47	1080.16
472.84	1081.09
473.20	1089.05
473.56	1083.67
473.92	1075.71
474.28	1075.24
474.65	1078.28
475.01	1080.16
475.37	1076.88
475.73	1089.05
476.09	1092.09
476.45	1083.67
476.81	1078.05
477.18	1082.73
477.54	1067.75
477.90	1075.94
478.26	1079.92
478.62	1091.39
478.98	1093.03
479.34	1102.63
479.71	1102.39
480.07	1101.92
480.43	1091.16
480.79	1093.97
481.15	1097.24
481.51	1103.56
481.87	1112.46
482.23	1112.69
482.59	1104.73
482.96	1100.75
483.32	1091.16
483.68	1086.24
484.04	1084.14
484.40	1083.20
484.76	1082.03
485.12	1089.29
485.48	1087.41
485.84	1100.05
486.20	1098.65
486.56	1102.16
486.92	1098.41
487.28	1092.56
487.64	1079.22
488.00	1088.82
488.37	1088.12
488.73	1084.84
489.09	1083.90
489.45	1085.31
489.81	1069.16
490.17	1069.62
490.53	1061.43
490.89	1061.43
491.25	1061.90
491.61	1076.41
491.97	1071.50
492.33	1079.92
492.69	1086.94
493.05	1088.35
493.41	1075.01
493.77	1064.01
494.13	1060.03
494.49	1054.41
494.85	1053.24
495.21	1069.16
495.57	1084.14
495.93	1080.86
496.29	1084.60
496.64	1092.56
497.00	1081.33
497.36	1077.11
497.72	1090.22
498.08	1089.99
498.44	1092.09
498.80	1090.69
499.16	1089.99
499.52	1086.01
499.88	1089.75
500.24	1082.03
500.60	1093.50
500.96	1093.26
501.32	1089.99
501.68	1089.29
502.03	1094.67
502.39	1094.90
502.75	1099.35
503.11	1099.82
503.47	1106.14
503.83	1095.14
504.19	1085.54
504.55	1086.48
504.91	1082.97
505.26	1081.80
505.62	1077.58
505.98	1068.45
506.34	1062.14
506.70	1070.33
507.06	1064.48
507.42	1075.71
507.78	1087.18
508.13	1088.35
508.49	1077.82
508.85	1077.11
509.21	1075.71
509.57	1071.50
509.93	1072.67
510.28	1074.54
510.64	1067.75
511.00	1064.24
511.36	1073.37
511.72	1078.28
512.07	1081.56
512.43	1089.99
512.79	1096.07
513.15	1097.01
513.51	1088.12
513.86	1085.77
514.22	1084.84
514.58	1075.48
514.94	1065.65
515.30	1075.24
515.65	1079.69
516.01	1078.52
516.37	1089.05
516.73	1089.99
517.08	1080.63
517.44	1087.88
517.80	1090.92
518.16	1079.46
518.51	1084.37
518.87	1092.09
519.23	1086.71
519.59	1089.05
519.94	1100.75
520.30	1098.88
520.66	1099.82
521.01	1094.67
521.37	1095.60
521.73	1090.69
522.09	1096.54
522.44	1083.90
522.80	1086.48
523.16	1081.33
523.51	1084.84
523.87	1077.58
524.23	1098.18
524.58	1098.41
524.94	1097.01
525.30	1092.56
525.65	1097.24
526.01	1079.46
526.37	1076.88
526.72	1074.31
527.08	1079.46
527.44	1079.92
527.79	1089.52
528.15	1099.58
528.51	1097.24
528.86	1082.03
529.22	1076.88
529.58	1082.03
529.93	1080.16
530.29	1082.50
530.65	1092.33
531.00	1093.73
531.36	1081.56
531.71	1076.88
532.07	1076.18
532.43	1080.16
532.78	1079.92
533.14	1080.39
533.49	1075.48
533.85	1080.86
534.21	1086.24
534.56	1087.88
534.92	1090.69
535.27	1096.31
535.63	1095.84
535.98	1072.90
536.34	1081.09
536.69	1091.63
537.05	1086.48
537.41	1085.54
537.76	1107.07
538.12	1094.20
538.47	1086.71
538.83	1080.39
539.18	1087.65
539.54	1091.63
539.89	1088.82
540.25	1086.71
540.60	1089.05
540.96	1076.88
541.31	1066.58
541.67	1076.18
542.02	1074.54
542.38	1080.86
542.73	1083.43
543.09	1082.97
543.44	1081.09
543.80	1089.52
544.15	1084.14
544.51	1089.75
544.86	1086.01
545.22	1089.75
545.57	1083.67
545.93	1086.48
546.28	1085.77
546.64	1096.07
546.99	1090.92
547.35	1090.46
547.70	1091.16
548.05	1093.03
548.41	1088.12
548.76	1080.63
549.12	1080.86
549.47	1069.86
549.83	1067.99
550.18	1064.48
550.53	1076.41
550.89	1073.60
551.24	1093.03
551.60	1094.20
551.95	1099.82
552.30	1106.61
552.66	1111.75
553.01	1105.44
553.37	1098.88
553.72	1091.39
554.07	1083.67
554.43	1086.48
554.78	1084.37
555.13	1093.26
555.49	1106.84
555.84	1097.24
556.19	1085.31
556.55	1085.31
556.90	1076.41
557.26	1071.26
557.61	1078.05
557.96	1087.41
558.32	1093.26
558.67	1100.75
559.02	1098.41
559.37	1100.05
559.73	1094.20
560.08	1088.12
560.43	1076.18
560.79	1075.48
561.14	1075.24
561.49	1076.65
561.85	1074.54
562.20	1084.37
562.55	1086.71
562.90	1078.05
563.26	1071.73
563.61	1071.73
563.96	1060.50
564.32	1057.45
564.67	1056.75
565.02	1062.37
565.37	1063.54
565.73	1072.20
566.08	1065.65
566.43	1070.56
566.78	1060.96
567.14	1061.67
567.49	1069.39
567.84	1079.22
568.19	1087.18
568.54	1102.63
568.90	1108.48
569.25	1105.44
569.60	1105.90
569.95	1099.58
570.31	1101.92
570.66	1100.75
571.01	1093.73
571.36	1093.03
571.71	1095.60
572.06	1089.05
572.42	1087.41
572.77	1086.01
573.12	1079.69
573.47	1068.92
573.82	1068.92
574.18	1068.22
574.53	1073.37
574.88	1076.65
575.23	1086.48
575.58	1086.24
575.93	1086.01
576.28	1082.03
576.64	1087.18
576.99	1081.56
577.34	1080.63
577.69	1077.82
578.04	1079.92
578.39	1079.22
578.74	1088.82
579.09	1085.77
579.44	1093.50
579.80	1100.29
580.15	1099.58
580.50	1089.75
580.85	1097.95
581.20	1085.07
581.55	1077.58
581.90	1068.45
582.25	1070.09
582.60	1068.92
582.95	1078.75
583.30	1087.65
583.65	1092.09
584.00	1098.88
584.35	1085.54
584.71	1090.22
585.06	1082.03
585.41	1085.77
585.76	1083.20
586.11	1096.78
586.46	1095.84
586.81	1109.41
587.16	1108.24
587.51	1111.75
587.86	1107.54
588.21	1100.29
588.56	1092.80
588.91	1093.26
589.26	1088.82
589.61	1085.07
589.96	1080.39
590.31	1078.75
590.66	1082.50
591.01	1078.28
591.36	1084.14
591.71	1101.46
592.06	1098.65
592.41	1086.71
592.76	1100.05
593.10	1101.92
593.45	1096.54
593.80	1096.54
594.15	1100.99
594.50	1087.88
594.85	1085.07
595.20	1075.01
595.55	1066.58
595.90	1063.07
596.25	1066.82
596.60	1068.92
596.95	1075.94
597.30	1084.60
597.64	1142.88
597.99	1150.37
598.34	1160.20
598.69	1153.65
599.04	1151.08
599.39	1099.82
599.74	1102.63
600.09	1097.48
600.44	1100.05
600.78	1096.54
601.13	1088.35
601.48	1083.20
601.83	1072.43
602.18	1071.73
602.53	1076.88
602.88	1081.56
603.22	1074.77
603.57	1085.54
603.92	1089.29
604.27	1091.86
604.62	1093.73
604.97	1093.73
605.31	1089.75
605.66	1079.92
606.01	1074.07
606.36	1070.80
606.71	1068.92
607.05	1063.77
607.40	1066.35
607.75	1066.82
608.10	1070.80
608.44	1074.54
608.79	1080.39
609.14	1091.86
609.49	1094.90
609.84	1095.37
610.18	1096.31
610.53	1091.39
610.88	1082.97
611.23	1082.73
611.57	1076.41
611.92	1071.03
612.27	1076.65
612.62	1085.31
612.96	1084.84
613.31	1095.37
613.66	1095.37
614.00	1099.58
614.35	1088.12
614.70	1080.39
615.05	1079.22
615.39	1086.48
615.74	1082.26
616.09	1083.43
616.43	1085.54
616.78	1076.88
617.13	1075.94
617.47	1070.80
617.82	1071.73
618.17	1065.65
618.51	1064.94
618.86	1068.45
619.21	1069.39
619.55	1076.65
619.90	1092.33
620.25	1087.41
620.59	1082.03
620.94	1089.75
621.29	1085.31
621.63	1083.43
621.98	1088.12
622.32	1093.73
622.67	1091.63
623.02	1090.69
623.36	1089.99
623.71	1099.58
624.05	1092.80
624.40	1094.43
624.75	1099.35
625.09	1097.95
625.44	1097.95
625.78	1105.20
626.13	1098.18
626.48	1093.03
626.82	1096.07
627.17	1095.37
627.51	1091.16
627.86	1093.03
628.20	1091.39
628.55	1091.16
628.89	1082.73
629.24	1089.99
629.58	1082.26
629.93	1087.41
630.28	1095.14
630.62	1097.01
630.97	1081.56
631.31	1085.07
631.66	1081.80
632.00	1060.50
632.35	1057.69
632.69	1060.26
633.04	1059.56
633.38	1055.35
633.73	1065.18
634.07	1066.11
634.42	1068.92
634.76	1060.03
635.11	1063.77
635.45	1058.39
635.79	1065.88
636.14	1068.22
636.48	1080.63
636.83	1088.82
637.17	1098.18
637.52	1098.18
637.86	1095.37
638.21	1094.20
638.55	1089.52
638.89	1090.46
639.24	1081.33
639.58	1082.97
639.93	1086.94
640.27	1081.80
640.61	1086.01
640.96	1091.63
641.30	1092.56
641.65	1090.46
641.99	1101.92
642.33	1096.07
642.68	1098.41
643.02	1097.71
643.37	1097.01
643.71	1086.94
644.05	1078.52
644.40	1075.01
644.74	1073.84
645.08	1077.82
645.43	1073.60
645.77	1080.16
646.11	1069.86
646.46	1066.58
646.80	1060.96
647.14	1059.56
647.49	1062.84
647.83	1068.92
648.17	1076.41
648.52	1075.24
648.86	1086.01
649.20	1078.28
649.55	1083.43
649.89	1079.69
650.23	1085.77
650.57	1079.92
650.92	1079.46
651.26	1082.03
651.60	1080.86
651.95	1082.26
652.29	1098.41
652.63	1103.33
652.97	1096.31
653.32	1093.97
653.66	1084.14
654.00	1067.99
654.34	1057.22
654.69	1058.39
655.03	1070.09
655.37	1074.77
655.71	1084.84
656.05	1092.56
656.40	1096.31
656.74	1094.20
657.08	1094.20
657.42	1101.69
657.76	1101.22
658.11	1101.92
658.45	1088.58
658.79	1087.88
659.13	1070.33
659.47	1075.24
659.82	1075.01
660.16	1084.37
660.50	1084.60
660.84	1092.33
661.18	1080.39
661.52	1081.56
661.87	1079.46
662.21	1084.60
662.55	1083.20
662.89	1088.35
663.23	1094.90
663.57	1091.63
663.91	1090.46
664.25	1087.65
664.60	1092.56
664.94	1087.65
665.28	1090.22
665.62	1090.92
665.96	1091.86
666.30	1083.20
666.64	1075.71
666.98	1076.65
667.32	1083.90
667.66	1076.18
668.01	1082.26
668.35	1076.41
668.69	1075.71
669.03	1071.26
669.37	1072.90
669.71	1069.62
670.05	1082.73
670.39	1090.46
670.73	1088.35
671.07	1090.92
671.41	1104.73
671.75	1102.63
672.09	1091.16
672.43	1082.73
672.77	1085.77
673.11	1078.52
673.45	1084.60
673.79	1086.24
674.13	1088.82
674.47	1080.16
674.81	1082.03
675.15	1071.73
675.49	1075.48
675.83	1072.20
676.17	1067.28
676.51	1061.67
676.85	1057.69
677.19	1061.20
677.53	1066.11
677.87	1088.58
678.21	1094.67
678.55	1110.58
678.89	1110.58
679.23	1121.58
679.57	1108.71
679.90	1099.35
680.24	1093.26
680.58	1096.31
680.92	1078.75
681.26	1087.18
681.60	1089.99
681.94	1090.22
682.28	1090.69
682.62	1096.54
682.96	1093.03
683.29	1087.88
683.63	1095.37
683.97	1088.82
684.31	1087.41
684.65	1088.58
684.99	1095.60
685.33	1087.88
685.67	1089.29
686.00	1095.37
686.34	1089.05
686.68	1087.65
687.02	1075.71
687.36	1068.45
687.70	1059.56
688.03	1071.03
688.37	1088.12
688.71	1096.31
689.05	1103.80
689.39	1111.05
689.72	1104.50
690.06	1083.67
690.40	1086.48
690.74	1078.28
691.08	1071.03
691.41	1067.75
691.75	1071.26
692.09	1072.20
692.43	1081.80
692.76	1089.05
693.10	1094.90
693.44	1088.82
693.78	1082.03
694.11	1076.41
694.45	1074.31
694.79	1062.60
695.13	1066.11
695.46	1067.75
695.80	1070.80
696.14	1072.43
696.48	1082.50
696.81	1077.82
697.15	1076.65
697.49	1082.03
697.82	1081.33
698.16	1068.22
698.50	1075.01
698.83	1075.24
699.17	1075.71
699.51	1072.20
699.84	1078.28
700.18	1083.20
700.52	1086.24
700.85	1078.52
701.19	1082.73
701.53	1088.35
701.86	1092.80
702.20	1091.86
702.54	1095.14
702.87	1098.88
703.21	1093.26
703.55	1081.80
703.88	1082.03
704.22	1090.46
704.55	1076.41
704.89	1078.05
705.23	1074.77
705.56	1082.26
705.90	1065.65
706.23	1075.94
706.57	1076.65
706.91	1081.80
707.24	1080.86
707.58	1085.31
707.91	1080.63
708.25	1078.28
708.58	1083.67
708.92	1075.94
709.26	1081.33
709.59	1086.94
709.93	1083.20
710.26	1077.82
710.60	1083.67
710.93	1073.37
711.27	1069.62
711.60	1072.90
711.94	1078.75
712.27	1072.20
712.61	1088.12
712.94	1097.24
713.28	1106.84
713.61	1111.05
713.95	1119.01
714.28	1109.18
714.62	1098.88
714.95	1094.43
715.29	1087.88
715.62	1079.46
715.96	1079.69
716.29	1080.16
716.63	1075.71
716.96	1069.16
717.29	1074.07
717.63	1070.56
717.96	1078.05
718.30	1086.71
718.63	1088.12
718.97	1083.67
719.30	1086.94
719.63	1077.11
719.97	1067.52
720.30	1066.58
720.64	1074.31
720.97	1071.03
721.30	1072.90
721.64	1078.75
721.97	1091.63
722.31	1086.24
722.64	1090.46
722.97	1081.56
723.31	1084.14
723.64	1072.43
723.97	1069.39
724.31	1072.20
724.64	1075.01
724.98	1065.88
725.31	1064.71
725.64	1072.90
725.98	1066.35
726.31	1066.11
726.64	1071.97
726.97	1080.16
727.31	1069.86
727.64	1071.26
727.97	1083.20
728.31	1088.12
728.64	1091.86
728.97	1097.24
729.31	1088.82
729.64	1095.60
729.97	1086.94
730.30	1079.69
730.64	1088.12
730.97	1102.39
731.30	1084.84
731.63	1084.84
731.97	1079.69
732.30	1076.88
732.63	1077.58
732.96	1072.43
733.30	1078.75
733.63	1077.82
733.96	1064.24
734.29	1060.03
734.63	1074.77
734.96	1060.73
735.29	1071.03
735.62	1067.99
735.95	1072.20
736.29	1060.26
736.62	1069.16
736.95	1066.58
737.28	1078.52
737.61	1068.45
737.94	1076.88
738.28	1077.58
738.61	1075.71
738.94	1079.69
739.27	1086.24
739.60	1080.63
739.93	1076.18
740.27	1082.26
740.60	1080.86
740.93	1080.86
741.26	1080.39
741.59	1085.07
741.92	1085.07
742.25	1078.52
742.58	1073.37
742.91	1085.77
743.25	1089.05
743.58	1092.56
743.91	1095.14
744.24	1107.07
744.57	1104.03
744.90	1096.31
745.23	1090.69
745.56	1100.05
745.89	1097.95
746.22	1098.65
746.55	1107.54
746.88	1103.56
747.21	1093.03
747.54	1090.92
747.87	1093.03
748.20	1091.16
748.53	1091.39
748.87	1088.82
749.20	1085.77
749.53	1082.03
749.86	1083.43
750.19	1090.69
750.52	1104.03
750.85	1096.31
751.18	1090.92
751.51	1090.46
751.84	1084.60
752.16	1072.90
752.49	1073.14
752.82	1068.92
753.15	1065.65
753.48	1070.80
753.81	1078.99
754.14	1085.07
754.47	1091.86
754.80	1086.48
755.13	1082.97
755.46	1072.90
755.79	1078.52
756.12	1086.24
756.45	1096.31
756.78	1099.12
757.11	1104.26
757.43	1103.80
757.76	1101.69
758.09	1103.80
758.42	1092.80
758.75	1097.95
759.08	1082.50
759.41	1072.67
759.74	1064.48
760.07	1071.50
760.39	1066.11
760.72	1073.37
761.05	1081.80
761.38	1089.29
761.71	1082.73
762.04	1083.90
762.36	1083.90
762.69	1076.18
763.02	1071.97
763.35	1081.56
763.68	1085.07
764.01	1084.84
764.33	1083.20
764.66	1088.35
764.99	1084.84
765.32	1085.07
765.65	1091.63
765.97	1100.99
766.30	1091.16
