SpectraSuite Data File
++++++++++++++++++++++++++++++++++++
Date: Mon Aug 26 10:25:46 PDT 2019
User: corrico
Dark Spectrum Present: No
Reference Spectrum Present: No
Number of Sampled Component Spectra: 1
Spectrometers: USB2+H06089
Integration Time (usec): 10000 (USB2+H06089)
Spectra Averaged: 2 (USB2+H06089)
Boxcar Smoothing: 2 (USB2+H06089)
Correct for Electrical Dark: No (USB2+H06089)
Strobe/Lamp Enabled: No (USB2+H06089)
Correct for Detector Non-linearity: No (USB2+H06089)
Correct for Stray Light: No (USB2+H06089)
Number of Pixels in Processed Spectrum: 2048
>>>>>Begin Processed Spectral Data<<<<<
339.70	992.39
340.07	992.39
340.45	976.71
340.82	965.24
341.19	954.70
341.57	941.36
341.94	924.98
342.31	911.87
342.69	909.53
343.06	895.25
343.43	889.87
343.81	895.02
344.18	902.04
344.55	909.53
344.93	925.68
345.30	922.17
345.67	929.43
346.04	940.19
346.42	933.17
346.79	924.75
347.16	946.75
347.54	958.45
347.91	962.19
348.28	969.22
348.65	994.03
349.03	1000.34
349.40	996.37
349.77	1001.05
350.14	1020.94
350.52	1032.41
350.89	1033.35
351.26	1047.16
351.63	1060.50
352.01	1061.90
352.38	1054.88
352.75	1059.09
353.12	1060.03
353.50	1055.82
353.87	1065.65
354.24	1071.73
354.61	1082.73
354.98	1089.05
355.36	1097.24
355.73	1086.48
356.10	1084.37
356.47	1081.80
356.84	1080.16
357.22	1085.54
357.59	1095.14
357.96	1100.99
358.33	1098.41
358.70	1087.18
359.08	1080.39
359.45	1074.07
359.82	1069.16
360.19	1070.33
360.56	1081.09
360.94	1071.50
361.31	1071.26
361.68	1068.22
362.05	1066.58
362.42	1066.35
362.79	1073.14
363.16	1082.03
363.54	1085.77
363.91	1094.20
364.28	1095.37
364.65	1098.41
365.02	1086.24
365.39	1083.43
365.76	1070.09
366.14	1063.31
366.51	1063.31
366.88	1057.92
367.25	1064.24
367.62	1061.43
367.99	1066.35
368.36	1062.60
368.73	1067.75
369.10	1061.43
369.48	1075.01
369.85	1067.75
370.22	1067.52
370.59	1075.01
370.96	1078.99
371.33	1061.20
371.70	1067.75
372.07	1066.82
372.44	1067.52
372.81	1062.14
373.18	1069.86
373.55	1070.56
373.93	1063.77
374.30	1056.05
374.67	1052.54
375.04	1055.35
375.41	1056.28
375.78	1063.54
376.15	1062.37
376.52	1073.60
376.89	1083.43
377.26	1078.75
377.63	1074.54
378.00	1078.99
378.37	1066.35
378.74	1053.48
379.11	1052.30
379.48	1061.90
379.85	1062.37
380.22	1074.07
380.59	1080.63
380.96	1078.99
381.33	1075.71
381.70	1073.60
382.07	1066.11
382.44	1064.71
382.81	1063.07
383.18	1076.18
383.55	1063.77
383.92	1074.54
384.29	1069.16
384.66	1081.80
385.03	1081.80
385.40	1098.18
385.77	1089.52
386.14	1087.88
386.51	1079.69
386.88	1065.41
387.25	1069.39
387.62	1065.18
387.99	1073.37
388.36	1077.58
388.73	1084.14
389.10	1075.48
389.46	1083.90
389.83	1083.20
390.20	1081.33
390.57	1073.14
390.94	1071.97
391.31	1063.77
391.68	1060.50
392.05	1065.41
392.42	1068.69
392.79	1071.97
393.16	1078.52
393.53	1075.71
393.89	1067.05
394.26	1067.99
394.63	1068.22
395.00	1073.37
395.37	1081.33
395.74	1085.07
396.11	1076.18
396.48	1071.97
396.84	1066.35
397.21	1074.31
397.58	1077.58
397.95	1084.37
398.32	1090.69
398.69	1093.73
399.06	1083.67
399.42	1085.77
399.79	1084.14
400.16	1076.88
400.53	1072.20
400.90	1063.54
401.27	1054.88
401.64	1056.99
402.00	1064.01
402.37	1063.54
402.74	1066.82
403.11	1075.01
403.48	1071.26
403.84	1058.16
404.21	1055.11
404.58	1059.33
404.95	1052.77
405.32	1050.43
405.68	1060.03
406.05	1074.77
406.42	1073.84
406.79	1074.54
407.16	1079.69
407.52	1080.63
407.89	1065.65
408.26	1061.43
408.63	1062.37
408.99	1072.90
409.36	1074.07
409.73	1077.82
410.10	1082.26
410.47	1083.43
410.83	1074.07
411.20	1066.82
411.57	1067.75
411.94	1062.84
412.30	1070.09
412.67	1078.05
413.04	1083.90
413.40	1084.37
413.77	1089.75
414.14	1072.67
414.51	1070.33
414.87	1071.50
415.24	1066.82
415.61	1076.41
415.97	1085.77
416.34	1077.58
416.71	1079.92
417.08	1088.58
417.44	1075.24
417.81	1081.09
418.18	1080.86
418.54	1087.88
418.91	1086.24
419.28	1089.52
419.64	1087.41
420.01	1080.63
420.38	1069.62
420.74	1071.03
421.11	1077.35
421.48	1062.60
421.84	1070.09
422.21	1067.28
422.58	1063.07
422.94	1057.92
423.31	1076.65
423.68	1079.69
424.04	1080.16
424.41	1087.88
424.77	1088.35
425.14	1079.22
425.51	1070.09
425.87	1079.46
426.24	1072.43
426.61	1067.75
426.97	1077.11
427.34	1087.41
427.70	1088.35
428.07	1085.07
428.44	1084.14
428.80	1079.22
429.17	1083.20
429.53	1065.41
429.90	1074.31
430.27	1084.84
430.63	1066.11
431.00	1059.09
431.36	1068.69
431.73	1070.56
432.09	1074.31
432.46	1087.88
432.83	1081.56
433.19	1087.88
433.56	1079.92
433.92	1072.67
434.29	1074.77
434.65	1088.12
435.02	1086.24
435.38	1095.60
435.75	1097.48
436.11	1102.39
436.48	1097.95
436.84	1099.82
437.21	1092.33
437.57	1087.41
437.94	1090.69
438.30	1092.09
438.67	1090.69
439.03	1089.29
439.40	1091.16
439.76	1074.07
440.13	1075.94
440.49	1081.80
440.86	1089.52
441.22	1095.37
441.59	1107.31
441.95	1104.97
442.32	1092.09
442.68	1096.54
443.05	1084.37
443.41	1081.09
443.78	1078.52
444.14	1078.05
444.51	1067.28
444.87	1074.07
445.24	1067.99
445.60	1073.14
445.96	1078.99
446.33	1078.52
446.69	1083.43
447.06	1096.78
447.42	1094.90
447.79	1096.78
448.15	1090.22
448.51	1078.28
448.88	1066.11
449.24	1061.20
449.61	1055.82
449.97	1057.45
450.33	1065.65
450.70	1072.67
451.06	1074.77
451.43	1066.82
451.79	1070.33
452.15	1065.41
452.52	1064.24
452.88	1066.11
453.24	1074.54
453.61	1075.71
453.97	1078.28
454.34	1079.92
454.70	1077.58
455.06	1088.82
455.43	1089.99
455.79	1093.50
456.15	1098.18
456.52	1109.18
456.88	1094.43
457.24	1093.50
457.61	1097.01
457.97	1095.60
458.33	1084.60
458.70	1086.71
459.06	1090.92
459.42	1090.46
459.79	1089.52
460.15	1090.22
460.51	1093.97
460.88	1086.71
461.24	1077.11
461.60	1070.80
461.96	1070.33
462.33	1070.80
462.69	1073.37
463.05	1074.31
463.42	1082.97
463.78	1076.41
464.14	1072.90
464.50	1070.80
464.87	1066.58
465.23	1049.73
465.59	1059.33
465.95	1065.41
466.32	1066.58
466.68	1073.60
467.04	1084.14
467.40	1076.65
467.77	1066.35
468.13	1069.39
468.49	1073.37
468.85	1067.75
469.22	1071.73
469.58	1076.88
469.94	1076.88
470.30	1073.37
470.66	1078.75
471.03	1079.69
471.39	1069.39
471.75	1069.16
472.11	1061.43
472.47	1057.92
472.84	1058.16
473.20	1074.54
473.56	1072.67
473.92	1079.92
474.28	1087.65
474.65	1084.14
475.01	1075.01
475.37	1086.71
475.73	1092.56
476.09	1085.77
476.45	1088.58
476.81	1090.69
477.18	1080.16
477.54	1074.77
477.90	1070.09
478.26	1064.94
478.62	1066.82
478.98	1067.99
479.34	1066.11
479.71	1075.01
480.07	1081.56
480.43	1088.82
480.79	1078.75
481.15	1083.67
481.51	1081.33
481.87	1089.52
482.23	1081.56
482.59	1088.35
482.96	1080.63
483.32	1082.03
483.68	1068.22
484.04	1061.43
484.40	1060.03
484.76	1066.11
485.12	1064.24
485.48	1076.88
485.84	1083.43
486.20	1084.14
486.56	1082.97
486.92	1085.07
487.28	1067.52
487.64	1073.14
488.00	1068.69
488.37	1067.52
488.73	1066.35
489.09	1075.48
489.45	1072.90
489.81	1076.18
490.17	1070.33
490.53	1070.09
490.89	1071.97
491.25	1064.71
491.61	1067.52
491.97	1073.14
492.33	1073.84
492.69	1073.37
493.05	1078.05
493.41	1072.67
493.77	1077.35
494.13	1071.03
494.49	1075.48
494.85	1070.56
495.21	1075.01
495.57	1064.48
495.93	1067.52
496.29	1059.79
496.64	1064.71
497.00	1058.16
497.36	1062.60
497.72	1062.37
498.08	1069.16
498.44	1073.14
498.80	1084.14
499.16	1096.54
499.52	1103.56
499.88	1100.05
500.24	1102.86
500.60	1106.84
500.96	1103.33
501.32	1095.14
501.68	1103.80
502.03	1100.52
502.39	1096.07
502.75	1089.29
503.11	1083.43
503.47	1075.94
503.83	1066.58
504.19	1062.37
504.55	1061.90
504.91	1072.90
505.26	1076.41
505.62	1080.16
505.98	1086.24
506.34	1092.33
506.70	1094.67
507.06	1090.46
507.42	1096.31
507.78	1085.07
508.13	1074.77
508.49	1077.58
508.85	1073.14
509.21	1066.58
509.57	1070.09
509.93	1070.33
510.28	1066.58
510.64	1078.99
511.00	1085.31
511.36	1084.37
511.72	1086.71
512.07	1093.73
512.43	1086.01
512.79	1087.65
513.15	1083.43
513.51	1087.65
513.86	1078.75
514.22	1080.16
514.58	1071.50
514.94	1086.48
515.30	1083.43
515.65	1091.39
516.01	1094.67
516.37	1099.35
516.73	1098.41
517.08	1098.65
517.44	1090.92
517.80	1078.99
518.16	1079.22
518.51	1076.65
518.87	1076.88
519.23	1084.37
519.59	1092.56
519.94	1093.26
520.30	1092.80
520.66	1093.73
521.01	1102.39
521.37	1101.69
521.73	1109.88
522.09	1108.95
522.44	1110.58
522.80	1095.37
523.16	1100.99
523.51	1085.77
523.87	1083.90
524.23	1083.90
524.58	1087.65
524.94	1084.84
525.30	1097.01
525.65	1100.29
526.01	1097.48
526.37	1090.92
526.72	1085.54
527.08	1078.99
527.44	1081.33
527.79	1086.48
528.15	1081.33
528.51	1083.67
528.86	1098.18
529.22	1090.69
529.58	1090.69
529.93	1102.39
530.29	1099.35
530.65	1087.65
531.00	1089.52
531.36	1089.99
531.71	1079.69
532.07	1090.22
532.43	1083.43
532.78	1090.22
533.14	1086.48
533.49	1087.88
533.85	1080.39
534.21	1091.16
534.56	1083.20
534.92	1083.43
535.27	1092.09
535.63	1088.12
535.98	1090.46
536.34	1096.31
536.69	1095.84
537.05	1086.48
537.41	1097.71
537.76	1086.94
538.12	1087.41
538.47	1089.29
538.83	1103.33
539.18	1093.03
539.54	1093.03
539.89	1090.22
540.25	1086.24
540.60	1067.52
540.96	1065.65
541.31	1075.24
541.67	1073.37
542.02	1085.77
542.38	1099.82
542.73	1110.58
543.09	1105.90
543.44	1111.99
543.80	1105.90
544.15	1100.52
544.51	1102.86
544.86	1102.86
545.22	1097.95
545.57	1094.43
545.93	1096.78
546.28	1094.43
546.64	1095.84
546.99	1091.63
547.35	1095.60
547.70	1096.07
548.05	1090.69
548.41	1082.50
548.76	1081.33
549.12	1082.50
549.47	1087.88
549.83	1097.95
550.18	1101.46
550.53	1102.63
550.89	1096.54
551.24	1092.33
551.60	1084.37
551.95	1085.54
552.30	1085.07
552.66	1086.71
553.01	1086.48
553.37	1090.46
553.72	1094.90
554.07	1100.99
554.43	1102.63
554.78	1092.33
555.13	1081.80
555.49	1079.92
555.84	1071.50
556.19	1076.65
556.55	1080.63
556.90	1088.35
557.26	1091.16
557.61	1094.20
557.96	1085.77
558.32	1097.71
558.67	1099.12
559.02	1098.41
559.37	1096.78
559.73	1102.16
560.08	1102.86
560.43	1096.31
560.79	1093.73
561.14	1098.41
561.49	1090.92
561.85	1093.26
562.20	1097.01
562.55	1091.39
562.90	1087.41
563.26	1099.35
563.61	1078.05
563.96	1073.14
564.32	1073.84
564.67	1078.99
565.02	1066.35
565.37	1071.50
565.73	1071.26
566.08	1073.84
566.43	1067.05
566.78	1068.22
567.14	1071.50
567.49	1071.50
567.84	1071.26
568.19	1075.94
568.54	1076.41
568.90	1076.18
569.25	1081.56
569.60	1086.94
569.95	1083.90
570.31	1085.07
570.66	1093.26
571.01	1086.24
571.36	1069.86
571.71	1069.86
572.06	1070.56
572.42	1054.18
572.77	1060.73
573.12	1068.45
573.47	1069.86
573.82	1061.43
574.18	1071.97
574.53	1072.90
574.88	1069.16
575.23	1069.39
575.58	1070.80
575.93	1066.58
576.28	1059.79
576.64	1067.52
576.99	1073.84
577.34	1081.80
577.69	1091.39
578.04	1098.18
578.39	1099.58
578.74	1093.73
579.09	1093.26
579.44	1084.14
579.80	1070.56
580.15	1069.86
580.50	1069.62
580.85	1064.48
581.20	1070.33
581.55	1085.31
581.90	1083.20
582.25	1087.88
582.60	1090.22
582.95	1075.48
583.30	1070.09
583.65	1072.90
584.00	1072.90
584.35	1068.69
584.71	1080.39
585.06	1076.88
585.41	1080.63
585.76	1077.11
586.11	1074.31
586.46	1071.50
586.81	1078.75
587.16	1069.86
587.51	1066.35
587.86	1075.24
588.21	1079.46
588.56	1070.09
588.91	1073.60
589.26	1072.90
589.61	1075.24
589.96	1076.65
590.31	1082.26
590.66	1083.43
591.01	1092.56
591.36	1085.07
591.71	1082.97
592.06	1083.20
592.41	1083.20
592.76	1088.12
593.10	1095.37
593.45	1101.92
593.80	1101.69
594.15	1089.05
594.50	1080.39
594.85	1074.54
595.20	1071.03
595.55	1061.90
595.90	1077.11
596.25	1073.37
596.60	1072.43
596.95	1065.88
597.30	1069.16
597.64	1119.24
597.99	1124.63
598.34	1136.33
598.69	1137.03
599.04	1141.48
599.39	1087.65
599.74	1085.07
600.09	1080.16
600.44	1088.12
600.78	1094.90
601.13	1089.75
601.48	1086.94
601.83	1082.26
602.18	1077.82
602.53	1083.67
602.88	1087.18
603.22	1096.54
603.57	1096.78
603.92	1092.56
604.27	1075.71
604.62	1074.77
604.97	1069.39
605.31	1075.71
605.66	1089.05
606.01	1094.90
606.36	1085.54
606.71	1084.60
607.05	1089.05
607.40	1081.80
607.75	1079.69
608.10	1087.88
608.44	1084.84
608.79	1078.75
609.14	1070.33
609.49	1068.22
609.84	1083.43
610.18	1083.90
610.53	1078.52
610.88	1094.67
611.23	1108.95
611.57	1106.61
611.92	1115.50
612.27	1126.73
612.62	1122.99
612.96	1110.12
613.31	1094.43
613.66	1084.60
614.00	1080.16
614.35	1071.97
614.70	1074.31
615.05	1085.07
615.39	1093.03
615.74	1086.48
616.09	1094.20
616.43	1091.86
616.78	1081.80
617.13	1079.46
617.47	1081.80
617.82	1084.37
618.17	1093.26
618.51	1101.22
618.86	1098.41
619.21	1101.69
619.55	1099.82
619.90	1096.54
620.25	1093.97
620.59	1086.48
620.94	1085.54
621.29	1078.99
621.63	1080.16
621.98	1081.80
622.32	1085.31
622.67	1074.54
623.02	1071.97
623.36	1070.33
623.71	1066.11
624.05	1070.33
624.40	1079.22
624.75	1084.37
625.09	1079.69
625.44	1080.63
625.78	1082.03
626.13	1083.43
626.48	1080.63
626.82	1081.09
627.17	1077.35
627.51	1078.05
627.86	1075.94
628.20	1075.94
628.55	1078.75
628.89	1088.35
629.24	1083.43
629.58	1082.50
629.93	1078.28
630.28	1078.99
630.62	1078.52
630.97	1083.67
631.31	1090.69
631.66	1093.97
632.00	1097.95
632.35	1096.78
632.69	1092.33
633.04	1083.90
633.38	1092.56
633.73	1091.16
634.07	1083.20
634.42	1076.41
634.76	1076.65
635.11	1077.82
635.45	1076.18
635.79	1078.99
636.14	1082.97
636.48	1084.60
636.83	1078.52
637.17	1083.90
637.52	1088.12
637.86	1091.16
638.21	1083.90
638.55	1083.43
638.89	1070.09
639.24	1074.77
639.58	1081.09
639.93	1097.95
640.27	1098.65
640.61	1112.69
640.96	1110.58
641.30	1103.56
641.65	1093.73
641.99	1089.99
642.33	1083.67
642.68	1079.46
643.02	1085.07
643.37	1085.31
643.71	1070.09
644.05	1062.84
644.40	1064.94
644.74	1061.43
645.08	1061.20
645.43	1075.24
645.77	1081.33
646.11	1077.35
646.46	1079.46
646.80	1078.52
647.14	1075.48
647.49	1073.60
647.83	1075.94
648.17	1068.22
648.52	1068.22
648.86	1079.92
649.20	1082.26
649.55	1087.65
649.89	1094.20
650.23	1094.20
650.57	1090.92
650.92	1093.26
651.26	1090.46
651.60	1082.50
651.95	1085.77
652.29	1091.16
652.63	1087.18
652.97	1090.92
653.32	1096.07
653.66	1082.97
654.00	1082.26
654.34	1085.31
654.69	1076.18
655.03	1074.77
655.37	1082.03
655.71	1071.50
656.05	1064.24
656.40	1066.35
656.74	1064.94
657.08	1068.69
657.42	1062.37
657.76	1064.71
658.11	1058.62
658.45	1061.43
658.79	1059.33
659.13	1067.52
659.47	1071.73
659.82	1082.73
660.16	1081.80
660.50	1080.63
660.84	1068.92
661.18	1067.52
661.52	1059.79
661.87	1059.56
662.21	1052.07
662.55	1073.60
662.89	1077.35
663.23	1080.63
663.57	1093.97
663.91	1106.37
664.25	1096.54
664.60	1104.26
664.94	1107.78
665.28	1097.01
665.62	1083.90
665.96	1088.82
666.30	1079.92
666.64	1074.54
666.98	1072.90
667.32	1085.54
667.66	1077.35
668.01	1068.22
668.35	1071.73
668.69	1073.60
669.03	1074.77
669.37	1068.22
669.71	1064.71
670.05	1060.73
670.39	1060.73
670.73	1052.30
671.07	1057.69
671.41	1070.09
671.75	1070.56
672.09	1074.77
672.43	1078.75
672.77	1082.26
673.11	1081.56
673.45	1085.77
673.79	1080.86
674.13	1082.97
674.47	1083.90
674.81	1086.71
675.15	1083.20
675.49	1088.82
675.83	1082.97
676.17	1086.01
676.51	1076.18
676.85	1072.43
677.19	1066.58
677.53	1074.54
677.87	1063.54
678.21	1072.20
678.55	1079.92
678.89	1076.88
679.23	1073.84
679.57	1078.52
679.90	1075.48
680.24	1074.07
680.58	1078.05
680.92	1088.58
681.26	1094.43
681.60	1093.03
681.94	1089.05
682.28	1090.46
682.62	1079.92
682.96	1075.01
683.29	1075.24
683.63	1073.84
683.97	1078.99
684.31	1085.07
684.65	1083.67
684.99	1078.75
685.33	1079.69
685.67	1076.65
686.00	1072.20
686.34	1070.33
686.68	1076.88
687.02	1078.99
687.36	1079.69
687.70	1069.86
688.03	1076.88
688.37	1086.48
688.71	1086.48
689.05	1076.41
689.39	1088.12
689.72	1084.84
690.06	1076.88
690.40	1079.69
690.74	1083.20
691.08	1080.63
691.41	1079.22
691.75	1080.63
692.09	1069.16
692.43	1071.26
692.76	1076.41
693.10	1082.26
693.44	1074.31
693.78	1089.99
694.11	1095.84
694.45	1088.12
694.79	1084.37
695.13	1096.07
695.46	1090.92
695.80	1084.14
696.14	1085.07
696.48	1084.84
696.81	1074.07
697.15	1070.56
697.49	1072.20
697.82	1072.90
698.16	1069.86
698.50	1071.03
698.83	1072.90
699.17	1070.80
699.51	1076.41
699.84	1078.99
700.18	1070.09
700.52	1071.26
700.85	1074.31
701.19	1067.52
701.53	1069.62
701.86	1075.48
702.20	1078.52
702.54	1071.26
702.87	1073.60
703.21	1074.54
703.55	1090.69
703.88	1088.58
704.22	1097.48
704.55	1099.58
704.89	1097.95
705.23	1087.41
705.56	1079.69
705.90	1075.24
706.23	1075.94
706.57	1083.90
706.91	1088.35
707.24	1102.63
707.58	1105.44
707.91	1102.63
708.25	1104.03
708.58	1108.71
708.92	1107.78
709.26	1108.71
709.59	1106.37
709.93	1099.82
710.26	1093.50
710.60	1085.31
710.93	1081.80
711.27	1077.35
711.60	1074.07
711.94	1070.33
712.27	1066.35
712.61	1071.03
712.94	1075.01
713.28	1071.97
713.61	1077.82
713.95	1081.56
714.28	1073.37
714.62	1071.97
714.95	1077.82
715.29	1070.80
715.62	1071.97
715.96	1078.99
716.29	1081.09
716.63	1076.88
716.96	1072.20
717.29	1078.28
717.63	1076.41
717.96	1078.99
718.30	1080.86
718.63	1084.14
718.97	1075.48
719.30	1074.54
719.63	1073.14
719.97	1076.41
720.30	1078.99
720.64	1078.99
720.97	1076.65
721.30	1080.63
721.64	1075.71
721.97	1082.50
722.31	1087.65
722.64	1088.82
722.97	1087.18
723.31	1084.14
723.64	1082.26
723.97	1074.07
724.31	1075.01
724.64	1077.58
724.98	1080.39
725.31	1081.56
725.64	1084.14
725.98	1081.33
726.31	1076.18
726.64	1078.05
726.97	1079.92
727.31	1083.20
727.64	1084.60
727.97	1080.16
728.31	1086.48
728.64	1081.56
728.97	1083.67
729.31	1079.46
729.64	1087.65
729.97	1081.33
730.30	1074.07
730.64	1074.31
730.97	1078.28
731.30	1081.09
731.63	1080.16
731.97	1082.26
732.30	1075.94
732.63	1081.80
732.96	1076.65
733.30	1075.71
733.63	1073.84
733.96	1069.39
734.29	1071.03
734.63	1069.39
734.96	1069.39
735.29	1069.16
735.62	1081.56
735.95	1081.09
736.29	1079.69
736.62	1087.18
736.95	1096.78
737.28	1089.99
737.61	1084.37
737.94	1091.39
738.28	1082.73
738.61	1078.75
738.94	1082.97
739.27	1087.41
739.60	1078.99
739.93	1089.52
740.27	1094.20
740.60	1085.07
740.93	1083.20
741.26	1078.75
741.59	1077.82
741.92	1069.86
742.25	1065.65
742.58	1062.84
742.91	1072.43
743.25	1066.11
743.58	1070.80
743.91	1073.60
744.24	1075.01
744.57	1080.39
744.90	1087.18
745.23	1091.39
745.56	1103.33
745.89	1108.95
746.22	1107.07
746.55	1099.35
746.88	1091.39
747.21	1094.20
747.54	1091.86
747.87	1092.33
748.20	1087.88
748.53	1085.31
748.87	1073.37
749.20	1080.63
749.53	1079.22
749.86	1077.11
750.19	1075.94
750.52	1084.37
750.85	1075.71
751.18	1076.41
751.51	1091.63
751.84	1093.97
752.16	1088.35
752.49	1086.24
752.82	1074.54
753.15	1065.65
753.48	1074.77
753.81	1076.65
754.14	1081.80
754.47	1084.84
754.80	1073.37
755.13	1070.80
755.46	1071.73
755.79	1061.90
756.12	1070.33
756.45	1075.94
756.78	1061.43
757.11	1056.28
757.43	1054.88
757.76	1044.82
758.09	1056.99
758.42	1063.31
758.75	1067.99
759.08	1067.75
759.41	1071.97
759.74	1072.90
760.07	1076.41
760.39	1068.92
760.72	1083.67
761.05	1085.07
761.38	1082.26
761.71	1079.69
762.04	1087.18
762.36	1085.77
762.69	1081.33
763.02	1073.14
763.35	1073.84
763.68	1069.86
764.01	1067.99
764.33	1074.31
764.66	1073.60
764.99	1079.22
765.32	1083.20
765.65	1070.80
765.97	1064.71
766.30	1071.73
