SpectraSuite Data File
++++++++++++++++++++++++++++++++++++
Date: Mon Aug 26 10:25:45 PDT 2019
User: corrico
Dark Spectrum Present: No
Reference Spectrum Present: No
Number of Sampled Component Spectra: 1
Spectrometers: USB2+H06089
Integration Time (usec): 10000 (USB2+H06089)
Spectra Averaged: 2 (USB2+H06089)
Boxcar Smoothing: 2 (USB2+H06089)
Correct for Electrical Dark: No (USB2+H06089)
Strobe/Lamp Enabled: No (USB2+H06089)
Correct for Detector Non-linearity: No (USB2+H06089)
Correct for Stray Light: No (USB2+H06089)
Number of Pixels in Processed Spectrum: 2048
>>>>>Begin Processed Spectral Data<<<<<
339.70	1053.24
340.07	1053.24
340.45	1018.37
340.82	987.71
341.19	965.47
341.57	932.94
341.94	916.09
342.31	896.89
342.69	895.02
343.06	876.06
343.43	883.08
343.81	892.45
344.18	903.45
344.55	906.96
344.93	931.53
345.30	932.94
345.67	939.49
346.04	943.94
346.42	951.19
346.79	947.21
347.16	955.41
347.54	959.15
347.91	976.94
348.28	991.68
348.65	1010.18
349.03	1021.41
349.40	1022.81
349.77	1020.71
350.14	1028.20
350.52	1023.52
350.89	1032.88
351.26	1047.39
351.63	1050.90
352.01	1048.79
352.38	1061.43
352.75	1064.01
353.12	1059.56
353.50	1069.39
353.87	1072.20
354.24	1063.07
354.61	1062.60
354.98	1077.58
355.36	1076.65
355.73	1085.07
356.10	1086.01
356.47	1077.11
356.84	1069.86
357.22	1065.88
357.59	1056.99
357.96	1059.09
358.33	1060.50
358.70	1053.48
359.08	1066.82
359.45	1072.67
359.82	1078.28
360.19	1087.18
360.56	1097.48
360.94	1098.65
361.31	1089.99
361.68	1087.18
362.05	1082.50
362.42	1073.14
362.79	1055.82
363.16	1055.35
363.54	1058.86
363.91	1063.54
364.28	1074.54
364.65	1081.09
365.02	1083.20
365.39	1084.84
365.76	1091.16
366.14	1073.60
366.51	1071.26
366.88	1069.62
367.25	1064.48
367.62	1050.67
367.99	1054.88
368.36	1050.90
368.73	1050.20
369.10	1049.26
369.48	1048.79
369.85	1061.67
370.22	1062.84
370.59	1065.18
370.96	1061.43
371.33	1063.77
371.70	1052.77
372.07	1054.65
372.44	1060.50
372.81	1066.11
373.18	1073.37
373.55	1075.71
373.93	1076.88
374.30	1074.77
374.67	1078.28
375.04	1078.75
375.41	1084.60
375.78	1090.92
376.15	1092.56
376.52	1090.69
376.89	1089.52
377.26	1076.65
377.63	1073.60
378.00	1072.43
378.37	1069.16
378.74	1065.41
379.11	1072.20
379.48	1065.18
379.85	1057.45
380.22	1061.20
380.59	1053.71
380.96	1057.69
381.33	1057.92
381.70	1057.69
382.07	1050.20
382.44	1053.01
382.81	1048.33
383.18	1048.56
383.55	1047.39
383.92	1051.37
384.29	1052.07
384.66	1060.26
385.03	1062.60
385.40	1080.39
385.77	1081.56
386.14	1088.12
386.51	1089.75
386.88	1085.54
387.25	1077.58
387.62	1081.33
387.99	1076.65
388.36	1072.90
388.73	1079.46
389.10	1079.69
389.46	1073.84
389.83	1071.03
390.20	1070.09
390.57	1064.24
390.94	1065.65
391.31	1075.71
391.68	1079.46
392.05	1073.14
392.42	1066.58
392.79	1065.41
393.16	1059.09
393.53	1068.22
393.89	1070.80
394.26	1089.05
394.63	1095.60
395.00	1103.33
395.37	1091.86
395.74	1097.24
396.11	1093.03
396.48	1084.37
396.84	1069.16
397.21	1069.39
397.58	1067.99
397.95	1054.65
398.32	1057.92
398.69	1063.07
399.06	1071.03
399.42	1071.97
399.79	1081.09
400.16	1076.65
400.53	1073.14
400.90	1063.07
401.27	1062.84
401.64	1067.28
402.00	1064.94
402.37	1072.67
402.74	1079.92
403.11	1072.90
403.48	1061.90
403.84	1067.28
404.21	1069.86
404.58	1064.94
404.95	1075.24
405.32	1081.80
405.68	1072.67
406.05	1071.26
406.42	1078.99
406.79	1079.22
407.16	1067.75
407.52	1065.18
407.89	1058.86
408.26	1059.09
408.63	1059.09
408.99	1071.50
409.36	1083.43
409.73	1079.92
410.10	1077.35
410.47	1074.07
410.83	1072.43
411.20	1068.22
411.57	1074.31
411.94	1081.33
412.30	1074.77
412.67	1078.05
413.04	1087.65
413.40	1090.92
413.77	1074.54
414.14	1083.67
414.51	1083.20
414.87	1077.11
415.24	1069.39
415.61	1074.54
415.97	1070.80
416.34	1067.52
416.71	1072.20
417.08	1085.54
417.44	1089.52
417.81	1093.50
418.18	1102.16
418.54	1105.90
418.91	1104.26
419.28	1102.16
419.64	1099.58
420.01	1094.90
420.38	1089.52
420.74	1073.84
421.11	1068.45
421.48	1068.22
421.84	1065.65
422.21	1062.37
422.58	1085.31
422.94	1086.48
423.31	1077.35
423.68	1075.71
424.04	1077.58
424.41	1052.54
424.77	1057.45
425.14	1071.03
425.51	1068.45
425.87	1065.41
426.24	1077.11
426.61	1067.75
426.97	1070.09
427.34	1070.56
427.70	1067.28
428.07	1070.80
428.44	1080.39
428.80	1076.41
429.17	1082.97
429.53	1088.35
429.90	1077.35
430.27	1074.77
430.63	1065.41
431.00	1058.16
431.36	1056.28
431.73	1065.41
432.09	1059.09
432.46	1059.09
432.83	1064.01
433.19	1066.58
433.56	1071.50
433.92	1082.26
434.29	1080.86
434.65	1087.65
435.02	1089.05
435.38	1081.80
435.75	1079.46
436.11	1087.65
436.48	1081.80
436.84	1075.24
437.21	1071.73
437.57	1069.62
437.94	1073.84
438.30	1070.80
438.67	1077.11
439.03	1078.05
439.40	1078.75
439.76	1078.52
440.13	1082.50
440.49	1074.07
440.86	1076.18
441.22	1076.41
441.59	1071.73
441.95	1084.37
442.32	1090.69
442.68	1097.95
443.05	1093.03
443.41	1089.75
443.78	1080.39
444.14	1074.31
444.51	1073.14
444.87	1071.73
445.24	1077.82
445.60	1079.22
445.96	1091.39
446.33	1081.56
446.69	1086.94
447.06	1086.01
447.42	1079.22
447.79	1078.05
448.15	1078.99
448.51	1081.33
448.88	1079.22
449.24	1079.92
449.61	1075.48
449.97	1086.01
450.33	1085.31
450.70	1091.86
451.06	1090.69
451.43	1091.16
451.79	1076.88
452.15	1080.63
452.52	1078.05
452.88	1075.71
453.24	1068.22
453.61	1075.94
453.97	1077.35
454.34	1080.39
454.70	1090.22
455.06	1093.97
455.43	1085.77
455.79	1076.88
456.15	1071.50
456.52	1073.60
456.88	1077.82
457.24	1093.50
457.61	1097.95
457.97	1089.29
458.33	1089.52
458.70	1095.84
459.06	1083.90
459.42	1081.80
459.79	1086.94
460.15	1078.05
460.51	1067.75
460.88	1086.94
461.24	1090.46
461.60	1094.20
461.96	1099.35
462.33	1107.07
462.69	1089.29
463.05	1090.22
463.42	1088.35
463.78	1082.97
464.14	1085.77
464.50	1093.26
464.87	1081.33
465.23	1082.26
465.59	1084.84
465.95	1076.41
466.32	1075.24
466.68	1082.03
467.04	1083.67
467.40	1088.82
467.77	1088.82
468.13	1077.35
468.49	1074.77
468.85	1071.73
469.22	1060.03
469.58	1063.54
469.94	1068.69
470.30	1072.43
470.66	1070.33
471.03	1078.99
471.39	1077.11
471.75	1079.46
472.11	1073.84
472.47	1073.14
472.84	1072.67
473.20	1075.24
473.56	1073.84
473.92	1082.50
474.28	1086.01
474.65	1075.01
475.01	1071.73
475.37	1076.41
475.73	1081.56
476.09	1076.88
476.45	1078.05
476.81	1082.97
477.18	1082.26
477.54	1075.24
477.90	1073.60
478.26	1082.26
478.62	1078.99
478.98	1073.84
479.34	1074.07
479.71	1087.41
480.07	1075.94
480.43	1060.50
480.79	1063.31
481.15	1060.26
481.51	1056.99
481.87	1063.07
482.23	1072.20
482.59	1077.35
482.96	1076.65
483.32	1072.20
483.68	1069.86
484.04	1070.33
484.40	1067.52
484.76	1078.05
485.12	1071.26
485.48	1077.82
485.84	1078.05
486.20	1081.09
486.56	1072.90
486.92	1074.31
487.28	1075.71
487.64	1080.63
488.00	1075.01
488.37	1073.14
488.73	1069.86
489.09	1069.16
489.45	1071.26
489.81	1066.58
490.17	1072.43
490.53	1078.52
490.89	1080.16
491.25	1080.63
491.61	1085.77
491.97	1081.33
492.33	1076.41
492.69	1064.01
493.05	1062.60
493.41	1062.84
493.77	1065.41
494.13	1069.86
494.49	1084.60
494.85	1095.60
495.21	1096.31
495.57	1090.69
495.93	1093.26
496.29	1083.67
496.64	1070.56
497.00	1065.88
497.36	1065.88
497.72	1070.09
498.08	1072.90
498.44	1077.11
498.80	1078.28
499.16	1087.41
499.52	1090.46
499.88	1101.92
500.24	1096.07
500.60	1094.90
500.96	1086.71
501.32	1077.11
501.68	1071.97
502.03	1073.84
502.39	1082.73
502.75	1080.63
503.11	1082.26
503.47	1079.92
503.83	1077.35
504.19	1068.92
504.55	1074.07
504.91	1073.60
505.26	1074.07
505.62	1075.01
505.98	1072.67
506.34	1077.11
506.70	1070.09
507.06	1071.73
507.42	1073.84
507.78	1078.05
508.13	1070.80
508.49	1077.82
508.85	1069.16
509.21	1063.31
509.57	1067.52
509.93	1062.84
510.28	1060.26
510.64	1065.88
511.00	1077.11
511.36	1063.77
511.72	1074.31
512.07	1077.11
512.43	1075.94
512.79	1070.09
513.15	1079.69
513.51	1070.33
513.86	1070.80
514.22	1065.65
514.58	1059.79
514.94	1065.41
515.30	1073.14
515.65	1082.50
516.01	1084.84
516.37	1091.16
516.73	1085.77
517.08	1086.01
517.44	1082.03
517.80	1081.09
518.16	1079.22
518.51	1074.54
518.87	1077.82
519.23	1070.56
519.59	1088.35
519.94	1089.05
520.30	1100.05
520.66	1100.05
521.01	1109.41
521.37	1095.14
521.73	1098.65
522.09	1096.54
522.44	1094.43
522.80	1092.56
523.16	1084.60
523.51	1087.41
523.87	1087.65
524.23	1083.20
524.58	1084.37
524.94	1097.01
525.30	1093.03
525.65	1089.29
526.01	1083.43
526.37	1078.52
526.72	1078.28
527.08	1080.63
527.44	1087.88
527.79	1087.18
528.15	1090.22
528.51	1085.54
528.86	1085.54
529.22	1082.73
529.58	1091.39
529.93	1085.77
530.29	1073.60
530.65	1059.79
531.00	1062.84
531.36	1064.24
531.71	1061.20
532.07	1074.77
532.43	1089.05
532.78	1079.92
533.14	1086.01
533.49	1086.48
533.85	1085.07
534.21	1079.22
534.56	1078.75
534.92	1076.88
535.27	1087.88
535.63	1100.05
535.98	1111.29
536.34	1105.20
536.69	1094.90
537.05	1095.60
537.41	1087.41
537.76	1078.75
538.12	1092.56
538.47	1089.52
538.83	1082.73
539.18	1076.41
539.54	1078.05
539.89	1071.50
540.25	1071.03
540.60	1074.31
540.96	1074.54
541.31	1069.86
541.67	1068.92
542.02	1077.35
542.38	1077.11
542.73	1084.37
543.09	1089.99
543.44	1088.35
543.80	1089.75
544.15	1081.33
544.51	1069.62
544.86	1065.18
545.22	1067.52
545.57	1061.67
545.93	1062.37
546.28	1067.75
546.64	1070.33
546.99	1069.16
547.35	1070.09
547.70	1065.18
548.05	1062.37
548.41	1057.92
548.76	1058.86
549.12	1063.54
549.47	1073.37
549.83	1079.22
550.18	1075.01
550.53	1076.41
550.89	1086.48
551.24	1084.60
551.60	1082.73
551.95	1089.05
552.30	1081.80
552.66	1072.43
553.01	1067.28
553.37	1059.56
553.72	1065.88
554.07	1075.48
554.43	1064.71
554.78	1075.01
555.13	1081.09
555.49	1075.48
555.84	1075.94
556.19	1087.65
556.55	1087.41
556.90	1093.03
557.26	1095.60
557.61	1094.90
557.96	1095.37
558.32	1092.56
558.67	1090.92
559.02	1085.31
559.37	1089.75
559.73	1084.60
560.08	1083.43
560.43	1078.75
560.79	1086.71
561.14	1082.03
561.49	1092.09
561.85	1086.71
562.20	1091.16
562.55	1086.24
562.90	1078.75
563.26	1075.71
563.61	1093.73
563.96	1090.22
564.32	1088.12
564.67	1097.01
565.02	1079.92
565.37	1067.52
565.73	1069.86
566.08	1061.90
566.43	1051.84
566.78	1065.88
567.14	1063.07
567.49	1066.35
567.84	1077.35
568.19	1071.50
568.54	1070.09
568.90	1075.24
569.25	1069.86
569.60	1066.58
569.95	1079.22
570.31	1080.39
570.66	1084.37
571.01	1093.73
571.36	1099.58
571.71	1095.37
572.06	1100.52
572.42	1095.14
572.77	1084.84
573.12	1082.97
573.47	1089.52
573.82	1082.97
574.18	1077.82
574.53	1075.94
574.88	1072.67
575.23	1068.45
575.58	1072.90
575.93	1077.35
576.28	1076.41
576.64	1084.14
576.99	1087.65
577.34	1081.56
577.69	1082.03
578.04	1096.54
578.39	1099.58
578.74	1097.48
579.09	1095.14
579.44	1101.92
579.80	1095.84
580.15	1089.29
580.50	1092.80
580.85	1095.14
581.20	1088.82
581.55	1082.26
581.90	1072.90
582.25	1067.28
582.60	1059.79
582.95	1054.18
583.30	1063.31
583.65	1063.54
584.00	1059.33
584.35	1070.33
584.71	1080.86
585.06	1061.90
585.41	1075.24
585.76	1083.90
586.11	1080.39
586.46	1072.90
586.81	1089.05
587.16	1083.90
587.51	1077.11
587.86	1071.73
588.21	1071.03
588.56	1067.99
588.91	1063.54
589.26	1064.48
589.61	1070.09
589.96	1082.03
590.31	1092.33
590.66	1100.29
591.01	1113.16
591.36	1113.63
591.71	1097.71
592.06	1082.26
592.41	1077.58
592.76	1069.16
593.10	1071.03
593.45	1075.48
593.80	1075.94
594.15	1074.31
594.50	1077.82
594.85	1071.97
595.20	1075.94
595.55	1076.88
595.90	1078.52
596.25	1076.41
596.60	1088.58
596.95	1093.97
597.30	1101.46
597.64	1147.33
597.99	1155.29
598.34	1155.76
598.69	1151.54
599.04	1141.48
599.39	1101.22
599.74	1092.80
600.09	1093.26
600.44	1088.82
600.78	1097.71
601.13	1094.90
601.48	1105.90
601.83	1094.20
602.18	1094.43
602.53	1093.73
602.88	1099.82
603.22	1086.71
603.57	1091.39
603.92	1102.39
604.27	1100.05
604.62	1094.67
604.97	1087.18
605.31	1075.01
605.66	1067.05
606.01	1067.99
606.36	1065.88
606.71	1075.24
607.05	1087.18
607.40	1090.92
607.75	1094.20
608.10	1100.99
608.44	1101.92
608.79	1107.07
609.14	1102.63
609.49	1107.54
609.84	1094.43
610.18	1093.73
610.53	1093.73
610.88	1099.58
611.23	1099.58
611.57	1104.03
611.92	1107.31
612.27	1102.16
612.62	1100.29
612.96	1090.22
613.31	1093.50
613.66	1096.54
614.00	1097.95
614.35	1093.26
614.70	1094.67
615.05	1095.14
615.39	1091.39
615.74	1083.67
616.09	1090.92
616.43	1095.37
616.78	1099.35
617.13	1095.37
617.47	1099.58
617.82	1101.69
618.17	1106.84
618.51	1096.07
618.86	1095.14
619.21	1086.71
619.55	1071.26
619.90	1056.75
620.25	1065.18
620.59	1072.43
620.94	1086.48
621.29	1098.65
621.63	1108.24
621.98	1107.54
622.32	1094.67
622.67	1090.22
623.02	1088.35
623.36	1093.26
623.71	1086.24
624.05	1092.33
624.40	1088.35
624.75	1079.22
625.09	1074.54
625.44	1072.67
625.78	1077.58
626.13	1077.58
626.48	1071.73
626.82	1066.35
627.17	1073.14
627.51	1072.43
627.86	1071.50
628.20	1089.05
628.55	1086.71
628.89	1080.63
629.24	1082.97
629.58	1086.48
629.93	1087.65
630.28	1089.05
630.62	1093.26
630.97	1082.50
631.31	1083.43
631.66	1072.90
632.00	1079.69
632.35	1078.99
632.69	1077.11
633.04	1074.54
633.38	1078.52
633.73	1075.94
634.07	1069.86
634.42	1075.71
634.76	1084.14
635.11	1081.56
635.45	1080.39
635.79	1088.12
636.14	1086.01
636.48	1084.37
636.83	1083.67
637.17	1078.52
637.52	1072.90
637.86	1083.20
638.21	1075.01
638.55	1081.09
638.89	1088.12
639.24	1100.29
639.58	1094.20
639.93	1098.65
640.27	1090.22
640.61	1089.29
640.96	1083.90
641.30	1074.54
641.65	1069.16
641.99	1074.54
642.33	1072.43
642.68	1068.69
643.02	1075.01
643.37	1086.71
643.71	1083.90
644.05	1091.39
644.40	1093.73
644.74	1096.78
645.08	1095.37
645.43	1101.22
645.77	1087.18
646.11	1088.82
646.46	1094.67
646.80	1089.75
647.14	1095.14
647.49	1101.69
647.83	1098.65
648.17	1090.92
648.52	1086.94
648.86	1073.37
649.20	1078.99
649.55	1082.73
649.89	1084.60
650.23	1097.48
650.57	1105.44
650.92	1102.39
651.26	1105.20
651.60	1106.84
651.95	1100.99
652.29	1094.43
652.63	1091.86
652.97	1084.84
653.32	1078.28
653.66	1078.99
654.00	1082.26
654.34	1075.48
654.69	1077.58
655.03	1074.77
655.37	1071.26
655.71	1067.52
656.05	1079.69
656.40	1082.03
656.74	1085.31
657.08	1085.77
657.42	1093.50
657.76	1086.01
658.11	1092.09
658.45	1096.54
658.79	1090.46
659.13	1095.37
659.47	1089.75
659.82	1075.48
660.16	1075.01
660.50	1083.43
660.84	1071.03
661.18	1078.99
661.52	1082.73
661.87	1083.90
662.21	1082.97
662.55	1074.54
662.89	1084.14
663.23	1085.07
663.57	1078.52
663.91	1068.22
664.25	1079.46
664.60	1077.35
664.94	1073.14
665.28	1075.01
665.62	1082.73
665.96	1079.46
666.30	1065.88
666.64	1064.94
666.98	1070.56
667.32	1075.48
667.66	1086.94
668.01	1091.16
668.35	1093.73
668.69	1098.65
669.03	1097.01
669.37	1092.80
669.71	1092.33
670.05	1093.26
670.39	1095.60
670.73	1092.33
671.07	1080.39
671.41	1078.28
671.75	1081.33
672.09	1073.60
672.43	1075.71
672.77	1083.90
673.11	1094.20
673.45	1097.48
673.79	1103.09
674.13	1099.12
674.47	1099.58
674.81	1093.97
675.15	1083.90
675.49	1067.99
675.83	1068.45
676.17	1067.28
676.51	1065.65
676.85	1076.18
677.19	1082.03
677.53	1079.46
677.87	1077.35
678.21	1082.26
678.55	1079.69
678.89	1082.26
679.23	1085.54
679.57	1090.22
679.90	1089.29
680.24	1090.22
680.58	1092.09
680.92	1095.14
681.26	1093.97
681.60	1080.86
681.94	1076.65
682.28	1077.82
682.62	1073.14
682.96	1082.03
683.29	1088.58
683.63	1082.26
683.97	1078.52
684.31	1080.39
684.65	1073.37
684.99	1077.58
685.33	1082.03
685.67	1082.50
686.00	1083.43
686.34	1079.46
686.68	1086.48
687.02	1088.58
687.36	1078.05
687.70	1079.69
688.03	1070.09
688.37	1052.30
688.71	1057.45
689.05	1064.94
689.39	1064.94
689.72	1068.69
690.06	1076.41
690.40	1068.22
690.74	1062.84
691.08	1067.28
691.41	1077.11
691.75	1075.71
692.09	1074.31
692.43	1086.24
692.76	1076.18
693.10	1078.52
693.44	1077.58
693.78	1089.05
694.11	1085.77
694.45	1089.75
694.79	1086.48
695.13	1087.88
695.46	1082.97
695.80	1092.56
696.14	1086.71
696.48	1085.54
696.81	1090.22
697.15	1084.60
697.49	1075.71
697.82	1080.16
698.16	1075.71
698.50	1078.99
698.83	1084.14
699.17	1078.99
699.51	1079.92
699.84	1082.73
700.18	1073.37
700.52	1066.11
700.85	1071.73
701.19	1070.09
701.53	1072.43
701.86	1082.73
702.20	1071.50
702.54	1064.48
702.87	1068.69
703.21	1068.92
703.55	1064.48
703.88	1084.37
704.22	1084.84
704.55	1081.56
704.89	1088.35
705.23	1089.99
705.56	1086.24
705.90	1091.86
706.23	1094.67
706.57	1087.65
706.91	1087.88
707.24	1091.39
707.58	1084.84
707.91	1084.60
708.25	1084.37
708.58	1069.16
708.92	1067.05
709.26	1073.84
709.59	1074.31
709.93	1076.88
710.26	1094.67
710.60	1093.97
710.93	1088.82
711.27	1091.39
711.60	1101.69
711.94	1095.84
712.27	1086.94
712.61	1094.67
712.94	1099.12
713.28	1084.84
713.61	1077.58
713.95	1082.97
714.28	1067.52
714.62	1062.14
714.95	1059.09
715.29	1062.84
715.62	1066.11
715.96	1076.18
716.29	1068.92
716.63	1083.43
716.96	1084.84
717.29	1078.28
717.63	1086.94
717.96	1090.46
718.30	1082.50
718.63	1085.31
718.97	1082.73
719.30	1067.28
719.63	1064.48
719.97	1061.43
720.30	1057.92
720.64	1072.20
720.97	1077.82
721.30	1082.26
721.64	1089.52
721.97	1087.65
722.31	1079.69
722.64	1090.92
722.97	1082.03
723.31	1076.41
723.64	1082.26
723.97	1076.88
724.31	1063.54
724.64	1075.94
724.98	1072.20
725.31	1068.92
725.64	1082.03
725.98	1084.60
726.31	1084.60
726.64	1085.07
726.97	1080.63
727.31	1071.73
727.64	1071.03
727.97	1065.88
728.31	1067.52
728.64	1072.43
728.97	1082.73
729.31	1096.07
729.64	1087.65
729.97	1085.77
730.30	1085.07
730.64	1082.97
730.97	1068.92
731.30	1078.52
731.63	1079.46
731.97	1078.99
732.30	1080.16
732.63	1082.97
732.96	1079.46
733.30	1078.52
733.63	1085.54
733.96	1085.54
734.29	1091.63
734.63	1100.29
734.96	1103.33
735.29	1102.39
735.62	1099.12
735.95	1098.65
736.29	1090.69
736.62	1092.33
736.95	1087.65
737.28	1084.60
737.61	1082.26
737.94	1083.20
738.28	1082.73
738.61	1083.43
738.94	1086.24
739.27	1078.75
739.60	1067.99
739.93	1062.14
740.27	1066.58
740.60	1063.54
740.93	1073.14
741.26	1087.41
741.59	1079.46
741.92	1073.37
742.25	1069.16
742.58	1066.58
742.91	1064.01
743.25	1077.58
743.58	1075.24
743.91	1074.54
744.24	1075.48
744.57	1073.84
744.90	1079.22
745.23	1085.54
745.56	1092.09
745.89	1091.16
746.22	1084.14
746.55	1075.48
746.88	1073.37
747.21	1072.90
747.54	1062.60
747.87	1073.14
748.20	1088.12
748.53	1093.97
748.87	1090.46
749.20	1094.20
749.53	1095.14
749.86	1082.50
750.19	1079.22
750.52	1075.48
750.85	1083.90
751.18	1078.05
751.51	1081.80
751.84	1077.58
752.16	1083.67
752.49	1080.86
752.82	1081.80
753.15	1071.73
753.48	1071.26
753.81	1071.73
754.14	1064.48
754.47	1060.96
754.80	1072.20
755.13	1066.11
755.46	1077.58
755.79	1090.22
756.12	1099.58
756.45	1089.75
756.78	1097.01
757.11	1089.29
757.43	1074.54
757.76	1064.01
758.09	1070.80
758.42	1068.92
758.75	1067.05
759.08	1073.14
759.41	1086.24
759.74	1075.24
760.07	1079.22
760.39	1073.37
760.72	1073.84
761.05	1066.58
761.38	1077.82
761.71	1070.80
762.04	1075.48
762.36	1081.33
762.69	1074.07
763.02	1071.03
763.35	1079.92
763.68	1079.69
764.01	1079.22
764.33	1090.46
764.66	1086.01
764.99	1082.73
765.32	1079.69
765.65	1071.26
765.97	1066.82
766.30	1065.41
