SpectraSuite Data File
++++++++++++++++++++++++++++++++++++
Date: Mon Aug 26 10:25:46 PDT 2019
User: corrico
Dark Spectrum Present: No
Reference Spectrum Present: No
Number of Sampled Component Spectra: 1
Spectrometers: USB2+H06089
Integration Time (usec): 10000 (USB2+H06089)
Spectra Averaged: 2 (USB2+H06089)
Boxcar Smoothing: 2 (USB2+H06089)
Correct for Electrical Dark: No (USB2+H06089)
Strobe/Lamp Enabled: No (USB2+H06089)
Correct for Detector Non-linearity: No (USB2+H06089)
Correct for Stray Light: No (USB2+H06089)
Number of Pixels in Processed Spectrum: 2048
>>>>>Begin Processed Spectral Data<<<<<
339.70	1001.75
340.07	1001.75
340.45	979.28
340.82	972.26
341.19	960.09
341.57	943.47
341.94	930.36
342.31	920.06
342.69	913.28
343.06	899.23
343.43	903.45
343.81	903.45
344.18	908.36
344.55	910.94
344.93	925.68
345.30	915.38
345.67	938.32
346.04	945.81
346.42	955.87
346.79	960.56
347.16	971.56
347.54	974.37
347.91	980.92
348.28	985.60
348.65	997.54
349.03	1016.26
349.40	1015.79
349.77	1025.15
350.14	1021.41
350.52	1027.73
350.89	1034.05
351.26	1050.20
351.63	1054.41
352.01	1060.26
352.38	1066.82
352.75	1064.94
353.12	1064.01
353.50	1062.60
353.87	1064.71
354.24	1060.50
354.61	1068.22
354.98	1062.14
355.36	1071.97
355.73	1080.16
356.10	1076.18
356.47	1074.77
356.84	1071.50
357.22	1060.50
357.59	1058.16
357.96	1067.05
358.33	1069.39
358.70	1059.79
359.08	1067.05
359.45	1071.03
359.82	1067.52
360.19	1061.67
360.56	1079.69
360.94	1081.80
361.31	1079.22
361.68	1068.69
362.05	1067.28
362.42	1050.90
362.79	1046.69
363.16	1051.13
363.54	1055.82
363.91	1054.65
364.28	1068.69
364.65	1065.65
365.02	1058.86
365.39	1070.80
365.76	1075.01
366.14	1076.41
366.51	1078.75
366.88	1082.73
367.25	1073.60
367.62	1072.67
367.99	1067.05
368.36	1060.26
368.73	1062.84
369.10	1063.31
369.48	1054.41
369.85	1056.99
370.22	1068.45
370.59	1055.58
370.96	1055.58
371.33	1062.60
371.70	1068.69
372.07	1074.77
372.44	1079.92
372.81	1083.43
373.18	1083.67
373.55	1079.46
373.93	1072.67
374.30	1083.90
374.67	1073.37
375.04	1075.01
375.41	1069.86
375.78	1064.01
376.15	1055.35
376.52	1064.71
376.89	1064.71
377.26	1069.62
377.63	1068.22
378.00	1065.88
378.37	1066.35
378.74	1070.33
379.11	1073.37
379.48	1071.26
379.85	1071.26
380.22	1068.92
380.59	1071.50
380.96	1068.92
381.33	1074.54
381.70	1077.11
382.07	1071.03
382.44	1053.71
382.81	1051.60
383.18	1053.01
383.55	1043.64
383.92	1042.71
384.29	1050.90
384.66	1049.96
385.03	1049.73
385.40	1049.73
385.77	1064.48
386.14	1061.43
386.51	1056.28
386.88	1056.75
387.25	1056.75
387.62	1048.56
387.99	1063.07
388.36	1071.03
388.73	1066.11
389.10	1083.90
389.46	1092.09
389.83	1077.58
390.20	1070.80
390.57	1071.73
390.94	1055.11
391.31	1041.07
391.68	1045.52
392.05	1052.30
392.42	1055.58
392.79	1057.45
393.16	1064.48
393.53	1069.62
393.89	1074.31
394.26	1071.26
394.63	1077.82
395.00	1079.46
395.37	1066.11
395.74	1052.77
396.11	1050.67
396.48	1051.60
396.84	1049.96
397.21	1051.37
397.58	1061.43
397.95	1067.99
398.32	1070.09
398.69	1074.77
399.06	1084.60
399.42	1082.50
399.79	1086.48
400.16	1081.56
400.53	1071.73
400.90	1073.37
401.27	1078.99
401.64	1082.73
402.00	1082.50
402.37	1085.07
402.74	1085.07
403.11	1081.80
403.48	1077.82
403.84	1082.03
404.21	1085.07
404.58	1079.69
404.95	1079.69
405.32	1074.54
405.68	1079.92
406.05	1083.43
406.42	1097.48
406.79	1091.63
407.16	1088.35
407.52	1076.88
407.89	1078.52
408.26	1066.11
408.63	1076.88
408.99	1086.71
409.36	1095.37
409.73	1097.01
410.10	1094.43
410.47	1085.77
410.83	1087.65
411.20	1077.82
411.57	1070.33
411.94	1070.80
412.30	1065.18
412.67	1052.54
413.04	1057.69
413.40	1063.07
413.77	1058.16
414.14	1066.35
414.51	1069.86
414.87	1073.37
415.24	1072.67
415.61	1078.99
415.97	1076.65
416.34	1082.97
416.71	1077.11
417.08	1078.05
417.44	1073.60
417.81	1078.05
418.18	1071.97
418.54	1068.22
418.91	1063.54
419.28	1064.71
419.64	1068.22
420.01	1072.20
420.38	1081.09
420.74	1076.18
421.11	1083.43
421.48	1078.52
421.84	1077.58
422.21	1064.24
422.58	1067.99
422.94	1069.62
423.31	1071.97
423.68	1074.54
424.04	1081.56
424.41	1074.07
424.77	1067.99
425.14	1067.75
425.51	1055.35
425.87	1062.37
426.24	1073.60
426.61	1071.03
426.97	1069.62
427.34	1082.73
427.70	1071.97
428.07	1072.67
428.44	1075.24
428.80	1082.73
429.17	1075.01
429.53	1079.69
429.90	1081.80
430.27	1086.01
430.63	1073.14
431.00	1072.67
431.36	1081.56
431.73	1081.80
432.09	1071.03
432.46	1074.07
432.83	1085.54
433.19	1079.69
433.56	1069.39
433.92	1073.37
434.29	1071.97
434.65	1063.07
435.02	1069.16
435.38	1075.24
435.75	1081.80
436.11	1076.65
436.48	1074.54
436.84	1068.92
437.21	1069.86
437.57	1056.52
437.94	1068.92
438.30	1072.67
438.67	1069.86
439.03	1071.50
439.40	1092.80
439.76	1096.78
440.13	1105.20
440.49	1115.73
440.86	1114.80
441.22	1099.12
441.59	1082.03
441.95	1075.71
442.32	1081.80
442.68	1075.48
443.05	1074.31
443.41	1085.07
443.78	1077.11
444.14	1063.31
444.51	1056.75
444.87	1067.28
445.24	1079.92
445.60	1090.46
445.96	1100.29
446.33	1109.18
446.69	1095.37
447.06	1079.46
447.42	1083.67
447.79	1066.35
448.15	1063.31
448.51	1077.35
448.88	1081.80
449.24	1076.41
449.61	1077.82
449.97	1079.92
450.33	1079.92
450.70	1078.99
451.06	1071.26
451.43	1072.43
451.79	1075.71
452.15	1079.22
452.52	1074.31
452.88	1068.69
453.24	1069.39
453.61	1071.26
453.97	1068.22
454.34	1072.20
454.70	1080.63
455.06	1090.22
455.43	1088.35
455.79	1082.26
456.15	1087.65
456.52	1084.14
456.88	1078.52
457.24	1083.67
457.61	1083.20
457.97	1081.33
458.33	1089.75
458.70	1082.26
459.06	1072.67
459.42	1073.60
459.79	1063.07
460.15	1059.79
460.51	1070.56
460.88	1072.20
461.24	1071.97
461.60	1079.92
461.96	1081.80
462.33	1080.39
462.69	1091.39
463.05	1092.33
463.42	1085.77
463.78	1079.46
464.14	1069.86
464.50	1057.22
464.87	1061.67
465.23	1069.86
465.59	1080.86
465.95	1096.07
466.32	1100.75
466.68	1096.07
467.04	1100.52
467.40	1086.01
467.77	1085.54
468.13	1084.84
468.49	1082.03
468.85	1082.97
469.22	1082.26
469.58	1070.56
469.94	1067.28
470.30	1071.03
470.66	1058.39
471.03	1066.35
471.39	1069.16
471.75	1073.60
472.11	1071.97
472.47	1073.84
472.84	1073.60
473.20	1073.60
473.56	1060.96
473.92	1060.03
474.28	1064.01
474.65	1065.88
475.01	1074.54
475.37	1082.73
475.73	1083.20
476.09	1080.39
476.45	1077.11
476.81	1072.43
477.18	1076.18
477.54	1078.75
477.90	1080.16
478.26	1076.41
478.62	1078.28
478.98	1082.50
479.34	1090.69
479.71	1094.43
480.07	1098.41
480.43	1097.48
480.79	1090.46
481.15	1081.09
481.51	1082.97
481.87	1077.58
482.23	1067.99
482.59	1064.01
482.96	1057.92
483.32	1048.09
483.68	1055.82
484.04	1064.71
484.40	1064.71
484.76	1064.01
485.12	1067.75
485.48	1066.58
485.84	1061.90
486.20	1071.26
486.56	1081.33
486.92	1082.73
487.28	1087.18
487.64	1089.29
488.00	1087.41
488.37	1090.46
488.73	1083.43
489.09	1075.48
489.45	1081.09
489.81	1077.11
490.17	1071.26
490.53	1081.33
490.89	1081.80
491.25	1071.73
491.61	1077.35
491.97	1074.77
492.33	1065.65
492.69	1067.28
493.05	1068.45
493.41	1055.35
493.77	1058.16
494.13	1066.11
494.49	1083.20
494.85	1087.41
495.21	1099.12
495.57	1094.43
495.93	1085.31
496.29	1073.37
496.64	1071.97
497.00	1067.28
497.36	1075.24
497.72	1086.71
498.08	1088.35
498.44	1080.63
498.80	1081.09
499.16	1071.50
499.52	1066.35
499.88	1058.16
500.24	1066.35
500.60	1068.22
500.96	1073.37
501.32	1074.54
501.68	1080.16
502.03	1085.77
502.39	1082.97
502.75	1080.16
503.11	1080.39
503.47	1081.56
503.83	1082.97
504.19	1092.33
504.55	1093.03
504.91	1092.80
505.26	1087.41
505.62	1077.82
505.98	1081.09
506.34	1080.86
506.70	1082.03
507.06	1084.37
507.42	1092.56
507.78	1085.07
508.13	1084.84
508.49	1075.48
508.85	1066.82
509.21	1061.20
509.57	1056.99
509.93	1056.28
510.28	1063.77
510.64	1074.77
511.00	1069.86
511.36	1070.56
511.72	1076.41
512.07	1073.14
512.43	1073.14
512.79	1076.18
513.15	1077.82
513.51	1080.39
513.86	1083.67
514.22	1086.94
514.58	1086.48
514.94	1089.29
515.30	1086.24
515.65	1093.03
516.01	1080.16
516.37	1083.90
516.73	1077.82
517.08	1080.86
517.44	1073.84
517.80	1082.26
518.16	1082.50
518.51	1086.94
518.87	1079.46
519.23	1083.90
519.59	1088.58
519.94	1089.52
520.30	1088.58
520.66	1102.63
521.01	1098.18
521.37	1093.97
521.73	1096.54
522.09	1104.03
522.44	1095.14
522.80	1094.90
523.16	1091.86
523.51	1081.56
523.87	1071.73
524.23	1074.77
524.58	1078.28
524.94	1075.48
525.30	1087.18
525.65	1091.16
526.01	1100.05
526.37	1100.05
526.72	1105.44
527.08	1093.50
527.44	1098.88
527.79	1088.35
528.15	1079.69
528.51	1078.99
528.86	1082.73
529.22	1083.90
529.58	1077.58
529.93	1084.14
530.29	1089.75
530.65	1091.86
531.00	1081.33
531.36	1089.05
531.71	1094.43
532.07	1078.28
532.43	1072.67
532.78	1080.39
533.14	1072.90
533.49	1075.01
533.85	1085.07
534.21	1085.54
534.56	1085.07
534.92	1096.31
535.27	1090.22
535.63	1088.35
535.98	1095.84
536.34	1090.69
536.69	1085.07
537.05	1085.07
537.41	1092.33
537.76	1087.18
538.12	1082.50
538.47	1072.20
538.83	1070.80
539.18	1064.24
539.54	1071.73
539.89	1089.75
540.25	1099.58
540.60	1102.86
540.96	1108.01
541.31	1102.16
541.67	1092.56
542.02	1094.43
542.38	1093.97
542.73	1090.92
543.09	1093.50
543.44	1093.03
543.80	1098.88
544.15	1095.84
544.51	1091.86
544.86	1097.95
545.22	1095.37
545.57	1087.41
545.93	1084.37
546.28	1084.60
546.64	1071.03
546.99	1070.09
547.35	1064.24
547.70	1066.35
548.05	1077.35
548.41	1082.97
548.76	1073.14
549.12	1078.75
549.47	1084.14
549.83	1068.69
550.18	1068.69
550.53	1079.92
550.89	1072.43
551.24	1057.22
551.60	1071.50
551.95	1063.54
552.30	1067.99
552.66	1073.84
553.01	1080.16
553.37	1065.18
553.72	1076.18
554.07	1070.33
554.43	1068.92
554.78	1069.86
555.13	1079.46
555.49	1077.11
555.84	1081.33
556.19	1084.84
556.55	1079.69
556.90	1075.01
557.26	1061.90
557.61	1056.99
557.96	1059.09
558.32	1066.11
558.67	1062.60
559.02	1078.99
559.37	1074.54
559.73	1067.99
560.08	1065.88
560.43	1069.62
560.79	1061.43
561.14	1065.88
561.49	1065.18
561.85	1063.31
562.20	1064.48
562.55	1061.43
562.90	1058.62
563.26	1060.96
563.61	1065.88
563.96	1066.11
564.32	1081.56
564.67	1089.29
565.02	1092.09
565.37	1096.78
565.73	1104.97
566.08	1098.41
566.43	1093.97
566.78	1093.50
567.14	1081.33
567.49	1072.43
567.84	1074.07
568.19	1069.86
568.54	1069.16
568.90	1072.90
569.25	1067.05
569.60	1065.41
569.95	1072.67
570.31	1085.54
570.66	1084.37
571.01	1094.20
571.36	1091.63
571.71	1084.14
572.06	1069.16
572.42	1078.05
572.77	1076.65
573.12	1082.03
573.47	1086.94
573.82	1089.29
574.18	1086.24
574.53	1091.16
574.88	1085.54
575.23	1083.43
575.58	1075.48
575.93	1067.75
576.28	1067.75
576.64	1060.96
576.99	1058.86
577.34	1068.45
577.69	1064.71
578.04	1053.01
578.39	1061.67
578.74	1072.43
579.09	1069.39
579.44	1075.94
579.80	1080.86
580.15	1079.92
580.50	1068.45
580.85	1070.80
581.20	1078.05
581.55	1086.48
581.90	1096.78
582.25	1111.05
582.60	1113.39
582.95	1110.58
583.30	1098.88
583.65	1090.92
584.00	1083.43
584.35	1078.28
584.71	1081.33
585.06	1079.92
585.41	1076.18
585.76	1074.31
586.11	1071.50
586.46	1073.84
586.81	1086.24
587.16	1089.05
587.51	1090.46
587.86	1088.35
588.21	1082.03
588.56	1079.69
588.91	1084.84
589.26	1086.94
589.61	1089.75
589.96	1093.03
590.31	1086.71
590.66	1079.92
591.01	1070.80
591.36	1069.39
591.71	1070.56
592.06	1075.24
592.41	1076.18
592.76	1083.90
593.10	1082.97
593.45	1083.90
593.80	1081.80
594.15	1074.54
594.50	1079.22
594.85	1084.84
595.20	1080.39
595.55	1075.94
595.90	1090.46
596.25	1085.31
596.60	1082.03
596.95	1085.54
597.30	1093.50
597.64	1140.07
597.99	1145.69
598.34	1153.18
598.69	1152.95
599.04	1148.27
599.39	1101.69
599.74	1089.75
600.09	1097.48
600.44	1092.09
600.78	1095.14
601.13	1081.56
601.48	1084.37
601.83	1071.50
602.18	1067.28
602.53	1066.11
602.88	1078.99
603.22	1086.48
603.57	1092.09
603.92	1097.01
604.27	1097.24
604.62	1092.56
604.97	1086.48
605.31	1080.39
605.66	1078.75
606.01	1083.67
606.36	1081.33
606.71	1078.75
607.05	1082.50
607.40	1082.50
607.75	1073.37
608.10	1067.75
608.44	1073.37
608.79	1070.33
609.14	1078.75
609.49	1091.39
609.84	1100.99
610.18	1103.09
610.53	1115.27
610.88	1106.37
611.23	1090.69
611.57	1090.22
611.92	1089.75
612.27	1085.07
612.62	1084.84
612.96	1095.60
613.31	1091.63
613.66	1095.60
614.00	1090.22
614.35	1095.84
614.70	1090.46
615.05	1096.54
615.39	1097.24
615.74	1091.16
616.09	1088.58
616.43	1087.65
616.78	1084.14
617.13	1081.33
617.47	1091.86
617.82	1092.56
618.17	1097.71
618.51	1102.63
618.86	1097.71
619.21	1096.07
619.55	1100.99
619.90	1092.09
620.25	1075.71
620.59	1063.54
620.94	1068.22
621.29	1061.67
621.63	1066.11
621.98	1070.33
622.32	1084.84
622.67	1072.43
623.02	1069.62
623.36	1068.69
623.71	1069.16
624.05	1060.50
624.40	1056.75
624.75	1067.28
625.09	1076.88
625.44	1076.65
625.78	1088.58
626.13	1090.69
626.48	1088.35
626.82	1075.94
627.17	1085.31
627.51	1087.65
627.86	1095.60
628.20	1097.01
628.55	1108.95
628.89	1113.86
629.24	1103.80
629.58	1093.03
629.93	1094.67
630.28	1089.75
630.62	1086.48
630.97	1088.35
631.31	1098.41
631.66	1087.88
632.00	1090.92
632.35	1072.43
632.69	1070.80
633.04	1072.67
633.38	1076.88
633.73	1068.69
634.07	1077.11
634.42	1078.52
634.76	1073.84
635.11	1074.77
635.45	1072.90
635.79	1071.97
636.14	1068.92
636.48	1079.69
636.83	1076.88
637.17	1084.37
637.52	1082.73
637.86	1080.16
638.21	1067.99
638.55	1059.79
638.89	1064.71
639.24	1075.71
639.58	1082.97
639.93	1084.60
640.27	1089.52
640.61	1090.92
640.96	1086.71
641.30	1081.56
641.65	1079.92
641.99	1082.03
642.33	1070.09
642.68	1069.62
643.02	1073.14
643.37	1082.50
643.71	1084.14
644.05	1082.97
644.40	1084.84
644.74	1085.77
645.08	1076.88
645.43	1079.22
645.77	1080.63
646.11	1077.58
646.46	1071.73
646.80	1075.01
647.14	1074.54
647.49	1078.28
647.83	1078.52
648.17	1084.14
648.52	1085.07
648.86	1083.90
649.20	1085.54
649.55	1089.52
649.89	1090.69
650.23	1097.48
650.57	1093.50
650.92	1085.31
651.26	1077.58
651.60	1082.26
651.95	1076.65
652.29	1083.20
652.63	1089.75
652.97	1100.05
653.32	1089.05
653.66	1090.22
654.00	1089.75
654.34	1083.43
654.69	1072.90
655.03	1071.26
655.37	1070.56
655.71	1084.14
656.05	1084.60
656.40	1087.65
656.74	1093.03
657.08	1098.18
657.42	1083.43
657.76	1088.35
658.11	1097.95
658.45	1112.46
658.79	1101.69
659.13	1104.97
659.47	1100.05
659.82	1086.94
660.16	1070.80
660.50	1067.52
660.84	1074.07
661.18	1076.41
661.52	1083.90
661.87	1093.26
662.21	1097.48
662.55	1090.22
662.89	1097.48
663.23	1096.07
663.57	1090.46
663.91	1095.14
664.25	1087.88
664.60	1077.82
664.94	1077.82
665.28	1082.03
665.62	1068.45
665.96	1079.69
666.30	1081.80
666.64	1081.09
666.98	1077.82
667.32	1083.43
667.66	1072.43
668.01	1075.48
668.35	1063.77
668.69	1057.69
669.03	1061.20
669.37	1065.41
669.71	1064.01
670.05	1082.97
670.39	1089.52
670.73	1083.43
671.07	1069.86
671.41	1069.16
671.75	1058.16
672.09	1051.84
672.43	1053.24
672.77	1055.58
673.11	1048.79
673.45	1046.92
673.79	1054.41
674.13	1067.75
674.47	1072.43
674.81	1084.14
675.15	1097.01
675.49	1094.67
675.83	1087.65
676.17	1088.12
676.51	1078.05
676.85	1074.07
677.19	1069.62
677.53	1068.69
677.87	1073.37
678.21	1081.33
678.55	1080.63
678.89	1085.07
679.23	1082.73
679.57	1080.86
679.90	1075.01
680.24	1067.99
680.58	1058.39
680.92	1056.05
681.26	1050.90
681.60	1055.35
681.94	1056.52
682.28	1067.05
682.62	1073.14
682.96	1067.99
683.29	1071.03
683.63	1086.24
683.97	1088.82
684.31	1089.75
684.65	1092.56
684.99	1085.07
685.33	1078.75
685.67	1072.67
686.00	1068.69
686.34	1084.84
686.68	1077.58
687.02	1072.43
687.36	1065.88
687.70	1071.26
688.03	1067.99
688.37	1076.88
688.71	1080.86
689.05	1093.97
689.39	1079.22
689.72	1074.31
690.06	1070.56
690.40	1067.28
690.74	1064.48
691.08	1076.41
691.41	1077.82
691.75	1082.73
692.09	1080.63
692.43	1078.99
692.76	1082.03
693.10	1091.16
693.44	1093.73
693.78	1095.60
694.11	1108.71
694.45	1102.16
694.79	1087.41
695.13	1091.63
695.46	1087.88
695.80	1070.56
696.14	1075.71
696.48	1087.41
696.81	1086.01
697.15	1091.86
697.49	1087.65
697.82	1081.09
698.16	1070.80
698.50	1063.77
698.83	1069.86
699.17	1074.07
699.51	1085.54
699.84	1097.48
700.18	1099.82
700.52	1088.82
700.85	1085.07
701.19	1079.92
701.53	1068.45
701.86	1065.18
702.20	1067.99
702.54	1083.67
702.87	1090.22
703.21	1092.09
703.55	1105.67
703.88	1110.12
704.22	1100.05
704.55	1086.01
704.89	1089.75
705.23	1078.52
705.56	1080.39
705.90	1081.56
706.23	1087.41
706.57	1084.84
706.91	1085.77
707.24	1081.80
707.58	1087.88
707.91	1084.60
708.25	1081.56
708.58	1073.37
708.92	1076.41
709.26	1081.09
709.59	1086.01
709.93	1083.43
710.26	1098.41
710.60	1088.12
710.93	1079.69
711.27	1070.33
711.60	1086.01
711.94	1071.73
712.27	1075.01
712.61	1067.52
712.94	1075.01
713.28	1068.45
713.61	1065.88
713.95	1067.75
714.28	1070.56
714.62	1051.84
714.95	1044.11
715.29	1055.82
715.62	1063.07
715.96	1071.97
716.29	1095.14
716.63	1099.12
716.96	1094.43
717.29	1086.01
717.63	1080.16
717.96	1069.16
718.30	1066.58
718.63	1071.73
718.97	1070.33
719.30	1076.88
719.63	1079.92
719.97	1083.90
720.30	1083.67
720.64	1092.56
720.97	1082.73
721.30	1084.60
721.64	1079.46
721.97	1079.46
722.31	1073.60
722.64	1074.77
722.97	1073.84
723.31	1081.33
723.64	1077.35
723.97	1081.80
724.31	1081.56
724.64	1085.54
724.98	1085.54
725.31	1095.84
725.64	1090.69
725.98	1096.54
726.31	1098.65
726.64	1097.48
726.97	1091.16
727.31	1092.80
727.64	1092.09
727.97	1089.52
728.31	1087.88
728.64	1086.24
728.97	1084.60
729.31	1080.86
729.64	1081.09
729.97	1080.16
730.30	1080.39
730.64	1080.39
730.97	1083.67
731.30	1086.71
731.63	1078.52
731.97	1074.77
732.30	1059.09
732.63	1060.50
732.96	1064.01
733.30	1075.94
733.63	1086.01
733.96	1103.33
734.29	1102.39
734.63	1097.95
734.96	1097.24
735.29	1101.46
735.62	1105.20
735.95	1098.18
736.29	1092.56
736.62	1083.20
736.95	1071.73
737.28	1071.73
737.61	1086.71
737.94	1095.60
738.28	1098.65
738.61	1096.07
738.94	1088.58
739.27	1085.07
739.60	1067.75
739.93	1067.99
740.27	1069.39
740.60	1071.97
740.93	1064.94
741.26	1074.77
741.59	1076.18
741.92	1076.41
742.25	1080.16
742.58	1090.22
742.91	1084.14
743.25	1081.09
743.58	1087.18
743.91	1071.50
744.24	1052.30
744.57	1060.73
744.90	1062.60
745.23	1053.94
745.56	1072.43
745.89	1081.80
746.22	1076.18
746.55	1074.31
746.88	1078.05
747.21	1074.07
747.54	1072.90
747.87	1075.48
748.20	1086.71
748.53	1084.84
748.87	1081.80
749.20	1080.86
749.53	1086.48
749.86	1082.97
750.19	1089.75
750.52	1081.80
750.85	1083.67
751.18	1075.48
751.51	1078.28
751.84	1078.75
752.16	1087.88
752.49	1082.73
752.82	1084.84
753.15	1083.90
753.48	1082.03
753.81	1080.16
754.14	1086.48
754.47	1088.12
754.80	1078.99
755.13	1078.28
755.46	1079.22
755.79	1070.33
756.12	1082.73
756.45	1088.82
756.78	1089.52
757.11	1093.03
757.43	1106.14
757.76	1082.50
758.09	1084.14
758.42	1084.37
758.75	1076.41
759.08	1064.01
759.41	1071.97
759.74	1072.20
760.07	1075.48
760.39	1077.11
760.72	1085.54
761.05	1084.60
761.38	1085.07
761.71	1074.07
762.04	1077.35
762.36	1077.82
762.69	1085.77
763.02	1084.60
763.35	1089.52
763.68	1090.22
764.01	1091.63
764.33	1082.73
764.66	1083.67
764.99	1085.31
765.32	1089.75
765.65	1087.88
765.97	1087.88
766.30	1082.73
