SpectraSuite Data File
++++++++++++++++++++++++++++++++++++
Date: Mon Aug 26 10:25:47 PDT 2019
User: corrico
Dark Spectrum Present: No
Reference Spectrum Present: No
Number of Sampled Component Spectra: 1
Spectrometers: USB2+H06089
Integration Time (usec): 10000 (USB2+H06089)
Spectra Averaged: 2 (USB2+H06089)
Boxcar Smoothing: 2 (USB2+H06089)
Correct for Electrical Dark: No (USB2+H06089)
Strobe/Lamp Enabled: No (USB2+H06089)
Correct for Detector Non-linearity: No (USB2+H06089)
Correct for Stray Light: No (USB2+H06089)
Number of Pixels in Processed Spectrum: 2048
>>>>>Begin Processed Spectral Data<<<<<
339.70	1090.69
340.07	1090.69
340.45	1031.47
340.82	999.41
341.19	964.07
341.57	929.43
341.94	919.13
342.31	912.57
342.69	902.98
343.06	897.83
343.43	890.11
343.81	900.87
344.18	902.28
344.55	917.96
344.93	921.70
345.30	932.00
345.67	928.96
346.04	938.32
346.42	938.55
346.79	954.47
347.16	973.66
347.54	979.51
347.91	987.94
348.28	1002.22
348.65	1013.45
349.03	1018.13
349.40	1023.05
349.77	1041.30
350.14	1041.30
350.52	1044.11
350.89	1041.77
351.26	1053.24
351.63	1049.96
352.01	1059.33
352.38	1053.71
352.75	1063.07
353.12	1070.80
353.50	1062.84
353.87	1060.26
354.24	1076.41
354.61	1076.41
354.98	1068.22
355.36	1081.56
355.73	1089.99
356.10	1088.58
356.47	1094.67
356.84	1102.63
357.22	1101.22
357.59	1096.07
357.96	1097.24
358.33	1092.56
358.70	1090.92
359.08	1089.52
359.45	1091.39
359.82	1080.16
360.19	1086.24
360.56	1086.48
360.94	1088.58
361.31	1080.63
361.68	1086.48
362.05	1076.88
362.42	1075.01
362.79	1071.50
363.16	1078.99
363.54	1072.90
363.91	1066.58
364.28	1068.92
364.65	1071.50
365.02	1061.20
365.39	1061.43
365.76	1071.50
366.14	1064.48
366.51	1060.26
366.88	1067.28
367.25	1061.90
367.62	1060.73
367.99	1064.71
368.36	1071.03
368.73	1071.73
369.10	1074.54
369.48	1063.77
369.85	1056.28
370.22	1046.69
370.59	1047.16
370.96	1049.03
371.33	1064.24
371.70	1069.39
372.07	1078.99
372.44	1064.94
372.81	1060.03
373.18	1052.30
373.55	1056.52
373.93	1052.30
374.30	1069.86
374.67	1072.20
375.04	1065.65
375.41	1061.20
375.78	1055.11
376.15	1049.73
376.52	1051.60
376.89	1058.62
377.26	1049.26
377.63	1051.60
378.00	1058.16
378.37	1056.52
378.74	1064.48
379.11	1073.37
379.48	1068.22
379.85	1069.39
380.22	1082.26
380.59	1071.73
380.96	1069.16
381.33	1079.46
381.70	1080.39
382.07	1077.11
382.44	1078.05
382.81	1075.48
383.18	1072.43
383.55	1061.43
383.92	1062.84
384.29	1064.48
384.66	1071.26
385.03	1070.80
385.40	1070.09
385.77	1055.11
386.14	1055.58
386.51	1054.65
386.88	1062.14
387.25	1066.82
387.62	1075.71
387.99	1068.69
388.36	1070.56
388.73	1075.94
389.10	1080.86
389.46	1079.92
389.83	1093.73
390.20	1090.22
390.57	1077.82
390.94	1064.94
391.31	1058.16
391.68	1049.73
392.05	1044.11
392.42	1043.64
392.79	1048.09
393.16	1062.60
393.53	1073.60
393.89	1085.54
394.26	1078.75
394.63	1084.84
395.00	1088.82
395.37	1086.01
395.74	1092.33
396.11	1108.71
396.48	1106.61
396.84	1099.82
397.21	1093.50
397.58	1077.11
397.95	1064.94
398.32	1067.99
398.69	1073.37
399.06	1067.28
399.42	1071.50
399.79	1079.69
400.16	1076.41
400.53	1068.92
400.90	1073.84
401.27	1078.05
401.64	1073.84
402.00	1077.11
402.37	1085.31
402.74	1088.35
403.11	1080.86
403.48	1089.75
403.84	1088.58
404.21	1070.09
404.58	1064.01
404.95	1075.48
405.32	1073.84
405.68	1071.50
406.05	1082.03
406.42	1091.39
406.79	1092.33
407.16	1093.50
407.52	1090.92
407.89	1093.26
408.26	1086.24
408.63	1080.16
408.99	1063.54
409.36	1066.35
409.73	1062.37
410.10	1071.26
410.47	1074.31
410.83	1072.67
411.20	1076.18
411.57	1081.09
411.94	1066.82
412.30	1063.31
412.67	1076.88
413.04	1066.58
413.40	1071.73
413.77	1081.56
414.14	1081.09
414.51	1075.01
414.87	1082.73
415.24	1076.65
415.61	1073.37
415.97	1075.94
416.34	1082.97
416.71	1078.75
417.08	1079.22
417.44	1081.33
417.81	1080.63
418.18	1075.94
418.54	1080.16
418.91	1076.41
419.28	1082.03
419.64	1082.50
420.01	1082.03
420.38	1075.01
420.74	1086.24
421.11	1082.03
421.48	1081.80
421.84	1081.33
422.21	1091.86
422.58	1082.26
422.94	1080.16
423.31	1078.52
423.68	1079.92
424.04	1075.01
424.41	1069.16
424.77	1064.24
425.14	1063.77
425.51	1061.43
425.87	1063.07
426.24	1061.67
426.61	1056.99
426.97	1061.67
427.34	1061.43
427.70	1056.75
428.07	1066.35
428.44	1078.75
428.80	1074.77
429.17	1083.90
429.53	1090.69
429.90	1095.60
430.27	1086.48
430.63	1078.05
431.00	1073.84
431.36	1063.31
431.73	1066.11
432.09	1070.56
432.46	1079.92
432.83	1087.88
433.19	1095.14
433.56	1088.35
433.92	1093.03
434.29	1095.14
434.65	1089.29
435.02	1090.69
435.38	1084.84
435.75	1078.28
436.11	1082.26
436.48	1085.31
436.84	1088.35
437.21	1090.92
437.57	1104.73
437.94	1086.01
438.30	1082.97
438.67	1077.11
439.03	1081.09
439.40	1078.99
439.76	1087.65
440.13	1085.77
440.49	1080.39
440.86	1072.67
441.22	1067.05
441.59	1067.05
441.95	1064.94
442.32	1070.33
442.68	1076.18
443.05	1076.88
443.41	1079.69
443.78	1084.84
444.14	1088.35
444.51	1091.63
444.87	1083.20
445.24	1091.86
445.60	1089.75
445.96	1079.22
446.33	1081.09
446.69	1089.75
447.06	1076.88
447.42	1079.22
447.79	1081.09
448.15	1075.94
448.51	1069.62
448.88	1076.41
449.24	1079.46
449.61	1086.71
449.97	1075.71
450.33	1083.43
450.70	1080.16
451.06	1078.28
451.43	1076.65
451.79	1090.46
452.15	1082.97
452.52	1085.54
452.88	1076.65
453.24	1081.09
453.61	1069.86
453.97	1067.28
454.34	1075.01
454.70	1083.43
455.06	1082.26
455.43	1083.20
455.79	1088.12
456.15	1071.73
456.52	1064.71
456.88	1061.43
457.24	1064.24
457.61	1058.86
457.97	1063.54
458.33	1058.39
458.70	1057.45
459.06	1064.94
459.42	1069.39
459.79	1068.45
460.15	1079.92
460.51	1084.14
460.88	1089.99
461.24	1090.46
461.60	1091.16
461.96	1093.03
462.33	1093.26
462.69	1076.65
463.05	1075.71
463.42	1081.33
463.78	1086.94
464.14	1078.52
464.50	1079.92
464.87	1078.99
465.23	1073.84
465.59	1066.58
465.95	1070.09
466.32	1078.75
466.68	1085.31
467.04	1095.60
467.40	1093.03
467.77	1095.37
468.13	1082.97
468.49	1079.22
468.85	1068.69
469.22	1073.37
469.58	1078.75
469.94	1090.69
470.30	1088.12
470.66	1096.07
471.03	1097.71
471.39	1098.88
471.75	1094.20
472.11	1099.35
472.47	1090.92
472.84	1074.07
473.20	1066.35
473.56	1067.75
473.92	1069.62
474.28	1074.31
474.65	1080.86
475.01	1076.41
475.37	1083.43
475.73	1072.43
476.09	1069.16
476.45	1076.18
476.81	1076.41
477.18	1064.24
477.54	1072.90
477.90	1080.16
478.26	1075.24
478.62	1087.65
478.98	1104.03
479.34	1104.26
479.71	1091.39
480.07	1087.65
480.43	1081.33
480.79	1068.69
481.15	1066.11
481.51	1059.09
481.87	1058.86
482.23	1067.52
482.59	1071.26
482.96	1080.16
483.32	1099.35
483.68	1114.56
484.04	1115.27
484.40	1119.01
484.76	1106.14
485.12	1097.24
485.48	1082.97
485.84	1075.01
486.20	1071.26
486.56	1073.60
486.92	1083.90
487.28	1086.24
487.64	1077.82
488.00	1077.11
488.37	1077.11
488.73	1078.05
489.09	1071.73
489.45	1068.22
489.81	1076.88
490.17	1069.86
490.53	1058.86
490.89	1062.60
491.25	1070.56
491.61	1063.54
491.97	1066.82
492.33	1071.03
492.69	1068.69
493.05	1064.94
493.41	1060.73
493.77	1070.56
494.13	1074.31
494.49	1076.65
494.85	1086.71
495.21	1092.33
495.57	1092.80
495.93	1093.26
496.29	1104.50
496.64	1095.60
497.00	1087.41
497.36	1082.26
497.72	1076.41
498.08	1072.43
498.44	1077.11
498.80	1080.63
499.16	1082.03
499.52	1091.63
499.88	1081.56
500.24	1083.67
500.60	1089.05
500.96	1090.92
501.32	1086.71
501.68	1088.82
502.03	1073.60
502.39	1065.18
502.75	1067.75
503.11	1064.24
503.47	1068.45
503.83	1079.46
504.19	1082.97
504.55	1085.07
504.91	1085.31
505.26	1086.94
505.62	1091.86
505.98	1099.12
506.34	1086.94
506.70	1091.16
507.06	1084.14
507.42	1089.05
507.78	1078.52
508.13	1076.65
508.49	1071.97
508.85	1080.39
509.21	1075.94
509.57	1086.94
509.93	1088.58
510.28	1080.63
510.64	1076.18
511.00	1070.09
511.36	1065.65
511.72	1084.14
512.07	1088.58
512.43	1091.63
512.79	1096.54
513.15	1095.14
513.51	1082.73
513.86	1088.35
514.22	1085.31
514.58	1082.03
514.94	1078.05
515.30	1080.63
515.65	1079.22
516.01	1090.46
516.37	1085.54
516.73	1086.48
517.08	1089.52
517.44	1082.03
517.80	1071.97
518.16	1072.90
518.51	1072.67
518.87	1069.39
519.23	1075.94
519.59	1067.52
519.94	1066.11
520.30	1067.05
520.66	1062.60
521.01	1057.69
521.37	1060.50
521.73	1066.82
522.09	1071.50
522.44	1072.90
522.80	1075.71
523.16	1085.31
523.51	1090.69
523.87	1084.37
524.23	1090.46
524.58	1101.69
524.94	1097.24
525.30	1094.67
525.65	1108.71
526.01	1094.20
526.37	1085.77
526.72	1089.99
527.08	1083.67
527.44	1074.31
527.79	1083.43
528.15	1087.65
528.51	1090.46
528.86	1092.56
529.22	1099.58
529.58	1099.12
529.93	1105.20
530.29	1093.03
530.65	1094.43
531.00	1079.46
531.36	1079.92
531.71	1076.18
532.07	1085.54
532.43	1085.07
532.78	1093.50
533.14	1097.24
533.49	1095.14
533.85	1092.56
534.21	1101.46
534.56	1093.97
534.92	1094.67
535.27	1086.01
535.63	1080.39
535.98	1074.31
536.34	1072.90
536.69	1070.33
537.05	1063.07
537.41	1075.71
537.76	1063.31
538.12	1057.69
538.47	1056.75
538.83	1072.20
539.18	1065.41
539.54	1075.01
539.89	1082.26
540.25	1089.29
540.60	1082.73
540.96	1076.88
541.31	1078.52
541.67	1076.65
542.02	1073.84
542.38	1084.14
542.73	1087.65
543.09	1085.07
543.44	1092.09
543.80	1088.35
544.15	1078.52
544.51	1081.56
544.86	1086.94
545.22	1091.63
545.57	1098.65
545.93	1097.24
546.28	1094.43
546.64	1086.71
546.99	1078.52
547.35	1072.43
547.70	1076.41
548.05	1078.05
548.41	1089.52
548.76	1089.52
549.12	1087.65
549.47	1085.31
549.83	1082.50
550.18	1067.28
550.53	1077.35
550.89	1075.24
551.24	1079.22
551.60	1091.39
551.95	1102.86
552.30	1096.07
552.66	1098.88
553.01	1093.97
553.37	1082.50
553.72	1084.60
554.07	1087.88
554.43	1087.41
554.78	1098.41
555.13	1095.14
555.49	1086.94
555.84	1089.05
556.19	1085.77
556.55	1079.46
556.90	1089.99
557.26	1096.54
557.61	1089.75
557.96	1086.94
558.32	1082.73
558.67	1074.31
559.02	1064.48
559.37	1063.31
559.73	1069.16
560.08	1071.50
560.43	1071.97
560.79	1076.88
561.14	1073.60
561.49	1073.60
561.85	1071.50
562.20	1073.84
562.55	1076.65
562.90	1082.26
563.26	1078.99
563.61	1075.24
563.96	1072.90
564.32	1066.58
564.67	1068.69
565.02	1063.54
565.37	1070.09
565.73	1075.48
566.08	1086.48
566.43	1086.24
566.78	1100.52
567.14	1090.46
567.49	1095.84
567.84	1087.88
568.19	1080.86
568.54	1075.94
568.90	1078.52
569.25	1061.43
569.60	1063.54
569.95	1074.31
570.31	1072.67
570.66	1078.75
571.01	1085.31
571.36	1081.56
571.71	1073.60
572.06	1080.39
572.42	1077.82
572.77	1078.52
573.12	1071.97
573.47	1067.52
573.82	1062.14
574.18	1063.31
574.53	1067.05
574.88	1070.56
575.23	1079.46
575.58	1079.69
575.93	1073.60
576.28	1072.20
576.64	1081.09
576.99	1079.69
577.34	1078.28
577.69	1080.86
578.04	1077.11
578.39	1074.31
578.74	1064.94
579.09	1059.79
579.44	1069.86
579.80	1075.48
580.15	1074.31
580.50	1086.71
580.85	1091.39
581.20	1089.99
581.55	1091.63
581.90	1096.78
582.25	1102.63
582.60	1095.37
582.95	1089.29
583.30	1088.12
583.65	1078.75
584.00	1067.28
584.35	1077.35
584.71	1082.50
585.06	1080.16
585.41	1088.58
585.76	1092.09
586.11	1088.12
586.46	1085.77
586.81	1089.75
587.16	1091.86
587.51	1094.43
587.86	1100.29
588.21	1096.78
588.56	1098.18
588.91	1096.78
589.26	1082.26
589.61	1071.50
589.96	1077.11
590.31	1067.52
590.66	1066.82
591.01	1074.07
591.36	1078.05
591.71	1076.18
592.06	1077.35
592.41	1073.60
592.76	1071.50
593.10	1076.65
593.45	1071.26
593.80	1076.18
594.15	1072.67
594.50	1076.41
594.85	1081.33
595.20	1085.31
595.55	1081.33
595.90	1094.67
596.25	1101.92
596.60	1085.54
596.95	1085.31
597.30	1089.05
597.64	1134.22
597.99	1140.54
598.34	1154.82
598.69	1157.39
599.04	1155.99
599.39	1103.56
599.74	1096.07
600.09	1092.56
600.44	1089.75
600.78	1091.63
601.13	1089.05
601.48	1085.54
601.83	1086.01
602.18	1088.82
602.53	1084.14
602.88	1088.12
603.22	1089.05
603.57	1085.07
603.92	1085.07
604.27	1092.80
604.62	1087.18
604.97	1091.39
605.31	1093.26
605.66	1100.75
606.01	1105.20
606.36	1106.37
606.71	1102.16
607.05	1106.37
607.40	1096.54
607.75	1080.86
608.10	1080.39
608.44	1082.73
608.79	1078.52
609.14	1072.90
609.49	1074.07
609.84	1081.56
610.18	1072.90
610.53	1073.60
610.88	1085.54
611.23	1092.09
611.57	1087.65
611.92	1093.73
612.27	1104.50
612.62	1102.63
612.96	1102.39
613.31	1100.05
613.66	1097.01
614.00	1093.03
614.35	1096.78
614.70	1099.58
615.05	1102.16
615.39	1091.86
615.74	1084.60
616.09	1078.05
616.43	1076.88
616.78	1068.69
617.13	1079.22
617.47	1076.18
617.82	1082.26
618.17	1074.54
618.51	1081.33
618.86	1076.41
619.21	1071.26
619.55	1062.84
619.90	1064.24
620.25	1058.16
620.59	1060.96
620.94	1064.48
621.29	1068.45
621.63	1077.82
621.98	1086.71
622.32	1089.75
622.67	1095.84
623.02	1109.65
623.36	1093.50
623.71	1090.22
624.05	1088.58
624.40	1084.84
624.75	1072.20
625.09	1081.33
625.44	1084.84
625.78	1093.50
626.13	1086.01
626.48	1082.73
626.82	1084.37
627.17	1078.99
627.51	1074.77
627.86	1088.35
628.20	1089.29
628.55	1081.56
628.89	1092.80
629.24	1090.22
629.58	1091.16
629.93	1095.14
630.28	1093.50
630.62	1078.05
630.97	1078.75
631.31	1070.56
631.66	1067.75
632.00	1067.99
632.35	1075.24
632.69	1074.77
633.04	1079.46
633.38	1075.71
633.73	1085.31
634.07	1092.33
634.42	1096.54
634.76	1098.18
635.11	1100.75
635.45	1090.46
635.79	1083.90
636.14	1083.20
636.48	1082.50
636.83	1079.92
637.17	1093.26
637.52	1098.65
637.86	1089.29
638.21	1087.65
638.55	1088.58
638.89	1082.26
639.24	1075.71
639.58	1088.35
639.93	1087.18
640.27	1102.63
640.61	1105.20
640.96	1108.71
641.30	1101.22
641.65	1099.35
641.99	1082.73
642.33	1079.22
642.68	1073.37
643.02	1075.01
643.37	1068.92
643.71	1069.39
644.05	1076.88
644.40	1083.43
644.74	1078.75
645.08	1089.52
645.43	1082.26
645.77	1071.97
646.11	1075.94
646.46	1074.07
646.80	1074.54
647.14	1093.73
647.49	1102.39
647.83	1086.94
648.17	1103.33
648.52	1093.97
648.86	1082.73
649.20	1076.18
649.55	1085.54
649.89	1082.26
650.23	1083.20
650.57	1086.94
650.92	1085.77
651.26	1090.69
651.60	1089.52
651.95	1102.39
652.29	1109.41
652.63	1109.65
652.97	1099.12
653.32	1101.69
653.66	1086.48
654.00	1086.24
654.34	1090.69
654.69	1092.56
655.03	1082.03
655.37	1078.28
655.71	1067.75
656.05	1058.39
656.40	1054.88
656.74	1051.60
657.08	1061.90
657.42	1054.41
657.76	1055.82
658.11	1053.01
658.45	1050.90
658.79	1055.58
659.13	1068.45
659.47	1086.01
659.82	1090.92
660.16	1090.92
660.50	1078.52
660.84	1078.05
661.18	1062.60
661.52	1064.24
661.87	1068.92
662.21	1062.37
662.55	1065.65
662.89	1070.33
663.23	1074.54
663.57	1078.52
663.91	1088.12
664.25	1073.14
664.60	1074.07
664.94	1071.97
665.28	1066.58
665.62	1071.50
665.96	1081.80
666.30	1080.63
666.64	1077.35
666.98	1090.69
667.32	1096.78
667.66	1082.73
668.01	1088.82
668.35	1085.07
668.69	1077.11
669.03	1071.73
669.37	1085.31
669.71	1070.80
670.05	1076.65
670.39	1077.82
670.73	1083.20
671.07	1079.92
671.41	1093.03
671.75	1089.75
672.09	1092.09
672.43	1094.43
672.77	1092.56
673.11	1096.54
673.45	1093.97
673.79	1091.39
674.13	1083.20
674.47	1091.16
674.81	1075.71
675.15	1080.86
675.49	1077.11
675.83	1073.60
676.17	1066.58
676.51	1075.94
676.85	1075.48
677.19	1074.07
677.53	1066.82
677.87	1072.43
678.21	1076.18
678.55	1076.88
678.89	1075.01
679.23	1091.39
679.57	1084.60
679.90	1078.28
680.24	1075.01
680.58	1075.24
680.92	1065.18
681.26	1075.01
681.60	1077.11
681.94	1080.39
682.28	1087.41
682.62	1090.92
682.96	1093.97
683.29	1081.56
683.63	1083.20
683.97	1080.16
684.31	1081.80
684.65	1072.43
684.99	1086.24
685.33	1085.07
685.67	1092.33
686.00	1094.67
686.34	1099.82
686.68	1105.20
687.02	1105.90
687.36	1102.86
687.70	1097.01
688.03	1095.60
688.37	1098.41
688.71	1102.86
689.05	1095.84
689.39	1098.88
689.72	1093.73
690.06	1086.94
690.40	1082.50
690.74	1074.54
691.08	1068.69
691.41	1072.20
691.75	1062.60
692.09	1061.67
692.43	1069.39
692.76	1065.65
693.10	1060.96
693.44	1059.56
693.78	1063.77
694.11	1068.45
694.45	1081.33
694.79	1078.52
695.13	1088.82
695.46	1089.05
695.80	1086.94
696.14	1085.07
696.48	1086.24
696.81	1094.20
697.15	1096.31
697.49	1107.07
697.82	1104.26
698.16	1104.97
698.50	1092.80
698.83	1085.77
699.17	1075.94
699.51	1076.41
699.84	1083.90
700.18	1082.97
700.52	1083.67
700.85	1080.39
701.19	1084.84
701.53	1081.80
701.86	1080.39
702.20	1078.75
702.54	1090.22
702.87	1084.14
703.21	1085.07
703.55	1086.01
703.88	1084.60
704.22	1078.99
704.55	1070.80
704.89	1063.54
705.23	1072.20
705.56	1076.88
705.90	1073.60
706.23	1087.88
706.57	1092.56
706.91	1088.35
707.24	1081.80
707.58	1072.67
707.91	1078.52
708.25	1085.31
708.58	1075.48
708.92	1080.16
709.26	1092.09
709.59	1085.07
709.93	1080.16
710.26	1079.46
710.60	1079.22
710.93	1080.63
711.27	1080.86
711.60	1082.73
711.94	1090.22
712.27	1094.90
712.61	1101.69
712.94	1095.37
713.28	1090.22
713.61	1090.69
713.95	1087.65
714.28	1077.58
714.62	1074.54
714.95	1080.16
715.29	1084.84
715.62	1087.41
715.96	1086.94
716.29	1087.41
716.63	1079.22
716.96	1074.77
717.29	1075.71
717.63	1067.28
717.96	1073.60
718.30	1079.69
718.63	1083.43
718.97	1077.58
719.30	1085.54
719.63	1090.69
719.97	1080.63
720.30	1074.31
720.64	1074.54
720.97	1076.88
721.30	1058.39
721.64	1070.80
721.97	1074.07
722.31	1071.03
722.64	1067.28
722.97	1079.46
723.31	1074.77
723.64	1078.52
723.97	1082.26
724.31	1091.86
724.64	1086.94
724.98	1088.82
725.31	1084.37
725.64	1084.14
725.98	1081.33
726.31	1095.14
726.64	1104.50
726.97	1099.82
727.31	1102.86
727.64	1093.03
727.97	1089.99
728.31	1084.60
728.64	1087.18
728.97	1086.48
729.31	1087.41
729.64	1080.63
729.97	1071.50
730.30	1070.33
730.64	1065.88
730.97	1063.31
731.30	1067.28
731.63	1067.99
731.97	1072.43
732.30	1080.16
732.63	1086.71
732.96	1089.52
733.30	1095.14
733.63	1101.92
733.96	1095.84
734.29	1099.58
734.63	1086.48
734.96	1090.22
735.29	1089.52
735.62	1098.88
735.95	1106.37
736.29	1120.41
736.62	1116.44
736.95	1108.71
737.28	1105.20
737.61	1086.01
737.94	1082.97
738.28	1076.65
738.61	1076.18
738.94	1069.39
739.27	1077.11
739.60	1065.18
739.93	1064.48
740.27	1064.71
740.60	1066.11
740.93	1065.88
741.26	1069.39
741.59	1070.56
741.92	1068.69
742.25	1085.07
742.58	1091.63
742.91	1094.67
743.25	1097.48
743.58	1096.78
743.91	1079.22
744.24	1070.56
744.57	1067.99
744.90	1071.73
745.23	1075.01
745.56	1072.67
745.89	1073.60
746.22	1080.16
746.55	1073.60
746.88	1078.28
747.21	1077.82
747.54	1079.22
747.87	1076.18
748.20	1085.54
748.53	1088.12
748.87	1090.92
749.20	1103.80
749.53	1107.54
749.86	1109.88
750.19	1103.56
750.52	1096.31
750.85	1075.24
751.18	1075.94
751.51	1063.07
751.84	1064.48
752.16	1076.41
752.49	1078.05
752.82	1072.20
753.15	1085.07
753.48	1082.50
753.81	1082.97
754.14	1080.39
754.47	1073.37
754.80	1070.33
755.13	1065.18
755.46	1061.20
755.79	1072.67
756.12	1085.54
756.45	1082.97
756.78	1083.67
757.11	1084.84
757.43	1073.60
757.76	1067.05
758.09	1060.26
758.42	1067.99
758.75	1064.48
759.08	1063.77
759.41	1069.39
759.74	1071.73
760.07	1070.33
760.39	1074.77
760.72	1086.94
761.05	1080.63
761.38	1087.88
761.71	1097.48
762.04	1105.20
762.36	1112.92
762.69	1117.61
763.02	1114.33
763.35	1107.78
763.68	1099.12
764.01	1086.71
764.33	1088.58
764.66	1078.99
764.99	1085.07
765.32	1085.54
765.65	1084.84
765.97	1078.52
766.30	1088.12
