SpectraSuite Data File
++++++++++++++++++++++++++++++++++++
Date: Mon Aug 26 10:25:48 PDT 2019
User: corrico
Dark Spectrum Present: No
Reference Spectrum Present: No
Number of Sampled Component Spectra: 1
Spectrometers: USB2+H06089
Integration Time (usec): 10000 (USB2+H06089)
Spectra Averaged: 2 (USB2+H06089)
Boxcar Smoothing: 2 (USB2+H06089)
Correct for Electrical Dark: No (USB2+H06089)
Strobe/Lamp Enabled: No (USB2+H06089)
Correct for Detector Non-linearity: No (USB2+H06089)
Correct for Stray Light: No (USB2+H06089)
Number of Pixels in Processed Spectrum: 2048
>>>>>Begin Processed Spectral Data<<<<<
339.70	1090.69
340.07	1090.69
340.45	1028.20
340.82	984.90
341.19	943.47
341.57	903.45
341.94	886.59
342.31	884.96
342.69	895.96
343.06	892.91
343.43	892.21
343.81	896.66
344.18	893.15
344.55	887.77
344.93	893.62
345.30	891.28
345.67	894.08
346.04	913.51
346.42	925.21
346.79	939.73
347.16	963.83
347.54	973.19
347.91	975.30
348.28	990.98
348.65	992.15
349.03	992.62
349.40	1009.00
349.77	1021.88
350.14	1015.32
350.52	1026.79
350.89	1028.67
351.26	1035.92
351.63	1040.13
352.01	1055.82
352.38	1061.90
352.75	1078.28
353.12	1071.97
353.50	1067.99
353.87	1056.28
354.24	1057.92
354.61	1060.73
354.98	1066.82
355.36	1074.31
355.73	1075.48
356.10	1075.48
356.47	1071.03
356.84	1068.45
357.22	1057.69
357.59	1059.56
357.96	1060.03
358.33	1060.73
358.70	1059.56
359.08	1064.94
359.45	1071.26
359.82	1070.80
360.19	1061.20
360.56	1061.67
360.94	1065.65
361.31	1071.03
361.68	1066.58
362.05	1082.26
362.42	1087.65
362.79	1080.39
363.16	1071.26
363.54	1079.69
363.91	1075.24
364.28	1060.73
364.65	1067.99
365.02	1070.56
365.39	1065.88
365.76	1062.37
366.14	1076.18
366.51	1072.43
366.88	1067.28
367.25	1064.24
367.62	1065.18
367.99	1061.90
368.36	1062.37
368.73	1063.07
369.10	1058.16
369.48	1058.62
369.85	1060.73
370.22	1068.69
370.59	1071.26
370.96	1075.48
371.33	1067.52
371.70	1066.35
372.07	1056.52
372.44	1063.77
372.81	1064.94
373.18	1077.11
373.55	1077.11
373.93	1084.84
374.30	1073.14
374.67	1085.77
375.04	1085.07
375.41	1086.71
375.78	1083.67
376.15	1094.67
376.52	1097.48
376.89	1087.18
377.26	1089.29
377.63	1087.18
378.00	1081.09
378.37	1061.20
378.74	1069.62
379.11	1065.41
379.48	1060.50
379.85	1060.73
380.22	1076.41
380.59	1074.31
380.96	1064.48
381.33	1062.60
381.70	1078.05
382.07	1081.33
382.44	1075.24
382.81	1081.09
383.18	1083.20
383.55	1067.75
383.92	1065.65
384.29	1062.60
384.66	1063.77
385.03	1068.69
385.40	1066.11
385.77	1062.14
386.14	1070.56
386.51	1074.54
386.88	1079.69
387.25	1085.77
387.62	1086.01
387.99	1087.18
388.36	1071.26
388.73	1066.82
389.10	1064.94
389.46	1062.60
389.83	1054.41
390.20	1076.41
390.57	1080.16
390.94	1081.33
391.31	1078.99
391.68	1077.58
392.05	1075.94
392.42	1079.46
392.79	1085.54
393.16	1080.86
393.53	1089.05
393.89	1086.71
394.26	1082.26
394.63	1079.92
395.00	1090.46
395.37	1089.75
395.74	1087.18
396.11	1087.88
396.48	1083.20
396.84	1079.46
397.21	1079.46
397.58	1080.86
397.95	1076.18
398.32	1077.11
398.69	1086.71
399.06	1090.69
399.42	1086.48
399.79	1097.71
400.16	1095.84
400.53	1085.54
400.90	1084.60
401.27	1088.12
401.64	1082.73
402.00	1082.50
402.37	1076.41
402.74	1087.65
403.11	1084.14
403.48	1068.92
403.84	1071.50
404.21	1070.56
404.58	1054.18
404.95	1058.16
405.32	1075.71
405.68	1077.82
406.05	1091.16
406.42	1101.69
406.79	1103.56
407.16	1095.84
407.52	1102.39
407.89	1088.35
408.26	1073.84
408.63	1071.97
408.99	1080.63
409.36	1072.20
409.73	1082.73
410.10	1088.82
410.47	1089.52
410.83	1077.58
411.20	1075.94
411.57	1069.86
411.94	1086.01
412.30	1094.43
412.67	1104.03
413.04	1097.71
413.40	1092.33
413.77	1071.03
414.14	1061.90
414.51	1061.43
414.87	1072.67
415.24	1082.03
415.61	1090.46
415.97	1089.52
416.34	1081.80
416.71	1085.07
417.08	1080.86
417.44	1069.86
417.81	1064.48
418.18	1068.92
418.54	1052.77
418.91	1047.39
419.28	1059.33
419.64	1063.07
420.01	1062.14
420.38	1072.90
420.74	1085.77
421.11	1087.18
421.48	1087.18
421.84	1088.58
422.21	1093.50
422.58	1084.60
422.94	1078.99
423.31	1081.33
423.68	1086.01
424.04	1083.20
424.41	1086.24
424.77	1092.80
425.14	1099.12
425.51	1097.48
425.87	1087.18
426.24	1082.50
426.61	1084.60
426.97	1074.07
427.34	1073.14
427.70	1076.18
428.07	1083.20
428.44	1067.52
428.80	1077.35
429.17	1075.48
429.53	1082.03
429.90	1085.07
430.27	1102.39
430.63	1098.65
431.00	1093.03
431.36	1083.43
431.73	1080.63
432.09	1071.73
432.46	1074.31
432.83	1071.03
433.19	1080.63
433.56	1083.67
433.92	1078.75
434.29	1072.20
434.65	1075.01
435.02	1066.58
435.38	1052.30
435.75	1048.09
436.11	1049.73
436.48	1058.16
436.84	1059.56
437.21	1073.60
437.57	1075.24
437.94	1074.54
438.30	1068.22
438.67	1079.22
439.03	1082.03
439.40	1089.99
439.76	1082.50
440.13	1075.71
440.49	1065.88
440.86	1055.58
441.22	1060.03
441.59	1062.60
441.95	1077.35
442.32	1073.37
442.68	1078.99
443.05	1071.50
443.41	1076.41
443.78	1063.77
444.14	1079.46
444.51	1070.33
444.87	1066.82
445.24	1064.01
445.60	1071.50
445.96	1058.86
446.33	1066.82
446.69	1068.45
447.06	1067.52
447.42	1061.90
447.79	1066.58
448.15	1066.82
448.51	1070.56
448.88	1074.31
449.24	1081.33
449.61	1074.54
449.97	1077.11
450.33	1078.99
450.70	1090.92
451.06	1083.90
451.43	1096.78
451.79	1093.50
452.15	1082.97
452.52	1061.67
452.88	1062.60
453.24	1049.96
453.61	1046.22
453.97	1051.84
454.34	1057.22
454.70	1061.90
455.06	1067.75
455.43	1073.60
455.79	1075.94
456.15	1080.39
456.52	1070.33
456.88	1075.01
457.24	1071.97
457.61	1075.01
457.97	1076.88
458.33	1078.05
458.70	1074.31
459.06	1080.16
459.42	1080.86
459.79	1081.09
460.15	1092.56
460.51	1088.12
460.88	1086.24
461.24	1094.90
461.60	1094.43
461.96	1090.69
462.33	1098.65
462.69	1094.67
463.05	1083.67
463.42	1077.11
463.78	1069.86
464.14	1067.99
464.50	1063.54
464.87	1050.67
465.23	1056.75
465.59	1066.58
465.95	1072.67
466.32	1085.77
466.68	1092.09
467.04	1095.14
467.40	1092.56
467.77	1081.80
468.13	1078.28
468.49	1097.95
468.85	1102.39
469.22	1110.58
469.58	1106.37
469.94	1105.20
470.30	1100.29
470.66	1095.84
471.03	1089.29
471.39	1103.80
471.75	1105.90
472.11	1108.01
472.47	1102.86
472.84	1105.67
473.20	1091.16
473.56	1090.22
473.92	1073.60
474.28	1069.39
474.65	1055.82
475.01	1064.71
475.37	1058.16
475.73	1067.75
476.09	1079.92
476.45	1084.37
476.81	1075.94
477.18	1070.09
477.54	1064.71
477.90	1064.48
478.26	1068.69
478.62	1078.28
478.98	1082.73
479.34	1073.60
479.71	1063.31
480.07	1075.48
480.43	1076.65
480.79	1079.46
481.15	1094.20
481.51	1098.88
481.87	1078.75
482.23	1075.48
482.59	1067.05
482.96	1065.65
483.32	1065.88
483.68	1096.07
484.04	1098.65
484.40	1106.14
484.76	1110.12
485.12	1110.82
485.48	1094.67
485.84	1082.73
486.20	1084.60
486.56	1086.24
486.92	1083.43
487.28	1078.52
487.64	1081.33
488.00	1079.22
488.37	1066.82
488.73	1072.20
489.09	1066.58
489.45	1070.56
489.81	1064.48
490.17	1068.22
490.53	1060.03
490.89	1058.39
491.25	1055.11
491.61	1066.35
491.97	1060.96
492.33	1060.96
492.69	1076.18
493.05	1076.65
493.41	1084.60
493.77	1089.52
494.13	1099.35
494.49	1096.54
494.85	1104.50
495.21	1094.43
495.57	1107.78
495.93	1105.67
496.29	1097.48
496.64	1084.14
497.00	1077.58
497.36	1063.07
497.72	1059.56
498.08	1071.26
498.44	1076.41
498.80	1081.56
499.16	1086.01
499.52	1084.37
499.88	1077.35
500.24	1086.48
500.60	1080.16
500.96	1079.92
501.32	1080.39
501.68	1081.09
502.03	1079.22
502.39	1082.03
502.75	1083.67
503.11	1086.24
503.47	1078.75
503.83	1070.33
504.19	1075.24
504.55	1070.33
504.91	1066.58
505.26	1065.18
505.62	1070.33
505.98	1069.39
506.34	1071.03
506.70	1077.35
507.06	1083.20
507.42	1087.65
507.78	1085.77
508.13	1082.73
508.49	1081.33
508.85	1086.01
509.21	1092.09
509.57	1104.03
509.93	1113.16
510.28	1116.20
510.64	1105.90
511.00	1091.63
511.36	1076.88
511.72	1079.69
512.07	1068.69
512.43	1079.92
512.79	1085.07
513.15	1086.71
513.51	1070.56
513.86	1076.88
514.22	1069.16
514.58	1074.07
514.94	1074.07
515.30	1088.35
515.65	1082.26
516.01	1083.90
516.37	1073.84
516.73	1074.31
517.08	1064.48
517.44	1070.56
517.80	1070.33
518.16	1075.24
518.51	1078.75
518.87	1074.54
519.23	1072.90
519.59	1081.33
519.94	1085.54
520.30	1082.73
520.66	1088.82
521.01	1090.22
521.37	1080.63
521.73	1065.18
522.09	1069.16
522.44	1071.50
522.80	1078.28
523.16	1078.05
523.51	1086.01
523.87	1077.82
524.23	1078.99
524.58	1074.77
524.94	1079.69
525.30	1074.07
525.65	1080.63
526.01	1086.01
526.37	1086.24
526.72	1083.43
527.08	1090.46
527.44	1093.50
527.79	1089.99
528.15	1085.54
528.51	1086.48
528.86	1085.77
529.22	1087.88
529.58	1080.16
529.93	1090.46
530.29	1091.63
530.65	1091.39
531.00	1084.37
531.36	1090.92
531.71	1089.05
532.07	1083.67
532.43	1081.33
532.78	1076.65
533.14	1085.07
533.49	1078.28
533.85	1088.12
534.21	1091.63
534.56	1097.48
534.92	1085.77
535.27	1091.39
535.63	1091.63
535.98	1106.37
536.34	1104.50
536.69	1103.33
537.05	1090.22
537.41	1084.84
537.76	1083.20
538.12	1089.99
538.47	1093.26
538.83	1100.99
539.18	1098.88
539.54	1081.09
539.89	1072.43
540.25	1070.56
540.60	1072.67
540.96	1069.16
541.31	1082.97
541.67	1093.26
542.02	1101.69
542.38	1088.35
542.73	1097.24
543.09	1086.01
543.44	1080.16
543.80	1075.01
544.15	1086.94
544.51	1074.54
544.86	1080.63
545.22	1080.86
545.57	1070.33
545.93	1072.43
546.28	1072.20
546.64	1069.39
546.99	1079.69
547.35	1086.94
547.70	1082.97
548.05	1077.58
548.41	1078.99
548.76	1065.65
549.12	1071.50
549.47	1076.18
549.83	1096.54
550.18	1097.95
550.53	1092.09
550.89	1085.07
551.24	1073.14
551.60	1064.94
551.95	1060.26
552.30	1066.82
552.66	1068.45
553.01	1073.14
553.37	1066.35
553.72	1070.09
554.07	1075.48
554.43	1072.90
554.78	1081.09
555.13	1087.88
555.49	1087.41
555.84	1080.63
556.19	1083.43
556.55	1089.99
556.90	1096.54
557.26	1105.20
557.61	1103.09
557.96	1101.22
558.32	1090.22
558.67	1086.71
559.02	1076.18
559.37	1081.56
559.73	1089.52
560.08	1086.71
560.43	1088.82
560.79	1091.86
561.14	1086.94
561.49	1081.09
561.85	1081.80
562.20	1074.31
562.55	1081.09
562.90	1088.58
563.26	1091.86
563.61	1091.16
563.96	1095.37
564.32	1083.20
564.67	1074.31
565.02	1069.16
565.37	1078.99
565.73	1076.41
566.08	1077.35
566.43	1078.99
566.78	1075.71
567.14	1070.80
567.49	1081.80
567.84	1080.86
568.19	1092.33
568.54	1094.90
568.90	1086.94
569.25	1080.39
569.60	1084.60
569.95	1090.46
570.31	1083.20
570.66	1090.22
571.01	1093.50
571.36	1091.16
571.71	1080.16
572.06	1089.75
572.42	1091.16
572.77	1092.33
573.12	1090.22
573.47	1102.63
573.82	1107.07
574.18	1096.54
574.53	1092.80
574.88	1100.29
575.23	1083.20
575.58	1072.67
575.93	1071.97
576.28	1067.52
576.64	1066.11
576.99	1072.43
577.34	1071.73
577.69	1087.88
578.04	1096.07
578.39	1100.99
578.74	1091.16
579.09	1095.60
579.44	1077.58
579.80	1062.37
580.15	1059.79
580.50	1064.48
580.85	1067.28
581.20	1076.65
581.55	1083.43
581.90	1076.41
582.25	1086.01
582.60	1082.03
582.95	1079.22
583.30	1082.73
583.65	1083.20
584.00	1078.99
584.35	1075.94
584.71	1070.33
585.06	1067.28
585.41	1066.82
585.76	1065.65
586.11	1064.24
586.46	1074.77
586.81	1079.69
587.16	1084.60
587.51	1087.65
587.86	1100.05
588.21	1094.67
588.56	1094.20
588.91	1093.03
589.26	1082.50
589.61	1080.63
589.96	1085.07
590.31	1078.28
590.66	1078.52
591.01	1076.65
591.36	1069.62
591.71	1073.84
592.06	1069.39
592.41	1063.31
592.76	1072.20
593.10	1071.50
593.45	1062.14
593.80	1069.86
594.15	1068.45
594.50	1063.07
594.85	1057.22
595.20	1055.11
595.55	1057.92
595.90	1060.96
596.25	1059.79
596.60	1074.31
596.95	1090.46
597.30	1079.69
597.64	1127.67
597.99	1135.86
598.34	1133.99
598.69	1121.12
599.04	1125.33
599.39	1083.67
599.74	1083.90
600.09	1078.99
600.44	1083.90
600.78	1088.35
601.13	1081.56
601.48	1070.09
601.83	1064.48
602.18	1060.03
602.53	1067.05
602.88	1071.26
603.22	1074.54
603.57	1075.94
603.92	1071.03
604.27	1068.45
604.62	1069.86
604.97	1065.41
605.31	1073.37
605.66	1082.26
606.01	1072.20
606.36	1074.07
606.71	1083.67
607.05	1086.71
607.40	1087.65
607.75	1092.56
608.10	1094.43
608.44	1087.41
608.79	1082.97
609.14	1077.11
609.49	1078.05
609.84	1075.24
610.18	1087.65
610.53	1083.90
610.88	1092.56
611.23	1095.37
611.57	1093.50
611.92	1081.56
612.27	1088.35
612.62	1082.97
612.96	1083.90
613.31	1082.73
613.66	1087.41
614.00	1090.46
614.35	1090.46
614.70	1090.22
615.05	1091.86
615.39	1097.48
615.74	1095.60
616.09	1091.16
616.43	1086.71
616.78	1077.11
617.13	1072.43
617.47	1068.22
617.82	1064.71
618.17	1061.43
618.51	1062.60
618.86	1058.16
619.21	1056.75
619.55	1065.41
619.90	1057.45
620.25	1064.48
620.59	1066.82
620.94	1076.18
621.29	1074.54
621.63	1093.03
621.98	1095.37
622.32	1109.88
622.67	1100.99
623.02	1108.01
623.36	1099.35
623.71	1094.43
624.05	1082.03
624.40	1082.97
624.75	1073.14
625.09	1086.94
625.44	1089.29
625.78	1083.67
626.13	1078.28
626.48	1081.09
626.82	1076.65
627.17	1078.75
627.51	1082.03
627.86	1099.82
628.20	1097.01
628.55	1089.05
628.89	1081.56
629.24	1083.43
629.58	1079.92
629.93	1083.20
630.28	1085.54
630.62	1091.39
630.97	1091.86
631.31	1081.56
631.66	1085.31
632.00	1084.84
632.35	1088.82
632.69	1082.97
633.04	1079.22
633.38	1074.77
633.73	1071.73
634.07	1064.24
634.42	1067.28
634.76	1070.09
635.11	1070.33
635.45	1075.94
635.79	1071.26
636.14	1076.88
636.48	1074.77
636.83	1071.03
637.17	1068.45
637.52	1075.48
637.86	1074.54
638.21	1082.97
638.55	1086.48
638.89	1084.60
639.24	1086.94
639.58	1088.12
639.93	1084.60
640.27	1082.26
640.61	1083.43
640.96	1088.12
641.30	1082.26
641.65	1082.73
641.99	1077.11
642.33	1078.05
642.68	1068.22
643.02	1073.60
643.37	1069.16
643.71	1087.88
644.05	1094.67
644.40	1097.95
644.74	1094.43
645.08	1096.31
645.43	1091.63
645.77	1089.05
646.11	1089.99
646.46	1096.31
646.80	1098.65
647.14	1088.82
647.49	1081.56
647.83	1082.73
648.17	1083.20
648.52	1074.07
648.86	1080.39
649.20	1089.29
649.55	1087.18
649.89	1080.63
650.23	1094.90
650.57	1094.43
650.92	1098.18
651.26	1101.92
651.60	1104.26
651.95	1098.41
652.29	1097.71
652.63	1097.48
652.97	1092.80
653.32	1093.03
653.66	1085.07
654.00	1089.52
654.34	1072.43
654.69	1079.22
655.03	1077.11
655.37	1089.05
655.71	1075.71
656.05	1093.97
656.40	1089.52
656.74	1089.99
657.08	1089.75
657.42	1097.95
657.76	1092.56
658.11	1092.33
658.45	1089.75
658.79	1086.94
659.13	1089.99
659.47	1078.99
659.82	1068.22
660.16	1060.96
660.50	1064.48
660.84	1072.90
661.18	1080.86
661.52	1082.97
661.87	1083.67
662.21	1078.52
662.55	1061.20
662.89	1046.45
663.23	1068.69
663.57	1078.52
663.91	1076.65
664.25	1080.86
664.60	1094.90
664.94	1078.99
665.28	1079.46
665.62	1085.77
665.96	1092.80
666.30	1095.14
666.64	1098.65
666.98	1092.09
667.32	1090.92
667.66	1087.88
668.01	1082.26
668.35	1075.71
668.69	1075.94
669.03	1076.65
669.37	1079.22
669.71	1083.67
670.05	1087.41
670.39	1088.35
670.73	1088.82
671.07	1088.12
671.41	1071.97
671.75	1072.20
672.09	1071.97
672.43	1071.26
672.77	1060.73
673.11	1073.14
673.45	1078.05
673.79	1085.77
674.13	1078.75
674.47	1093.03
674.81	1089.99
675.15	1087.88
675.49	1078.99
675.83	1088.35
676.17	1081.09
676.51	1097.01
676.85	1089.29
677.19	1091.16
677.53	1086.24
677.87	1095.14
678.21	1083.67
678.55	1079.46
678.89	1080.16
679.23	1082.73
679.57	1076.41
679.90	1075.48
680.24	1089.99
680.58	1104.03
680.92	1099.35
681.26	1110.82
681.60	1108.01
681.94	1092.56
682.28	1073.37
682.62	1082.73
682.96	1065.88
683.29	1064.71
683.63	1073.14
683.97	1082.03
684.31	1081.56
684.65	1088.58
684.99	1096.31
685.33	1100.52
685.67	1103.09
686.00	1089.75
686.34	1087.18
686.68	1078.75
687.02	1076.88
687.36	1075.71
687.70	1085.31
688.03	1079.22
688.37	1085.07
688.71	1075.71
689.05	1081.33
689.39	1068.69
689.72	1076.18
690.06	1075.48
690.40	1079.92
690.74	1077.11
691.08	1084.84
691.41	1089.75
691.75	1086.71
692.09	1094.67
692.43	1094.90
692.76	1097.24
693.10	1089.75
693.44	1089.29
693.78	1090.46
694.11	1084.14
694.45	1076.18
694.79	1075.01
695.13	1076.18
695.46	1065.18
695.80	1058.62
696.14	1068.92
696.48	1080.63
696.81	1082.50
697.15	1088.35
697.49	1100.05
697.82	1093.26
698.16	1088.82
698.50	1086.71
698.83	1089.29
699.17	1085.31
699.51	1090.46
699.84	1086.48
700.18	1078.75
700.52	1075.94
700.85	1077.82
701.19	1085.07
701.53	1087.88
701.86	1093.73
702.20	1097.01
702.54	1095.60
702.87	1076.41
703.21	1074.07
703.55	1078.05
703.88	1066.35
704.22	1060.26
704.55	1077.35
704.89	1075.48
705.23	1069.86
705.56	1076.65
705.90	1074.77
706.23	1067.52
706.57	1070.33
706.91	1079.92
707.24	1085.07
707.58	1093.50
707.91	1090.92
708.25	1089.52
708.58	1086.01
708.92	1085.77
709.26	1077.58
709.59	1081.09
709.93	1073.37
710.26	1072.43
710.60	1069.39
710.93	1079.69
711.27	1075.24
711.60	1083.90
711.94	1087.41
712.27	1079.22
712.61	1076.88
712.94	1083.67
713.28	1078.28
713.61	1069.62
713.95	1083.90
714.28	1077.82
714.62	1079.22
714.95	1081.56
715.29	1090.92
715.62	1079.46
715.96	1088.58
716.29	1077.58
716.63	1067.05
716.96	1072.90
717.29	1076.65
717.63	1069.39
717.96	1070.56
718.30	1081.33
718.63	1065.65
718.97	1069.62
719.30	1070.09
719.63	1075.48
719.97	1072.20
720.30	1073.60
720.64	1077.58
720.97	1080.63
721.30	1086.01
721.64	1099.12
721.97	1108.01
722.31	1104.73
722.64	1107.31
722.97	1098.88
723.31	1078.99
723.64	1078.05
723.97	1073.60
724.31	1069.39
724.64	1067.99
724.98	1080.63
725.31	1079.46
725.64	1079.46
725.98	1087.65
726.31	1100.29
726.64	1096.07
726.97	1087.88
727.31	1092.33
727.64	1084.14
727.97	1071.26
728.31	1069.86
728.64	1068.92
728.97	1064.71
729.31	1064.71
729.64	1070.80
729.97	1059.09
730.30	1068.45
730.64	1065.41
730.97	1067.75
731.30	1059.79
731.63	1079.46
731.97	1077.82
732.30	1082.73
732.63	1085.31
732.96	1102.39
733.30	1099.12
733.63	1099.12
733.96	1093.03
734.29	1096.54
734.63	1086.01
734.96	1086.71
735.29	1084.60
735.62	1093.03
735.95	1089.52
736.29	1092.33
736.62	1090.92
736.95	1098.65
737.28	1097.01
737.61	1082.03
737.94	1078.52
738.28	1074.77
738.61	1058.86
738.94	1056.05
739.27	1072.67
739.60	1077.58
739.93	1083.43
740.27	1088.12
740.60	1097.71
740.93	1096.31
741.26	1090.22
741.59	1091.63
741.92	1087.65
742.25	1074.77
742.58	1067.28
742.91	1070.09
743.25	1061.20
743.58	1065.88
743.91	1083.20
744.24	1081.80
744.57	1087.41
744.90	1101.22
745.23	1104.03
745.56	1092.56
745.89	1099.82
746.22	1091.63
746.55	1085.77
746.88	1092.80
747.21	1089.75
747.54	1089.52
747.87	1100.29
748.20	1104.03
748.53	1088.12
748.87	1089.52
749.20	1090.92
749.53	1078.99
749.86	1067.52
750.19	1079.22
750.52	1076.65
750.85	1072.90
751.18	1071.97
751.51	1075.24
751.84	1067.28
752.16	1070.09
752.49	1073.60
752.82	1070.33
753.15	1075.01
753.48	1078.99
753.81	1081.80
754.14	1087.41
754.47	1097.95
754.80	1097.71
755.13	1103.56
755.46	1100.52
755.79	1087.18
756.12	1091.86
756.45	1086.01
756.78	1076.41
757.11	1084.14
757.43	1082.73
757.76	1070.33
758.09	1075.71
758.42	1083.20
758.75	1085.07
759.08	1089.29
759.41	1093.50
759.74	1079.22
760.07	1077.58
760.39	1061.43
760.72	1063.07
761.05	1067.28
761.38	1085.31
761.71	1079.92
762.04	1086.94
762.36	1091.16
762.69	1087.18
763.02	1082.03
763.35	1091.39
763.68	1090.46
764.01	1083.67
764.33	1085.31
764.66	1085.54
764.99	1079.92
765.32	1086.24
765.65	1088.12
765.97	1077.35
766.30	1080.16
