SpectraSuite Data File
++++++++++++++++++++++++++++++++++++
Date: Mon Aug 26 10:25:45 PDT 2019
User: corrico
Dark Spectrum Present: No
Reference Spectrum Present: No
Number of Sampled Component Spectra: 1
Spectrometers: USB2+H06089
Integration Time (usec): 10000 (USB2+H06089)
Spectra Averaged: 2 (USB2+H06089)
Boxcar Smoothing: 2 (USB2+H06089)
Correct for Electrical Dark: No (USB2+H06089)
Strobe/Lamp Enabled: No (USB2+H06089)
Correct for Detector Non-linearity: No (USB2+H06089)
Correct for Stray Light: No (USB2+H06089)
Number of Pixels in Processed Spectrum: 2048
>>>>>Begin Processed Spectral Data<<<<<
339.70	1029.84
340.07	1029.84
340.45	987.00
340.82	970.62
341.19	953.30
341.57	926.38
341.94	922.87
342.31	920.06
342.69	919.36
343.06	914.45
343.43	917.72
343.81	917.02
344.18	918.66
344.55	922.41
344.93	919.83
345.30	914.68
345.67	916.32
346.04	918.19
346.42	915.38
346.79	931.07
347.16	950.02
347.54	969.22
347.91	979.51
348.28	987.00
348.65	992.39
349.03	986.07
349.40	993.09
349.77	1016.49
350.14	1026.79
350.52	1031.24
350.89	1041.54
351.26	1047.39
351.63	1033.11
352.01	1042.24
352.38	1046.45
352.75	1062.84
353.12	1055.58
353.50	1064.48
353.87	1060.26
354.24	1064.24
354.61	1069.62
354.98	1073.60
355.36	1074.07
355.73	1078.75
356.10	1073.84
356.47	1060.50
356.84	1067.52
357.22	1069.86
357.59	1061.67
357.96	1070.80
358.33	1078.99
358.70	1077.58
359.08	1080.39
359.45	1083.67
359.82	1084.84
360.19	1093.73
360.56	1096.07
360.94	1094.67
361.31	1099.35
361.68	1095.14
362.05	1085.54
362.42	1084.37
362.79	1081.56
363.16	1081.33
363.54	1074.07
363.91	1074.77
364.28	1072.20
364.65	1067.05
365.02	1066.35
365.39	1064.01
365.76	1054.18
366.14	1058.16
366.51	1064.48
366.88	1062.60
367.25	1065.88
367.62	1071.03
367.99	1065.41
368.36	1058.86
368.73	1051.37
369.10	1049.96
369.48	1050.43
369.85	1051.37
370.22	1056.75
370.59	1054.41
370.96	1054.88
371.33	1057.92
371.70	1054.88
372.07	1056.52
372.44	1071.50
372.81	1072.20
373.18	1069.62
373.55	1069.39
373.93	1062.60
374.30	1060.03
374.67	1062.60
375.04	1064.48
375.41	1065.88
375.78	1076.88
376.15	1073.37
376.52	1068.69
376.89	1065.41
377.26	1065.18
377.63	1059.56
378.00	1059.09
378.37	1069.62
378.74	1063.07
379.11	1061.20
379.48	1062.14
379.85	1062.60
380.22	1061.43
380.59	1059.33
380.96	1064.71
381.33	1059.56
381.70	1055.58
382.07	1054.18
382.44	1071.50
382.81	1073.37
383.18	1075.01
383.55	1079.69
383.92	1070.56
384.29	1068.22
384.66	1064.24
385.03	1068.45
385.40	1071.50
385.77	1088.12
386.14	1087.41
386.51	1094.20
386.88	1092.56
387.25	1087.41
387.62	1084.60
387.99	1081.09
388.36	1063.54
388.73	1065.41
389.10	1065.18
389.46	1053.24
389.83	1053.24
390.20	1066.11
390.57	1067.05
390.94	1067.99
391.31	1071.26
391.68	1078.52
392.05	1075.71
392.42	1082.26
392.79	1079.22
393.16	1078.28
393.53	1070.80
393.89	1071.26
394.26	1059.56
394.63	1063.77
395.00	1073.84
395.37	1072.43
395.74	1067.28
396.11	1072.20
396.48	1068.45
396.84	1053.48
397.21	1058.62
397.58	1059.09
397.95	1056.05
398.32	1058.62
398.69	1070.80
399.06	1071.03
399.42	1074.31
399.79	1070.56
400.16	1071.50
400.53	1067.75
400.90	1066.11
401.27	1074.31
401.64	1082.26
402.00	1077.82
402.37	1084.60
402.74	1086.24
403.11	1061.43
403.48	1054.18
403.84	1067.52
404.21	1063.54
404.58	1059.79
404.95	1078.99
405.32	1085.77
405.68	1082.03
406.05	1069.86
406.42	1068.45
406.79	1066.58
407.16	1056.75
407.52	1059.79
407.89	1075.48
408.26	1079.46
408.63	1076.88
408.99	1082.73
409.36	1073.60
409.73	1072.90
410.10	1073.84
410.47	1073.60
410.83	1072.43
411.20	1076.18
411.57	1062.14
411.94	1057.45
412.30	1054.18
412.67	1060.96
413.04	1062.60
413.40	1074.54
413.77	1072.43
414.14	1083.43
414.51	1075.24
414.87	1064.71
415.24	1061.90
415.61	1065.65
415.97	1060.03
416.34	1063.54
416.71	1067.99
417.08	1066.58
417.44	1077.58
417.81	1090.22
418.18	1093.26
418.54	1097.71
418.91	1093.26
419.28	1087.18
419.64	1072.67
420.01	1067.99
420.38	1075.24
420.74	1093.50
421.11	1091.63
421.48	1095.84
421.84	1100.05
422.21	1092.09
422.58	1089.99
422.94	1093.50
423.31	1096.31
423.68	1096.78
424.04	1102.63
424.41	1088.82
424.77	1074.54
425.14	1063.77
425.51	1053.01
425.87	1044.11
426.24	1044.82
426.61	1053.71
426.97	1066.58
427.34	1072.20
427.70	1075.24
428.07	1074.54
428.44	1076.88
428.80	1070.09
429.17	1074.31
429.53	1074.31
429.90	1077.82
430.27	1068.92
430.63	1069.62
431.00	1074.54
431.36	1073.37
431.73	1064.71
432.09	1083.67
432.46	1080.16
432.83	1066.58
433.19	1065.41
433.56	1075.71
433.92	1062.60
434.29	1070.56
434.65	1079.22
435.02	1074.31
435.38	1075.94
435.75	1076.41
436.11	1073.60
436.48	1074.77
436.84	1083.67
437.21	1078.52
437.57	1075.01
437.94	1074.07
438.30	1073.37
438.67	1072.43
439.03	1080.39
439.40	1087.65
439.76	1092.09
440.13	1084.60
440.49	1083.43
440.86	1080.39
441.22	1084.60
441.59	1076.18
441.95	1085.54
442.32	1088.35
442.68	1078.99
443.05	1071.26
443.41	1071.03
443.78	1062.14
444.14	1059.09
444.51	1058.16
444.87	1052.77
445.24	1065.88
445.60	1072.67
445.96	1070.09
446.33	1078.05
446.69	1086.71
447.06	1078.05
447.42	1076.41
447.79	1084.60
448.15	1089.52
448.51	1098.41
448.88	1097.24
449.24	1095.37
449.61	1087.88
449.97	1085.54
450.33	1075.24
450.70	1073.14
451.06	1071.97
451.43	1073.84
451.79	1067.75
452.15	1055.58
452.52	1056.75
452.88	1054.65
453.24	1062.60
453.61	1062.14
453.97	1074.54
454.34	1081.09
454.70	1091.63
455.06	1086.94
455.43	1083.90
455.79	1080.63
456.15	1073.84
456.52	1062.84
456.88	1060.73
457.24	1067.05
457.61	1060.03
457.97	1056.75
458.33	1063.54
458.70	1060.96
459.06	1066.58
459.42	1077.58
459.79	1087.18
460.15	1091.16
460.51	1088.12
460.88	1078.99
461.24	1078.99
461.60	1079.92
461.96	1079.92
462.33	1086.01
462.69	1093.26
463.05	1087.65
463.42	1076.18
463.78	1065.88
464.14	1067.05
464.50	1062.60
464.87	1068.69
465.23	1074.31
465.59	1079.69
465.95	1076.18
466.32	1084.14
466.68	1085.31
467.04	1080.16
467.40	1085.31
467.77	1084.84
468.13	1070.09
468.49	1069.39
468.85	1071.50
469.22	1071.26
469.58	1068.45
469.94	1075.01
470.30	1078.28
470.66	1082.26
471.03	1078.52
471.39	1086.24
471.75	1098.65
472.11	1089.52
472.47	1078.75
472.84	1082.03
473.20	1085.31
473.56	1073.84
473.92	1078.05
474.28	1085.07
474.65	1075.24
475.01	1064.94
475.37	1067.28
475.73	1065.41
476.09	1069.16
476.45	1071.50
476.81	1078.75
477.18	1080.86
477.54	1078.52
477.90	1073.14
478.26	1085.77
478.62	1084.37
478.98	1086.01
479.34	1085.77
479.71	1086.01
480.07	1080.16
480.43	1076.41
480.79	1074.31
481.15	1086.01
481.51	1086.71
481.87	1091.16
482.23	1096.78
482.59	1099.58
482.96	1091.63
483.32	1097.24
483.68	1089.99
484.04	1081.33
484.40	1075.94
484.76	1068.45
485.12	1065.18
485.48	1060.96
485.84	1062.84
486.20	1054.18
486.56	1063.31
486.92	1067.05
487.28	1065.88
487.64	1069.16
488.00	1077.11
488.37	1074.54
488.73	1075.48
489.09	1081.80
489.45	1076.18
489.81	1067.52
490.17	1058.62
490.53	1056.75
490.89	1054.18
491.25	1056.28
491.61	1067.28
491.97	1078.75
492.33	1082.73
492.69	1084.84
493.05	1093.03
493.41	1097.48
493.77	1099.82
494.13	1106.14
494.49	1110.35
494.85	1106.84
495.21	1100.99
495.57	1087.88
495.93	1075.94
496.29	1068.22
496.64	1067.05
497.00	1060.03
497.36	1066.11
497.72	1070.33
498.08	1071.50
498.44	1069.16
498.80	1083.67
499.16	1083.90
499.52	1085.77
499.88	1083.43
500.24	1082.73
500.60	1078.75
500.96	1086.48
501.32	1082.97
501.68	1098.41
502.03	1097.01
502.39	1089.99
502.75	1076.65
503.11	1080.86
503.47	1058.86
503.83	1062.84
504.19	1072.20
504.55	1085.54
504.91	1071.73
505.26	1080.86
505.62	1081.56
505.98	1087.88
506.34	1084.60
506.70	1096.31
507.06	1098.65
507.42	1080.63
507.78	1065.65
508.13	1062.14
508.49	1062.37
508.85	1052.77
509.21	1075.24
509.57	1084.60
509.93	1090.22
510.28	1086.24
510.64	1096.31
511.00	1083.43
511.36	1071.50
511.72	1060.96
512.07	1066.35
512.43	1069.86
512.79	1072.20
513.15	1079.22
513.51	1088.58
513.86	1085.77
514.22	1085.77
514.58	1095.37
514.94	1091.39
515.30	1096.31
515.65	1098.88
516.01	1098.65
516.37	1100.05
516.73	1100.99
517.08	1090.22
517.44	1088.12
517.80	1084.37
518.16	1082.03
518.51	1083.90
518.87	1084.37
519.23	1089.52
519.59	1091.86
519.94	1086.94
520.30	1093.73
520.66	1093.97
521.01	1098.41
521.37	1093.26
521.73	1093.03
522.09	1086.94
522.44	1086.01
522.80	1071.73
523.16	1077.35
523.51	1086.24
523.87	1084.60
524.23	1093.03
524.58	1090.69
524.94	1091.39
525.30	1084.60
525.65	1086.94
526.01	1083.90
526.37	1092.33
526.72	1082.73
527.08	1079.22
527.44	1069.16
527.79	1071.73
528.15	1079.69
528.51	1091.86
528.86	1096.54
529.22	1111.29
529.58	1107.54
529.93	1105.20
530.29	1097.71
530.65	1099.35
531.00	1092.09
531.36	1089.99
531.71	1078.99
532.07	1071.26
532.43	1078.99
532.78	1084.84
533.14	1084.37
533.49	1085.77
533.85	1100.99
534.21	1094.67
534.56	1091.39
534.92	1090.69
535.27	1091.86
535.63	1084.37
535.98	1073.84
536.34	1070.80
536.69	1069.86
537.05	1064.48
537.41	1069.62
537.76	1078.05
538.12	1074.77
538.47	1080.16
538.83	1085.31
539.18	1078.75
539.54	1072.90
539.89	1070.80
540.25	1070.33
540.60	1071.50
540.96	1065.65
541.31	1075.24
541.67	1071.26
542.02	1064.24
542.38	1067.05
542.73	1080.63
543.09	1078.52
543.44	1085.31
543.80	1089.52
544.15	1088.35
544.51	1082.26
544.86	1085.54
545.22	1097.01
545.57	1090.92
545.93	1093.97
546.28	1096.54
546.64	1090.69
546.99	1086.01
547.35	1100.75
547.70	1098.41
548.05	1092.33
548.41	1084.14
548.76	1075.94
549.12	1071.73
549.47	1074.07
549.83	1078.05
550.18	1086.24
550.53	1097.71
550.89	1093.03
551.24	1083.90
551.60	1080.16
551.95	1074.77
552.30	1067.28
552.66	1068.45
553.01	1072.20
553.37	1083.90
553.72	1099.12
554.07	1097.01
554.43	1098.18
554.78	1100.99
555.13	1092.33
555.49	1075.01
555.84	1083.43
556.19	1075.24
556.55	1066.58
556.90	1062.14
557.26	1064.01
557.61	1062.14
557.96	1068.45
558.32	1068.92
558.67	1076.88
559.02	1078.99
559.37	1078.05
559.73	1076.41
560.08	1081.80
560.43	1075.48
560.79	1079.22
561.14	1086.48
561.49	1096.54
561.85	1090.92
562.20	1093.26
562.55	1094.67
562.90	1072.43
563.26	1058.62
563.61	1066.58
563.96	1060.73
564.32	1060.03
564.67	1080.39
565.02	1090.92
565.37	1091.86
565.73	1095.14
566.08	1097.24
566.43	1087.41
566.78	1079.69
567.14	1072.90
567.49	1078.05
567.84	1069.39
568.19	1068.22
568.54	1069.16
568.90	1066.82
569.25	1067.05
569.60	1068.92
569.95	1074.54
570.31	1075.94
570.66	1082.73
571.01	1082.50
571.36	1087.65
571.71	1094.20
572.06	1102.39
572.42	1094.20
572.77	1085.31
573.12	1077.35
573.47	1070.80
573.82	1059.09
574.18	1068.22
574.53	1070.80
574.88	1082.03
575.23	1078.52
575.58	1086.24
575.93	1087.88
576.28	1094.43
576.64	1088.12
576.99	1093.73
577.34	1090.22
577.69	1088.82
578.04	1092.33
578.39	1097.95
578.74	1088.12
579.09	1093.03
579.44	1086.48
579.80	1086.94
580.15	1084.14
580.50	1089.29
580.85	1079.69
581.20	1083.90
581.55	1076.65
581.90	1071.97
582.25	1070.80
582.60	1077.82
582.95	1081.33
583.30	1091.86
583.65	1095.37
584.00	1095.84
584.35	1094.67
584.71	1091.63
585.06	1078.99
585.41	1080.63
585.76	1082.03
586.11	1082.97
586.46	1075.71
586.81	1086.94
587.16	1076.41
587.51	1060.73
587.86	1058.86
588.21	1064.71
588.56	1072.67
588.91	1083.67
589.26	1091.16
589.61	1098.41
589.96	1095.60
590.31	1082.03
590.66	1090.69
591.01	1095.37
591.36	1094.90
591.71	1093.26
592.06	1089.05
592.41	1080.16
592.76	1085.77
593.10	1075.24
593.45	1079.22
593.80	1082.03
594.15	1081.33
594.50	1084.84
594.85	1090.22
595.20	1097.95
595.55	1094.43
595.90	1088.12
596.25	1085.54
596.60	1080.86
596.95	1069.62
597.30	1065.65
597.64	1117.37
597.99	1108.71
598.34	1105.20
598.69	1103.09
599.04	1111.05
599.39	1060.03
599.74	1071.26
600.09	1083.67
600.44	1089.99
600.78	1091.86
601.13	1090.22
601.48	1079.92
601.83	1073.60
602.18	1072.67
602.53	1078.75
602.88	1078.99
603.22	1084.60
603.57	1080.39
603.92	1075.48
604.27	1066.35
604.62	1082.26
604.97	1087.18
605.31	1085.54
605.66	1089.99
606.01	1091.16
606.36	1082.26
606.71	1064.71
607.05	1061.67
607.40	1062.60
607.75	1066.35
608.10	1063.77
608.44	1073.14
608.79	1083.90
609.14	1097.24
609.49	1082.73
609.84	1076.88
610.18	1091.16
610.53	1084.84
610.88	1062.84
611.23	1071.03
611.57	1087.65
611.92	1075.48
612.27	1080.39
612.62	1084.84
612.96	1083.67
613.31	1080.63
613.66	1083.20
614.00	1082.50
614.35	1094.43
614.70	1094.43
615.05	1082.50
615.39	1080.86
615.74	1074.31
616.09	1062.37
616.43	1071.03
616.78	1081.56
617.13	1079.69
617.47	1086.71
617.82	1089.75
618.17	1083.67
618.51	1074.54
618.86	1065.41
619.21	1069.86
619.55	1070.80
619.90	1067.05
620.25	1069.62
620.59	1079.92
620.94	1076.41
621.29	1077.11
621.63	1086.48
621.98	1085.07
622.32	1081.09
622.67	1080.39
623.02	1091.63
623.36	1078.99
623.71	1088.35
624.05	1084.84
624.40	1088.12
624.75	1075.94
625.09	1084.60
625.44	1078.52
625.78	1089.29
626.13	1087.65
626.48	1086.24
626.82	1088.58
627.17	1095.60
627.51	1093.97
627.86	1094.90
628.20	1097.01
628.55	1090.92
628.89	1083.90
629.24	1083.90
629.58	1087.88
629.93	1084.14
630.28	1093.97
630.62	1091.63
630.97	1085.31
631.31	1083.90
631.66	1086.24
632.00	1084.84
632.35	1077.11
632.69	1077.82
633.04	1076.88
633.38	1082.50
633.73	1067.99
634.07	1082.03
634.42	1088.35
634.76	1082.26
635.11	1082.03
635.45	1095.14
635.79	1098.18
636.14	1094.67
636.48	1091.16
636.83	1088.82
637.17	1081.09
637.52	1058.86
637.86	1062.37
638.21	1070.33
638.55	1068.92
638.89	1070.80
639.24	1087.18
639.58	1089.99
639.93	1086.01
640.27	1074.77
640.61	1075.94
640.96	1079.92
641.30	1069.86
641.65	1074.31
641.99	1084.14
642.33	1080.86
642.68	1073.84
643.02	1076.88
643.37	1066.82
643.71	1074.31
644.05	1076.88
644.40	1073.37
644.74	1070.33
645.08	1075.71
645.43	1069.62
645.77	1074.31
646.11	1082.26
646.46	1089.75
646.80	1090.46
647.14	1083.20
647.49	1080.63
647.83	1075.48
648.17	1069.62
648.52	1066.82
648.86	1075.24
649.20	1075.01
649.55	1078.99
649.89	1080.63
650.23	1086.24
650.57	1086.01
650.92	1087.65
651.26	1081.56
651.60	1075.71
651.95	1079.46
652.29	1079.22
652.63	1076.18
652.97	1074.77
653.32	1072.67
653.66	1064.94
654.00	1072.67
654.34	1074.07
654.69	1080.63
655.03	1081.56
655.37	1082.26
655.71	1072.90
656.05	1071.26
656.40	1059.09
656.74	1068.92
657.08	1079.92
657.42	1076.88
657.76	1073.37
658.11	1088.35
658.45	1085.31
658.79	1075.01
659.13	1089.29
659.47	1097.48
659.82	1087.65
660.16	1091.16
660.50	1099.82
660.84	1090.22
661.18	1088.58
661.52	1098.65
661.87	1093.97
662.21	1079.69
662.55	1076.18
662.89	1072.20
663.23	1075.01
663.57	1069.62
663.91	1069.16
664.25	1071.03
664.60	1080.63
664.94	1070.33
665.28	1078.75
665.62	1085.54
665.96	1087.88
666.30	1075.48
666.64	1078.52
666.98	1081.33
667.32	1082.50
667.66	1085.54
668.01	1090.46
668.35	1094.90
668.69	1091.16
669.03	1098.41
669.37	1096.31
669.71	1098.41
670.05	1099.58
670.39	1096.07
670.73	1087.88
671.07	1081.09
671.41	1075.24
671.75	1069.39
672.09	1071.03
672.43	1072.67
672.77	1068.69
673.11	1071.26
673.45	1066.82
673.79	1071.73
674.13	1069.16
674.47	1083.90
674.81	1081.09
675.15	1083.67
675.49	1082.26
675.83	1085.77
676.17	1086.71
676.51	1091.39
676.85	1094.43
677.19	1092.80
677.53	1089.05
677.87	1087.41
678.21	1089.99
678.55	1091.63
678.89	1092.80
679.23	1093.26
679.57	1077.35
679.90	1077.58
680.24	1082.03
680.58	1074.07
680.92	1076.18
681.26	1087.88
681.60	1085.54
681.94	1083.90
682.28	1089.52
682.62	1091.16
682.96	1092.33
683.29	1092.09
683.63	1080.63
683.97	1083.90
684.31	1081.80
684.65	1078.05
684.99	1080.39
685.33	1081.56
685.67	1074.31
686.00	1071.03
686.34	1069.39
686.68	1069.16
687.02	1076.65
687.36	1084.84
687.70	1078.28
688.03	1075.24
688.37	1067.52
688.71	1064.01
689.05	1056.75
689.39	1065.18
689.72	1075.01
690.06	1075.48
690.40	1086.48
690.74	1093.50
691.08	1098.41
691.41	1086.71
691.75	1090.69
692.09	1087.88
692.43	1081.80
692.76	1073.14
693.10	1076.88
693.44	1083.20
693.78	1073.14
694.11	1076.88
694.45	1082.97
694.79	1093.50
695.13	1082.26
695.46	1086.01
695.80	1090.46
696.14	1093.50
696.48	1082.97
696.81	1083.90
697.15	1074.31
697.49	1069.86
697.82	1071.03
698.16	1081.09
698.50	1089.52
698.83	1108.24
699.17	1114.33
699.51	1100.75
699.84	1092.33
700.18	1097.01
700.52	1083.20
700.85	1077.35
701.19	1085.07
701.53	1091.63
701.86	1076.65
702.20	1085.07
702.54	1079.69
702.87	1074.77
703.21	1066.11
703.55	1079.46
703.88	1077.58
704.22	1084.37
704.55	1078.52
704.89	1085.31
705.23	1082.50
705.56	1082.03
705.90	1079.92
706.23	1081.33
706.57	1076.18
706.91	1071.03
707.24	1063.07
707.58	1067.52
707.91	1073.60
708.25	1084.84
708.58	1072.67
708.92	1076.88
709.26	1068.69
709.59	1078.28
709.93	1068.69
710.26	1093.73
710.60	1087.88
710.93	1091.39
711.27	1085.77
711.60	1088.82
711.94	1077.58
712.27	1091.16
712.61	1089.52
712.94	1091.63
713.28	1080.63
713.61	1074.07
713.95	1073.14
714.28	1072.43
714.62	1067.28
714.95	1067.52
715.29	1072.90
715.62	1069.16
715.96	1069.62
716.29	1075.48
716.63	1086.94
716.96	1092.56
717.29	1088.82
717.63	1087.65
717.96	1075.94
718.30	1070.56
718.63	1062.14
718.97	1062.14
719.30	1061.20
719.63	1069.39
719.97	1075.71
720.30	1079.69
720.64	1089.99
720.97	1098.88
721.30	1100.99
721.64	1095.84
721.97	1084.84
722.31	1075.48
722.64	1070.80
722.97	1075.94
723.31	1086.48
723.64	1096.31
723.97	1095.14
724.31	1093.26
724.64	1087.88
724.98	1082.73
725.31	1087.65
725.64	1091.86
725.98	1093.03
726.31	1081.56
726.64	1076.18
726.97	1065.18
727.31	1060.73
727.64	1064.71
727.97	1071.26
728.31	1079.69
728.64	1082.50
728.97	1093.26
729.31	1094.43
729.64	1106.14
729.97	1094.67
730.30	1090.46
730.64	1096.07
730.97	1086.71
731.30	1077.82
731.63	1084.14
731.97	1086.01
732.30	1077.35
732.63	1078.05
732.96	1068.45
733.30	1072.67
733.63	1082.50
733.96	1079.22
734.29	1082.97
734.63	1088.82
734.96	1082.50
735.29	1078.05
735.62	1079.46
735.95	1081.33
736.29	1089.05
736.62	1084.84
736.95	1082.97
737.28	1071.73
737.61	1066.35
737.94	1066.35
738.28	1065.65
738.61	1061.90
738.94	1069.62
739.27	1077.35
739.60	1066.35
739.93	1066.11
740.27	1072.67
740.60	1076.18
740.93	1076.88
741.26	1092.09
741.59	1093.26
741.92	1087.41
742.25	1087.88
742.58	1087.41
742.91	1085.07
743.25	1081.09
743.58	1078.28
743.91	1075.48
744.24	1078.05
744.57	1071.73
744.90	1072.20
745.23	1070.56
745.56	1068.45
745.89	1062.37
746.22	1063.54
746.55	1075.94
746.88	1085.54
747.21	1083.43
747.54	1084.14
747.87	1084.37
748.20	1076.88
748.53	1073.37
748.87	1073.37
749.20	1070.56
749.53	1068.45
749.86	1065.65
750.19	1068.92
750.52	1062.60
750.85	1062.37
751.18	1067.05
751.51	1069.16
751.84	1067.05
752.16	1082.03
752.49	1089.75
752.82	1096.54
753.15	1106.61
753.48	1104.26
753.81	1097.48
754.14	1100.75
754.47	1086.48
754.80	1076.41
755.13	1075.94
755.46	1076.88
755.79	1073.84
756.12	1083.67
756.45	1087.18
756.78	1097.71
757.11	1092.80
757.43	1085.77
757.76	1087.18
758.09	1089.52
758.42	1081.56
758.75	1086.71
759.08	1086.48
759.41	1076.65
759.74	1072.90
760.07	1078.99
760.39	1079.92
760.72	1076.88
761.05	1078.05
761.38	1077.58
761.71	1066.11
762.04	1066.82
762.36	1072.90
762.69	1065.65
763.02	1071.97
763.35	1081.33
763.68	1076.88
764.01	1077.35
764.33	1091.16
764.66	1090.46
764.99	1088.12
765.32	1099.12
765.65	1096.54
765.97	1091.86
766.30	1094.43
