SpectraSuite Data File
++++++++++++++++++++++++++++++++++++
Date: Mon Aug 26 10:25:45 PDT 2019
User: corrico
Dark Spectrum Present: No
Reference Spectrum Present: No
Number of Sampled Component Spectra: 1
Spectrometers: USB2+H06089
Integration Time (usec): 10000 (USB2+H06089)
Spectra Averaged: 2 (USB2+H06089)
Boxcar Smoothing: 2 (USB2+H06089)
Correct for Electrical Dark: No (USB2+H06089)
Strobe/Lamp Enabled: No (USB2+H06089)
Correct for Detector Non-linearity: No (USB2+H06089)
Correct for Stray Light: No (USB2+H06089)
Number of Pixels in Processed Spectrum: 2048
>>>>>Begin Processed Spectral Data<<<<<
339.70	1036.86
340.07	1036.86
340.45	1003.62
340.82	978.81
341.19	954.47
341.57	935.51
341.94	921.70
342.31	911.87
342.69	910.47
343.06	911.17
343.43	898.06
343.81	893.62
344.18	891.04
344.55	891.74
344.93	894.32
345.30	916.09
345.67	931.30
346.04	949.79
346.42	957.75
346.79	961.26
347.16	958.45
347.54	961.96
347.91	963.36
348.28	964.53
348.65	971.09
349.03	967.58
349.40	975.07
349.77	982.56
350.14	1005.03
350.52	1010.88
350.89	1033.35
351.26	1038.03
351.63	1039.67
352.01	1037.56
352.38	1034.52
352.75	1033.35
353.12	1049.73
353.50	1050.43
353.87	1050.20
354.24	1062.37
354.61	1069.86
354.98	1065.65
355.36	1073.14
355.73	1089.52
356.10	1100.29
356.47	1110.35
356.84	1112.46
357.22	1111.52
357.59	1102.63
357.96	1099.12
358.33	1074.31
358.70	1071.97
359.08	1075.24
359.45	1077.58
359.82	1080.16
360.19	1100.29
360.56	1102.16
360.94	1096.07
361.31	1094.43
361.68	1098.65
362.05	1084.60
362.42	1076.65
362.79	1073.14
363.16	1065.88
363.54	1051.60
363.91	1050.67
364.28	1058.86
364.65	1056.52
365.02	1051.60
365.39	1054.41
365.76	1060.73
366.14	1054.18
366.51	1053.01
366.88	1061.20
367.25	1063.77
367.62	1059.79
367.99	1063.77
368.36	1068.69
368.73	1070.80
369.10	1073.37
369.48	1079.69
369.85	1087.88
370.22	1092.56
370.59	1089.05
370.96	1082.50
371.33	1083.90
371.70	1078.52
372.07	1071.97
372.44	1077.11
372.81	1074.07
373.18	1071.97
373.55	1069.62
373.93	1072.20
374.30	1070.80
374.67	1073.37
375.04	1073.14
375.41	1069.16
375.78	1073.60
376.15	1067.28
376.52	1067.99
376.89	1065.88
377.26	1065.18
377.63	1054.88
378.00	1063.54
378.37	1064.48
378.74	1066.11
379.11	1071.26
379.48	1077.82
379.85	1069.86
380.22	1074.54
380.59	1074.54
380.96	1071.50
381.33	1059.56
381.70	1061.90
382.07	1062.84
382.44	1061.20
382.81	1060.03
383.18	1072.90
383.55	1068.92
383.92	1061.67
384.29	1059.33
384.66	1063.07
385.03	1063.77
385.40	1062.60
385.77	1066.82
386.14	1064.48
386.51	1072.90
386.88	1063.77
387.25	1069.62
387.62	1072.67
387.99	1082.03
388.36	1079.46
388.73	1090.92
389.10	1096.07
389.46	1084.14
389.83	1077.11
390.20	1065.88
390.57	1065.88
390.94	1055.82
391.31	1057.92
391.68	1051.84
392.05	1059.09
392.42	1056.52
392.79	1060.96
393.16	1060.73
393.53	1065.88
393.89	1059.56
394.26	1060.26
394.63	1057.45
395.00	1061.43
395.37	1072.67
395.74	1082.97
396.11	1082.03
396.48	1097.01
396.84	1098.88
397.21	1091.86
397.58	1088.82
397.95	1079.46
398.32	1064.71
398.69	1064.94
399.06	1062.84
399.42	1050.67
399.79	1053.94
400.16	1060.50
400.53	1063.31
400.90	1075.94
401.27	1086.71
401.64	1088.58
402.00	1083.43
402.37	1077.58
402.74	1069.16
403.11	1068.69
403.48	1083.67
403.84	1080.16
404.21	1075.71
404.58	1073.60
404.95	1075.94
405.32	1080.39
405.68	1090.92
406.05	1094.20
406.42	1098.18
406.79	1088.35
407.16	1062.37
407.52	1062.14
407.89	1058.86
408.26	1056.05
408.63	1071.73
408.99	1076.88
409.36	1072.67
409.73	1082.97
410.10	1081.80
410.47	1080.63
410.83	1090.22
411.20	1089.75
411.57	1085.31
411.94	1088.58
412.30	1076.65
412.67	1072.67
413.04	1065.18
413.40	1069.39
413.77	1058.39
414.14	1070.33
414.51	1059.33
414.87	1063.07
415.24	1058.16
415.61	1062.14
415.97	1055.35
416.34	1071.03
416.71	1068.92
417.08	1067.28
417.44	1062.84
417.81	1066.82
418.18	1066.82
418.54	1072.67
418.91	1078.75
419.28	1085.77
419.64	1076.88
420.01	1072.20
420.38	1062.84
420.74	1063.77
421.11	1063.31
421.48	1064.71
421.84	1065.18
422.21	1069.62
422.58	1068.69
422.94	1071.50
423.31	1077.35
423.68	1078.52
424.04	1078.28
424.41	1076.18
424.77	1072.20
425.14	1073.84
425.51	1073.37
425.87	1080.63
426.24	1077.35
426.61	1071.03
426.97	1064.71
427.34	1070.56
427.70	1068.69
428.07	1075.71
428.44	1076.65
428.80	1072.90
429.17	1066.35
429.53	1071.26
429.90	1070.09
430.27	1074.54
430.63	1076.65
431.00	1077.35
431.36	1064.94
431.73	1058.62
432.09	1064.94
432.46	1070.80
432.83	1069.39
433.19	1070.56
433.56	1072.90
433.92	1066.58
434.29	1064.94
434.65	1071.50
435.02	1083.67
435.38	1082.73
435.75	1086.71
436.11	1089.52
436.48	1085.07
436.84	1073.60
437.21	1074.77
437.57	1072.90
437.94	1074.31
438.30	1066.82
438.67	1059.33
439.03	1063.77
439.40	1064.71
439.76	1061.90
440.13	1068.69
440.49	1082.26
440.86	1082.26
441.22	1082.50
441.59	1088.35
441.95	1085.07
442.32	1082.97
442.68	1075.01
443.05	1069.86
443.41	1061.67
443.78	1064.24
444.14	1060.03
444.51	1069.86
444.87	1071.26
445.24	1079.22
445.60	1086.94
445.96	1099.82
446.33	1097.48
446.69	1099.58
447.06	1095.84
447.42	1083.67
447.79	1074.31
448.15	1080.16
448.51	1085.54
448.88	1084.37
449.24	1090.22
449.61	1095.84
449.97	1087.41
450.33	1080.39
450.70	1090.46
451.06	1086.71
451.43	1086.94
451.79	1085.07
452.15	1090.92
452.52	1077.82
452.88	1079.69
453.24	1071.50
453.61	1077.58
453.97	1071.97
454.34	1067.75
454.70	1065.88
455.06	1068.69
455.43	1069.86
455.79	1075.24
456.15	1077.82
456.52	1078.99
456.88	1081.09
457.24	1077.82
457.61	1073.60
457.97	1072.67
458.33	1074.54
458.70	1064.01
459.06	1060.50
459.42	1063.54
459.79	1080.39
460.15	1075.01
460.51	1083.20
460.88	1075.24
461.24	1071.50
461.60	1056.75
461.96	1071.03
462.33	1070.80
462.69	1078.05
463.05	1074.54
463.42	1082.97
463.78	1062.84
464.14	1074.31
464.50	1070.56
464.87	1083.90
465.23	1078.28
465.59	1089.05
465.95	1082.50
466.32	1087.18
466.68	1078.28
467.04	1074.31
467.40	1074.31
467.77	1077.35
468.13	1073.84
468.49	1069.86
468.85	1074.31
469.22	1079.22
469.58	1071.26
469.94	1069.86
470.30	1075.94
470.66	1070.33
471.03	1066.11
471.39	1065.88
471.75	1069.86
472.11	1070.80
472.47	1074.31
472.84	1074.77
473.20	1082.26
473.56	1077.11
473.92	1068.69
474.28	1065.18
474.65	1073.60
475.01	1068.45
475.37	1069.39
475.73	1081.56
476.09	1084.60
476.45	1074.31
476.81	1078.75
477.18	1088.12
477.54	1078.99
477.90	1079.92
478.26	1079.22
478.62	1079.69
478.98	1071.73
479.34	1081.33
479.71	1089.29
480.07	1094.90
480.43	1087.65
480.79	1092.09
481.15	1088.35
481.51	1076.88
481.87	1068.92
482.23	1070.33
482.59	1070.56
482.96	1065.41
483.32	1070.56
483.68	1084.37
484.04	1083.67
484.40	1077.82
484.76	1087.65
485.12	1094.67
485.48	1085.77
485.84	1089.99
486.20	1098.41
486.56	1086.71
486.92	1080.63
487.28	1081.33
487.64	1079.46
488.00	1082.26
488.37	1091.63
488.73	1095.37
489.09	1094.20
489.45	1101.46
489.81	1093.26
490.17	1086.24
490.53	1083.90
490.89	1086.24
491.25	1077.82
491.61	1088.12
491.97	1084.37
492.33	1077.82
492.69	1071.73
493.05	1072.90
493.41	1065.41
493.77	1070.80
494.13	1075.01
494.49	1068.92
494.85	1065.88
495.21	1063.77
495.57	1063.54
495.93	1069.39
496.29	1076.41
496.64	1078.52
497.00	1080.16
497.36	1083.67
497.72	1074.07
498.08	1071.97
498.44	1078.05
498.80	1075.71
499.16	1070.09
499.52	1070.33
499.88	1072.90
500.24	1079.69
500.60	1078.75
500.96	1087.18
501.32	1096.31
501.68	1093.73
502.03	1086.01
502.39	1085.31
502.75	1080.63
503.11	1081.56
503.47	1092.33
503.83	1082.26
504.19	1080.39
504.55	1076.65
504.91	1064.48
505.26	1057.69
505.62	1067.99
505.98	1071.26
506.34	1060.50
506.70	1057.92
507.06	1060.50
507.42	1062.60
507.78	1068.69
508.13	1081.33
508.49	1081.33
508.85	1082.26
509.21	1075.94
509.57	1077.58
509.93	1078.52
510.28	1092.09
510.64	1096.78
511.00	1091.63
511.36	1092.33
511.72	1094.43
512.07	1092.56
512.43	1086.48
512.79	1091.63
513.15	1089.05
513.51	1089.75
513.86	1084.14
514.22	1085.07
514.58	1085.54
514.94	1089.05
515.30	1085.77
515.65	1083.67
516.01	1075.24
516.37	1072.20
516.73	1065.88
517.08	1068.22
517.44	1080.16
517.80	1087.88
518.16	1103.80
518.51	1115.50
518.87	1113.16
519.23	1102.16
519.59	1102.63
519.94	1091.63
520.30	1081.80
520.66	1081.33
521.01	1088.12
521.37	1076.41
521.73	1073.60
522.09	1077.58
522.44	1080.86
522.80	1080.63
523.16	1089.75
523.51	1089.29
523.87	1088.12
524.23	1083.90
524.58	1092.80
524.94	1092.56
525.30	1094.43
525.65	1095.84
526.01	1101.92
526.37	1089.05
526.72	1090.69
527.08	1095.14
527.44	1087.65
527.79	1086.71
528.15	1085.54
528.51	1096.07
528.86	1085.54
529.22	1085.77
529.58	1089.05
529.93	1082.73
530.29	1072.20
530.65	1077.11
531.00	1076.18
531.36	1068.92
531.71	1076.65
532.07	1084.84
532.43	1091.16
532.78	1089.99
533.14	1091.63
533.49	1090.69
533.85	1082.03
534.21	1068.45
534.56	1075.48
534.92	1073.14
535.27	1077.11
535.63	1077.58
535.98	1084.14
536.34	1078.75
536.69	1079.69
537.05	1071.26
537.41	1068.92
537.76	1076.18
538.12	1087.88
538.47	1092.09
538.83	1088.12
539.18	1089.29
539.54	1079.22
539.89	1074.77
540.25	1078.05
540.60	1084.37
540.96	1089.05
541.31	1090.46
541.67	1087.65
542.02	1080.16
542.38	1084.14
542.73	1075.24
543.09	1072.90
543.44	1071.73
543.80	1068.69
544.15	1072.67
544.51	1073.14
544.86	1074.77
545.22	1070.09
545.57	1072.90
545.93	1071.26
546.28	1074.77
546.64	1067.28
546.99	1070.33
547.35	1066.58
547.70	1067.05
548.05	1067.05
548.41	1073.60
548.76	1074.77
549.12	1085.07
549.47	1083.67
549.83	1086.94
550.18	1090.22
550.53	1075.01
550.89	1064.71
551.24	1063.77
551.60	1065.41
551.95	1069.39
552.30	1084.84
552.66	1088.35
553.01	1080.86
553.37	1075.94
553.72	1065.65
554.07	1062.84
554.43	1066.82
554.78	1075.01
555.13	1074.54
555.49	1080.16
555.84	1085.07
556.19	1086.48
556.55	1090.92
556.90	1091.39
557.26	1093.50
557.61	1098.65
557.96	1100.52
558.32	1100.75
558.67	1104.26
559.02	1109.18
559.37	1103.33
559.73	1101.22
560.08	1100.29
560.43	1100.05
560.79	1088.58
561.14	1079.92
561.49	1075.94
561.85	1066.82
562.20	1058.62
562.55	1064.71
562.90	1069.62
563.26	1068.45
563.61	1076.88
563.96	1082.97
564.32	1079.69
564.67	1073.37
565.02	1077.82
565.37	1074.31
565.73	1071.03
566.08	1064.48
566.43	1063.31
566.78	1063.31
567.14	1068.45
567.49	1075.24
567.84	1085.77
568.19	1091.39
568.54	1097.24
568.90	1097.95
569.25	1100.52
569.60	1104.26
569.95	1115.50
570.31	1100.75
570.66	1092.80
571.01	1088.12
571.36	1076.41
571.71	1072.20
572.06	1074.77
572.42	1078.75
572.77	1075.24
573.12	1082.97
573.47	1076.18
573.82	1089.05
574.18	1090.92
574.53	1094.90
574.88	1089.05
575.23	1088.35
575.58	1074.31
575.93	1069.86
576.28	1067.52
576.64	1054.18
576.99	1061.67
577.34	1078.75
577.69	1068.69
578.04	1063.77
578.39	1084.37
578.74	1080.63
579.09	1075.48
579.44	1085.07
579.80	1085.31
580.15	1089.52
580.50	1086.94
580.85	1079.22
581.20	1073.37
581.55	1085.31
581.90	1078.99
582.25	1081.33
582.60	1084.14
582.95	1088.58
583.30	1083.20
583.65	1086.94
584.00	1089.99
584.35	1092.80
584.71	1096.07
585.06	1094.67
585.41	1088.12
585.76	1076.41
586.11	1071.73
586.46	1067.05
586.81	1048.33
587.16	1047.39
587.51	1056.28
587.86	1060.96
588.21	1066.58
588.56	1085.77
588.91	1083.67
589.26	1077.82
589.61	1078.52
589.96	1075.24
590.31	1074.07
590.66	1076.18
591.01	1084.37
591.36	1079.46
591.71	1088.58
592.06	1098.41
592.41	1112.46
592.76	1111.29
593.10	1106.14
593.45	1102.16
593.80	1096.07
594.15	1094.20
594.50	1092.33
594.85	1101.46
595.20	1099.58
595.55	1094.43
595.90	1093.26
596.25	1096.78
596.60	1091.39
596.95	1089.75
597.30	1092.33
597.64	1134.46
597.99	1140.78
598.34	1135.63
598.69	1130.95
599.04	1133.05
599.39	1082.97
599.74	1067.05
600.09	1071.73
600.44	1070.09
600.78	1061.67
601.13	1056.75
601.48	1067.52
601.83	1067.28
602.18	1079.69
602.53	1083.43
602.88	1084.37
603.22	1085.07
603.57	1089.05
603.92	1080.16
604.27	1082.26
604.62	1083.43
604.97	1071.97
605.31	1080.39
605.66	1071.03
606.01	1075.24
606.36	1080.63
606.71	1089.29
607.05	1074.07
607.40	1090.46
607.75	1085.07
608.10	1087.18
608.44	1081.80
608.79	1077.58
609.14	1082.03
609.49	1080.63
609.84	1073.84
610.18	1079.69
610.53	1086.01
610.88	1082.97
611.23	1079.46
611.57	1087.65
611.92	1085.31
612.27	1097.48
612.62	1101.22
612.96	1111.05
613.31	1104.97
613.66	1108.71
614.00	1087.65
614.35	1087.41
614.70	1088.12
615.05	1089.05
615.39	1082.03
615.74	1095.60
616.09	1094.90
616.43	1099.35
616.78	1095.60
617.13	1105.67
617.47	1110.82
617.82	1104.26
618.17	1093.03
618.51	1094.90
618.86	1088.12
619.21	1078.28
619.55	1079.92
619.90	1073.37
620.25	1077.35
620.59	1078.52
620.94	1086.01
621.29	1076.18
621.63	1088.35
621.98	1086.01
622.32	1091.39
622.67	1083.43
623.02	1091.16
623.36	1086.48
623.71	1080.16
624.05	1068.92
624.40	1070.80
624.75	1071.73
625.09	1078.52
625.44	1090.46
625.78	1097.24
626.13	1093.50
626.48	1083.20
626.82	1082.73
627.17	1073.84
627.51	1081.56
627.86	1091.86
628.20	1103.09
628.55	1107.78
628.89	1106.37
629.24	1101.69
629.58	1094.67
629.93	1101.69
630.28	1082.50
630.62	1089.05
630.97	1093.97
631.31	1095.60
631.66	1084.84
632.00	1101.69
632.35	1092.80
632.69	1077.35
633.04	1080.39
633.38	1082.26
633.73	1072.43
634.07	1082.73
634.42	1087.88
634.76	1089.52
635.11	1079.92
635.45	1080.16
635.79	1075.24
636.14	1078.52
636.48	1074.54
636.83	1080.63
637.17	1079.92
637.52	1080.16
637.86	1071.03
638.21	1068.92
638.55	1084.37
638.89	1078.05
639.24	1070.09
639.58	1086.01
639.93	1084.60
640.27	1063.07
640.61	1070.33
640.96	1082.97
641.30	1071.97
641.65	1080.86
641.99	1088.58
642.33	1092.09
642.68	1085.07
643.02	1091.39
643.37	1082.26
643.71	1081.09
644.05	1074.31
644.40	1080.16
644.74	1076.18
645.08	1081.09
645.43	1084.14
645.77	1085.54
646.11	1081.09
646.46	1078.75
646.80	1071.73
647.14	1070.09
647.49	1068.92
647.83	1064.94
648.17	1056.52
648.52	1060.73
648.86	1056.28
649.20	1063.54
649.55	1075.01
649.89	1087.18
650.23	1082.97
650.57	1089.75
650.92	1086.71
651.26	1074.31
651.60	1078.28
651.95	1080.39
652.29	1073.14
652.63	1076.41
652.97	1084.37
653.32	1084.60
653.66	1085.77
654.00	1090.46
654.34	1083.67
654.69	1078.28
655.03	1067.28
655.37	1074.31
655.71	1077.11
656.05	1072.20
656.40	1069.86
656.74	1078.28
657.08	1082.26
657.42	1071.50
657.76	1078.99
658.11	1081.09
658.45	1073.37
658.79	1064.24
659.13	1071.50
659.47	1078.05
659.82	1080.39
660.16	1077.11
660.50	1073.60
660.84	1070.56
661.18	1070.33
661.52	1068.69
661.87	1068.22
662.21	1070.33
662.55	1069.16
662.89	1057.69
663.23	1060.96
663.57	1070.56
663.91	1072.43
664.25	1076.18
664.60	1087.41
664.94	1086.24
665.28	1081.09
665.62	1083.90
665.96	1087.41
666.30	1086.94
666.64	1091.16
666.98	1088.12
667.32	1081.09
667.66	1075.24
668.01	1061.90
668.35	1059.09
668.69	1063.54
669.03	1064.24
669.37	1068.69
669.71	1070.09
670.05	1071.97
670.39	1075.94
670.73	1085.54
671.07	1088.35
671.41	1095.14
671.75	1092.80
672.09	1091.39
672.43	1077.82
672.77	1071.03
673.11	1072.90
673.45	1076.41
673.79	1075.94
674.13	1067.28
674.47	1070.33
674.81	1076.41
675.15	1077.82
675.49	1076.18
675.83	1091.16
676.17	1090.22
676.51	1089.29
676.85	1086.71
677.19	1091.39
677.53	1099.82
677.87	1100.05
678.21	1088.35
678.55	1094.90
678.89	1097.24
679.23	1078.99
679.57	1081.33
679.90	1083.20
680.24	1073.14
680.58	1069.62
680.92	1074.31
681.26	1076.41
681.60	1085.31
681.94	1090.69
682.28	1091.16
682.62	1096.78
682.96	1093.03
683.29	1090.69
683.63	1091.16
683.97	1093.26
684.31	1094.43
684.65	1089.75
684.99	1087.18
685.33	1084.37
685.67	1078.05
686.00	1089.99
686.34	1089.29
686.68	1086.48
687.02	1082.26
687.36	1085.77
687.70	1081.09
688.03	1082.73
688.37	1086.48
688.71	1096.31
689.05	1088.58
689.39	1081.56
689.72	1071.03
690.06	1067.05
690.40	1063.07
690.74	1077.11
691.08	1068.69
691.41	1085.07
691.75	1085.54
692.09	1078.05
692.43	1076.41
692.76	1080.86
693.10	1081.56
693.44	1085.54
693.78	1089.52
694.11	1087.88
694.45	1088.82
694.79	1082.26
695.13	1070.56
695.46	1072.43
695.80	1057.22
696.14	1057.92
696.48	1059.56
696.81	1079.69
697.15	1077.11
697.49	1076.41
697.82	1074.54
698.16	1075.24
698.50	1069.62
698.83	1070.56
699.17	1072.43
699.51	1079.46
699.84	1089.99
700.18	1085.77
700.52	1082.03
700.85	1091.63
701.19	1078.52
701.53	1071.97
701.86	1075.48
702.20	1075.94
702.54	1068.92
702.87	1086.24
703.21	1083.90
703.55	1086.24
703.88	1091.86
704.22	1090.46
704.55	1078.52
704.89	1074.07
705.23	1066.35
705.56	1063.31
705.90	1073.60
706.23	1075.24
706.57	1072.67
706.91	1076.41
707.24	1073.14
707.58	1070.56
707.91	1068.92
708.25	1073.60
708.58	1080.63
708.92	1092.56
709.26	1095.14
709.59	1096.54
709.93	1095.60
710.26	1091.63
710.60	1078.99
710.93	1079.46
711.27	1078.05
711.60	1085.31
711.94	1084.84
712.27	1093.50
712.61	1088.58
712.94	1089.05
713.28	1084.14
713.61	1077.35
713.95	1065.41
714.28	1066.35
714.62	1068.92
714.95	1065.88
715.29	1062.37
715.62	1079.46
715.96	1078.75
716.29	1076.65
716.63	1087.41
716.96	1094.90
717.29	1088.12
717.63	1085.07
717.96	1085.77
718.30	1074.77
718.63	1072.67
718.97	1076.65
719.30	1086.71
719.63	1094.67
719.97	1098.88
720.30	1098.18
720.64	1094.43
720.97	1093.03
721.30	1089.52
721.64	1088.82
721.97	1094.20
722.31	1084.60
722.64	1074.07
722.97	1072.90
723.31	1065.41
723.64	1058.62
723.97	1065.18
724.31	1071.50
724.64	1073.37
724.98	1075.24
725.31	1075.48
725.64	1081.80
725.98	1078.05
726.31	1070.33
726.64	1080.16
726.97	1086.01
727.31	1069.62
727.64	1069.39
727.97	1075.71
728.31	1069.62
728.64	1061.43
728.97	1069.16
729.31	1072.43
729.64	1069.86
729.97	1074.07
730.30	1081.33
730.64	1084.84
730.97	1093.50
731.30	1079.69
731.63	1077.82
731.97	1076.65
732.30	1081.56
732.63	1081.09
732.96	1082.26
733.30	1076.65
733.63	1079.92
733.96	1068.69
734.29	1060.73
734.63	1080.63
734.96	1073.60
735.29	1059.79
735.62	1057.22
735.95	1056.99
736.29	1050.90
736.62	1065.88
736.95	1074.07
737.28	1086.94
737.61	1090.22
737.94	1083.20
738.28	1081.09
738.61	1080.86
738.94	1084.84
739.27	1094.67
739.60	1093.73
739.93	1097.71
740.27	1097.95
740.60	1090.69
740.93	1075.71
741.26	1079.69
741.59	1079.46
741.92	1078.52
742.25	1074.77
742.58	1071.03
742.91	1081.33
743.25	1079.46
743.58	1076.18
743.91	1081.09
744.24	1077.58
744.57	1071.26
744.90	1067.99
745.23	1069.86
745.56	1067.99
745.89	1071.03
746.22	1065.18
746.55	1064.01
746.88	1067.52
747.21	1061.90
747.54	1065.88
747.87	1072.90
748.20	1079.69
748.53	1087.65
748.87	1092.33
749.20	1098.65
749.53	1105.90
749.86	1103.80
750.19	1090.46
750.52	1091.63
750.85	1089.75
751.18	1079.22
751.51	1084.84
751.84	1091.16
752.16	1088.58
752.49	1092.56
752.82	1094.20
753.15	1079.69
753.48	1076.18
753.81	1081.09
754.14	1075.94
754.47	1081.80
754.80	1078.05
755.13	1080.63
755.46	1080.63
755.79	1076.88
756.12	1074.54
756.45	1087.18
756.78	1088.82
757.11	1089.52
757.43	1094.20
757.76	1080.16
758.09	1083.20
758.42	1086.94
758.75	1087.18
759.08	1086.01
759.41	1102.86
759.74	1096.78
760.07	1085.54
760.39	1082.50
760.72	1093.97
761.05	1093.50
761.38	1095.60
761.71	1100.29
762.04	1102.86
762.36	1092.56
762.69	1093.26
763.02	1091.86
763.35	1089.05
763.68	1086.71
764.01	1082.73
764.33	1072.20
764.66	1067.75
764.99	1065.41
765.32	1067.05
765.65	1070.09
765.97	1075.24
766.30	1081.33
