SpectraSuite Data File
++++++++++++++++++++++++++++++++++++
Date: Mon Aug 26 10:25:45 PDT 2019
User: corrico
Dark Spectrum Present: No
Reference Spectrum Present: No
Number of Sampled Component Spectra: 1
Spectrometers: USB2+H06089
Integration Time (usec): 10000 (USB2+H06089)
Spectra Averaged: 2 (USB2+H06089)
Boxcar Smoothing: 2 (USB2+H06089)
Correct for Electrical Dark: No (USB2+H06089)
Strobe/Lamp Enabled: No (USB2+H06089)
Correct for Detector Non-linearity: No (USB2+H06089)
Correct for Stray Light: No (USB2+H06089)
Number of Pixels in Processed Spectrum: 2048
>>>>>Begin Processed Spectral Data<<<<<
339.70	1043.88
340.07	1043.88
340.45	1004.09
340.82	973.43
341.19	950.02
341.57	919.60
341.94	907.89
342.31	906.02
342.69	914.21
343.06	909.30
343.43	902.98
343.81	906.72
344.18	904.15
344.55	899.47
344.93	902.28
345.30	921.00
345.67	926.62
346.04	927.32
346.42	937.15
346.79	946.98
347.16	953.77
347.54	957.98
347.91	983.49
348.28	994.96
348.65	1001.05
349.03	1008.07
349.40	1024.22
349.77	1016.03
350.14	1016.03
350.52	1029.37
350.89	1034.28
351.26	1033.11
351.63	1048.56
352.01	1068.69
352.38	1069.16
352.75	1076.18
353.12	1081.56
353.50	1082.73
353.87	1078.05
354.24	1088.58
354.61	1092.09
354.98	1099.58
355.36	1098.65
355.73	1093.03
356.10	1086.48
356.47	1081.33
356.84	1078.28
357.22	1081.33
357.59	1098.41
357.96	1104.03
358.33	1092.33
358.70	1096.31
359.08	1091.16
359.45	1081.80
359.82	1079.92
360.19	1097.01
360.56	1090.22
360.94	1087.41
361.31	1083.20
361.68	1077.82
362.05	1074.77
362.42	1083.67
362.79	1089.99
363.16	1093.50
363.54	1095.14
363.91	1099.35
364.28	1094.20
364.65	1086.48
365.02	1076.41
365.39	1077.35
365.76	1065.88
366.14	1061.43
366.51	1063.77
366.88	1070.33
367.25	1067.99
367.62	1068.22
367.99	1065.41
368.36	1063.54
368.73	1045.75
369.10	1046.45
369.48	1050.20
369.85	1059.79
370.22	1061.67
370.59	1080.86
370.96	1074.54
371.33	1072.67
371.70	1060.26
372.07	1060.03
372.44	1054.41
372.81	1054.88
373.18	1050.20
373.55	1058.86
373.93	1053.71
374.30	1055.11
374.67	1055.11
375.04	1057.69
375.41	1058.16
375.78	1067.05
376.15	1068.45
376.52	1062.37
376.89	1067.52
377.26	1055.82
377.63	1057.45
378.00	1062.37
378.37	1077.82
378.74	1082.03
379.11	1098.65
379.48	1092.33
379.85	1087.88
380.22	1090.92
380.59	1090.22
380.96	1067.99
381.33	1070.09
381.70	1066.35
382.07	1059.33
382.44	1052.77
382.81	1060.03
383.18	1061.43
383.55	1060.26
383.92	1053.94
384.29	1055.35
384.66	1059.33
385.03	1065.88
385.40	1072.90
385.77	1085.77
386.14	1089.29
386.51	1101.46
386.88	1092.56
387.25	1088.82
387.62	1085.07
387.99	1075.24
388.36	1059.33
388.73	1063.31
389.10	1063.77
389.46	1060.26
389.83	1064.71
390.20	1082.97
390.57	1076.65
390.94	1083.20
391.31	1080.39
391.68	1090.69
392.05	1074.31
392.42	1073.37
392.79	1067.28
393.16	1067.75
393.53	1064.94
393.89	1069.16
394.26	1074.77
394.63	1072.67
395.00	1074.54
395.37	1070.80
395.74	1075.01
396.11	1080.39
396.48	1086.24
396.84	1086.24
397.21	1085.54
397.58	1076.18
397.95	1078.28
398.32	1077.82
398.69	1082.26
399.06	1084.84
399.42	1094.67
399.79	1091.63
400.16	1084.37
400.53	1084.14
400.90	1076.88
401.27	1071.73
401.64	1072.67
402.00	1075.94
402.37	1064.01
402.74	1068.92
403.11	1072.43
403.48	1068.92
403.84	1071.26
404.21	1087.65
404.58	1091.63
404.95	1081.80
405.32	1092.33
405.68	1097.01
406.05	1092.56
406.42	1087.41
406.79	1097.71
407.16	1088.35
407.52	1077.35
407.89	1066.82
408.26	1064.01
408.63	1062.60
408.99	1069.62
409.36	1076.18
409.73	1077.11
410.10	1083.67
410.47	1091.63
410.83	1079.22
411.20	1071.50
411.57	1075.24
411.94	1066.35
412.30	1060.03
412.67	1067.75
413.04	1075.24
413.40	1075.94
413.77	1078.52
414.14	1073.60
414.51	1069.86
414.87	1065.18
415.24	1064.94
415.61	1067.99
415.97	1065.88
416.34	1062.84
416.71	1068.92
417.08	1070.09
417.44	1065.88
417.81	1069.39
418.18	1068.45
418.54	1062.60
418.91	1060.26
419.28	1061.43
419.64	1063.07
420.01	1063.77
420.38	1074.31
420.74	1081.80
421.11	1084.37
421.48	1075.94
421.84	1066.11
422.21	1066.82
422.58	1063.07
422.94	1059.56
423.31	1069.62
423.68	1079.22
424.04	1071.03
424.41	1076.88
424.77	1089.29
425.14	1089.29
425.51	1082.26
425.87	1075.48
426.24	1065.88
426.61	1063.54
426.97	1061.90
427.34	1063.31
427.70	1074.07
428.07	1081.80
428.44	1077.58
428.80	1076.88
429.17	1082.73
429.53	1082.03
429.90	1077.58
430.27	1074.54
430.63	1067.75
431.00	1066.82
431.36	1065.88
431.73	1072.90
432.09	1072.43
432.46	1085.31
432.83	1080.16
433.19	1075.24
433.56	1071.26
433.92	1068.92
434.29	1065.41
434.65	1073.84
435.02	1071.73
435.38	1069.86
435.75	1080.16
436.11	1077.35
436.48	1078.28
436.84	1076.18
437.21	1065.18
437.57	1058.16
437.94	1064.94
438.30	1066.11
438.67	1080.39
439.03	1095.60
439.40	1092.09
439.76	1087.41
440.13	1084.60
440.49	1085.07
440.86	1076.18
441.22	1085.54
441.59	1076.88
441.95	1074.07
442.32	1068.92
442.68	1074.07
443.05	1074.07
443.41	1085.07
443.78	1090.22
444.14	1084.60
444.51	1083.90
444.87	1082.26
445.24	1082.03
445.60	1081.80
445.96	1081.80
446.33	1073.14
446.69	1074.07
447.06	1075.94
447.42	1077.82
447.79	1080.16
448.15	1089.05
448.51	1087.65
448.88	1081.80
449.24	1076.18
449.61	1078.75
449.97	1078.75
450.33	1081.56
450.70	1080.63
451.06	1082.26
451.43	1079.92
451.79	1080.86
452.15	1082.97
452.52	1088.12
452.88	1091.63
453.24	1094.20
453.61	1100.52
453.97	1102.86
454.34	1092.09
454.70	1083.90
455.06	1086.71
455.43	1081.56
455.79	1073.14
456.15	1087.65
456.52	1081.09
456.88	1086.71
457.24	1080.63
457.61	1075.01
457.97	1059.33
458.33	1081.80
458.70	1067.99
459.06	1081.09
459.42	1092.80
459.79	1111.05
460.15	1103.09
460.51	1111.29
460.88	1104.50
461.24	1093.73
461.60	1089.75
461.96	1093.50
462.33	1092.09
462.69	1083.20
463.05	1087.41
463.42	1082.26
463.78	1072.43
464.14	1075.01
464.50	1078.05
464.87	1078.75
465.23	1080.86
465.59	1085.07
465.95	1074.77
466.32	1071.50
466.68	1075.94
467.04	1071.73
467.40	1058.62
467.77	1064.01
468.13	1075.71
468.49	1076.65
468.85	1082.03
469.22	1091.63
469.58	1092.80
469.94	1085.77
470.30	1072.67
470.66	1063.54
471.03	1070.09
471.39	1071.50
471.75	1074.31
472.11	1082.03
472.47	1081.56
472.84	1082.26
473.20	1075.01
473.56	1072.67
473.92	1071.97
474.28	1075.48
474.65	1065.41
475.01	1069.86
475.37	1078.99
475.73	1078.99
476.09	1078.05
476.45	1083.20
476.81	1080.16
477.18	1069.86
477.54	1056.28
477.90	1058.86
478.26	1056.75
478.62	1055.11
478.98	1056.75
479.34	1075.24
479.71	1075.71
480.07	1076.88
480.43	1086.71
480.79	1083.43
481.15	1083.20
481.51	1075.94
481.87	1086.24
482.23	1084.14
482.59	1090.46
482.96	1079.22
483.32	1092.56
483.68	1089.99
484.04	1091.86
484.40	1082.03
484.76	1088.12
485.12	1076.18
485.48	1074.54
485.84	1075.94
486.20	1088.35
486.56	1095.37
486.92	1108.24
487.28	1106.61
487.64	1098.65
488.00	1088.12
488.37	1089.29
488.73	1083.43
489.09	1080.86
489.45	1080.16
489.81	1081.09
490.17	1073.60
490.53	1069.39
490.89	1070.09
491.25	1073.14
491.61	1070.56
491.97	1073.84
492.33	1077.82
492.69	1083.67
493.05	1083.43
493.41	1088.12
493.77	1085.54
494.13	1085.54
494.49	1074.31
494.85	1068.92
495.21	1069.62
495.57	1071.50
495.93	1066.82
496.29	1077.58
496.64	1086.01
497.00	1083.67
497.36	1077.35
497.72	1081.80
498.08	1084.60
498.44	1076.88
498.80	1083.90
499.16	1086.71
499.52	1085.77
499.88	1075.71
500.24	1075.94
500.60	1079.92
500.96	1080.86
501.32	1083.67
501.68	1085.54
502.03	1088.35
502.39	1080.86
502.75	1084.37
503.11	1078.99
503.47	1076.88
503.83	1083.20
504.19	1085.54
504.55	1080.86
504.91	1088.12
505.26	1096.07
505.62	1093.03
505.98	1090.22
506.34	1090.46
506.70	1079.22
507.06	1074.07
507.42	1075.71
507.78	1081.80
508.13	1082.03
508.49	1095.37
508.85	1100.29
509.21	1093.03
509.57	1082.26
509.93	1083.67
510.28	1086.01
510.64	1087.18
511.00	1090.69
511.36	1091.63
511.72	1092.56
512.07	1079.22
512.43	1072.67
512.79	1080.63
513.15	1092.09
513.51	1082.26
513.86	1088.58
514.22	1090.92
514.58	1085.77
514.94	1078.52
515.30	1097.71
515.65	1098.41
516.01	1083.67
516.37	1079.92
516.73	1078.99
517.08	1063.07
517.44	1061.90
517.80	1067.99
518.16	1064.01
518.51	1064.48
518.87	1075.24
519.23	1072.90
519.59	1079.92
519.94	1089.29
520.30	1094.43
520.66	1094.20
521.01	1097.48
521.37	1101.46
521.73	1106.61
522.09	1096.78
522.44	1097.01
522.80	1092.33
523.16	1096.54
523.51	1087.65
523.87	1089.29
524.23	1088.35
524.58	1093.50
524.94	1094.90
525.30	1098.88
525.65	1102.63
526.01	1094.67
526.37	1088.35
526.72	1080.63
527.08	1074.77
527.44	1072.20
527.79	1069.86
528.15	1081.56
528.51	1074.54
528.86	1074.77
529.22	1076.18
529.58	1092.33
529.93	1082.03
530.29	1088.35
530.65	1093.97
531.00	1098.41
531.36	1089.05
531.71	1091.63
532.07	1092.56
532.43	1091.39
532.78	1082.50
533.14	1078.28
533.49	1078.99
533.85	1080.39
534.21	1077.58
534.56	1084.14
534.92	1083.67
535.27	1073.60
535.63	1065.65
535.98	1068.69
536.34	1060.96
536.69	1065.41
537.05	1075.48
537.41	1075.71
537.76	1075.24
538.12	1088.82
538.47	1089.99
538.83	1089.05
539.18	1089.52
539.54	1089.29
539.89	1077.82
540.25	1077.11
540.60	1082.50
540.96	1097.71
541.31	1093.97
541.67	1094.43
542.02	1087.65
542.38	1087.88
542.73	1078.75
543.09	1073.84
543.44	1082.50
543.80	1087.88
544.15	1085.07
544.51	1085.77
544.86	1092.09
545.22	1095.60
545.57	1097.48
545.93	1091.39
546.28	1090.46
546.64	1084.37
546.99	1072.43
547.35	1076.18
547.70	1074.54
548.05	1067.75
548.41	1075.01
548.76	1073.37
549.12	1065.41
549.47	1071.03
549.83	1074.77
550.18	1071.50
550.53	1078.28
550.89	1081.56
551.24	1079.46
551.60	1083.90
551.95	1083.20
552.30	1088.12
552.66	1082.50
553.01	1079.92
553.37	1082.26
553.72	1087.41
554.07	1083.90
554.43	1089.52
554.78	1100.05
555.13	1093.50
555.49	1092.56
555.84	1091.16
556.19	1096.54
556.55	1088.12
556.90	1089.05
557.26	1085.54
557.61	1085.54
557.96	1073.60
558.32	1073.84
558.67	1080.63
559.02	1087.41
559.37	1090.46
559.73	1099.82
560.08	1108.01
560.43	1100.52
560.79	1102.63
561.14	1098.41
561.49	1088.35
561.85	1082.97
562.20	1080.63
562.55	1079.92
562.90	1079.92
563.26	1091.63
563.61	1093.73
563.96	1095.60
564.32	1084.14
564.67	1082.03
565.02	1078.52
565.37	1073.60
565.73	1074.07
566.08	1080.16
566.43	1072.20
566.78	1068.69
567.14	1066.11
567.49	1064.71
567.84	1071.03
568.19	1088.82
568.54	1094.43
568.90	1091.16
569.25	1089.29
569.60	1088.12
569.95	1078.75
570.31	1075.94
570.66	1083.20
571.01	1086.71
571.36	1086.24
571.71	1096.07
572.06	1091.39
572.42	1091.16
572.77	1086.94
573.12	1083.67
573.47	1085.54
573.82	1092.09
574.18	1094.90
574.53	1093.26
574.88	1092.09
575.23	1082.97
575.58	1085.54
575.93	1083.67
576.28	1100.05
576.64	1095.84
576.99	1090.46
577.34	1087.65
577.69	1092.09
578.04	1076.18
578.39	1077.11
578.74	1078.75
579.09	1072.90
579.44	1069.86
579.80	1085.77
580.15	1094.67
580.50	1095.84
580.85	1101.69
581.20	1105.67
581.55	1101.92
581.90	1094.20
582.25	1091.86
582.60	1095.60
582.95	1086.24
583.30	1077.35
583.65	1074.77
584.00	1078.28
584.35	1074.31
584.71	1070.80
585.06	1074.54
585.41	1078.52
585.76	1082.03
586.11	1076.65
586.46	1082.03
586.81	1080.86
587.16	1076.65
587.51	1076.88
587.86	1080.16
588.21	1075.24
588.56	1069.62
588.91	1076.65
589.26	1068.45
589.61	1076.18
589.96	1078.28
590.31	1092.80
590.66	1079.22
591.01	1081.56
591.36	1079.69
591.71	1084.60
592.06	1076.41
592.41	1089.52
592.76	1092.56
593.10	1092.09
593.45	1093.26
593.80	1098.65
594.15	1092.80
594.50	1095.37
594.85	1091.16
595.20	1094.20
595.55	1086.94
595.90	1088.12
596.25	1084.14
596.60	1081.33
596.95	1076.88
597.30	1077.58
597.64	1136.10
597.99	1139.14
598.34	1139.37
598.69	1135.86
599.04	1135.86
599.39	1078.28
599.74	1079.46
600.09	1075.94
600.44	1084.60
600.78	1087.65
601.13	1094.67
601.48	1095.60
601.83	1101.22
602.18	1095.60
602.53	1095.14
602.88	1091.86
603.22	1092.56
603.57	1097.95
603.92	1104.26
604.27	1102.63
604.62	1098.41
604.97	1084.14
605.31	1072.43
605.66	1063.31
606.01	1065.18
606.36	1065.65
606.71	1081.56
607.05	1085.77
607.40	1088.82
607.75	1092.80
608.10	1101.46
608.44	1097.71
608.79	1091.39
609.14	1098.65
609.49	1089.99
609.84	1084.14
610.18	1089.52
610.53	1098.65
610.88	1094.43
611.23	1098.88
611.57	1103.80
611.92	1095.14
612.27	1096.54
612.62	1106.61
612.96	1103.09
613.31	1096.31
613.66	1095.60
614.00	1091.16
614.35	1079.92
614.70	1077.58
615.05	1075.24
615.39	1079.22
615.74	1079.22
616.09	1079.92
616.43	1092.09
616.78	1098.65
617.13	1096.78
617.47	1101.69
617.82	1098.65
618.17	1081.56
618.51	1085.54
618.86	1087.41
619.21	1099.58
619.55	1100.29
619.90	1111.29
620.25	1105.90
620.59	1104.73
620.94	1085.54
621.29	1086.71
621.63	1089.29
621.98	1086.24
622.32	1085.31
622.67	1088.58
623.02	1085.54
623.36	1090.22
623.71	1086.94
624.05	1087.18
624.40	1082.50
624.75	1083.43
625.09	1073.37
625.44	1071.50
625.78	1071.50
626.13	1077.35
626.48	1075.48
626.82	1082.03
627.17	1092.33
627.51	1083.43
627.86	1085.77
628.20	1091.86
628.55	1088.58
628.89	1090.69
629.24	1102.39
629.58	1099.58
629.93	1098.41
630.28	1097.71
630.62	1089.99
630.97	1089.05
631.31	1078.05
631.66	1068.92
632.00	1078.28
632.35	1086.24
632.69	1079.69
633.04	1086.71
633.38	1096.54
633.73	1082.03
634.07	1075.71
634.42	1080.63
634.76	1087.41
635.11	1087.88
635.45	1093.26
635.79	1078.99
636.14	1075.94
636.48	1071.50
636.83	1072.20
637.17	1071.73
637.52	1083.90
637.86	1086.24
638.21	1089.99
638.55	1090.69
638.89	1093.97
639.24	1087.41
639.58	1087.65
639.93	1076.18
640.27	1064.01
640.61	1053.48
640.96	1064.94
641.30	1058.86
641.65	1066.11
641.99	1079.69
642.33	1086.48
642.68	1081.56
643.02	1085.07
643.37	1087.65
643.71	1078.99
644.05	1072.20
644.40	1078.05
644.74	1083.20
645.08	1081.56
645.43	1086.24
645.77	1100.05
646.11	1096.78
646.46	1102.39
646.80	1100.05
647.14	1092.80
647.49	1085.31
647.83	1083.20
648.17	1077.35
648.52	1089.05
648.86	1097.95
649.20	1094.67
649.55	1095.60
649.89	1089.75
650.23	1080.16
650.57	1071.97
650.92	1075.24
651.26	1074.54
651.60	1079.92
651.95	1082.97
652.29	1082.03
652.63	1075.94
652.97	1075.48
653.32	1075.48
653.66	1068.69
654.00	1062.14
654.34	1073.37
654.69	1077.82
655.03	1082.97
655.37	1087.65
655.71	1090.92
656.05	1089.99
656.40	1092.09
656.74	1084.37
657.08	1083.90
657.42	1094.20
657.76	1091.63
658.11	1078.99
658.45	1079.92
658.79	1076.65
659.13	1073.84
659.47	1069.62
659.82	1075.94
660.16	1063.31
660.50	1072.90
660.84	1072.20
661.18	1075.94
661.52	1079.92
661.87	1085.54
662.21	1073.60
662.55	1077.35
662.89	1081.33
663.23	1080.39
663.57	1084.14
663.91	1083.43
664.25	1078.05
664.60	1074.77
664.94	1076.65
665.28	1081.09
665.62	1087.18
665.96	1099.35
666.30	1087.41
666.64	1080.63
666.98	1075.48
667.32	1084.14
667.66	1076.41
668.01	1086.48
668.35	1087.41
668.69	1088.12
669.03	1076.18
669.37	1077.35
669.71	1073.84
670.05	1073.60
670.39	1075.24
670.73	1088.58
671.07	1079.22
671.41	1083.20
671.75	1076.18
672.09	1084.14
672.43	1082.73
672.77	1082.50
673.11	1078.52
673.45	1086.01
673.79	1080.63
674.13	1081.33
674.47	1079.22
674.81	1080.16
675.15	1088.35
675.49	1084.60
675.83	1077.82
676.17	1087.41
676.51	1094.43
676.85	1093.03
677.19	1094.43
677.53	1096.31
677.87	1094.90
678.21	1086.71
678.55	1088.35
678.89	1089.75
679.23	1084.60
679.57	1089.29
679.90	1096.78
680.24	1089.99
680.58	1091.86
680.92	1096.31
681.26	1090.46
681.60	1087.41
681.94	1092.33
682.28	1090.69
682.62	1085.31
682.96	1090.69
683.29	1091.86
683.63	1088.35
683.97	1093.97
684.31	1098.65
684.65	1097.48
684.99	1092.09
685.33	1096.07
685.67	1088.58
686.00	1076.88
686.34	1068.45
686.68	1063.54
687.02	1058.62
687.36	1060.96
687.70	1068.69
688.03	1081.80
688.37	1082.73
688.71	1091.63
689.05	1091.16
689.39	1092.80
689.72	1078.28
690.06	1088.58
690.40	1077.35
690.74	1076.65
691.08	1069.62
691.41	1077.82
691.75	1073.60
692.09	1074.77
692.43	1084.37
692.76	1085.54
693.10	1089.99
693.44	1087.41
693.78	1087.88
694.11	1075.24
694.45	1080.39
694.79	1077.58
695.13	1082.73
695.46	1082.73
695.80	1087.65
696.14	1083.67
696.48	1082.50
696.81	1076.41
697.15	1078.05
697.49	1078.52
697.82	1081.33
698.16	1074.77
698.50	1076.18
698.83	1069.39
699.17	1072.67
699.51	1075.48
699.84	1083.90
700.18	1084.14
700.52	1089.29
700.85	1088.12
701.19	1084.60
701.53	1084.37
701.86	1090.69
702.20	1087.18
702.54	1091.16
702.87	1096.54
703.21	1085.54
703.55	1086.01
703.88	1092.09
704.22	1080.86
704.55	1070.56
704.89	1084.14
705.23	1078.28
705.56	1079.22
705.90	1072.43
706.23	1085.77
706.57	1081.56
706.91	1080.63
707.24	1069.62
707.58	1077.82
707.91	1073.37
708.25	1075.24
708.58	1074.77
708.92	1077.82
709.26	1078.28
709.59	1075.94
709.93	1068.69
710.26	1064.48
710.60	1059.09
710.93	1057.22
711.27	1060.26
711.60	1058.39
711.94	1065.65
712.27	1077.11
712.61	1080.39
712.94	1077.58
713.28	1085.07
713.61	1084.37
713.95	1086.48
714.28	1083.90
714.62	1090.46
714.95	1087.41
715.29	1090.69
715.62	1079.22
715.96	1074.07
716.29	1076.18
716.63	1073.14
716.96	1068.45
717.29	1075.24
717.63	1078.05
717.96	1069.86
718.30	1074.54
718.63	1072.43
718.97	1075.71
719.30	1075.94
719.63	1078.28
719.97	1080.16
720.30	1082.03
720.64	1081.33
720.97	1082.03
721.30	1081.80
721.64	1075.48
721.97	1073.37
722.31	1062.60
722.64	1067.05
722.97	1069.16
723.31	1074.31
723.64	1081.80
723.97	1087.41
724.31	1085.77
724.64	1077.82
724.98	1077.58
725.31	1073.60
725.64	1071.03
725.98	1067.99
726.31	1060.73
726.64	1052.07
726.97	1054.41
727.31	1056.52
727.64	1065.18
727.97	1077.82
728.31	1084.60
728.64	1081.56
728.97	1085.77
729.31	1081.56
729.64	1075.01
729.97	1075.24
730.30	1073.14
730.64	1064.01
730.97	1059.79
731.30	1069.39
731.63	1076.41
731.97	1084.14
732.30	1092.09
732.63	1095.14
732.96	1092.80
733.30	1081.33
733.63	1082.03
733.96	1082.50
734.29	1083.43
734.63	1080.63
734.96	1087.18
735.29	1079.92
735.62	1086.71
735.95	1087.41
736.29	1098.41
736.62	1098.18
736.95	1106.61
737.28	1110.58
737.61	1107.31
737.94	1096.31
738.28	1089.75
738.61	1084.37
738.94	1070.80
739.27	1079.92
739.60	1087.65
739.93	1097.24
740.27	1100.75
740.60	1109.41
740.93	1103.56
741.26	1094.67
741.59	1085.31
741.92	1092.56
742.25	1087.88
742.58	1086.01
742.91	1093.97
743.25	1108.71
743.58	1100.75
743.91	1098.41
744.24	1100.29
744.57	1086.01
744.90	1066.35
745.23	1060.03
745.56	1053.48
745.89	1045.05
746.22	1058.39
746.55	1082.73
746.88	1078.99
747.21	1080.39
747.54	1080.86
747.87	1075.01
748.20	1051.60
748.53	1052.07
748.87	1064.24
749.20	1077.82
749.53	1087.88
749.86	1098.18
750.19	1108.24
750.52	1109.88
750.85	1097.01
751.18	1084.60
751.51	1085.31
751.84	1086.24
752.16	1085.31
752.49	1095.60
752.82	1099.35
753.15	1103.80
753.48	1085.31
753.81	1077.35
754.14	1073.37
754.47	1074.31
754.80	1060.73
755.13	1072.67
755.46	1064.71
755.79	1062.84
756.12	1064.48
756.45	1072.90
756.78	1069.39
757.11	1080.39
757.43	1081.09
757.76	1078.28
758.09	1081.56
758.42	1086.94
758.75	1086.48
759.08	1081.56
759.41	1079.69
759.74	1080.39
760.07	1080.16
760.39	1080.86
760.72	1099.82
761.05	1100.52
761.38	1099.35
761.71	1102.16
762.04	1104.26
762.36	1086.94
762.69	1094.43
763.02	1091.39
763.35	1093.50
763.68	1088.82
764.01	1089.99
764.33	1086.48
764.66	1083.20
764.99	1072.90
765.32	1070.09
765.65	1077.58
765.97	1072.20
766.30	1075.71
