SpectraSuite Data File
++++++++++++++++++++++++++++++++++++
Date: Mon Aug 26 10:25:49 PDT 2019
User: corrico
Dark Spectrum Present: No
Reference Spectrum Present: No
Number of Sampled Component Spectra: 1
Spectrometers: USB2+H06089
Integration Time (usec): 10000 (USB2+H06089)
Spectra Averaged: 2 (USB2+H06089)
Boxcar Smoothing: 2 (USB2+H06089)
Correct for Electrical Dark: No (USB2+H06089)
Strobe/Lamp Enabled: No (USB2+H06089)
Correct for Detector Non-linearity: No (USB2+H06089)
Correct for Stray Light: No (USB2+H06089)
Number of Pixels in Processed Spectrum: 2048
>>>>>Begin Processed Spectral Data<<<<<
339.70	986.54
340.07	986.54
340.45	973.90
340.82	964.77
341.19	944.17
341.57	928.96
341.94	908.60
342.31	899.00
342.69	894.08
343.06	903.91
343.43	900.87
343.81	916.09
344.18	917.02
344.55	909.30
344.93	894.08
345.30	900.17
345.67	909.06
346.04	910.23
346.42	933.87
346.79	960.09
347.16	969.45
347.54	976.24
347.91	980.68
348.28	978.11
348.65	986.30
349.03	998.94
349.40	1000.58
349.77	1010.88
350.14	1015.79
350.52	1020.47
350.89	1027.50
351.26	1038.03
351.63	1053.24
352.01	1062.84
352.38	1066.11
352.75	1070.09
353.12	1069.62
353.50	1067.99
353.87	1070.56
354.24	1074.77
354.61	1064.01
354.98	1067.05
355.36	1068.92
355.73	1074.54
356.10	1075.48
356.47	1085.77
356.84	1082.03
357.22	1079.46
357.59	1075.94
357.96	1069.86
358.33	1063.07
358.70	1063.31
359.08	1065.65
359.45	1063.77
359.82	1071.26
360.19	1077.11
360.56	1083.90
360.94	1071.03
361.31	1073.84
361.68	1074.07
362.05	1072.67
362.42	1064.71
362.79	1073.60
363.16	1064.94
363.54	1056.52
363.91	1056.05
364.28	1063.77
364.65	1057.92
365.02	1064.71
365.39	1061.67
365.76	1055.58
366.14	1055.58
366.51	1058.86
366.88	1051.84
367.25	1050.67
367.62	1054.41
367.99	1051.84
368.36	1046.92
368.73	1052.07
369.10	1058.39
369.48	1056.99
369.85	1058.16
370.22	1065.41
370.59	1069.86
370.96	1069.39
371.33	1075.71
371.70	1072.20
372.07	1076.88
372.44	1060.73
372.81	1061.43
373.18	1067.05
373.55	1068.69
373.93	1061.67
374.30	1067.28
374.67	1071.03
375.04	1057.92
375.41	1059.09
375.78	1064.01
376.15	1076.41
376.52	1071.50
376.89	1078.75
377.26	1075.48
377.63	1074.54
378.00	1073.84
378.37	1072.90
378.74	1069.16
379.11	1070.80
379.48	1073.37
379.85	1061.90
380.22	1061.43
380.59	1056.28
380.96	1054.41
381.33	1047.16
381.70	1061.90
382.07	1061.43
382.44	1057.69
382.81	1054.65
383.18	1060.73
383.55	1053.71
383.92	1046.22
384.29	1049.73
384.66	1056.75
385.03	1041.07
385.40	1038.03
385.77	1051.13
386.14	1067.28
386.51	1076.41
386.88	1090.92
387.25	1092.09
387.62	1089.75
387.99	1082.73
388.36	1075.01
388.73	1075.94
389.10	1082.97
389.46	1082.50
389.83	1076.88
390.20	1070.56
390.57	1072.90
390.94	1064.01
391.31	1059.09
391.68	1067.28
392.05	1067.28
392.42	1062.37
392.79	1069.39
393.16	1077.11
393.53	1064.71
393.89	1070.80
394.26	1081.09
394.63	1083.90
395.00	1088.58
395.37	1098.65
395.74	1091.16
396.11	1083.90
396.48	1078.05
396.84	1075.94
397.21	1074.31
397.58	1083.90
397.95	1088.35
398.32	1089.99
398.69	1077.58
399.06	1076.65
399.42	1072.20
399.79	1067.05
400.16	1068.45
400.53	1077.82
400.90	1081.80
401.27	1079.69
401.64	1071.97
402.00	1072.43
402.37	1077.82
402.74	1080.63
403.11	1088.35
403.48	1084.37
403.84	1080.39
404.21	1075.01
404.58	1072.43
404.95	1071.03
405.32	1074.77
405.68	1078.05
406.05	1077.58
406.42	1066.58
406.79	1059.79
407.16	1064.01
407.52	1060.26
407.89	1065.65
408.26	1074.07
408.63	1073.60
408.99	1079.69
409.36	1086.48
409.73	1083.43
410.10	1075.94
410.47	1083.67
410.83	1072.20
411.20	1070.09
411.57	1064.24
411.94	1075.94
412.30	1069.16
412.67	1070.80
413.04	1067.99
413.40	1069.16
413.77	1051.13
414.14	1060.73
414.51	1063.77
414.87	1064.24
415.24	1069.86
415.61	1079.92
415.97	1077.58
416.34	1088.82
416.71	1087.41
417.08	1077.35
417.44	1078.75
417.81	1076.41
418.18	1071.03
418.54	1071.26
418.91	1079.46
419.28	1076.65
419.64	1080.39
420.01	1075.94
420.38	1080.86
420.74	1078.05
421.11	1075.71
421.48	1071.03
421.84	1070.80
422.21	1060.73
422.58	1070.80
422.94	1073.60
423.31	1075.48
423.68	1082.50
424.04	1087.18
424.41	1080.86
424.77	1087.65
425.14	1088.35
425.51	1080.63
425.87	1083.67
426.24	1083.20
426.61	1080.39
426.97	1082.97
427.34	1079.22
427.70	1080.63
428.07	1078.52
428.44	1076.18
428.80	1066.58
429.17	1072.43
429.53	1072.43
429.90	1067.28
430.27	1066.58
430.63	1075.94
431.00	1072.43
431.36	1062.84
431.73	1067.52
432.09	1072.90
432.46	1064.24
432.83	1067.05
433.19	1071.03
433.56	1067.75
433.92	1056.52
434.29	1067.05
434.65	1070.09
435.02	1068.92
435.38	1080.86
435.75	1086.48
436.11	1080.16
436.48	1083.67
436.84	1088.35
437.21	1083.43
437.57	1084.14
437.94	1077.11
438.30	1064.01
438.67	1056.28
439.03	1055.82
439.40	1052.77
439.76	1060.96
440.13	1071.50
440.49	1067.75
440.86	1059.56
441.22	1063.07
441.59	1073.37
441.95	1071.73
442.32	1078.75
442.68	1083.43
443.05	1082.97
443.41	1072.67
443.78	1070.33
444.14	1061.90
444.51	1066.35
444.87	1064.24
445.24	1067.75
445.60	1066.58
445.96	1074.77
446.33	1072.20
446.69	1075.24
447.06	1080.16
447.42	1084.14
447.79	1089.75
448.15	1096.07
448.51	1097.01
448.88	1092.56
449.24	1090.22
449.61	1086.01
449.97	1080.39
450.33	1073.60
450.70	1060.73
451.06	1063.54
451.43	1064.24
451.79	1061.20
452.15	1067.05
452.52	1067.99
452.88	1071.26
453.24	1073.60
453.61	1081.56
453.97	1083.43
454.34	1086.94
454.70	1085.54
455.06	1093.50
455.43	1082.03
455.79	1077.82
456.15	1079.22
456.52	1074.31
456.88	1067.05
457.24	1071.50
457.61	1066.35
457.97	1068.22
458.33	1073.37
458.70	1067.05
459.06	1068.22
459.42	1079.69
459.79	1087.65
460.15	1085.77
460.51	1089.99
460.88	1085.54
461.24	1082.73
461.60	1067.99
461.96	1071.26
462.33	1068.45
462.69	1066.11
463.05	1062.60
463.42	1063.54
463.78	1061.43
464.14	1059.79
464.50	1064.48
464.87	1062.60
465.23	1070.56
465.59	1072.20
465.95	1079.22
466.32	1080.16
466.68	1078.99
467.04	1076.18
467.40	1072.67
467.77	1063.54
468.13	1063.31
468.49	1066.11
468.85	1072.43
469.22	1082.26
469.58	1091.16
469.94	1088.35
470.30	1092.09
470.66	1089.99
471.03	1083.67
471.39	1079.46
471.75	1083.90
472.11	1088.58
472.47	1095.84
472.84	1092.33
473.20	1091.86
473.56	1089.29
473.92	1091.86
474.28	1085.07
474.65	1093.50
475.01	1100.75
475.37	1107.07
475.73	1100.29
476.09	1093.97
476.45	1081.80
476.81	1076.65
477.18	1063.54
477.54	1063.77
477.90	1064.94
478.26	1070.80
478.62	1076.88
478.98	1091.16
479.34	1093.03
479.71	1090.46
480.07	1084.60
480.43	1081.56
480.79	1073.37
481.15	1080.39
481.51	1083.90
481.87	1084.14
482.23	1085.77
482.59	1097.24
482.96	1091.63
483.32	1088.58
483.68	1087.88
484.04	1080.63
484.40	1072.43
484.76	1068.22
485.12	1066.35
485.48	1064.94
485.84	1062.14
486.20	1056.52
486.56	1056.05
486.92	1063.07
487.28	1074.77
487.64	1084.60
488.00	1091.39
488.37	1083.20
488.73	1085.31
489.09	1078.52
489.45	1080.16
489.81	1082.97
490.17	1092.56
490.53	1086.24
490.89	1093.26
491.25	1093.03
491.61	1075.94
491.97	1073.37
492.33	1080.39
492.69	1075.48
493.05	1076.65
493.41	1086.24
493.77	1086.24
494.13	1086.48
494.49	1091.16
494.85	1086.48
495.21	1089.52
495.57	1097.95
495.93	1094.43
496.29	1086.01
496.64	1085.31
497.00	1086.94
497.36	1085.77
497.72	1080.16
498.08	1074.31
498.44	1071.97
498.80	1067.52
499.16	1061.43
499.52	1071.73
499.88	1075.94
500.24	1086.01
500.60	1097.24
500.96	1091.63
501.32	1077.35
501.68	1088.82
502.03	1071.03
502.39	1067.28
502.75	1072.67
503.11	1086.48
503.47	1078.52
503.83	1087.65
504.19	1082.73
504.55	1091.63
504.91	1085.77
505.26	1086.01
505.62	1076.41
505.98	1075.01
506.34	1068.69
506.70	1064.24
507.06	1063.31
507.42	1070.33
507.78	1067.52
508.13	1065.18
508.49	1073.14
508.85	1078.05
509.21	1084.14
509.57	1097.48
509.93	1106.37
510.28	1102.86
510.64	1103.09
511.00	1100.05
511.36	1083.67
511.72	1078.75
512.07	1083.20
512.43	1077.82
512.79	1079.69
513.15	1088.82
513.51	1088.35
513.86	1089.75
514.22	1092.09
514.58	1099.12
514.94	1095.60
515.30	1091.86
515.65	1097.48
516.01	1108.48
516.37	1107.31
516.73	1110.12
517.08	1113.86
517.44	1100.75
517.80	1091.16
518.16	1089.75
518.51	1086.71
518.87	1084.60
519.23	1091.86
519.59	1084.60
519.94	1086.48
520.30	1095.84
520.66	1105.67
521.01	1104.50
521.37	1116.20
521.73	1098.88
522.09	1095.37
522.44	1091.39
522.80	1096.07
523.16	1084.60
523.51	1096.78
523.87	1089.52
524.23	1087.41
524.58	1083.67
524.94	1093.26
525.30	1080.63
525.65	1088.12
526.01	1076.88
526.37	1079.46
526.72	1077.35
527.08	1097.01
527.44	1096.54
527.79	1108.71
528.15	1107.54
528.51	1113.39
528.86	1100.52
529.22	1095.60
529.58	1092.33
529.93	1079.92
530.29	1070.80
530.65	1075.01
531.00	1071.73
531.36	1071.73
531.71	1079.69
532.07	1081.80
532.43	1075.94
532.78	1077.35
533.14	1067.28
533.49	1064.94
533.85	1067.05
534.21	1078.05
534.56	1079.69
534.92	1097.01
535.27	1101.92
535.63	1097.95
535.98	1087.41
536.34	1088.82
536.69	1073.37
537.05	1081.80
537.41	1088.35
537.76	1100.05
538.12	1100.05
538.47	1110.12
538.83	1106.14
539.18	1103.80
539.54	1104.26
539.89	1104.50
540.25	1101.92
540.60	1107.54
540.96	1105.90
541.31	1103.33
541.67	1102.63
542.02	1107.78
542.38	1089.52
542.73	1091.16
543.09	1090.69
543.44	1088.58
543.80	1089.52
544.15	1105.67
544.51	1106.61
544.86	1099.12
545.22	1109.65
545.57	1098.88
545.93	1088.58
546.28	1085.07
546.64	1083.20
546.99	1064.01
547.35	1060.26
547.70	1065.65
548.05	1056.52
548.41	1060.26
548.76	1074.07
549.12	1078.99
549.47	1076.88
549.83	1084.14
550.18	1079.92
550.53	1078.05
550.89	1079.46
551.24	1069.16
551.60	1074.77
551.95	1082.97
552.30	1093.97
552.66	1095.60
553.01	1098.65
553.37	1095.60
553.72	1092.09
554.07	1086.94
554.43	1080.16
554.78	1083.20
555.13	1080.63
555.49	1075.71
555.84	1061.67
556.19	1059.33
556.55	1057.22
556.90	1065.41
557.26	1078.99
557.61	1083.67
557.96	1099.12
558.32	1102.86
558.67	1095.84
559.02	1089.05
559.37	1089.52
559.73	1080.86
560.08	1075.24
560.43	1066.35
560.79	1061.43
561.14	1056.05
561.49	1050.20
561.85	1054.65
562.20	1064.48
562.55	1069.16
562.90	1077.58
563.26	1084.84
563.61	1090.46
563.96	1089.99
564.32	1083.43
564.67	1075.71
565.02	1076.65
565.37	1073.14
565.73	1071.97
566.08	1072.90
566.43	1068.69
566.78	1074.07
567.14	1078.28
567.49	1083.43
567.84	1085.07
568.19	1098.18
568.54	1089.75
568.90	1091.86
569.25	1090.69
569.60	1093.97
569.95	1096.54
570.31	1092.80
570.66	1085.77
571.01	1085.07
571.36	1080.39
571.71	1080.16
572.06	1084.60
572.42	1082.03
572.77	1075.71
573.12	1082.50
573.47	1074.77
573.82	1074.77
574.18	1069.39
574.53	1068.69
574.88	1052.07
575.23	1056.99
575.58	1056.75
575.93	1064.24
576.28	1067.75
576.64	1085.07
576.99	1076.88
577.34	1068.45
577.69	1064.94
578.04	1063.31
578.39	1059.33
578.74	1065.65
579.09	1075.94
579.44	1084.84
579.80	1083.90
580.15	1079.69
580.50	1086.71
580.85	1081.56
581.20	1081.80
581.55	1086.48
581.90	1086.48
582.25	1081.80
582.60	1089.52
582.95	1089.05
583.30	1082.97
583.65	1093.50
584.00	1088.12
584.35	1083.43
584.71	1074.07
585.06	1072.20
585.41	1072.43
585.76	1074.07
586.11	1068.22
586.46	1072.67
586.81	1078.05
587.16	1080.39
587.51	1077.35
587.86	1079.69
588.21	1078.75
588.56	1077.82
588.91	1067.75
589.26	1077.58
589.61	1079.92
589.96	1080.39
590.31	1080.63
590.66	1081.80
591.01	1080.63
591.36	1091.63
591.71	1093.03
592.06	1101.69
592.41	1101.69
592.76	1109.65
593.10	1096.78
593.45	1090.22
593.80	1080.86
594.15	1076.88
594.50	1069.16
594.85	1075.24
595.20	1076.65
595.55	1082.73
595.90	1083.67
596.25	1078.05
596.60	1082.73
596.95	1082.97
597.30	1085.31
597.64	1144.99
597.99	1147.56
598.34	1147.10
598.69	1149.20
599.04	1140.78
599.39	1085.54
599.74	1086.71
600.09	1082.50
600.44	1080.39
600.78	1073.60
601.13	1078.05
601.48	1080.39
601.83	1080.86
602.18	1092.09
602.53	1098.65
602.88	1095.37
603.22	1096.31
603.57	1101.69
603.92	1084.84
604.27	1083.43
604.62	1073.14
604.97	1065.65
605.31	1060.50
605.66	1064.01
606.01	1068.92
606.36	1074.07
606.71	1070.56
607.05	1068.45
607.40	1075.48
607.75	1078.75
608.10	1085.54
608.44	1096.07
608.79	1091.39
609.14	1089.05
609.49	1087.41
609.84	1092.56
610.18	1091.39
610.53	1103.33
610.88	1105.44
611.23	1108.24
611.57	1109.65
611.92	1098.18
612.27	1090.69
612.62	1098.65
612.96	1090.92
613.31	1081.09
613.66	1087.18
614.00	1092.09
614.35	1078.75
614.70	1078.28
615.05	1072.43
615.39	1076.41
615.74	1069.86
616.09	1073.84
616.43	1086.94
616.78	1094.90
617.13	1092.56
617.47	1090.92
617.82	1087.41
618.17	1078.52
618.51	1075.71
618.86	1080.16
619.21	1086.71
619.55	1084.37
619.90	1082.73
620.25	1082.50
620.59	1076.18
620.94	1079.46
621.29	1090.92
621.63	1087.18
621.98	1084.37
622.32	1080.86
622.67	1071.03
623.02	1068.45
623.36	1084.37
623.71	1090.46
624.05	1100.99
624.40	1108.48
624.75	1105.44
625.09	1087.18
625.44	1085.77
625.78	1081.80
626.13	1085.54
626.48	1086.01
626.82	1093.03
627.17	1094.67
627.51	1099.82
627.86	1101.22
628.20	1101.92
628.55	1110.35
628.89	1115.73
629.24	1103.56
629.58	1100.05
629.93	1102.16
630.28	1090.92
630.62	1076.65
630.97	1089.52
631.31	1088.82
631.66	1085.77
632.00	1095.84
632.35	1100.75
632.69	1086.71
633.04	1085.54
633.38	1080.16
633.73	1077.82
634.07	1083.90
634.42	1093.73
634.76	1090.92
635.11	1097.95
635.45	1099.82
635.79	1092.80
636.14	1091.16
636.48	1082.26
636.83	1069.16
637.17	1061.90
637.52	1067.75
637.86	1062.60
638.21	1075.48
638.55	1085.54
638.89	1085.77
639.24	1086.71
639.58	1089.29
639.93	1092.80
640.27	1089.99
640.61	1097.95
640.96	1087.18
641.30	1081.56
641.65	1071.50
641.99	1069.16
642.33	1059.33
642.68	1065.41
643.02	1066.11
643.37	1066.58
643.71	1068.22
644.05	1064.71
644.40	1069.62
644.74	1074.77
645.08	1075.71
645.43	1078.52
645.77	1086.24
646.11	1084.14
646.46	1092.09
646.80	1089.29
647.14	1084.60
647.49	1085.07
647.83	1080.39
648.17	1087.65
648.52	1090.46
648.86	1098.88
649.20	1085.54
649.55	1092.33
649.89	1076.18
650.23	1078.05
650.57	1067.28
650.92	1077.58
651.26	1066.82
651.60	1066.35
651.95	1069.86
652.29	1077.82
652.63	1083.67
652.97	1091.16
653.32	1098.88
653.66	1103.80
654.00	1102.16
654.34	1095.37
654.69	1086.94
655.03	1079.92
655.37	1070.80
655.71	1076.65
656.05	1082.50
656.40	1085.07
656.74	1083.90
657.08	1084.84
657.42	1085.77
657.76	1083.20
658.11	1082.50
658.45	1096.31
658.79	1090.22
659.13	1081.09
659.47	1076.41
659.82	1083.43
660.16	1066.58
660.50	1072.67
660.84	1071.50
661.18	1070.33
661.52	1070.09
661.87	1076.18
662.21	1081.80
662.55	1090.22
662.89	1087.88
663.23	1088.12
663.57	1091.16
663.91	1088.12
664.25	1084.60
664.60	1104.26
664.94	1101.46
665.28	1097.95
665.62	1094.90
665.96	1086.24
666.30	1078.52
666.64	1076.65
666.98	1077.82
667.32	1082.03
667.66	1082.73
668.01	1075.94
668.35	1078.28
668.69	1075.24
669.03	1072.90
669.37	1077.58
669.71	1071.97
670.05	1063.54
670.39	1063.77
670.73	1060.03
671.07	1063.31
671.41	1068.22
671.75	1073.60
672.09	1071.73
672.43	1076.41
672.77	1080.86
673.11	1088.58
673.45	1091.63
673.79	1093.26
674.13	1089.99
674.47	1083.67
674.81	1077.58
675.15	1078.75
675.49	1068.22
675.83	1069.62
676.17	1077.35
676.51	1076.65
676.85	1072.43
677.19	1077.58
677.53	1067.28
677.87	1055.82
678.21	1060.96
678.55	1057.92
678.89	1066.11
679.23	1077.35
679.57	1080.86
679.90	1084.60
680.24	1080.39
680.58	1092.56
680.92	1089.99
681.26	1091.39
681.60	1085.07
681.94	1089.75
682.28	1077.35
682.62	1075.71
682.96	1075.48
683.29	1074.31
683.63	1074.31
683.97	1078.05
684.31	1078.52
684.65	1080.39
684.99	1087.41
685.33	1094.20
685.67	1091.63
686.00	1091.39
686.34	1089.05
686.68	1084.37
687.02	1084.60
687.36	1094.43
687.70	1090.69
688.03	1088.58
688.37	1088.35
688.71	1090.46
689.05	1074.07
689.39	1074.31
689.72	1074.54
690.06	1067.05
690.40	1063.54
690.74	1073.60
691.08	1082.50
691.41	1080.39
691.75	1083.43
692.09	1087.65
692.43	1086.24
692.76	1092.56
693.10	1108.01
693.44	1095.14
693.78	1090.22
694.11	1086.48
694.45	1076.41
694.79	1070.80
695.13	1074.54
695.46	1084.60
695.80	1088.58
696.14	1091.63
696.48	1085.07
696.81	1094.67
697.15	1075.94
697.49	1067.99
697.82	1064.48
698.16	1067.52
698.50	1066.58
698.83	1079.69
699.17	1081.56
699.51	1078.52
699.84	1080.16
700.18	1083.90
700.52	1078.05
700.85	1087.88
701.19	1092.80
701.53	1086.01
701.86	1080.16
702.20	1086.94
702.54	1086.48
702.87	1089.29
703.21	1093.97
703.55	1100.29
703.88	1095.60
704.22	1086.94
704.55	1081.80
704.89	1084.84
705.23	1082.03
705.56	1086.94
705.90	1088.12
706.23	1083.20
706.57	1075.01
706.91	1082.03
707.24	1078.99
707.58	1082.73
707.91	1087.41
708.25	1088.12
708.58	1087.41
708.92	1086.94
709.26	1082.97
709.59	1088.35
709.93	1086.24
710.26	1070.33
710.60	1068.92
710.93	1069.39
711.27	1060.96
711.60	1055.58
711.94	1060.50
712.27	1064.94
712.61	1053.48
712.94	1060.03
713.28	1073.37
713.61	1075.71
713.95	1082.50
714.28	1103.33
714.62	1103.33
714.95	1111.52
715.29	1115.97
715.62	1101.46
715.96	1092.56
716.29	1096.07
716.63	1084.60
716.96	1081.56
717.29	1088.12
717.63	1087.41
717.96	1089.05
718.30	1096.54
718.63	1101.69
718.97	1092.56
719.30	1090.69
719.63	1078.99
719.97	1076.18
720.30	1075.94
720.64	1079.46
720.97	1073.84
721.30	1083.67
721.64	1077.82
721.97	1063.07
722.31	1066.82
722.64	1070.56
722.97	1075.71
723.31	1076.41
723.64	1075.94
723.97	1070.80
724.31	1084.37
724.64	1084.14
724.98	1089.05
725.31	1104.50
725.64	1109.88
725.98	1095.37
726.31	1084.37
726.64	1077.11
726.97	1068.22
727.31	1063.31
727.64	1069.39
727.97	1072.90
728.31	1078.75
728.64	1087.88
728.97	1099.12
729.31	1100.52
729.64	1091.39
729.97	1094.90
730.30	1098.65
730.64	1095.14
730.97	1087.65
731.30	1097.95
731.63	1079.92
731.97	1064.01
732.30	1065.65
732.63	1068.92
732.96	1063.07
733.30	1065.41
733.63	1077.35
733.96	1065.41
734.29	1062.60
734.63	1066.58
734.96	1072.67
735.29	1067.75
735.62	1072.20
735.95	1076.18
736.29	1060.50
736.62	1072.67
736.95	1065.18
737.28	1068.45
737.61	1078.99
737.94	1101.46
738.28	1092.80
738.61	1097.71
738.94	1102.63
739.27	1097.48
739.60	1080.39
739.93	1086.94
740.27	1087.65
740.60	1088.82
740.93	1082.73
741.26	1088.35
741.59	1080.16
741.92	1080.86
742.25	1076.65
742.58	1082.73
742.91	1085.54
743.25	1084.37
743.58	1090.46
743.91	1086.71
744.24	1078.75
744.57	1077.58
744.90	1081.33
745.23	1071.97
745.56	1068.92
745.89	1074.77
746.22	1076.65
746.55	1072.67
746.88	1077.35
747.21	1080.86
747.54	1071.73
747.87	1066.58
748.20	1080.63
748.53	1083.90
748.87	1084.60
749.20	1095.37
749.53	1102.16
749.86	1087.65
750.19	1082.73
750.52	1087.65
750.85	1082.73
751.18	1088.82
751.51	1095.37
751.84	1099.12
752.16	1086.71
752.49	1088.35
752.82	1076.88
753.15	1081.80
753.48	1079.69
753.81	1081.33
754.14	1079.69
754.47	1089.52
754.80	1081.56
755.13	1082.26
755.46	1082.73
755.79	1073.84
756.12	1066.58
756.45	1069.62
756.78	1065.88
757.11	1067.99
757.43	1086.01
757.76	1089.05
758.09	1075.24
758.42	1071.03
758.75	1076.18
759.08	1070.80
759.41	1068.69
759.74	1084.14
760.07	1089.29
760.39	1084.84
760.72	1077.82
761.05	1083.20
761.38	1071.97
761.71	1077.58
762.04	1085.77
762.36	1091.63
762.69	1084.84
763.02	1092.80
763.35	1096.31
763.68	1088.82
764.01	1090.46
764.33	1096.07
764.66	1110.35
764.99	1113.16
765.32	1120.18
765.65	1113.16
765.97	1111.29
766.30	1090.22
