SpectraSuite Data File
++++++++++++++++++++++++++++++++++++
Date: Mon Aug 26 10:25:46 PDT 2019
User: corrico
Dark Spectrum Present: No
Reference Spectrum Present: No
Number of Sampled Component Spectra: 1
Spectrometers: USB2+H06089
Integration Time (usec): 10000 (USB2+H06089)
Spectra Averaged: 2 (USB2+H06089)
Boxcar Smoothing: 2 (USB2+H06089)
Correct for Electrical Dark: No (USB2+H06089)
Strobe/Lamp Enabled: No (USB2+H06089)
Correct for Detector Non-linearity: No (USB2+H06089)
Correct for Stray Light: No (USB2+H06089)
Number of Pixels in Processed Spectrum: 2048
>>>>>Begin Processed Spectral Data<<<<<
339.70	1021.64
340.07	1021.64
340.45	995.43
340.82	969.45
341.19	944.64
341.57	919.36
341.94	902.28
342.31	889.40
342.69	894.32
343.06	882.15
343.43	887.30
343.81	889.17
344.18	896.89
344.55	901.57
344.93	915.85
345.30	913.28
345.67	921.47
346.04	934.11
346.42	933.64
346.79	948.39
347.16	957.75
347.54	968.05
347.91	966.88
348.28	978.58
348.65	989.58
349.03	1009.94
349.40	1017.20
349.77	1024.69
350.14	1032.88
350.52	1028.90
350.89	1033.35
351.26	1042.01
351.63	1054.41
352.01	1063.77
352.38	1069.16
352.75	1067.52
353.12	1065.65
353.50	1064.94
353.87	1070.09
354.24	1077.35
354.61	1088.12
354.98	1097.24
355.36	1094.90
355.73	1085.31
356.10	1087.41
356.47	1072.20
356.84	1060.26
357.22	1065.41
357.59	1072.20
357.96	1069.86
358.33	1073.14
358.70	1082.73
359.08	1077.58
359.45	1073.84
359.82	1072.67
360.19	1073.14
360.56	1077.11
360.94	1079.92
361.31	1080.39
361.68	1090.69
362.05	1086.94
362.42	1087.88
362.79	1097.48
363.16	1098.18
363.54	1097.24
363.91	1104.73
364.28	1099.12
364.65	1089.75
365.02	1088.58
365.39	1077.58
365.76	1073.37
366.14	1068.69
366.51	1063.54
366.88	1063.54
367.25	1062.37
367.62	1059.56
367.99	1052.30
368.36	1048.09
368.73	1047.16
369.10	1044.35
369.48	1048.09
369.85	1053.94
370.22	1064.01
370.59	1069.62
370.96	1069.16
371.33	1074.77
371.70	1074.07
372.07	1071.50
372.44	1061.67
372.81	1071.50
373.18	1076.88
373.55	1085.77
373.93	1088.35
374.30	1103.56
374.67	1094.90
375.04	1084.37
375.41	1075.48
375.78	1077.11
376.15	1066.82
376.52	1070.56
376.89	1064.48
377.26	1068.22
377.63	1067.75
378.00	1068.92
378.37	1062.37
378.74	1060.50
379.11	1060.96
379.48	1060.73
379.85	1069.39
380.22	1070.09
380.59	1073.60
380.96	1071.26
381.33	1071.03
381.70	1060.50
382.07	1073.14
382.44	1081.80
382.81	1077.11
383.18	1067.75
383.55	1073.84
383.92	1069.16
384.29	1066.58
384.66	1074.07
385.03	1083.67
385.40	1074.54
385.77	1080.63
386.14	1082.97
386.51	1085.31
386.88	1077.35
387.25	1089.05
387.62	1083.43
387.99	1075.48
388.36	1071.73
388.73	1076.65
389.10	1069.86
389.46	1068.92
389.83	1073.14
390.20	1063.77
390.57	1064.24
390.94	1062.14
391.31	1066.11
391.68	1068.92
392.05	1073.37
392.42	1072.43
392.79	1073.60
393.16	1073.14
393.53	1066.82
393.89	1060.96
394.26	1059.09
394.63	1056.28
395.00	1049.73
395.37	1049.50
395.74	1067.99
396.11	1072.67
396.48	1082.03
396.84	1079.46
397.21	1080.16
397.58	1075.24
397.95	1080.86
398.32	1080.39
398.69	1084.14
399.06	1081.09
399.42	1072.67
399.79	1068.69
400.16	1067.99
400.53	1064.24
400.90	1071.03
401.27	1075.01
401.64	1068.45
402.00	1061.67
402.37	1068.92
402.74	1073.60
403.11	1073.84
403.48	1077.58
403.84	1079.92
404.21	1076.41
404.58	1074.31
404.95	1077.35
405.32	1068.92
405.68	1070.09
406.05	1072.90
406.42	1065.65
406.79	1066.35
407.16	1084.14
407.52	1078.99
407.89	1080.16
408.26	1085.31
408.63	1086.48
408.99	1075.48
409.36	1077.11
409.73	1074.54
410.10	1080.63
410.47	1078.99
410.83	1075.48
411.20	1078.75
411.57	1088.35
411.94	1083.67
412.30	1091.63
412.67	1094.90
413.04	1088.82
413.40	1078.05
413.77	1075.48
414.14	1072.20
414.51	1071.73
414.87	1075.71
415.24	1079.92
415.61	1074.77
415.97	1065.18
416.34	1065.88
416.71	1066.11
417.08	1067.05
417.44	1068.69
417.81	1068.45
418.18	1072.43
418.54	1067.52
418.91	1062.60
419.28	1068.22
419.64	1073.84
420.01	1064.71
420.38	1064.24
420.74	1065.18
421.11	1062.37
421.48	1063.77
421.84	1069.62
422.21	1071.73
422.58	1056.99
422.94	1048.09
423.31	1047.86
423.68	1053.48
424.04	1056.28
424.41	1075.48
424.77	1090.22
425.14	1088.12
425.51	1084.14
425.87	1077.35
426.24	1069.16
426.61	1061.43
426.97	1062.37
427.34	1063.31
427.70	1062.60
428.07	1067.99
428.44	1072.43
428.80	1078.52
429.17	1074.54
429.53	1078.75
429.90	1089.29
430.27	1092.80
430.63	1084.84
431.00	1091.63
431.36	1094.90
431.73	1079.46
432.09	1074.31
432.46	1070.09
432.83	1069.16
433.19	1064.71
433.56	1067.99
433.92	1074.54
434.29	1075.71
434.65	1076.18
435.02	1086.01
435.38	1087.18
435.75	1086.48
436.11	1097.01
436.48	1099.12
436.84	1092.56
437.21	1094.90
437.57	1085.54
437.94	1079.69
438.30	1072.43
438.67	1075.48
439.03	1074.54
439.40	1078.75
439.76	1076.41
440.13	1085.54
440.49	1085.31
440.86	1083.90
441.22	1081.09
441.59	1079.46
441.95	1063.77
442.32	1069.62
442.68	1067.05
443.05	1076.41
443.41	1078.28
443.78	1088.82
444.14	1081.33
444.51	1075.94
444.87	1071.73
445.24	1070.56
445.60	1070.56
445.96	1073.60
446.33	1078.05
446.69	1075.71
447.06	1077.35
447.42	1086.24
447.79	1083.67
448.15	1095.14
448.51	1113.63
448.88	1114.56
449.24	1112.46
449.61	1116.67
449.97	1116.20
450.33	1097.71
450.70	1096.07
451.06	1088.58
451.43	1086.94
451.79	1085.31
452.15	1089.29
452.52	1086.71
452.88	1088.58
453.24	1086.01
453.61	1079.69
453.97	1074.31
454.34	1079.69
454.70	1069.86
455.06	1073.14
455.43	1075.48
455.79	1084.37
456.15	1085.07
456.52	1095.84
456.88	1088.82
457.24	1089.52
457.61	1079.92
457.97	1081.09
458.33	1068.22
458.70	1074.31
459.06	1075.94
459.42	1076.65
459.79	1072.20
460.15	1083.90
460.51	1082.73
460.88	1082.50
461.24	1074.31
461.60	1071.97
461.96	1071.26
462.33	1074.31
462.69	1064.24
463.05	1069.86
463.42	1083.43
463.78	1093.97
464.14	1091.63
464.50	1103.33
464.87	1111.75
465.23	1103.80
465.59	1088.12
465.95	1086.01
466.32	1079.69
466.68	1081.09
467.04	1087.65
467.40	1089.75
467.77	1084.60
468.13	1084.37
468.49	1076.41
468.85	1072.67
469.22	1073.14
469.58	1081.56
469.94	1082.73
470.30	1094.43
470.66	1086.24
471.03	1089.99
471.39	1087.88
471.75	1089.05
472.11	1067.52
472.47	1067.52
472.84	1072.67
473.20	1070.80
473.56	1068.69
473.92	1074.31
474.28	1074.07
474.65	1068.45
475.01	1068.45
475.37	1071.50
475.73	1076.41
476.09	1082.97
476.45	1079.92
476.81	1068.22
477.18	1058.86
477.54	1065.65
477.90	1061.67
478.26	1062.60
478.62	1069.16
478.98	1075.71
479.34	1071.03
479.71	1065.18
480.07	1071.03
480.43	1078.28
480.79	1074.07
481.15	1077.11
481.51	1080.86
481.87	1077.58
482.23	1075.24
482.59	1079.22
482.96	1078.05
483.32	1076.41
483.68	1079.22
484.04	1078.05
484.40	1082.73
484.76	1076.65
485.12	1076.88
485.48	1059.79
485.84	1064.24
486.20	1059.33
486.56	1065.65
486.92	1071.73
487.28	1083.67
487.64	1089.05
488.00	1093.03
488.37	1080.63
488.73	1072.67
489.09	1062.60
489.45	1064.71
489.81	1067.05
490.17	1072.67
490.53	1081.80
490.89	1093.26
491.25	1086.71
491.61	1088.58
491.97	1101.46
492.33	1089.05
492.69	1087.41
493.05	1087.65
493.41	1079.46
493.77	1072.20
494.13	1082.03
494.49	1084.84
494.85	1073.60
495.21	1069.62
495.57	1069.62
495.93	1065.41
496.29	1066.11
496.64	1073.60
497.00	1078.05
497.36	1073.84
497.72	1072.67
498.08	1064.24
498.44	1069.86
498.80	1079.92
499.16	1081.56
499.52	1085.54
499.88	1082.50
500.24	1073.84
500.60	1060.26
500.96	1061.90
501.32	1062.37
501.68	1072.43
502.03	1075.94
502.39	1093.73
502.75	1099.82
503.11	1101.22
503.47	1107.78
503.83	1108.24
504.19	1095.14
504.55	1089.05
504.91	1086.24
505.26	1081.09
505.62	1085.54
505.98	1082.03
506.34	1075.24
506.70	1070.80
507.06	1066.82
507.42	1053.94
507.78	1055.82
508.13	1050.90
508.49	1049.50
508.85	1060.50
509.21	1069.39
509.57	1067.75
509.93	1078.05
510.28	1089.75
510.64	1074.31
511.00	1073.37
511.36	1079.46
511.72	1074.54
512.07	1067.52
512.43	1073.60
512.79	1072.43
513.15	1076.41
513.51	1081.80
513.86	1092.56
514.22	1090.69
514.58	1086.94
514.94	1093.03
515.30	1096.07
515.65	1082.73
516.01	1092.09
516.37	1096.78
516.73	1082.26
517.08	1083.67
517.44	1084.37
517.80	1079.22
518.16	1074.07
518.51	1072.67
518.87	1071.26
519.23	1082.50
519.59	1078.99
519.94	1089.75
520.30	1092.09
520.66	1091.16
521.01	1092.33
521.37	1097.01
521.73	1096.31
522.09	1096.78
522.44	1100.05
522.80	1087.65
523.16	1087.41
523.51	1075.01
523.87	1069.86
524.23	1066.11
524.58	1073.60
524.94	1067.28
525.30	1088.35
525.65	1098.65
526.01	1099.35
526.37	1095.84
526.72	1108.71
527.08	1094.43
527.44	1094.43
527.79	1097.95
528.15	1096.31
528.51	1087.41
528.86	1088.58
529.22	1085.07
529.58	1079.92
529.93	1081.80
530.29	1075.24
530.65	1081.80
531.00	1082.26
531.36	1079.22
531.71	1082.73
532.07	1093.03
532.43	1093.97
532.78	1096.78
533.14	1090.46
533.49	1094.90
533.85	1092.33
534.21	1083.20
534.56	1071.97
534.92	1087.41
535.27	1081.56
535.63	1080.39
535.98	1081.33
536.34	1097.71
536.69	1090.92
537.05	1097.48
537.41	1100.29
537.76	1101.92
538.12	1092.80
538.47	1101.46
538.83	1106.14
539.18	1109.88
539.54	1105.44
539.89	1111.29
540.25	1102.16
540.60	1092.80
540.96	1092.56
541.31	1094.90
541.67	1089.75
542.02	1091.63
542.38	1096.31
542.73	1092.33
543.09	1105.44
543.44	1102.16
543.80	1107.54
544.15	1108.24
544.51	1106.37
544.86	1097.95
545.22	1098.41
545.57	1104.50
545.93	1095.37
546.28	1097.48
546.64	1096.78
546.99	1098.65
547.35	1085.54
547.70	1096.07
548.05	1086.24
548.41	1087.18
548.76	1081.80
549.12	1078.28
549.47	1066.58
549.83	1072.20
550.18	1076.88
550.53	1089.99
550.89	1091.86
551.24	1093.73
551.60	1086.71
551.95	1076.65
552.30	1068.92
552.66	1063.77
553.01	1053.01
553.37	1060.73
553.72	1055.35
554.07	1052.77
554.43	1057.45
554.78	1081.09
555.13	1084.84
555.49	1097.24
555.84	1102.63
556.19	1105.20
556.55	1094.90
556.90	1086.71
557.26	1080.63
557.61	1080.16
557.96	1075.48
558.32	1067.28
558.67	1066.11
559.02	1064.94
559.37	1056.05
559.73	1069.16
560.08	1078.75
560.43	1090.22
560.79	1091.39
561.14	1097.95
561.49	1079.69
561.85	1082.73
562.20	1072.67
562.55	1073.60
562.90	1067.75
563.26	1072.20
563.61	1065.41
563.96	1068.92
564.32	1071.03
564.67	1072.90
565.02	1080.63
565.37	1078.28
565.73	1079.46
566.08	1078.99
566.43	1090.46
566.78	1085.07
567.14	1082.03
567.49	1091.39
567.84	1091.86
568.19	1079.69
568.54	1073.84
568.90	1083.67
569.25	1074.54
569.60	1067.28
569.95	1064.94
570.31	1070.09
570.66	1059.09
571.01	1055.58
571.36	1063.31
571.71	1071.73
572.06	1076.41
572.42	1074.07
572.77	1075.94
573.12	1068.69
573.47	1064.24
573.82	1054.65
574.18	1062.14
574.53	1066.11
574.88	1073.14
575.23	1076.65
575.58	1089.99
575.93	1085.54
576.28	1076.88
576.64	1077.35
576.99	1082.50
577.34	1080.39
577.69	1088.12
578.04	1090.22
578.39	1096.07
578.74	1093.26
579.09	1089.29
579.44	1088.35
579.80	1085.31
580.15	1071.97
580.50	1069.16
580.85	1065.18
581.20	1061.43
581.55	1071.03
581.90	1076.88
582.25	1073.84
582.60	1082.73
582.95	1074.31
583.30	1075.24
583.65	1076.18
584.00	1071.97
584.35	1072.90
584.71	1082.03
585.06	1073.60
585.41	1071.73
585.76	1084.60
586.11	1081.09
586.46	1082.97
586.81	1088.82
587.16	1093.97
587.51	1089.05
587.86	1090.69
588.21	1088.35
588.56	1087.18
588.91	1067.52
589.26	1066.35
589.61	1061.67
589.96	1068.92
590.31	1068.69
590.66	1084.14
591.01	1081.80
591.36	1078.05
591.71	1078.75
592.06	1074.77
592.41	1074.07
592.76	1076.88
593.10	1083.67
593.45	1077.35
593.80	1076.18
594.15	1086.48
594.50	1084.14
594.85	1086.01
595.20	1080.16
595.55	1081.09
595.90	1071.97
596.25	1070.56
596.60	1072.43
596.95	1085.54
597.30	1083.43
597.64	1141.01
597.99	1134.46
598.34	1138.44
598.69	1131.65
599.04	1139.84
599.39	1085.31
599.74	1090.22
600.09	1070.09
600.44	1078.52
600.78	1071.73
601.13	1052.30
601.48	1057.45
601.83	1069.16
602.18	1063.07
602.53	1066.82
602.88	1088.12
603.22	1087.41
603.57	1083.20
603.92	1080.16
604.27	1083.90
604.62	1083.90
604.97	1082.50
605.31	1092.33
605.66	1100.29
606.01	1099.35
606.36	1100.05
606.71	1105.20
607.05	1106.14
607.40	1101.22
607.75	1100.29
608.10	1093.26
608.44	1091.16
608.79	1086.48
609.14	1079.69
609.49	1072.43
609.84	1073.14
610.18	1075.24
610.53	1076.65
610.88	1085.54
611.23	1099.82
611.57	1104.50
611.92	1101.46
612.27	1095.60
612.62	1099.82
612.96	1090.22
613.31	1090.22
613.66	1087.18
614.00	1091.16
614.35	1084.84
614.70	1089.29
615.05	1089.75
615.39	1093.03
615.74	1088.35
616.09	1088.58
616.43	1081.33
616.78	1070.80
617.13	1069.39
617.47	1070.56
617.82	1080.63
618.17	1081.80
618.51	1086.24
618.86	1089.75
619.21	1096.31
619.55	1084.37
619.90	1084.60
620.25	1083.43
620.59	1090.46
620.94	1085.77
621.29	1086.94
621.63	1084.37
621.98	1094.67
622.32	1089.99
622.67	1102.63
623.02	1106.61
623.36	1116.67
623.71	1113.63
624.05	1106.37
624.40	1097.48
624.75	1102.39
625.09	1097.01
625.44	1090.22
625.78	1088.35
626.13	1085.31
626.48	1078.28
626.82	1081.80
627.17	1077.82
627.51	1078.52
627.86	1082.97
628.20	1084.60
628.55	1074.54
628.89	1080.39
629.24	1089.29
629.58	1086.94
629.93	1081.56
630.28	1093.73
630.62	1091.16
630.97	1085.77
631.31	1083.90
631.66	1084.14
632.00	1088.58
632.35	1090.69
632.69	1087.41
633.04	1088.35
633.38	1088.82
633.73	1074.31
634.07	1068.92
634.42	1078.75
634.76	1079.92
635.11	1079.46
635.45	1086.24
635.79	1096.54
636.14	1086.71
636.48	1093.97
636.83	1087.88
637.17	1084.84
637.52	1075.48
637.86	1080.63
638.21	1077.35
638.55	1083.43
638.89	1089.99
639.24	1096.31
639.58	1087.65
639.93	1073.60
640.27	1073.60
640.61	1068.45
640.96	1068.22
641.30	1077.82
641.65	1088.12
641.99	1091.63
642.33	1092.80
642.68	1092.56
643.02	1092.09
643.37	1083.43
643.71	1081.33
644.05	1085.54
644.40	1089.75
644.74	1092.33
645.08	1100.52
645.43	1097.48
645.77	1097.24
646.11	1087.18
646.46	1071.26
646.80	1066.82
647.14	1073.37
647.49	1069.62
647.83	1076.41
648.17	1086.71
648.52	1091.86
648.86	1087.65
649.20	1095.60
649.55	1091.63
649.89	1100.05
650.23	1100.29
650.57	1094.67
650.92	1081.33
651.26	1087.65
651.60	1067.52
651.95	1066.82
652.29	1071.03
652.63	1077.35
652.97	1071.97
653.32	1079.69
653.66	1077.58
654.00	1080.16
654.34	1076.18
654.69	1074.07
655.03	1074.07
655.37	1075.94
655.71	1077.58
656.05	1080.16
656.40	1082.03
656.74	1088.35
657.08	1087.88
657.42	1086.71
657.76	1078.99
658.11	1078.75
658.45	1070.33
658.79	1060.96
659.13	1058.86
659.47	1061.67
659.82	1063.07
660.16	1063.77
660.50	1066.82
660.84	1064.24
661.18	1059.09
661.52	1048.79
661.87	1051.60
662.21	1057.45
662.55	1059.56
662.89	1082.50
663.23	1086.24
663.57	1090.46
663.91	1096.54
664.25	1095.84
664.60	1077.82
664.94	1077.11
665.28	1077.82
665.62	1068.92
665.96	1072.67
666.30	1075.24
666.64	1075.71
666.98	1074.77
667.32	1075.94
667.66	1073.84
668.01	1080.39
668.35	1091.86
668.69	1087.18
669.03	1089.29
669.37	1088.35
669.71	1086.71
670.05	1079.92
670.39	1077.35
670.73	1071.50
671.07	1078.52
671.41	1084.60
671.75	1088.58
672.09	1094.67
672.43	1088.35
672.77	1080.86
673.11	1075.24
673.45	1070.80
673.79	1079.69
674.13	1088.82
674.47	1088.82
674.81	1078.05
675.15	1082.97
675.49	1076.88
675.83	1072.43
676.17	1065.65
676.51	1071.03
676.85	1069.62
677.19	1053.71
677.53	1055.82
677.87	1067.99
678.21	1068.92
678.55	1071.73
678.89	1085.54
679.23	1090.69
679.57	1092.33
679.90	1088.82
680.24	1075.94
680.58	1074.77
680.92	1080.63
681.26	1070.09
681.60	1074.54
681.94	1082.73
682.28	1074.77
682.62	1067.75
682.96	1073.60
683.29	1060.73
683.63	1054.41
683.97	1066.35
684.31	1066.58
684.65	1066.35
684.99	1078.99
685.33	1073.84
685.67	1078.75
686.00	1076.41
686.34	1076.41
686.68	1074.54
687.02	1098.41
687.36	1093.26
687.70	1100.99
688.03	1098.18
688.37	1097.71
688.71	1085.07
689.05	1082.03
689.39	1074.54
689.72	1080.16
690.06	1075.48
690.40	1068.45
690.74	1065.65
691.08	1066.35
691.41	1081.09
691.75	1086.48
692.09	1089.29
692.43	1091.86
692.76	1093.50
693.10	1067.28
693.44	1069.62
693.78	1078.52
694.11	1081.56
694.45	1084.14
694.79	1084.60
695.13	1088.12
695.46	1091.63
695.80	1088.12
696.14	1083.67
696.48	1106.14
696.81	1101.92
697.15	1091.86
697.49	1102.86
697.82	1108.24
698.16	1090.46
698.50	1090.69
698.83	1090.69
699.17	1088.58
699.51	1089.29
699.84	1087.88
700.18	1084.14
700.52	1086.94
700.85	1077.58
701.19	1068.69
701.53	1080.16
701.86	1074.31
702.20	1080.63
702.54	1081.56
702.87	1088.35
703.21	1087.41
703.55	1096.31
703.88	1091.63
704.22	1086.71
704.55	1091.63
704.89	1082.73
705.23	1081.80
705.56	1080.63
705.90	1083.20
706.23	1071.03
706.57	1074.07
706.91	1076.65
707.24	1078.99
707.58	1082.26
707.91	1082.50
708.25	1086.94
708.58	1084.60
708.92	1083.67
709.26	1086.24
709.59	1104.03
709.93	1102.39
710.26	1098.41
710.60	1100.05
710.93	1102.86
711.27	1091.16
711.60	1086.94
711.94	1092.56
712.27	1089.99
712.61	1077.82
712.94	1079.92
713.28	1086.24
713.61	1085.07
713.95	1078.52
714.28	1084.37
714.62	1082.03
714.95	1073.14
715.29	1073.60
715.62	1072.43
715.96	1070.33
716.29	1071.03
716.63	1074.54
716.96	1075.48
717.29	1076.65
717.63	1078.52
717.96	1081.33
718.30	1083.20
718.63	1082.73
718.97	1078.75
719.30	1071.50
719.63	1071.50
719.97	1076.65
720.30	1082.73
720.64	1084.84
720.97	1099.35
721.30	1088.82
721.64	1079.69
721.97	1071.73
722.31	1080.86
722.64	1071.97
722.97	1075.71
723.31	1079.22
723.64	1082.26
723.97	1073.84
724.31	1077.35
724.64	1087.18
724.98	1086.71
725.31	1085.54
725.64	1094.90
725.98	1090.46
726.31	1085.07
726.64	1083.90
726.97	1084.37
727.31	1080.39
727.64	1084.84
727.97	1083.67
728.31	1089.29
728.64	1092.80
728.97	1092.56
729.31	1083.67
729.64	1075.48
729.97	1072.90
730.30	1069.62
730.64	1072.20
730.97	1082.97
731.30	1086.71
731.63	1069.86
731.97	1059.79
732.30	1052.07
732.63	1046.69
732.96	1046.92
733.30	1066.35
733.63	1070.09
733.96	1079.46
734.29	1085.07
734.63	1090.92
734.96	1084.14
735.29	1082.50
735.62	1087.65
735.95	1077.11
736.29	1059.56
736.62	1056.28
736.95	1060.96
737.28	1055.11
737.61	1064.24
737.94	1076.41
738.28	1086.94
738.61	1093.73
738.94	1097.24
739.27	1103.80
739.60	1108.24
739.93	1092.56
740.27	1089.75
740.60	1092.09
740.93	1091.86
741.26	1094.90
741.59	1104.97
741.92	1103.80
742.25	1097.71
742.58	1094.43
742.91	1093.03
743.25	1096.31
743.58	1086.24
743.91	1079.46
744.24	1073.60
744.57	1064.01
744.90	1064.94
745.23	1072.43
745.56	1076.18
745.89	1072.67
746.22	1077.35
746.55	1078.75
746.88	1079.92
747.21	1082.03
747.54	1081.09
747.87	1085.54
748.20	1079.92
748.53	1089.99
748.87	1084.60
749.20	1089.75
749.53	1087.41
749.86	1081.80
750.19	1075.71
750.52	1079.92
750.85	1072.43
751.18	1072.43
751.51	1082.26
751.84	1074.54
752.16	1066.58
752.49	1070.33
752.82	1067.05
753.15	1068.45
753.48	1074.77
753.81	1081.56
754.14	1082.73
754.47	1084.84
754.80	1085.77
755.13	1089.29
755.46	1082.97
755.79	1088.58
756.12	1086.24
756.45	1087.88
756.78	1082.73
757.11	1092.33
757.43	1087.41
757.76	1081.80
758.09	1078.75
758.42	1078.28
758.75	1077.11
759.08	1073.37
759.41	1075.24
759.74	1067.75
760.07	1067.75
760.39	1067.99
760.72	1072.20
761.05	1081.09
761.38	1077.11
761.71	1076.65
762.04	1080.39
762.36	1084.60
762.69	1080.86
763.02	1081.09
763.35	1084.60
763.68	1082.97
764.01	1085.07
764.33	1086.01
764.66	1088.12
764.99	1074.77
765.32	1063.31
765.65	1063.07
765.97	1061.20
766.30	1064.01
