SpectraSuite Data File
++++++++++++++++++++++++++++++++++++
Date: Mon Aug 26 10:25:47 PDT 2019
User: corrico
Dark Spectrum Present: No
Reference Spectrum Present: No
Number of Sampled Component Spectra: 1
Spectrometers: USB2+H06089
Integration Time (usec): 10000 (USB2+H06089)
Spectra Averaged: 2 (USB2+H06089)
Boxcar Smoothing: 2 (USB2+H06089)
Correct for Electrical Dark: No (USB2+H06089)
Strobe/Lamp Enabled: No (USB2+H06089)
Correct for Detector Non-linearity: No (USB2+H06089)
Correct for Stray Light: No (USB2+H06089)
Number of Pixels in Processed Spectrum: 2048
>>>>>Begin Processed Spectral Data<<<<<
339.70	1041.54
340.07	1041.54
340.45	1009.94
340.82	990.05
341.19	964.07
341.57	942.53
341.94	919.60
342.31	917.26
342.69	912.81
343.06	911.64
343.43	909.06
343.81	913.51
344.18	919.13
344.55	914.92
344.93	914.68
345.30	913.28
345.67	916.55
346.04	921.00
346.42	934.58
346.79	943.94
347.16	954.94
347.54	962.19
347.91	969.45
348.28	974.13
348.65	988.17
349.03	989.34
349.40	994.49
349.77	1009.71
350.14	1023.98
350.52	1018.13
350.89	1033.81
351.26	1047.16
351.63	1046.22
352.01	1048.33
352.38	1063.07
352.75	1067.05
353.12	1064.48
353.50	1065.65
353.87	1064.01
354.24	1064.71
354.61	1061.20
354.98	1071.26
355.36	1071.50
355.73	1078.99
356.10	1082.26
356.47	1077.58
356.84	1068.45
357.22	1072.20
357.59	1066.35
357.96	1066.58
358.33	1083.67
358.70	1090.69
359.08	1089.05
359.45	1096.54
359.82	1100.05
360.19	1088.12
360.56	1081.33
360.94	1078.05
361.31	1072.90
361.68	1068.45
362.05	1071.26
362.42	1073.14
362.79	1071.26
363.16	1065.65
363.54	1058.62
363.91	1051.60
364.28	1059.79
364.65	1068.45
365.02	1068.92
365.39	1079.92
365.76	1096.07
366.14	1085.07
366.51	1079.69
366.88	1072.20
367.25	1064.01
367.62	1058.16
367.99	1065.65
368.36	1069.16
368.73	1072.67
369.10	1075.24
369.48	1071.26
369.85	1062.37
370.22	1061.20
370.59	1063.77
370.96	1060.73
371.33	1064.94
371.70	1067.52
372.07	1070.56
372.44	1071.50
372.81	1076.65
373.18	1074.77
373.55	1077.35
373.93	1072.43
374.30	1087.65
374.67	1082.03
375.04	1085.07
375.41	1081.80
375.78	1094.43
376.15	1077.58
376.52	1073.84
376.89	1066.82
377.26	1064.01
377.63	1058.86
378.00	1064.24
378.37	1067.28
378.74	1078.52
379.11	1085.54
379.48	1080.16
379.85	1083.90
380.22	1090.22
380.59	1073.37
380.96	1077.35
381.33	1076.18
381.70	1069.62
382.07	1066.82
382.44	1063.77
382.81	1065.65
383.18	1057.45
383.55	1059.33
383.92	1056.75
384.29	1071.03
384.66	1052.07
385.03	1065.41
385.40	1069.39
385.77	1069.62
386.14	1067.75
386.51	1084.37
386.88	1083.43
387.25	1066.35
387.62	1071.50
387.99	1067.28
388.36	1053.94
388.73	1058.39
389.10	1068.45
389.46	1062.37
389.83	1068.69
390.20	1071.97
390.57	1063.77
390.94	1062.14
391.31	1065.88
391.68	1069.62
392.05	1072.90
392.42	1075.24
392.79	1089.75
393.16	1099.12
393.53	1083.90
393.89	1093.73
394.26	1098.88
394.63	1093.73
395.00	1088.82
395.37	1096.54
395.74	1092.09
396.11	1080.39
396.48	1078.52
396.84	1063.54
397.21	1065.88
397.58	1063.31
397.95	1069.86
398.32	1074.77
398.69	1098.65
399.06	1097.01
399.42	1096.78
399.79	1100.29
400.16	1086.71
400.53	1076.18
400.90	1080.39
401.27	1085.07
401.64	1081.33
402.00	1087.88
402.37	1087.88
402.74	1085.77
403.11	1083.20
403.48	1090.46
403.84	1099.35
404.21	1096.31
404.58	1101.69
404.95	1101.46
405.32	1088.82
405.68	1084.60
406.05	1085.07
406.42	1086.71
406.79	1077.35
407.16	1079.92
407.52	1086.48
407.89	1085.07
408.26	1077.35
408.63	1083.20
408.99	1080.63
409.36	1072.43
409.73	1073.60
410.10	1071.03
410.47	1066.82
410.83	1069.86
411.20	1064.01
411.57	1072.43
411.94	1064.01
412.30	1072.90
412.67	1078.28
413.04	1072.67
413.40	1062.84
413.77	1069.86
414.14	1060.26
414.51	1052.77
414.87	1062.37
415.24	1060.26
415.61	1069.62
415.97	1078.05
416.34	1085.07
416.71	1085.31
417.08	1087.65
417.44	1081.56
417.81	1074.54
418.18	1078.05
418.54	1075.01
418.91	1077.35
419.28	1076.41
419.64	1080.63
420.01	1066.11
420.38	1060.03
420.74	1060.73
421.11	1062.37
421.48	1062.37
421.84	1070.33
422.21	1077.11
422.58	1078.52
422.94	1069.39
423.31	1081.80
423.68	1077.11
424.04	1078.99
424.41	1081.09
424.77	1093.26
425.14	1077.35
425.51	1086.48
425.87	1086.71
426.24	1080.39
426.61	1077.11
426.97	1081.33
427.34	1076.65
427.70	1084.60
428.07	1088.58
428.44	1092.33
428.80	1098.65
429.17	1093.73
429.53	1077.11
429.90	1069.86
430.27	1066.11
430.63	1055.58
431.00	1063.31
431.36	1078.28
431.73	1083.20
432.09	1088.58
432.46	1098.88
432.83	1099.58
433.19	1095.84
433.56	1095.14
433.92	1082.97
434.29	1073.37
434.65	1070.33
435.02	1068.69
435.38	1072.90
435.75	1078.52
436.11	1078.28
436.48	1078.05
436.84	1083.90
437.21	1076.65
437.57	1062.84
437.94	1059.56
438.30	1056.28
438.67	1049.96
439.03	1050.20
439.40	1067.75
439.76	1069.39
440.13	1062.84
440.49	1058.86
440.86	1075.71
441.22	1075.24
441.59	1085.07
441.95	1090.92
442.32	1097.01
442.68	1077.58
443.05	1075.24
443.41	1074.07
443.78	1075.48
444.14	1080.63
444.51	1087.41
444.87	1093.03
445.24	1092.56
445.60	1093.50
445.96	1084.37
446.33	1085.54
446.69	1083.20
447.06	1078.28
447.42	1088.82
447.79	1086.24
448.15	1085.77
448.51	1096.54
448.88	1096.78
449.24	1075.71
449.61	1075.94
449.97	1075.48
450.33	1052.54
450.70	1055.58
451.06	1061.90
451.43	1063.31
451.79	1061.67
452.15	1070.33
452.52	1076.88
452.88	1089.99
453.24	1097.24
453.61	1109.18
453.97	1104.03
454.34	1106.84
454.70	1092.80
455.06	1085.54
455.43	1071.73
455.79	1077.11
456.15	1057.69
456.52	1066.11
456.88	1065.18
457.24	1070.80
457.61	1058.39
457.97	1069.86
458.33	1070.80
458.70	1079.22
459.06	1075.71
459.42	1084.84
459.79	1078.99
460.15	1077.11
460.51	1077.58
460.88	1078.52
461.24	1088.58
461.60	1091.39
461.96	1099.12
462.33	1099.82
462.69	1095.14
463.05	1089.52
463.42	1089.52
463.78	1081.56
464.14	1068.45
464.50	1070.80
464.87	1061.43
465.23	1062.84
465.59	1056.75
465.95	1069.16
466.32	1070.33
466.68	1076.65
467.04	1075.48
467.40	1080.39
467.77	1073.37
468.13	1065.18
468.49	1063.07
468.85	1062.14
469.22	1067.28
469.58	1071.97
469.94	1085.77
470.30	1093.50
470.66	1089.75
471.03	1084.14
471.39	1084.84
471.75	1088.35
472.11	1077.11
472.47	1077.58
472.84	1071.50
473.20	1072.67
473.56	1060.96
473.92	1069.86
474.28	1070.56
474.65	1079.46
475.01	1067.28
475.37	1074.77
475.73	1072.90
476.09	1079.69
476.45	1071.73
476.81	1072.67
477.18	1073.60
477.54	1075.24
477.90	1074.77
478.26	1086.24
478.62	1090.92
478.98	1091.16
479.34	1092.09
479.71	1084.37
480.07	1085.31
480.43	1086.94
480.79	1078.05
481.15	1064.24
481.51	1072.90
481.87	1075.24
482.23	1087.18
482.59	1100.05
482.96	1118.78
483.32	1106.84
483.68	1094.67
484.04	1084.37
484.40	1073.84
484.76	1067.28
485.12	1075.48
485.48	1081.09
485.84	1078.52
486.20	1084.37
486.56	1088.12
486.92	1095.60
487.28	1091.63
487.64	1092.80
488.00	1089.75
488.37	1094.43
488.73	1085.54
489.09	1091.86
489.45	1085.54
489.81	1085.54
490.17	1075.48
490.53	1075.71
490.89	1072.90
491.25	1079.46
491.61	1087.18
491.97	1089.99
492.33	1089.52
492.69	1087.65
493.05	1092.09
493.41	1083.43
493.77	1079.22
494.13	1080.63
494.49	1078.75
494.85	1071.73
495.21	1066.82
495.57	1074.07
495.93	1079.92
496.29	1080.39
496.64	1081.80
497.00	1083.43
497.36	1075.94
497.72	1071.73
498.08	1079.22
498.44	1071.97
498.80	1077.35
499.16	1079.46
499.52	1080.86
499.88	1082.50
500.24	1093.03
500.60	1095.14
500.96	1106.61
501.32	1103.33
501.68	1108.71
502.03	1110.12
502.39	1101.22
502.75	1088.35
503.11	1094.90
503.47	1082.97
503.83	1081.33
504.19	1085.77
504.55	1087.18
504.91	1082.03
505.26	1088.35
505.62	1077.11
505.98	1075.48
506.34	1083.20
506.70	1083.67
507.06	1079.92
507.42	1090.46
507.78	1092.33
508.13	1087.65
508.49	1083.67
508.85	1079.69
509.21	1067.52
509.57	1068.69
509.93	1075.24
510.28	1077.35
510.64	1081.80
511.00	1093.26
511.36	1086.48
511.72	1082.50
512.07	1087.88
512.43	1083.20
512.79	1085.07
513.15	1095.14
513.51	1093.26
513.86	1091.63
514.22	1088.58
514.58	1080.86
514.94	1077.58
515.30	1075.01
515.65	1079.92
516.01	1087.88
516.37	1090.69
516.73	1094.43
517.08	1098.88
517.44	1090.22
517.80	1085.77
518.16	1086.94
518.51	1083.20
518.87	1084.37
519.23	1091.63
519.59	1096.78
519.94	1092.80
520.30	1096.54
520.66	1086.24
521.01	1081.56
521.37	1081.80
521.73	1093.50
522.09	1087.65
522.44	1089.29
522.80	1089.52
523.16	1088.82
523.51	1085.31
523.87	1095.14
524.23	1092.09
524.58	1088.35
524.94	1090.22
525.30	1087.65
525.65	1084.37
526.01	1091.16
526.37	1094.67
526.72	1091.86
527.08	1091.16
527.44	1088.12
527.79	1084.37
528.15	1084.37
528.51	1085.54
528.86	1087.65
529.22	1082.03
529.58	1082.50
529.93	1081.33
530.29	1073.60
530.65	1071.97
531.00	1069.62
531.36	1086.48
531.71	1091.16
532.07	1097.24
532.43	1111.52
532.78	1124.39
533.14	1107.31
533.49	1099.58
533.85	1097.95
534.21	1088.82
534.56	1086.01
534.92	1091.86
535.27	1094.90
535.63	1095.14
535.98	1095.84
536.34	1088.35
536.69	1077.82
537.05	1074.07
537.41	1070.80
537.76	1061.43
538.12	1063.54
538.47	1074.07
538.83	1088.12
539.18	1089.52
539.54	1086.94
539.89	1094.43
540.25	1088.58
540.60	1075.94
540.96	1070.09
541.31	1075.01
541.67	1066.82
542.02	1071.50
542.38	1069.16
542.73	1079.46
543.09	1077.58
543.44	1083.67
543.80	1081.56
544.15	1087.18
544.51	1087.65
544.86	1092.09
545.22	1095.37
545.57	1092.09
545.93	1095.60
546.28	1093.03
546.64	1095.84
546.99	1086.71
547.35	1083.67
547.70	1085.77
548.05	1085.77
548.41	1079.22
548.76	1089.29
549.12	1099.58
549.47	1093.03
549.83	1100.75
550.18	1105.44
550.53	1097.48
550.89	1084.84
551.24	1077.35
551.60	1070.56
551.95	1068.69
552.30	1061.43
552.66	1066.11
553.01	1078.52
553.37	1078.52
553.72	1073.84
554.07	1075.24
554.43	1080.86
554.78	1073.37
555.13	1080.39
555.49	1084.60
555.84	1090.22
556.19	1087.88
556.55	1090.46
556.90	1073.84
557.26	1073.37
557.61	1075.01
557.96	1080.39
558.32	1082.26
558.67	1098.18
559.02	1108.71
559.37	1099.35
559.73	1095.14
560.08	1098.41
560.43	1091.63
560.79	1082.73
561.14	1081.09
561.49	1083.67
561.85	1076.65
562.20	1073.84
562.55	1075.94
562.90	1077.11
563.26	1074.31
563.61	1078.99
563.96	1084.60
564.32	1086.94
564.67	1097.71
565.02	1102.86
565.37	1103.09
565.73	1095.60
566.08	1082.50
566.43	1077.82
566.78	1074.31
567.14	1071.50
567.49	1074.07
567.84	1082.50
568.19	1076.41
568.54	1072.90
568.90	1074.07
569.25	1082.26
569.60	1069.86
569.95	1075.48
570.31	1068.69
570.66	1056.05
571.01	1048.09
571.36	1065.65
571.71	1066.11
572.06	1072.20
572.42	1074.07
572.77	1075.01
573.12	1066.82
573.47	1066.35
573.82	1069.62
574.18	1067.28
574.53	1078.75
574.88	1078.99
575.23	1072.67
575.58	1071.26
575.93	1089.29
576.28	1072.67
576.64	1075.01
576.99	1082.50
577.34	1073.84
577.69	1062.14
578.04	1069.16
578.39	1066.35
578.74	1071.03
579.09	1075.71
579.44	1082.73
579.80	1077.35
580.15	1083.90
580.50	1074.07
580.85	1081.56
581.20	1070.09
581.55	1075.24
581.90	1076.65
582.25	1084.60
582.60	1080.63
582.95	1095.84
583.30	1086.71
583.65	1086.71
584.00	1084.60
584.35	1083.20
584.71	1073.60
585.06	1084.37
585.41	1091.86
585.76	1087.65
586.11	1088.82
586.46	1097.48
586.81	1085.77
587.16	1060.03
587.51	1062.14
587.86	1058.39
588.21	1055.11
588.56	1067.52
588.91	1077.11
589.26	1081.33
589.61	1084.84
589.96	1078.52
590.31	1075.94
590.66	1074.31
591.01	1082.97
591.36	1081.33
591.71	1084.84
592.06	1081.33
592.41	1083.67
592.76	1073.60
593.10	1079.69
593.45	1083.20
593.80	1088.35
594.15	1077.35
594.50	1075.24
594.85	1073.37
595.20	1071.97
595.55	1064.71
595.90	1077.35
596.25	1081.56
596.60	1085.77
596.95	1083.43
597.30	1074.31
597.64	1120.88
597.99	1126.73
598.34	1116.90
598.69	1120.88
599.04	1131.65
599.39	1091.39
599.74	1082.97
600.09	1093.03
600.44	1098.65
600.78	1096.54
601.13	1094.20
601.48	1082.97
601.83	1080.16
602.18	1069.39
602.53	1075.94
602.88	1079.22
603.22	1095.37
603.57	1087.41
603.92	1093.97
604.27	1088.82
604.62	1080.39
604.97	1073.14
605.31	1075.71
605.66	1073.14
606.01	1083.20
606.36	1089.05
606.71	1089.29
607.05	1091.16
607.40	1084.84
607.75	1075.94
608.10	1065.88
608.44	1063.07
608.79	1071.03
609.14	1078.28
609.49	1079.22
609.84	1100.05
610.18	1110.12
610.53	1112.69
610.88	1119.24
611.23	1127.90
611.57	1115.73
611.92	1108.01
612.27	1097.24
612.62	1089.05
612.96	1079.46
613.31	1078.05
613.66	1089.99
614.00	1092.80
614.35	1086.94
614.70	1093.03
615.05	1086.94
615.39	1081.56
615.74	1083.43
616.09	1083.43
616.43	1075.71
616.78	1081.09
617.13	1078.28
617.47	1071.03
617.82	1069.62
618.17	1075.48
618.51	1078.75
618.86	1086.01
619.21	1086.24
619.55	1088.58
619.90	1087.65
620.25	1088.82
620.59	1085.31
620.94	1095.14
621.29	1097.71
621.63	1097.95
621.98	1093.73
622.32	1092.80
622.67	1090.22
623.02	1083.20
623.36	1080.39
623.71	1074.54
624.05	1070.56
624.40	1058.39
624.75	1060.50
625.09	1060.50
625.44	1065.88
625.78	1064.01
626.13	1072.67
626.48	1074.54
626.82	1084.37
627.17	1088.58
627.51	1098.41
627.86	1094.43
628.20	1100.05
628.55	1095.60
628.89	1089.05
629.24	1065.65
629.58	1069.39
629.93	1069.86
630.28	1069.39
630.62	1069.86
630.97	1085.77
631.31	1073.37
631.66	1070.33
632.00	1069.39
632.35	1072.90
632.69	1075.48
633.04	1090.22
633.38	1094.43
633.73	1098.41
634.07	1093.73
634.42	1090.69
634.76	1088.82
635.11	1081.56
635.45	1071.73
635.79	1079.92
636.14	1080.39
636.48	1087.88
636.83	1093.73
637.17	1089.99
637.52	1087.88
637.86	1087.41
638.21	1079.22
638.55	1075.71
638.89	1084.84
639.24	1080.86
639.58	1086.01
639.93	1095.14
640.27	1096.54
640.61	1093.26
640.96	1101.46
641.30	1099.12
641.65	1084.37
641.99	1090.22
642.33	1097.01
642.68	1087.65
643.02	1085.31
643.37	1096.07
643.71	1100.29
644.05	1092.56
644.40	1100.29
644.74	1106.14
645.08	1099.12
645.43	1095.37
645.77	1100.05
646.11	1099.12
646.46	1093.50
646.80	1086.94
647.14	1082.50
647.49	1074.77
647.83	1076.41
648.17	1076.41
648.52	1089.52
648.86	1091.63
649.20	1098.41
649.55	1101.46
649.89	1086.48
650.23	1086.94
650.57	1075.01
650.92	1071.26
651.26	1053.94
651.60	1064.24
651.95	1056.05
652.29	1063.54
652.63	1064.94
652.97	1070.56
653.32	1077.35
653.66	1078.28
654.00	1076.88
654.34	1073.84
654.69	1073.60
655.03	1069.16
655.37	1079.22
655.71	1079.92
656.05	1081.09
656.40	1078.52
656.74	1087.88
657.08	1085.07
657.42	1085.54
657.76	1093.03
658.11	1103.33
658.45	1095.60
658.79	1089.29
659.13	1086.71
659.47	1072.43
659.82	1074.31
660.16	1072.67
660.50	1079.22
660.84	1077.35
661.18	1086.01
661.52	1071.26
661.87	1077.82
662.21	1074.77
662.55	1082.26
662.89	1072.67
663.23	1083.67
663.57	1085.31
663.91	1086.48
664.25	1085.54
664.60	1096.78
664.94	1089.52
665.28	1084.14
665.62	1076.41
665.96	1075.71
666.30	1063.54
666.64	1056.28
666.98	1056.05
667.32	1052.77
667.66	1055.11
668.01	1069.86
668.35	1081.80
668.69	1085.77
669.03	1087.18
669.37	1086.01
669.71	1079.22
670.05	1076.18
670.39	1068.45
670.73	1071.97
671.07	1073.60
671.41	1072.20
671.75	1075.48
672.09	1081.09
672.43	1072.20
672.77	1069.62
673.11	1067.28
673.45	1069.16
673.79	1061.67
674.13	1080.16
674.47	1074.07
674.81	1079.92
675.15	1072.20
675.49	1076.88
675.83	1067.99
676.17	1068.22
676.51	1067.75
676.85	1062.60
677.19	1064.01
677.53	1071.97
677.87	1078.75
678.21	1080.86
678.55	1095.84
678.89	1088.82
679.23	1079.46
679.57	1078.75
679.90	1072.43
680.24	1061.67
680.58	1073.37
680.92	1072.67
681.26	1074.54
681.60	1089.29
681.94	1090.92
682.28	1082.50
682.62	1086.48
682.96	1082.26
683.29	1068.45
683.63	1067.52
683.97	1073.14
684.31	1068.45
684.65	1064.48
684.99	1063.31
685.33	1059.33
685.67	1061.43
686.00	1058.86
686.34	1057.45
686.68	1060.96
687.02	1065.88
687.36	1059.09
687.70	1069.39
688.03	1080.86
688.37	1082.03
688.71	1089.99
689.05	1096.31
689.39	1088.82
689.72	1094.20
690.06	1097.95
690.40	1103.56
690.74	1103.56
691.08	1104.97
691.41	1091.39
691.75	1079.22
692.09	1071.03
692.43	1055.82
692.76	1050.43
693.10	1055.35
693.44	1065.88
693.78	1073.14
694.11	1084.14
694.45	1094.20
694.79	1090.69
695.13	1090.46
695.46	1086.01
695.80	1092.09
696.14	1095.14
696.48	1101.46
696.81	1093.50
697.15	1080.63
697.49	1074.54
697.82	1068.45
698.16	1070.80
698.50	1073.60
698.83	1076.41
699.17	1076.65
699.51	1086.01
699.84	1074.07
700.18	1074.07
700.52	1067.52
700.85	1061.90
701.19	1053.01
701.53	1053.48
701.86	1062.84
702.20	1068.22
702.54	1073.84
702.87	1078.99
703.21	1082.73
703.55	1084.37
703.88	1093.73
704.22	1097.48
704.55	1095.84
704.89	1098.41
705.23	1083.90
705.56	1082.50
705.90	1076.88
706.23	1075.24
706.57	1067.99
706.91	1074.07
707.24	1073.14
707.58	1076.88
707.91	1077.35
708.25	1090.69
708.58	1097.48
708.92	1094.43
709.26	1095.84
709.59	1097.95
709.93	1091.16
710.26	1086.24
710.60	1094.90
710.93	1091.39
711.27	1099.12
711.60	1095.60
711.94	1097.01
712.27	1089.05
712.61	1086.01
712.94	1071.50
713.28	1081.09
713.61	1078.75
713.95	1084.37
714.28	1086.71
714.62	1085.07
714.95	1077.35
715.29	1076.18
715.62	1069.62
715.96	1075.94
716.29	1072.67
716.63	1074.07
716.96	1069.62
717.29	1074.54
717.63	1069.39
717.96	1081.09
718.30	1081.80
718.63	1088.58
718.97	1086.48
719.30	1086.94
719.63	1076.65
719.97	1080.63
720.30	1079.92
720.64	1080.63
720.97	1074.07
721.30	1082.03
721.64	1073.37
721.97	1066.58
722.31	1075.48
722.64	1078.52
722.97	1071.26
723.31	1079.22
723.64	1088.58
723.97	1079.69
724.31	1082.26
724.64	1091.39
724.98	1089.75
725.31	1092.09
725.64	1089.52
725.98	1096.07
726.31	1090.22
726.64	1098.18
726.97	1092.56
727.31	1097.48
727.64	1089.75
727.97	1087.88
728.31	1076.88
728.64	1079.92
728.97	1073.84
729.31	1077.35
729.64	1083.90
729.97	1087.18
730.30	1089.29
730.64	1086.24
730.97	1076.65
731.30	1072.90
731.63	1069.62
731.97	1066.11
732.30	1077.35
732.63	1088.12
732.96	1093.26
733.30	1093.03
733.63	1092.80
733.96	1084.60
734.29	1080.86
734.63	1075.24
734.96	1071.50
735.29	1074.77
735.62	1085.07
735.95	1081.33
736.29	1083.67
736.62	1087.65
736.95	1089.29
737.28	1073.14
737.61	1081.09
737.94	1069.62
738.28	1071.97
738.61	1067.52
738.94	1078.75
739.27	1076.41
739.60	1078.52
739.93	1074.31
740.27	1089.99
740.60	1078.75
740.93	1062.84
741.26	1067.52
741.59	1078.05
741.92	1070.80
742.25	1076.88
742.58	1093.97
742.91	1104.97
743.25	1101.92
743.58	1090.22
743.91	1087.18
744.24	1085.54
744.57	1073.14
744.90	1075.71
745.23	1083.90
745.56	1082.03
745.89	1082.97
746.22	1082.03
746.55	1081.80
746.88	1072.43
747.21	1079.69
747.54	1089.52
747.87	1092.09
748.20	1089.29
748.53	1096.78
748.87	1091.86
749.20	1080.39
749.53	1090.92
749.86	1078.28
750.19	1069.86
750.52	1069.16
750.85	1067.75
751.18	1062.84
751.51	1071.73
751.84	1078.99
752.16	1074.77
752.49	1068.69
752.82	1065.65
753.15	1060.96
753.48	1056.05
753.81	1079.22
754.14	1078.28
754.47	1076.18
754.80	1079.69
755.13	1082.73
755.46	1064.01
755.79	1068.45
756.12	1073.60
756.45	1072.20
756.78	1067.99
757.11	1074.31
757.43	1077.35
757.76	1078.52
758.09	1078.52
758.42	1076.41
758.75	1071.26
759.08	1067.99
759.41	1072.43
759.74	1068.92
760.07	1073.60
760.39	1085.31
760.72	1096.31
761.05	1087.18
761.38	1098.41
761.71	1102.16
762.04	1089.52
762.36	1085.54
762.69	1085.54
763.02	1068.92
763.35	1061.43
763.68	1078.28
764.01	1063.77
764.33	1070.33
764.66	1079.22
764.99	1078.52
765.32	1067.05
765.65	1078.52
765.97	1066.11
766.30	1066.58
