SpectraSuite Data File
++++++++++++++++++++++++++++++++++++
Date: Mon Aug 26 10:25:46 PDT 2019
User: corrico
Dark Spectrum Present: No
Reference Spectrum Present: No
Number of Sampled Component Spectra: 1
Spectrometers: USB2+H06089
Integration Time (usec): 10000 (USB2+H06089)
Spectra Averaged: 2 (USB2+H06089)
Boxcar Smoothing: 2 (USB2+H06089)
Correct for Electrical Dark: No (USB2+H06089)
Strobe/Lamp Enabled: No (USB2+H06089)
Correct for Detector Non-linearity: No (USB2+H06089)
Correct for Stray Light: No (USB2+H06089)
Number of Pixels in Processed Spectrum: 2048
>>>>>Begin Processed Spectral Data<<<<<
339.70	990.05
340.07	990.05
340.45	972.73
340.82	962.66
341.19	954.24
341.57	939.26
341.94	935.75
342.31	923.81
342.69	914.45
343.06	902.98
343.43	894.08
343.81	890.81
344.18	897.36
344.55	900.17
344.93	907.43
345.30	917.49
345.67	921.23
346.04	928.72
346.42	932.24
346.79	946.04
347.16	956.11
347.54	975.54
347.91	993.09
348.28	1006.90
348.65	1009.00
349.03	1022.81
349.40	1022.35
349.77	1022.11
350.14	1032.18
350.52	1035.69
350.89	1035.22
351.26	1042.47
351.63	1044.58
352.01	1047.39
352.38	1053.94
352.75	1068.22
353.12	1067.75
353.50	1075.94
353.87	1084.37
354.24	1097.95
354.61	1091.39
354.98	1088.58
355.36	1075.48
355.73	1081.33
356.10	1073.37
356.47	1076.41
356.84	1087.65
357.22	1106.37
357.59	1096.31
357.96	1093.50
358.33	1095.60
358.70	1092.33
359.08	1082.50
359.45	1083.67
359.82	1083.20
360.19	1075.71
360.56	1065.65
360.94	1075.94
361.31	1078.28
361.68	1076.88
362.05	1084.60
362.42	1085.54
362.79	1075.94
363.16	1073.14
363.54	1077.82
363.91	1077.58
364.28	1082.97
364.65	1078.05
365.02	1075.94
365.39	1072.20
365.76	1064.94
366.14	1064.01
366.51	1065.88
366.88	1073.14
367.25	1071.03
367.62	1076.65
367.99	1076.88
368.36	1086.48
368.73	1081.09
369.10	1087.65
369.48	1086.01
369.85	1082.50
370.22	1071.97
370.59	1070.80
370.96	1063.07
371.33	1058.62
371.70	1062.37
372.07	1069.16
372.44	1060.03
372.81	1070.56
373.18	1075.24
373.55	1079.22
373.93	1073.60
374.30	1081.56
374.67	1076.65
375.04	1067.28
375.41	1075.01
375.78	1076.65
376.15	1082.03
376.52	1087.65
376.89	1088.58
377.26	1070.80
377.63	1065.65
378.00	1060.03
378.37	1041.77
378.74	1034.05
379.11	1030.30
379.48	1032.41
379.85	1034.52
380.22	1050.20
380.59	1070.80
380.96	1078.75
381.33	1088.35
381.70	1090.92
382.07	1085.07
382.44	1081.09
382.81	1093.97
383.18	1092.09
383.55	1085.07
383.92	1085.54
384.29	1085.07
384.66	1080.16
385.03	1078.75
385.40	1081.09
385.77	1082.50
386.14	1076.18
386.51	1064.48
386.88	1063.31
387.25	1069.62
387.62	1069.39
387.99	1075.01
388.36	1085.07
388.73	1090.22
389.10	1073.14
389.46	1066.35
389.83	1063.07
390.20	1062.37
390.57	1053.01
390.94	1060.26
391.31	1067.52
391.68	1068.69
392.05	1065.18
392.42	1056.52
392.79	1059.33
393.16	1066.11
393.53	1070.80
393.89	1077.11
394.26	1083.43
394.63	1085.31
395.00	1082.50
395.37	1074.77
395.74	1073.60
396.11	1075.94
396.48	1068.69
396.84	1064.71
397.21	1066.58
397.58	1071.50
397.95	1073.84
398.32	1087.41
398.69	1088.82
399.06	1095.84
399.42	1089.99
399.79	1094.67
400.16	1092.80
400.53	1086.94
400.90	1081.80
401.27	1076.88
401.64	1067.52
402.00	1072.90
402.37	1073.14
402.74	1069.16
403.11	1081.80
403.48	1082.03
403.84	1074.77
404.21	1080.63
404.58	1090.22
404.95	1075.71
405.32	1078.52
405.68	1074.07
406.05	1073.60
406.42	1065.41
406.79	1070.80
407.16	1072.67
407.52	1077.58
407.89	1078.28
408.26	1084.14
408.63	1080.86
408.99	1078.05
409.36	1064.71
409.73	1059.79
410.10	1062.84
410.47	1062.60
410.83	1061.67
411.20	1067.99
411.57	1079.22
411.94	1062.84
412.30	1058.16
412.67	1068.69
413.04	1078.05
413.40	1069.62
413.77	1082.03
414.14	1088.82
414.51	1084.84
414.87	1084.84
415.24	1087.88
415.61	1078.99
415.97	1082.26
416.34	1081.80
416.71	1085.07
417.08	1082.50
417.44	1082.97
417.81	1070.80
418.18	1061.43
418.54	1058.39
418.91	1063.77
419.28	1068.45
419.64	1078.28
420.01	1098.88
420.38	1100.29
420.74	1089.99
421.11	1092.56
421.48	1083.20
421.84	1071.73
422.21	1072.43
422.58	1083.67
422.94	1074.31
423.31	1082.26
423.68	1079.46
424.04	1064.94
424.41	1063.07
424.77	1072.43
425.14	1077.82
425.51	1078.75
425.87	1088.58
426.24	1083.20
426.61	1079.69
426.97	1082.73
427.34	1095.84
427.70	1097.48
428.07	1095.60
428.44	1099.12
428.80	1092.33
429.17	1082.73
429.53	1075.71
429.90	1075.24
430.27	1069.16
430.63	1063.07
431.00	1066.11
431.36	1071.73
431.73	1082.50
432.09	1093.73
432.46	1103.09
432.83	1102.86
433.19	1095.14
433.56	1093.03
433.92	1086.24
434.29	1085.54
434.65	1076.18
435.02	1082.73
435.38	1079.92
435.75	1086.71
436.11	1085.54
436.48	1087.18
436.84	1082.50
437.21	1078.52
437.57	1072.90
437.94	1074.54
438.30	1072.90
438.67	1080.86
439.03	1084.37
439.40	1085.07
439.76	1072.67
440.13	1074.07
440.49	1074.07
440.86	1076.65
441.22	1076.18
441.59	1082.50
441.95	1088.12
442.32	1076.18
442.68	1074.54
443.05	1066.58
443.41	1072.67
443.78	1069.62
444.14	1080.63
444.51	1075.48
444.87	1084.84
445.24	1082.03
445.60	1089.99
445.96	1096.07
446.33	1104.50
446.69	1097.24
447.06	1085.31
447.42	1074.54
447.79	1063.77
448.15	1060.50
448.51	1069.86
448.88	1080.16
449.24	1088.35
449.61	1095.84
449.97	1088.82
450.33	1088.82
450.70	1085.31
451.06	1072.67
451.43	1056.05
451.79	1058.39
452.15	1047.86
452.52	1053.24
452.88	1061.43
453.24	1065.88
453.61	1068.45
453.97	1076.65
454.34	1075.94
454.70	1071.26
455.06	1078.99
455.43	1075.01
455.79	1073.14
456.15	1076.88
456.52	1076.41
456.88	1072.20
457.24	1078.99
457.61	1088.82
457.97	1086.71
458.33	1083.90
458.70	1082.73
459.06	1077.82
459.42	1071.26
459.79	1069.16
460.15	1080.86
460.51	1079.46
460.88	1085.31
461.24	1087.88
461.60	1097.71
461.96	1098.65
462.33	1096.78
462.69	1091.39
463.05	1077.11
463.42	1068.69
463.78	1066.82
464.14	1068.45
464.50	1064.94
464.87	1069.86
465.23	1072.67
465.59	1071.73
465.95	1078.05
466.32	1082.50
466.68	1085.77
467.04	1082.97
467.40	1083.67
467.77	1082.03
468.13	1088.82
468.49	1083.90
468.85	1080.86
469.22	1080.86
469.58	1078.52
469.94	1082.73
470.30	1086.71
470.66	1089.52
471.03	1087.65
471.39	1090.69
471.75	1080.63
472.11	1083.43
472.47	1085.31
472.84	1089.52
473.20	1091.39
473.56	1090.92
473.92	1094.43
474.28	1093.03
474.65	1074.77
475.01	1069.86
475.37	1064.48
475.73	1065.41
476.09	1069.39
476.45	1085.31
476.81	1088.58
477.18	1092.80
477.54	1086.48
477.90	1081.09
478.26	1075.01
478.62	1066.11
478.98	1063.54
479.34	1056.75
479.71	1057.69
480.07	1052.77
480.43	1059.56
480.79	1051.60
481.15	1071.97
481.51	1076.88
481.87	1087.88
482.23	1093.73
482.59	1104.03
482.96	1093.97
483.32	1086.71
483.68	1082.26
484.04	1089.29
484.40	1088.12
484.76	1081.80
485.12	1082.97
485.48	1082.97
485.84	1073.37
486.20	1067.99
486.56	1071.73
486.92	1076.18
487.28	1082.97
487.64	1082.03
488.00	1091.39
488.37	1092.56
488.73	1086.48
489.09	1084.84
489.45	1087.88
489.81	1079.92
490.17	1082.50
490.53	1086.01
490.89	1087.18
491.25	1082.97
491.61	1092.80
491.97	1087.18
492.33	1087.88
492.69	1086.24
493.05	1082.03
493.41	1085.07
493.77	1087.88
494.13	1079.69
494.49	1076.18
494.85	1082.26
495.21	1081.09
495.57	1075.94
495.93	1086.48
496.29	1086.71
496.64	1089.05
497.00	1080.63
497.36	1082.03
497.72	1073.14
498.08	1067.28
498.44	1066.11
498.80	1065.65
499.16	1075.01
499.52	1084.14
499.88	1092.80
500.24	1089.99
500.60	1090.69
500.96	1093.26
501.32	1088.12
501.68	1086.24
502.03	1087.18
502.39	1086.71
502.75	1074.54
503.11	1076.18
503.47	1064.48
503.83	1063.07
504.19	1069.16
504.55	1068.45
504.91	1068.45
505.26	1085.31
505.62	1086.24
505.98	1088.82
506.34	1086.71
506.70	1087.65
507.06	1085.77
507.42	1077.35
507.78	1070.33
508.13	1076.65
508.49	1071.50
508.85	1067.52
509.21	1065.18
509.57	1067.05
509.93	1064.01
510.28	1071.97
510.64	1068.92
511.00	1079.69
511.36	1081.56
511.72	1086.48
512.07	1077.58
512.43	1079.69
512.79	1083.20
513.15	1082.26
513.51	1089.99
513.86	1097.95
514.22	1100.05
514.58	1085.77
514.94	1085.07
515.30	1079.92
515.65	1085.31
516.01	1084.60
516.37	1097.01
516.73	1097.01
517.08	1096.07
517.44	1089.52
517.80	1084.60
518.16	1082.97
518.51	1090.92
518.87	1089.05
519.23	1093.26
519.59	1102.39
519.94	1100.29
520.30	1091.39
520.66	1088.58
521.01	1080.16
521.37	1075.24
521.73	1083.67
522.09	1087.65
522.44	1088.35
522.80	1090.46
523.16	1092.09
523.51	1084.37
523.87	1089.29
524.23	1086.71
524.58	1088.12
524.94	1094.67
525.30	1092.80
525.65	1095.60
526.01	1097.71
526.37	1106.14
526.72	1098.18
527.08	1102.86
527.44	1091.63
527.79	1086.71
528.15	1077.58
528.51	1083.67
528.86	1090.92
529.22	1093.50
529.58	1101.92
529.93	1105.67
530.29	1100.52
530.65	1099.35
531.00	1088.82
531.36	1088.35
531.71	1087.18
532.07	1095.14
532.43	1087.41
532.78	1108.95
533.14	1104.26
533.49	1095.60
533.85	1088.58
534.21	1090.46
534.56	1076.88
534.92	1075.71
535.27	1078.75
535.63	1082.73
535.98	1084.60
536.34	1084.60
536.69	1083.90
537.05	1081.80
537.41	1077.58
537.76	1073.84
538.12	1075.71
538.47	1079.69
538.83	1081.80
539.18	1084.14
539.54	1080.63
539.89	1069.86
540.25	1065.18
540.60	1068.92
540.96	1069.62
541.31	1066.35
541.67	1071.73
542.02	1075.48
542.38	1075.24
542.73	1065.41
543.09	1070.80
543.44	1079.22
543.80	1081.33
544.15	1080.63
544.51	1078.99
544.86	1082.73
545.22	1081.33
545.57	1072.67
545.93	1067.52
546.28	1075.71
546.64	1073.60
546.99	1076.65
547.35	1092.33
547.70	1102.39
548.05	1097.01
548.41	1095.37
548.76	1094.43
549.12	1081.33
549.47	1076.18
549.83	1083.20
550.18	1085.77
550.53	1089.29
550.89	1082.97
551.24	1077.82
551.60	1072.43
551.95	1074.77
552.30	1067.52
552.66	1086.01
553.01	1087.65
553.37	1094.20
553.72	1091.63
554.07	1087.18
554.43	1074.07
554.78	1082.03
555.13	1078.75
555.49	1084.84
555.84	1091.16
556.19	1097.24
556.55	1085.31
556.90	1076.65
557.26	1078.99
557.61	1067.75
557.96	1060.26
558.32	1056.99
558.67	1060.03
559.02	1042.47
559.37	1055.11
559.73	1060.73
560.08	1065.65
560.43	1074.77
560.79	1082.03
561.14	1078.28
561.49	1080.16
561.85	1087.65
562.20	1083.20
562.55	1082.03
562.90	1083.67
563.26	1082.03
563.61	1078.05
563.96	1083.43
564.32	1083.67
564.67	1082.73
565.02	1077.82
565.37	1074.77
565.73	1074.54
566.08	1075.71
566.43	1071.03
566.78	1073.84
567.14	1079.22
567.49	1077.11
567.84	1064.94
568.19	1066.82
568.54	1060.96
568.90	1064.48
569.25	1060.73
569.60	1080.86
569.95	1089.52
570.31	1103.56
570.66	1100.75
571.01	1103.09
571.36	1094.67
571.71	1087.88
572.06	1087.65
572.42	1079.69
572.77	1079.22
573.12	1081.80
573.47	1078.75
573.82	1072.20
574.18	1079.92
574.53	1074.31
574.88	1078.99
575.23	1082.50
575.58	1079.22
575.93	1084.14
576.28	1077.11
576.64	1075.94
576.99	1077.82
577.34	1080.16
577.69	1081.80
578.04	1089.29
578.39	1077.82
578.74	1074.31
579.09	1078.52
579.44	1079.22
579.80	1073.60
580.15	1080.16
580.50	1082.73
580.85	1084.84
581.20	1078.99
581.55	1087.18
581.90	1088.35
582.25	1090.46
582.60	1092.56
582.95	1095.37
583.30	1097.24
583.65	1092.09
584.00	1086.94
584.35	1090.46
584.71	1083.43
585.06	1087.41
585.41	1096.07
585.76	1103.33
586.11	1093.73
586.46	1089.75
586.81	1083.67
587.16	1075.94
587.51	1066.11
587.86	1074.54
588.21	1078.28
588.56	1088.35
588.91	1089.75
589.26	1099.82
589.61	1093.73
589.96	1093.97
590.31	1092.80
590.66	1095.14
591.01	1097.24
591.36	1095.37
591.71	1101.22
592.06	1095.14
592.41	1093.26
592.76	1086.48
593.10	1088.82
593.45	1090.69
593.80	1097.01
594.15	1099.82
594.50	1100.75
594.85	1099.12
595.20	1098.18
595.55	1087.41
595.90	1091.86
596.25	1088.58
596.60	1087.41
596.95	1082.26
597.30	1093.50
597.64	1141.48
597.99	1144.99
598.34	1140.54
598.69	1140.07
599.04	1125.10
599.39	1078.28
599.74	1075.01
600.09	1082.03
600.44	1084.60
600.78	1089.99
601.13	1083.43
601.48	1075.24
601.83	1077.11
602.18	1068.45
602.53	1065.18
602.88	1062.84
603.22	1075.24
603.57	1075.24
603.92	1084.84
604.27	1086.01
604.62	1084.37
604.97	1085.07
605.31	1078.99
605.66	1078.28
606.01	1083.67
606.36	1085.54
606.71	1083.43
607.05	1094.20
607.40	1087.65
607.75	1094.90
608.10	1100.99
608.44	1095.37
608.79	1087.18
609.14	1091.39
609.49	1080.86
609.84	1077.35
610.18	1080.16
610.53	1085.54
610.88	1085.54
611.23	1100.05
611.57	1096.31
611.92	1094.67
612.27	1091.86
612.62	1093.50
612.96	1086.94
613.31	1099.82
613.66	1107.54
614.00	1095.60
614.35	1085.54
614.70	1078.28
615.05	1060.73
615.39	1052.07
615.74	1064.71
616.09	1077.35
616.43	1070.33
616.78	1073.14
617.13	1073.14
617.47	1073.14
617.82	1069.16
618.17	1076.65
618.51	1082.26
618.86	1078.99
619.21	1069.39
619.55	1074.77
619.90	1078.28
620.25	1078.28
620.59	1068.92
620.94	1079.46
621.29	1078.28
621.63	1075.94
621.98	1083.43
622.32	1102.16
622.67	1101.69
623.02	1098.41
623.36	1107.07
623.71	1105.67
624.05	1103.80
624.40	1104.03
624.75	1103.80
625.09	1092.33
625.44	1099.58
625.78	1104.73
626.13	1103.09
626.48	1108.24
626.82	1110.82
627.17	1098.88
627.51	1094.43
627.86	1096.07
628.20	1092.80
628.55	1091.16
628.89	1092.80
629.24	1094.43
629.58	1091.16
629.93	1099.35
630.28	1095.60
630.62	1098.65
630.97	1093.97
631.31	1096.07
631.66	1083.43
632.00	1093.26
632.35	1078.28
632.69	1092.80
633.04	1097.95
633.38	1098.88
633.73	1094.20
634.07	1107.07
634.42	1093.50
634.76	1081.33
635.11	1092.80
635.45	1089.52
635.79	1082.97
636.14	1086.71
636.48	1085.31
636.83	1073.37
637.17	1086.48
637.52	1094.20
637.86	1094.67
638.21	1105.44
638.55	1100.29
638.89	1087.41
639.24	1083.90
639.58	1091.16
639.93	1085.07
640.27	1082.97
640.61	1092.80
640.96	1089.52
641.30	1069.16
641.65	1075.71
641.99	1078.99
642.33	1066.11
642.68	1064.71
643.02	1069.16
643.37	1058.86
643.71	1064.48
644.05	1074.31
644.40	1085.31
644.74	1083.20
645.08	1096.31
645.43	1097.24
645.77	1091.86
646.11	1087.41
646.46	1089.75
646.80	1079.46
647.14	1080.63
647.49	1084.60
647.83	1083.20
648.17	1089.75
648.52	1086.01
648.86	1085.31
649.20	1088.35
649.55	1089.75
649.89	1090.69
650.23	1095.84
650.57	1089.29
650.92	1084.60
651.26	1075.24
651.60	1064.48
651.95	1056.52
652.29	1062.14
652.63	1062.14
652.97	1072.20
653.32	1078.28
653.66	1089.75
654.00	1097.95
654.34	1099.58
654.69	1094.67
655.03	1099.35
655.37	1105.20
655.71	1092.56
656.05	1087.65
656.40	1092.80
656.74	1102.39
657.08	1090.92
657.42	1098.18
657.76	1100.29
658.11	1090.69
658.45	1087.88
658.79	1086.94
659.13	1085.54
659.47	1082.26
659.82	1088.12
660.16	1079.69
660.50	1093.73
660.84	1089.99
661.18	1097.48
661.52	1093.50
661.87	1093.50
662.21	1082.73
662.55	1090.92
662.89	1094.43
663.23	1092.33
663.57	1091.16
663.91	1083.43
664.25	1076.65
664.60	1069.16
664.94	1070.33
665.28	1062.14
665.62	1070.56
665.96	1064.01
666.30	1055.82
666.64	1059.33
666.98	1061.43
667.32	1064.48
667.66	1071.26
668.01	1075.71
668.35	1075.71
668.69	1084.37
669.03	1079.69
669.37	1076.88
669.71	1083.20
670.05	1079.92
670.39	1079.46
670.73	1071.50
671.07	1078.28
671.41	1070.56
671.75	1078.05
672.09	1078.52
672.43	1074.77
672.77	1073.60
673.11	1083.20
673.45	1076.18
673.79	1072.90
674.13	1081.56
674.47	1070.80
674.81	1062.14
675.15	1068.22
675.49	1071.73
675.83	1078.99
676.17	1079.22
676.51	1093.50
676.85	1087.41
677.19	1087.65
677.53	1092.33
677.87	1099.35
678.21	1089.52
678.55	1086.24
678.89	1083.90
679.23	1076.88
679.57	1078.05
679.90	1072.43
680.24	1083.90
680.58	1090.22
680.92	1089.75
681.26	1091.39
681.60	1098.18
681.94	1095.14
682.28	1088.35
682.62	1088.82
682.96	1085.77
683.29	1079.46
683.63	1073.37
683.97	1076.18
684.31	1076.65
684.65	1079.46
684.99	1082.97
685.33	1091.86
685.67	1084.60
686.00	1086.24
686.34	1086.24
686.68	1090.92
687.02	1085.31
687.36	1080.86
687.70	1077.11
688.03	1071.50
688.37	1080.86
688.71	1081.33
689.05	1087.88
689.39	1086.71
689.72	1085.31
690.06	1074.07
690.40	1075.24
690.74	1073.60
691.08	1085.07
691.41	1089.99
691.75	1088.12
692.09	1086.48
692.43	1091.16
692.76	1082.50
693.10	1083.67
693.44	1079.46
693.78	1090.46
694.11	1091.86
694.45	1083.20
694.79	1080.16
695.13	1085.54
695.46	1075.24
695.80	1072.43
696.14	1080.86
696.48	1083.43
696.81	1088.82
697.15	1090.69
697.49	1078.28
697.82	1082.03
698.16	1089.99
698.50	1090.69
698.83	1083.90
699.17	1096.31
699.51	1092.33
699.84	1083.90
700.18	1084.60
700.52	1093.50
700.85	1085.54
701.19	1077.35
701.53	1083.20
701.86	1075.94
702.20	1077.35
702.54	1092.56
702.87	1105.20
703.21	1100.05
703.55	1099.12
703.88	1096.31
704.22	1092.09
704.55	1085.07
704.89	1083.20
705.23	1078.05
705.56	1071.26
705.90	1056.99
706.23	1066.58
706.57	1064.94
706.91	1065.88
707.24	1065.88
707.58	1080.16
707.91	1068.45
708.25	1075.48
708.58	1078.75
708.92	1084.14
709.26	1085.77
709.59	1088.58
709.93	1083.67
710.26	1084.14
710.60	1082.97
710.93	1077.82
711.27	1075.94
711.60	1071.50
711.94	1075.48
712.27	1076.65
712.61	1076.65
712.94	1083.43
713.28	1087.65
713.61	1095.37
713.95	1098.88
714.28	1097.48
714.62	1091.16
714.95	1099.35
715.29	1087.88
715.62	1083.90
715.96	1082.97
716.29	1077.11
716.63	1067.75
716.96	1063.54
717.29	1075.24
717.63	1074.07
717.96	1081.09
718.30	1084.60
718.63	1089.52
718.97	1070.56
719.30	1068.45
719.63	1066.82
719.97	1059.09
720.30	1068.45
720.64	1074.31
720.97	1083.90
721.30	1087.18
721.64	1094.67
721.97	1081.33
722.31	1083.43
722.64	1074.54
722.97	1079.46
723.31	1078.05
723.64	1088.12
723.97	1089.52
724.31	1097.48
724.64	1095.60
724.98	1095.84
725.31	1100.99
725.64	1101.92
725.98	1109.18
726.31	1109.88
726.64	1111.99
726.97	1098.18
727.31	1093.73
727.64	1076.65
727.97	1077.58
728.31	1069.62
728.64	1078.05
728.97	1082.73
729.31	1093.26
729.64	1086.48
729.97	1089.29
730.30	1083.43
730.64	1082.03
730.97	1084.84
731.30	1083.90
731.63	1091.16
731.97	1093.73
732.30	1090.46
732.63	1087.41
732.96	1097.24
733.30	1097.01
733.63	1095.60
733.96	1099.58
734.29	1100.75
734.63	1091.63
734.96	1083.43
735.29	1090.69
735.62	1098.18
735.95	1096.31
736.29	1095.14
736.62	1098.41
736.95	1095.14
737.28	1092.80
737.61	1089.52
737.94	1089.05
738.28	1091.16
738.61	1081.09
738.94	1055.82
739.27	1063.31
739.60	1067.52
739.93	1068.69
740.27	1076.65
740.60	1096.31
740.93	1091.63
741.26	1076.18
741.59	1071.97
741.92	1068.69
742.25	1074.07
742.58	1067.99
742.91	1084.14
743.25	1089.52
743.58	1091.63
743.91	1082.03
744.24	1089.52
744.57	1086.24
744.90	1085.31
745.23	1085.07
745.56	1077.82
745.89	1078.05
746.22	1083.20
746.55	1074.77
746.88	1070.80
747.21	1084.84
747.54	1083.67
747.87	1081.56
748.20	1085.07
748.53	1092.80
748.87	1090.22
749.20	1080.63
749.53	1074.77
749.86	1071.03
750.19	1065.18
750.52	1057.45
750.85	1063.77
751.18	1073.84
751.51	1075.71
751.84	1077.11
752.16	1080.63
752.49	1077.35
752.82	1077.82
753.15	1082.97
753.48	1075.94
753.81	1074.07
754.14	1087.65
754.47	1087.18
754.80	1092.09
755.13	1103.09
755.46	1106.84
755.79	1102.16
756.12	1093.50
756.45	1074.54
756.78	1073.84
757.11	1068.45
757.43	1055.11
757.76	1061.90
758.09	1077.35
758.42	1068.69
758.75	1078.75
759.08	1083.20
759.41	1075.01
759.74	1076.18
760.07	1083.90
760.39	1071.50
760.72	1077.11
761.05	1090.69
761.38	1079.22
761.71	1071.73
762.04	1086.48
762.36	1080.86
762.69	1071.50
763.02	1078.52
763.35	1086.94
763.68	1072.43
764.01	1075.24
764.33	1077.82
764.66	1077.82
764.99	1074.54
765.32	1084.14
765.65	1083.43
765.97	1071.26
766.30	1075.48
