SpectraSuite Data File
++++++++++++++++++++++++++++++++++++
Date: Mon Aug 26 10:25:48 PDT 2019
User: corrico
Dark Spectrum Present: No
Reference Spectrum Present: No
Number of Sampled Component Spectra: 1
Spectrometers: USB2+H06089
Integration Time (usec): 10000 (USB2+H06089)
Spectra Averaged: 2 (USB2+H06089)
Boxcar Smoothing: 2 (USB2+H06089)
Correct for Electrical Dark: No (USB2+H06089)
Strobe/Lamp Enabled: No (USB2+H06089)
Correct for Detector Non-linearity: No (USB2+H06089)
Correct for Stray Light: No (USB2+H06089)
Number of Pixels in Processed Spectrum: 2048
>>>>>Begin Processed Spectral Data<<<<<
339.70	1064.94
340.07	1064.94
340.45	1018.37
340.82	990.98
341.19	961.96
341.57	927.55
341.94	922.41
342.31	906.26
342.69	899.94
343.06	899.47
343.43	906.96
343.81	902.98
344.18	914.45
344.55	922.64
344.93	921.94
345.30	933.17
345.67	943.00
346.04	941.13
346.42	945.34
346.79	959.39
347.16	961.73
347.54	966.41
347.91	979.28
348.28	983.73
348.65	990.28
349.03	995.43
349.40	1010.18
349.77	1014.62
350.14	1029.60
350.52	1034.28
350.89	1048.56
351.26	1053.48
351.63	1057.92
352.01	1058.39
352.38	1056.99
352.75	1045.52
353.12	1045.28
353.50	1050.67
353.87	1054.65
354.24	1066.35
354.61	1075.24
354.98	1079.92
355.36	1090.22
355.73	1091.39
356.10	1094.20
356.47	1099.35
356.84	1101.46
357.22	1094.20
357.59	1097.01
357.96	1080.16
358.33	1077.35
358.70	1073.84
359.08	1077.35
359.45	1069.39
359.82	1080.16
360.19	1074.31
360.56	1074.77
360.94	1072.20
361.31	1071.26
361.68	1068.69
362.05	1071.73
362.42	1061.90
362.79	1058.62
363.16	1067.28
363.54	1072.20
363.91	1073.14
364.28	1077.82
364.65	1075.01
365.02	1072.90
365.39	1067.99
365.76	1055.82
366.14	1067.99
366.51	1070.56
366.88	1063.31
367.25	1064.24
367.62	1077.58
367.99	1072.67
368.36	1064.71
368.73	1073.84
369.10	1069.86
369.48	1064.01
369.85	1056.28
370.22	1061.90
370.59	1057.69
370.96	1055.82
371.33	1056.28
371.70	1061.67
372.07	1068.22
372.44	1065.88
372.81	1077.58
373.18	1082.03
373.55	1071.97
373.93	1064.48
374.30	1064.24
374.67	1063.54
375.04	1058.62
375.41	1069.16
375.78	1068.69
376.15	1067.99
376.52	1068.22
376.89	1072.43
377.26	1069.62
377.63	1083.43
378.00	1093.50
378.37	1100.29
378.74	1096.54
379.11	1098.65
379.48	1093.50
379.85	1087.88
380.22	1072.43
380.59	1075.71
380.96	1074.31
381.33	1069.39
381.70	1068.69
382.07	1070.56
382.44	1067.05
382.81	1059.33
383.18	1053.24
383.55	1054.88
383.92	1050.43
384.29	1052.07
384.66	1062.37
385.03	1078.05
385.40	1082.26
385.77	1088.58
386.14	1102.63
386.51	1100.29
386.88	1093.26
387.25	1086.01
387.62	1088.35
387.99	1070.80
388.36	1064.01
388.73	1066.11
389.10	1062.14
389.46	1060.50
389.83	1061.67
390.20	1069.86
390.57	1070.56
390.94	1072.67
391.31	1073.14
391.68	1083.20
392.05	1093.50
392.42	1096.31
392.79	1095.84
393.16	1089.52
393.53	1087.18
393.89	1074.54
394.26	1063.54
394.63	1069.39
395.00	1077.58
395.37	1070.09
395.74	1073.37
396.11	1074.31
396.48	1084.14
396.84	1084.37
397.21	1090.22
397.58	1100.05
397.95	1103.80
398.32	1097.95
398.69	1093.50
399.06	1086.71
399.42	1078.52
399.79	1080.63
400.16	1065.65
400.53	1065.65
400.90	1068.69
401.27	1062.14
401.64	1060.96
402.00	1072.67
402.37	1072.90
402.74	1070.80
403.11	1078.52
403.48	1082.26
403.84	1081.33
404.21	1083.20
404.58	1089.05
404.95	1086.71
405.32	1083.90
405.68	1071.73
406.05	1071.26
406.42	1070.09
406.79	1062.37
407.16	1058.62
407.52	1054.65
407.89	1046.92
408.26	1041.07
408.63	1045.75
408.99	1047.39
409.36	1059.56
409.73	1065.88
410.10	1075.01
410.47	1066.58
410.83	1071.26
411.20	1071.97
411.57	1073.14
411.94	1066.35
412.30	1072.67
412.67	1066.11
413.04	1067.52
413.40	1066.58
413.77	1068.69
414.14	1073.60
414.51	1080.39
414.87	1086.71
415.24	1084.60
415.61	1082.50
415.97	1089.99
416.34	1091.16
416.71	1075.24
417.08	1073.37
417.44	1067.52
417.81	1055.82
418.18	1045.28
418.54	1056.75
418.91	1068.45
419.28	1072.90
419.64	1074.07
420.01	1075.01
420.38	1067.75
420.74	1049.26
421.11	1058.16
421.48	1051.84
421.84	1052.54
422.21	1056.99
422.58	1078.52
422.94	1069.86
423.31	1073.37
423.68	1077.11
424.04	1082.50
424.41	1067.52
424.77	1078.99
425.14	1091.86
425.51	1093.97
425.87	1089.52
426.24	1085.54
426.61	1076.41
426.97	1071.97
427.34	1067.05
427.70	1068.92
428.07	1080.63
428.44	1075.94
428.80	1065.18
429.17	1078.99
429.53	1078.28
429.90	1077.11
430.27	1085.07
430.63	1093.73
431.00	1075.01
431.36	1072.43
431.73	1069.62
432.09	1071.97
432.46	1065.88
432.83	1071.73
433.19	1071.03
433.56	1072.20
433.92	1071.73
434.29	1073.14
434.65	1075.48
435.02	1068.45
435.38	1067.05
435.75	1065.18
436.11	1069.86
436.48	1070.33
436.84	1080.86
437.21	1078.99
437.57	1074.07
437.94	1075.94
438.30	1078.75
438.67	1079.92
439.03	1089.05
439.40	1090.22
439.76	1085.31
440.13	1084.14
440.49	1081.33
440.86	1078.05
441.22	1075.71
441.59	1073.37
441.95	1067.28
442.32	1063.07
442.68	1054.41
443.05	1064.01
443.41	1072.90
443.78	1082.73
444.14	1090.69
444.51	1104.73
444.87	1091.16
445.24	1086.48
445.60	1082.97
445.96	1075.01
446.33	1066.11
446.69	1072.43
447.06	1076.65
447.42	1068.22
447.79	1070.56
448.15	1060.50
448.51	1071.03
448.88	1060.96
449.24	1068.69
449.61	1075.01
449.97	1086.24
450.33	1071.97
450.70	1073.84
451.06	1069.62
451.43	1064.71
451.79	1069.62
452.15	1071.97
452.52	1078.05
452.88	1093.26
453.24	1099.58
453.61	1087.88
453.97	1092.33
454.34	1084.60
454.70	1068.45
455.06	1061.43
455.43	1077.82
455.79	1075.48
456.15	1072.90
456.52	1082.97
456.88	1086.71
457.24	1083.67
457.61	1090.46
457.97	1104.03
458.33	1100.75
458.70	1090.92
459.06	1082.26
459.42	1069.39
459.79	1066.11
460.15	1063.31
460.51	1067.99
460.88	1068.92
461.24	1073.84
461.60	1072.90
461.96	1071.97
462.33	1082.26
462.69	1080.39
463.05	1079.22
463.42	1073.14
463.78	1061.43
464.14	1059.79
464.50	1065.88
464.87	1067.28
465.23	1071.97
465.59	1078.28
465.95	1069.16
466.32	1066.11
466.68	1070.09
467.04	1077.82
467.40	1092.80
467.77	1093.97
468.13	1095.60
468.49	1086.24
468.85	1078.28
469.22	1074.54
469.58	1077.82
469.94	1083.90
470.30	1091.86
470.66	1098.88
471.03	1100.29
471.39	1093.50
471.75	1086.71
472.11	1089.05
472.47	1082.03
472.84	1075.24
473.20	1078.99
473.56	1080.86
473.92	1077.58
474.28	1079.69
474.65	1079.92
475.01	1087.88
475.37	1090.46
475.73	1090.22
476.09	1094.43
476.45	1095.84
476.81	1081.33
477.18	1077.58
477.54	1086.48
477.90	1079.22
478.26	1074.07
478.62	1075.94
478.98	1078.75
479.34	1067.75
479.71	1067.99
480.07	1065.88
480.43	1073.60
480.79	1072.20
481.15	1080.39
481.51	1086.24
481.87	1090.46
482.23	1082.73
482.59	1078.75
482.96	1078.05
483.32	1070.09
483.68	1067.99
484.04	1070.80
484.40	1077.11
484.76	1069.86
485.12	1065.88
485.48	1070.80
485.84	1078.05
486.20	1073.37
486.56	1067.52
486.92	1078.28
487.28	1076.65
487.64	1068.69
488.00	1065.41
488.37	1074.31
488.73	1074.07
489.09	1073.60
489.45	1088.58
489.81	1089.29
490.17	1089.52
490.53	1082.26
490.89	1089.29
491.25	1081.80
491.61	1083.20
491.97	1078.28
492.33	1082.03
492.69	1084.14
493.05	1086.48
493.41	1090.69
493.77	1101.46
494.13	1104.26
494.49	1082.73
494.85	1078.05
495.21	1080.63
495.57	1078.05
495.93	1072.67
496.29	1084.60
496.64	1085.31
497.00	1080.39
497.36	1062.84
497.72	1066.82
498.08	1082.26
498.44	1085.07
498.80	1088.35
499.16	1108.24
499.52	1105.90
499.88	1089.99
500.24	1091.86
500.60	1076.88
500.96	1060.73
501.32	1065.41
501.68	1060.96
502.03	1048.79
502.39	1059.33
502.75	1070.80
503.11	1068.45
503.47	1070.80
503.83	1075.01
504.19	1079.46
504.55	1078.28
504.91	1072.90
505.26	1078.99
505.62	1082.73
505.98	1079.46
506.34	1076.65
506.70	1070.80
507.06	1070.33
507.42	1068.22
507.78	1068.22
508.13	1065.88
508.49	1071.73
508.85	1077.58
509.21	1085.54
509.57	1091.63
509.93	1098.88
510.28	1103.56
510.64	1100.29
511.00	1084.84
511.36	1078.05
511.72	1070.56
512.07	1068.92
512.43	1071.73
512.79	1082.50
513.15	1082.50
513.51	1079.46
513.86	1075.94
514.22	1065.88
514.58	1058.62
514.94	1069.39
515.30	1077.58
515.65	1080.16
516.01	1082.73
516.37	1081.80
516.73	1073.84
517.08	1075.01
517.44	1081.33
517.80	1074.07
518.16	1079.22
518.51	1076.41
518.87	1079.92
519.23	1071.50
519.59	1084.37
519.94	1087.18
520.30	1097.95
520.66	1089.05
521.01	1102.39
521.37	1095.14
521.73	1091.86
522.09	1085.07
522.44	1087.41
522.80	1080.16
523.16	1077.82
523.51	1079.92
523.87	1078.05
524.23	1080.39
524.58	1075.48
524.94	1076.88
525.30	1075.24
525.65	1075.94
526.01	1071.26
526.37	1071.97
526.72	1075.24
527.08	1085.54
527.44	1074.77
527.79	1081.56
528.15	1077.58
528.51	1083.90
528.86	1074.54
529.22	1085.54
529.58	1086.94
529.93	1084.84
530.29	1077.35
530.65	1079.69
531.00	1078.28
531.36	1079.92
531.71	1091.16
532.07	1092.56
532.43	1082.50
532.78	1088.35
533.14	1083.20
533.49	1074.31
533.85	1079.92
534.21	1100.29
534.56	1099.82
534.92	1090.69
535.27	1106.61
535.63	1097.01
535.98	1088.82
536.34	1081.80
536.69	1090.69
537.05	1083.20
537.41	1087.18
537.76	1082.26
538.12	1080.16
538.47	1081.56
538.83	1078.75
539.18	1065.65
539.54	1063.54
539.89	1075.24
540.25	1074.54
540.60	1063.31
540.96	1074.54
541.31	1077.11
541.67	1073.60
542.02	1076.18
542.38	1090.92
542.73	1082.50
543.09	1083.20
543.44	1081.56
543.80	1074.54
544.15	1078.05
544.51	1090.22
544.86	1093.50
545.22	1099.58
545.57	1106.14
545.93	1102.86
546.28	1100.29
546.64	1092.80
546.99	1082.73
547.35	1088.12
547.70	1080.86
548.05	1080.39
548.41	1080.63
548.76	1073.37
549.12	1059.56
549.47	1066.11
549.83	1060.03
550.18	1070.56
550.53	1069.39
550.89	1076.41
551.24	1076.88
551.60	1087.41
551.95	1078.75
552.30	1090.46
552.66	1085.31
553.01	1082.03
553.37	1078.99
553.72	1089.05
554.07	1085.54
554.43	1090.46
554.78	1087.65
555.13	1092.80
555.49	1086.24
555.84	1090.22
556.19	1086.48
556.55	1088.82
556.90	1081.56
557.26	1087.88
557.61	1082.50
557.96	1084.84
558.32	1080.16
558.67	1085.54
559.02	1064.48
559.37	1068.92
559.73	1062.60
560.08	1066.35
560.43	1065.88
560.79	1082.50
561.14	1075.94
561.49	1078.05
561.85	1082.97
562.20	1073.84
562.55	1066.11
562.90	1070.80
563.26	1077.58
563.61	1073.14
563.96	1075.24
564.32	1079.92
564.67	1078.28
565.02	1077.35
565.37	1073.60
565.73	1084.60
566.08	1082.26
566.43	1078.75
566.78	1075.01
567.14	1080.86
567.49	1078.75
567.84	1071.03
568.19	1072.20
568.54	1076.65
568.90	1077.82
569.25	1068.45
569.60	1078.75
569.95	1085.07
570.31	1088.58
570.66	1086.01
571.01	1084.14
571.36	1086.94
571.71	1084.60
572.06	1079.22
572.42	1083.43
572.77	1080.39
573.12	1078.05
573.47	1087.88
573.82	1086.48
574.18	1081.56
574.53	1091.63
574.88	1089.75
575.23	1087.65
575.58	1090.22
575.93	1094.90
576.28	1095.84
576.64	1094.43
576.99	1086.01
577.34	1087.41
577.69	1089.29
578.04	1083.20
578.39	1088.82
578.74	1096.07
579.09	1092.56
579.44	1085.31
579.80	1084.60
580.15	1074.31
580.50	1068.22
580.85	1063.54
581.20	1063.77
581.55	1069.62
581.90	1078.99
582.25	1084.84
582.60	1082.50
582.95	1085.07
583.30	1077.82
583.65	1073.14
584.00	1069.39
584.35	1073.60
584.71	1066.35
585.06	1070.56
585.41	1079.46
585.76	1076.88
586.11	1080.39
586.46	1091.86
586.81	1096.78
587.16	1081.56
587.51	1088.12
587.86	1095.37
588.21	1083.90
588.56	1076.65
588.91	1079.92
589.26	1064.01
589.61	1061.20
589.96	1069.16
590.31	1066.11
590.66	1073.84
591.01	1086.71
591.36	1087.18
591.71	1086.71
592.06	1090.69
592.41	1093.73
592.76	1077.35
593.10	1077.35
593.45	1076.65
593.80	1082.03
594.15	1077.11
594.50	1091.86
594.85	1091.16
595.20	1092.80
595.55	1085.77
595.90	1082.03
596.25	1081.80
596.60	1070.33
596.95	1067.05
597.30	1072.67
597.64	1124.16
597.99	1127.44
598.34	1136.33
598.69	1142.42
599.04	1134.46
599.39	1083.67
599.74	1072.90
600.09	1073.14
600.44	1070.09
600.78	1069.86
601.13	1072.90
601.48	1078.99
601.83	1082.26
602.18	1082.73
602.53	1085.77
602.88	1094.90
603.22	1092.56
603.57	1085.54
603.92	1077.82
604.27	1083.67
604.62	1074.31
604.97	1078.52
605.31	1076.65
605.66	1090.46
606.01	1096.78
606.36	1100.05
606.71	1099.82
607.05	1098.65
607.40	1092.56
607.75	1085.77
608.10	1079.46
608.44	1065.18
608.79	1071.50
609.14	1073.60
609.49	1076.65
609.84	1082.50
610.18	1092.33
610.53	1090.69
610.88	1091.63
611.23	1082.97
611.57	1087.18
611.92	1091.16
612.27	1095.14
612.62	1099.82
612.96	1109.41
613.31	1102.39
613.66	1102.39
614.00	1096.78
614.35	1086.48
614.70	1079.92
615.05	1087.18
615.39	1081.80
615.74	1089.05
616.09	1101.69
616.43	1111.52
616.78	1112.22
617.13	1116.67
617.47	1109.88
617.82	1098.65
618.17	1093.50
618.51	1078.75
618.86	1070.33
619.21	1068.45
619.55	1065.88
619.90	1056.75
620.25	1058.16
620.59	1059.79
620.94	1054.41
621.29	1052.77
621.63	1057.22
621.98	1053.71
622.32	1059.79
622.67	1066.11
623.02	1067.52
623.36	1065.18
623.71	1074.07
624.05	1081.80
624.40	1088.82
624.75	1091.39
625.09	1089.75
625.44	1096.78
625.78	1090.92
626.13	1092.33
626.48	1092.09
626.82	1093.73
627.17	1087.18
627.51	1081.80
627.86	1077.35
628.20	1080.86
628.55	1083.67
628.89	1083.43
629.24	1097.24
629.58	1096.78
629.93	1092.09
630.28	1095.84
630.62	1084.37
630.97	1076.18
631.31	1075.71
631.66	1072.90
632.00	1070.09
632.35	1074.07
632.69	1078.99
633.04	1074.77
633.38	1079.69
633.73	1077.82
634.07	1078.99
634.42	1074.31
634.76	1072.43
635.11	1070.80
635.45	1068.92
635.79	1062.60
636.14	1064.71
636.48	1069.62
636.83	1072.20
637.17	1070.09
637.52	1081.56
637.86	1080.16
638.21	1075.71
638.55	1063.07
638.89	1070.80
639.24	1068.45
639.58	1070.80
639.93	1079.46
640.27	1092.80
640.61	1097.01
640.96	1101.46
641.30	1094.43
641.65	1082.73
641.99	1083.20
642.33	1072.43
642.68	1072.20
643.02	1074.54
643.37	1092.09
643.71	1091.63
644.05	1096.78
644.40	1090.69
644.74	1095.14
645.08	1090.69
645.43	1095.37
645.77	1105.44
646.11	1110.58
646.46	1108.95
646.80	1100.75
647.14	1086.71
647.49	1079.46
647.83	1085.31
648.17	1074.31
648.52	1063.07
648.86	1061.43
649.20	1054.88
649.55	1050.90
649.89	1062.84
650.23	1076.88
650.57	1084.84
650.92	1084.37
651.26	1079.22
651.60	1075.01
651.95	1072.43
652.29	1075.01
652.63	1081.09
652.97	1087.88
653.32	1087.41
653.66	1098.88
654.00	1095.60
654.34	1096.07
654.69	1086.01
655.03	1089.75
655.37	1081.33
655.71	1084.37
656.05	1085.54
656.40	1102.63
656.74	1094.67
657.08	1097.48
657.42	1095.14
657.76	1086.94
658.11	1077.82
658.45	1079.69
658.79	1077.35
659.13	1082.50
659.47	1079.69
659.82	1077.35
660.16	1069.16
660.50	1061.67
660.84	1055.58
661.18	1058.62
661.52	1068.92
661.87	1079.46
662.21	1086.24
662.55	1082.26
662.89	1086.24
663.23	1080.86
663.57	1082.26
663.91	1083.67
664.25	1094.20
664.60	1094.90
664.94	1086.71
665.28	1082.73
665.62	1075.48
665.96	1069.39
666.30	1067.75
666.64	1068.45
666.98	1077.35
667.32	1085.54
667.66	1079.92
668.01	1081.09
668.35	1088.12
668.69	1082.50
669.03	1072.67
669.37	1085.07
669.71	1082.03
670.05	1076.18
670.39	1072.43
670.73	1086.94
671.07	1084.37
671.41	1091.16
671.75	1089.99
672.09	1096.31
672.43	1086.48
672.77	1092.33
673.11	1092.09
673.45	1096.07
673.79	1089.05
674.13	1094.20
674.47	1085.54
674.81	1079.92
675.15	1072.67
675.49	1082.50
675.83	1087.41
676.17	1092.33
676.51	1099.35
676.85	1098.88
677.19	1091.63
677.53	1083.90
677.87	1080.39
678.21	1076.88
678.55	1089.52
678.89	1088.35
679.23	1097.24
679.57	1086.71
679.90	1079.69
680.24	1077.82
680.58	1080.63
680.92	1069.62
681.26	1075.01
681.60	1081.80
681.94	1073.84
682.28	1077.11
682.62	1071.73
682.96	1070.33
683.29	1070.80
683.63	1077.35
683.97	1068.22
684.31	1073.84
684.65	1077.58
684.99	1071.97
685.33	1080.16
685.67	1080.63
686.00	1082.73
686.34	1083.20
686.68	1087.65
687.02	1083.20
687.36	1083.20
687.70	1079.69
688.03	1086.24
688.37	1081.56
688.71	1076.18
689.05	1082.26
689.39	1089.99
689.72	1086.71
690.06	1086.71
690.40	1087.88
690.74	1089.75
691.08	1081.09
691.41	1080.16
691.75	1079.22
692.09	1077.82
692.43	1076.88
692.76	1084.60
693.10	1086.94
693.44	1092.09
693.78	1095.37
694.11	1097.01
694.45	1100.52
694.79	1106.14
695.13	1101.92
695.46	1098.65
695.80	1088.12
696.14	1082.50
696.48	1075.01
696.81	1082.26
697.15	1079.22
697.49	1080.16
697.82	1080.16
698.16	1083.20
698.50	1081.56
698.83	1079.92
699.17	1090.46
699.51	1085.31
699.84	1080.63
700.18	1077.11
700.52	1075.48
700.85	1073.14
701.19	1081.33
701.53	1076.41
701.86	1080.39
702.20	1083.67
702.54	1081.80
702.87	1081.80
703.21	1088.58
703.55	1096.07
703.88	1089.75
704.22	1097.24
704.55	1089.29
704.89	1088.12
705.23	1083.43
705.56	1097.71
705.90	1088.35
706.23	1084.60
706.57	1085.54
706.91	1080.63
707.24	1071.26
707.58	1072.20
707.91	1078.52
708.25	1077.82
708.58	1076.88
708.92	1081.09
709.26	1079.69
709.59	1080.39
709.93	1075.01
710.26	1077.35
710.60	1083.43
710.93	1089.29
711.27	1097.95
711.60	1101.69
711.94	1104.97
712.27	1093.03
712.61	1087.18
712.94	1082.97
713.28	1088.12
713.61	1083.43
713.95	1085.07
714.28	1089.05
714.62	1080.86
714.95	1062.84
715.29	1063.77
715.62	1071.26
715.96	1077.82
716.29	1084.60
716.63	1092.80
716.96	1094.90
717.29	1091.63
717.63	1080.86
717.96	1068.22
718.30	1065.18
718.63	1070.09
718.97	1075.71
719.30	1074.77
719.63	1078.28
719.97	1077.35
720.30	1064.24
720.64	1053.94
720.97	1051.60
721.30	1064.71
721.64	1068.22
721.97	1071.73
722.31	1081.80
722.64	1091.86
722.97	1083.43
723.31	1082.26
723.64	1075.94
723.97	1076.18
724.31	1072.20
724.64	1069.39
724.98	1070.56
725.31	1074.54
725.64	1072.43
725.98	1070.33
726.31	1078.75
726.64	1091.63
726.97	1094.67
727.31	1085.54
727.64	1086.94
727.97	1075.24
728.31	1070.80
728.64	1080.86
728.97	1086.71
729.31	1086.71
729.64	1095.37
729.97	1090.69
730.30	1086.01
730.64	1092.56
730.97	1099.12
731.30	1102.16
731.63	1106.37
731.97	1097.71
732.30	1080.16
732.63	1069.16
732.96	1066.58
733.30	1068.22
733.63	1063.31
733.96	1073.14
734.29	1079.46
734.63	1077.58
734.96	1071.73
735.29	1081.56
735.62	1088.35
735.95	1091.16
736.29	1093.73
736.62	1096.54
736.95	1093.50
737.28	1091.63
737.61	1091.86
737.94	1081.09
738.28	1081.09
738.61	1083.20
738.94	1072.20
739.27	1057.45
739.60	1069.39
739.93	1064.71
740.27	1063.54
740.60	1063.07
740.93	1076.18
741.26	1079.69
741.59	1078.99
741.92	1079.46
742.25	1093.50
742.58	1089.99
742.91	1082.50
743.25	1088.58
743.58	1093.73
743.91	1077.35
744.24	1083.43
744.57	1081.80
744.90	1072.90
745.23	1069.86
745.56	1077.82
745.89	1076.65
746.22	1081.56
746.55	1086.01
746.88	1087.65
747.21	1086.94
747.54	1081.33
747.87	1077.82
748.20	1086.24
748.53	1093.50
748.87	1100.99
749.20	1099.58
749.53	1103.56
749.86	1095.37
750.19	1089.29
750.52	1075.01
750.85	1078.52
751.18	1066.35
751.51	1048.79
751.84	1039.67
752.16	1052.77
752.49	1057.92
752.82	1064.94
753.15	1077.35
753.48	1079.92
753.81	1079.69
754.14	1070.33
754.47	1072.67
754.80	1076.18
755.13	1077.11
755.46	1073.84
755.79	1090.46
756.12	1094.20
756.45	1100.05
756.78	1101.22
757.11	1098.18
757.43	1085.31
757.76	1079.69
758.09	1081.33
758.42	1079.92
758.75	1075.24
759.08	1075.48
759.41	1074.77
759.74	1073.84
760.07	1075.71
760.39	1083.90
760.72	1075.48
761.05	1068.22
761.38	1064.48
761.71	1053.71
762.04	1050.20
762.36	1052.54
762.69	1055.35
763.02	1059.33
763.35	1072.43
763.68	1072.20
764.01	1080.39
764.33	1090.46
764.66	1091.39
764.99	1087.18
765.32	1091.39
765.65	1080.16
765.97	1067.52
766.30	1059.56
