SpectraSuite Data File
++++++++++++++++++++++++++++++++++++
Date: Mon Aug 26 10:25:47 PDT 2019
User: corrico
Dark Spectrum Present: No
Reference Spectrum Present: No
Number of Sampled Component Spectra: 1
Spectrometers: USB2+H06089
Integration Time (usec): 10000 (USB2+H06089)
Spectra Averaged: 2 (USB2+H06089)
Boxcar Smoothing: 2 (USB2+H06089)
Correct for Electrical Dark: No (USB2+H06089)
Strobe/Lamp Enabled: No (USB2+H06089)
Correct for Detector Non-linearity: No (USB2+H06089)
Correct for Stray Light: No (USB2+H06089)
Number of Pixels in Processed Spectrum: 2048
>>>>>Begin Processed Spectral Data<<<<<
339.70	987.71
340.07	987.71
340.45	977.64
340.82	971.56
341.19	952.36
341.57	926.62
341.94	915.38
342.31	900.17
342.69	893.15
343.06	887.53
343.43	890.11
343.81	894.08
344.18	901.81
344.55	899.00
344.93	908.83
345.30	911.87
345.67	922.41
346.04	934.34
346.42	952.36
346.79	966.17
347.16	987.24
347.54	1005.73
347.91	1017.90
348.28	1011.35
348.65	1011.11
349.03	1024.69
349.40	1016.03
349.77	1003.86
350.14	1020.01
350.52	1029.84
350.89	1022.35
351.26	1027.96
351.63	1039.43
352.01	1041.54
352.38	1039.90
352.75	1047.62
353.12	1046.22
353.50	1055.58
353.87	1059.09
354.24	1067.28
354.61	1066.11
354.98	1077.35
355.36	1075.24
355.73	1087.18
356.10	1097.48
356.47	1099.82
356.84	1092.09
357.22	1095.14
357.59	1084.84
357.96	1075.94
358.33	1086.71
358.70	1093.26
359.08	1086.24
359.45	1084.37
359.82	1088.12
360.19	1083.20
360.56	1084.14
360.94	1086.24
361.31	1080.16
361.68	1074.31
362.05	1069.39
362.42	1064.94
362.79	1058.86
363.16	1062.37
363.54	1059.79
363.91	1059.79
364.28	1068.69
364.65	1069.39
365.02	1070.80
365.39	1080.63
365.76	1073.84
366.14	1071.26
366.51	1077.11
366.88	1078.52
367.25	1071.73
367.62	1073.14
367.99	1061.67
368.36	1070.56
368.73	1062.14
369.10	1067.99
369.48	1070.09
369.85	1067.75
370.22	1051.84
370.59	1062.60
370.96	1067.75
371.33	1070.80
371.70	1095.84
372.07	1105.44
372.44	1103.09
372.81	1088.58
373.18	1087.18
373.55	1067.52
373.93	1079.46
374.30	1083.90
374.67	1100.99
375.04	1104.73
375.41	1108.95
375.78	1089.99
376.15	1086.01
376.52	1069.39
376.89	1068.92
377.26	1069.39
377.63	1075.48
378.00	1074.07
378.37	1079.22
378.74	1079.46
379.11	1084.37
379.48	1085.54
379.85	1082.97
380.22	1073.14
380.59	1068.69
380.96	1060.50
381.33	1054.18
381.70	1052.77
382.07	1067.75
382.44	1068.92
382.81	1081.80
383.18	1078.52
383.55	1071.03
383.92	1065.88
384.29	1063.31
384.66	1048.79
385.03	1051.60
385.40	1072.67
385.77	1068.69
386.14	1078.28
386.51	1076.88
386.88	1075.24
387.25	1063.54
387.62	1061.43
387.99	1065.88
388.36	1075.01
388.73	1065.88
389.10	1070.80
389.46	1078.05
389.83	1072.67
390.20	1075.01
390.57	1082.50
390.94	1083.67
391.31	1081.33
391.68	1078.05
392.05	1076.65
392.42	1077.35
392.79	1068.22
393.16	1072.43
393.53	1077.58
393.89	1069.39
394.26	1077.82
394.63	1084.84
395.00	1082.26
395.37	1079.46
395.74	1078.99
396.11	1073.84
396.48	1076.18
396.84	1079.46
397.21	1075.71
397.58	1069.39
397.95	1075.01
398.32	1070.09
398.69	1069.16
399.06	1067.99
399.42	1074.77
399.79	1071.03
400.16	1062.14
400.53	1060.73
400.90	1057.45
401.27	1055.11
401.64	1053.94
402.00	1072.67
402.37	1063.31
402.74	1080.86
403.11	1091.39
403.48	1087.65
403.84	1069.86
404.21	1077.11
404.58	1066.82
404.95	1062.37
405.32	1058.39
405.68	1069.86
406.05	1065.88
406.42	1066.35
406.79	1066.82
407.16	1085.07
407.52	1078.75
407.89	1086.24
408.26	1083.90
408.63	1088.12
408.99	1077.82
409.36	1083.20
409.73	1083.43
410.10	1086.01
410.47	1083.20
410.83	1088.58
411.20	1086.94
411.57	1085.54
411.94	1079.22
412.30	1070.09
412.67	1058.86
413.04	1065.41
413.40	1062.37
413.77	1069.62
414.14	1077.35
414.51	1086.71
414.87	1089.99
415.24	1090.22
415.61	1090.92
415.97	1085.07
416.34	1084.60
416.71	1069.62
417.08	1079.69
417.44	1071.97
417.81	1081.09
418.18	1082.97
418.54	1093.73
418.91	1088.82
419.28	1098.88
419.64	1093.73
420.01	1093.26
420.38	1089.29
420.74	1082.26
421.11	1081.09
421.48	1083.67
421.84	1077.82
422.21	1073.14
422.58	1069.39
422.94	1062.14
423.31	1062.37
423.68	1053.48
424.04	1050.20
424.41	1056.28
424.77	1056.75
425.14	1047.62
425.51	1059.79
425.87	1067.75
426.24	1064.24
426.61	1066.58
426.97	1075.24
427.34	1064.48
427.70	1067.28
428.07	1078.52
428.44	1074.07
428.80	1073.60
429.17	1080.16
429.53	1071.50
429.90	1066.82
430.27	1063.77
430.63	1060.26
431.00	1070.09
431.36	1073.60
431.73	1071.73
432.09	1074.54
432.46	1078.99
432.83	1077.35
433.19	1077.35
433.56	1075.48
433.92	1079.22
434.29	1075.71
434.65	1064.48
435.02	1071.26
435.38	1072.20
435.75	1070.56
436.11	1069.16
436.48	1086.24
436.84	1083.90
437.21	1090.69
437.57	1092.33
437.94	1100.75
438.30	1087.41
438.67	1089.75
439.03	1087.88
439.40	1085.31
439.76	1081.09
440.13	1083.20
440.49	1072.90
440.86	1064.71
441.22	1066.35
441.59	1072.43
441.95	1078.05
442.32	1093.73
442.68	1097.95
443.05	1087.18
443.41	1089.75
443.78	1083.43
444.14	1067.75
444.51	1065.18
444.87	1080.86
445.24	1067.99
445.60	1062.37
445.96	1064.01
446.33	1071.73
446.69	1068.22
447.06	1075.24
447.42	1079.92
447.79	1087.65
448.15	1079.92
448.51	1080.16
448.88	1072.90
449.24	1082.50
449.61	1081.33
449.97	1086.01
450.33	1086.24
450.70	1088.58
451.06	1080.16
451.43	1077.58
451.79	1085.07
452.15	1080.86
452.52	1078.28
452.88	1080.39
453.24	1080.39
453.61	1069.62
453.97	1074.54
454.34	1077.58
454.70	1076.41
455.06	1077.58
455.43	1085.54
455.79	1085.07
456.15	1086.48
456.52	1086.24
456.88	1082.26
457.24	1080.63
457.61	1089.75
457.97	1084.14
458.33	1082.97
458.70	1079.92
459.06	1076.41
459.42	1071.50
459.79	1076.41
460.15	1076.18
460.51	1081.09
460.88	1086.94
461.24	1075.71
461.60	1080.16
461.96	1078.05
462.33	1083.67
462.69	1077.82
463.05	1089.52
463.42	1077.82
463.78	1088.58
464.14	1086.24
464.50	1089.29
464.87	1090.69
465.23	1102.16
465.59	1085.31
465.95	1089.99
466.32	1078.05
466.68	1071.97
467.04	1075.48
467.40	1080.86
467.77	1080.16
468.13	1088.58
468.49	1082.03
468.85	1072.43
469.22	1071.50
469.58	1063.31
469.94	1072.90
470.30	1076.88
470.66	1095.37
471.03	1110.35
471.39	1119.95
471.75	1108.01
472.11	1105.90
472.47	1081.56
472.84	1072.90
473.20	1067.75
473.56	1075.94
473.92	1086.01
474.28	1083.67
474.65	1080.86
475.01	1078.75
475.37	1078.28
475.73	1080.63
476.09	1094.43
476.45	1095.37
476.81	1102.39
477.18	1090.92
477.54	1084.60
477.90	1086.01
478.26	1091.63
478.62	1075.48
478.98	1073.60
479.34	1066.35
479.71	1069.62
480.07	1057.22
480.43	1069.86
480.79	1068.22
481.15	1065.18
481.51	1060.73
481.87	1075.71
482.23	1074.54
482.59	1086.24
482.96	1092.33
483.32	1087.18
483.68	1087.65
484.04	1096.07
484.40	1093.73
484.76	1097.48
485.12	1104.03
485.48	1090.92
485.84	1077.11
486.20	1074.54
486.56	1072.43
486.92	1070.09
487.28	1080.16
487.64	1082.03
488.00	1093.03
488.37	1086.94
488.73	1083.20
489.09	1087.88
489.45	1098.18
489.81	1093.50
490.17	1108.95
490.53	1111.05
490.89	1101.46
491.25	1093.50
491.61	1087.65
491.97	1080.63
492.33	1076.41
492.69	1075.24
493.05	1079.46
493.41	1076.88
493.77	1075.94
494.13	1080.16
494.49	1071.26
494.85	1064.24
495.21	1069.39
495.57	1067.52
495.93	1075.24
496.29	1082.03
496.64	1081.56
497.00	1082.73
497.36	1078.28
497.72	1074.07
498.08	1072.43
498.44	1077.82
498.80	1078.28
499.16	1092.33
499.52	1086.48
499.88	1091.16
500.24	1095.37
500.60	1095.60
500.96	1081.09
501.32	1086.01
501.68	1082.50
502.03	1072.67
502.39	1066.58
502.75	1067.99
503.11	1058.86
503.47	1064.01
503.83	1058.39
504.19	1059.33
504.55	1071.26
504.91	1077.35
505.26	1075.24
505.62	1085.77
505.98	1092.56
506.34	1092.56
506.70	1095.14
507.06	1095.84
507.42	1096.78
507.78	1101.22
508.13	1099.82
508.49	1104.03
508.85	1107.54
509.21	1100.29
509.57	1089.05
509.93	1081.56
510.28	1078.75
510.64	1076.41
511.00	1089.29
511.36	1089.29
511.72	1091.39
512.07	1082.03
512.43	1076.18
512.79	1069.16
513.15	1075.48
513.51	1087.65
513.86	1093.73
514.22	1106.84
514.58	1106.14
514.94	1103.56
515.30	1097.48
515.65	1103.33
516.01	1101.22
516.37	1099.58
516.73	1100.75
517.08	1083.67
517.44	1075.01
517.80	1069.39
518.16	1067.75
518.51	1072.20
518.87	1082.97
519.23	1093.03
519.59	1094.67
519.94	1099.82
520.30	1099.82
520.66	1105.20
521.01	1094.67
521.37	1096.31
521.73	1100.52
522.09	1093.97
522.44	1093.26
522.80	1095.14
523.16	1092.80
523.51	1084.37
523.87	1079.92
524.23	1078.05
524.58	1083.90
524.94	1081.33
525.30	1070.09
525.65	1068.22
526.01	1065.65
526.37	1067.99
526.72	1071.03
527.08	1086.01
527.44	1100.75
527.79	1104.03
528.15	1101.22
528.51	1094.67
528.86	1097.71
529.22	1097.01
529.58	1095.37
529.93	1084.37
530.29	1086.48
530.65	1073.60
531.00	1070.56
531.36	1070.80
531.71	1077.58
532.07	1089.52
532.43	1095.84
532.78	1081.80
533.14	1084.84
533.49	1084.84
533.85	1086.94
534.21	1081.80
534.56	1094.43
534.92	1099.82
535.27	1100.99
535.63	1091.39
535.98	1099.35
536.34	1096.07
536.69	1088.82
537.05	1087.18
537.41	1087.88
537.76	1092.56
538.12	1099.12
538.47	1090.92
538.83	1091.86
539.18	1089.29
539.54	1088.58
539.89	1090.46
540.25	1089.29
540.60	1091.39
540.96	1088.58
541.31	1083.90
541.67	1083.67
542.02	1090.92
542.38	1081.33
542.73	1082.97
543.09	1082.97
543.44	1073.14
543.80	1076.18
544.15	1088.82
544.51	1089.99
544.86	1088.35
545.22	1097.48
545.57	1092.33
545.93	1087.88
546.28	1087.18
546.64	1092.80
546.99	1082.73
547.35	1085.31
547.70	1093.50
548.05	1098.41
548.41	1093.03
548.76	1110.35
549.12	1116.20
549.47	1106.84
549.83	1110.12
550.18	1116.20
550.53	1089.75
550.89	1078.52
551.24	1082.97
551.60	1072.67
551.95	1066.35
552.30	1070.80
552.66	1078.28
553.01	1073.14
553.37	1080.86
553.72	1078.75
554.07	1079.92
554.43	1071.50
554.78	1075.01
555.13	1081.33
555.49	1082.03
555.84	1090.46
556.19	1095.37
556.55	1089.05
556.90	1071.97
557.26	1081.09
557.61	1082.73
557.96	1082.97
558.32	1086.48
558.67	1096.31
559.02	1093.97
559.37	1091.16
559.73	1094.67
560.08	1083.67
560.43	1067.75
560.79	1056.28
561.14	1046.69
561.49	1044.35
561.85	1059.09
562.20	1073.60
562.55	1083.90
562.90	1094.43
563.26	1092.09
563.61	1086.48
563.96	1086.01
564.32	1084.84
564.67	1078.99
565.02	1080.63
565.37	1085.54
565.73	1080.86
566.08	1081.56
566.43	1082.97
566.78	1086.71
567.14	1091.63
567.49	1096.07
567.84	1098.88
568.19	1100.99
568.54	1092.56
568.90	1078.99
569.25	1084.37
569.60	1072.90
569.95	1071.26
570.31	1076.65
570.66	1087.88
571.01	1079.92
571.36	1084.84
571.71	1081.80
572.06	1077.58
572.42	1069.86
572.77	1073.37
573.12	1071.97
573.47	1080.39
573.82	1088.35
574.18	1093.03
574.53	1092.33
574.88	1104.97
575.23	1100.05
575.58	1099.12
575.93	1098.18
576.28	1094.67
576.64	1081.56
576.99	1086.48
577.34	1087.65
577.69	1094.67
578.04	1097.71
578.39	1097.95
578.74	1094.90
579.09	1085.54
579.44	1066.58
579.80	1068.69
580.15	1068.92
580.50	1069.86
580.85	1080.63
581.20	1096.07
581.55	1095.14
581.90	1098.18
582.25	1099.58
582.60	1102.86
582.95	1100.05
583.30	1098.88
583.65	1096.78
584.00	1093.97
584.35	1075.71
584.71	1081.80
585.06	1079.22
585.41	1083.67
585.76	1080.39
586.11	1096.78
586.46	1093.03
586.81	1097.24
587.16	1101.69
587.51	1110.82
587.86	1096.31
588.21	1092.80
588.56	1093.50
588.91	1087.18
589.26	1081.33
589.61	1094.90
589.96	1098.41
590.31	1090.46
590.66	1086.94
591.01	1085.54
591.36	1079.46
591.71	1075.01
592.06	1080.16
592.41	1084.84
592.76	1094.43
593.10	1089.75
593.45	1093.03
593.80	1094.20
594.15	1092.33
594.50	1086.71
594.85	1087.65
595.20	1081.09
595.55	1082.26
595.90	1088.12
596.25	1093.03
596.60	1093.97
596.95	1105.44
597.30	1097.48
597.64	1144.99
597.99	1145.22
598.34	1141.95
598.69	1138.20
599.04	1137.03
599.39	1090.69
599.74	1081.09
600.09	1077.11
600.44	1071.97
600.78	1072.20
601.13	1060.96
601.48	1072.43
601.83	1075.94
602.18	1076.18
602.53	1078.99
602.88	1077.11
603.22	1072.67
603.57	1068.92
603.92	1074.77
604.27	1075.48
604.62	1086.71
604.97	1087.18
605.31	1101.46
605.66	1101.69
606.01	1093.03
606.36	1088.35
606.71	1081.56
607.05	1081.09
607.40	1076.41
607.75	1091.39
608.10	1095.14
608.44	1099.35
608.79	1089.29
609.14	1086.94
609.49	1082.03
609.84	1075.71
610.18	1077.35
610.53	1085.54
610.88	1088.35
611.23	1097.48
611.57	1105.20
611.92	1100.99
612.27	1101.69
612.62	1101.92
612.96	1100.52
613.31	1099.82
613.66	1101.92
614.00	1099.82
614.35	1090.92
614.70	1093.26
615.05	1096.54
615.39	1097.48
615.74	1101.46
616.09	1108.48
616.43	1099.35
616.78	1097.95
617.13	1095.60
617.47	1089.99
617.82	1088.35
618.17	1093.03
618.51	1084.84
618.86	1089.05
619.21	1095.37
619.55	1100.99
619.90	1097.71
620.25	1099.82
620.59	1097.24
620.94	1084.84
621.29	1082.50
621.63	1073.14
621.98	1076.65
622.32	1074.77
622.67	1086.01
623.02	1081.80
623.36	1100.99
623.71	1090.69
624.05	1093.50
624.40	1089.05
624.75	1097.24
625.09	1095.84
625.44	1095.14
625.78	1079.92
626.13	1082.97
626.48	1077.35
626.82	1065.41
627.17	1068.69
627.51	1086.48
627.86	1082.03
628.20	1079.22
628.55	1078.99
628.89	1085.31
629.24	1079.22
629.58	1082.73
629.93	1084.37
630.28	1086.71
630.62	1078.75
630.97	1076.41
631.31	1065.18
631.66	1064.24
632.00	1063.77
632.35	1070.56
632.69	1073.14
633.04	1081.09
633.38	1093.73
633.73	1093.26
634.07	1084.37
634.42	1077.58
634.76	1074.31
635.11	1060.73
635.45	1050.43
635.79	1056.99
636.14	1063.54
636.48	1073.14
636.83	1076.41
637.17	1087.18
637.52	1080.86
637.86	1079.22
638.21	1073.37
638.55	1075.94
638.89	1079.69
639.24	1084.14
639.58	1090.92
639.93	1099.82
640.27	1097.24
640.61	1092.33
640.96	1092.33
641.30	1092.33
641.65	1086.01
641.99	1086.71
642.33	1082.73
642.68	1086.01
643.02	1083.67
643.37	1083.90
643.71	1084.84
644.05	1087.88
644.40	1074.77
644.74	1073.60
645.08	1073.14
645.43	1071.26
645.77	1071.26
646.11	1079.92
646.46	1079.92
646.80	1088.35
647.14	1086.24
647.49	1083.67
647.83	1090.92
648.17	1087.88
648.52	1073.37
648.86	1069.16
649.20	1076.41
649.55	1064.48
649.89	1071.03
650.23	1077.11
650.57	1078.99
650.92	1080.16
651.26	1091.86
651.60	1093.50
651.95	1087.65
652.29	1088.35
652.63	1089.52
652.97	1085.54
653.32	1082.26
653.66	1090.92
654.00	1091.86
654.34	1086.48
654.69	1081.09
655.03	1070.56
655.37	1071.03
655.71	1073.84
656.05	1068.22
656.40	1074.07
656.74	1096.07
657.08	1089.29
657.42	1086.71
657.76	1090.92
658.11	1082.73
658.45	1071.03
658.79	1077.58
659.13	1081.80
659.47	1078.28
659.82	1090.92
660.16	1089.75
660.50	1089.75
660.84	1086.48
661.18	1090.22
661.52	1082.50
661.87	1074.07
662.21	1070.33
662.55	1068.45
662.89	1071.97
663.23	1078.28
663.57	1086.24
663.91	1080.39
664.25	1084.60
664.60	1076.18
664.94	1069.16
665.28	1073.37
665.62	1080.16
665.96	1079.22
666.30	1093.73
666.64	1104.73
666.98	1095.14
667.32	1090.22
667.66	1088.35
668.01	1080.86
668.35	1062.84
668.69	1060.96
669.03	1070.56
669.37	1068.22
669.71	1063.77
670.05	1071.50
670.39	1074.54
670.73	1070.09
671.07	1064.71
671.41	1064.24
671.75	1067.05
672.09	1067.05
672.43	1060.03
672.77	1067.05
673.11	1067.75
673.45	1071.03
673.79	1076.41
674.13	1082.03
674.47	1086.94
674.81	1092.33
675.15	1094.20
675.49	1092.33
675.83	1083.20
676.17	1076.88
676.51	1078.52
676.85	1078.99
677.19	1082.50
677.53	1093.73
677.87	1098.41
678.21	1105.90
678.55	1101.46
678.89	1100.05
679.23	1102.16
679.57	1098.88
679.90	1080.39
680.24	1076.41
680.58	1073.60
680.92	1073.60
681.26	1079.46
681.60	1087.65
681.94	1086.24
682.28	1086.94
682.62	1073.14
682.96	1072.90
683.29	1072.90
683.63	1079.22
683.97	1082.50
684.31	1089.52
684.65	1091.16
684.99	1097.01
685.33	1093.26
685.67	1085.54
686.00	1085.54
686.34	1085.54
686.68	1080.16
687.02	1081.33
687.36	1086.24
687.70	1090.69
688.03	1078.99
688.37	1085.07
688.71	1084.37
689.05	1080.16
689.39	1085.31
689.72	1084.14
690.06	1075.48
690.40	1085.31
690.74	1091.63
691.08	1086.94
691.41	1094.90
691.75	1095.84
692.09	1091.39
692.43	1093.50
692.76	1081.80
693.10	1076.65
693.44	1084.60
693.78	1078.28
694.11	1072.43
694.45	1089.99
694.79	1095.37
695.13	1090.69
695.46	1100.99
695.80	1100.05
696.14	1087.41
696.48	1085.77
696.81	1093.50
697.15	1080.16
697.49	1081.33
697.82	1085.77
698.16	1095.84
698.50	1083.90
698.83	1087.41
699.17	1078.28
699.51	1075.01
699.84	1076.65
700.18	1080.86
700.52	1090.46
700.85	1094.90
701.19	1108.95
701.53	1097.71
701.86	1094.90
702.20	1083.90
702.54	1082.50
702.87	1081.09
703.21	1089.52
703.55	1085.77
703.88	1084.60
704.22	1088.35
704.55	1071.73
704.89	1054.41
705.23	1054.88
705.56	1063.54
705.90	1080.16
706.23	1089.05
706.57	1102.16
706.91	1104.97
707.24	1098.65
707.58	1080.63
707.91	1079.92
708.25	1087.18
708.58	1081.09
708.92	1080.86
709.26	1083.90
709.59	1086.01
709.93	1067.28
710.26	1078.99
710.60	1077.35
710.93	1086.01
711.27	1080.39
711.60	1081.80
711.94	1073.14
712.27	1069.62
712.61	1067.99
712.94	1075.24
713.28	1086.01
713.61	1082.97
713.95	1088.12
714.28	1090.69
714.62	1080.39
714.95	1078.52
715.29	1087.65
715.62	1086.24
715.96	1081.56
716.29	1088.82
716.63	1078.99
716.96	1090.92
717.29	1095.14
717.63	1093.03
717.96	1088.35
718.30	1089.29
718.63	1071.50
718.97	1059.79
719.30	1057.22
719.63	1061.67
719.97	1060.96
720.30	1064.48
720.64	1081.09
720.97	1079.69
721.30	1062.84
721.64	1077.58
721.97	1074.54
722.31	1071.97
722.64	1071.97
722.97	1082.73
723.31	1070.56
723.64	1068.45
723.97	1059.79
724.31	1059.56
724.64	1061.67
724.98	1069.16
725.31	1068.45
725.64	1075.24
725.98	1079.22
726.31	1091.63
726.64	1084.37
726.97	1088.12
727.31	1093.73
727.64	1083.43
727.97	1066.35
728.31	1073.14
728.64	1073.60
728.97	1067.05
729.31	1076.18
729.64	1079.92
729.97	1071.73
730.30	1065.88
730.64	1067.28
730.97	1066.11
731.30	1071.73
731.63	1080.63
731.97	1084.37
732.30	1091.39
732.63	1096.07
732.96	1093.97
733.30	1087.18
733.63	1083.20
733.96	1076.88
734.29	1075.24
734.63	1066.11
734.96	1070.33
735.29	1073.14
735.62	1070.80
735.95	1069.16
736.29	1075.24
736.62	1062.14
736.95	1067.99
737.28	1066.82
737.61	1066.35
737.94	1062.84
738.28	1076.41
738.61	1074.07
738.94	1069.86
739.27	1067.99
739.60	1074.07
739.93	1067.99
740.27	1077.35
740.60	1078.75
740.93	1081.80
741.26	1073.84
741.59	1079.92
741.92	1073.84
742.25	1080.16
742.58	1071.73
742.91	1081.09
743.25	1078.75
743.58	1072.67
743.91	1076.18
744.24	1089.05
744.57	1095.37
744.90	1096.31
745.23	1103.33
745.56	1089.52
745.89	1075.94
746.22	1061.20
746.55	1061.67
746.88	1062.84
747.21	1068.92
747.54	1080.63
747.87	1084.84
748.20	1087.18
748.53	1090.69
748.87	1090.22
749.20	1076.88
749.53	1082.03
749.86	1075.24
750.19	1064.48
750.52	1066.11
750.85	1077.11
751.18	1073.14
751.51	1077.11
751.84	1087.88
752.16	1090.92
752.49	1094.43
752.82	1094.43
753.15	1098.88
753.48	1096.07
753.81	1099.58
754.14	1089.52
754.47	1082.97
754.80	1081.33
755.13	1078.05
755.46	1070.80
755.79	1075.24
756.12	1086.71
756.45	1082.50
756.78	1078.52
757.11	1073.84
757.43	1070.33
757.76	1067.28
758.09	1082.03
758.42	1088.35
758.75	1083.20
759.08	1090.22
759.41	1086.24
759.74	1070.09
760.07	1066.82
760.39	1075.94
760.72	1072.67
761.05	1064.24
761.38	1076.18
761.71	1078.75
762.04	1082.03
762.36	1082.73
762.69	1093.73
763.02	1091.86
763.35	1086.94
763.68	1086.48
764.01	1084.14
764.33	1085.77
764.66	1081.33
764.99	1078.05
765.32	1078.99
765.65	1078.28
765.97	1087.41
766.30	1085.77
