SpectraSuite Data File
++++++++++++++++++++++++++++++++++++
Date: Mon Aug 26 10:25:45 PDT 2019
User: corrico
Dark Spectrum Present: No
Reference Spectrum Present: No
Number of Sampled Component Spectra: 1
Spectrometers: USB2+H06089
Integration Time (usec): 10000 (USB2+H06089)
Spectra Averaged: 2 (USB2+H06089)
Boxcar Smoothing: 2 (USB2+H06089)
Correct for Electrical Dark: No (USB2+H06089)
Strobe/Lamp Enabled: No (USB2+H06089)
Correct for Detector Non-linearity: No (USB2+H06089)
Correct for Stray Light: No (USB2+H06089)
Number of Pixels in Processed Spectrum: 2048
>>>>>Begin Processed Spectral Data<<<<<
339.70	1023.98
340.07	1023.98
340.45	987.47
340.82	967.58
341.19	953.30
341.57	925.92
341.94	907.66
342.31	897.60
342.69	886.36
343.06	864.13
343.43	862.49
343.81	884.49
344.18	894.79
344.55	899.94
344.93	909.30
345.30	919.83
345.67	913.28
346.04	921.47
346.42	925.92
346.79	943.94
347.16	952.60
347.54	963.36
347.91	976.71
348.28	982.32
348.65	988.41
349.03	998.00
349.40	998.47
349.77	994.96
350.14	1011.58
350.52	1023.05
350.89	1018.37
351.26	1031.47
351.63	1046.69
352.01	1058.62
352.38	1053.24
352.75	1062.84
353.12	1059.33
353.50	1056.99
353.87	1046.92
354.24	1045.28
354.61	1055.58
354.98	1060.50
355.36	1066.35
355.73	1073.14
356.10	1080.86
356.47	1074.31
356.84	1082.03
357.22	1085.31
357.59	1092.33
357.96	1089.52
358.33	1093.26
358.70	1089.99
359.08	1086.48
359.45	1086.48
359.82	1099.58
360.19	1094.67
360.56	1096.07
360.94	1082.26
361.31	1071.73
361.68	1065.18
362.05	1073.60
362.42	1070.33
362.79	1079.46
363.16	1083.90
363.54	1087.65
363.91	1082.03
364.28	1079.92
364.65	1082.03
365.02	1077.58
365.39	1073.14
365.76	1070.33
366.14	1065.88
366.51	1064.01
366.88	1063.77
367.25	1058.16
367.62	1064.01
367.99	1064.24
368.36	1061.20
368.73	1071.26
369.10	1076.41
369.48	1065.88
369.85	1068.22
370.22	1078.28
370.59	1073.14
370.96	1079.92
371.33	1085.54
371.70	1078.28
372.07	1068.45
372.44	1059.56
372.81	1048.09
373.18	1047.39
373.55	1044.82
373.93	1049.96
374.30	1058.16
374.67	1058.39
375.04	1060.26
375.41	1066.58
375.78	1066.35
376.15	1074.54
376.52	1079.22
376.89	1074.54
377.26	1085.31
377.63	1079.46
378.00	1068.69
378.37	1065.18
378.74	1066.58
379.11	1065.88
379.48	1084.84
379.85	1087.65
380.22	1087.41
380.59	1089.29
380.96	1087.18
381.33	1064.94
381.70	1069.86
382.07	1067.05
382.44	1062.37
382.81	1052.54
383.18	1056.99
383.55	1052.54
383.92	1062.60
384.29	1069.62
384.66	1077.11
385.03	1078.52
385.40	1077.11
385.77	1066.58
386.14	1055.35
386.51	1053.24
386.88	1060.03
387.25	1059.79
387.62	1069.86
387.99	1087.65
388.36	1098.18
388.73	1091.63
389.10	1094.43
389.46	1096.78
389.83	1092.56
390.20	1089.52
390.57	1092.56
390.94	1099.12
391.31	1096.54
391.68	1107.31
392.05	1102.39
392.42	1100.52
392.79	1092.80
393.16	1093.50
393.53	1082.26
393.89	1071.26
394.26	1073.60
394.63	1075.01
395.00	1060.96
395.37	1046.92
395.74	1054.65
396.11	1060.03
396.48	1058.62
396.84	1066.11
397.21	1073.60
397.58	1073.60
397.95	1072.90
398.32	1074.77
398.69	1084.84
399.06	1091.86
399.42	1091.16
399.79	1083.20
400.16	1073.14
400.53	1062.37
400.90	1064.94
401.27	1062.14
401.64	1067.75
402.00	1067.99
402.37	1069.39
402.74	1069.16
403.11	1074.77
403.48	1068.92
403.84	1080.63
404.21	1079.46
404.58	1072.67
404.95	1077.35
405.32	1080.63
405.68	1078.52
406.05	1078.05
406.42	1069.39
406.79	1059.09
407.16	1049.73
407.52	1053.24
407.89	1065.65
408.26	1077.82
408.63	1078.52
408.99	1090.92
409.36	1084.84
409.73	1077.35
410.10	1077.82
410.47	1083.43
410.83	1079.22
411.20	1076.88
411.57	1079.92
411.94	1069.39
412.30	1070.56
412.67	1070.56
413.04	1073.60
413.40	1073.60
413.77	1072.90
414.14	1079.46
414.51	1086.71
414.87	1087.18
415.24	1090.69
415.61	1103.33
415.97	1102.39
416.34	1106.14
416.71	1104.26
417.08	1093.97
417.44	1091.39
417.81	1076.18
418.18	1068.22
418.54	1070.80
418.91	1070.33
419.28	1072.43
419.64	1077.11
420.01	1072.43
420.38	1067.05
420.74	1067.28
421.11	1070.33
421.48	1073.37
421.84	1075.24
422.21	1078.75
422.58	1077.58
422.94	1070.56
423.31	1067.05
423.68	1066.35
424.04	1060.96
424.41	1064.48
424.77	1063.07
425.14	1057.22
425.51	1053.94
425.87	1058.86
426.24	1055.11
426.61	1054.88
426.97	1062.60
427.34	1067.28
427.70	1065.88
428.07	1074.77
428.44	1077.82
428.80	1082.97
429.17	1078.75
429.53	1085.31
429.90	1079.92
430.27	1077.82
430.63	1066.58
431.00	1075.48
431.36	1065.88
431.73	1067.05
432.09	1069.86
432.46	1080.63
432.83	1071.26
433.19	1078.52
433.56	1078.28
433.92	1072.90
434.29	1070.33
434.65	1072.43
435.02	1065.65
435.38	1067.28
435.75	1066.82
436.11	1067.05
436.48	1071.26
436.84	1065.88
437.21	1056.75
437.57	1059.56
437.94	1052.30
438.30	1055.11
438.67	1063.54
439.03	1066.58
439.40	1074.54
439.76	1074.07
440.13	1068.22
440.49	1068.69
440.86	1067.99
441.22	1058.62
441.59	1061.67
441.95	1062.60
442.32	1064.48
442.68	1071.50
443.05	1073.84
443.41	1080.16
443.78	1074.54
444.14	1075.94
444.51	1070.09
444.87	1072.90
445.24	1064.48
445.60	1075.48
445.96	1076.18
446.33	1083.20
446.69	1085.07
447.06	1082.97
447.42	1074.77
447.79	1067.28
448.15	1062.14
448.51	1060.73
448.88	1065.18
449.24	1070.56
449.61	1077.58
449.97	1078.28
450.33	1076.41
450.70	1074.31
451.06	1070.09
451.43	1063.54
451.79	1064.71
452.15	1064.71
452.52	1067.52
452.88	1070.33
453.24	1081.80
453.61	1080.16
453.97	1084.60
454.34	1087.18
454.70	1082.50
455.06	1082.97
455.43	1088.12
455.79	1083.20
456.15	1084.60
456.52	1093.97
456.88	1085.54
457.24	1078.75
457.61	1082.26
457.97	1079.69
458.33	1079.46
458.70	1079.46
459.06	1080.39
459.42	1066.35
459.79	1067.52
460.15	1065.65
460.51	1064.01
460.88	1064.94
461.24	1067.28
461.60	1064.71
461.96	1062.60
462.33	1076.41
462.69	1080.63
463.05	1088.58
463.42	1083.43
463.78	1084.14
464.14	1075.71
464.50	1074.54
464.87	1073.37
465.23	1076.41
465.59	1072.43
465.95	1071.26
466.32	1066.35
466.68	1072.20
467.04	1081.33
467.40	1089.29
467.77	1089.99
468.13	1099.35
468.49	1095.37
468.85	1087.65
469.22	1082.26
469.58	1082.73
469.94	1076.18
470.30	1072.90
470.66	1084.37
471.03	1089.05
471.39	1094.67
471.75	1096.78
472.11	1099.35
472.47	1094.67
472.84	1086.48
473.20	1083.90
473.56	1071.03
473.92	1066.82
474.28	1068.69
474.65	1068.92
475.01	1058.39
475.37	1079.69
475.73	1083.90
476.09	1072.43
476.45	1081.80
476.81	1086.24
477.18	1064.01
477.54	1065.88
477.90	1077.58
478.26	1072.20
478.62	1073.14
478.98	1078.05
479.34	1080.39
479.71	1074.07
480.07	1071.50
480.43	1077.58
480.79	1086.94
481.15	1090.92
481.51	1088.35
481.87	1089.75
482.23	1086.01
482.59	1082.50
482.96	1083.67
483.32	1082.50
483.68	1080.63
484.04	1082.97
484.40	1083.43
484.76	1075.94
485.12	1078.99
485.48	1075.01
485.84	1064.01
486.20	1061.20
486.56	1065.18
486.92	1064.94
487.28	1071.26
487.64	1078.75
488.00	1084.60
488.37	1083.67
488.73	1090.92
489.09	1093.50
489.45	1090.46
489.81	1090.46
490.17	1086.71
490.53	1087.88
490.89	1091.39
491.25	1091.86
491.61	1099.82
491.97	1111.29
492.33	1105.67
492.69	1098.65
493.05	1104.97
493.41	1092.33
493.77	1085.31
494.13	1088.12
494.49	1081.33
494.85	1064.71
495.21	1062.60
495.57	1060.50
495.93	1056.28
496.29	1069.39
496.64	1083.67
497.00	1087.65
497.36	1091.86
497.72	1099.35
498.08	1086.48
498.44	1079.69
498.80	1082.03
499.16	1087.18
499.52	1085.77
499.88	1094.20
500.24	1104.50
500.60	1101.92
500.96	1086.48
501.32	1077.58
501.68	1077.58
502.03	1073.37
502.39	1069.62
502.75	1077.11
503.11	1077.58
503.47	1076.88
503.83	1072.90
504.19	1060.26
504.55	1057.22
504.91	1060.03
505.26	1060.96
505.62	1056.28
505.98	1066.35
506.34	1063.07
506.70	1072.43
507.06	1075.24
507.42	1077.58
507.78	1088.82
508.13	1095.84
508.49	1082.97
508.85	1086.48
509.21	1090.69
509.57	1083.20
509.93	1079.69
510.28	1089.29
510.64	1085.54
511.00	1096.78
511.36	1104.50
511.72	1113.86
512.07	1107.31
512.43	1102.86
512.79	1100.05
513.15	1091.63
513.51	1075.94
513.86	1079.46
514.22	1086.48
514.58	1078.05
514.94	1085.31
515.30	1090.22
515.65	1083.20
516.01	1084.84
516.37	1091.16
516.73	1094.43
517.08	1097.95
517.44	1108.01
517.80	1104.73
518.16	1099.12
518.51	1100.99
518.87	1089.99
519.23	1093.03
519.59	1091.16
519.94	1095.37
520.30	1079.46
520.66	1091.63
521.01	1091.86
521.37	1088.35
521.73	1087.88
522.09	1091.86
522.44	1092.56
522.80	1081.33
523.16	1082.73
523.51	1078.05
523.87	1090.46
524.23	1084.84
524.58	1099.58
524.94	1100.05
525.30	1103.33
525.65	1091.16
526.01	1097.95
526.37	1091.86
526.72	1096.07
527.08	1101.92
527.44	1106.37
527.79	1099.82
528.15	1089.75
528.51	1082.73
528.86	1078.52
529.22	1085.54
529.58	1086.94
529.93	1102.16
530.29	1110.35
530.65	1113.39
531.00	1103.33
531.36	1102.86
531.71	1086.94
532.07	1082.50
532.43	1074.31
532.78	1073.14
533.14	1075.94
533.49	1082.26
533.85	1095.14
534.21	1103.33
534.56	1108.95
534.92	1108.71
535.27	1100.52
535.63	1092.09
535.98	1089.29
536.34	1093.50
536.69	1100.29
537.05	1103.09
537.41	1087.65
537.76	1077.82
538.12	1062.37
538.47	1051.13
538.83	1059.79
539.18	1069.16
539.54	1085.31
539.89	1090.69
540.25	1089.29
540.60	1090.92
540.96	1096.54
541.31	1083.20
541.67	1088.82
542.02	1101.22
542.38	1093.97
542.73	1090.69
543.09	1100.99
543.44	1099.82
543.80	1099.12
544.15	1095.37
544.51	1097.48
544.86	1095.14
545.22	1088.35
545.57	1085.31
545.93	1088.58
546.28	1083.67
546.64	1083.43
546.99	1097.01
547.35	1106.61
547.70	1110.35
548.05	1118.54
548.41	1116.20
548.76	1106.84
549.12	1089.29
549.47	1088.58
549.83	1086.48
550.18	1087.41
550.53	1088.12
550.89	1097.71
551.24	1096.78
551.60	1085.54
551.95	1090.69
552.30	1091.86
552.66	1092.80
553.01	1090.22
553.37	1094.67
553.72	1087.88
554.07	1086.24
554.43	1078.99
554.78	1077.82
555.13	1075.24
555.49	1071.03
555.84	1071.03
556.19	1081.09
556.55	1085.54
556.90	1093.97
557.26	1101.69
557.61	1098.18
557.96	1092.33
558.32	1092.80
558.67	1083.90
559.02	1078.52
559.37	1078.52
559.73	1076.18
560.08	1078.99
560.43	1093.73
560.79	1093.97
561.14	1101.92
561.49	1097.48
561.85	1092.56
562.20	1086.48
562.55	1077.35
562.90	1077.11
563.26	1081.33
563.61	1083.90
563.96	1086.48
564.32	1087.18
564.67	1077.58
565.02	1070.09
565.37	1068.92
565.73	1060.26
566.08	1075.71
566.43	1076.18
566.78	1075.24
567.14	1073.60
567.49	1072.43
567.84	1068.22
568.19	1071.97
568.54	1082.50
568.90	1081.33
569.25	1082.97
569.60	1075.71
569.95	1069.16
570.31	1065.41
570.66	1064.48
571.01	1067.05
571.36	1072.20
571.71	1079.92
572.06	1078.05
572.42	1075.48
572.77	1068.92
573.12	1060.96
573.47	1058.16
573.82	1055.58
574.18	1050.20
574.53	1055.58
574.88	1050.67
575.23	1049.50
575.58	1052.30
575.93	1057.45
576.28	1063.07
576.64	1076.41
576.99	1075.01
577.34	1084.14
577.69	1093.26
578.04	1089.05
578.39	1090.69
578.74	1099.58
579.09	1096.31
579.44	1090.22
579.80	1089.29
580.15	1089.75
580.50	1086.71
580.85	1090.69
581.20	1094.43
581.55	1090.22
581.90	1077.35
582.25	1081.09
582.60	1064.71
582.95	1059.79
583.30	1063.77
583.65	1076.88
584.00	1081.56
584.35	1098.41
584.71	1094.20
585.06	1089.05
585.41	1081.80
585.76	1076.41
586.11	1064.71
586.46	1076.88
586.81	1079.46
587.16	1091.63
587.51	1096.31
587.86	1109.18
588.21	1103.09
588.56	1109.88
588.91	1093.73
589.26	1077.35
589.61	1062.37
589.96	1064.48
590.31	1065.88
590.66	1075.01
591.01	1080.63
591.36	1078.52
591.71	1074.54
592.06	1076.65
592.41	1081.09
592.76	1093.73
593.10	1103.56
593.45	1096.07
593.80	1090.92
594.15	1082.03
594.50	1078.52
594.85	1069.16
595.20	1082.73
595.55	1079.22
595.90	1089.29
596.25	1084.14
596.60	1091.16
596.95	1085.54
597.30	1090.69
597.64	1129.07
597.99	1136.56
598.34	1139.14
598.69	1149.91
599.04	1144.99
599.39	1107.31
599.74	1104.26
600.09	1094.43
600.44	1078.52
600.78	1074.07
601.13	1066.58
601.48	1060.26
601.83	1069.16
602.18	1072.67
602.53	1076.41
602.88	1073.37
603.22	1071.97
603.57	1071.97
603.92	1070.56
604.27	1071.26
604.62	1074.31
604.97	1080.16
605.31	1079.22
605.66	1092.33
606.01	1092.33
606.36	1098.88
606.71	1091.16
607.05	1094.43
607.40	1078.99
607.75	1081.33
608.10	1078.28
608.44	1085.07
608.79	1085.77
609.14	1100.05
609.49	1097.95
609.84	1102.16
610.18	1104.73
610.53	1098.18
610.88	1091.86
611.23	1091.39
611.57	1082.97
611.92	1076.18
612.27	1073.14
612.62	1071.73
612.96	1075.24
613.31	1084.14
613.66	1089.52
614.00	1087.88
614.35	1091.39
614.70	1086.24
615.05	1075.48
615.39	1072.43
615.74	1076.88
616.09	1075.94
616.43	1075.71
616.78	1072.20
617.13	1062.37
617.47	1066.58
617.82	1065.65
618.17	1071.03
618.51	1070.80
618.86	1077.11
619.21	1077.11
619.55	1077.11
619.90	1076.41
620.25	1090.46
620.59	1087.88
620.94	1086.48
621.29	1092.33
621.63	1082.50
621.98	1080.39
622.32	1081.09
622.67	1079.46
623.02	1075.48
623.36	1080.63
623.71	1071.97
624.05	1074.07
624.40	1070.33
624.75	1071.26
625.09	1074.31
625.44	1070.80
625.78	1069.86
626.13	1078.28
626.48	1075.71
626.82	1077.82
627.17	1083.20
627.51	1080.39
627.86	1071.26
628.20	1068.69
628.55	1064.71
628.89	1062.84
629.24	1073.84
629.58	1077.82
629.93	1070.80
630.28	1072.20
630.62	1084.84
630.97	1080.39
631.31	1082.03
631.66	1088.35
632.00	1095.84
632.35	1082.26
632.69	1079.69
633.04	1080.63
633.38	1083.43
633.73	1071.97
634.07	1078.05
634.42	1083.90
634.76	1085.31
635.11	1081.33
635.45	1083.90
635.79	1079.22
636.14	1072.43
636.48	1065.18
636.83	1064.94
637.17	1059.79
637.52	1064.94
637.86	1069.39
638.21	1071.73
638.55	1076.18
638.89	1081.56
639.24	1078.28
639.58	1073.37
639.93	1076.41
640.27	1074.77
640.61	1078.52
640.96	1080.86
641.30	1080.16
641.65	1074.31
641.99	1070.33
642.33	1074.31
642.68	1072.20
643.02	1078.28
643.37	1074.31
643.71	1079.22
644.05	1070.09
644.40	1067.75
644.74	1065.65
645.08	1076.65
645.43	1077.11
645.77	1082.03
646.11	1082.97
646.46	1090.92
646.80	1087.18
647.14	1085.54
647.49	1080.39
647.83	1091.39
648.17	1092.56
648.52	1093.73
648.86	1087.18
649.20	1084.84
649.55	1071.26
649.89	1054.88
650.23	1058.39
650.57	1072.20
650.92	1075.71
651.26	1077.11
651.60	1083.43
651.95	1069.16
652.29	1050.43
652.63	1049.26
652.97	1043.64
653.32	1042.94
653.66	1052.77
654.00	1064.01
654.34	1068.45
654.69	1075.01
655.03	1070.56
655.37	1071.03
655.71	1067.28
656.05	1065.41
656.40	1069.16
656.74	1079.92
657.08	1079.22
657.42	1087.41
657.76	1089.05
658.11	1093.97
658.45	1088.35
658.79	1092.09
659.13	1092.80
659.47	1085.31
659.82	1070.56
660.16	1078.05
660.50	1087.18
660.84	1082.97
661.18	1087.18
661.52	1094.43
661.87	1094.20
662.21	1083.43
662.55	1087.41
662.89	1090.92
663.23	1090.46
663.57	1085.54
663.91	1079.22
664.25	1080.63
664.60	1074.77
664.94	1069.39
665.28	1076.18
665.62	1080.86
665.96	1076.41
666.30	1077.58
666.64	1082.97
666.98	1072.43
667.32	1066.11
667.66	1065.18
668.01	1066.82
668.35	1063.54
668.69	1061.90
669.03	1071.97
669.37	1072.67
669.71	1080.86
670.05	1093.97
670.39	1105.20
670.73	1101.46
671.07	1102.16
671.41	1093.50
671.75	1088.58
672.09	1081.80
672.43	1076.41
672.77	1073.60
673.11	1078.52
673.45	1075.71
673.79	1072.20
674.13	1087.88
674.47	1085.54
674.81	1086.48
675.15	1083.43
675.49	1087.65
675.83	1081.56
676.17	1083.20
676.51	1083.90
676.85	1086.94
677.19	1080.16
677.53	1072.43
677.87	1078.99
678.21	1077.35
678.55	1078.99
678.89	1082.50
679.23	1097.24
679.57	1089.05
679.90	1082.03
680.24	1078.99
680.58	1081.80
680.92	1066.11
681.26	1070.33
681.60	1070.33
681.94	1062.14
682.28	1068.69
682.62	1074.31
682.96	1078.52
683.29	1079.46
683.63	1089.99
683.97	1075.71
684.31	1082.73
684.65	1086.48
684.99	1084.84
685.33	1082.97
685.67	1094.20
686.00	1097.48
686.34	1096.78
686.68	1104.26
687.02	1108.24
687.36	1104.03
687.70	1102.86
688.03	1100.52
688.37	1096.31
688.71	1092.56
689.05	1094.90
689.39	1083.43
689.72	1076.41
690.06	1081.09
690.40	1083.20
690.74	1071.97
691.08	1077.58
691.41	1071.73
691.75	1069.39
692.09	1076.41
692.43	1099.58
692.76	1094.67
693.10	1099.82
693.44	1102.16
693.78	1085.77
694.11	1072.20
694.45	1076.88
694.79	1081.09
695.13	1075.71
695.46	1086.01
695.80	1082.50
696.14	1085.54
696.48	1076.41
696.81	1079.22
697.15	1077.58
697.49	1090.46
697.82	1089.52
698.16	1106.37
698.50	1106.14
698.83	1098.65
699.17	1092.09
699.51	1082.97
699.84	1066.11
700.18	1066.11
700.52	1067.99
700.85	1064.71
701.19	1062.37
701.53	1077.82
701.86	1082.50
702.20	1082.03
702.54	1076.65
702.87	1077.82
703.21	1071.73
703.55	1062.37
703.88	1070.80
704.22	1076.88
704.55	1079.22
704.89	1070.80
705.23	1080.39
705.56	1079.22
705.90	1073.60
706.23	1071.50
706.57	1085.77
706.91	1074.54
707.24	1068.45
707.58	1072.90
707.91	1078.52
708.25	1075.24
708.58	1087.65
708.92	1092.33
709.26	1096.54
709.59	1097.01
709.93	1097.48
710.26	1095.60
710.60	1093.03
710.93	1091.39
711.27	1099.58
711.60	1099.35
711.94	1086.94
712.27	1095.37
712.61	1097.01
712.94	1094.20
713.28	1083.90
713.61	1097.24
713.95	1077.58
714.28	1073.60
714.62	1058.39
714.95	1064.24
715.29	1060.26
715.62	1073.84
715.96	1072.43
716.29	1080.63
716.63	1082.26
716.96	1076.88
717.29	1061.20
717.63	1063.77
717.96	1065.41
718.30	1067.05
718.63	1072.90
718.97	1086.48
719.30	1088.82
719.63	1086.94
719.97	1086.01
720.30	1083.43
720.64	1087.65
720.97	1082.50
721.30	1084.14
721.64	1089.05
721.97	1086.01
722.31	1081.09
722.64	1083.67
722.97	1087.18
723.31	1077.82
723.64	1082.97
723.97	1087.41
724.31	1083.67
724.64	1067.75
724.98	1074.31
725.31	1076.18
725.64	1074.31
725.98	1081.80
726.31	1103.80
726.64	1103.56
726.97	1089.99
727.31	1088.35
727.64	1089.29
727.97	1075.01
728.31	1067.99
728.64	1079.46
728.97	1076.18
729.31	1067.99
729.64	1069.39
729.97	1063.77
730.30	1065.88
730.64	1071.73
730.97	1068.69
731.30	1064.48
731.63	1076.88
731.97	1071.73
732.30	1074.07
732.63	1080.39
732.96	1082.03
733.30	1078.28
733.63	1078.75
733.96	1072.43
734.29	1069.39
734.63	1078.05
734.96	1076.88
735.29	1074.31
735.62	1077.82
735.95	1083.20
736.29	1080.86
736.62	1086.94
736.95	1088.58
737.28	1085.07
737.61	1082.97
737.94	1089.29
738.28	1082.26
738.61	1091.86
738.94	1089.05
739.27	1095.14
739.60	1082.03
739.93	1086.01
740.27	1069.62
740.60	1071.26
740.93	1056.28
741.26	1070.56
741.59	1069.16
741.92	1073.60
742.25	1067.05
742.58	1070.56
742.91	1069.86
743.25	1069.86
743.58	1075.71
743.91	1082.97
744.24	1099.35
744.57	1094.90
744.90	1097.95
745.23	1102.16
745.56	1097.48
745.89	1083.90
746.22	1079.92
746.55	1083.90
746.88	1078.28
747.21	1086.94
747.54	1085.07
747.87	1085.31
748.20	1078.05
748.53	1073.84
748.87	1070.56
749.20	1073.37
749.53	1071.26
749.86	1071.97
750.19	1074.31
750.52	1082.26
750.85	1083.43
751.18	1087.88
751.51	1084.14
751.84	1085.77
752.16	1081.33
752.49	1076.88
752.82	1072.43
753.15	1078.99
753.48	1077.11
753.81	1075.71
754.14	1081.09
754.47	1076.41
754.80	1078.28
755.13	1082.50
755.46	1087.88
755.79	1080.63
756.12	1088.35
756.45	1072.43
756.78	1064.94
757.11	1060.03
757.43	1067.75
757.76	1068.22
758.09	1072.43
758.42	1080.39
758.75	1080.39
759.08	1078.05
759.41	1072.90
759.74	1087.88
760.07	1081.09
760.39	1086.94
760.72	1089.75
761.05	1091.16
761.38	1085.54
761.71	1086.94
762.04	1080.16
762.36	1066.35
762.69	1050.67
763.02	1047.16
763.35	1049.50
763.68	1054.88
764.01	1068.92
764.33	1083.67
764.66	1077.58
764.99	1083.20
765.32	1078.99
765.65	1079.92
765.97	1076.41
766.30	1093.26
