SpectraSuite Data File
++++++++++++++++++++++++++++++++++++
Date: Mon Aug 26 10:25:49 PDT 2019
User: corrico
Dark Spectrum Present: No
Reference Spectrum Present: No
Number of Sampled Component Spectra: 1
Spectrometers: USB2+H06089
Integration Time (usec): 10000 (USB2+H06089)
Spectra Averaged: 2 (USB2+H06089)
Boxcar Smoothing: 2 (USB2+H06089)
Correct for Electrical Dark: No (USB2+H06089)
Strobe/Lamp Enabled: No (USB2+H06089)
Correct for Detector Non-linearity: No (USB2+H06089)
Correct for Stray Light: No (USB2+H06089)
Number of Pixels in Processed Spectrum: 2048
>>>>>Begin Processed Spectral Data<<<<<
339.70	1016.96
340.07	1016.96
340.45	989.11
340.82	966.88
341.19	944.87
341.57	918.89
341.94	915.62
342.31	906.49
342.69	894.55
343.06	898.53
343.43	906.96
343.81	906.26
344.18	904.62
344.55	917.26
344.93	920.53
345.30	915.85
345.67	913.51
346.04	921.94
346.42	936.45
346.79	946.28
347.16	959.62
347.54	972.49
347.91	980.68
348.28	979.98
348.65	981.39
349.03	986.77
349.40	990.75
349.77	997.54
350.14	1010.64
350.52	1019.54
350.89	1030.77
351.26	1036.86
351.63	1043.41
352.01	1054.41
352.38	1058.39
352.75	1066.58
353.12	1074.77
353.50	1078.75
353.87	1072.20
354.24	1078.28
354.61	1073.37
354.98	1074.31
355.36	1078.28
355.73	1079.22
356.10	1074.77
356.47	1085.54
356.84	1080.63
357.22	1083.90
357.59	1093.26
357.96	1094.67
358.33	1087.18
358.70	1097.01
359.08	1090.92
359.45	1087.65
359.82	1088.35
360.19	1079.46
360.56	1080.63
360.94	1087.65
361.31	1081.80
361.68	1088.35
362.05	1101.69
362.42	1095.37
362.79	1090.69
363.16	1091.16
363.54	1082.03
363.91	1076.18
364.28	1081.33
364.65	1084.60
365.02	1077.35
365.39	1075.24
365.76	1069.16
366.14	1059.56
366.51	1070.09
366.88	1081.80
367.25	1081.33
367.62	1083.90
367.99	1086.48
368.36	1073.60
368.73	1072.20
369.10	1076.65
369.48	1072.43
369.85	1076.65
370.22	1057.92
370.59	1054.41
370.96	1052.54
371.33	1053.94
371.70	1043.18
372.07	1058.62
372.44	1054.88
372.81	1055.58
373.18	1067.28
373.55	1078.28
373.93	1083.67
374.30	1086.01
374.67	1093.26
375.04	1082.50
375.41	1077.82
375.78	1074.54
376.15	1075.01
376.52	1073.14
376.89	1081.56
377.26	1073.84
377.63	1078.28
378.00	1078.52
378.37	1073.60
378.74	1082.97
379.11	1098.41
379.48	1100.05
379.85	1106.14
380.22	1106.37
380.59	1090.46
380.96	1087.18
381.33	1083.20
381.70	1070.80
382.07	1075.48
382.44	1079.69
382.81	1077.35
383.18	1074.77
383.55	1077.11
383.92	1076.65
384.29	1069.62
384.66	1079.92
385.03	1080.63
385.40	1078.28
385.77	1075.71
386.14	1083.90
386.51	1085.54
386.88	1087.41
387.25	1097.01
387.62	1089.75
387.99	1084.14
388.36	1074.31
388.73	1069.62
389.10	1074.31
389.46	1084.14
389.83	1088.58
390.20	1088.12
390.57	1091.63
390.94	1078.75
391.31	1075.24
391.68	1064.24
392.05	1062.37
392.42	1055.11
392.79	1066.35
393.16	1071.97
393.53	1088.58
393.89	1097.95
394.26	1099.12
394.63	1096.78
395.00	1078.99
395.37	1067.52
395.74	1061.90
396.11	1069.16
396.48	1068.92
396.84	1084.60
397.21	1084.60
397.58	1089.05
397.95	1087.41
398.32	1080.16
398.69	1079.69
399.06	1093.03
399.42	1092.80
399.79	1093.26
400.16	1100.05
400.53	1095.14
400.90	1082.97
401.27	1076.88
401.64	1066.82
402.00	1066.82
402.37	1074.07
402.74	1077.58
403.11	1071.73
403.48	1071.26
403.84	1059.79
404.21	1051.37
404.58	1050.20
404.95	1055.82
405.32	1070.33
405.68	1083.90
406.05	1091.16
406.42	1088.12
406.79	1084.14
407.16	1073.84
407.52	1070.09
407.89	1061.90
408.26	1066.11
408.63	1068.92
408.99	1068.45
409.36	1068.69
409.73	1072.43
410.10	1076.18
410.47	1069.39
410.83	1073.37
411.20	1072.20
411.57	1074.54
411.94	1073.37
412.30	1078.05
412.67	1083.67
413.04	1084.60
413.40	1081.56
413.77	1074.07
414.14	1078.05
414.51	1076.18
414.87	1082.03
415.24	1077.58
415.61	1073.84
415.97	1071.73
416.34	1069.16
416.71	1063.77
417.08	1064.24
417.44	1071.26
417.81	1077.35
418.18	1081.09
418.54	1070.56
418.91	1075.94
419.28	1079.69
419.64	1079.46
420.01	1075.71
420.38	1085.77
420.74	1076.88
421.11	1078.05
421.48	1070.33
421.84	1070.80
422.21	1075.48
422.58	1080.16
422.94	1077.58
423.31	1078.75
423.68	1075.01
424.04	1069.62
424.41	1065.41
424.77	1069.62
425.14	1060.50
425.51	1061.67
425.87	1067.28
426.24	1074.77
426.61	1070.80
426.97	1080.86
427.34	1089.29
427.70	1092.09
428.07	1084.60
428.44	1083.43
428.80	1081.33
429.17	1074.77
429.53	1063.77
429.90	1069.39
430.27	1078.99
430.63	1079.92
431.00	1086.24
431.36	1086.94
431.73	1090.46
432.09	1085.54
432.46	1094.90
432.83	1089.52
433.19	1096.07
433.56	1097.95
433.92	1098.18
434.29	1096.78
434.65	1095.14
435.02	1097.24
435.38	1094.43
435.75	1098.41
436.11	1093.26
436.48	1090.92
436.84	1079.22
437.21	1082.03
437.57	1066.82
437.94	1069.86
438.30	1076.18
438.67	1080.16
439.03	1071.97
439.40	1079.46
439.76	1076.41
440.13	1078.75
440.49	1083.20
440.86	1085.07
441.22	1083.43
441.59	1088.12
441.95	1089.52
442.32	1090.22
442.68	1095.37
443.05	1082.97
443.41	1075.48
443.78	1071.26
444.14	1073.84
444.51	1074.77
444.87	1085.54
445.24	1091.63
445.60	1083.90
445.96	1077.58
446.33	1078.28
446.69	1080.39
447.06	1085.54
447.42	1095.37
447.79	1095.37
448.15	1088.58
448.51	1099.58
448.88	1091.39
449.24	1089.99
449.61	1095.84
449.97	1097.24
450.33	1090.69
450.70	1088.58
451.06	1087.41
451.43	1089.99
451.79	1092.56
452.15	1081.56
452.52	1083.67
452.88	1086.48
453.24	1084.37
453.61	1079.46
453.97	1084.84
454.34	1085.54
454.70	1079.69
455.06	1075.24
455.43	1082.26
455.79	1081.33
456.15	1076.88
456.52	1085.31
456.88	1081.09
457.24	1082.50
457.61	1088.35
457.97	1093.73
458.33	1089.05
458.70	1094.67
459.06	1091.16
459.42	1086.94
459.79	1086.71
460.15	1092.33
460.51	1096.07
460.88	1094.90
461.24	1089.05
461.60	1087.18
461.96	1084.84
462.33	1067.05
462.69	1070.56
463.05	1083.90
463.42	1078.28
463.78	1072.20
464.14	1085.07
464.50	1081.33
464.87	1075.71
465.23	1078.99
465.59	1082.03
465.95	1084.37
466.32	1082.50
466.68	1084.37
467.04	1091.16
467.40	1092.56
467.77	1078.05
468.13	1081.56
468.49	1074.31
468.85	1068.45
469.22	1071.26
469.58	1085.31
469.94	1088.82
470.30	1095.84
470.66	1094.20
471.03	1084.60
471.39	1090.22
471.75	1085.31
472.11	1081.33
472.47	1082.03
472.84	1084.37
473.20	1075.94
473.56	1074.31
473.92	1076.41
474.28	1084.84
474.65	1096.07
475.01	1096.54
475.37	1104.03
475.73	1103.09
476.09	1093.03
476.45	1088.12
476.81	1078.99
477.18	1070.33
477.54	1063.77
477.90	1059.33
478.26	1048.56
478.62	1062.14
478.98	1066.82
479.34	1064.48
479.71	1071.03
480.07	1073.84
480.43	1072.43
480.79	1064.24
481.15	1080.16
481.51	1078.05
481.87	1079.92
482.23	1074.77
482.59	1090.69
482.96	1088.12
483.32	1093.03
483.68	1104.50
484.04	1105.44
484.40	1100.99
484.76	1089.52
485.12	1096.54
485.48	1086.71
485.84	1079.69
486.20	1068.22
486.56	1071.26
486.92	1061.67
487.28	1069.39
487.64	1082.73
488.00	1087.88
488.37	1079.92
488.73	1080.16
489.09	1068.69
489.45	1056.52
489.81	1054.41
490.17	1067.28
490.53	1069.16
490.89	1068.92
491.25	1077.11
491.61	1072.20
491.97	1073.14
492.33	1069.62
492.69	1066.11
493.05	1060.03
493.41	1075.48
493.77	1076.65
494.13	1074.54
494.49	1080.86
494.85	1089.05
495.21	1086.71
495.57	1085.07
495.93	1093.97
496.29	1094.67
496.64	1089.29
497.00	1082.03
497.36	1085.07
497.72	1081.09
498.08	1079.69
498.44	1074.77
498.80	1073.84
499.16	1067.99
499.52	1070.56
499.88	1065.18
500.24	1069.16
500.60	1086.48
500.96	1089.99
501.32	1087.65
501.68	1097.48
502.03	1099.35
502.39	1087.88
502.75	1087.88
503.11	1090.92
503.47	1084.37
503.83	1093.73
504.19	1100.99
504.55	1096.31
504.91	1095.37
505.26	1094.43
505.62	1084.60
505.98	1074.54
506.34	1081.09
506.70	1069.16
507.06	1079.92
507.42	1086.94
507.78	1086.48
508.13	1090.92
508.49	1108.01
508.85	1113.16
509.21	1104.26
509.57	1099.35
509.93	1092.33
510.28	1084.14
510.64	1069.86
511.00	1073.14
511.36	1082.03
511.72	1083.20
512.07	1088.58
512.43	1094.67
512.79	1090.22
513.15	1083.90
513.51	1077.58
513.86	1075.48
514.22	1076.41
514.58	1087.18
514.94	1098.18
515.30	1100.05
515.65	1095.60
516.01	1087.41
516.37	1073.84
516.73	1068.22
517.08	1065.65
517.44	1062.14
517.80	1066.35
518.16	1071.03
518.51	1067.05
518.87	1065.18
519.23	1069.16
519.59	1072.90
519.94	1070.80
520.30	1079.46
520.66	1095.14
521.01	1093.50
521.37	1093.26
521.73	1102.86
522.09	1099.35
522.44	1084.84
522.80	1081.56
523.16	1078.52
523.51	1064.48
523.87	1069.62
524.23	1071.26
524.58	1078.28
524.94	1075.01
525.30	1083.20
525.65	1072.67
526.01	1084.37
526.37	1073.60
526.72	1071.03
527.08	1074.07
527.44	1071.50
527.79	1064.94
528.15	1068.69
528.51	1072.20
528.86	1071.73
529.22	1074.31
529.58	1068.69
529.93	1076.41
530.29	1083.90
530.65	1084.60
531.00	1082.26
531.36	1082.73
531.71	1078.75
532.07	1073.60
532.43	1074.31
532.78	1074.31
533.14	1080.16
533.49	1078.52
533.85	1076.18
534.21	1066.82
534.56	1076.88
534.92	1078.75
535.27	1087.18
535.63	1083.90
535.98	1091.16
536.34	1078.05
536.69	1068.45
537.05	1065.65
537.41	1078.28
537.76	1076.41
538.12	1073.84
538.47	1073.60
538.83	1079.22
539.18	1063.31
539.54	1058.62
539.89	1060.73
540.25	1070.09
540.60	1063.77
540.96	1073.84
541.31	1081.09
541.67	1088.82
542.02	1086.01
542.38	1086.01
542.73	1082.50
543.09	1081.09
543.44	1084.37
543.80	1086.01
544.15	1087.18
544.51	1088.82
544.86	1085.54
545.22	1069.86
545.57	1065.18
545.93	1061.43
546.28	1055.82
546.64	1052.07
546.99	1062.60
547.35	1064.71
547.70	1071.26
548.05	1075.24
548.41	1083.67
548.76	1096.07
549.12	1090.92
549.47	1087.65
549.83	1087.18
550.18	1080.86
550.53	1084.84
550.89	1092.56
551.24	1090.46
551.60	1086.01
551.95	1090.92
552.30	1075.01
552.66	1079.92
553.01	1079.46
553.37	1082.03
553.72	1080.39
554.07	1079.69
554.43	1072.20
554.78	1070.33
555.13	1076.41
555.49	1075.48
555.84	1068.22
556.19	1061.43
556.55	1059.09
556.90	1049.50
557.26	1053.94
557.61	1058.39
557.96	1061.43
558.32	1065.18
558.67	1079.69
559.02	1086.48
559.37	1089.52
559.73	1088.35
560.08	1093.50
560.43	1083.67
560.79	1077.58
561.14	1080.39
561.49	1094.90
561.85	1078.75
562.20	1081.56
562.55	1071.03
562.90	1068.22
563.26	1060.03
563.61	1066.11
563.96	1048.56
564.32	1059.79
564.67	1060.03
565.02	1058.62
565.37	1060.50
565.73	1079.22
566.08	1082.73
566.43	1080.39
566.78	1077.58
567.14	1079.22
567.49	1075.94
567.84	1061.90
568.19	1061.43
568.54	1064.24
568.90	1060.03
569.25	1061.20
569.60	1075.01
569.95	1085.31
570.31	1085.07
570.66	1093.97
571.01	1099.58
571.36	1091.63
571.71	1087.18
572.06	1086.71
572.42	1076.41
572.77	1082.26
573.12	1083.67
573.47	1076.65
573.82	1078.99
574.18	1086.24
574.53	1073.37
574.88	1085.31
575.23	1087.41
575.58	1082.73
575.93	1088.35
576.28	1101.69
576.64	1089.99
576.99	1098.65
577.34	1100.29
577.69	1086.71
578.04	1072.20
578.39	1078.99
578.74	1073.84
579.09	1075.24
579.44	1088.58
579.80	1091.86
580.15	1091.63
580.50	1088.58
580.85	1087.65
581.20	1076.65
581.55	1068.22
581.90	1062.37
582.25	1064.01
582.60	1060.50
582.95	1060.73
583.30	1064.94
583.65	1051.84
584.00	1044.11
584.35	1041.77
584.71	1044.82
585.06	1053.48
585.41	1067.52
585.76	1082.97
586.11	1098.65
586.46	1101.46
586.81	1092.80
587.16	1091.63
587.51	1081.33
587.86	1069.39
588.21	1064.01
588.56	1068.45
588.91	1067.75
589.26	1073.60
589.61	1084.37
589.96	1087.88
590.31	1087.65
590.66	1090.69
591.01	1098.88
591.36	1089.99
591.71	1098.18
592.06	1112.46
592.41	1101.69
592.76	1090.22
593.10	1084.60
593.45	1076.18
593.80	1064.94
594.15	1076.88
594.50	1084.37
594.85	1093.73
595.20	1090.46
595.55	1090.22
595.90	1084.60
596.25	1083.67
596.60	1086.94
596.95	1083.43
597.30	1074.77
597.64	1135.16
597.99	1135.86
598.34	1136.33
598.69	1137.97
599.04	1148.97
599.39	1097.48
599.74	1094.67
600.09	1089.99
600.44	1097.01
600.78	1096.54
601.13	1087.88
601.48	1089.75
601.83	1095.14
602.18	1094.20
602.53	1091.39
602.88	1094.43
603.22	1084.84
603.57	1071.97
603.92	1077.58
604.27	1072.43
604.62	1063.31
604.97	1068.69
605.31	1078.05
605.66	1067.99
606.01	1071.73
606.36	1077.35
606.71	1080.63
607.05	1073.37
607.40	1076.18
607.75	1071.50
608.10	1069.86
608.44	1065.41
608.79	1080.39
609.14	1087.41
609.49	1099.82
609.84	1113.16
610.18	1115.97
610.53	1103.09
610.88	1107.54
611.23	1098.88
611.57	1084.60
611.92	1084.37
612.27	1090.46
612.62	1087.18
612.96	1084.84
613.31	1087.88
613.66	1095.37
614.00	1090.46
614.35	1087.88
614.70	1088.12
615.05	1084.37
615.39	1078.05
615.74	1080.63
616.09	1082.26
616.43	1080.63
616.78	1089.75
617.13	1086.01
617.47	1090.69
617.82	1086.94
618.17	1092.80
618.51	1089.29
618.86	1091.16
619.21	1085.31
619.55	1099.58
619.90	1095.60
620.25	1092.33
620.59	1091.39
620.94	1092.80
621.29	1076.18
621.63	1078.05
621.98	1077.82
622.32	1081.80
622.67	1083.20
623.02	1078.05
623.36	1082.50
623.71	1084.84
624.05	1084.60
624.40	1076.65
624.75	1088.82
625.09	1089.52
625.44	1093.03
625.78	1096.07
626.13	1102.86
626.48	1101.46
626.82	1097.71
627.17	1085.54
627.51	1082.97
627.86	1080.16
628.20	1078.99
628.55	1079.92
628.89	1081.56
629.24	1077.82
629.58	1081.80
629.93	1079.46
630.28	1076.18
630.62	1080.16
630.97	1069.39
631.31	1069.86
631.66	1075.24
632.00	1082.26
632.35	1084.84
632.69	1096.31
633.04	1083.43
633.38	1076.88
633.73	1071.50
634.07	1068.45
634.42	1062.84
634.76	1075.48
635.11	1080.39
635.45	1082.26
635.79	1081.56
636.14	1090.46
636.48	1091.86
636.83	1091.39
637.17	1095.14
637.52	1092.33
637.86	1080.39
638.21	1075.71
638.55	1074.31
638.89	1071.97
639.24	1078.05
639.58	1090.69
639.93	1082.97
640.27	1089.29
640.61	1088.12
640.96	1094.90
641.30	1094.90
641.65	1098.18
641.99	1080.39
642.33	1072.43
642.68	1066.11
643.02	1056.05
643.37	1055.11
643.71	1072.67
644.05	1081.56
644.40	1087.41
644.74	1093.50
645.08	1104.26
645.43	1095.14
645.77	1093.26
646.11	1086.24
646.46	1078.99
646.80	1078.99
647.14	1084.84
647.49	1079.22
647.83	1080.86
648.17	1093.26
648.52	1090.22
648.86	1089.29
649.20	1092.56
649.55	1090.92
649.89	1083.43
650.23	1086.48
650.57	1077.11
650.92	1078.28
651.26	1078.28
651.60	1082.03
651.95	1075.71
652.29	1071.73
652.63	1068.92
652.97	1063.77
653.32	1057.22
653.66	1053.01
654.00	1060.50
654.34	1058.39
654.69	1066.11
655.03	1067.28
655.37	1073.84
655.71	1075.01
656.05	1080.63
656.40	1084.37
656.74	1086.94
657.08	1078.05
657.42	1083.90
657.76	1078.52
658.11	1068.69
658.45	1063.07
658.79	1080.39
659.13	1083.20
659.47	1091.63
659.82	1095.84
660.16	1104.03
660.50	1098.88
660.84	1091.63
661.18	1086.48
661.52	1082.03
661.87	1075.24
662.21	1074.07
662.55	1062.14
662.89	1054.18
663.23	1052.30
663.57	1062.14
663.91	1056.05
664.25	1067.05
664.60	1074.31
664.94	1078.99
665.28	1073.84
665.62	1082.50
665.96	1078.05
666.30	1085.54
666.64	1087.41
666.98	1093.03
667.32	1090.69
667.66	1100.52
668.01	1095.37
668.35	1092.33
668.69	1085.54
669.03	1085.77
669.37	1086.48
669.71	1085.77
670.05	1085.31
670.39	1093.50
670.73	1085.77
671.07	1083.43
671.41	1082.73
671.75	1078.52
672.09	1061.67
672.43	1071.97
672.77	1076.65
673.11	1081.80
673.45	1088.58
673.79	1096.78
674.13	1097.95
674.47	1085.77
674.81	1073.37
675.15	1077.58
675.49	1079.46
675.83	1072.43
676.17	1066.82
676.51	1074.77
676.85	1072.43
677.19	1073.14
677.53	1074.07
677.87	1085.31
678.21	1091.86
678.55	1087.18
678.89	1080.63
679.23	1078.52
679.57	1081.33
679.90	1074.31
680.24	1078.05
680.58	1078.99
680.92	1079.69
681.26	1077.35
681.60	1077.82
681.94	1085.54
682.28	1081.56
682.62	1073.37
682.96	1070.09
683.29	1070.33
683.63	1056.28
683.97	1065.65
684.31	1071.26
684.65	1070.09
684.99	1067.28
685.33	1074.77
685.67	1070.56
686.00	1067.99
686.34	1071.73
686.68	1069.86
687.02	1063.07
687.36	1063.31
687.70	1075.01
688.03	1082.26
688.37	1081.09
688.71	1094.43
689.05	1100.05
689.39	1090.92
689.72	1086.94
690.06	1097.24
690.40	1080.86
690.74	1082.03
691.08	1082.26
691.41	1084.14
691.75	1076.65
692.09	1077.35
692.43	1069.86
692.76	1068.92
693.10	1070.09
693.44	1074.77
693.78	1077.82
694.11	1075.24
694.45	1074.54
694.79	1068.45
695.13	1073.60
695.46	1073.60
695.80	1076.88
696.14	1079.46
696.48	1075.94
696.81	1075.94
697.15	1078.28
697.49	1079.46
697.82	1078.52
698.16	1085.54
698.50	1075.48
698.83	1087.18
699.17	1081.56
699.51	1093.97
699.84	1089.99
700.18	1082.73
700.52	1076.88
700.85	1083.90
701.19	1077.82
701.53	1076.41
701.86	1090.22
702.20	1089.29
702.54	1100.29
702.87	1100.05
703.21	1103.80
703.55	1099.12
703.88	1095.60
704.22	1086.94
704.55	1086.71
704.89	1088.35
705.23	1091.63
705.56	1095.14
705.90	1087.41
706.23	1077.35
706.57	1069.86
706.91	1070.33
707.24	1073.14
707.58	1075.01
707.91	1079.92
708.25	1093.50
708.58	1087.88
708.92	1081.80
709.26	1089.99
709.59	1086.94
709.93	1078.99
710.26	1073.14
710.60	1072.67
710.93	1069.39
711.27	1065.18
711.60	1071.97
711.94	1077.58
712.27	1080.86
712.61	1079.69
712.94	1084.14
713.28	1070.09
713.61	1063.31
713.95	1059.56
714.28	1056.05
714.62	1064.94
714.95	1074.54
715.29	1082.50
715.62	1073.84
715.96	1079.46
716.29	1070.80
716.63	1067.28
716.96	1069.86
717.29	1086.01
717.63	1079.69
717.96	1081.80
718.30	1081.80
718.63	1086.24
718.97	1075.94
719.30	1091.86
719.63	1093.03
719.97	1094.90
720.30	1089.75
720.64	1093.26
720.97	1082.50
721.30	1083.43
721.64	1075.24
721.97	1070.56
722.31	1068.22
722.64	1072.20
722.97	1074.07
723.31	1074.31
723.64	1076.41
723.97	1082.97
724.31	1082.03
724.64	1078.28
724.98	1082.97
725.31	1089.05
725.64	1094.20
725.98	1094.67
726.31	1092.09
726.64	1092.09
726.97	1083.90
727.31	1074.77
727.64	1082.50
727.97	1082.03
728.31	1086.48
728.64	1093.03
728.97	1092.09
729.31	1076.18
729.64	1079.69
729.97	1074.07
730.30	1068.22
730.64	1067.52
730.97	1072.20
731.30	1068.22
731.63	1078.99
731.97	1079.22
732.30	1070.56
732.63	1069.62
732.96	1067.75
733.30	1063.07
733.63	1068.45
733.96	1077.11
734.29	1078.05
734.63	1087.18
734.96	1088.58
735.29	1080.39
735.62	1087.41
735.95	1085.07
736.29	1077.82
736.62	1074.77
736.95	1075.48
737.28	1068.22
737.61	1070.33
737.94	1077.58
738.28	1083.90
738.61	1096.31
738.94	1096.31
739.27	1096.54
739.60	1085.54
739.93	1079.46
740.27	1084.84
740.60	1085.77
740.93	1084.14
741.26	1086.01
741.59	1077.35
741.92	1064.71
742.25	1062.84
742.58	1060.73
742.91	1065.65
743.25	1064.48
743.58	1057.45
743.91	1053.94
744.24	1058.62
744.57	1058.86
744.90	1065.18
745.23	1077.11
745.56	1079.46
745.89	1068.92
746.22	1067.99
746.55	1070.56
746.88	1060.26
747.21	1069.86
747.54	1081.80
747.87	1090.46
748.20	1086.71
748.53	1094.20
748.87	1097.01
749.20	1100.99
749.53	1094.20
749.86	1103.33
750.19	1096.54
750.52	1088.12
750.85	1070.09
751.18	1059.09
751.51	1051.13
751.84	1052.07
752.16	1059.09
752.49	1075.24
752.82	1079.69
753.15	1078.52
753.48	1090.22
753.81	1078.28
754.14	1075.48
754.47	1086.24
754.80	1089.99
755.13	1082.26
755.46	1089.75
755.79	1098.88
756.12	1107.07
756.45	1100.52
756.78	1109.41
757.11	1106.14
757.43	1096.07
757.76	1089.05
758.09	1083.67
758.42	1082.97
758.75	1074.77
759.08	1071.03
759.41	1071.97
759.74	1077.58
760.07	1078.52
760.39	1096.54
760.72	1107.54
761.05	1094.43
761.38	1096.07
761.71	1091.63
762.04	1087.41
762.36	1075.94
762.69	1077.35
763.02	1081.80
763.35	1072.90
763.68	1071.50
764.01	1067.75
764.33	1075.01
764.66	1068.45
764.99	1069.39
765.32	1072.20
765.65	1081.33
765.97	1075.94
766.30	1075.48
