SpectraSuite Data File
++++++++++++++++++++++++++++++++++++
Date: Mon Aug 26 10:25:46 PDT 2019
User: corrico
Dark Spectrum Present: No
Reference Spectrum Present: No
Number of Sampled Component Spectra: 1
Spectrometers: USB2+H06089
Integration Time (usec): 10000 (USB2+H06089)
Spectra Averaged: 2 (USB2+H06089)
Boxcar Smoothing: 2 (USB2+H06089)
Correct for Electrical Dark: No (USB2+H06089)
Strobe/Lamp Enabled: No (USB2+H06089)
Correct for Detector Non-linearity: No (USB2+H06089)
Correct for Stray Light: No (USB2+H06089)
Number of Pixels in Processed Spectrum: 2048
>>>>>Begin Processed Spectral Data<<<<<
339.70	1007.60
340.07	1007.60
340.45	984.20
340.82	973.90
341.19	949.32
341.57	924.75
341.94	917.02
342.31	912.11
342.69	902.98
343.06	912.81
343.43	920.53
343.81	915.62
344.18	913.98
344.55	915.85
344.93	919.13
345.30	914.21
345.67	923.34
346.04	934.58
346.42	938.55
346.79	943.94
347.16	957.75
347.54	968.51
347.91	967.11
348.28	974.13
348.65	978.11
349.03	989.81
349.40	1007.37
349.77	1017.66
350.14	1029.84
350.52	1036.62
350.89	1042.24
351.26	1036.39
351.63	1042.01
352.01	1042.94
352.38	1052.30
352.75	1058.39
353.12	1069.62
353.50	1069.16
353.87	1080.86
354.24	1078.52
354.61	1073.37
354.98	1068.22
355.36	1073.60
355.73	1071.97
356.10	1078.52
356.47	1086.01
356.84	1084.37
357.22	1085.77
357.59	1075.71
357.96	1066.11
358.33	1069.16
358.70	1071.73
359.08	1066.11
359.45	1070.80
359.82	1069.62
360.19	1054.65
360.56	1055.35
360.94	1056.75
361.31	1055.35
361.68	1054.65
362.05	1054.65
362.42	1038.73
362.79	1042.94
363.16	1044.35
363.54	1050.90
363.91	1056.52
364.28	1071.50
364.65	1060.26
365.02	1060.96
365.39	1058.86
365.76	1062.84
366.14	1059.79
366.51	1075.01
366.88	1068.22
367.25	1066.82
367.62	1049.03
367.99	1043.41
368.36	1040.13
368.73	1048.09
369.10	1058.39
369.48	1071.03
369.85	1088.35
370.22	1085.54
370.59	1078.99
370.96	1070.09
371.33	1069.39
371.70	1055.35
372.07	1049.03
372.44	1055.11
372.81	1053.01
373.18	1053.24
373.55	1056.28
373.93	1069.39
374.30	1064.94
374.67	1056.75
375.04	1060.96
375.41	1057.92
375.78	1056.05
376.15	1057.22
376.52	1070.56
376.89	1070.56
377.26	1077.58
377.63	1069.16
378.00	1064.71
378.37	1061.67
378.74	1056.75
379.11	1051.84
379.48	1064.71
379.85	1078.05
380.22	1078.52
380.59	1074.77
380.96	1068.45
381.33	1064.71
381.70	1055.82
382.07	1048.79
382.44	1058.39
382.81	1066.58
383.18	1056.05
383.55	1055.11
383.92	1052.07
384.29	1047.16
384.66	1058.62
385.03	1068.69
385.40	1071.73
385.77	1084.14
386.14	1089.75
386.51	1073.14
386.88	1072.43
387.25	1071.50
387.62	1062.37
387.99	1047.39
388.36	1049.50
388.73	1053.71
389.10	1064.01
389.46	1068.45
389.83	1086.48
390.20	1087.88
390.57	1084.14
390.94	1076.18
391.31	1077.35
391.68	1072.90
392.05	1073.14
392.42	1063.54
392.79	1059.09
393.16	1057.92
393.53	1061.67
393.89	1067.99
394.26	1077.58
394.63	1077.58
395.00	1081.09
395.37	1075.48
395.74	1066.35
396.11	1066.82
396.48	1071.03
396.84	1074.31
397.21	1080.16
397.58	1077.35
397.95	1074.31
398.32	1079.22
398.69	1077.11
399.06	1071.03
399.42	1082.50
399.79	1077.35
400.16	1071.26
400.53	1079.92
400.90	1083.90
401.27	1075.01
401.64	1081.09
402.00	1084.37
402.37	1073.14
402.74	1071.50
403.11	1080.39
403.48	1082.73
403.84	1082.73
404.21	1082.73
404.58	1090.46
404.95	1093.03
405.32	1089.29
405.68	1084.60
406.05	1078.99
406.42	1073.14
406.79	1061.67
407.16	1054.88
407.52	1058.86
407.89	1064.94
408.26	1065.18
408.63	1068.45
408.99	1068.92
409.36	1071.26
409.73	1078.05
410.10	1086.94
410.47	1084.37
410.83	1090.22
411.20	1085.77
411.57	1078.28
411.94	1071.03
412.30	1075.71
412.67	1083.67
413.04	1087.88
413.40	1089.75
413.77	1080.86
414.14	1077.82
414.51	1074.54
414.87	1065.41
415.24	1072.90
415.61	1082.97
415.97	1091.39
416.34	1080.63
416.71	1089.52
417.08	1081.33
417.44	1078.99
417.81	1075.94
418.18	1084.84
418.54	1082.73
418.91	1083.43
419.28	1090.46
419.64	1088.35
420.01	1089.05
420.38	1086.71
420.74	1091.86
421.11	1080.39
421.48	1093.97
421.84	1095.60
422.21	1094.67
422.58	1090.69
422.94	1094.43
423.31	1069.39
423.68	1062.60
424.04	1067.75
424.41	1071.26
424.77	1071.97
425.14	1080.86
425.51	1090.22
425.87	1082.73
426.24	1075.01
426.61	1076.65
426.97	1077.35
427.34	1071.73
427.70	1072.43
428.07	1074.07
428.44	1076.41
428.80	1080.63
429.17	1080.86
429.53	1086.24
429.90	1098.41
430.27	1088.58
430.63	1093.03
431.00	1095.14
431.36	1101.46
431.73	1088.82
432.09	1095.14
432.46	1092.56
432.83	1082.50
433.19	1076.18
433.56	1067.99
433.92	1056.05
434.29	1050.67
434.65	1058.39
435.02	1063.54
435.38	1075.24
435.75	1086.24
436.11	1079.69
436.48	1074.54
436.84	1068.22
437.21	1077.82
437.57	1081.56
437.94	1087.41
438.30	1087.41
438.67	1088.82
439.03	1078.52
439.40	1062.37
439.76	1068.69
440.13	1070.80
440.49	1066.58
440.86	1064.48
441.22	1071.73
441.59	1065.18
441.95	1062.37
442.32	1066.58
442.68	1061.67
443.05	1064.71
443.41	1064.24
443.78	1077.11
444.14	1070.33
444.51	1070.33
444.87	1062.84
445.24	1059.56
445.60	1052.54
445.96	1064.48
446.33	1071.97
446.69	1087.41
447.06	1096.07
447.42	1091.63
447.79	1090.92
448.15	1094.20
448.51	1084.84
448.88	1086.01
449.24	1098.41
449.61	1103.09
449.97	1096.31
450.33	1097.95
450.70	1093.26
451.06	1077.82
451.43	1065.18
451.79	1068.69
452.15	1067.99
452.52	1073.14
452.88	1076.65
453.24	1083.43
453.61	1083.90
453.97	1086.94
454.34	1072.43
454.70	1075.71
455.06	1073.60
455.43	1078.75
455.79	1082.50
456.15	1079.92
456.52	1078.99
456.88	1083.67
457.24	1087.41
457.61	1083.90
457.97	1100.05
458.33	1103.09
458.70	1092.09
459.06	1083.90
459.42	1083.20
459.79	1081.80
460.15	1079.92
460.51	1075.94
460.88	1065.65
461.24	1065.88
461.60	1059.56
461.96	1049.50
462.33	1056.75
462.69	1062.60
463.05	1054.88
463.42	1063.07
463.78	1064.71
464.14	1072.43
464.50	1080.86
464.87	1089.29
465.23	1088.12
465.59	1089.05
465.95	1084.60
466.32	1082.50
466.68	1077.35
467.04	1076.65
467.40	1093.50
467.77	1094.90
468.13	1083.43
468.49	1089.29
468.85	1093.97
469.22	1074.31
469.58	1072.20
469.94	1082.97
470.30	1073.37
470.66	1068.92
471.03	1077.11
471.39	1079.22
471.75	1072.43
472.11	1075.48
472.47	1075.01
472.84	1072.67
473.20	1068.69
473.56	1081.56
473.92	1097.01
474.28	1095.14
474.65	1105.20
475.01	1104.50
475.37	1095.37
475.73	1081.09
476.09	1072.90
476.45	1064.71
476.81	1056.52
477.18	1053.48
477.54	1055.11
477.90	1060.26
478.26	1054.88
478.62	1061.20
478.98	1059.09
479.34	1060.50
479.71	1066.82
480.07	1077.58
480.43	1081.56
480.79	1088.58
481.15	1085.07
481.51	1087.18
481.87	1088.58
482.23	1089.99
482.59	1082.03
482.96	1088.58
483.32	1088.35
483.68	1084.14
484.04	1084.37
484.40	1092.33
484.76	1085.07
485.12	1082.26
485.48	1077.35
485.84	1071.73
486.20	1070.09
486.56	1068.69
486.92	1065.65
487.28	1064.71
487.64	1063.54
488.00	1064.48
488.37	1071.73
488.73	1074.07
489.09	1088.35
489.45	1096.07
489.81	1105.90
490.17	1098.41
490.53	1096.31
490.89	1088.58
491.25	1086.48
491.61	1075.48
491.97	1083.43
492.33	1078.28
492.69	1076.41
493.05	1075.01
493.41	1081.09
493.77	1071.50
494.13	1086.71
494.49	1083.20
494.85	1083.90
495.21	1072.67
495.57	1080.39
495.93	1078.99
496.29	1080.63
496.64	1081.33
497.00	1092.09
497.36	1092.33
497.72	1083.43
498.08	1086.01
498.44	1085.54
498.80	1081.09
499.16	1078.75
499.52	1084.60
499.88	1090.22
500.24	1096.31
500.60	1092.56
500.96	1095.84
501.32	1089.05
501.68	1077.82
502.03	1075.01
502.39	1086.71
502.75	1075.24
503.11	1075.71
503.47	1082.97
503.83	1070.56
504.19	1056.99
504.55	1070.80
504.91	1071.26
505.26	1066.11
505.62	1076.88
505.98	1077.35
506.34	1073.14
506.70	1090.46
507.06	1094.90
507.42	1104.26
507.78	1119.24
508.13	1118.54
508.49	1104.50
508.85	1103.09
509.21	1091.63
509.57	1084.14
509.93	1089.29
510.28	1086.94
510.64	1089.75
511.00	1084.14
511.36	1086.94
511.72	1074.31
512.07	1079.69
512.43	1077.58
512.79	1081.56
513.15	1071.03
513.51	1077.11
513.86	1076.88
514.22	1081.33
514.58	1077.58
514.94	1079.22
515.30	1073.14
515.65	1063.77
516.01	1059.79
516.37	1068.22
516.73	1073.14
517.08	1080.39
517.44	1090.69
517.80	1101.46
518.16	1099.82
518.51	1096.78
518.87	1105.90
519.23	1101.92
519.59	1089.99
519.94	1099.82
520.30	1102.63
520.66	1093.26
521.01	1102.39
521.37	1099.35
521.73	1086.24
522.09	1078.28
522.44	1082.26
522.80	1073.14
523.16	1073.37
523.51	1075.01
523.87	1083.90
524.23	1080.86
524.58	1082.73
524.94	1090.46
525.30	1092.09
525.65	1099.12
526.01	1096.54
526.37	1100.05
526.72	1086.94
527.08	1089.52
527.44	1081.80
527.79	1081.09
528.15	1080.63
528.51	1084.37
528.86	1081.09
529.22	1075.94
529.58	1073.14
529.93	1067.28
530.29	1070.56
530.65	1072.43
531.00	1075.48
531.36	1086.48
531.71	1088.58
532.07	1094.20
532.43	1095.84
532.78	1095.84
533.14	1091.39
533.49	1089.75
533.85	1087.65
534.21	1095.60
534.56	1108.24
534.92	1109.88
535.27	1116.67
535.63	1115.73
535.98	1108.01
536.34	1092.33
536.69	1091.63
537.05	1080.39
537.41	1080.86
537.76	1078.05
538.12	1083.43
538.47	1089.99
538.83	1096.78
539.18	1095.37
539.54	1093.50
539.89	1082.26
540.25	1078.05
540.60	1076.18
540.96	1070.56
541.31	1071.73
541.67	1076.88
542.02	1068.92
542.38	1051.37
542.73	1057.45
543.09	1063.07
543.44	1063.54
543.80	1063.31
544.15	1078.75
544.51	1089.05
544.86	1092.09
545.22	1097.24
545.57	1102.63
545.93	1105.20
546.28	1089.29
546.64	1080.86
546.99	1092.80
547.35	1089.29
547.70	1081.09
548.05	1078.52
548.41	1077.35
548.76	1063.54
549.12	1068.45
549.47	1076.65
549.83	1083.90
550.18	1072.43
550.53	1077.11
550.89	1069.16
551.24	1068.45
551.60	1055.35
551.95	1071.73
552.30	1057.69
552.66	1063.77
553.01	1058.16
553.37	1070.80
553.72	1058.62
554.07	1075.94
554.43	1072.20
554.78	1077.58
555.13	1079.69
555.49	1094.90
555.84	1083.90
556.19	1088.12
556.55	1081.80
556.90	1077.35
557.26	1076.18
557.61	1085.54
557.96	1088.35
558.32	1092.56
558.67	1103.33
559.02	1100.99
559.37	1101.69
559.73	1107.54
560.08	1106.84
560.43	1096.78
560.79	1091.63
561.14	1086.01
561.49	1068.22
561.85	1071.97
562.20	1077.58
562.55	1082.03
562.90	1080.86
563.26	1089.75
563.61	1090.69
563.96	1086.94
564.32	1083.90
564.67	1076.65
565.02	1077.35
565.37	1083.20
565.73	1082.97
566.08	1080.39
566.43	1091.63
566.78	1097.48
567.14	1096.78
567.49	1100.29
567.84	1108.01
568.19	1110.82
568.54	1103.09
568.90	1092.09
569.25	1097.71
569.60	1097.24
569.95	1097.48
570.31	1095.14
570.66	1096.07
571.01	1093.03
571.36	1086.48
571.71	1073.14
572.06	1075.48
572.42	1071.73
572.77	1062.60
573.12	1059.56
573.47	1067.99
573.82	1069.86
574.18	1070.80
574.53	1069.16
574.88	1068.92
575.23	1066.82
575.58	1066.11
575.93	1075.71
576.28	1095.60
576.64	1096.54
576.99	1097.01
577.34	1099.82
577.69	1092.33
578.04	1077.35
578.39	1086.01
578.74	1083.90
579.09	1085.77
579.44	1085.31
579.80	1085.54
580.15	1077.11
580.50	1082.03
580.85	1074.77
581.20	1075.24
581.55	1075.94
581.90	1082.03
582.25	1083.67
582.60	1089.05
582.95	1084.14
583.30	1072.43
583.65	1073.37
584.00	1059.56
584.35	1048.33
584.71	1050.43
585.06	1056.05
585.41	1049.96
585.76	1070.80
586.11	1080.86
586.46	1093.26
586.81	1103.33
587.16	1105.20
587.51	1097.95
587.86	1081.80
588.21	1077.58
588.56	1070.33
588.91	1077.35
589.26	1074.31
589.61	1092.56
589.96	1097.48
590.31	1093.50
590.66	1083.43
591.01	1083.43
591.36	1092.80
591.71	1090.46
592.06	1097.48
592.41	1101.92
592.76	1099.82
593.10	1089.05
593.45	1087.88
593.80	1083.20
594.15	1089.99
594.50	1099.35
594.85	1092.09
595.20	1087.88
595.55	1084.84
595.90	1074.31
596.25	1055.11
596.60	1051.37
596.95	1051.13
597.30	1045.52
597.64	1104.73
597.99	1117.84
598.34	1125.56
598.69	1134.46
599.04	1153.88
599.39	1093.73
599.74	1084.84
600.09	1084.84
600.44	1078.28
600.78	1075.24
601.13	1077.58
601.48	1085.07
601.83	1082.03
602.18	1091.16
602.53	1100.05
602.88	1116.90
603.22	1106.37
603.57	1105.67
603.92	1093.97
604.27	1077.58
604.62	1052.77
604.97	1060.03
605.31	1060.26
605.66	1058.86
606.01	1065.88
606.36	1077.35
606.71	1080.86
607.05	1086.71
607.40	1087.65
607.75	1094.20
608.10	1092.80
608.44	1102.39
608.79	1099.35
609.14	1102.86
609.49	1093.03
609.84	1101.46
610.18	1095.37
610.53	1101.69
610.88	1102.63
611.23	1099.35
611.57	1097.71
611.92	1103.80
612.27	1094.43
612.62	1088.12
612.96	1089.99
613.31	1085.31
613.66	1074.54
614.00	1077.82
614.35	1076.65
614.70	1076.88
615.05	1078.28
615.39	1078.52
615.74	1075.48
616.09	1083.20
616.43	1077.35
616.78	1077.11
617.13	1073.84
617.47	1078.05
617.82	1072.90
618.17	1096.07
618.51	1098.18
618.86	1109.41
619.21	1104.03
619.55	1104.26
619.90	1086.94
620.25	1090.46
620.59	1086.01
620.94	1082.97
621.29	1091.16
621.63	1089.99
621.98	1077.11
622.32	1066.35
622.67	1079.22
623.02	1071.97
623.36	1083.20
623.71	1088.58
624.05	1097.01
624.40	1094.67
624.75	1095.84
625.09	1093.73
625.44	1084.84
625.78	1084.60
626.13	1077.11
626.48	1079.92
626.82	1085.07
627.17	1092.56
627.51	1086.71
627.86	1087.65
628.20	1082.26
628.55	1073.14
628.89	1071.03
629.24	1071.97
629.58	1073.60
629.93	1081.33
630.28	1081.33
630.62	1089.75
630.97	1093.03
631.31	1096.78
631.66	1094.67
632.00	1081.80
632.35	1083.43
632.69	1086.94
633.04	1082.50
633.38	1075.48
633.73	1083.20
634.07	1072.67
634.42	1073.37
634.76	1072.43
635.11	1084.84
635.45	1087.65
635.79	1087.65
636.14	1086.24
636.48	1094.20
636.83	1091.63
637.17	1095.84
637.52	1104.50
637.86	1099.12
638.21	1093.97
638.55	1081.33
638.89	1079.46
639.24	1075.71
639.58	1083.67
639.93	1085.07
640.27	1092.56
640.61	1091.39
640.96	1094.90
641.30	1097.01
641.65	1091.16
641.99	1087.65
642.33	1087.41
642.68	1087.65
643.02	1077.82
643.37	1080.86
643.71	1078.99
644.05	1083.20
644.40	1078.99
644.74	1081.09
645.08	1080.63
645.43	1083.67
645.77	1080.39
646.11	1075.01
646.46	1075.24
646.80	1085.31
647.14	1082.03
647.49	1082.03
647.83	1074.07
648.17	1078.05
648.52	1064.01
648.86	1066.35
649.20	1063.77
649.55	1069.39
649.89	1069.86
650.23	1073.60
650.57	1082.50
650.92	1082.26
651.26	1084.60
651.60	1082.97
651.95	1091.86
652.29	1087.18
652.63	1080.16
652.97	1080.39
653.32	1086.01
653.66	1071.73
654.00	1066.58
654.34	1073.60
654.69	1081.56
655.03	1083.20
655.37	1090.46
655.71	1097.71
656.05	1099.12
656.40	1091.16
656.74	1079.69
657.08	1074.07
657.42	1066.11
657.76	1066.82
658.11	1067.05
658.45	1066.58
658.79	1069.39
659.13	1079.69
659.47	1078.99
659.82	1079.69
660.16	1086.94
660.50	1087.41
660.84	1084.37
661.18	1079.69
661.52	1083.90
661.87	1076.18
662.21	1075.24
662.55	1073.60
662.89	1082.97
663.23	1087.18
663.57	1081.56
663.91	1097.24
664.25	1090.46
664.60	1086.48
664.94	1079.69
665.28	1082.03
665.62	1074.31
665.96	1087.65
666.30	1087.41
666.64	1087.41
666.98	1091.63
667.32	1089.29
667.66	1084.60
668.01	1087.41
668.35	1083.20
668.69	1082.26
669.03	1074.31
669.37	1060.96
669.71	1057.45
670.05	1060.03
670.39	1065.65
670.73	1070.33
671.07	1076.88
671.41	1075.01
671.75	1079.69
672.09	1075.24
672.43	1087.88
672.77	1093.97
673.11	1087.65
673.45	1083.67
673.79	1087.65
674.13	1082.26
674.47	1078.99
674.81	1095.37
675.15	1093.26
675.49	1096.07
675.83	1096.54
676.17	1102.16
676.51	1093.26
676.85	1105.90
677.19	1104.97
677.53	1100.29
677.87	1092.33
678.21	1089.99
678.55	1082.26
678.89	1084.37
679.23	1082.26
679.57	1087.88
679.90	1083.90
680.24	1086.01
680.58	1074.77
680.92	1070.33
681.26	1061.20
681.60	1065.18
681.94	1058.39
682.28	1066.58
682.62	1075.01
682.96	1083.90
683.29	1081.80
683.63	1085.07
683.97	1084.37
684.31	1073.37
684.65	1085.31
684.99	1098.88
685.33	1105.67
685.67	1105.44
686.00	1110.12
686.34	1103.33
686.68	1094.67
687.02	1088.58
687.36	1083.20
687.70	1078.99
688.03	1078.05
688.37	1076.88
688.71	1072.43
689.05	1072.67
689.39	1084.37
689.72	1073.14
690.06	1072.43
690.40	1077.11
690.74	1086.71
691.08	1086.48
691.41	1086.71
691.75	1082.73
692.09	1076.18
692.43	1060.03
692.76	1061.43
693.10	1069.39
693.44	1079.69
693.78	1081.80
694.11	1095.60
694.45	1089.05
694.79	1084.14
695.13	1078.99
695.46	1087.65
695.80	1097.71
696.14	1105.44
696.48	1108.95
696.81	1106.14
697.15	1104.50
697.49	1089.75
697.82	1075.24
698.16	1069.86
698.50	1079.69
698.83	1075.48
699.17	1073.37
699.51	1083.90
699.84	1086.24
700.18	1088.58
700.52	1092.56
700.85	1095.37
701.19	1090.22
701.53	1077.11
701.86	1065.88
702.20	1061.90
702.54	1059.33
702.87	1056.75
703.21	1076.65
703.55	1084.14
703.88	1079.69
704.22	1084.37
704.55	1093.73
704.89	1089.05
705.23	1086.01
705.56	1095.37
705.90	1092.80
706.23	1087.41
706.57	1092.09
706.91	1079.22
707.24	1073.14
707.58	1076.65
707.91	1074.07
708.25	1069.16
708.58	1078.99
708.92	1078.99
709.26	1076.65
709.59	1085.07
709.93	1071.73
710.26	1077.82
710.60	1079.46
710.93	1075.01
711.27	1078.52
711.60	1097.71
711.94	1095.84
712.27	1093.50
712.61	1089.75
712.94	1081.80
713.28	1084.84
713.61	1085.54
713.95	1096.31
714.28	1100.52
714.62	1105.67
714.95	1098.18
715.29	1097.95
715.62	1088.82
715.96	1089.99
716.29	1085.07
716.63	1080.86
716.96	1080.86
717.29	1074.77
717.63	1076.65
717.96	1073.37
718.30	1076.65
718.63	1063.77
718.97	1078.52
719.30	1075.71
719.63	1081.56
719.97	1081.09
720.30	1093.97
720.64	1082.03
720.97	1083.20
721.30	1080.86
721.64	1081.09
721.97	1080.63
722.31	1078.28
722.64	1083.20
722.97	1087.88
723.31	1086.01
723.64	1084.60
723.97	1093.50
724.31	1085.54
724.64	1079.22
724.98	1073.14
725.31	1080.39
725.64	1076.18
725.98	1071.97
726.31	1079.22
726.64	1086.71
726.97	1075.71
727.31	1084.60
727.64	1096.54
727.97	1086.24
728.31	1074.07
728.64	1074.54
728.97	1064.71
729.31	1057.45
729.64	1056.05
729.97	1066.35
730.30	1067.28
730.64	1071.97
730.97	1077.35
731.30	1078.99
731.63	1082.26
731.97	1085.54
732.30	1081.33
732.63	1086.94
732.96	1092.09
733.30	1095.60
733.63	1085.77
733.96	1088.12
734.29	1087.41
734.63	1082.03
734.96	1079.92
735.29	1090.69
735.62	1086.01
735.95	1071.97
736.29	1075.01
736.62	1066.58
736.95	1062.60
737.28	1061.90
737.61	1062.60
737.94	1063.54
738.28	1068.22
738.61	1064.01
738.94	1066.11
739.27	1069.39
739.60	1071.03
739.93	1069.16
740.27	1076.65
740.60	1081.09
740.93	1078.52
741.26	1082.03
741.59	1084.14
741.92	1077.58
742.25	1082.73
742.58	1089.75
742.91	1075.94
743.25	1079.22
743.58	1081.09
743.91	1071.73
744.24	1068.22
744.57	1069.39
744.90	1057.92
745.23	1053.71
745.56	1059.56
745.89	1062.60
746.22	1073.84
746.55	1078.99
746.88	1085.54
747.21	1086.71
747.54	1091.63
747.87	1090.92
748.20	1089.99
748.53	1094.67
748.87	1083.20
749.20	1085.77
749.53	1080.86
749.86	1085.07
750.19	1075.48
750.52	1092.33
750.85	1085.54
751.18	1092.80
751.51	1091.39
751.84	1093.50
752.16	1084.84
752.49	1089.52
752.82	1082.03
753.15	1076.65
753.48	1083.43
753.81	1070.09
754.14	1058.86
754.47	1064.94
754.80	1076.65
755.13	1076.18
755.46	1091.63
755.79	1099.82
756.12	1107.54
756.45	1099.82
756.78	1092.56
757.11	1083.20
757.43	1082.97
757.76	1071.50
758.09	1076.41
758.42	1088.58
758.75	1086.01
759.08	1087.41
759.41	1087.41
759.74	1088.58
760.07	1083.67
760.39	1094.67
760.72	1085.31
761.05	1082.97
761.38	1078.28
761.71	1073.60
762.04	1080.63
762.36	1080.63
762.69	1071.73
763.02	1074.07
763.35	1068.92
763.68	1056.75
764.01	1060.50
764.33	1067.99
764.66	1061.43
764.99	1057.92
765.32	1053.01
765.65	1059.33
765.97	1065.18
766.30	1075.48
