SpectraSuite Data File
++++++++++++++++++++++++++++++++++++
Date: Mon Aug 26 10:25:48 PDT 2019
User: corrico
Dark Spectrum Present: No
Reference Spectrum Present: No
Number of Sampled Component Spectra: 1
Spectrometers: USB2+H06089
Integration Time (usec): 10000 (USB2+H06089)
Spectra Averaged: 2 (USB2+H06089)
Boxcar Smoothing: 2 (USB2+H06089)
Correct for Electrical Dark: No (USB2+H06089)
Strobe/Lamp Enabled: No (USB2+H06089)
Correct for Detector Non-linearity: No (USB2+H06089)
Correct for Stray Light: No (USB2+H06089)
Number of Pixels in Processed Spectrum: 2048
>>>>>Begin Processed Spectral Data<<<<<
339.70	1088.35
340.07	1088.35
340.45	1012.05
340.82	973.90
341.19	945.58
341.57	911.87
341.94	902.28
342.31	918.66
342.69	925.45
343.06	915.15
343.43	906.26
343.81	907.43
344.18	898.06
344.55	902.28
344.93	911.17
345.30	922.64
345.67	932.70
346.04	942.07
346.42	947.68
346.79	952.83
347.16	960.09
347.54	960.09
347.91	982.32
348.28	987.47
348.65	996.83
349.03	1009.24
349.40	1020.47
349.77	1012.75
350.14	1025.15
350.52	1024.92
350.89	1026.32
351.26	1037.33
351.63	1048.79
352.01	1039.43
352.38	1042.24
352.75	1039.20
353.12	1031.94
353.50	1040.13
353.87	1042.94
354.24	1061.20
354.61	1072.20
354.98	1091.16
355.36	1088.58
355.73	1098.88
356.10	1090.69
356.47	1093.50
356.84	1070.33
357.22	1067.52
357.59	1063.07
357.96	1065.65
358.33	1069.39
358.70	1082.50
359.08	1083.90
359.45	1084.84
359.82	1085.07
360.19	1086.24
360.56	1090.22
360.94	1094.43
361.31	1098.88
361.68	1095.37
362.05	1082.97
362.42	1082.26
362.79	1074.07
363.16	1072.67
363.54	1078.75
363.91	1083.20
364.28	1077.35
364.65	1078.75
365.02	1066.82
365.39	1057.45
365.76	1060.26
366.14	1055.35
366.51	1061.20
366.88	1074.07
367.25	1071.97
367.62	1070.09
367.99	1071.03
368.36	1065.88
368.73	1054.88
369.10	1059.09
369.48	1054.41
369.85	1069.39
370.22	1064.48
370.59	1061.43
370.96	1055.35
371.33	1060.26
371.70	1046.92
372.07	1054.65
372.44	1061.43
372.81	1067.28
373.18	1063.31
373.55	1068.92
373.93	1073.14
374.30	1074.54
374.67	1074.54
375.04	1076.41
375.41	1073.60
375.78	1061.43
376.15	1069.86
376.52	1067.52
376.89	1068.69
377.26	1063.54
377.63	1062.84
378.00	1057.69
378.37	1064.01
378.74	1055.82
379.11	1057.92
379.48	1069.39
379.85	1077.35
380.22	1077.11
380.59	1087.41
380.96	1089.29
381.33	1081.33
381.70	1069.62
382.07	1067.05
382.44	1062.14
382.81	1069.62
383.18	1066.82
383.55	1068.22
383.92	1071.26
384.29	1074.54
384.66	1066.82
385.03	1074.77
385.40	1067.05
385.77	1067.05
386.14	1069.62
386.51	1064.01
386.88	1056.75
387.25	1065.41
387.62	1066.58
387.99	1058.62
388.36	1052.77
388.73	1057.22
389.10	1061.20
389.46	1061.67
389.83	1070.80
390.20	1085.31
390.57	1082.97
390.94	1079.22
391.31	1075.01
391.68	1072.90
392.05	1073.37
392.42	1073.60
392.79	1071.03
393.16	1075.71
393.53	1068.69
393.89	1065.88
394.26	1067.99
394.63	1066.35
395.00	1060.50
395.37	1064.71
395.74	1068.45
396.11	1065.65
396.48	1077.11
396.84	1083.20
397.21	1085.31
397.58	1089.75
397.95	1085.07
398.32	1068.45
398.69	1065.88
399.06	1055.82
399.42	1048.79
399.79	1056.05
400.16	1062.37
400.53	1060.50
400.90	1076.65
401.27	1082.97
401.64	1087.18
402.00	1079.22
402.37	1080.39
402.74	1070.33
403.11	1073.37
403.48	1072.67
403.84	1079.46
404.21	1073.84
404.58	1071.50
404.95	1060.03
405.32	1059.79
405.68	1059.09
406.05	1056.52
406.42	1054.65
406.79	1058.86
407.16	1054.65
407.52	1058.86
407.89	1070.56
408.26	1074.54
408.63	1084.84
408.99	1080.39
409.36	1081.09
409.73	1072.43
410.10	1071.26
410.47	1070.80
410.83	1078.99
411.20	1077.35
411.57	1083.67
411.94	1092.56
412.30	1081.33
412.67	1075.71
413.04	1082.97
413.40	1086.24
413.77	1078.05
414.14	1070.33
414.51	1068.45
414.87	1054.41
415.24	1050.43
415.61	1063.31
415.97	1074.31
416.34	1083.20
416.71	1099.58
417.08	1094.20
417.44	1076.65
417.81	1081.33
418.18	1082.03
418.54	1075.94
418.91	1076.18
419.28	1078.52
419.64	1074.07
420.01	1070.80
420.38	1063.31
420.74	1069.86
421.11	1078.05
421.48	1078.05
421.84	1077.58
422.21	1085.07
422.58	1077.58
422.94	1074.77
423.31	1062.37
423.68	1062.14
424.04	1057.22
424.41	1070.33
424.77	1061.90
425.14	1072.43
425.51	1069.86
425.87	1072.67
426.24	1060.03
426.61	1059.33
426.97	1056.99
427.34	1051.13
427.70	1055.82
428.07	1057.45
428.44	1066.82
428.80	1066.58
429.17	1067.99
429.53	1058.39
429.90	1053.48
430.27	1052.77
430.63	1058.39
431.00	1062.37
431.36	1065.41
431.73	1083.67
432.09	1077.35
432.46	1075.94
432.83	1083.67
433.19	1094.67
433.56	1088.35
433.92	1091.39
434.29	1093.03
434.65	1087.41
435.02	1075.48
435.38	1064.71
435.75	1067.75
436.11	1069.16
436.48	1072.67
436.84	1074.31
437.21	1070.80
437.57	1071.26
437.94	1059.09
438.30	1053.48
438.67	1050.90
439.03	1058.39
439.40	1070.33
439.76	1080.16
440.13	1078.05
440.49	1078.52
440.86	1082.50
441.22	1068.22
441.59	1064.48
441.95	1073.14
442.32	1076.18
442.68	1081.33
443.05	1090.46
443.41	1090.69
443.78	1091.86
444.14	1089.75
444.51	1075.48
444.87	1068.92
445.24	1062.60
445.60	1060.26
445.96	1066.11
446.33	1076.18
446.69	1072.67
447.06	1081.80
447.42	1075.71
447.79	1066.58
448.15	1064.24
448.51	1053.94
448.88	1053.48
449.24	1049.96
449.61	1060.03
449.97	1052.30
450.33	1067.05
450.70	1069.16
451.06	1075.94
451.43	1072.20
451.79	1077.58
452.15	1072.43
452.52	1070.09
452.88	1072.20
453.24	1075.24
453.61	1088.58
453.97	1095.84
454.34	1093.73
454.70	1082.03
455.06	1088.58
455.43	1071.03
455.79	1072.20
456.15	1072.90
456.52	1074.54
456.88	1064.94
457.24	1069.16
457.61	1075.48
457.97	1074.31
458.33	1087.18
458.70	1085.07
459.06	1085.07
459.42	1066.35
459.79	1061.67
460.15	1060.50
460.51	1061.43
460.88	1058.39
461.24	1067.52
461.60	1071.26
461.96	1061.43
462.33	1067.05
462.69	1074.31
463.05	1077.58
463.42	1080.16
463.78	1080.63
464.14	1076.41
464.50	1080.16
464.87	1079.69
465.23	1075.94
465.59	1085.31
465.95	1080.63
466.32	1074.54
466.68	1069.62
467.04	1082.73
467.40	1083.67
467.77	1086.71
468.13	1090.46
468.49	1090.46
468.85	1082.26
469.22	1082.97
469.58	1093.73
469.94	1092.80
470.30	1083.20
470.66	1082.50
471.03	1079.46
471.39	1077.82
471.75	1089.29
472.11	1094.90
472.47	1096.07
472.84	1097.71
473.20	1097.01
473.56	1082.73
473.92	1090.22
474.28	1092.80
474.65	1095.60
475.01	1091.63
475.37	1091.39
475.73	1086.01
476.09	1074.54
476.45	1068.45
476.81	1060.96
477.18	1064.94
477.54	1065.18
477.90	1067.99
478.26	1067.52
478.62	1076.65
478.98	1074.07
479.34	1078.75
479.71	1082.50
480.07	1084.84
480.43	1077.58
480.79	1071.97
481.15	1063.77
481.51	1064.71
481.87	1065.41
482.23	1077.11
482.59	1078.99
482.96	1086.71
483.32	1093.26
483.68	1092.56
484.04	1084.14
484.40	1095.37
484.76	1096.31
485.12	1092.80
485.48	1081.56
485.84	1080.16
486.20	1074.07
486.56	1078.75
486.92	1073.84
487.28	1078.99
487.64	1081.33
488.00	1071.03
488.37	1058.39
488.73	1061.20
489.09	1058.39
489.45	1055.82
489.81	1065.41
490.17	1064.01
490.53	1058.86
490.89	1063.31
491.25	1063.77
491.61	1069.62
491.97	1074.77
492.33	1082.73
492.69	1087.18
493.05	1089.75
493.41	1081.09
493.77	1090.69
494.13	1089.05
494.49	1087.41
494.85	1087.18
495.21	1082.97
495.57	1086.01
495.93	1087.41
496.29	1083.67
496.64	1086.94
497.00	1097.48
497.36	1085.77
497.72	1089.99
498.08	1099.12
498.44	1095.60
498.80	1092.33
499.16	1095.84
499.52	1089.05
499.88	1077.35
500.24	1077.35
500.60	1080.39
500.96	1086.01
501.32	1092.80
501.68	1100.05
502.03	1085.31
502.39	1082.03
502.75	1072.90
503.11	1071.03
503.47	1077.58
503.83	1089.05
504.19	1092.56
504.55	1097.24
504.91	1085.31
505.26	1078.05
505.62	1075.71
505.98	1074.31
506.34	1068.92
506.70	1072.43
507.06	1064.94
507.42	1075.24
507.78	1071.50
508.13	1067.75
508.49	1068.92
508.85	1076.88
509.21	1071.97
509.57	1073.84
509.93	1085.77
510.28	1094.43
510.64	1092.09
511.00	1090.46
511.36	1081.56
511.72	1078.52
512.07	1070.80
512.43	1078.52
512.79	1076.18
513.15	1087.65
513.51	1085.07
513.86	1087.65
514.22	1084.37
514.58	1092.09
514.94	1085.54
515.30	1092.56
515.65	1087.18
516.01	1088.35
516.37	1092.33
516.73	1090.92
517.08	1075.48
517.44	1083.67
517.80	1079.69
518.16	1067.05
518.51	1065.65
518.87	1069.86
519.23	1065.41
519.59	1055.82
519.94	1060.73
520.30	1071.97
520.66	1090.92
521.01	1093.97
521.37	1098.88
521.73	1098.18
522.09	1095.37
522.44	1087.88
522.80	1092.33
523.16	1105.67
523.51	1116.44
523.87	1119.24
524.23	1109.88
524.58	1101.92
524.94	1089.52
525.30	1081.80
525.65	1075.71
526.01	1073.60
526.37	1063.54
526.72	1067.75
527.08	1068.22
527.44	1070.33
527.79	1078.28
528.15	1091.63
528.51	1089.75
528.86	1088.12
529.22	1088.12
529.58	1080.39
529.93	1077.35
530.29	1078.28
530.65	1084.14
531.00	1082.26
531.36	1084.14
531.71	1082.97
532.07	1083.67
532.43	1077.58
532.78	1075.01
533.14	1061.20
533.49	1067.52
533.85	1074.54
534.21	1071.26
534.56	1078.28
534.92	1100.29
535.27	1095.84
535.63	1092.56
535.98	1097.24
536.34	1094.90
536.69	1092.09
537.05	1092.33
537.41	1083.43
537.76	1079.46
538.12	1081.56
538.47	1073.37
538.83	1075.94
539.18	1086.01
539.54	1086.01
539.89	1094.20
540.25	1098.88
540.60	1104.97
540.96	1108.95
541.31	1119.48
541.67	1108.95
542.02	1115.97
542.38	1106.14
542.73	1097.95
543.09	1100.52
543.44	1090.46
543.80	1078.75
544.15	1080.63
544.51	1082.97
544.86	1080.86
545.22	1091.39
545.57	1103.80
545.93	1104.03
546.28	1100.52
546.64	1086.94
546.99	1083.67
547.35	1082.97
547.70	1083.67
548.05	1086.24
548.41	1096.54
548.76	1091.86
549.12	1077.82
549.47	1078.52
549.83	1077.35
550.18	1075.24
550.53	1072.90
550.89	1070.80
551.24	1070.33
551.60	1070.80
551.95	1065.41
552.30	1072.67
552.66	1084.14
553.01	1086.01
553.37	1088.12
553.72	1087.18
554.07	1083.90
554.43	1083.43
554.78	1082.73
555.13	1082.26
555.49	1082.50
555.84	1093.73
556.19	1092.09
556.55	1089.29
556.90	1092.56
557.26	1098.41
557.61	1086.01
557.96	1089.29
558.32	1089.05
558.67	1089.29
559.02	1082.97
559.37	1082.50
559.73	1080.39
560.08	1087.88
560.43	1085.07
560.79	1085.31
561.14	1098.18
561.49	1104.03
561.85	1093.97
562.20	1087.18
562.55	1085.77
562.90	1075.71
563.26	1075.94
563.61	1080.63
563.96	1092.09
564.32	1097.48
564.67	1104.26
565.02	1101.22
565.37	1102.39
565.73	1101.46
566.08	1104.03
566.43	1098.65
566.78	1088.82
567.14	1087.18
567.49	1080.16
567.84	1070.80
568.19	1072.43
568.54	1078.28
568.90	1072.90
569.25	1071.97
569.60	1077.35
569.95	1080.86
570.31	1075.24
570.66	1084.60
571.01	1093.73
571.36	1084.37
571.71	1085.54
572.06	1091.16
572.42	1078.75
572.77	1064.71
573.12	1073.37
573.47	1064.24
573.82	1057.45
574.18	1062.84
574.53	1059.33
574.88	1052.07
575.23	1052.30
575.58	1057.69
575.93	1066.35
576.28	1077.35
576.64	1081.56
576.99	1089.75
577.34	1089.52
577.69	1083.20
578.04	1069.62
578.39	1075.01
578.74	1072.20
579.09	1067.75
579.44	1064.48
579.80	1077.11
580.15	1079.92
580.50	1079.46
580.85	1091.86
581.20	1089.05
581.55	1088.82
581.90	1083.67
582.25	1082.03
582.60	1067.28
582.95	1079.46
583.30	1078.52
583.65	1075.71
584.00	1075.48
584.35	1084.14
584.71	1076.41
585.06	1078.05
585.41	1071.97
585.76	1072.67
586.11	1063.07
586.46	1065.18
586.81	1064.01
587.16	1073.37
587.51	1078.05
587.86	1087.18
588.21	1084.60
588.56	1085.07
588.91	1083.67
589.26	1077.11
589.61	1071.97
589.96	1070.33
590.31	1071.26
590.66	1068.69
591.01	1062.37
591.36	1067.99
591.71	1067.52
592.06	1063.07
592.41	1062.84
592.76	1075.71
593.10	1077.58
593.45	1074.54
593.80	1084.37
594.15	1084.37
594.50	1084.84
594.85	1079.92
595.20	1085.54
595.55	1076.41
595.90	1084.14
596.25	1078.75
596.60	1080.39
596.95	1076.18
597.30	1082.73
597.64	1125.56
597.99	1124.86
598.34	1126.03
598.69	1130.71
599.04	1134.46
599.39	1088.58
599.74	1089.05
600.09	1085.07
600.44	1090.46
600.78	1078.28
601.13	1076.65
601.48	1085.54
601.83	1087.18
602.18	1078.75
602.53	1080.86
602.88	1090.69
603.22	1079.22
603.57	1077.35
603.92	1087.41
604.27	1090.92
604.62	1076.65
604.97	1076.88
605.31	1081.80
605.66	1075.71
606.01	1077.11
606.36	1084.60
606.71	1088.12
607.05	1086.01
607.40	1087.41
607.75	1088.12
608.10	1084.60
608.44	1079.69
608.79	1081.56
609.14	1079.69
609.49	1077.35
609.84	1082.26
610.18	1095.14
610.53	1099.58
610.88	1100.75
611.23	1102.86
611.57	1112.92
611.92	1110.12
612.27	1104.50
612.62	1105.20
612.96	1107.54
613.31	1091.39
613.66	1095.14
614.00	1094.90
614.35	1094.20
614.70	1087.18
615.05	1092.09
615.39	1085.54
615.74	1089.05
616.09	1088.12
616.43	1086.24
616.78	1076.65
617.13	1067.99
617.47	1059.09
617.82	1060.96
618.17	1067.99
618.51	1075.48
618.86	1075.48
619.21	1081.80
619.55	1079.46
619.90	1067.52
620.25	1064.71
620.59	1073.84
620.94	1074.54
621.29	1074.54
621.63	1080.39
621.98	1074.31
622.32	1074.77
622.67	1074.54
623.02	1083.20
623.36	1086.94
623.71	1098.65
624.05	1097.01
624.40	1094.20
624.75	1084.60
625.09	1082.26
625.44	1073.60
625.78	1068.45
626.13	1071.26
626.48	1071.50
626.82	1073.84
627.17	1070.56
627.51	1073.37
627.86	1071.03
628.20	1078.75
628.55	1073.84
628.89	1074.77
629.24	1073.37
629.58	1065.88
629.93	1053.01
630.28	1056.05
630.62	1067.28
630.97	1070.33
631.31	1082.03
631.66	1083.90
632.00	1079.69
632.35	1075.48
632.69	1074.07
633.04	1073.37
633.38	1072.43
633.73	1078.05
634.07	1080.16
634.42	1078.05
634.76	1070.56
635.11	1081.33
635.45	1078.05
635.79	1075.01
636.14	1074.31
636.48	1078.28
636.83	1070.09
637.17	1067.75
637.52	1071.97
637.86	1076.65
638.21	1078.99
638.55	1081.33
638.89	1076.41
639.24	1070.56
639.58	1067.99
639.93	1065.18
640.27	1065.18
640.61	1080.86
640.96	1088.82
641.30	1098.41
641.65	1099.12
641.99	1106.84
642.33	1107.54
642.68	1102.16
643.02	1096.54
643.37	1104.97
643.71	1090.46
644.05	1093.03
644.40	1088.82
644.74	1092.09
645.08	1083.20
645.43	1088.58
645.77	1071.97
646.11	1068.45
646.46	1068.92
646.80	1074.31
647.14	1070.33
647.49	1073.84
647.83	1083.90
648.17	1083.90
648.52	1073.60
648.86	1075.01
649.20	1073.37
649.55	1075.24
649.89	1070.09
650.23	1072.43
650.57	1082.73
650.92	1090.22
651.26	1093.26
651.60	1092.56
651.95	1098.88
652.29	1091.16
652.63	1083.67
652.97	1076.65
653.32	1082.73
653.66	1082.73
654.00	1084.14
654.34	1095.37
654.69	1103.09
655.03	1093.97
655.37	1093.03
655.71	1090.92
656.05	1080.16
656.40	1077.11
656.74	1082.97
657.08	1072.20
657.42	1075.24
657.76	1080.86
658.11	1079.46
658.45	1074.31
658.79	1082.50
659.13	1087.18
659.47	1089.52
659.82	1089.75
660.16	1097.01
660.50	1091.39
660.84	1090.46
661.18	1089.05
661.52	1088.12
661.87	1089.29
662.21	1089.52
662.55	1088.82
662.89	1086.94
663.23	1084.14
663.57	1075.94
663.91	1086.48
664.25	1082.50
664.60	1078.52
664.94	1078.75
665.28	1071.50
665.62	1066.82
665.96	1058.62
666.30	1056.52
666.64	1057.45
666.98	1058.62
667.32	1057.45
667.66	1075.01
668.01	1074.54
668.35	1071.50
668.69	1074.54
669.03	1081.09
669.37	1069.39
669.71	1071.97
670.05	1079.46
670.39	1085.31
670.73	1076.65
671.07	1072.20
671.41	1076.65
671.75	1069.39
672.09	1063.07
672.43	1068.22
672.77	1078.99
673.11	1077.58
673.45	1083.67
673.79	1087.41
674.13	1088.82
674.47	1091.86
674.81	1090.22
675.15	1090.46
675.49	1088.82
675.83	1076.65
676.17	1077.11
676.51	1076.88
676.85	1077.82
677.19	1086.01
677.53	1086.94
677.87	1070.80
678.21	1074.54
678.55	1074.07
678.89	1073.37
679.23	1081.80
679.57	1088.35
679.90	1081.80
680.24	1074.07
680.58	1063.77
680.92	1052.77
681.26	1056.05
681.60	1060.96
681.94	1077.82
682.28	1079.69
682.62	1096.07
682.96	1091.63
683.29	1097.01
683.63	1082.03
683.97	1085.54
684.31	1085.31
684.65	1080.86
684.99	1069.62
685.33	1077.35
685.67	1079.92
686.00	1075.71
686.34	1086.24
686.68	1092.09
687.02	1087.88
687.36	1080.16
687.70	1087.88
688.03	1088.58
688.37	1088.58
688.71	1091.39
689.05	1097.48
689.39	1081.09
689.72	1075.48
690.06	1067.75
690.40	1076.41
690.74	1078.28
691.08	1088.35
691.41	1096.31
691.75	1103.09
692.09	1086.01
692.43	1084.84
692.76	1081.33
693.10	1081.33
693.44	1078.75
693.78	1088.12
694.11	1088.35
694.45	1094.20
694.79	1092.09
695.13	1093.26
695.46	1079.92
695.80	1073.37
696.14	1076.88
696.48	1076.41
696.81	1081.09
697.15	1091.16
697.49	1084.60
697.82	1072.67
698.16	1071.03
698.50	1077.58
698.83	1070.56
699.17	1075.48
699.51	1079.92
699.84	1072.90
700.18	1066.35
700.52	1071.26
700.85	1079.46
701.19	1077.58
701.53	1074.31
701.86	1065.41
702.20	1068.92
702.54	1074.77
702.87	1080.63
703.21	1083.90
703.55	1092.80
703.88	1084.14
704.22	1084.14
704.55	1086.94
704.89	1096.54
705.23	1096.31
705.56	1092.56
705.90	1087.18
706.23	1086.94
706.57	1082.73
706.91	1071.03
707.24	1082.26
707.58	1080.16
707.91	1068.69
708.25	1068.22
708.58	1075.71
708.92	1081.56
709.26	1086.94
709.59	1100.29
709.93	1098.18
710.26	1105.44
710.60	1098.18
710.93	1094.43
711.27	1076.18
711.60	1076.18
711.94	1078.99
712.27	1077.11
712.61	1075.48
712.94	1081.09
713.28	1088.12
713.61	1075.48
713.95	1076.88
714.28	1080.63
714.62	1078.28
714.95	1071.97
715.29	1075.24
715.62	1085.31
715.96	1080.39
716.29	1086.48
716.63	1085.77
716.96	1081.80
717.29	1068.45
717.63	1065.65
717.96	1066.11
718.30	1073.84
718.63	1079.92
718.97	1086.24
719.30	1083.20
719.63	1078.99
719.97	1075.94
720.30	1086.01
720.64	1088.12
720.97	1108.24
721.30	1110.12
721.64	1115.50
721.97	1107.31
722.31	1104.03
722.64	1088.12
722.97	1087.18
723.31	1086.71
723.64	1098.41
723.97	1098.65
724.31	1099.35
724.64	1106.84
724.98	1091.86
725.31	1076.65
725.64	1068.92
725.98	1073.14
726.31	1067.05
726.64	1071.97
726.97	1066.58
727.31	1066.35
727.64	1064.94
727.97	1064.01
728.31	1067.52
728.64	1071.73
728.97	1077.35
729.31	1072.67
729.64	1076.41
729.97	1078.52
730.30	1080.16
730.64	1079.92
730.97	1073.84
731.30	1068.92
731.63	1069.16
731.97	1064.24
732.30	1054.41
732.63	1061.90
732.96	1059.09
733.30	1051.84
733.63	1060.03
733.96	1070.56
734.29	1078.05
734.63	1089.75
734.96	1097.01
735.29	1092.56
735.62	1095.60
735.95	1085.54
736.29	1090.46
736.62	1090.22
736.95	1085.07
737.28	1078.75
737.61	1095.60
737.94	1078.28
738.28	1079.92
738.61	1092.33
738.94	1103.33
739.27	1088.82
739.60	1103.56
739.93	1102.16
740.27	1094.20
740.60	1082.03
740.93	1084.37
741.26	1077.35
741.59	1080.16
741.92	1073.14
742.25	1079.22
742.58	1082.97
742.91	1085.07
743.25	1083.67
743.58	1105.44
743.91	1105.90
744.24	1095.84
744.57	1092.56
744.90	1087.41
745.23	1070.56
745.56	1071.97
745.89	1081.09
746.22	1081.33
746.55	1086.01
746.88	1090.46
747.21	1079.92
747.54	1075.01
747.87	1074.31
748.20	1071.73
748.53	1068.22
748.87	1071.73
749.20	1066.11
749.53	1067.99
749.86	1064.01
750.19	1067.28
750.52	1064.71
750.85	1067.05
751.18	1066.35
751.51	1077.11
751.84	1075.24
752.16	1075.48
752.49	1072.20
752.82	1061.43
753.15	1061.20
753.48	1069.62
753.81	1071.97
754.14	1082.03
754.47	1098.65
754.80	1092.09
755.13	1095.37
755.46	1097.71
755.79	1096.78
756.12	1099.82
756.45	1096.78
756.78	1088.82
757.11	1086.48
757.43	1090.46
757.76	1077.11
758.09	1076.65
758.42	1079.22
758.75	1080.86
759.08	1071.26
759.41	1070.33
759.74	1073.37
760.07	1071.03
760.39	1071.26
760.72	1080.16
761.05	1085.77
761.38	1083.67
761.71	1079.22
762.04	1081.09
762.36	1075.71
762.69	1074.07
763.02	1079.69
763.35	1087.65
763.68	1085.77
764.01	1085.54
764.33	1084.37
764.66	1082.50
764.99	1080.39
765.32	1081.33
765.65	1083.67
765.97	1091.86
766.30	1093.50
