SpectraSuite Data File
++++++++++++++++++++++++++++++++++++
Date: Mon Aug 26 10:25:47 PDT 2019
User: corrico
Dark Spectrum Present: No
Reference Spectrum Present: No
Number of Sampled Component Spectra: 1
Spectrometers: USB2+H06089
Integration Time (usec): 10000 (USB2+H06089)
Spectra Averaged: 2 (USB2+H06089)
Boxcar Smoothing: 2 (USB2+H06089)
Correct for Electrical Dark: No (USB2+H06089)
Strobe/Lamp Enabled: No (USB2+H06089)
Correct for Detector Non-linearity: No (USB2+H06089)
Correct for Stray Light: No (USB2+H06089)
Number of Pixels in Processed Spectrum: 2048
>>>>>Begin Processed Spectral Data<<<<<
339.70	971.32
340.07	971.32
340.45	967.81
340.82	967.58
341.19	951.90
341.57	942.30
341.94	935.75
342.31	916.55
342.69	916.09
343.06	916.55
343.43	909.30
343.81	915.38
344.18	928.02
344.55	917.02
344.93	927.32
345.30	937.85
345.67	939.96
346.04	938.09
346.42	949.56
346.79	955.87
347.16	962.43
347.54	975.54
347.91	985.37
348.28	993.56
348.65	1000.58
349.03	1012.75
349.40	1025.39
349.77	1026.79
350.14	1031.71
350.52	1035.69
350.89	1041.54
351.26	1039.43
351.63	1053.01
352.01	1057.22
352.38	1065.65
352.75	1069.16
353.12	1067.52
353.50	1066.11
353.87	1072.20
354.24	1067.28
354.61	1069.16
354.98	1077.11
355.36	1080.86
355.73	1075.71
356.10	1084.14
356.47	1078.28
356.84	1080.39
357.22	1073.84
357.59	1077.35
357.96	1069.39
358.33	1062.37
358.70	1053.48
359.08	1058.16
359.45	1056.99
359.82	1060.26
360.19	1065.18
360.56	1069.39
360.94	1058.62
361.31	1051.84
361.68	1057.45
362.05	1063.54
362.42	1057.45
362.79	1068.69
363.16	1071.03
363.54	1065.65
363.91	1064.01
364.28	1070.09
364.65	1065.65
365.02	1073.37
365.39	1072.67
365.76	1064.24
366.14	1061.20
366.51	1068.69
366.88	1071.03
367.25	1065.88
367.62	1076.18
367.99	1079.22
368.36	1075.71
368.73	1067.28
369.10	1071.50
369.48	1077.58
369.85	1074.77
370.22	1069.62
370.59	1067.05
370.96	1064.24
371.33	1056.52
371.70	1063.54
372.07	1061.67
372.44	1071.97
372.81	1084.37
373.18	1089.05
373.55	1084.37
373.93	1097.24
374.30	1099.12
374.67	1095.37
375.04	1084.14
375.41	1084.14
375.78	1064.94
376.15	1055.58
376.52	1046.92
376.89	1048.09
377.26	1052.07
377.63	1069.62
378.00	1075.48
378.37	1074.77
378.74	1087.41
379.11	1087.18
379.48	1078.52
379.85	1072.67
380.22	1088.35
380.59	1070.33
380.96	1071.97
381.33	1072.43
381.70	1071.97
382.07	1057.22
382.44	1079.22
382.81	1077.35
383.18	1079.22
383.55	1086.24
383.92	1090.22
384.29	1067.75
384.66	1065.18
385.03	1072.67
385.40	1066.82
385.77	1074.77
386.14	1085.31
386.51	1087.18
386.88	1070.33
387.25	1079.22
387.62	1071.97
387.99	1074.54
388.36	1061.90
388.73	1072.43
389.10	1066.35
389.46	1075.01
389.83	1078.05
390.20	1101.22
390.57	1100.29
390.94	1098.41
391.31	1088.82
391.68	1089.29
392.05	1075.24
392.42	1072.90
392.79	1075.24
393.16	1072.43
393.53	1056.75
393.89	1056.52
394.26	1044.35
394.63	1052.30
395.00	1059.09
395.37	1071.26
395.74	1071.03
396.11	1083.20
396.48	1073.60
396.84	1069.86
397.21	1066.82
397.58	1070.80
397.95	1071.50
398.32	1070.56
398.69	1077.58
399.06	1083.67
399.42	1077.35
399.79	1080.86
400.16	1083.43
400.53	1077.11
400.90	1075.24
401.27	1085.77
401.64	1089.52
402.00	1089.29
402.37	1088.12
402.74	1091.39
403.11	1093.97
403.48	1081.56
403.84	1086.01
404.21	1090.92
404.58	1084.37
404.95	1077.11
405.32	1086.94
405.68	1081.80
406.05	1079.46
406.42	1086.71
406.79	1095.14
407.16	1087.88
407.52	1084.60
407.89	1081.09
408.26	1078.52
408.63	1078.52
408.99	1088.12
409.36	1094.90
409.73	1097.48
410.10	1098.65
410.47	1081.33
410.83	1073.84
411.20	1073.37
411.57	1069.86
411.94	1066.35
412.30	1071.26
412.67	1077.58
413.04	1074.31
413.40	1075.48
413.77	1077.58
414.14	1081.09
414.51	1077.82
414.87	1079.69
415.24	1093.50
415.61	1078.99
415.97	1070.56
416.34	1069.62
416.71	1069.86
417.08	1055.11
417.44	1059.33
417.81	1072.20
418.18	1069.39
418.54	1066.58
418.91	1068.69
419.28	1073.60
419.64	1064.01
420.01	1065.18
420.38	1066.35
420.74	1062.14
421.11	1062.14
421.48	1072.67
421.84	1074.54
422.21	1075.48
422.58	1079.22
422.94	1082.50
423.31	1078.99
423.68	1078.75
424.04	1072.67
424.41	1069.62
424.77	1068.22
425.14	1064.71
425.51	1067.05
425.87	1068.92
426.24	1067.99
426.61	1069.16
426.97	1064.48
427.34	1061.67
427.70	1072.90
428.07	1084.14
428.44	1081.80
428.80	1084.14
429.17	1078.52
429.53	1075.01
429.90	1068.22
430.27	1067.52
430.63	1070.33
431.00	1076.65
431.36	1077.35
431.73	1086.71
432.09	1094.43
432.46	1099.82
432.83	1100.29
433.19	1094.20
433.56	1083.67
433.92	1077.58
434.29	1070.09
434.65	1062.84
435.02	1060.03
435.38	1064.01
435.75	1066.58
436.11	1071.97
436.48	1073.37
436.84	1075.94
437.21	1074.07
437.57	1075.24
437.94	1070.09
438.30	1077.35
438.67	1078.75
439.03	1070.80
439.40	1074.07
439.76	1084.60
440.13	1083.43
440.49	1079.46
440.86	1083.90
441.22	1074.54
441.59	1070.09
441.95	1065.18
442.32	1070.80
442.68	1075.01
443.05	1086.24
443.41	1083.43
443.78	1091.63
444.14	1082.50
444.51	1085.31
444.87	1078.75
445.24	1076.18
445.60	1068.69
445.96	1071.26
446.33	1069.62
446.69	1067.28
447.06	1072.43
447.42	1076.41
447.79	1077.82
448.15	1077.58
448.51	1077.35
448.88	1075.71
449.24	1072.90
449.61	1074.31
449.97	1075.71
450.33	1077.82
450.70	1091.16
451.06	1089.05
451.43	1090.22
451.79	1094.20
452.15	1091.39
452.52	1085.31
452.88	1087.65
453.24	1083.90
453.61	1075.94
453.97	1086.48
454.34	1077.58
454.70	1082.50
455.06	1087.88
455.43	1090.92
455.79	1088.82
456.15	1088.58
456.52	1086.01
456.88	1089.52
457.24	1088.58
457.61	1085.77
457.97	1096.54
458.33	1098.88
458.70	1100.99
459.06	1099.12
459.42	1097.01
459.79	1090.92
460.15	1095.60
460.51	1099.12
460.88	1103.80
461.24	1094.43
461.60	1089.99
461.96	1086.01
462.33	1084.84
462.69	1079.46
463.05	1093.03
463.42	1095.84
463.78	1093.73
464.14	1088.12
464.50	1083.67
464.87	1069.39
465.23	1074.77
465.59	1073.84
465.95	1069.16
466.32	1079.22
466.68	1090.92
467.04	1081.33
467.40	1085.31
467.77	1083.67
468.13	1086.01
468.49	1078.28
468.85	1081.56
469.22	1080.86
469.58	1081.56
469.94	1078.28
470.30	1087.65
470.66	1083.43
471.03	1080.86
471.39	1077.11
471.75	1076.88
472.11	1075.94
472.47	1075.94
472.84	1075.24
473.20	1079.46
473.56	1087.65
473.92	1079.69
474.28	1088.35
474.65	1084.60
475.01	1089.75
475.37	1077.11
475.73	1080.86
476.09	1082.97
476.45	1090.92
476.81	1095.14
477.18	1096.78
477.54	1106.37
477.90	1104.50
478.26	1099.35
478.62	1089.99
478.98	1084.84
479.34	1072.90
479.71	1064.01
480.07	1068.69
480.43	1070.56
480.79	1071.03
481.15	1069.16
481.51	1071.26
481.87	1070.33
482.23	1072.43
482.59	1078.52
482.96	1085.77
483.32	1083.67
483.68	1076.88
484.04	1078.05
484.40	1087.65
484.76	1085.54
485.12	1086.24
485.48	1092.80
485.84	1086.24
486.20	1067.75
486.56	1069.16
486.92	1073.37
487.28	1062.37
487.64	1061.43
488.00	1066.35
488.37	1069.62
488.73	1067.28
489.09	1071.97
489.45	1076.88
489.81	1074.54
490.17	1069.62
490.53	1065.65
490.89	1068.92
491.25	1065.41
491.61	1075.01
491.97	1078.75
492.33	1083.67
492.69	1087.41
493.05	1088.12
493.41	1085.77
493.77	1087.65
494.13	1087.41
494.49	1086.48
494.85	1100.29
495.21	1097.48
495.57	1091.16
495.93	1089.05
496.29	1082.73
496.64	1083.67
497.00	1090.69
497.36	1093.03
497.72	1098.41
498.08	1111.99
498.44	1086.94
498.80	1083.20
499.16	1079.46
499.52	1076.18
499.88	1068.22
500.24	1082.03
500.60	1079.69
500.96	1080.86
501.32	1088.35
501.68	1083.90
502.03	1094.20
502.39	1092.09
502.75	1099.12
503.11	1095.84
503.47	1095.37
503.83	1088.35
504.19	1095.84
504.55	1091.63
504.91	1090.92
505.26	1097.95
505.62	1095.60
505.98	1092.80
506.34	1086.24
506.70	1084.14
507.06	1080.39
507.42	1075.01
507.78	1069.62
508.13	1075.01
508.49	1077.11
508.85	1073.37
509.21	1077.11
509.57	1085.54
509.93	1083.90
510.28	1084.14
510.64	1089.75
511.00	1090.69
511.36	1091.86
511.72	1096.54
512.07	1097.71
512.43	1100.52
512.79	1104.50
513.15	1109.41
513.51	1106.14
513.86	1103.09
514.22	1109.18
514.58	1111.52
514.94	1105.67
515.30	1092.33
515.65	1092.33
516.01	1072.90
516.37	1067.75
516.73	1067.28
517.08	1082.03
517.44	1078.28
517.80	1091.63
518.16	1089.05
518.51	1076.65
518.87	1074.07
519.23	1074.54
519.59	1069.16
519.94	1063.54
520.30	1073.14
520.66	1076.65
521.01	1077.82
521.37	1082.26
521.73	1090.92
522.09	1090.92
522.44	1088.58
522.80	1086.24
523.16	1086.94
523.51	1079.69
523.87	1078.28
524.23	1077.58
524.58	1081.80
524.94	1085.77
525.30	1090.22
525.65	1087.18
526.01	1075.71
526.37	1077.11
526.72	1078.99
527.08	1086.01
527.44	1093.03
527.79	1104.03
528.15	1101.46
528.51	1097.95
528.86	1091.86
529.22	1090.22
529.58	1092.09
529.93	1087.18
530.29	1088.82
530.65	1078.75
531.00	1078.28
531.36	1079.46
531.71	1083.67
532.07	1081.80
532.43	1096.78
532.78	1095.14
533.14	1087.88
533.49	1094.20
533.85	1094.90
534.21	1100.05
534.56	1097.95
534.92	1096.31
535.27	1084.14
535.63	1074.07
535.98	1067.99
536.34	1076.41
536.69	1079.69
537.05	1079.22
537.41	1087.18
537.76	1076.41
538.12	1064.71
538.47	1067.75
538.83	1070.33
539.18	1064.71
539.54	1069.86
539.89	1074.54
540.25	1078.99
540.60	1086.71
540.96	1081.33
541.31	1081.09
541.67	1075.24
542.02	1073.14
542.38	1075.24
542.73	1086.01
543.09	1084.14
543.44	1088.35
543.80	1083.43
544.15	1089.52
544.51	1092.80
544.86	1093.73
545.22	1092.33
545.57	1088.58
545.93	1078.52
546.28	1072.43
546.64	1080.16
546.99	1090.22
547.35	1093.50
547.70	1093.03
548.05	1093.26
548.41	1091.39
548.76	1081.33
549.12	1093.26
549.47	1088.58
549.83	1076.41
550.18	1076.18
550.53	1080.39
550.89	1073.37
551.24	1089.29
551.60	1097.01
551.95	1102.16
552.30	1108.71
552.66	1100.05
553.01	1091.16
553.37	1091.63
553.72	1084.37
554.07	1062.37
554.43	1067.52
554.78	1062.14
555.13	1057.45
555.49	1051.13
555.84	1056.52
556.19	1054.65
556.55	1055.11
556.90	1059.33
557.26	1068.92
557.61	1071.26
557.96	1085.07
558.32	1080.16
558.67	1084.37
559.02	1080.16
559.37	1089.29
559.73	1077.82
560.08	1086.24
560.43	1093.03
560.79	1092.09
561.14	1093.26
561.49	1091.16
561.85	1090.46
562.20	1081.80
562.55	1085.07
562.90	1082.73
563.26	1090.46
563.61	1092.09
563.96	1087.65
564.32	1082.50
564.67	1089.75
565.02	1083.43
565.37	1079.69
565.73	1090.46
566.08	1094.20
566.43	1098.18
566.78	1090.22
567.14	1090.69
567.49	1085.77
567.84	1084.37
568.19	1079.46
568.54	1089.99
568.90	1089.99
569.25	1085.77
569.60	1088.35
569.95	1075.71
570.31	1075.71
570.66	1071.03
571.01	1074.07
571.36	1073.84
571.71	1083.20
572.06	1077.82
572.42	1082.03
572.77	1079.92
573.12	1074.31
573.47	1067.75
573.82	1071.26
574.18	1067.99
574.53	1062.37
574.88	1067.75
575.23	1073.37
575.58	1078.05
575.93	1082.50
576.28	1093.73
576.64	1095.14
576.99	1090.92
577.34	1088.12
577.69	1081.33
578.04	1081.33
578.39	1078.28
578.74	1080.16
579.09	1087.41
579.44	1094.67
579.80	1096.07
580.15	1085.31
580.50	1090.69
580.85	1085.54
581.20	1088.12
581.55	1079.92
581.90	1093.50
582.25	1091.86
582.60	1089.99
582.95	1089.99
583.30	1088.35
583.65	1073.37
584.00	1066.58
584.35	1063.77
584.71	1056.99
585.06	1062.37
585.41	1080.86
585.76	1088.82
586.11	1097.01
586.46	1107.07
586.81	1112.92
587.16	1098.41
587.51	1100.05
587.86	1091.39
588.21	1086.48
588.56	1080.39
588.91	1094.67
589.26	1082.97
589.61	1087.18
589.96	1086.71
590.31	1088.82
590.66	1087.65
591.01	1096.78
591.36	1092.80
591.71	1090.92
592.06	1089.52
592.41	1081.56
592.76	1072.43
593.10	1078.52
593.45	1078.52
593.80	1074.31
594.15	1077.58
594.50	1078.99
594.85	1074.07
595.20	1086.48
595.55	1088.82
595.90	1083.67
596.25	1081.09
596.60	1080.63
596.95	1069.16
597.30	1063.54
597.64	1121.82
597.99	1134.69
598.34	1139.84
598.69	1135.86
599.04	1146.63
599.39	1092.33
599.74	1089.99
600.09	1092.09
600.44	1095.84
600.78	1087.18
601.13	1080.16
601.48	1076.65
601.83	1062.60
602.18	1066.35
602.53	1069.39
602.88	1076.65
603.22	1071.97
603.57	1091.16
603.92	1079.22
604.27	1077.58
604.62	1087.41
604.97	1090.92
605.31	1071.50
605.66	1073.14
606.01	1075.24
606.36	1067.75
606.71	1067.28
607.05	1079.92
607.40	1089.99
607.75	1093.26
608.10	1090.92
608.44	1086.24
608.79	1072.20
609.14	1068.45
609.49	1066.35
609.84	1064.48
610.18	1071.50
610.53	1072.20
610.88	1072.67
611.23	1067.28
611.57	1060.26
611.92	1059.56
612.27	1071.26
612.62	1069.86
612.96	1080.86
613.31	1099.12
613.66	1102.86
614.00	1107.31
614.35	1102.16
614.70	1086.71
615.05	1075.48
615.39	1071.97
615.74	1064.94
616.09	1086.24
616.43	1097.24
616.78	1098.88
617.13	1104.50
617.47	1108.48
617.82	1089.52
618.17	1084.14
618.51	1086.48
618.86	1078.99
619.21	1076.41
619.55	1086.71
619.90	1092.33
620.25	1089.05
620.59	1093.50
620.94	1088.58
621.29	1082.26
621.63	1087.18
621.98	1087.41
622.32	1085.54
622.67	1091.16
623.02	1086.94
623.36	1076.65
623.71	1074.31
624.05	1075.48
624.40	1073.84
624.75	1081.33
625.09	1089.52
625.44	1096.54
625.78	1089.75
626.13	1086.94
626.48	1086.71
626.82	1085.07
627.17	1090.46
627.51	1091.39
627.86	1091.86
628.20	1093.73
628.55	1088.58
628.89	1082.50
629.24	1085.54
629.58	1086.01
629.93	1085.31
630.28	1097.01
630.62	1086.01
630.97	1084.14
631.31	1089.52
631.66	1081.80
632.00	1073.14
632.35	1080.16
632.69	1085.77
633.04	1076.18
633.38	1086.48
633.73	1084.60
634.07	1080.16
634.42	1077.82
634.76	1074.31
635.11	1068.92
635.45	1078.28
635.79	1089.05
636.14	1075.48
636.48	1079.46
636.83	1078.05
637.17	1067.05
637.52	1051.84
637.86	1053.48
638.21	1052.30
638.55	1048.33
638.89	1049.03
639.24	1063.54
639.58	1077.82
639.93	1084.84
640.27	1093.97
640.61	1093.97
640.96	1097.71
641.30	1091.63
641.65	1096.78
641.99	1096.78
642.33	1099.35
642.68	1092.56
643.02	1098.65
643.37	1094.43
643.71	1076.18
644.05	1078.52
644.40	1078.05
644.74	1078.99
645.08	1075.01
645.43	1081.56
645.77	1078.75
646.11	1077.11
646.46	1075.94
646.80	1071.26
647.14	1078.52
647.49	1082.97
647.83	1079.92
648.17	1081.56
648.52	1090.69
648.86	1089.29
649.20	1087.41
649.55	1094.20
649.89	1094.43
650.23	1089.52
650.57	1094.67
650.92	1099.12
651.26	1101.69
651.60	1097.95
651.95	1093.03
652.29	1086.01
652.63	1074.54
652.97	1069.16
653.32	1071.26
653.66	1075.94
654.00	1081.56
654.34	1086.94
654.69	1092.09
655.03	1094.43
655.37	1098.41
655.71	1098.88
656.05	1101.46
656.40	1090.69
656.74	1085.54
657.08	1080.63
657.42	1082.50
657.76	1085.07
658.11	1094.67
658.45	1099.12
658.79	1105.67
659.13	1090.92
659.47	1085.77
659.82	1080.86
660.16	1064.24
660.50	1062.84
660.84	1078.05
661.18	1072.43
661.52	1069.16
661.87	1074.77
662.21	1071.97
662.55	1063.07
662.89	1072.43
663.23	1077.82
663.57	1078.75
663.91	1078.28
664.25	1075.24
664.60	1071.73
664.94	1060.73
665.28	1062.14
665.62	1067.52
665.96	1077.11
666.30	1076.41
666.64	1079.92
666.98	1078.52
667.32	1076.88
667.66	1078.05
668.01	1072.43
668.35	1071.50
668.69	1070.80
669.03	1072.20
669.37	1065.88
669.71	1072.43
670.05	1080.39
670.39	1082.50
670.73	1073.84
671.07	1071.97
671.41	1068.22
671.75	1067.28
672.09	1064.24
672.43	1059.56
672.77	1062.84
673.11	1064.94
673.45	1058.16
673.79	1065.65
674.13	1075.71
674.47	1080.86
674.81	1089.52
675.15	1106.14
675.49	1097.95
675.83	1092.09
676.17	1082.50
676.51	1066.11
676.85	1064.48
677.19	1073.60
677.53	1082.97
677.87	1088.12
678.21	1099.58
678.55	1089.75
678.89	1090.92
679.23	1093.03
679.57	1092.80
679.90	1091.63
680.24	1092.56
680.58	1085.77
680.92	1082.73
681.26	1084.37
681.60	1074.77
681.94	1081.09
682.28	1092.33
682.62	1093.03
682.96	1090.92
683.29	1097.48
683.63	1089.52
683.97	1088.35
684.31	1091.63
684.65	1087.41
684.99	1087.88
685.33	1087.18
685.67	1085.54
686.00	1077.58
686.34	1079.92
686.68	1077.35
687.02	1077.11
687.36	1072.90
687.70	1074.31
688.03	1077.58
688.37	1074.77
688.71	1092.09
689.05	1102.39
689.39	1111.05
689.72	1105.90
690.06	1110.35
690.40	1103.09
690.74	1083.43
691.08	1074.07
691.41	1078.28
691.75	1077.35
692.09	1069.16
692.43	1079.46
692.76	1084.60
693.10	1076.88
693.44	1081.80
693.78	1080.86
694.11	1082.97
694.45	1083.90
694.79	1100.99
695.13	1098.18
695.46	1090.46
695.80	1075.71
696.14	1069.16
696.48	1065.18
696.81	1066.58
697.15	1089.99
697.49	1099.82
697.82	1104.26
698.16	1100.05
698.50	1097.24
698.83	1084.60
699.17	1086.71
699.51	1078.05
699.84	1082.97
700.18	1083.43
700.52	1082.73
700.85	1065.65
701.19	1071.26
701.53	1061.43
701.86	1056.75
702.20	1056.75
702.54	1082.73
702.87	1086.01
703.21	1095.14
703.55	1094.90
703.88	1090.22
704.22	1083.20
704.55	1083.67
704.89	1068.69
705.23	1074.54
705.56	1082.50
705.90	1074.07
706.23	1078.05
706.57	1096.78
706.91	1101.22
707.24	1102.39
707.58	1110.82
707.91	1101.22
708.25	1085.07
708.58	1082.26
708.92	1082.73
709.26	1081.09
709.59	1084.14
709.93	1087.41
710.26	1088.82
710.60	1088.12
710.93	1089.75
711.27	1089.99
711.60	1096.78
711.94	1091.16
712.27	1086.24
712.61	1072.43
712.94	1075.48
713.28	1080.39
713.61	1082.73
713.95	1088.12
714.28	1099.35
714.62	1093.26
714.95	1091.63
715.29	1090.69
715.62	1090.46
715.96	1086.24
716.29	1089.29
716.63	1072.20
716.96	1071.26
717.29	1064.24
717.63	1065.41
717.96	1065.65
718.30	1080.63
718.63	1083.90
718.97	1084.14
719.30	1089.05
719.63	1088.35
719.97	1087.18
720.30	1079.22
720.64	1084.37
720.97	1086.71
721.30	1086.71
721.64	1074.54
721.97	1080.86
722.31	1077.58
722.64	1069.86
722.97	1076.18
723.31	1078.75
723.64	1080.16
723.97	1075.94
724.31	1082.97
724.64	1072.90
724.98	1086.24
725.31	1097.01
725.64	1106.84
725.98	1101.69
726.31	1108.24
726.64	1104.50
726.97	1096.07
727.31	1092.09
727.64	1092.80
727.97	1085.07
728.31	1083.43
728.64	1078.99
728.97	1077.35
729.31	1078.75
729.64	1078.28
729.97	1075.71
730.30	1076.18
730.64	1071.97
730.97	1065.65
731.30	1064.94
731.63	1067.05
731.97	1073.14
732.30	1083.43
732.63	1081.33
732.96	1090.92
733.30	1092.80
733.63	1084.60
733.96	1082.73
734.29	1089.52
734.63	1082.50
734.96	1088.58
735.29	1093.03
735.62	1095.14
735.95	1101.46
736.29	1109.18
736.62	1095.84
736.95	1099.82
737.28	1095.84
737.61	1087.18
737.94	1076.88
738.28	1089.05
738.61	1089.99
738.94	1087.65
739.27	1092.09
739.60	1108.95
739.93	1099.12
740.27	1092.56
740.60	1096.78
740.93	1100.05
741.26	1089.75
741.59	1093.73
741.92	1103.33
742.25	1101.22
742.58	1103.80
742.91	1104.03
743.25	1100.29
743.58	1082.97
743.91	1085.77
744.24	1081.56
744.57	1078.75
744.90	1083.67
745.23	1086.94
745.56	1081.09
745.89	1076.18
746.22	1078.75
746.55	1078.75
746.88	1079.69
747.21	1078.99
747.54	1088.35
747.87	1085.31
748.20	1073.84
748.53	1075.24
748.87	1073.37
749.20	1060.50
749.53	1069.62
749.86	1073.14
750.19	1079.69
750.52	1085.54
750.85	1090.69
751.18	1077.11
751.51	1076.41
751.84	1074.54
752.16	1078.28
752.49	1085.07
752.82	1094.67
753.15	1101.92
753.48	1110.58
753.81	1105.90
754.14	1102.86
754.47	1100.29
754.80	1096.31
755.13	1080.63
755.46	1083.67
755.79	1079.69
756.12	1081.56
756.45	1083.43
756.78	1085.07
757.11	1084.14
757.43	1086.71
757.76	1079.46
758.09	1084.84
758.42	1090.22
758.75	1087.88
759.08	1084.37
759.41	1090.46
759.74	1078.52
760.07	1071.50
760.39	1076.41
760.72	1077.11
761.05	1080.16
761.38	1087.65
761.71	1092.56
762.04	1086.71
762.36	1086.01
762.69	1081.80
763.02	1075.94
763.35	1067.52
763.68	1074.07
764.01	1073.84
764.33	1069.39
764.66	1079.69
764.99	1096.31
765.32	1094.43
765.65	1099.12
765.97	1103.33
766.30	1096.07
