SpectraSuite Data File
++++++++++++++++++++++++++++++++++++
Date: Mon Aug 26 10:25:49 PDT 2019
User: corrico
Dark Spectrum Present: No
Reference Spectrum Present: No
Number of Sampled Component Spectra: 1
Spectrometers: USB2+H06089
Integration Time (usec): 10000 (USB2+H06089)
Spectra Averaged: 2 (USB2+H06089)
Boxcar Smoothing: 2 (USB2+H06089)
Correct for Electrical Dark: No (USB2+H06089)
Strobe/Lamp Enabled: No (USB2+H06089)
Correct for Detector Non-linearity: No (USB2+H06089)
Correct for Stray Light: No (USB2+H06089)
Number of Pixels in Processed Spectrum: 2048
>>>>>Begin Processed Spectral Data<<<<<
339.70	1027.50
340.07	1027.50
340.45	994.73
340.82	973.90
341.19	951.90
341.57	924.75
341.94	911.64
342.31	896.19
342.69	889.40
343.06	875.83
343.43	865.30
343.81	871.38
344.18	883.08
344.55	892.21
344.93	914.45
345.30	929.19
345.67	941.13
346.04	943.24
346.42	940.66
346.79	934.81
347.16	946.75
347.54	950.02
347.91	954.47
348.28	966.88
348.65	974.13
349.03	978.34
349.40	986.07
349.77	999.41
350.14	1015.32
350.52	1029.84
350.89	1034.28
351.26	1046.22
351.63	1054.65
352.01	1053.01
352.38	1060.50
352.75	1066.58
353.12	1065.18
353.50	1064.94
353.87	1067.05
354.24	1065.65
354.61	1069.86
354.98	1076.65
355.36	1077.35
355.73	1076.65
356.10	1065.18
356.47	1065.41
356.84	1053.94
357.22	1058.86
357.59	1068.45
357.96	1084.37
358.33	1088.12
358.70	1087.65
359.08	1085.07
359.45	1076.65
359.82	1075.48
360.19	1077.11
360.56	1082.50
360.94	1085.07
361.31	1087.41
361.68	1077.35
362.05	1068.92
362.42	1074.54
362.79	1061.90
363.16	1055.11
363.54	1055.58
363.91	1044.11
364.28	1039.43
364.65	1039.67
365.02	1048.56
365.39	1050.90
365.76	1065.88
366.14	1063.07
366.51	1068.22
366.88	1063.07
367.25	1061.67
367.62	1059.79
367.99	1063.54
368.36	1063.31
368.73	1057.22
369.10	1062.60
369.48	1066.35
369.85	1060.50
370.22	1058.86
370.59	1064.01
370.96	1060.26
371.33	1045.05
371.70	1042.94
372.07	1046.92
372.44	1047.86
372.81	1041.07
373.18	1055.11
373.55	1057.45
373.93	1060.50
374.30	1056.99
374.67	1067.99
375.04	1058.16
375.41	1062.84
375.78	1057.69
376.15	1066.82
376.52	1069.39
376.89	1078.75
377.26	1082.03
377.63	1081.33
378.00	1079.46
378.37	1076.65
378.74	1071.97
379.11	1060.03
379.48	1051.60
379.85	1052.77
380.22	1045.05
380.59	1056.99
380.96	1062.37
381.33	1074.54
381.70	1067.75
382.07	1075.71
382.44	1063.77
382.81	1067.75
383.18	1061.20
383.55	1060.96
383.92	1053.71
384.29	1064.71
384.66	1061.90
385.03	1065.65
385.40	1063.31
385.77	1068.45
386.14	1065.65
386.51	1071.50
386.88	1071.26
387.25	1077.58
387.62	1073.37
387.99	1062.84
388.36	1059.33
388.73	1060.96
389.10	1060.96
389.46	1067.52
389.83	1074.77
390.20	1070.09
390.57	1071.97
390.94	1078.75
391.31	1080.16
391.68	1086.24
392.05	1091.16
392.42	1082.26
392.79	1079.92
393.16	1075.71
393.53	1071.26
393.89	1065.88
394.26	1076.41
394.63	1066.82
395.00	1067.28
395.37	1057.22
395.74	1058.62
396.11	1045.52
396.48	1053.94
396.84	1058.39
397.21	1076.65
397.58	1072.67
397.95	1084.14
398.32	1075.24
398.69	1074.07
399.06	1065.41
399.42	1071.97
399.79	1069.16
400.16	1076.41
400.53	1067.99
400.90	1056.52
401.27	1059.09
401.64	1055.35
402.00	1048.33
402.37	1056.28
402.74	1065.41
403.11	1062.60
403.48	1075.94
403.84	1079.69
404.21	1072.43
404.58	1069.62
404.95	1070.09
405.32	1059.09
405.68	1057.69
406.05	1065.65
406.42	1066.82
406.79	1068.45
407.16	1067.99
407.52	1070.80
407.89	1066.82
408.26	1063.31
408.63	1067.05
408.99	1067.75
409.36	1064.71
409.73	1059.33
410.10	1069.86
410.47	1059.33
410.83	1059.09
411.20	1067.99
411.57	1070.80
411.94	1063.54
412.30	1074.07
412.67	1075.48
413.04	1065.41
413.40	1073.37
413.77	1078.75
414.14	1070.33
414.51	1070.56
414.87	1070.33
415.24	1064.71
415.61	1063.31
415.97	1067.05
416.34	1065.18
416.71	1071.03
417.08	1071.03
417.44	1069.16
417.81	1059.09
418.18	1060.03
418.54	1062.37
418.91	1063.07
419.28	1065.88
419.64	1079.46
420.01	1072.67
420.38	1070.33
420.74	1080.39
421.11	1078.52
421.48	1071.03
421.84	1075.01
422.21	1071.97
422.58	1067.05
422.94	1066.11
423.31	1072.67
423.68	1081.56
424.04	1083.90
424.41	1074.54
424.77	1073.37
425.14	1071.26
425.51	1071.03
425.87	1074.31
426.24	1084.37
426.61	1081.56
426.97	1079.46
427.34	1082.03
427.70	1081.33
428.07	1068.69
428.44	1073.37
428.80	1072.20
429.17	1068.69
429.53	1064.24
429.90	1067.75
430.27	1065.88
430.63	1068.69
431.00	1063.31
431.36	1064.94
431.73	1073.84
432.09	1072.67
432.46	1075.24
432.83	1077.35
433.19	1087.18
433.56	1076.88
433.92	1072.67
434.29	1065.88
434.65	1064.48
435.02	1052.77
435.38	1054.41
435.75	1060.03
436.11	1064.48
436.48	1059.56
436.84	1067.52
437.21	1065.18
437.57	1071.03
437.94	1067.28
438.30	1078.28
438.67	1076.65
439.03	1088.82
439.40	1086.48
439.76	1094.90
440.13	1086.94
440.49	1077.11
440.86	1067.28
441.22	1056.75
441.59	1048.33
441.95	1056.05
442.32	1060.50
442.68	1072.43
443.05	1074.54
443.41	1077.35
443.78	1078.28
444.14	1077.82
444.51	1073.14
444.87	1080.86
445.24	1076.41
445.60	1070.56
445.96	1078.05
446.33	1076.18
446.69	1068.92
447.06	1065.41
447.42	1066.11
447.79	1058.16
448.15	1070.09
448.51	1073.84
448.88	1076.41
449.24	1075.01
449.61	1077.58
449.97	1067.75
450.33	1071.73
450.70	1076.18
451.06	1081.80
451.43	1088.58
451.79	1094.90
452.15	1097.24
452.52	1104.97
452.88	1103.56
453.24	1093.03
453.61	1085.31
453.97	1082.03
454.34	1075.24
454.70	1072.20
455.06	1068.92
455.43	1074.77
455.79	1076.41
456.15	1086.24
456.52	1085.07
456.88	1096.07
457.24	1094.67
457.61	1092.09
457.97	1080.63
458.33	1081.33
458.70	1075.94
459.06	1076.18
459.42	1082.73
459.79	1086.94
460.15	1091.39
460.51	1097.24
460.88	1097.48
461.24	1091.16
461.60	1085.07
461.96	1081.33
462.33	1078.28
462.69	1067.52
463.05	1064.48
463.42	1072.43
463.78	1066.82
464.14	1067.99
464.50	1069.62
464.87	1070.56
465.23	1071.03
465.59	1070.33
465.95	1064.24
466.32	1072.20
466.68	1065.18
467.04	1058.16
467.40	1061.90
467.77	1072.90
468.13	1079.69
468.49	1097.95
468.85	1104.73
469.22	1103.56
469.58	1098.18
469.94	1080.86
470.30	1078.05
470.66	1073.14
471.03	1082.03
471.39	1086.01
471.75	1092.33
472.11	1098.41
472.47	1109.18
472.84	1115.03
473.20	1104.97
473.56	1102.39
473.92	1095.37
474.28	1087.41
474.65	1075.48
475.01	1075.01
475.37	1072.90
475.73	1071.03
476.09	1060.73
476.45	1064.01
476.81	1063.54
477.18	1059.56
477.54	1049.26
477.90	1059.79
478.26	1064.94
478.62	1075.48
478.98	1086.48
479.34	1085.07
479.71	1087.18
480.07	1082.97
480.43	1074.07
480.79	1075.48
481.15	1093.03
481.51	1093.03
481.87	1083.20
482.23	1088.12
482.59	1089.29
482.96	1086.71
483.32	1073.60
483.68	1077.11
484.04	1077.82
484.40	1080.63
484.76	1072.20
485.12	1084.14
485.48	1086.94
485.84	1085.07
486.20	1081.80
486.56	1087.65
486.92	1084.14
487.28	1079.46
487.64	1082.73
488.00	1081.80
488.37	1087.41
488.73	1089.75
489.09	1089.99
489.45	1078.99
489.81	1073.14
490.17	1072.67
490.53	1081.09
490.89	1081.56
491.25	1082.03
491.61	1082.03
491.97	1066.35
492.33	1055.11
492.69	1059.09
493.05	1074.07
493.41	1077.35
493.77	1077.58
494.13	1082.73
494.49	1081.33
494.85	1070.09
495.21	1075.24
495.57	1085.31
495.93	1081.09
496.29	1089.99
496.64	1090.69
497.00	1079.46
497.36	1084.60
497.72	1085.54
498.08	1076.88
498.44	1073.60
498.80	1079.46
499.16	1062.37
499.52	1065.41
499.88	1069.86
500.24	1066.35
500.60	1062.84
500.96	1068.45
501.32	1058.86
501.68	1055.82
502.03	1069.16
502.39	1073.84
502.75	1076.88
503.11	1079.46
503.47	1085.31
503.83	1081.33
504.19	1071.73
504.55	1068.92
504.91	1075.94
505.26	1071.97
505.62	1066.58
505.98	1069.86
506.34	1068.22
506.70	1065.65
507.06	1064.01
507.42	1073.84
507.78	1070.80
508.13	1073.84
508.49	1079.69
508.85	1074.07
509.21	1076.88
509.57	1081.80
509.93	1082.50
510.28	1081.80
510.64	1083.90
511.00	1066.35
511.36	1074.54
511.72	1076.88
512.07	1071.26
512.43	1073.60
512.79	1075.24
513.15	1069.86
513.51	1070.56
513.86	1070.33
514.22	1078.05
514.58	1090.22
514.94	1090.92
515.30	1085.07
515.65	1079.69
516.01	1073.84
516.37	1067.05
516.73	1061.67
517.08	1064.01
517.44	1073.84
517.80	1077.11
518.16	1079.92
518.51	1076.18
518.87	1072.20
519.23	1061.67
519.59	1065.41
519.94	1066.58
520.30	1071.26
520.66	1077.11
521.01	1081.56
521.37	1076.88
521.73	1075.48
522.09	1080.16
522.44	1079.69
522.80	1083.20
523.16	1072.67
523.51	1066.35
523.87	1065.41
524.23	1059.56
524.58	1058.86
524.94	1072.43
525.30	1080.86
525.65	1080.63
526.01	1092.09
526.37	1089.52
526.72	1078.05
527.08	1075.24
527.44	1065.18
527.79	1051.13
528.15	1051.37
528.51	1056.99
528.86	1061.67
529.22	1076.65
529.58	1089.05
529.93	1090.92
530.29	1092.56
530.65	1084.14
531.00	1075.01
531.36	1072.90
531.71	1069.16
532.07	1058.39
532.43	1072.20
532.78	1074.31
533.14	1065.18
533.49	1067.52
533.85	1082.73
534.21	1075.71
534.56	1079.92
534.92	1094.43
535.27	1096.07
535.63	1093.97
535.98	1092.80
536.34	1087.88
536.69	1081.09
537.05	1086.48
537.41	1072.67
537.76	1065.88
538.12	1074.31
538.47	1070.09
538.83	1063.54
539.18	1074.07
539.54	1083.67
539.89	1082.03
540.25	1090.22
540.60	1092.33
540.96	1086.94
541.31	1075.48
541.67	1074.77
542.02	1077.35
542.38	1073.37
542.73	1069.39
543.09	1071.73
543.44	1078.52
543.80	1075.94
544.15	1077.82
544.51	1081.56
544.86	1086.01
545.22	1071.73
545.57	1070.09
545.93	1077.58
546.28	1084.84
546.64	1087.18
546.99	1087.41
547.35	1085.07
547.70	1074.07
548.05	1074.07
548.41	1076.88
548.76	1085.54
549.12	1083.90
549.47	1093.97
549.83	1097.01
550.18	1098.18
550.53	1094.43
550.89	1096.07
551.24	1094.43
551.60	1093.50
551.95	1089.75
552.30	1097.01
552.66	1099.58
553.01	1109.65
553.37	1102.16
553.72	1104.03
554.07	1104.03
554.43	1103.09
554.78	1091.63
555.13	1101.46
555.49	1092.56
555.84	1078.99
556.19	1083.67
556.55	1082.03
556.90	1077.11
557.26	1088.58
557.61	1106.37
557.96	1103.33
558.32	1101.46
558.67	1103.33
559.02	1092.33
559.37	1083.43
559.73	1093.97
560.08	1090.22
560.43	1087.88
560.79	1093.97
561.14	1089.05
561.49	1071.03
561.85	1083.20
562.20	1088.82
562.55	1086.71
562.90	1088.82
563.26	1093.73
563.61	1084.60
563.96	1072.67
564.32	1075.94
564.67	1075.48
565.02	1080.39
565.37	1089.29
565.73	1095.84
566.08	1090.69
566.43	1093.26
566.78	1092.33
567.14	1079.22
567.49	1082.50
567.84	1087.41
568.19	1086.94
568.54	1075.94
568.90	1086.48
569.25	1079.46
569.60	1077.58
569.95	1080.86
570.31	1084.60
570.66	1083.90
571.01	1082.50
571.36	1076.18
571.71	1075.71
572.06	1078.28
572.42	1071.73
572.77	1077.58
573.12	1087.88
573.47	1074.54
573.82	1079.22
574.18	1085.31
574.53	1085.07
574.88	1084.84
575.23	1089.05
575.58	1076.18
575.93	1071.73
576.28	1071.97
576.64	1064.01
576.99	1069.16
577.34	1077.82
577.69	1082.03
578.04	1079.69
578.39	1090.46
578.74	1091.86
579.09	1091.39
579.44	1085.54
579.80	1088.35
580.15	1080.63
580.50	1078.05
580.85	1083.43
581.20	1089.05
581.55	1091.16
581.90	1093.97
582.25	1096.54
582.60	1089.52
582.95	1080.39
583.30	1077.82
583.65	1068.22
584.00	1066.35
584.35	1072.90
584.71	1077.58
585.06	1077.35
585.41	1087.65
585.76	1082.03
586.11	1073.37
586.46	1071.97
586.81	1064.01
587.16	1056.99
587.51	1064.71
587.86	1071.73
588.21	1080.63
588.56	1092.33
588.91	1098.41
589.26	1106.84
589.61	1107.31
589.96	1108.71
590.31	1104.03
590.66	1101.22
591.01	1086.24
591.36	1090.22
591.71	1082.50
592.06	1078.75
592.41	1089.52
592.76	1100.99
593.10	1091.16
593.45	1087.41
593.80	1088.58
594.15	1085.54
594.50	1077.82
594.85	1068.92
595.20	1065.18
595.55	1065.41
595.90	1058.62
596.25	1045.75
596.60	1059.33
596.95	1070.56
597.30	1076.41
597.64	1129.54
597.99	1147.33
598.34	1145.46
598.69	1140.78
599.04	1133.05
599.39	1079.69
599.74	1079.22
600.09	1078.52
600.44	1073.14
600.78	1071.26
601.13	1064.01
601.48	1063.31
601.83	1061.67
602.18	1067.99
602.53	1071.97
602.88	1082.50
603.22	1087.88
603.57	1091.16
603.92	1094.90
604.27	1093.03
604.62	1092.09
604.97	1074.54
605.31	1066.82
605.66	1073.37
606.01	1074.31
606.36	1075.71
606.71	1093.97
607.05	1106.61
607.40	1095.60
607.75	1100.29
608.10	1098.18
608.44	1087.18
608.79	1086.24
609.14	1085.77
609.49	1081.80
609.84	1075.71
610.18	1078.05
610.53	1062.84
610.88	1062.84
611.23	1063.54
611.57	1071.26
611.92	1068.22
612.27	1071.50
612.62	1067.75
612.96	1064.24
613.31	1063.77
613.66	1073.14
614.00	1078.05
614.35	1090.92
614.70	1097.71
615.05	1087.88
615.39	1082.26
615.74	1083.20
616.09	1068.92
616.43	1063.31
616.78	1074.07
617.13	1070.09
617.47	1068.92
617.82	1075.24
618.17	1085.54
618.51	1086.24
618.86	1088.12
619.21	1098.65
619.55	1098.65
619.90	1085.07
620.25	1081.80
620.59	1085.77
620.94	1084.60
621.29	1079.69
621.63	1097.71
621.98	1099.35
622.32	1093.97
622.67	1087.18
623.02	1097.48
623.36	1093.50
623.71	1097.95
624.05	1102.39
624.40	1105.90
624.75	1094.67
625.09	1090.22
625.44	1081.56
625.78	1084.37
626.13	1080.39
626.48	1091.86
626.82	1093.03
627.17	1093.50
627.51	1097.48
627.86	1094.90
628.20	1099.35
628.55	1092.09
628.89	1094.20
629.24	1074.77
629.58	1071.97
629.93	1064.94
630.28	1074.31
630.62	1063.77
630.97	1080.39
631.31	1085.54
631.66	1077.58
632.00	1067.05
632.35	1083.20
632.69	1079.22
633.04	1075.71
633.38	1079.22
633.73	1078.52
634.07	1078.05
634.42	1073.60
634.76	1079.92
635.11	1086.71
635.45	1093.97
635.79	1094.20
636.14	1098.88
636.48	1098.41
636.83	1096.31
637.17	1095.37
637.52	1089.75
637.86	1085.54
638.21	1080.39
638.55	1072.43
638.89	1081.09
639.24	1090.22
639.58	1089.52
639.93	1086.71
640.27	1096.54
640.61	1084.14
640.96	1075.01
641.30	1080.39
641.65	1086.94
641.99	1066.82
642.33	1072.20
642.68	1069.62
643.02	1068.69
643.37	1070.80
643.71	1093.97
644.05	1093.50
644.40	1091.86
644.74	1087.65
645.08	1083.67
645.43	1075.01
645.77	1074.07
646.11	1075.71
646.46	1076.41
646.80	1075.94
647.14	1082.97
647.49	1084.37
647.83	1085.07
648.17	1082.73
648.52	1089.75
648.86	1087.18
649.20	1089.52
649.55	1085.77
649.89	1086.48
650.23	1082.97
650.57	1073.60
650.92	1072.67
651.26	1074.07
651.60	1077.82
651.95	1067.99
652.29	1071.73
652.63	1062.37
652.97	1070.56
653.32	1071.97
653.66	1088.58
654.00	1088.58
654.34	1092.56
654.69	1088.82
655.03	1082.26
655.37	1072.20
655.71	1073.60
656.05	1072.67
656.40	1074.31
656.74	1088.82
657.08	1087.65
657.42	1093.73
657.76	1096.31
658.11	1093.73
658.45	1083.67
658.79	1082.26
659.13	1079.92
659.47	1079.92
659.82	1078.52
660.16	1075.24
660.50	1074.77
660.84	1071.26
661.18	1064.71
661.52	1068.45
661.87	1066.35
662.21	1075.48
662.55	1079.22
662.89	1082.50
663.23	1079.69
663.57	1081.33
663.91	1077.58
664.25	1074.07
664.60	1074.77
664.94	1078.28
665.28	1085.31
665.62	1089.29
665.96	1090.46
666.30	1093.50
666.64	1091.86
666.98	1081.80
667.32	1075.48
667.66	1071.73
668.01	1070.80
668.35	1069.62
668.69	1067.28
669.03	1070.09
669.37	1066.35
669.71	1058.16
670.05	1062.37
670.39	1072.67
670.73	1070.56
671.07	1079.46
671.41	1084.84
671.75	1082.97
672.09	1078.52
672.43	1083.20
672.77	1073.84
673.11	1072.43
673.45	1070.80
673.79	1070.80
674.13	1061.67
674.47	1071.50
674.81	1074.77
675.15	1071.03
675.49	1079.46
675.83	1080.86
676.17	1078.52
676.51	1083.20
676.85	1085.54
677.19	1080.63
677.53	1088.12
677.87	1085.31
678.21	1081.09
678.55	1085.54
678.89	1089.52
679.23	1089.29
679.57	1090.46
679.90	1093.03
680.24	1087.41
680.58	1084.14
680.92	1087.88
681.26	1086.48
681.60	1090.46
681.94	1086.94
682.28	1081.33
682.62	1072.90
682.96	1070.80
683.29	1073.60
683.63	1080.86
683.97	1086.48
684.31	1089.75
684.65	1087.65
684.99	1079.46
685.33	1075.48
685.67	1083.67
686.00	1078.99
686.34	1086.48
686.68	1082.73
687.02	1088.35
687.36	1077.58
687.70	1081.09
688.03	1079.22
688.37	1076.65
688.71	1073.84
689.05	1080.39
689.39	1088.58
689.72	1087.41
690.06	1091.63
690.40	1093.73
690.74	1084.84
691.08	1083.43
691.41	1076.65
691.75	1077.11
692.09	1077.82
692.43	1080.86
692.76	1069.16
693.10	1075.01
693.44	1057.92
693.78	1057.92
694.11	1056.75
694.45	1053.48
694.79	1059.79
695.13	1073.60
695.46	1065.88
695.80	1067.99
696.14	1075.71
696.48	1067.75
696.81	1075.71
697.15	1073.37
697.49	1081.56
697.82	1082.03
698.16	1086.24
698.50	1080.86
698.83	1085.54
699.17	1077.58
699.51	1081.09
699.84	1079.46
700.18	1086.01
700.52	1089.29
700.85	1088.58
701.19	1088.12
701.53	1100.05
701.86	1102.86
702.20	1093.73
702.54	1096.07
702.87	1094.20
703.21	1081.09
703.55	1061.20
703.88	1067.52
704.22	1061.20
704.55	1057.22
704.89	1060.50
705.23	1067.28
705.56	1071.26
705.90	1080.63
706.23	1079.22
706.57	1073.84
706.91	1078.28
707.24	1071.73
707.58	1062.84
707.91	1070.33
708.25	1081.09
708.58	1089.99
708.92	1092.56
709.26	1099.82
709.59	1100.05
709.93	1095.14
710.26	1090.69
710.60	1083.90
710.93	1084.14
711.27	1076.41
711.60	1074.31
711.94	1069.39
712.27	1075.94
712.61	1069.62
712.94	1071.73
713.28	1072.20
713.61	1070.09
713.95	1064.24
714.28	1071.03
714.62	1069.62
714.95	1074.77
715.29	1073.84
715.62	1072.43
715.96	1066.11
716.29	1063.07
716.63	1064.24
716.96	1071.73
717.29	1086.94
717.63	1091.16
717.96	1095.60
718.30	1090.22
718.63	1085.54
718.97	1086.48
719.30	1084.84
719.63	1084.60
719.97	1083.67
720.30	1081.80
720.64	1071.73
720.97	1066.35
721.30	1066.11
721.64	1062.14
721.97	1060.26
722.31	1059.09
722.64	1067.75
722.97	1071.50
723.31	1076.18
723.64	1087.65
723.97	1098.65
724.31	1091.16
724.64	1086.01
724.98	1073.37
725.31	1070.33
725.64	1056.99
725.98	1058.62
726.31	1060.96
726.64	1076.41
726.97	1063.77
727.31	1078.99
727.64	1080.16
727.97	1074.77
728.31	1074.31
728.64	1093.26
728.97	1088.12
729.31	1093.73
729.64	1091.16
729.97	1091.16
730.30	1077.58
730.64	1068.45
730.97	1054.18
731.30	1058.39
731.63	1053.48
731.97	1056.75
732.30	1063.31
732.63	1073.14
732.96	1074.77
733.30	1071.03
733.63	1070.56
733.96	1072.90
734.29	1083.67
734.63	1080.86
734.96	1084.14
735.29	1085.54
735.62	1085.54
735.95	1072.67
736.29	1076.18
736.62	1083.43
736.95	1084.60
737.28	1077.11
737.61	1082.50
737.94	1088.35
738.28	1084.60
738.61	1085.54
738.94	1090.92
739.27	1095.60
739.60	1082.03
739.93	1083.90
740.27	1079.22
740.60	1077.58
740.93	1069.62
741.26	1071.97
741.59	1067.52
741.92	1067.05
742.25	1063.31
742.58	1063.54
742.91	1070.56
743.25	1074.07
743.58	1070.33
743.91	1078.05
744.24	1074.31
744.57	1068.69
744.90	1063.07
745.23	1074.77
745.56	1070.33
745.89	1078.28
746.22	1089.52
746.55	1089.52
746.88	1080.86
747.21	1084.60
747.54	1075.48
747.87	1075.48
748.20	1083.43
748.53	1077.82
748.87	1075.94
749.20	1071.26
749.53	1065.18
749.86	1070.56
750.19	1084.84
750.52	1081.33
750.85	1091.86
751.18	1088.58
751.51	1077.58
751.84	1074.31
752.16	1068.22
752.49	1066.11
752.82	1077.82
753.15	1089.75
753.48	1087.65
753.81	1089.52
754.14	1081.33
754.47	1073.14
754.80	1060.96
755.13	1061.67
755.46	1070.56
755.79	1080.39
756.12	1085.31
756.45	1091.16
756.78	1100.52
757.11	1096.78
757.43	1096.07
757.76	1094.43
758.09	1095.14
758.42	1084.84
758.75	1080.86
759.08	1073.60
759.41	1068.92
759.74	1073.60
760.07	1075.48
760.39	1081.80
760.72	1087.41
761.05	1080.16
761.38	1072.90
761.71	1072.43
762.04	1068.22
762.36	1061.20
762.69	1067.75
763.02	1064.71
763.35	1061.20
763.68	1063.54
764.01	1069.86
764.33	1067.52
764.66	1069.86
764.99	1069.62
765.32	1070.33
765.65	1067.28
765.97	1067.28
766.30	1065.18
