SpectraSuite Data File
++++++++++++++++++++++++++++++++++++
Date: Mon Aug 26 10:25:46 PDT 2019
User: corrico
Dark Spectrum Present: No
Reference Spectrum Present: No
Number of Sampled Component Spectra: 1
Spectrometers: USB2+H06089
Integration Time (usec): 10000 (USB2+H06089)
Spectra Averaged: 2 (USB2+H06089)
Boxcar Smoothing: 2 (USB2+H06089)
Correct for Electrical Dark: No (USB2+H06089)
Strobe/Lamp Enabled: No (USB2+H06089)
Correct for Detector Non-linearity: No (USB2+H06089)
Correct for Stray Light: No (USB2+H06089)
Number of Pixels in Processed Spectrum: 2048
>>>>>Begin Processed Spectral Data<<<<<
339.70	1034.52
340.07	1034.52
340.45	1006.43
340.82	986.30
341.19	962.90
341.57	942.07
341.94	920.53
342.31	905.79
342.69	899.47
343.06	895.72
343.43	893.38
343.81	904.15
344.18	908.83
344.55	914.21
344.93	917.96
345.30	920.30
345.67	926.15
346.04	935.28
346.42	949.56
346.79	958.92
347.16	963.60
347.54	975.30
347.91	987.94
348.28	979.05
348.65	991.22
349.03	1007.83
349.40	1005.49
349.77	1007.13
350.14	1019.77
350.52	1019.07
350.89	1027.03
351.26	1039.20
351.63	1049.26
352.01	1061.43
352.38	1064.48
352.75	1069.86
353.12	1075.01
353.50	1075.01
353.87	1067.75
354.24	1071.26
354.61	1071.26
354.98	1060.96
355.36	1068.92
355.73	1071.03
356.10	1079.69
356.47	1069.86
356.84	1081.09
357.22	1089.05
357.59	1093.03
357.96	1079.92
358.33	1079.92
358.70	1090.69
359.08	1075.94
359.45	1074.54
359.82	1088.58
360.19	1100.99
360.56	1090.46
360.94	1100.52
361.31	1093.50
361.68	1087.18
362.05	1064.94
362.42	1059.33
362.79	1053.71
363.16	1059.09
363.54	1058.16
363.91	1072.90
364.28	1077.58
364.65	1070.33
365.02	1079.22
365.39	1082.50
365.76	1080.39
366.14	1078.75
366.51	1074.07
366.88	1068.22
367.25	1067.99
367.62	1073.14
367.99	1065.88
368.36	1069.16
368.73	1062.84
369.10	1060.50
369.48	1055.11
369.85	1062.14
370.22	1060.26
370.59	1077.35
370.96	1088.35
371.33	1090.92
371.70	1085.77
372.07	1086.48
372.44	1074.77
372.81	1064.01
373.18	1063.54
373.55	1069.62
373.93	1081.80
374.30	1085.54
374.67	1091.16
375.04	1088.82
375.41	1084.60
375.78	1063.54
376.15	1059.33
376.52	1054.41
376.89	1058.16
377.26	1057.69
377.63	1072.67
378.00	1060.26
378.37	1060.26
378.74	1057.92
379.11	1062.14
379.48	1061.43
379.85	1076.88
380.22	1075.71
380.59	1068.92
380.96	1060.96
381.33	1059.56
381.70	1056.99
382.07	1054.18
382.44	1063.54
382.81	1063.31
383.18	1064.24
383.55	1058.39
383.92	1053.71
384.29	1044.35
384.66	1040.37
385.03	1037.79
385.40	1042.47
385.77	1052.54
386.14	1059.56
386.51	1071.50
386.88	1064.71
387.25	1065.18
387.62	1055.35
387.99	1055.58
388.36	1057.69
388.73	1063.77
389.10	1067.75
389.46	1079.22
389.83	1083.67
390.20	1069.86
390.57	1072.90
390.94	1062.84
391.31	1058.16
391.68	1047.62
392.05	1058.39
392.42	1063.54
392.79	1074.31
393.16	1073.60
393.53	1078.99
393.89	1075.01
394.26	1071.73
394.63	1063.77
395.00	1064.94
395.37	1065.41
395.74	1071.03
396.11	1067.75
396.48	1075.71
396.84	1075.48
397.21	1071.26
397.58	1070.09
397.95	1066.35
398.32	1062.37
398.69	1065.88
399.06	1068.22
399.42	1074.07
399.79	1078.52
400.16	1081.80
400.53	1077.11
400.90	1075.48
401.27	1064.01
401.64	1062.60
402.00	1057.69
402.37	1063.54
402.74	1070.80
403.11	1076.18
403.48	1082.03
403.84	1097.71
404.21	1093.50
404.58	1091.39
404.95	1094.43
405.32	1090.92
405.68	1092.33
406.05	1092.09
406.42	1089.75
406.79	1086.94
407.16	1089.05
407.52	1077.58
407.89	1078.75
408.26	1073.84
408.63	1068.45
408.99	1061.67
409.36	1071.50
409.73	1083.67
410.10	1085.77
410.47	1086.24
410.83	1094.90
411.20	1086.48
411.57	1079.46
411.94	1091.16
412.30	1096.31
412.67	1088.12
413.04	1084.37
413.40	1081.80
413.77	1079.69
414.14	1081.56
414.51	1078.52
414.87	1077.58
415.24	1075.24
415.61	1075.01
415.97	1065.88
416.34	1070.56
416.71	1065.18
417.08	1065.65
417.44	1060.50
417.81	1070.09
418.18	1067.05
418.54	1076.65
418.91	1076.88
419.28	1078.52
419.64	1072.20
420.01	1085.07
420.38	1078.75
420.74	1076.65
421.11	1081.09
421.48	1086.71
421.84	1083.20
422.21	1088.12
422.58	1090.46
422.94	1083.20
423.31	1087.88
423.68	1083.90
424.04	1072.43
424.41	1071.73
424.77	1075.01
425.14	1064.24
425.51	1062.60
425.87	1069.39
426.24	1067.28
426.61	1059.33
426.97	1067.52
427.34	1065.41
427.70	1058.62
428.07	1054.88
428.44	1049.26
428.80	1036.16
429.17	1035.69
429.53	1042.01
429.90	1044.11
430.27	1062.84
430.63	1074.54
431.00	1078.52
431.36	1080.39
431.73	1089.99
432.09	1087.65
432.46	1080.39
432.83	1080.39
433.19	1073.84
433.56	1064.48
433.92	1056.99
434.29	1065.65
434.65	1079.69
435.02	1084.14
435.38	1085.54
435.75	1089.29
436.11	1085.54
436.48	1074.31
436.84	1077.35
437.21	1072.43
437.57	1068.92
437.94	1057.92
438.30	1054.65
438.67	1055.11
439.03	1065.18
439.40	1062.84
439.76	1077.11
440.13	1075.01
440.49	1078.28
440.86	1066.58
441.22	1076.41
441.59	1073.37
441.95	1082.03
442.32	1072.20
442.68	1075.24
443.05	1065.88
443.41	1063.77
443.78	1066.11
444.14	1065.18
444.51	1063.54
444.87	1067.28
445.24	1065.65
445.60	1046.92
445.96	1053.01
446.33	1066.35
446.69	1067.28
447.06	1063.07
447.42	1074.54
447.79	1087.65
448.15	1084.14
448.51	1080.86
448.88	1095.84
449.24	1096.54
449.61	1088.82
449.97	1090.69
450.33	1091.16
450.70	1092.80
451.06	1088.82
451.43	1099.58
451.79	1093.73
452.15	1093.97
452.52	1081.80
452.88	1075.71
453.24	1069.86
453.61	1074.77
453.97	1068.69
454.34	1078.99
454.70	1082.73
455.06	1078.28
455.43	1071.73
455.79	1081.56
456.15	1072.20
456.52	1072.43
456.88	1075.71
457.24	1069.86
457.61	1074.77
457.97	1086.71
458.33	1094.43
458.70	1085.31
459.06	1096.54
459.42	1085.77
459.79	1071.73
460.15	1067.99
460.51	1062.14
460.88	1055.35
461.24	1066.58
461.60	1075.94
461.96	1079.92
462.33	1083.20
462.69	1085.31
463.05	1076.41
463.42	1076.41
463.78	1069.62
464.14	1071.97
464.50	1081.56
464.87	1085.77
465.23	1077.82
465.59	1082.26
465.95	1085.31
466.32	1076.65
466.68	1076.41
467.04	1088.35
467.40	1088.12
467.77	1086.94
468.13	1092.33
468.49	1094.20
468.85	1083.43
469.22	1084.84
469.58	1085.31
469.94	1084.14
470.30	1069.39
470.66	1073.37
471.03	1071.03
471.39	1063.31
471.75	1059.56
472.11	1071.03
472.47	1071.73
472.84	1065.88
473.20	1078.05
473.56	1089.75
473.92	1088.35
474.28	1082.73
474.65	1090.69
475.01	1083.43
475.37	1080.63
475.73	1081.33
476.09	1086.01
476.45	1089.52
476.81	1081.80
477.18	1082.26
477.54	1095.14
477.90	1100.99
478.26	1099.82
478.62	1110.58
478.98	1106.84
479.34	1095.60
479.71	1089.29
480.07	1090.22
480.43	1093.50
480.79	1082.73
481.15	1079.46
481.51	1083.90
481.87	1075.24
482.23	1075.01
482.59	1082.26
482.96	1083.67
483.32	1084.84
483.68	1086.94
484.04	1096.54
484.40	1100.99
484.76	1107.07
485.12	1102.16
485.48	1099.82
485.84	1089.75
486.20	1079.92
486.56	1075.71
486.92	1062.37
487.28	1073.60
487.64	1071.73
488.00	1078.05
488.37	1078.05
488.73	1080.39
489.09	1077.82
489.45	1071.26
489.81	1068.92
490.17	1067.05
490.53	1083.20
490.89	1074.31
491.25	1075.94
491.61	1080.16
491.97	1075.71
492.33	1066.11
492.69	1071.26
493.05	1078.05
493.41	1075.94
493.77	1076.41
494.13	1078.75
494.49	1086.01
494.85	1083.20
495.21	1086.48
495.57	1088.35
495.93	1087.65
496.29	1073.14
496.64	1067.52
497.00	1068.92
497.36	1071.73
497.72	1071.73
498.08	1082.50
498.44	1089.75
498.80	1087.41
499.16	1089.05
499.52	1086.71
499.88	1074.31
500.24	1070.33
500.60	1069.16
500.96	1063.31
501.32	1076.41
501.68	1078.52
502.03	1078.05
502.39	1078.75
502.75	1082.73
503.11	1076.65
503.47	1081.33
503.83	1089.75
504.19	1087.88
504.55	1090.92
504.91	1088.58
505.26	1096.78
505.62	1095.37
505.98	1093.03
506.34	1081.80
506.70	1084.84
507.06	1075.94
507.42	1076.88
507.78	1072.43
508.13	1078.99
508.49	1073.60
508.85	1073.14
509.21	1068.45
509.57	1069.62
509.93	1075.71
510.28	1079.46
510.64	1076.65
511.00	1080.39
511.36	1076.88
511.72	1072.43
512.07	1079.22
512.43	1091.86
512.79	1078.75
513.15	1093.50
513.51	1097.01
513.86	1095.60
514.22	1086.94
514.58	1088.35
514.94	1081.09
515.30	1073.84
515.65	1071.97
516.01	1089.05
516.37	1104.73
516.73	1105.90
517.08	1107.78
517.44	1106.37
517.80	1089.75
518.16	1082.73
518.51	1087.65
518.87	1090.92
519.23	1092.09
519.59	1092.80
519.94	1090.92
520.30	1082.26
520.66	1086.48
521.01	1086.01
521.37	1094.20
521.73	1089.52
522.09	1090.46
522.44	1083.90
522.80	1077.58
523.16	1068.22
523.51	1069.62
523.87	1080.16
524.23	1084.84
524.58	1088.35
524.94	1091.63
525.30	1095.37
525.65	1093.26
526.01	1089.29
526.37	1100.05
526.72	1103.09
527.08	1115.50
527.44	1110.35
527.79	1117.61
528.15	1113.16
528.51	1114.80
528.86	1104.50
529.22	1105.67
529.58	1104.03
529.93	1102.86
530.29	1101.69
530.65	1093.97
531.00	1097.48
531.36	1091.16
531.71	1089.52
532.07	1084.84
532.43	1095.14
532.78	1093.26
533.14	1095.60
533.49	1101.92
533.85	1106.61
534.21	1104.97
534.56	1100.29
534.92	1104.03
535.27	1102.63
535.63	1096.78
535.98	1100.05
536.34	1099.35
536.69	1096.54
537.05	1084.37
537.41	1088.58
537.76	1080.16
538.12	1076.41
538.47	1077.35
538.83	1074.31
539.18	1071.73
539.54	1075.94
539.89	1084.84
540.25	1084.84
540.60	1093.97
540.96	1097.24
541.31	1093.03
541.67	1095.37
542.02	1098.18
542.38	1091.39
542.73	1094.43
543.09	1103.09
543.44	1093.73
543.80	1093.26
544.15	1094.90
544.51	1090.92
544.86	1082.26
545.22	1093.50
545.57	1093.97
545.93	1099.35
546.28	1094.20
546.64	1107.07
546.99	1092.80
547.35	1080.39
547.70	1072.43
548.05	1077.58
548.41	1067.28
548.76	1075.24
549.12	1086.94
549.47	1101.22
549.83	1100.52
550.18	1098.41
550.53	1105.90
550.89	1102.86
551.24	1096.78
551.60	1097.48
551.95	1099.12
552.30	1096.54
552.66	1098.65
553.01	1100.29
553.37	1097.95
553.72	1102.63
554.07	1094.20
554.43	1094.20
554.78	1090.92
555.13	1086.71
555.49	1085.54
555.84	1097.24
556.19	1091.63
556.55	1089.52
556.90	1094.67
557.26	1091.86
557.61	1082.03
557.96	1078.99
558.32	1075.48
558.67	1073.60
559.02	1078.75
559.37	1075.48
559.73	1081.09
560.08	1074.54
560.43	1071.50
560.79	1063.54
561.14	1077.11
561.49	1073.37
561.85	1081.80
562.20	1083.20
562.55	1077.58
562.90	1067.75
563.26	1078.75
563.61	1084.37
563.96	1085.77
564.32	1089.52
564.67	1088.82
565.02	1083.43
565.37	1081.09
565.73	1081.56
566.08	1075.94
566.43	1082.26
566.78	1072.90
567.14	1068.45
567.49	1065.88
567.84	1081.09
568.19	1074.77
568.54	1087.65
568.90	1090.92
569.25	1095.60
569.60	1085.31
569.95	1092.56
570.31	1088.82
570.66	1085.31
571.01	1076.65
571.36	1075.48
571.71	1067.75
572.06	1062.60
572.42	1061.90
572.77	1070.80
573.12	1073.14
573.47	1073.84
573.82	1074.54
574.18	1075.24
574.53	1075.24
574.88	1076.41
575.23	1067.28
575.58	1066.11
575.93	1068.92
576.28	1057.92
576.64	1056.28
576.99	1064.48
577.34	1076.18
577.69	1075.24
578.04	1089.52
578.39	1086.24
578.74	1081.56
579.09	1073.37
579.44	1070.33
579.80	1064.48
580.15	1074.07
580.50	1083.20
580.85	1078.75
581.20	1072.90
581.55	1065.41
581.90	1059.56
582.25	1057.69
582.60	1058.62
582.95	1063.07
583.30	1072.90
583.65	1069.62
584.00	1072.43
584.35	1082.03
584.71	1092.80
585.06	1097.01
585.41	1107.54
585.76	1106.37
586.11	1100.75
586.46	1102.86
586.81	1098.41
587.16	1090.22
587.51	1083.43
587.86	1082.97
588.21	1076.65
588.56	1079.46
588.91	1090.22
589.26	1091.39
589.61	1093.26
589.96	1089.52
590.31	1082.73
590.66	1081.33
591.01	1082.03
591.36	1071.97
591.71	1069.39
592.06	1071.03
592.41	1060.03
592.76	1061.20
593.10	1068.92
593.45	1072.67
593.80	1075.01
594.15	1083.43
594.50	1084.84
594.85	1089.29
595.20	1091.39
595.55	1091.86
595.90	1094.43
596.25	1097.71
596.60	1090.92
596.95	1093.26
597.30	1095.37
597.64	1148.73
597.99	1141.01
598.34	1141.95
598.69	1143.12
599.04	1143.59
599.39	1090.69
599.74	1094.20
600.09	1100.52
600.44	1105.67
600.78	1099.35
601.13	1085.54
601.48	1086.48
601.83	1088.12
602.18	1069.16
602.53	1071.03
602.88	1081.80
603.22	1071.50
603.57	1054.88
603.92	1056.52
604.27	1062.84
604.62	1063.77
604.97	1072.90
605.31	1070.80
605.66	1087.88
606.01	1079.69
606.36	1073.37
606.71	1075.24
607.05	1090.69
607.40	1083.67
607.75	1090.22
608.10	1092.33
608.44	1091.39
608.79	1085.31
609.14	1082.03
609.49	1074.54
609.84	1077.58
610.18	1081.56
610.53	1088.82
610.88	1094.67
611.23	1098.18
611.57	1102.39
611.92	1101.22
612.27	1092.09
612.62	1084.14
612.96	1081.80
613.31	1072.67
613.66	1076.41
614.00	1083.67
614.35	1089.75
614.70	1093.97
615.05	1093.50
615.39	1089.99
615.74	1087.41
616.09	1088.58
616.43	1083.20
616.78	1086.71
617.13	1078.28
617.47	1084.60
617.82	1090.22
618.17	1093.26
618.51	1086.71
618.86	1093.50
619.21	1085.77
619.55	1072.90
619.90	1074.31
620.25	1083.67
620.59	1085.54
620.94	1091.86
621.29	1092.09
621.63	1098.88
621.98	1101.22
622.32	1102.39
622.67	1100.99
623.02	1107.07
623.36	1098.18
623.71	1087.88
624.05	1084.84
624.40	1087.41
624.75	1078.28
625.09	1079.46
625.44	1086.71
625.78	1087.65
626.13	1081.33
626.48	1084.60
626.82	1084.14
627.17	1085.54
627.51	1089.05
627.86	1094.67
628.20	1109.41
628.55	1114.33
628.89	1119.71
629.24	1111.05
629.58	1099.58
629.93	1087.41
630.28	1087.41
630.62	1086.01
630.97	1088.12
631.31	1093.50
631.66	1082.97
632.00	1073.84
632.35	1061.67
632.69	1056.05
633.04	1053.71
633.38	1064.71
633.73	1068.92
634.07	1079.69
634.42	1087.65
634.76	1093.26
635.11	1092.33
635.45	1093.26
635.79	1093.97
636.14	1097.95
636.48	1089.05
636.83	1084.14
637.17	1077.82
637.52	1059.79
637.86	1042.24
638.21	1050.67
638.55	1046.45
638.89	1045.99
639.24	1065.18
639.58	1071.97
639.93	1074.54
640.27	1084.84
640.61	1096.54
640.96	1090.46
641.30	1100.05
641.65	1092.09
641.99	1087.41
642.33	1083.20
642.68	1074.77
643.02	1070.33
643.37	1065.41
643.71	1067.05
644.05	1066.58
644.40	1076.18
644.74	1072.90
645.08	1082.50
645.43	1086.01
645.77	1082.73
646.11	1078.75
646.46	1083.67
646.80	1086.71
647.14	1087.18
647.49	1097.48
647.83	1092.80
648.17	1101.46
648.52	1091.39
648.86	1089.52
649.20	1071.73
649.55	1074.07
649.89	1062.60
650.23	1064.48
650.57	1055.82
650.92	1064.94
651.26	1061.20
651.60	1060.96
651.95	1068.92
652.29	1083.90
652.63	1074.54
652.97	1083.90
653.32	1090.46
653.66	1086.01
654.00	1076.18
654.34	1081.09
654.69	1075.48
655.03	1075.24
655.37	1075.01
655.71	1081.09
656.05	1082.26
656.40	1084.84
656.74	1074.54
657.08	1073.14
657.42	1075.48
657.76	1081.09
658.11	1083.43
658.45	1087.88
658.79	1085.54
659.13	1086.94
659.47	1075.01
659.82	1071.50
660.16	1071.26
660.50	1076.65
660.84	1066.35
661.18	1071.73
661.52	1067.28
661.87	1074.54
662.21	1068.45
662.55	1074.54
662.89	1074.07
663.23	1074.31
663.57	1067.28
663.91	1070.80
664.25	1071.50
664.60	1075.01
664.94	1090.22
665.28	1092.33
665.62	1098.88
665.96	1097.71
666.30	1097.71
666.64	1089.99
666.98	1081.80
667.32	1076.41
667.66	1081.09
668.01	1087.65
668.35	1087.18
668.69	1083.20
669.03	1078.99
669.37	1069.86
669.71	1071.50
670.05	1071.73
670.39	1086.01
670.73	1087.88
671.07	1091.16
671.41	1082.26
671.75	1078.52
672.09	1075.94
672.43	1082.03
672.77	1085.31
673.11	1080.16
673.45	1074.31
673.79	1081.09
674.13	1081.09
674.47	1078.52
674.81	1077.11
675.15	1079.22
675.49	1069.86
675.83	1063.54
676.17	1062.14
676.51	1067.52
676.85	1072.20
677.19	1072.67
677.53	1076.65
677.87	1075.01
678.21	1072.67
678.55	1071.97
678.89	1065.88
679.23	1060.03
679.57	1056.99
679.90	1064.24
680.24	1064.48
680.58	1067.28
680.92	1074.31
681.26	1084.60
681.60	1080.39
681.94	1081.80
682.28	1085.77
682.62	1079.22
682.96	1067.75
683.29	1065.88
683.63	1062.84
683.97	1059.79
684.31	1064.01
684.65	1081.33
684.99	1089.52
685.33	1087.65
685.67	1090.22
686.00	1092.80
686.34	1081.56
686.68	1079.46
687.02	1080.16
687.36	1081.56
687.70	1080.39
688.03	1079.69
688.37	1088.58
688.71	1087.41
689.05	1089.29
689.39	1086.01
689.72	1087.65
690.06	1073.37
690.40	1073.14
690.74	1073.14
691.08	1077.82
691.41	1071.97
691.75	1077.11
692.09	1080.39
692.43	1081.33
692.76	1082.97
693.10	1089.52
693.44	1080.86
693.78	1079.92
694.11	1080.39
694.45	1081.80
694.79	1084.14
695.13	1093.26
695.46	1101.92
695.80	1097.01
696.14	1094.90
696.48	1095.37
696.81	1091.16
697.15	1093.73
697.49	1101.22
697.82	1108.24
698.16	1106.37
698.50	1115.97
698.83	1105.44
699.17	1095.84
699.51	1091.39
699.84	1096.31
700.18	1088.35
700.52	1093.03
700.85	1097.48
701.19	1088.82
701.53	1074.31
701.86	1075.01
702.20	1068.45
702.54	1068.69
702.87	1073.37
703.21	1084.14
703.55	1083.43
703.88	1084.37
704.22	1084.84
704.55	1082.03
704.89	1082.97
705.23	1089.75
705.56	1088.82
705.90	1086.24
706.23	1081.80
706.57	1075.48
706.91	1060.26
707.24	1068.45
707.58	1063.77
707.91	1066.11
708.25	1056.52
708.58	1064.01
708.92	1052.54
709.26	1056.05
709.59	1056.99
709.93	1065.18
710.26	1070.56
710.60	1068.92
710.93	1074.07
711.27	1075.94
711.60	1075.24
711.94	1064.71
712.27	1070.09
712.61	1065.18
712.94	1062.84
713.28	1061.20
713.61	1064.01
713.95	1072.43
714.28	1077.82
714.62	1078.52
714.95	1091.63
715.29	1094.90
715.62	1088.82
715.96	1088.35
716.29	1099.35
716.63	1089.52
716.96	1094.67
717.29	1094.43
717.63	1085.31
717.96	1077.35
718.30	1080.39
718.63	1079.69
718.97	1078.52
719.30	1091.63
719.63	1087.65
719.97	1091.39
720.30	1086.24
720.64	1094.20
720.97	1082.73
721.30	1084.60
721.64	1072.67
721.97	1078.99
722.31	1076.65
722.64	1089.52
722.97	1092.09
723.31	1099.35
723.64	1091.39
723.97	1081.56
724.31	1071.26
724.64	1072.90
724.98	1072.20
725.31	1071.26
725.64	1083.90
725.98	1087.41
726.31	1089.52
726.64	1087.65
726.97	1081.33
727.31	1079.22
727.64	1078.52
727.97	1071.26
728.31	1083.43
728.64	1091.16
728.97	1082.03
729.31	1081.33
729.64	1088.82
729.97	1080.39
730.30	1075.94
730.64	1084.37
730.97	1079.92
731.30	1078.28
731.63	1079.92
731.97	1094.67
732.30	1090.92
732.63	1098.88
732.96	1092.80
733.30	1089.29
733.63	1069.62
733.96	1072.67
734.29	1070.80
734.63	1075.01
734.96	1069.86
735.29	1075.24
735.62	1070.33
735.95	1064.94
736.29	1067.99
736.62	1064.48
736.95	1064.94
737.28	1070.33
737.61	1071.26
737.94	1062.84
738.28	1071.73
738.61	1075.24
738.94	1071.73
739.27	1069.86
739.60	1075.01
739.93	1073.84
740.27	1073.14
740.60	1079.46
740.93	1090.46
741.26	1083.67
741.59	1085.07
741.92	1081.33
742.25	1069.86
742.58	1068.22
742.91	1071.50
743.25	1076.88
743.58	1081.09
743.91	1086.24
744.24	1076.41
744.57	1075.48
744.90	1068.45
745.23	1073.14
745.56	1072.90
745.89	1076.18
746.22	1070.80
746.55	1076.88
746.88	1073.37
747.21	1073.84
747.54	1072.43
747.87	1075.48
748.20	1082.50
748.53	1080.39
748.87	1087.65
749.20	1087.41
749.53	1099.35
749.86	1093.03
750.19	1087.41
750.52	1078.99
750.85	1079.92
751.18	1073.37
751.51	1073.14
751.84	1084.14
752.16	1094.43
752.49	1089.52
752.82	1093.73
753.15	1093.03
753.48	1090.69
753.81	1090.22
754.14	1100.52
754.47	1093.03
754.80	1089.05
755.13	1087.18
755.46	1074.77
755.79	1076.18
756.12	1075.94
756.45	1080.16
756.78	1078.75
757.11	1078.99
757.43	1068.92
757.76	1071.03
758.09	1065.88
758.42	1068.92
758.75	1075.24
759.08	1083.90
759.41	1086.01
759.74	1078.99
760.07	1071.97
760.39	1064.94
760.72	1068.22
761.05	1071.97
761.38	1088.82
761.71	1096.31
762.04	1115.50
762.36	1112.69
762.69	1115.50
763.02	1115.50
763.35	1110.58
763.68	1090.92
764.01	1091.39
764.33	1075.24
764.66	1071.73
764.99	1071.97
765.32	1076.18
765.65	1072.67
765.97	1089.75
766.30	1086.94
