SpectraSuite Data File
++++++++++++++++++++++++++++++++++++
Date: Mon Aug 26 10:25:44 PDT 2019
User: corrico
Dark Spectrum Present: No
Reference Spectrum Present: No
Number of Sampled Component Spectra: 1
Spectrometers: USB2+H06089
Integration Time (usec): 10000 (USB2+H06089)
Spectra Averaged: 2 (USB2+H06089)
Boxcar Smoothing: 2 (USB2+H06089)
Correct for Electrical Dark: No (USB2+H06089)
Strobe/Lamp Enabled: No (USB2+H06089)
Correct for Detector Non-linearity: No (USB2+H06089)
Correct for Stray Light: No (USB2+H06089)
Number of Pixels in Processed Spectrum: 2048
>>>>>Begin Processed Spectral Data<<<<<
339.70	1023.98
340.07	1023.98
340.45	999.64
340.82	979.98
341.19	966.41
341.57	944.64
341.94	928.96
342.31	925.45
342.69	920.06
343.06	907.19
343.43	903.68
343.81	896.66
344.18	890.11
344.55	897.83
344.93	904.38
345.30	909.06
345.67	926.38
346.04	935.51
346.42	943.00
346.79	951.19
347.16	959.15
347.54	961.73
347.91	983.73
348.28	989.34
348.65	1000.11
349.03	1006.20
349.40	1018.60
349.77	1007.13
350.14	1012.52
350.52	1025.15
350.89	1030.30
351.26	1033.11
351.63	1048.33
352.01	1059.33
352.38	1052.30
352.75	1059.09
353.12	1063.07
353.50	1061.90
353.87	1065.18
354.24	1073.37
354.61	1073.84
354.98	1069.62
355.36	1075.94
355.73	1078.05
356.10	1074.07
356.47	1080.86
356.84	1087.88
357.22	1094.20
357.59	1086.71
357.96	1089.29
358.33	1090.92
358.70	1086.94
359.08	1084.84
359.45	1088.12
359.82	1083.43
360.19	1086.71
360.56	1089.52
360.94	1070.80
361.31	1069.62
361.68	1068.45
362.05	1059.79
362.42	1054.41
362.79	1064.48
363.16	1072.43
363.54	1076.88
363.91	1076.18
364.28	1078.05
364.65	1076.65
365.02	1068.92
365.39	1074.31
365.76	1074.07
366.14	1075.48
366.51	1071.73
366.88	1062.37
367.25	1056.28
367.62	1061.43
367.99	1056.75
368.36	1065.65
368.73	1077.35
369.10	1076.41
369.48	1068.22
369.85	1062.84
370.22	1061.67
370.59	1064.24
370.96	1068.22
371.33	1077.11
371.70	1082.97
372.07	1082.50
372.44	1077.58
372.81	1065.41
373.18	1057.92
373.55	1061.20
373.93	1052.77
374.30	1048.09
374.67	1060.26
375.04	1050.67
375.41	1042.94
375.78	1047.86
376.15	1044.58
376.52	1039.90
376.89	1053.24
377.26	1064.48
377.63	1064.94
378.00	1065.88
378.37	1062.60
378.74	1062.60
379.11	1062.37
379.48	1064.94
379.85	1062.84
380.22	1065.41
380.59	1064.01
380.96	1059.33
381.33	1057.22
381.70	1065.18
382.07	1067.75
382.44	1064.48
382.81	1063.77
383.18	1071.03
383.55	1061.90
383.92	1060.26
384.29	1069.16
384.66	1070.80
385.03	1059.33
385.40	1063.07
385.77	1055.11
386.14	1055.11
386.51	1054.88
386.88	1050.67
387.25	1057.22
387.62	1069.16
387.99	1064.24
388.36	1066.11
388.73	1075.94
389.10	1074.54
389.46	1077.58
389.83	1079.22
390.20	1078.75
390.57	1081.56
390.94	1081.80
391.31	1070.80
391.68	1069.39
392.05	1068.92
392.42	1070.09
392.79	1067.05
393.16	1070.56
393.53	1074.31
393.89	1070.33
394.26	1060.73
394.63	1062.60
395.00	1066.35
395.37	1061.67
395.74	1066.58
396.11	1071.26
396.48	1069.39
396.84	1069.16
397.21	1073.84
397.58	1077.35
397.95	1086.24
398.32	1086.71
398.69	1086.71
399.06	1086.48
399.42	1080.16
399.79	1069.62
400.16	1068.22
400.53	1065.41
400.90	1057.69
401.27	1068.92
401.64	1069.16
402.00	1074.54
402.37	1077.82
402.74	1070.80
403.11	1064.71
403.48	1069.39
403.84	1058.39
404.21	1052.54
404.58	1064.71
404.95	1071.03
405.32	1074.54
405.68	1084.37
406.05	1101.92
406.42	1102.16
406.79	1093.26
407.16	1093.03
407.52	1088.58
407.89	1071.73
408.26	1074.77
408.63	1067.52
408.99	1062.14
409.36	1060.26
409.73	1064.01
410.10	1058.39
410.47	1063.77
410.83	1066.58
411.20	1079.22
411.57	1078.05
411.94	1075.48
412.30	1080.63
412.67	1068.22
413.04	1060.96
413.40	1060.03
413.77	1071.03
414.14	1068.45
414.51	1080.39
414.87	1072.67
415.24	1077.11
415.61	1072.67
415.97	1080.86
416.34	1084.37
416.71	1089.52
417.08	1084.14
417.44	1078.52
417.81	1063.77
418.18	1062.14
418.54	1059.09
418.91	1068.45
419.28	1065.18
419.64	1063.07
420.01	1058.16
420.38	1060.96
420.74	1053.94
421.11	1056.75
421.48	1065.65
421.84	1065.41
422.21	1066.35
422.58	1060.96
422.94	1065.88
423.31	1074.54
423.68	1075.71
424.04	1080.16
424.41	1079.22
424.77	1076.65
425.14	1063.07
425.51	1059.79
425.87	1041.30
426.24	1047.39
426.61	1054.18
426.97	1062.37
427.34	1059.79
427.70	1084.14
428.07	1083.90
428.44	1078.75
428.80	1074.54
429.17	1078.28
429.53	1068.22
429.90	1070.09
430.27	1069.86
430.63	1071.03
431.00	1074.07
431.36	1078.05
431.73	1075.94
432.09	1070.80
432.46	1071.50
432.83	1066.11
433.19	1056.52
433.56	1056.05
433.92	1064.71
434.29	1069.62
434.65	1069.62
435.02	1077.35
435.38	1082.73
435.75	1077.11
436.11	1071.50
436.48	1074.77
436.84	1079.69
437.21	1081.09
437.57	1085.77
437.94	1089.29
438.30	1093.26
438.67	1089.05
439.03	1083.20
439.40	1082.97
439.76	1080.86
440.13	1084.60
440.49	1079.69
440.86	1083.20
441.22	1078.05
441.59	1078.28
441.95	1083.43
442.32	1090.92
442.68	1088.58
443.05	1099.12
443.41	1093.26
443.78	1075.94
444.14	1071.97
444.51	1068.69
444.87	1069.16
445.24	1070.09
445.60	1071.73
445.96	1071.97
446.33	1078.99
446.69	1078.99
447.06	1084.60
447.42	1087.65
447.79	1092.80
448.15	1087.41
448.51	1080.39
448.88	1076.41
449.24	1070.80
449.61	1063.07
449.97	1065.18
450.33	1067.05
450.70	1068.22
451.06	1072.90
451.43	1078.52
451.79	1075.71
452.15	1069.62
452.52	1070.33
452.88	1072.90
453.24	1067.05
453.61	1072.67
453.97	1075.01
454.34	1077.35
454.70	1078.75
455.06	1068.69
455.43	1068.92
455.79	1069.39
456.15	1070.80
456.52	1066.35
456.88	1082.03
457.24	1076.18
457.61	1085.54
457.97	1083.43
458.33	1086.24
458.70	1081.80
459.06	1078.52
459.42	1078.05
459.79	1080.39
460.15	1087.88
460.51	1094.20
460.88	1094.90
461.24	1090.92
461.60	1090.69
461.96	1088.82
462.33	1082.26
462.69	1087.41
463.05	1078.99
463.42	1078.75
463.78	1075.94
464.14	1075.24
464.50	1075.24
464.87	1080.39
465.23	1079.22
465.59	1074.07
465.95	1073.37
466.32	1074.77
466.68	1078.05
467.04	1070.33
467.40	1069.62
467.77	1067.05
468.13	1067.99
468.49	1054.41
468.85	1064.71
469.22	1067.52
469.58	1068.45
469.94	1067.28
470.30	1076.41
470.66	1070.09
471.03	1076.88
471.39	1085.31
471.75	1087.41
472.11	1091.86
472.47	1098.41
472.84	1083.20
473.20	1075.71
473.56	1068.92
473.92	1071.97
474.28	1063.54
474.65	1078.99
475.01	1082.97
475.37	1087.41
475.73	1081.56
476.09	1083.20
476.45	1076.41
476.81	1077.35
477.18	1072.90
477.54	1076.65
477.90	1086.48
478.26	1082.03
478.62	1085.07
478.98	1089.52
479.34	1091.63
479.71	1078.99
480.07	1084.14
480.43	1082.73
480.79	1085.54
481.15	1075.71
481.51	1081.56
481.87	1080.86
482.23	1078.28
482.59	1076.41
482.96	1080.86
483.32	1080.16
483.68	1071.50
484.04	1068.45
484.40	1073.14
484.76	1080.63
485.12	1079.92
485.48	1085.77
485.84	1082.97
486.20	1080.16
486.56	1073.60
486.92	1069.39
487.28	1070.09
487.64	1077.82
488.00	1072.67
488.37	1074.31
488.73	1079.69
489.09	1084.37
489.45	1087.18
489.81	1086.94
490.17	1084.14
490.53	1079.22
490.89	1073.37
491.25	1061.20
491.61	1062.37
491.97	1063.31
492.33	1080.16
492.69	1085.54
493.05	1090.22
493.41	1095.60
493.77	1089.05
494.13	1073.37
494.49	1068.69
494.85	1069.62
495.21	1057.22
495.57	1062.84
495.93	1071.03
496.29	1086.01
496.64	1086.01
497.00	1092.56
497.36	1096.54
497.72	1086.71
498.08	1079.46
498.44	1084.37
498.80	1082.03
499.16	1074.77
499.52	1080.86
499.88	1067.05
500.24	1060.03
500.60	1061.43
500.96	1063.77
501.32	1060.96
501.68	1071.03
502.03	1081.09
502.39	1083.90
502.75	1085.07
503.11	1079.46
503.47	1079.22
503.83	1085.77
504.19	1083.67
504.55	1079.22
504.91	1087.65
505.26	1093.03
505.62	1072.90
505.98	1078.75
506.34	1076.41
506.70	1076.65
507.06	1060.26
507.42	1069.86
507.78	1062.84
508.13	1065.18
508.49	1066.35
508.85	1086.24
509.21	1089.29
509.57	1080.16
509.93	1084.14
510.28	1088.58
510.64	1084.37
511.00	1080.86
511.36	1090.22
511.72	1093.50
512.07	1082.73
512.43	1081.56
512.79	1076.65
513.15	1084.14
513.51	1082.50
513.86	1084.37
514.22	1078.52
514.58	1089.05
514.94	1086.94
515.30	1082.26
515.65	1080.86
516.01	1082.26
516.37	1081.80
516.73	1079.92
517.08	1086.71
517.44	1091.39
517.80	1101.22
518.16	1094.90
518.51	1094.90
518.87	1097.24
519.23	1100.75
519.59	1097.24
519.94	1098.65
520.30	1104.97
520.66	1101.92
521.01	1102.39
521.37	1094.67
521.73	1094.20
522.09	1093.03
522.44	1091.16
522.80	1093.50
523.16	1098.65
523.51	1104.26
523.87	1104.26
524.23	1099.82
524.58	1100.52
524.94	1096.31
525.30	1082.97
525.65	1080.63
526.01	1083.90
526.37	1075.24
526.72	1083.43
527.08	1092.80
527.44	1097.24
527.79	1106.14
528.15	1100.75
528.51	1095.84
528.86	1104.73
529.22	1097.48
529.58	1089.05
529.93	1086.24
530.29	1089.52
530.65	1083.67
531.00	1080.39
531.36	1078.75
531.71	1085.54
532.07	1078.52
532.43	1071.03
532.78	1074.77
533.14	1075.01
533.49	1085.07
533.85	1094.43
534.21	1097.71
534.56	1099.82
534.92	1094.67
535.27	1085.54
535.63	1077.58
535.98	1074.77
536.34	1078.52
536.69	1083.43
537.05	1086.48
537.41	1083.43
537.76	1080.39
538.12	1069.86
538.47	1073.60
538.83	1078.75
539.18	1079.22
539.54	1080.16
539.89	1080.16
540.25	1073.84
540.60	1068.69
540.96	1071.26
541.31	1079.92
541.67	1095.60
542.02	1106.14
542.38	1117.14
542.73	1124.86
543.09	1120.41
543.44	1114.10
543.80	1112.92
544.15	1114.10
544.51	1111.99
544.86	1118.31
545.22	1113.39
545.57	1108.24
545.93	1098.65
546.28	1094.20
546.64	1087.18
546.99	1085.07
547.35	1086.71
547.70	1085.07
548.05	1091.39
548.41	1098.18
548.76	1099.35
549.12	1103.56
549.47	1107.07
549.83	1099.58
550.18	1089.05
550.53	1090.46
550.89	1087.88
551.24	1096.54
551.60	1099.82
551.95	1098.88
552.30	1098.41
552.66	1101.92
553.01	1092.09
553.37	1095.14
553.72	1111.99
554.07	1114.10
554.43	1102.86
554.78	1103.56
555.13	1098.41
555.49	1083.43
555.84	1074.07
556.19	1075.48
556.55	1064.94
556.90	1066.35
557.26	1068.45
557.61	1075.01
557.96	1079.46
558.32	1087.18
558.67	1082.26
559.02	1087.18
559.37	1080.63
559.73	1087.41
560.08	1091.86
560.43	1091.39
560.79	1089.52
561.14	1094.20
561.49	1086.01
561.85	1080.86
562.20	1088.12
562.55	1084.84
562.90	1078.75
563.26	1082.97
563.61	1086.01
563.96	1072.43
564.32	1064.24
564.67	1071.97
565.02	1066.11
565.37	1060.26
565.73	1063.07
566.08	1072.20
566.43	1078.05
566.78	1078.05
567.14	1077.11
567.49	1078.99
567.84	1085.31
568.19	1084.84
568.54	1091.16
568.90	1092.80
569.25	1093.73
569.60	1084.37
569.95	1074.31
570.31	1061.67
570.66	1064.94
571.01	1056.05
571.36	1062.60
571.71	1073.60
572.06	1075.48
572.42	1075.48
572.77	1082.03
573.12	1075.94
573.47	1071.03
573.82	1064.71
574.18	1062.14
574.53	1067.52
574.88	1071.03
575.23	1079.92
575.58	1104.50
575.93	1104.73
576.28	1103.09
576.64	1094.20
576.99	1080.63
577.34	1065.18
577.69	1061.20
578.04	1070.33
578.39	1073.14
578.74	1080.39
579.09	1078.99
579.44	1075.94
579.80	1063.77
580.15	1060.26
580.50	1060.50
580.85	1064.24
581.20	1073.14
581.55	1076.88
581.90	1076.88
582.25	1074.54
582.60	1069.39
582.95	1075.94
583.30	1075.94
583.65	1078.75
584.00	1075.01
584.35	1074.31
584.71	1054.65
585.06	1063.07
585.41	1068.69
585.76	1076.18
586.11	1079.92
586.46	1088.35
586.81	1079.46
587.16	1084.37
587.51	1081.09
587.86	1076.41
588.21	1071.03
588.56	1069.39
588.91	1069.39
589.26	1064.01
589.61	1071.26
589.96	1080.39
590.31	1094.90
590.66	1088.12
591.01	1094.90
591.36	1096.54
591.71	1089.99
592.06	1076.88
592.41	1082.50
592.76	1081.80
593.10	1082.03
593.45	1086.01
593.80	1085.07
594.15	1075.48
594.50	1068.45
594.85	1075.48
595.20	1077.82
595.55	1077.82
595.90	1081.56
596.25	1081.56
596.60	1067.75
596.95	1071.50
597.30	1079.92
597.64	1138.20
597.99	1147.56
598.34	1153.88
598.69	1148.97
599.04	1140.54
599.39	1088.58
599.74	1085.54
600.09	1083.20
600.44	1087.41
600.78	1096.31
601.13	1089.52
601.48	1085.31
601.83	1089.05
602.18	1073.14
602.53	1060.50
602.88	1066.58
603.22	1071.26
603.57	1067.99
603.92	1073.84
604.27	1087.65
604.62	1079.92
604.97	1081.33
605.31	1074.31
605.66	1075.24
606.01	1067.99
606.36	1069.62
606.71	1073.84
607.05	1085.07
607.40	1088.35
607.75	1093.97
608.10	1094.43
608.44	1089.99
608.79	1087.88
609.14	1101.69
609.49	1094.90
609.84	1102.63
610.18	1100.52
610.53	1106.37
610.88	1099.35
611.23	1104.26
611.57	1105.90
611.92	1105.44
612.27	1097.95
612.62	1088.58
612.96	1085.54
613.31	1082.97
613.66	1078.52
614.00	1076.88
614.35	1079.69
614.70	1076.18
615.05	1071.26
615.39	1071.97
615.74	1075.94
616.09	1086.01
616.43	1076.65
616.78	1076.65
617.13	1073.14
617.47	1068.45
617.82	1055.11
618.17	1067.75
618.51	1074.07
618.86	1080.16
619.21	1075.01
619.55	1079.69
619.90	1078.05
620.25	1067.99
620.59	1062.37
620.94	1076.88
621.29	1080.39
621.63	1080.63
621.98	1092.56
622.32	1090.22
622.67	1085.77
623.02	1080.63
623.36	1086.24
623.71	1079.69
624.05	1087.18
624.40	1075.01
624.75	1077.58
625.09	1078.28
625.44	1082.73
625.78	1085.54
626.13	1091.63
626.48	1087.41
626.82	1080.16
627.17	1075.48
627.51	1074.77
627.86	1078.52
628.20	1081.80
628.55	1082.26
628.89	1084.60
629.24	1087.41
629.58	1090.22
629.93	1086.48
630.28	1087.88
630.62	1081.09
630.97	1071.03
631.31	1071.97
631.66	1069.39
632.00	1069.39
632.35	1071.03
632.69	1082.97
633.04	1082.26
633.38	1089.05
633.73	1095.60
634.07	1100.52
634.42	1092.56
634.76	1090.22
635.11	1094.90
635.45	1092.56
635.79	1086.94
636.14	1091.39
636.48	1091.86
636.83	1080.86
637.17	1069.62
637.52	1071.26
637.86	1063.07
638.21	1057.45
638.55	1064.01
638.89	1069.39
639.24	1066.35
639.58	1074.77
639.93	1076.18
640.27	1077.58
640.61	1071.97
640.96	1083.43
641.30	1077.11
641.65	1078.28
641.99	1080.16
642.33	1081.09
642.68	1076.88
643.02	1086.71
643.37	1097.48
643.71	1095.60
644.05	1103.56
644.40	1090.69
644.74	1086.71
645.08	1071.03
645.43	1057.69
645.77	1058.86
646.11	1066.82
646.46	1067.28
646.80	1065.65
647.14	1078.28
647.49	1077.58
647.83	1090.22
648.17	1086.01
648.52	1100.75
648.86	1087.41
649.20	1088.35
649.55	1078.05
649.89	1075.01
650.23	1066.35
650.57	1076.18
650.92	1080.16
651.26	1077.35
651.60	1083.90
651.95	1090.92
652.29	1096.31
652.63	1091.39
652.97	1094.43
653.32	1086.94
653.66	1085.77
654.00	1079.22
654.34	1075.24
654.69	1072.43
655.03	1074.07
655.37	1075.48
655.71	1086.71
656.05	1094.43
656.40	1094.43
656.74	1105.20
657.08	1101.69
657.42	1095.14
657.76	1096.31
658.11	1094.43
658.45	1090.22
658.79	1092.56
659.13	1093.03
659.47	1086.94
659.82	1097.71
660.16	1096.31
660.50	1094.20
660.84	1100.05
661.18	1095.84
661.52	1085.77
661.87	1085.31
662.21	1074.31
662.55	1068.45
662.89	1071.50
663.23	1073.37
663.57	1067.75
663.91	1073.14
664.25	1070.80
664.60	1078.52
664.94	1085.54
665.28	1085.54
665.62	1092.56
665.96	1090.92
666.30	1077.82
666.64	1070.09
666.98	1072.90
667.32	1072.67
667.66	1078.28
668.01	1075.24
668.35	1076.18
668.69	1076.88
669.03	1070.09
669.37	1066.58
669.71	1074.31
670.05	1079.69
670.39	1074.31
670.73	1078.28
671.07	1078.99
671.41	1082.26
671.75	1071.03
672.09	1081.09
672.43	1084.60
672.77	1088.58
673.11	1086.94
673.45	1095.60
673.79	1088.35
674.13	1077.11
674.47	1066.11
674.81	1061.43
675.15	1054.88
675.49	1056.52
675.83	1062.14
676.17	1067.75
676.51	1071.97
676.85	1083.43
677.19	1082.03
677.53	1086.48
677.87	1094.67
678.21	1095.60
678.55	1093.50
678.89	1091.86
679.23	1087.41
679.57	1079.46
679.90	1082.73
680.24	1086.24
680.58	1087.88
680.92	1086.94
681.26	1090.92
681.60	1092.80
681.94	1081.09
682.28	1084.84
682.62	1094.43
682.96	1087.88
683.29	1080.16
683.63	1085.07
683.97	1075.48
684.31	1071.73
684.65	1066.58
684.99	1056.99
685.33	1057.92
685.67	1070.56
686.00	1071.26
686.34	1075.24
686.68	1085.31
687.02	1077.11
687.36	1067.75
687.70	1062.14
688.03	1067.05
688.37	1064.24
688.71	1071.73
689.05	1071.50
689.39	1074.77
689.72	1068.45
690.06	1074.07
690.40	1075.01
690.74	1086.48
691.08	1080.39
691.41	1094.90
691.75	1100.05
692.09	1098.41
692.43	1094.20
692.76	1103.33
693.10	1092.33
693.44	1075.48
693.78	1072.20
694.11	1065.41
694.45	1059.79
694.79	1061.90
695.13	1064.71
695.46	1065.41
695.80	1070.33
696.14	1063.77
696.48	1065.41
696.81	1072.20
697.15	1069.16
697.49	1071.73
697.82	1077.11
698.16	1076.41
698.50	1062.84
698.83	1064.01
699.17	1064.24
699.51	1066.82
699.84	1055.82
700.18	1066.35
700.52	1062.60
700.85	1063.31
701.19	1067.28
701.53	1079.69
701.86	1081.80
702.20	1082.03
702.54	1076.41
702.87	1067.28
703.21	1067.52
703.55	1065.65
703.88	1077.58
704.22	1081.33
704.55	1079.22
704.89	1072.90
705.23	1078.75
705.56	1082.26
705.90	1090.69
706.23	1096.78
706.57	1104.73
706.91	1103.56
707.24	1090.46
707.58	1086.24
707.91	1095.84
708.25	1087.18
708.58	1082.97
708.92	1084.14
709.26	1073.84
709.59	1067.99
709.93	1067.52
710.26	1071.73
710.60	1076.18
710.93	1082.26
711.27	1077.82
711.60	1085.07
711.94	1084.37
712.27	1091.39
712.61	1097.48
712.94	1101.92
713.28	1089.52
713.61	1092.56
713.95	1095.37
714.28	1085.77
714.62	1082.26
714.95	1096.54
715.29	1093.73
715.62	1077.82
715.96	1075.71
716.29	1074.31
716.63	1061.43
716.96	1059.09
717.29	1063.07
717.63	1063.54
717.96	1058.39
718.30	1069.86
718.63	1073.37
718.97	1072.90
719.30	1074.31
719.63	1089.99
719.97	1090.46
720.30	1091.63
720.64	1085.54
720.97	1087.88
721.30	1078.99
721.64	1081.09
721.97	1074.07
722.31	1084.14
722.64	1077.58
722.97	1066.82
723.31	1059.79
723.64	1073.60
723.97	1064.48
724.31	1073.14
724.64	1083.67
724.98	1090.92
725.31	1077.35
725.64	1093.97
725.98	1091.16
726.31	1095.37
726.64	1096.07
726.97	1098.88
727.31	1096.54
727.64	1088.35
727.97	1082.03
728.31	1071.03
728.64	1069.86
728.97	1064.24
729.31	1073.84
729.64	1081.56
729.97	1073.84
730.30	1082.50
730.64	1083.67
730.97	1095.60
731.30	1091.39
731.63	1104.73
731.97	1097.24
732.30	1094.67
732.63	1088.58
732.96	1093.73
733.30	1088.58
733.63	1084.60
733.96	1079.46
734.29	1073.37
734.63	1064.48
734.96	1061.90
735.29	1064.94
735.62	1057.45
735.95	1059.33
736.29	1069.62
736.62	1068.69
736.95	1063.54
737.28	1065.65
737.61	1058.86
737.94	1049.73
738.28	1053.71
738.61	1059.56
738.94	1073.14
739.27	1078.52
739.60	1081.80
739.93	1089.52
740.27	1097.48
740.60	1092.56
740.93	1093.50
741.26	1097.71
741.59	1083.43
741.92	1081.09
742.25	1079.92
742.58	1075.71
742.91	1072.67
743.25	1089.29
743.58	1086.94
743.91	1089.75
744.24	1089.52
744.57	1086.48
744.90	1079.46
745.23	1082.73
745.56	1084.37
745.89	1091.63
746.22	1095.60
746.55	1097.95
746.88	1099.12
747.21	1100.99
747.54	1096.07
747.87	1086.71
748.20	1081.56
748.53	1074.54
748.87	1070.09
749.20	1074.31
749.53	1082.03
749.86	1077.11
750.19	1079.69
750.52	1081.33
750.85	1073.37
751.18	1063.31
751.51	1079.46
751.84	1068.22
752.16	1061.67
752.49	1065.88
752.82	1066.82
753.15	1064.01
753.48	1070.80
753.81	1088.35
754.14	1079.69
754.47	1085.54
754.80	1075.71
755.13	1075.48
755.46	1069.39
755.79	1076.65
756.12	1078.75
756.45	1085.77
756.78	1095.37
757.11	1091.63
757.43	1092.80
757.76	1092.56
758.09	1083.67
758.42	1088.82
758.75	1095.37
759.08	1098.88
759.41	1096.54
759.74	1104.26
760.07	1089.99
760.39	1079.22
760.72	1076.41
761.05	1081.33
761.38	1084.60
761.71	1086.01
762.04	1089.52
762.36	1094.43
762.69	1094.20
763.02	1094.67
763.35	1103.33
763.68	1101.69
764.01	1092.56
764.33	1091.86
764.66	1084.14
764.99	1076.41
765.32	1074.77
765.65	1074.77
765.97	1075.71
766.30	1071.26
