SpectraSuite Data File
++++++++++++++++++++++++++++++++++++
Date: Mon Aug 26 10:25:48 PDT 2019
User: corrico
Dark Spectrum Present: No
Reference Spectrum Present: No
Number of Sampled Component Spectra: 1
Spectrometers: USB2+H06089
Integration Time (usec): 10000 (USB2+H06089)
Spectra Averaged: 2 (USB2+H06089)
Boxcar Smoothing: 2 (USB2+H06089)
Correct for Electrical Dark: No (USB2+H06089)
Strobe/Lamp Enabled: No (USB2+H06089)
Correct for Detector Non-linearity: No (USB2+H06089)
Correct for Stray Light: No (USB2+H06089)
Number of Pixels in Processed Spectrum: 2048
>>>>>Begin Processed Spectral Data<<<<<
339.70	1008.77
340.07	1008.77
340.45	990.28
340.82	971.56
341.19	954.24
341.57	937.62
341.94	918.43
342.31	909.30
342.69	904.62
343.06	894.55
343.43	891.04
343.81	885.89
344.18	889.40
344.55	891.04
344.93	896.43
345.30	901.11
345.67	913.75
346.04	927.09
346.42	942.77
346.79	964.30
347.16	961.02
347.54	970.39
347.91	965.24
348.28	968.98
348.65	964.53
349.03	988.64
349.40	1001.75
349.77	1015.09
350.14	1028.20
350.52	1034.05
350.89	1046.92
351.26	1050.67
351.63	1051.60
352.01	1047.62
352.38	1057.69
352.75	1053.94
353.12	1049.26
353.50	1065.88
353.87	1076.18
354.24	1077.35
354.61	1077.11
354.98	1087.41
355.36	1082.26
355.73	1079.69
356.10	1088.58
356.47	1092.56
356.84	1087.41
357.22	1091.86
357.59	1095.14
357.96	1087.18
358.33	1080.63
358.70	1081.33
359.08	1085.31
359.45	1083.67
359.82	1087.41
360.19	1087.41
360.56	1082.97
360.94	1075.71
361.31	1079.22
361.68	1077.58
362.05	1086.48
362.42	1099.35
362.79	1091.86
363.16	1082.97
363.54	1086.24
363.91	1084.14
364.28	1079.22
364.65	1089.05
365.02	1084.60
365.39	1069.16
365.76	1061.20
366.14	1055.35
366.51	1053.24
366.88	1063.31
367.25	1073.60
367.62	1084.84
367.99	1092.09
368.36	1090.69
368.73	1080.63
369.10	1081.33
369.48	1071.73
369.85	1068.69
370.22	1071.03
370.59	1082.26
370.96	1083.90
371.33	1092.09
371.70	1090.46
372.07	1087.41
372.44	1084.60
372.81	1081.09
373.18	1073.60
373.55	1081.80
373.93	1082.97
374.30	1082.26
374.67	1086.24
375.04	1094.67
375.41	1086.94
375.78	1079.22
376.15	1079.46
376.52	1079.46
376.89	1069.62
377.26	1075.48
377.63	1081.09
378.00	1084.14
378.37	1092.56
378.74	1098.41
379.11	1090.22
379.48	1083.43
379.85	1077.82
380.22	1069.39
380.59	1060.73
380.96	1066.35
381.33	1074.77
381.70	1078.52
382.07	1078.75
382.44	1089.05
382.81	1091.86
383.18	1086.71
383.55	1081.33
383.92	1078.05
384.29	1070.56
384.66	1059.09
385.03	1064.24
385.40	1062.60
385.77	1065.65
386.14	1061.90
386.51	1080.16
386.88	1070.09
387.25	1081.56
387.62	1079.22
387.99	1082.97
388.36	1074.54
388.73	1076.88
389.10	1062.14
389.46	1059.79
389.83	1060.50
390.20	1050.43
390.57	1050.67
390.94	1060.50
391.31	1061.90
391.68	1069.62
392.05	1081.56
392.42	1086.71
392.79	1091.16
393.16	1098.65
393.53	1087.65
393.89	1090.22
394.26	1089.52
394.63	1079.92
395.00	1071.03
395.37	1074.07
395.74	1066.82
396.11	1070.56
396.48	1076.18
396.84	1087.65
397.21	1089.99
397.58	1085.54
397.95	1075.48
398.32	1076.65
398.69	1071.26
399.06	1074.77
399.42	1070.80
399.79	1074.77
400.16	1068.22
400.53	1077.35
400.90	1073.37
401.27	1081.09
401.64	1081.09
402.00	1080.86
402.37	1058.86
402.74	1061.90
403.11	1065.41
403.48	1080.16
403.84	1085.77
404.21	1081.80
404.58	1072.90
404.95	1068.69
405.32	1058.39
405.68	1063.77
406.05	1073.84
406.42	1074.54
406.79	1075.48
407.16	1075.94
407.52	1062.14
407.89	1077.35
408.26	1080.39
408.63	1085.77
408.99	1082.03
409.36	1094.43
409.73	1082.73
410.10	1080.63
410.47	1074.31
410.83	1078.28
411.20	1067.05
411.57	1077.58
411.94	1077.11
412.30	1079.92
412.67	1088.82
413.04	1098.41
413.40	1088.35
413.77	1097.24
414.14	1097.95
414.51	1090.69
414.87	1095.37
415.24	1093.03
415.61	1085.31
415.97	1084.14
416.34	1075.01
416.71	1064.48
417.08	1055.82
417.44	1062.84
417.81	1060.73
418.18	1064.94
418.54	1061.90
418.91	1062.60
419.28	1059.56
419.64	1058.16
420.01	1064.94
420.38	1068.22
420.74	1079.22
421.11	1079.46
421.48	1082.26
421.84	1082.26
422.21	1086.48
422.58	1085.54
422.94	1086.94
423.31	1088.58
423.68	1086.01
424.04	1086.71
424.41	1084.14
424.77	1087.88
425.14	1087.88
425.51	1080.63
425.87	1076.88
426.24	1080.39
426.61	1075.01
426.97	1076.41
427.34	1079.46
427.70	1075.24
428.07	1073.84
428.44	1071.26
428.80	1071.26
429.17	1075.24
429.53	1079.92
429.90	1076.18
430.27	1082.50
430.63	1085.07
431.00	1080.16
431.36	1081.33
431.73	1083.43
432.09	1087.88
432.46	1086.94
432.83	1093.50
433.19	1091.39
433.56	1090.92
433.92	1084.14
434.29	1078.75
434.65	1071.03
435.02	1068.22
435.38	1072.20
435.75	1073.60
436.11	1078.75
436.48	1079.69
436.84	1083.67
437.21	1076.18
437.57	1063.77
437.94	1050.20
438.30	1053.94
438.67	1058.39
439.03	1060.73
439.40	1079.92
439.76	1087.65
440.13	1090.46
440.49	1090.92
440.86	1086.48
441.22	1070.56
441.59	1067.99
441.95	1067.28
442.32	1057.69
442.68	1072.20
443.05	1086.48
443.41	1083.67
443.78	1066.11
444.14	1067.99
444.51	1068.22
444.87	1060.26
445.24	1063.54
445.60	1077.11
445.96	1082.26
446.33	1068.45
446.69	1062.84
447.06	1068.69
447.42	1060.50
447.79	1049.96
448.15	1042.94
448.51	1045.05
448.88	1046.45
449.24	1056.75
449.61	1067.05
449.97	1078.99
450.33	1085.07
450.70	1083.67
451.06	1080.86
451.43	1082.73
451.79	1086.24
452.15	1085.77
452.52	1077.82
452.88	1077.58
453.24	1072.67
453.61	1061.43
453.97	1062.60
454.34	1073.37
454.70	1082.26
455.06	1081.80
455.43	1084.14
455.79	1077.82
456.15	1069.39
456.52	1063.54
456.88	1079.22
457.24	1097.71
457.61	1099.58
457.97	1097.95
458.33	1100.29
458.70	1099.58
459.06	1087.41
459.42	1091.86
459.79	1099.12
460.15	1094.20
460.51	1088.35
460.88	1086.94
461.24	1083.90
461.60	1081.80
461.96	1096.07
462.33	1089.75
462.69	1101.69
463.05	1096.07
463.42	1100.29
463.78	1095.84
464.14	1083.43
464.50	1075.94
464.87	1078.52
465.23	1075.48
465.59	1069.86
465.95	1077.35
466.32	1079.46
466.68	1081.80
467.04	1079.69
467.40	1080.39
467.77	1080.39
468.13	1067.52
468.49	1063.07
468.85	1062.84
469.22	1057.92
469.58	1066.35
469.94	1080.39
470.30	1085.07
470.66	1093.03
471.03	1097.01
471.39	1093.97
471.75	1086.71
472.11	1091.86
472.47	1085.07
472.84	1075.48
473.20	1074.77
473.56	1077.35
473.92	1064.71
474.28	1073.60
474.65	1076.88
475.01	1065.65
475.37	1076.41
475.73	1079.69
476.09	1066.58
476.45	1075.01
476.81	1085.54
477.18	1075.48
477.54	1080.86
477.90	1082.97
478.26	1084.60
478.62	1084.60
478.98	1082.03
479.34	1088.12
479.71	1096.31
480.07	1096.78
480.43	1096.54
480.79	1090.69
481.15	1080.39
481.51	1065.18
481.87	1053.48
482.23	1055.82
482.59	1062.84
482.96	1065.18
483.32	1072.20
483.68	1073.37
484.04	1072.43
484.40	1079.69
484.76	1084.37
485.12	1089.05
485.48	1088.35
485.84	1086.94
486.20	1082.73
486.56	1078.99
486.92	1073.60
487.28	1069.86
487.64	1073.14
488.00	1072.43
488.37	1084.37
488.73	1096.78
489.09	1107.78
489.45	1104.03
489.81	1105.20
490.17	1100.29
490.53	1095.60
490.89	1091.16
491.25	1097.71
491.61	1102.39
491.97	1089.05
492.33	1082.97
492.69	1085.07
493.05	1075.71
493.41	1074.07
493.77	1080.86
494.13	1086.48
494.49	1082.97
494.85	1090.22
495.21	1080.86
495.57	1082.03
495.93	1082.97
496.29	1089.99
496.64	1085.31
497.00	1092.80
497.36	1085.54
497.72	1070.33
498.08	1066.11
498.44	1068.45
498.80	1070.33
499.16	1078.28
499.52	1091.16
499.88	1088.58
500.24	1087.65
500.60	1078.99
500.96	1071.03
501.32	1074.31
501.68	1076.88
502.03	1084.84
502.39	1089.99
502.75	1092.33
503.11	1092.33
503.47	1088.12
503.83	1084.84
504.19	1078.05
504.55	1079.92
504.91	1071.26
505.26	1076.65
505.62	1072.43
505.98	1076.88
506.34	1084.37
506.70	1088.82
507.06	1089.05
507.42	1091.39
507.78	1089.52
508.13	1081.56
508.49	1082.97
508.85	1089.05
509.21	1087.18
509.57	1098.65
509.93	1099.82
510.28	1098.88
510.64	1092.33
511.00	1092.80
511.36	1079.69
511.72	1086.48
512.07	1090.22
512.43	1090.92
512.79	1091.39
513.15	1093.26
513.51	1088.35
513.86	1087.41
514.22	1081.09
514.58	1083.90
514.94	1089.05
515.30	1086.94
515.65	1082.03
516.01	1087.18
516.37	1084.37
516.73	1079.22
517.08	1080.63
517.44	1082.50
517.80	1082.73
518.16	1086.71
518.51	1087.88
518.87	1087.88
519.23	1096.07
519.59	1096.07
519.94	1075.71
520.30	1077.11
520.66	1078.28
521.01	1066.82
521.37	1070.09
521.73	1086.94
522.09	1089.05
522.44	1089.99
522.80	1096.31
523.16	1083.67
523.51	1074.77
523.87	1074.31
524.23	1078.52
524.58	1073.60
524.94	1088.12
525.30	1100.29
525.65	1095.37
526.01	1083.43
526.37	1081.80
526.72	1068.69
527.08	1049.96
527.44	1052.07
527.79	1052.30
528.15	1057.69
528.51	1063.31
528.86	1075.48
529.22	1079.46
529.58	1084.14
529.93	1079.22
530.29	1081.56
530.65	1082.03
531.00	1070.09
531.36	1071.50
531.71	1075.94
532.07	1083.67
532.43	1078.99
532.78	1086.01
533.14	1083.67
533.49	1079.22
533.85	1078.05
534.21	1085.77
534.56	1086.71
534.92	1087.18
535.27	1099.82
535.63	1099.58
535.98	1085.07
536.34	1077.58
536.69	1071.03
537.05	1063.31
537.41	1060.03
537.76	1081.56
538.12	1081.56
538.47	1082.50
538.83	1079.69
539.18	1070.80
539.54	1059.79
539.89	1061.43
540.25	1067.99
540.60	1073.14
540.96	1082.97
541.31	1090.22
541.67	1088.82
542.02	1086.24
542.38	1074.31
542.73	1065.41
543.09	1049.50
543.44	1058.16
543.80	1057.45
544.15	1071.26
544.51	1079.22
544.86	1086.24
545.22	1092.09
545.57	1096.07
545.93	1086.94
546.28	1090.69
546.64	1104.50
546.99	1096.78
547.35	1105.20
547.70	1104.03
548.05	1094.20
548.41	1078.28
548.76	1072.67
549.12	1056.05
549.47	1057.69
549.83	1060.96
550.18	1062.60
550.53	1064.71
550.89	1069.86
551.24	1077.11
551.60	1083.67
551.95	1093.73
552.30	1096.31
552.66	1098.18
553.01	1092.09
553.37	1092.80
553.72	1089.99
554.07	1094.43
554.43	1094.43
554.78	1098.88
555.13	1095.60
555.49	1093.50
555.84	1081.09
556.19	1071.26
556.55	1064.48
556.90	1072.67
557.26	1074.07
557.61	1078.05
557.96	1088.58
558.32	1100.52
558.67	1077.58
559.02	1081.09
559.37	1089.05
559.73	1081.56
560.08	1080.16
560.43	1091.86
560.79	1085.31
561.14	1087.88
561.49	1088.35
561.85	1084.84
562.20	1077.35
562.55	1081.09
562.90	1082.03
563.26	1082.50
563.61	1072.67
563.96	1084.60
564.32	1082.26
564.67	1078.28
565.02	1086.01
565.37	1093.03
565.73	1085.07
566.08	1087.41
566.43	1081.56
566.78	1076.88
567.14	1073.60
567.49	1072.20
567.84	1065.88
568.19	1075.94
568.54	1077.11
568.90	1087.18
569.25	1094.20
569.60	1089.75
569.95	1089.75
570.31	1085.31
570.66	1082.03
571.01	1076.41
571.36	1088.58
571.71	1092.33
572.06	1093.73
572.42	1078.05
572.77	1070.80
573.12	1060.26
573.47	1047.39
573.82	1044.58
574.18	1048.33
574.53	1056.28
574.88	1058.86
575.23	1060.50
575.58	1069.86
575.93	1077.11
576.28	1071.50
576.64	1085.54
576.99	1082.03
577.34	1071.26
577.69	1077.11
578.04	1076.18
578.39	1060.26
578.74	1060.73
579.09	1068.69
579.44	1064.94
579.80	1075.94
580.15	1081.56
580.50	1086.94
580.85	1085.77
581.20	1086.01
581.55	1084.14
581.90	1088.82
582.25	1083.67
582.60	1079.69
582.95	1082.73
583.30	1083.20
583.65	1077.35
584.00	1078.99
584.35	1081.33
584.71	1076.41
585.06	1082.03
585.41	1084.84
585.76	1091.39
586.11	1094.43
586.46	1091.16
586.81	1088.58
587.16	1091.86
587.51	1087.65
587.86	1094.90
588.21	1094.67
588.56	1089.05
588.91	1082.26
589.26	1082.50
589.61	1073.37
589.96	1078.52
590.31	1082.50
590.66	1074.07
591.01	1075.01
591.36	1079.22
591.71	1081.80
592.06	1076.18
592.41	1087.41
592.76	1073.14
593.10	1068.69
593.45	1063.07
593.80	1065.18
594.15	1062.84
594.50	1082.26
594.85	1086.71
595.20	1083.20
595.55	1088.35
595.90	1084.84
596.25	1078.75
596.60	1073.37
596.95	1075.48
597.30	1071.50
597.64	1123.69
597.99	1116.20
598.34	1115.03
598.69	1112.92
599.04	1109.65
599.39	1055.82
599.74	1061.43
600.09	1069.16
600.44	1070.56
600.78	1074.31
601.13	1083.67
601.48	1087.41
601.83	1082.50
602.18	1085.07
602.53	1087.88
602.88	1087.41
603.22	1095.14
603.57	1106.37
603.92	1113.16
604.27	1114.33
604.62	1110.12
604.97	1104.97
605.31	1101.92
605.66	1091.86
606.01	1084.84
606.36	1085.31
606.71	1086.48
607.05	1079.22
607.40	1083.67
607.75	1089.99
608.10	1088.12
608.44	1082.73
608.79	1076.65
609.14	1081.80
609.49	1089.05
609.84	1088.82
610.18	1099.12
610.53	1119.71
610.88	1114.56
611.23	1104.50
611.57	1111.05
611.92	1109.88
612.27	1097.95
612.62	1098.41
612.96	1090.46
613.31	1086.94
613.66	1065.41
614.00	1075.48
614.35	1072.43
614.70	1082.73
615.05	1083.20
615.39	1097.71
615.74	1103.33
616.09	1101.69
616.43	1091.63
616.78	1082.03
617.13	1084.60
617.47	1064.24
617.82	1064.71
618.17	1064.94
618.51	1071.03
618.86	1060.73
619.21	1070.80
619.55	1083.90
619.90	1093.50
620.25	1102.63
620.59	1107.31
620.94	1114.33
621.29	1100.52
621.63	1096.78
621.98	1084.84
622.32	1086.48
622.67	1073.84
623.02	1081.56
623.36	1081.56
623.71	1092.80
624.05	1099.82
624.40	1102.63
624.75	1102.16
625.09	1103.80
625.44	1097.48
625.78	1091.16
626.13	1080.39
626.48	1075.94
626.82	1077.35
627.17	1080.86
627.51	1074.77
627.86	1084.14
628.20	1089.75
628.55	1082.50
628.89	1085.77
629.24	1083.67
629.58	1082.03
629.93	1070.56
630.28	1078.05
630.62	1077.82
630.97	1087.88
631.31	1089.52
631.66	1097.48
632.00	1097.24
632.35	1092.80
632.69	1088.58
633.04	1095.14
633.38	1103.09
633.73	1101.69
634.07	1104.73
634.42	1105.20
634.76	1098.88
635.11	1087.41
635.45	1084.60
635.79	1075.24
636.14	1073.84
636.48	1072.20
636.83	1067.05
637.17	1069.39
637.52	1075.48
637.86	1078.52
638.21	1079.92
638.55	1089.52
638.89	1094.90
639.24	1090.92
639.58	1093.26
639.93	1089.52
640.27	1083.20
640.61	1070.56
640.96	1066.58
641.30	1060.96
641.65	1072.20
641.99	1075.71
642.33	1084.37
642.68	1085.07
643.02	1086.94
643.37	1078.05
643.71	1080.39
644.05	1081.56
644.40	1092.09
644.74	1095.14
645.08	1092.09
645.43	1096.07
645.77	1094.90
646.11	1081.56
646.46	1083.67
646.80	1091.16
647.14	1085.31
647.49	1084.60
647.83	1088.35
648.17	1076.65
648.52	1073.37
648.86	1066.35
649.20	1068.45
649.55	1074.07
649.89	1087.18
650.23	1080.86
650.57	1088.12
650.92	1082.73
651.26	1083.67
651.60	1072.43
651.95	1079.22
652.29	1074.31
652.63	1078.99
652.97	1076.41
653.32	1078.28
653.66	1074.07
654.00	1079.69
654.34	1078.75
654.69	1080.16
655.03	1081.09
655.37	1082.73
655.71	1075.24
656.05	1065.88
656.40	1059.79
656.74	1048.79
657.08	1045.52
657.42	1056.52
657.76	1068.69
658.11	1071.26
658.45	1074.31
658.79	1073.37
659.13	1066.35
659.47	1057.69
659.82	1057.22
660.16	1064.48
660.50	1075.01
660.84	1073.14
661.18	1075.94
661.52	1078.99
661.87	1089.75
662.21	1070.33
662.55	1084.60
662.89	1090.22
663.23	1085.77
663.57	1076.41
663.91	1094.90
664.25	1088.58
664.60	1090.46
664.94	1099.12
665.28	1102.39
665.62	1098.88
665.96	1094.67
666.30	1088.82
666.64	1079.92
666.98	1072.90
667.32	1070.80
667.66	1073.84
668.01	1076.88
668.35	1086.24
668.69	1097.48
669.03	1097.24
669.37	1097.01
669.71	1089.75
670.05	1086.94
670.39	1075.94
670.73	1079.46
671.07	1078.99
671.41	1075.71
671.75	1076.65
672.09	1071.50
672.43	1069.16
672.77	1060.03
673.11	1068.22
673.45	1066.82
673.79	1078.52
674.13	1084.14
674.47	1090.92
674.81	1086.01
675.15	1086.94
675.49	1085.54
675.83	1082.03
676.17	1082.03
676.51	1100.52
676.85	1101.46
677.19	1109.18
677.53	1098.65
677.87	1100.52
678.21	1084.14
678.55	1087.18
678.89	1081.09
679.23	1085.54
679.57	1087.88
679.90	1089.75
680.24	1074.07
680.58	1075.94
680.92	1085.07
681.26	1093.03
681.60	1089.29
681.94	1094.67
682.28	1088.82
682.62	1082.03
682.96	1068.92
683.29	1065.88
683.63	1069.62
683.97	1071.73
684.31	1074.54
684.65	1074.77
684.99	1082.50
685.33	1078.99
685.67	1074.54
686.00	1067.52
686.34	1075.48
686.68	1078.05
687.02	1090.69
687.36	1105.44
687.70	1105.90
688.03	1099.58
688.37	1092.56
688.71	1081.56
689.05	1065.41
689.39	1075.01
689.72	1083.43
690.06	1080.16
690.40	1080.16
690.74	1082.03
691.08	1087.41
691.41	1080.63
691.75	1082.97
692.09	1079.46
692.43	1095.14
692.76	1085.31
693.10	1086.94
693.44	1089.99
693.78	1105.90
694.11	1095.37
694.45	1090.22
694.79	1091.39
695.13	1095.84
695.46	1083.90
695.80	1078.75
696.14	1084.14
696.48	1078.05
696.81	1077.35
697.15	1084.14
697.49	1082.73
697.82	1078.75
698.16	1073.14
698.50	1070.33
698.83	1073.84
699.17	1084.60
699.51	1087.65
699.84	1095.37
700.18	1094.67
700.52	1089.75
700.85	1086.01
701.19	1092.80
701.53	1094.43
701.86	1095.84
702.20	1084.60
702.54	1091.39
702.87	1086.94
703.21	1089.99
703.55	1099.58
703.88	1122.05
704.22	1115.27
704.55	1116.20
704.89	1109.41
705.23	1094.43
705.56	1078.75
705.90	1093.73
706.23	1090.46
706.57	1093.26
706.91	1099.12
707.24	1102.39
707.58	1094.43
707.91	1106.14
708.25	1101.69
708.58	1107.54
708.92	1105.44
709.26	1107.07
709.59	1089.99
709.93	1091.16
710.26	1088.58
710.60	1077.11
710.93	1074.77
711.27	1077.35
711.60	1075.48
711.94	1068.69
712.27	1076.65
712.61	1059.33
712.94	1055.58
713.28	1056.28
713.61	1056.52
713.95	1057.69
714.28	1062.60
714.62	1062.37
714.95	1073.84
715.29	1071.03
715.62	1074.54
715.96	1083.20
716.29	1086.71
716.63	1082.26
716.96	1090.69
717.29	1081.80
717.63	1078.99
717.96	1084.84
718.30	1081.56
718.63	1080.63
718.97	1085.77
719.30	1080.86
719.63	1068.69
719.97	1066.35
720.30	1068.69
720.64	1077.58
720.97	1083.67
721.30	1085.07
721.64	1086.24
721.97	1072.90
722.31	1059.09
722.64	1054.65
722.97	1060.03
723.31	1062.60
723.64	1075.94
723.97	1078.05
724.31	1070.33
724.64	1073.37
724.98	1075.94
725.31	1071.26
725.64	1069.62
725.98	1076.65
726.31	1077.11
726.64	1074.54
726.97	1071.73
727.31	1074.54
727.64	1068.45
727.97	1071.97
728.31	1059.33
728.64	1054.65
728.97	1057.22
729.31	1065.41
729.64	1057.92
729.97	1066.82
730.30	1073.84
730.64	1083.43
730.97	1088.82
731.30	1089.05
731.63	1095.37
731.97	1093.73
732.30	1088.58
732.63	1083.43
732.96	1084.60
733.30	1072.67
733.63	1070.56
733.96	1068.45
734.29	1068.22
734.63	1057.45
734.96	1060.96
735.29	1069.39
735.62	1065.88
735.95	1067.99
736.29	1082.26
736.62	1086.94
736.95	1077.35
737.28	1082.73
737.61	1082.26
737.94	1091.63
738.28	1082.97
738.61	1089.99
738.94	1086.71
739.27	1080.16
739.60	1072.67
739.93	1081.33
740.27	1084.60
740.60	1085.31
740.93	1093.73
741.26	1090.46
741.59	1083.67
741.92	1077.11
742.25	1073.60
742.58	1069.62
742.91	1072.43
743.25	1071.97
743.58	1059.56
743.91	1069.16
744.24	1075.71
744.57	1075.94
744.90	1086.01
745.23	1100.75
745.56	1081.80
745.89	1071.97
746.22	1064.71
746.55	1057.22
746.88	1065.41
747.21	1077.35
747.54	1087.88
747.87	1094.20
748.20	1098.18
748.53	1088.58
748.87	1092.56
749.20	1088.12
749.53	1074.07
749.86	1062.14
750.19	1059.79
750.52	1047.16
750.85	1046.92
751.18	1051.37
751.51	1073.84
751.84	1077.82
752.16	1084.84
752.49	1079.69
752.82	1075.94
753.15	1076.88
753.48	1077.82
753.81	1087.41
754.14	1095.14
754.47	1110.58
754.80	1097.01
755.13	1096.31
755.46	1093.97
755.79	1085.77
756.12	1087.88
756.45	1094.43
756.78	1097.71
757.11	1096.78
757.43	1099.58
757.76	1099.12
758.09	1089.99
758.42	1089.52
758.75	1084.37
759.08	1085.54
759.41	1083.43
759.74	1088.35
760.07	1085.31
760.39	1091.39
760.72	1085.31
761.05	1080.63
761.38	1078.99
761.71	1082.50
762.04	1080.16
762.36	1096.54
762.69	1102.86
763.02	1106.37
763.35	1100.52
763.68	1093.26
764.01	1080.39
764.33	1074.77
764.66	1073.14
764.99	1083.43
765.32	1087.88
765.65	1082.73
765.97	1080.86
766.30	1081.80
