SpectraSuite Data File
++++++++++++++++++++++++++++++++++++
Date: Mon Aug 26 10:25:48 PDT 2019
User: corrico
Dark Spectrum Present: No
Reference Spectrum Present: No
Number of Sampled Component Spectra: 1
Spectrometers: USB2+H06089
Integration Time (usec): 10000 (USB2+H06089)
Spectra Averaged: 2 (USB2+H06089)
Boxcar Smoothing: 2 (USB2+H06089)
Correct for Electrical Dark: No (USB2+H06089)
Strobe/Lamp Enabled: No (USB2+H06089)
Correct for Detector Non-linearity: No (USB2+H06089)
Correct for Stray Light: No (USB2+H06089)
Number of Pixels in Processed Spectrum: 2048
>>>>>Begin Processed Spectral Data<<<<<
339.70	1060.26
340.07	1060.26
340.45	1019.30
340.82	988.88
341.19	955.64
341.57	936.45
341.94	926.38
342.31	911.64
342.69	909.53
343.06	913.28
343.43	900.17
343.81	902.74
344.18	913.98
344.55	919.36
344.93	915.85
345.30	928.96
345.67	926.15
346.04	923.34
346.42	929.66
346.79	942.07
347.16	951.19
347.54	962.19
347.91	966.64
348.28	979.28
348.65	988.41
349.03	984.20
349.40	992.39
349.77	1001.28
350.14	1009.47
350.52	1012.98
350.89	1024.22
351.26	1033.11
351.63	1041.54
352.01	1033.35
352.38	1046.45
352.75	1049.26
353.12	1056.52
353.50	1052.77
353.87	1055.35
354.24	1043.64
354.61	1048.56
354.98	1053.01
355.36	1059.33
355.73	1058.16
356.10	1070.56
356.47	1072.67
356.84	1069.62
357.22	1075.24
357.59	1085.54
357.96	1086.01
358.33	1078.75
358.70	1075.24
359.08	1076.18
359.45	1065.18
359.82	1057.22
360.19	1054.65
360.56	1047.39
360.94	1044.35
361.31	1059.79
361.68	1067.05
362.05	1079.22
362.42	1089.99
362.79	1098.41
363.16	1097.71
363.54	1096.07
363.91	1088.58
364.28	1083.43
364.65	1070.09
365.02	1068.22
365.39	1066.58
365.76	1067.28
366.14	1071.03
366.51	1080.63
366.88	1060.26
367.25	1060.50
367.62	1060.03
367.99	1051.37
368.36	1041.30
368.73	1046.45
369.10	1041.54
369.48	1041.30
369.85	1051.13
370.22	1048.09
370.59	1059.79
370.96	1067.28
371.33	1071.73
371.70	1075.24
372.07	1083.20
372.44	1095.84
372.81	1097.95
373.18	1094.90
373.55	1084.60
373.93	1079.46
374.30	1058.39
374.67	1054.65
375.04	1056.75
375.41	1061.20
375.78	1060.26
376.15	1071.26
376.52	1075.24
376.89	1073.37
377.26	1069.39
377.63	1075.24
378.00	1069.16
378.37	1057.69
378.74	1062.37
379.11	1066.58
379.48	1069.16
379.85	1076.65
380.22	1077.58
380.59	1076.65
380.96	1072.20
381.33	1074.77
381.70	1073.84
382.07	1079.69
382.44	1072.90
382.81	1075.01
383.18	1063.07
383.55	1059.56
383.92	1057.69
384.29	1054.65
384.66	1061.67
385.03	1066.58
385.40	1070.33
385.77	1074.07
386.14	1073.14
386.51	1068.69
386.88	1067.75
387.25	1069.62
387.62	1066.58
387.99	1064.48
388.36	1062.14
388.73	1069.39
389.10	1067.99
389.46	1061.90
389.83	1063.07
390.20	1059.33
390.57	1063.31
390.94	1064.24
391.31	1076.41
391.68	1090.22
392.05	1099.35
392.42	1091.39
392.79	1092.56
393.16	1088.82
393.53	1079.46
393.89	1078.05
394.26	1077.58
394.63	1068.45
395.00	1075.48
395.37	1086.24
395.74	1083.90
396.11	1087.18
396.48	1091.63
396.84	1082.03
397.21	1076.18
397.58	1067.75
397.95	1066.35
398.32	1065.65
398.69	1064.94
399.06	1061.43
399.42	1060.26
399.79	1062.60
400.16	1064.01
400.53	1061.90
400.90	1061.20
401.27	1062.14
401.64	1055.11
402.00	1051.60
402.37	1059.33
402.74	1053.24
403.11	1063.07
403.48	1078.05
403.84	1075.94
404.21	1068.92
404.58	1070.09
404.95	1071.50
405.32	1051.84
405.68	1057.45
406.05	1056.05
406.42	1062.37
406.79	1067.28
407.16	1077.35
407.52	1079.69
407.89	1076.88
408.26	1077.82
408.63	1067.99
408.99	1069.39
409.36	1057.69
409.73	1065.41
410.10	1068.22
410.47	1070.09
410.83	1069.86
411.20	1075.24
411.57	1078.05
411.94	1070.80
412.30	1072.67
412.67	1069.16
413.04	1070.09
413.40	1064.48
413.77	1077.11
414.14	1079.92
414.51	1080.16
414.87	1076.41
415.24	1078.75
415.61	1066.58
415.97	1060.50
416.34	1061.90
416.71	1069.39
417.08	1075.48
417.44	1078.52
417.81	1069.86
418.18	1060.26
418.54	1064.94
418.91	1071.26
419.28	1076.65
419.64	1086.24
420.01	1101.92
420.38	1087.41
420.74	1069.16
421.11	1066.11
421.48	1069.62
421.84	1066.82
422.21	1070.56
422.58	1072.67
422.94	1072.20
423.31	1073.14
423.68	1069.62
424.04	1074.77
424.41	1088.58
424.77	1084.37
425.14	1079.69
425.51	1080.86
425.87	1080.63
426.24	1068.45
426.61	1078.28
426.97	1084.60
427.34	1079.22
427.70	1071.50
428.07	1061.20
428.44	1066.11
428.80	1067.28
429.17	1076.18
429.53	1086.71
429.90	1101.92
430.27	1091.86
430.63	1081.33
431.00	1082.03
431.36	1077.11
431.73	1073.14
432.09	1063.77
432.46	1074.77
432.83	1074.77
433.19	1074.54
433.56	1077.58
433.92	1077.82
434.29	1077.58
434.65	1066.11
435.02	1072.43
435.38	1069.62
435.75	1069.16
436.11	1069.16
436.48	1076.41
436.84	1059.79
437.21	1051.37
437.57	1059.56
437.94	1059.56
438.30	1059.33
438.67	1083.43
439.03	1084.60
439.40	1084.37
439.76	1082.26
440.13	1086.94
440.49	1078.75
440.86	1091.86
441.22	1097.71
441.59	1098.18
441.95	1088.12
442.32	1090.92
442.68	1089.75
443.05	1079.22
443.41	1078.99
443.78	1085.07
444.14	1082.03
444.51	1080.16
444.87	1082.26
445.24	1079.46
445.60	1075.24
445.96	1075.48
446.33	1083.43
446.69	1092.80
447.06	1093.73
447.42	1100.52
447.79	1092.56
448.15	1089.52
448.51	1086.01
448.88	1085.54
449.24	1077.35
449.61	1081.80
449.97	1078.05
450.33	1060.73
450.70	1056.52
451.06	1057.69
451.43	1055.35
451.79	1053.01
452.15	1069.16
452.52	1073.14
452.88	1080.39
453.24	1079.46
453.61	1078.52
453.97	1076.88
454.34	1074.77
454.70	1065.65
455.06	1066.11
455.43	1065.41
455.79	1067.05
456.15	1058.86
456.52	1067.52
456.88	1074.54
457.24	1074.31
457.61	1076.18
457.97	1083.20
458.33	1082.97
458.70	1084.84
459.06	1088.35
459.42	1084.60
459.79	1091.63
460.15	1090.69
460.51	1083.90
460.88	1085.77
461.24	1081.56
461.60	1077.58
461.96	1081.33
462.33	1082.26
462.69	1081.80
463.05	1088.58
463.42	1089.29
463.78	1083.20
464.14	1079.92
464.50	1073.60
464.87	1064.01
465.23	1058.39
465.59	1066.82
465.95	1072.43
466.32	1075.94
466.68	1087.65
467.04	1092.80
467.40	1086.48
467.77	1085.07
468.13	1086.94
468.49	1082.73
468.85	1079.22
469.22	1072.90
469.58	1073.14
469.94	1074.07
470.30	1074.77
470.66	1071.97
471.03	1074.07
471.39	1071.97
471.75	1070.33
472.11	1068.69
472.47	1076.18
472.84	1080.39
473.20	1082.03
473.56	1065.88
473.92	1065.88
474.28	1059.09
474.65	1059.09
475.01	1060.26
475.37	1081.09
475.73	1084.37
476.09	1083.67
476.45	1082.26
476.81	1083.20
477.18	1079.46
477.54	1077.11
477.90	1075.24
478.26	1067.28
478.62	1066.11
478.98	1076.18
479.34	1078.75
479.71	1092.09
480.07	1104.97
480.43	1094.43
480.79	1087.41
481.15	1080.86
481.51	1072.90
481.87	1065.88
482.23	1082.73
482.59	1075.71
482.96	1075.71
483.32	1071.03
483.68	1073.84
484.04	1066.82
484.40	1071.97
484.76	1072.20
485.12	1090.92
485.48	1089.75
485.84	1092.09
486.20	1096.78
486.56	1103.33
486.92	1088.12
487.28	1090.22
487.64	1084.37
488.00	1073.14
488.37	1071.97
488.73	1072.43
489.09	1074.77
489.45	1078.75
489.81	1078.99
490.17	1073.60
490.53	1073.37
490.89	1064.71
491.25	1058.86
491.61	1059.09
491.97	1058.62
492.33	1056.75
492.69	1061.20
493.05	1062.60
493.41	1069.39
493.77	1071.97
494.13	1074.77
494.49	1069.16
494.85	1071.73
495.21	1066.11
495.57	1074.77
495.93	1068.22
496.29	1076.41
496.64	1084.37
497.00	1078.52
497.36	1073.60
497.72	1075.48
498.08	1069.62
498.44	1053.94
498.80	1077.58
499.16	1066.35
499.52	1071.50
499.88	1066.11
500.24	1078.75
500.60	1062.37
500.96	1058.39
501.32	1060.50
501.68	1074.77
502.03	1074.54
502.39	1071.26
502.75	1083.20
503.11	1084.14
503.47	1073.84
503.83	1066.82
504.19	1067.05
504.55	1069.39
504.91	1064.01
505.26	1075.48
505.62	1077.35
505.98	1073.84
506.34	1075.24
506.70	1078.05
507.06	1062.84
507.42	1065.65
507.78	1076.41
508.13	1078.28
508.49	1083.67
508.85	1104.50
509.21	1107.07
509.57	1108.24
509.93	1106.37
510.28	1100.05
510.64	1085.54
511.00	1081.33
511.36	1074.77
511.72	1076.88
512.07	1079.92
512.43	1086.94
512.79	1089.05
513.15	1092.09
513.51	1083.67
513.86	1084.14
514.22	1066.82
514.58	1048.79
514.94	1041.54
515.30	1055.58
515.65	1058.16
516.01	1066.82
516.37	1083.20
516.73	1092.80
517.08	1097.95
517.44	1091.39
517.80	1100.29
518.16	1094.67
518.51	1089.99
518.87	1076.65
519.23	1082.50
519.59	1086.24
519.94	1093.97
520.30	1091.86
520.66	1092.56
521.01	1096.78
521.37	1080.63
521.73	1086.48
522.09	1090.46
522.44	1088.35
522.80	1080.86
523.16	1092.33
523.51	1082.50
523.87	1080.63
524.23	1090.92
524.58	1093.03
524.94	1086.94
525.30	1087.65
525.65	1096.07
526.01	1088.12
526.37	1091.16
526.72	1090.46
527.08	1095.84
527.44	1092.33
527.79	1087.18
528.15	1083.43
528.51	1091.39
528.86	1084.14
529.22	1087.65
529.58	1089.99
529.93	1091.39
530.29	1081.33
530.65	1082.26
531.00	1078.52
531.36	1077.11
531.71	1082.97
532.07	1094.67
532.43	1094.43
532.78	1083.90
533.14	1086.94
533.49	1075.24
533.85	1079.22
534.21	1080.63
534.56	1082.26
534.92	1083.20
535.27	1087.18
535.63	1076.18
535.98	1066.82
536.34	1070.09
536.69	1074.07
537.05	1075.01
537.41	1070.80
537.76	1080.63
538.12	1085.31
538.47	1077.35
538.83	1078.28
539.18	1079.22
539.54	1087.65
539.89	1084.37
540.25	1085.77
540.60	1078.05
540.96	1087.65
541.31	1080.63
541.67	1083.90
542.02	1079.92
542.38	1087.65
542.73	1084.37
543.09	1091.63
543.44	1085.77
543.80	1086.71
544.15	1075.24
544.51	1075.24
544.86	1074.54
545.22	1071.03
545.57	1075.71
545.93	1087.88
546.28	1089.99
546.64	1083.20
546.99	1089.52
547.35	1097.01
547.70	1092.09
548.05	1092.09
548.41	1098.88
548.76	1098.18
549.12	1086.48
549.47	1083.43
549.83	1078.28
550.18	1071.26
550.53	1077.11
550.89	1087.41
551.24	1085.77
551.60	1088.12
551.95	1087.65
552.30	1082.26
552.66	1080.16
553.01	1079.69
553.37	1070.33
553.72	1065.41
554.07	1060.96
554.43	1059.09
554.78	1067.05
555.13	1079.22
555.49	1083.20
555.84	1085.07
556.19	1081.33
556.55	1084.84
556.90	1073.84
557.26	1079.22
557.61	1086.94
557.96	1086.48
558.32	1081.80
558.67	1095.37
559.02	1086.71
559.37	1082.73
559.73	1088.58
560.08	1091.16
560.43	1085.54
560.79	1086.24
561.14	1091.86
561.49	1095.14
561.85	1095.60
562.20	1086.48
562.55	1088.12
562.90	1080.39
563.26	1077.82
563.61	1081.33
563.96	1089.99
564.32	1094.20
564.67	1103.09
565.02	1092.09
565.37	1086.01
565.73	1077.58
566.08	1073.14
566.43	1065.88
566.78	1070.56
567.14	1067.52
567.49	1066.35
567.84	1071.50
568.19	1072.43
568.54	1076.41
568.90	1067.05
569.25	1084.60
569.60	1076.88
569.95	1088.58
570.31	1079.69
570.66	1090.69
571.01	1083.67
571.36	1088.58
571.71	1075.24
572.06	1071.97
572.42	1069.39
572.77	1067.75
573.12	1067.05
573.47	1074.31
573.82	1079.22
574.18	1079.92
574.53	1089.05
574.88	1087.65
575.23	1079.92
575.58	1084.14
575.93	1094.90
576.28	1079.46
576.64	1086.01
576.99	1084.14
577.34	1082.73
577.69	1078.28
578.04	1087.88
578.39	1084.60
578.74	1084.37
579.09	1088.35
579.44	1095.84
579.80	1095.84
580.15	1091.63
580.50	1098.65
580.85	1091.16
581.20	1076.41
581.55	1068.22
581.90	1069.39
582.25	1058.16
582.60	1065.65
582.95	1068.22
583.30	1072.20
583.65	1070.33
584.00	1076.41
584.35	1074.54
584.71	1075.71
585.06	1073.14
585.41	1082.26
585.76	1086.24
586.11	1093.26
586.46	1099.82
586.81	1098.65
587.16	1092.56
587.51	1101.46
587.86	1086.71
588.21	1073.84
588.56	1078.28
588.91	1081.56
589.26	1074.77
589.61	1088.58
589.96	1093.26
590.31	1087.65
590.66	1089.52
591.01	1075.48
591.36	1064.01
591.71	1059.33
592.06	1060.73
592.41	1058.62
592.76	1068.45
593.10	1069.62
593.45	1068.22
593.80	1063.77
594.15	1064.24
594.50	1064.48
594.85	1071.26
595.20	1079.69
595.55	1087.88
595.90	1093.03
596.25	1091.16
596.60	1082.73
596.95	1083.20
597.30	1082.97
597.64	1125.56
597.99	1129.07
598.34	1136.10
598.69	1132.59
599.04	1136.56
599.39	1097.01
599.74	1096.78
600.09	1093.03
600.44	1096.07
600.78	1087.41
601.13	1065.88
601.48	1063.54
601.83	1063.07
602.18	1067.52
602.53	1078.05
602.88	1092.56
603.22	1091.39
603.57	1096.54
603.92	1092.09
604.27	1087.65
604.62	1091.86
604.97	1093.26
605.31	1100.05
605.66	1110.82
606.01	1117.37
606.36	1114.80
606.71	1109.65
607.05	1100.99
607.40	1092.80
607.75	1084.84
608.10	1082.03
608.44	1086.71
608.79	1081.09
609.14	1081.56
609.49	1076.18
609.84	1076.65
610.18	1077.35
610.53	1077.82
610.88	1077.58
611.23	1088.82
611.57	1087.88
611.92	1079.46
612.27	1087.88
612.62	1085.54
612.96	1075.01
613.31	1084.14
613.66	1093.50
614.00	1091.16
614.35	1101.46
614.70	1108.95
615.05	1097.95
615.39	1092.33
615.74	1092.80
616.09	1077.35
616.43	1071.26
616.78	1068.69
617.13	1078.05
617.47	1075.94
617.82	1080.63
618.17	1082.03
618.51	1088.82
618.86	1085.77
619.21	1084.14
619.55	1078.99
619.90	1076.18
620.25	1071.73
620.59	1064.94
620.94	1064.24
621.29	1068.45
621.63	1069.62
621.98	1067.75
622.32	1076.18
622.67	1072.43
623.02	1068.92
623.36	1072.90
623.71	1073.37
624.05	1077.11
624.40	1078.52
624.75	1087.65
625.09	1085.54
625.44	1086.01
625.78	1081.09
626.13	1086.24
626.48	1077.82
626.82	1082.50
627.17	1077.11
627.51	1076.88
627.86	1068.45
628.20	1071.03
628.55	1072.20
628.89	1075.01
629.24	1075.24
629.58	1087.65
629.93	1090.46
630.28	1086.94
630.62	1105.67
630.97	1101.22
631.31	1096.54
631.66	1102.63
632.00	1104.03
632.35	1090.69
632.69	1093.97
633.04	1098.88
633.38	1084.60
633.73	1079.22
634.07	1080.39
634.42	1081.80
634.76	1072.90
635.11	1077.11
635.45	1082.50
635.79	1079.69
636.14	1072.90
636.48	1069.62
636.83	1074.31
637.17	1074.77
637.52	1076.65
637.86	1086.94
638.21	1095.14
638.55	1096.54
638.89	1086.01
639.24	1080.16
639.58	1075.94
639.93	1075.94
640.27	1068.69
640.61	1078.28
640.96	1078.75
641.30	1076.65
641.65	1076.88
641.99	1071.97
642.33	1071.26
642.68	1074.07
643.02	1080.63
643.37	1089.52
643.71	1095.84
644.05	1096.78
644.40	1095.14
644.74	1089.75
645.08	1076.88
645.43	1076.88
645.77	1077.82
646.11	1083.20
646.46	1085.54
646.80	1094.20
647.14	1094.90
647.49	1089.52
647.83	1091.86
648.17	1089.75
648.52	1093.97
648.86	1085.77
649.20	1090.46
649.55	1088.12
649.89	1095.14
650.23	1090.22
650.57	1086.48
650.92	1088.12
651.26	1088.82
651.60	1077.58
651.95	1077.82
652.29	1089.29
652.63	1090.69
652.97	1083.20
653.32	1086.48
653.66	1069.86
654.00	1072.90
654.34	1068.92
654.69	1071.03
655.03	1066.35
655.37	1082.26
655.71	1084.84
656.05	1083.43
656.40	1092.80
656.74	1095.60
657.08	1090.69
657.42	1084.84
657.76	1084.37
658.11	1078.52
658.45	1076.18
658.79	1075.71
659.13	1082.73
659.47	1085.07
659.82	1087.41
660.16	1091.63
660.50	1090.22
660.84	1077.11
661.18	1076.88
661.52	1072.67
661.87	1070.09
662.21	1072.67
662.55	1078.05
662.89	1069.86
663.23	1067.28
663.57	1068.69
663.91	1053.71
664.25	1060.03
664.60	1082.26
664.94	1094.67
665.28	1099.12
665.62	1109.88
665.96	1103.09
666.30	1087.18
666.64	1074.77
666.98	1067.75
667.32	1073.84
667.66	1078.05
668.01	1075.24
668.35	1074.54
668.69	1075.94
669.03	1077.11
669.37	1070.56
669.71	1071.26
670.05	1067.28
670.39	1066.11
670.73	1049.03
671.07	1054.88
671.41	1059.33
671.75	1069.62
672.09	1066.11
672.43	1076.41
672.77	1073.60
673.11	1067.52
673.45	1064.48
673.79	1076.41
674.13	1076.41
674.47	1075.94
674.81	1081.33
675.15	1083.20
675.49	1082.73
675.83	1082.97
676.17	1086.48
676.51	1088.12
676.85	1084.37
677.19	1083.67
677.53	1079.69
677.87	1078.52
678.21	1074.54
678.55	1068.45
678.89	1063.54
679.23	1068.69
679.57	1060.26
679.90	1054.41
680.24	1065.18
680.58	1060.03
680.92	1058.16
681.26	1066.11
681.60	1073.14
681.94	1069.62
682.28	1081.09
682.62	1083.43
682.96	1087.88
683.29	1098.41
683.63	1088.35
683.97	1083.43
684.31	1084.60
684.65	1081.80
684.99	1067.99
685.33	1080.16
685.67	1070.80
686.00	1070.09
686.34	1065.41
686.68	1067.52
687.02	1056.28
687.36	1062.14
687.70	1059.79
688.03	1062.37
688.37	1057.92
688.71	1065.41
689.05	1066.11
689.39	1069.16
689.72	1075.01
690.06	1077.11
690.40	1079.92
690.74	1075.94
691.08	1072.90
691.41	1067.99
691.75	1068.69
692.09	1061.67
692.43	1074.07
692.76	1067.28
693.10	1064.48
693.44	1073.60
693.78	1080.16
694.11	1077.11
694.45	1080.39
694.79	1081.56
695.13	1078.52
695.46	1072.90
695.80	1074.31
696.14	1084.60
696.48	1089.75
696.81	1084.84
697.15	1091.39
697.49	1084.37
697.82	1081.09
698.16	1086.48
698.50	1080.63
698.83	1077.58
699.17	1076.88
699.51	1075.94
699.84	1068.22
700.18	1072.90
700.52	1066.11
700.85	1071.73
701.19	1068.22
701.53	1069.16
701.86	1079.22
702.20	1092.80
702.54	1083.43
702.87	1083.67
703.21	1078.75
703.55	1071.26
703.88	1065.41
704.22	1069.86
704.55	1082.73
704.89	1084.37
705.23	1078.05
705.56	1087.41
705.90	1085.31
706.23	1066.82
706.57	1064.71
706.91	1076.65
707.24	1064.94
707.58	1068.92
707.91	1074.31
708.25	1072.67
708.58	1067.52
708.92	1078.52
709.26	1088.58
709.59	1095.84
709.93	1097.48
710.26	1096.31
710.60	1088.82
710.93	1081.09
711.27	1077.82
711.60	1076.65
711.94	1083.67
712.27	1085.31
712.61	1086.01
712.94	1084.84
713.28	1089.99
713.61	1078.52
713.95	1069.16
714.28	1069.39
714.62	1071.73
714.95	1077.11
715.29	1081.09
715.62	1086.24
715.96	1083.43
716.29	1083.67
716.63	1078.28
716.96	1070.56
717.29	1069.16
717.63	1071.26
717.96	1066.82
718.30	1073.60
718.63	1079.92
718.97	1093.03
719.30	1096.31
719.63	1096.31
719.97	1084.60
720.30	1086.94
720.64	1077.58
720.97	1068.45
721.30	1062.14
721.64	1063.54
721.97	1067.05
722.31	1061.90
722.64	1065.65
722.97	1079.22
723.31	1086.94
723.64	1080.39
723.97	1082.97
724.31	1080.86
724.64	1069.39
724.98	1068.22
725.31	1070.56
725.64	1075.71
725.98	1075.24
726.31	1078.52
726.64	1078.28
726.97	1072.20
727.31	1067.28
727.64	1070.09
727.97	1077.35
728.31	1079.46
728.64	1075.48
728.97	1067.52
729.31	1070.56
729.64	1068.22
729.97	1063.07
730.30	1073.60
730.64	1078.99
730.97	1070.33
731.30	1070.09
731.63	1078.99
731.97	1075.94
732.30	1076.18
732.63	1076.41
732.96	1078.75
733.30	1074.54
733.63	1076.65
733.96	1087.88
734.29	1089.05
734.63	1087.88
734.96	1069.16
735.29	1072.67
735.62	1065.88
735.95	1070.09
736.29	1070.56
736.62	1081.33
736.95	1081.33
737.28	1081.56
737.61	1081.33
737.94	1082.26
738.28	1085.77
738.61	1078.75
738.94	1075.24
739.27	1076.88
739.60	1078.75
739.93	1072.20
740.27	1079.46
740.60	1091.39
740.93	1092.80
741.26	1090.46
741.59	1088.82
741.92	1068.92
742.25	1057.92
742.58	1049.96
742.91	1053.24
743.25	1054.41
743.58	1064.48
743.91	1063.07
744.24	1065.65
744.57	1063.31
744.90	1073.84
745.23	1086.48
745.56	1081.33
745.89	1088.35
746.22	1086.24
746.55	1071.26
746.88	1072.43
747.21	1087.41
747.54	1089.75
747.87	1083.67
748.20	1092.56
748.53	1082.50
748.87	1079.69
749.20	1074.77
749.53	1074.31
749.86	1077.11
750.19	1089.05
750.52	1084.37
750.85	1075.24
751.18	1068.92
751.51	1071.26
751.84	1057.22
752.16	1053.24
752.49	1061.67
752.82	1064.48
753.15	1063.77
753.48	1071.97
753.81	1073.84
754.14	1066.11
754.47	1078.05
754.80	1065.65
755.13	1056.52
755.46	1059.33
755.79	1063.31
756.12	1058.16
756.45	1062.14
756.78	1069.39
757.11	1074.77
757.43	1073.37
757.76	1081.33
758.09	1085.77
758.42	1078.05
758.75	1069.62
759.08	1073.84
759.41	1068.69
759.74	1081.09
760.07	1090.69
760.39	1095.84
760.72	1091.16
761.05	1086.71
761.38	1081.09
761.71	1085.54
762.04	1073.84
762.36	1077.11
762.69	1078.75
763.02	1078.05
763.35	1067.52
763.68	1076.18
764.01	1074.77
764.33	1074.07
764.66	1067.52
764.99	1070.33
765.32	1064.48
765.65	1062.84
765.97	1064.48
766.30	1056.75
