SpectraSuite Data File
++++++++++++++++++++++++++++++++++++
Date: Mon Aug 26 10:25:47 PDT 2019
User: corrico
Dark Spectrum Present: No
Reference Spectrum Present: No
Number of Sampled Component Spectra: 1
Spectrometers: USB2+H06089
Integration Time (usec): 10000 (USB2+H06089)
Spectra Averaged: 2 (USB2+H06089)
Boxcar Smoothing: 2 (USB2+H06089)
Correct for Electrical Dark: No (USB2+H06089)
Strobe/Lamp Enabled: No (USB2+H06089)
Correct for Detector Non-linearity: No (USB2+H06089)
Correct for Stray Light: No (USB2+H06089)
Number of Pixels in Processed Spectrum: 2048
>>>>>Begin Processed Spectral Data<<<<<
339.70	1071.97
340.07	1071.97
340.45	1022.11
340.82	992.39
341.19	957.51
341.57	932.47
341.94	920.06
342.31	916.55
342.69	911.87
343.06	911.64
343.43	896.43
343.81	893.38
344.18	897.83
344.55	903.68
344.93	905.32
345.30	926.38
345.67	934.34
346.04	948.62
346.42	951.43
346.79	963.83
347.16	959.15
347.54	968.28
347.91	971.09
348.28	989.11
348.65	993.09
349.03	1004.09
349.40	1010.64
349.77	1013.22
350.14	1022.11
350.52	1039.20
350.89	1051.60
351.26	1063.54
351.63	1080.39
352.01	1077.35
352.38	1072.67
352.75	1069.16
353.12	1061.43
353.50	1060.26
353.87	1060.50
354.24	1064.24
354.61	1064.71
354.98	1074.77
355.36	1072.20
355.73	1072.90
356.10	1082.73
356.47	1092.80
356.84	1090.69
357.22	1086.94
357.59	1096.31
357.96	1095.14
358.33	1092.80
358.70	1092.80
359.08	1102.86
359.45	1100.75
359.82	1093.03
360.19	1085.77
360.56	1080.16
360.94	1078.05
361.31	1072.67
361.68	1070.09
362.05	1073.60
362.42	1082.26
362.79	1077.11
363.16	1073.84
363.54	1077.35
363.91	1070.09
364.28	1067.52
364.65	1062.84
365.02	1057.69
365.39	1060.96
365.76	1067.28
366.14	1057.92
366.51	1067.05
366.88	1067.75
367.25	1059.33
367.62	1067.75
367.99	1073.84
368.36	1076.88
368.73	1075.01
369.10	1083.90
369.48	1066.11
369.85	1057.45
370.22	1051.37
370.59	1056.75
370.96	1049.50
371.33	1052.77
371.70	1063.31
372.07	1059.56
372.44	1056.28
372.81	1069.86
373.18	1073.60
373.55	1086.94
373.93	1086.71
374.30	1083.67
374.67	1071.26
375.04	1071.50
375.41	1047.39
375.78	1049.03
376.15	1054.88
376.52	1053.24
376.89	1058.62
377.26	1071.50
377.63	1073.60
378.00	1071.73
378.37	1074.31
378.74	1078.05
379.11	1078.52
379.48	1078.05
379.85	1082.03
380.22	1084.84
380.59	1080.63
380.96	1067.75
381.33	1072.20
381.70	1064.24
382.07	1056.99
382.44	1061.67
382.81	1070.09
383.18	1077.11
383.55	1081.80
383.92	1088.35
384.29	1077.35
384.66	1077.35
385.03	1060.03
385.40	1063.31
385.77	1067.28
386.14	1068.69
386.51	1070.80
386.88	1075.48
387.25	1085.31
387.62	1078.99
387.99	1070.80
388.36	1051.13
388.73	1062.84
389.10	1047.16
389.46	1062.14
389.83	1076.18
390.20	1089.99
390.57	1084.37
390.94	1097.01
391.31	1084.60
391.68	1082.26
392.05	1085.31
392.42	1078.28
392.79	1072.20
393.16	1061.67
393.53	1053.48
393.89	1047.62
394.26	1057.45
394.63	1069.16
395.00	1083.43
395.37	1080.86
395.74	1084.37
396.11	1068.69
396.48	1049.73
396.84	1043.18
397.21	1049.03
397.58	1049.96
397.95	1059.56
398.32	1070.09
398.69	1075.01
399.06	1077.35
399.42	1087.65
399.79	1089.05
400.16	1079.92
400.53	1079.69
400.90	1082.73
401.27	1073.84
401.64	1077.35
402.00	1094.20
402.37	1089.05
402.74	1086.48
403.11	1095.37
403.48	1085.31
403.84	1075.01
404.21	1079.92
404.58	1086.01
404.95	1078.05
405.32	1082.26
405.68	1088.12
406.05	1087.18
406.42	1091.39
406.79	1086.01
407.16	1083.67
407.52	1076.18
407.89	1069.39
408.26	1058.86
408.63	1071.26
408.99	1071.97
409.36	1078.28
409.73	1079.46
410.10	1085.07
410.47	1078.75
410.83	1083.20
411.20	1065.41
411.57	1071.03
411.94	1067.28
412.30	1067.52
412.67	1062.60
413.04	1071.50
413.40	1072.90
413.77	1072.43
414.14	1077.35
414.51	1085.07
414.87	1087.18
415.24	1075.01
415.61	1070.33
415.97	1062.14
416.34	1060.26
416.71	1063.31
417.08	1068.45
417.44	1086.71
417.81	1083.20
418.18	1081.80
418.54	1086.01
418.91	1100.29
419.28	1090.92
419.64	1090.46
420.01	1086.24
420.38	1084.37
420.74	1078.05
421.11	1062.14
421.48	1072.20
421.84	1064.71
422.21	1062.84
422.58	1048.56
422.94	1057.45
423.31	1052.30
423.68	1056.99
424.04	1063.54
424.41	1069.16
424.77	1068.92
425.14	1069.16
425.51	1071.50
425.87	1071.73
426.24	1076.65
426.61	1079.92
426.97	1076.88
427.34	1079.69
427.70	1070.56
428.07	1067.99
428.44	1067.52
428.80	1069.86
429.17	1066.58
429.53	1061.20
429.90	1065.65
430.27	1056.99
430.63	1065.65
431.00	1077.11
431.36	1080.16
431.73	1068.69
432.09	1077.58
432.46	1069.39
432.83	1059.56
433.19	1071.26
433.56	1085.31
433.92	1082.03
434.29	1082.03
434.65	1083.67
435.02	1078.28
435.38	1075.71
435.75	1079.92
436.11	1076.65
436.48	1078.75
436.84	1079.22
437.21	1077.11
437.57	1067.28
437.94	1069.86
438.30	1069.62
438.67	1068.45
439.03	1074.77
439.40	1085.31
439.76	1086.24
440.13	1089.29
440.49	1087.18
440.86	1076.41
441.22	1069.39
441.59	1074.77
441.95	1067.05
442.32	1064.48
442.68	1064.48
443.05	1074.77
443.41	1061.67
443.78	1063.07
444.14	1063.77
444.51	1063.31
444.87	1060.03
445.24	1071.03
445.60	1074.54
445.96	1074.31
446.33	1079.69
446.69	1076.88
447.06	1070.80
447.42	1064.24
447.79	1071.26
448.15	1070.09
448.51	1076.41
448.88	1081.09
449.24	1086.94
449.61	1084.60
449.97	1079.92
450.33	1083.20
450.70	1078.52
451.06	1078.05
451.43	1066.11
451.79	1062.84
452.15	1051.84
452.52	1051.37
452.88	1042.24
453.24	1052.30
453.61	1055.82
453.97	1053.24
454.34	1054.41
454.70	1054.41
455.06	1056.28
455.43	1060.50
455.79	1066.58
456.15	1065.18
456.52	1075.94
456.88	1080.86
457.24	1081.09
457.61	1080.39
457.97	1083.20
458.33	1074.54
458.70	1061.90
459.06	1055.58
459.42	1063.07
459.79	1069.62
460.15	1075.71
460.51	1074.54
460.88	1078.05
461.24	1064.48
461.60	1050.67
461.96	1049.50
462.33	1057.45
462.69	1050.67
463.05	1054.88
463.42	1059.56
463.78	1053.48
464.14	1049.03
464.50	1062.84
464.87	1059.33
465.23	1061.43
465.59	1071.97
465.95	1082.50
466.32	1089.29
466.68	1091.86
467.04	1098.18
467.40	1095.37
467.77	1093.73
468.13	1086.71
468.49	1091.86
468.85	1090.22
469.22	1096.07
469.58	1093.26
469.94	1083.90
470.30	1088.12
470.66	1082.26
471.03	1082.03
471.39	1081.56
471.75	1092.56
472.11	1081.56
472.47	1074.31
472.84	1068.45
473.20	1057.92
473.56	1057.69
473.92	1068.45
474.28	1081.56
474.65	1087.18
475.01	1098.88
475.37	1089.52
475.73	1093.73
476.09	1090.46
476.45	1091.16
476.81	1080.16
477.18	1083.67
477.54	1072.67
477.90	1066.58
478.26	1058.62
478.62	1071.26
478.98	1071.26
479.34	1061.90
479.71	1070.80
480.07	1074.77
480.43	1064.24
480.79	1061.43
481.15	1067.28
481.51	1062.14
481.87	1056.99
482.23	1058.16
482.59	1071.03
482.96	1076.41
483.32	1076.18
483.68	1071.03
484.04	1074.54
484.40	1060.96
484.76	1061.90
485.12	1061.90
485.48	1064.24
485.84	1070.56
486.20	1068.69
486.56	1064.24
486.92	1062.60
487.28	1065.18
487.64	1053.01
488.00	1066.82
488.37	1065.65
488.73	1071.50
489.09	1069.16
489.45	1076.88
489.81	1074.77
490.17	1083.43
490.53	1074.77
490.89	1078.28
491.25	1072.43
491.61	1066.82
491.97	1063.77
492.33	1071.03
492.69	1078.52
493.05	1085.54
493.41	1082.97
493.77	1082.73
494.13	1090.46
494.49	1093.73
494.85	1096.54
495.21	1097.24
495.57	1092.09
495.93	1077.11
496.29	1064.01
496.64	1058.16
497.00	1067.75
497.36	1071.26
497.72	1087.18
498.08	1097.24
498.44	1100.75
498.80	1090.92
499.16	1092.33
499.52	1087.88
499.88	1086.94
500.24	1082.50
500.60	1087.65
500.96	1086.71
501.32	1079.46
501.68	1079.22
502.03	1086.71
502.39	1080.86
502.75	1076.18
503.11	1074.54
503.47	1065.18
503.83	1057.45
504.19	1055.11
504.55	1064.24
504.91	1063.54
505.26	1073.37
505.62	1073.14
505.98	1077.35
506.34	1080.39
506.70	1082.26
507.06	1082.73
507.42	1090.92
507.78	1104.26
508.13	1094.90
508.49	1099.35
508.85	1099.58
509.21	1096.31
509.57	1081.56
509.93	1086.48
510.28	1086.48
510.64	1081.09
511.00	1078.99
511.36	1089.29
511.72	1095.37
512.07	1089.75
512.43	1096.31
512.79	1093.50
513.15	1089.52
513.51	1076.88
513.86	1091.16
514.22	1081.80
514.58	1083.43
514.94	1079.22
515.30	1079.46
515.65	1068.92
516.01	1070.33
516.37	1075.01
516.73	1075.94
517.08	1085.07
517.44	1087.65
517.80	1088.58
518.16	1085.54
518.51	1081.56
518.87	1078.05
519.23	1079.22
519.59	1081.09
519.94	1078.52
520.30	1077.82
520.66	1079.46
521.01	1085.31
521.37	1076.41
521.73	1078.05
522.09	1082.03
522.44	1075.48
522.80	1063.54
523.16	1066.82
523.51	1068.22
523.87	1071.26
524.23	1069.39
524.58	1070.56
524.94	1074.54
525.30	1076.65
525.65	1073.14
526.01	1089.05
526.37	1096.54
526.72	1109.88
527.08	1110.58
527.44	1118.54
527.79	1108.01
528.15	1105.20
528.51	1087.65
528.86	1095.37
529.22	1088.12
529.58	1090.92
529.93	1088.35
530.29	1090.22
530.65	1086.01
531.00	1086.94
531.36	1085.54
531.71	1088.58
532.07	1087.41
532.43	1086.94
532.78	1094.90
533.14	1102.39
533.49	1094.90
533.85	1099.58
534.21	1096.07
534.56	1087.88
534.92	1089.99
535.27	1098.88
535.63	1098.65
535.98	1090.69
536.34	1096.54
536.69	1087.88
537.05	1080.16
537.41	1080.39
537.76	1086.48
538.12	1086.24
538.47	1089.75
538.83	1098.65
539.18	1096.78
539.54	1099.82
539.89	1098.88
540.25	1094.90
540.60	1084.60
540.96	1089.99
541.31	1086.48
541.67	1078.52
542.02	1076.41
542.38	1084.84
542.73	1075.71
543.09	1077.58
543.44	1088.35
543.80	1097.71
544.15	1101.22
544.51	1102.63
544.86	1100.75
545.22	1093.97
545.57	1079.46
545.93	1069.39
546.28	1075.24
546.64	1078.28
546.99	1080.39
547.35	1089.75
547.70	1096.07
548.05	1089.75
548.41	1098.41
548.76	1092.09
549.12	1091.86
549.47	1091.39
549.83	1089.99
550.18	1087.65
550.53	1081.80
550.89	1075.71
551.24	1067.99
551.60	1070.56
551.95	1055.58
552.30	1067.75
552.66	1066.35
553.01	1076.88
553.37	1081.56
553.72	1086.24
554.07	1091.86
554.43	1091.39
554.78	1078.75
555.13	1067.52
555.49	1070.80
555.84	1062.84
556.19	1069.16
556.55	1084.37
556.90	1102.39
557.26	1098.65
557.61	1091.39
557.96	1089.52
558.32	1089.52
558.67	1080.86
559.02	1080.16
559.37	1091.39
559.73	1091.39
560.08	1084.14
560.43	1077.35
560.79	1081.33
561.14	1081.09
561.49	1078.05
561.85	1093.50
562.20	1102.86
562.55	1108.95
562.90	1104.03
563.26	1108.24
563.61	1089.52
563.96	1093.03
564.32	1074.07
564.67	1082.50
565.02	1085.07
565.37	1095.14
565.73	1088.82
566.08	1099.82
566.43	1092.80
566.78	1080.63
567.14	1082.26
567.49	1076.18
567.84	1080.86
568.19	1080.16
568.54	1093.50
568.90	1080.39
569.25	1089.52
569.60	1083.20
569.95	1074.31
570.31	1065.88
570.66	1070.80
571.01	1071.97
571.36	1075.71
571.71	1086.24
572.06	1090.92
572.42	1092.33
572.77	1092.33
573.12	1089.75
573.47	1087.18
573.82	1086.48
574.18	1081.09
574.53	1076.41
574.88	1073.37
575.23	1077.58
575.58	1070.80
575.93	1070.56
576.28	1080.16
576.64	1086.48
576.99	1081.09
577.34	1097.48
577.69	1111.99
578.04	1102.63
578.39	1095.60
578.74	1096.78
579.09	1080.86
579.44	1079.92
579.80	1084.37
580.15	1090.92
580.50	1084.84
580.85	1091.86
581.20	1078.05
581.55	1071.26
581.90	1065.18
582.25	1073.60
582.60	1064.94
582.95	1069.86
583.30	1067.28
583.65	1071.97
584.00	1071.03
584.35	1083.67
584.71	1078.75
585.06	1086.01
585.41	1085.54
585.76	1085.77
586.11	1080.16
586.46	1079.46
586.81	1073.37
587.16	1074.07
587.51	1067.52
587.86	1069.86
588.21	1064.94
588.56	1068.22
588.91	1070.80
589.26	1070.80
589.61	1074.31
589.96	1086.94
590.31	1092.80
590.66	1082.26
591.01	1085.54
591.36	1082.03
591.71	1075.01
592.06	1067.75
592.41	1077.11
592.76	1080.86
593.10	1081.09
593.45	1083.67
593.80	1087.18
594.15	1084.37
594.50	1081.56
594.85	1077.58
595.20	1078.99
595.55	1074.31
595.90	1076.41
596.25	1073.37
596.60	1079.46
596.95	1086.48
597.30	1092.09
597.64	1144.05
597.99	1147.10
598.34	1137.03
598.69	1133.52
599.04	1131.88
599.39	1078.52
599.74	1083.20
600.09	1086.24
600.44	1085.77
600.78	1086.94
601.13	1080.63
601.48	1075.48
601.83	1075.24
602.18	1072.43
602.53	1071.97
602.88	1080.16
603.22	1091.39
603.57	1093.26
603.92	1099.12
604.27	1097.95
604.62	1087.41
604.97	1072.67
605.31	1065.65
605.66	1065.41
606.01	1060.73
606.36	1069.62
606.71	1077.11
607.05	1088.82
607.40	1077.82
607.75	1088.82
608.10	1082.50
608.44	1077.82
608.79	1071.03
609.14	1079.22
609.49	1075.24
609.84	1084.14
610.18	1091.86
610.53	1094.67
610.88	1097.95
611.23	1097.95
611.57	1093.26
611.92	1092.09
612.27	1095.14
612.62	1093.03
612.96	1089.05
613.31	1097.24
613.66	1098.41
614.00	1098.18
614.35	1086.24
614.70	1089.52
615.05	1078.28
615.39	1083.90
615.74	1081.80
616.09	1093.97
616.43	1089.29
616.78	1093.73
617.13	1083.43
617.47	1071.26
617.82	1066.35
618.17	1070.80
618.51	1071.73
618.86	1069.39
619.21	1080.39
619.55	1082.73
619.90	1085.31
620.25	1084.60
620.59	1088.35
620.94	1079.92
621.29	1082.03
621.63	1074.77
621.98	1071.97
622.32	1074.07
622.67	1084.84
623.02	1081.80
623.36	1085.77
623.71	1091.16
624.05	1077.82
624.40	1078.28
624.75	1080.39
625.09	1075.24
625.44	1068.69
625.78	1082.26
626.13	1074.77
626.48	1076.41
626.82	1078.52
627.17	1071.97
627.51	1058.39
627.86	1069.86
628.20	1059.33
628.55	1069.86
628.89	1086.94
629.24	1098.41
629.58	1093.73
629.93	1095.60
630.28	1086.48
630.62	1080.39
630.97	1075.94
631.31	1083.67
631.66	1089.29
632.00	1100.29
632.35	1102.86
632.69	1105.44
633.04	1094.43
633.38	1089.52
633.73	1085.31
634.07	1071.03
634.42	1069.62
634.76	1070.33
635.11	1071.73
635.45	1060.73
635.79	1078.28
636.14	1076.65
636.48	1080.16
636.83	1079.69
637.17	1082.73
637.52	1076.65
637.86	1079.92
638.21	1079.92
638.55	1084.14
638.89	1082.97
639.24	1076.18
639.58	1070.56
639.93	1068.45
640.27	1059.56
640.61	1058.86
640.96	1065.65
641.30	1068.45
641.65	1072.20
641.99	1072.90
642.33	1079.22
642.68	1067.52
643.02	1069.62
643.37	1060.03
643.71	1064.71
644.05	1066.35
644.40	1084.14
644.74	1084.37
645.08	1093.26
645.43	1094.67
645.77	1089.52
646.11	1081.33
646.46	1079.69
646.80	1074.54
647.14	1078.75
647.49	1085.77
647.83	1093.50
648.17	1098.41
648.52	1096.78
648.86	1091.63
649.20	1093.26
649.55	1090.22
649.89	1079.46
650.23	1085.07
650.57	1097.48
650.92	1086.71
651.26	1088.58
651.60	1089.29
651.95	1090.69
652.29	1082.73
652.63	1082.03
652.97	1080.39
653.32	1088.35
653.66	1084.14
654.00	1082.97
654.34	1093.26
654.69	1090.46
655.03	1084.14
655.37	1090.22
655.71	1082.97
656.05	1079.22
656.40	1084.60
656.74	1087.18
657.08	1088.12
657.42	1098.41
657.76	1091.39
658.11	1078.99
658.45	1080.16
658.79	1067.99
659.13	1065.41
659.47	1071.97
659.82	1071.97
660.16	1075.71
660.50	1070.56
660.84	1067.28
661.18	1062.14
661.52	1073.60
661.87	1067.99
662.21	1083.67
662.55	1075.24
662.89	1080.63
663.23	1075.94
663.57	1084.84
663.91	1089.52
664.25	1099.12
664.60	1100.05
664.94	1099.12
665.28	1099.12
665.62	1090.46
665.96	1089.99
666.30	1085.31
666.64	1087.88
666.98	1088.82
667.32	1088.12
667.66	1084.14
668.01	1087.65
668.35	1080.16
668.69	1079.46
669.03	1075.71
669.37	1070.80
669.71	1059.56
670.05	1069.62
670.39	1066.82
670.73	1066.35
671.07	1073.37
671.41	1074.54
671.75	1064.24
672.09	1059.56
672.43	1067.05
672.77	1079.46
673.11	1081.56
673.45	1078.99
673.79	1079.22
674.13	1072.67
674.47	1067.28
674.81	1072.67
675.15	1093.50
675.49	1092.56
675.83	1097.48
676.17	1093.50
676.51	1094.20
676.85	1082.50
677.19	1084.37
677.53	1083.43
677.87	1085.07
678.21	1084.14
678.55	1085.31
678.89	1092.09
679.23	1086.48
679.57	1083.43
679.90	1079.46
680.24	1071.26
680.58	1067.75
680.92	1076.88
681.26	1077.35
681.60	1082.03
681.94	1084.84
682.28	1083.20
682.62	1083.43
682.96	1086.01
683.29	1088.12
683.63	1091.86
683.97	1085.07
684.31	1092.33
684.65	1093.50
684.99	1087.18
685.33	1087.41
685.67	1087.88
686.00	1077.35
686.34	1076.41
686.68	1088.12
687.02	1087.65
687.36	1097.01
687.70	1095.37
688.03	1086.71
688.37	1078.75
688.71	1075.94
689.05	1063.31
689.39	1067.75
689.72	1072.67
690.06	1071.97
690.40	1072.43
690.74	1084.84
691.08	1079.46
691.41	1078.28
691.75	1081.56
692.09	1089.52
692.43	1090.69
692.76	1098.65
693.10	1099.35
693.44	1095.84
693.78	1089.29
694.11	1082.26
694.45	1071.26
694.79	1066.35
695.13	1070.33
695.46	1066.58
695.80	1065.41
696.14	1064.01
696.48	1066.82
696.81	1060.50
697.15	1061.90
697.49	1069.39
697.82	1082.50
698.16	1080.63
698.50	1093.73
698.83	1105.20
699.17	1097.71
699.51	1088.12
699.84	1087.18
700.18	1079.69
700.52	1072.67
700.85	1081.33
701.19	1082.97
701.53	1088.82
701.86	1081.80
702.20	1085.54
702.54	1085.07
702.87	1087.88
703.21	1089.05
703.55	1098.18
703.88	1093.50
704.22	1077.35
704.55	1075.48
704.89	1074.31
705.23	1071.73
705.56	1075.48
705.90	1081.33
706.23	1082.03
706.57	1083.67
706.91	1089.75
707.24	1082.73
707.58	1084.37
707.91	1084.14
708.25	1090.46
708.58	1082.97
708.92	1081.56
709.26	1076.65
709.59	1075.94
709.93	1065.88
710.26	1056.28
710.60	1055.58
710.93	1058.62
711.27	1053.24
711.60	1056.05
711.94	1063.07
712.27	1066.35
712.61	1063.77
712.94	1062.14
713.28	1062.14
713.61	1071.50
713.95	1076.41
714.28	1090.92
714.62	1100.99
714.95	1095.60
715.29	1093.73
715.62	1080.39
715.96	1073.14
716.29	1065.65
716.63	1069.16
716.96	1060.96
717.29	1065.65
717.63	1059.56
717.96	1060.50
718.30	1060.73
718.63	1071.97
718.97	1072.67
719.30	1076.88
719.63	1082.50
719.97	1074.31
720.30	1073.37
720.64	1080.86
720.97	1084.60
721.30	1085.31
721.64	1096.54
721.97	1092.56
722.31	1087.88
722.64	1085.54
722.97	1086.01
723.31	1080.39
723.64	1084.60
723.97	1087.18
724.31	1091.16
724.64	1088.82
724.98	1091.16
725.31	1078.28
725.64	1081.56
725.98	1081.33
726.31	1079.22
726.64	1086.01
726.97	1088.58
727.31	1084.37
727.64	1081.09
727.97	1080.63
728.31	1075.24
728.64	1081.33
728.97	1083.20
729.31	1076.41
729.64	1078.05
729.97	1075.71
730.30	1074.31
730.64	1078.05
730.97	1084.84
731.30	1084.84
731.63	1091.86
731.97	1079.46
732.30	1089.29
732.63	1089.75
732.96	1087.18
733.30	1084.60
733.63	1091.63
733.96	1079.69
734.29	1078.52
734.63	1079.46
734.96	1078.05
735.29	1084.84
735.62	1075.01
735.95	1077.82
736.29	1085.54
736.62	1086.48
736.95	1089.29
737.28	1100.52
737.61	1099.58
737.94	1098.41
738.28	1098.65
738.61	1100.75
738.94	1101.92
739.27	1112.46
739.60	1100.75
739.93	1097.71
740.27	1084.37
740.60	1075.01
740.93	1057.92
741.26	1067.05
741.59	1068.22
741.92	1075.01
742.25	1073.14
742.58	1078.05
742.91	1077.82
743.25	1077.82
743.58	1073.14
743.91	1078.05
744.24	1070.09
744.57	1067.28
744.90	1071.97
745.23	1069.16
745.56	1064.71
745.89	1078.99
746.22	1078.75
746.55	1078.99
746.88	1083.67
747.21	1082.97
747.54	1075.71
747.87	1073.37
748.20	1078.75
748.53	1082.03
748.87	1087.88
749.20	1094.20
749.53	1089.52
749.86	1076.88
750.19	1077.35
750.52	1069.16
750.85	1064.01
751.18	1071.50
751.51	1072.43
751.84	1065.41
752.16	1079.46
752.49	1086.71
752.82	1084.60
753.15	1092.33
753.48	1104.73
753.81	1104.73
754.14	1096.07
754.47	1104.26
754.80	1099.82
755.13	1097.71
755.46	1090.92
755.79	1106.84
756.12	1103.56
756.45	1093.97
756.78	1085.77
757.11	1084.84
757.43	1067.05
757.76	1072.67
758.09	1077.58
758.42	1091.16
758.75	1091.63
759.08	1098.18
759.41	1092.09
759.74	1101.22
760.07	1097.24
760.39	1103.33
760.72	1095.14
761.05	1096.07
761.38	1092.80
761.71	1080.86
762.04	1073.14
762.36	1083.20
762.69	1079.69
763.02	1079.46
763.35	1088.82
763.68	1095.37
764.01	1086.01
764.33	1090.46
764.66	1091.39
764.99	1079.22
765.32	1071.73
765.65	1074.54
765.97	1070.09
766.30	1069.62
