SpectraSuite Data File
++++++++++++++++++++++++++++++++++++
Date: Mon Aug 26 10:25:46 PDT 2019
User: corrico
Dark Spectrum Present: No
Reference Spectrum Present: No
Number of Sampled Component Spectra: 1
Spectrometers: USB2+H06089
Integration Time (usec): 10000 (USB2+H06089)
Spectra Averaged: 2 (USB2+H06089)
Boxcar Smoothing: 2 (USB2+H06089)
Correct for Electrical Dark: No (USB2+H06089)
Strobe/Lamp Enabled: No (USB2+H06089)
Correct for Detector Non-linearity: No (USB2+H06089)
Correct for Stray Light: No (USB2+H06089)
Number of Pixels in Processed Spectrum: 2048
>>>>>Begin Processed Spectral Data<<<<<
339.70	1073.14
340.07	1073.14
340.45	1024.92
340.82	992.62
341.19	960.09
341.57	924.28
341.94	906.02
342.31	899.00
342.69	892.91
343.06	888.70
343.43	886.83
343.81	897.60
344.18	896.89
344.55	902.28
344.93	906.96
345.30	914.68
345.67	920.53
346.04	935.28
346.42	947.45
346.79	950.02
347.16	967.58
347.54	972.26
347.91	970.15
348.28	979.75
348.65	994.03
349.03	1002.92
349.40	1012.05
349.77	1021.41
350.14	1020.71
350.52	1023.05
350.89	1022.11
351.26	1030.30
351.63	1041.77
352.01	1058.86
352.38	1066.82
352.75	1068.45
353.12	1067.05
353.50	1070.33
353.87	1056.99
354.24	1057.92
354.61	1057.45
354.98	1059.79
355.36	1061.20
355.73	1075.24
356.10	1084.60
356.47	1092.09
356.84	1090.22
357.22	1086.71
357.59	1079.46
357.96	1065.65
358.33	1062.14
358.70	1070.56
359.08	1074.77
359.45	1079.92
359.82	1087.88
360.19	1087.18
360.56	1071.73
360.94	1063.77
361.31	1054.65
361.68	1053.71
362.05	1060.73
362.42	1072.20
362.79	1075.71
363.16	1075.48
363.54	1074.31
363.91	1065.41
364.28	1059.56
364.65	1059.09
365.02	1063.54
365.39	1064.48
365.76	1071.26
366.14	1075.01
366.51	1073.84
366.88	1077.35
367.25	1081.33
367.62	1067.75
367.99	1056.75
368.36	1060.26
368.73	1051.13
369.10	1049.50
369.48	1056.75
369.85	1054.88
370.22	1049.26
370.59	1059.09
370.96	1055.35
371.33	1058.39
371.70	1068.69
372.07	1064.48
372.44	1063.07
372.81	1056.05
373.18	1057.92
373.55	1058.86
373.93	1062.14
374.30	1049.50
374.67	1051.84
375.04	1047.39
375.41	1049.96
375.78	1056.99
376.15	1058.62
376.52	1064.01
376.89	1071.73
377.26	1065.88
377.63	1060.50
378.00	1067.99
378.37	1072.67
378.74	1066.58
379.11	1070.56
379.48	1078.05
379.85	1078.99
380.22	1080.39
380.59	1076.18
380.96	1075.71
381.33	1064.94
381.70	1060.50
382.07	1057.22
382.44	1059.33
382.81	1059.33
383.18	1068.92
383.55	1073.14
383.92	1070.09
384.29	1075.71
384.66	1082.50
385.03	1089.75
385.40	1088.58
385.77	1084.60
386.14	1077.58
386.51	1067.75
386.88	1056.99
387.25	1059.56
387.62	1068.45
387.99	1074.07
388.36	1081.33
388.73	1078.28
389.10	1085.07
389.46	1081.09
389.83	1082.73
390.20	1082.97
390.57	1083.43
390.94	1077.11
391.31	1082.03
391.68	1075.01
392.05	1075.48
392.42	1079.92
392.79	1084.14
393.16	1076.88
393.53	1081.80
393.89	1074.31
394.26	1070.80
394.63	1053.01
395.00	1055.35
395.37	1050.90
395.74	1062.37
396.11	1068.69
396.48	1082.03
396.84	1088.35
397.21	1092.33
397.58	1076.18
397.95	1065.18
398.32	1064.01
398.69	1048.79
399.06	1043.18
399.42	1046.45
399.79	1059.56
400.16	1065.18
400.53	1070.80
400.90	1070.80
401.27	1083.43
401.64	1085.77
402.00	1083.43
402.37	1089.05
402.74	1096.07
403.11	1092.56
403.48	1088.12
403.84	1083.67
404.21	1084.60
404.58	1082.73
404.95	1082.97
405.32	1074.77
405.68	1071.73
406.05	1068.92
406.42	1066.58
406.79	1065.18
407.16	1065.18
407.52	1074.54
407.89	1074.07
408.26	1070.09
408.63	1060.03
408.99	1069.39
409.36	1054.88
409.73	1054.18
410.10	1062.84
410.47	1069.39
410.83	1069.16
411.20	1079.22
411.57	1081.33
411.94	1079.22
412.30	1078.05
412.67	1076.41
413.04	1080.39
413.40	1083.67
413.77	1081.80
414.14	1082.97
414.51	1076.41
414.87	1076.41
415.24	1078.28
415.61	1074.77
415.97	1089.29
416.34	1092.09
416.71	1085.07
417.08	1081.33
417.44	1084.84
417.81	1074.54
418.18	1073.37
418.54	1070.09
418.91	1064.71
419.28	1065.41
419.64	1053.94
420.01	1058.39
420.38	1056.52
420.74	1057.22
421.11	1064.94
421.48	1075.48
421.84	1070.09
422.21	1077.11
422.58	1071.73
422.94	1062.60
423.31	1053.71
423.68	1057.92
424.04	1052.54
424.41	1062.37
424.77	1063.77
425.14	1075.94
425.51	1068.22
425.87	1066.35
426.24	1068.45
426.61	1061.67
426.97	1049.73
427.34	1057.45
427.70	1061.67
428.07	1059.09
428.44	1066.82
428.80	1059.33
429.17	1060.96
429.53	1068.45
429.90	1066.11
430.27	1057.22
430.63	1080.39
431.00	1078.52
431.36	1082.03
431.73	1082.26
432.09	1083.43
432.46	1077.11
432.83	1086.24
433.19	1089.99
433.56	1091.16
433.92	1092.56
434.29	1098.65
434.65	1082.73
435.02	1074.54
435.38	1077.82
435.75	1086.94
436.11	1074.77
436.48	1087.18
436.84	1088.35
437.21	1078.05
437.57	1069.16
437.94	1078.52
438.30	1076.18
438.67	1082.73
439.03	1085.07
439.40	1094.67
439.76	1079.46
440.13	1072.90
440.49	1064.24
440.86	1065.88
441.22	1064.71
441.59	1074.77
441.95	1081.09
442.32	1073.84
442.68	1068.92
443.05	1068.45
443.41	1079.46
443.78	1067.52
444.14	1082.03
444.51	1102.39
444.87	1096.78
445.24	1082.26
445.60	1081.09
445.96	1063.77
446.33	1059.79
446.69	1064.01
447.06	1070.80
447.42	1081.33
447.79	1080.39
448.15	1075.01
448.51	1070.09
448.88	1071.50
449.24	1068.22
449.61	1079.46
449.97	1074.07
450.33	1075.71
450.70	1068.22
451.06	1063.77
451.43	1063.54
451.79	1058.86
452.15	1055.11
452.52	1064.01
452.88	1079.69
453.24	1083.90
453.61	1090.46
453.97	1093.50
454.34	1090.92
454.70	1081.56
455.06	1086.01
455.43	1089.29
455.79	1096.54
456.15	1094.67
456.52	1097.01
456.88	1087.88
457.24	1084.84
457.61	1080.16
457.97	1074.77
458.33	1075.94
458.70	1078.99
459.06	1086.71
459.42	1084.37
459.79	1089.52
460.15	1077.35
460.51	1078.75
460.88	1075.01
461.24	1073.60
461.60	1082.03
461.96	1091.39
462.33	1091.86
462.69	1090.92
463.05	1092.56
463.42	1082.03
463.78	1084.60
464.14	1071.97
464.50	1073.14
464.87	1074.77
465.23	1075.71
465.59	1071.03
465.95	1078.52
466.32	1078.99
466.68	1075.71
467.04	1070.33
467.40	1074.54
467.77	1077.82
468.13	1078.99
468.49	1079.22
468.85	1086.24
469.22	1091.86
469.58	1093.97
469.94	1089.75
470.30	1094.90
470.66	1094.90
471.03	1096.07
471.39	1091.86
471.75	1085.54
472.11	1092.80
472.47	1090.22
472.84	1079.22
473.20	1077.35
473.56	1085.54
473.92	1080.63
474.28	1080.39
474.65	1085.31
475.01	1089.75
475.37	1093.26
475.73	1086.24
476.09	1080.39
476.45	1075.71
476.81	1072.67
477.18	1074.07
477.54	1080.16
477.90	1089.05
478.26	1091.39
478.62	1089.75
478.98	1085.54
479.34	1078.99
479.71	1065.41
480.07	1061.43
480.43	1058.39
480.79	1060.26
481.15	1063.77
481.51	1064.94
481.87	1075.48
482.23	1075.01
482.59	1077.58
482.96	1085.07
483.32	1093.97
483.68	1090.92
484.04	1093.26
484.40	1097.95
484.76	1101.22
485.12	1106.61
485.48	1089.75
485.84	1090.22
486.20	1076.88
486.56	1060.26
486.92	1062.14
487.28	1080.16
487.64	1086.48
488.00	1092.56
488.37	1104.50
488.73	1096.54
489.09	1095.14
489.45	1090.92
489.81	1084.60
490.17	1077.35
490.53	1078.28
490.89	1071.26
491.25	1074.54
491.61	1081.09
491.97	1091.39
492.33	1093.73
492.69	1099.12
493.05	1098.41
493.41	1095.37
493.77	1086.71
494.13	1082.50
494.49	1075.01
494.85	1081.56
495.21	1081.80
495.57	1088.35
495.93	1087.65
496.29	1091.63
496.64	1077.82
497.00	1073.60
497.36	1065.18
497.72	1075.24
498.08	1084.60
498.44	1088.58
498.80	1089.05
499.16	1090.69
499.52	1082.73
499.88	1064.71
500.24	1070.33
500.60	1077.11
500.96	1073.84
501.32	1078.28
501.68	1087.18
502.03	1076.41
502.39	1074.07
502.75	1067.99
503.11	1065.18
503.47	1072.43
503.83	1082.97
504.19	1082.50
504.55	1092.56
504.91	1089.52
505.26	1085.54
505.62	1083.90
505.98	1085.54
506.34	1097.48
506.70	1097.24
507.06	1097.01
507.42	1094.20
507.78	1089.52
508.13	1081.09
508.49	1093.50
508.85	1082.50
509.21	1084.84
509.57	1090.92
509.93	1080.39
510.28	1078.05
510.64	1089.99
511.00	1078.75
511.36	1075.94
511.72	1081.33
512.07	1080.86
512.43	1079.22
512.79	1092.80
513.15	1097.24
513.51	1101.69
513.86	1097.95
514.22	1097.01
514.58	1095.37
514.94	1081.09
515.30	1074.54
515.65	1068.92
516.01	1056.99
516.37	1058.39
516.73	1070.09
517.08	1075.48
517.44	1085.07
517.80	1099.82
518.16	1096.78
518.51	1083.43
518.87	1084.37
519.23	1079.69
519.59	1083.43
519.94	1083.90
520.30	1095.84
520.66	1098.41
521.01	1090.46
521.37	1081.80
521.73	1086.48
522.09	1084.14
522.44	1078.28
522.80	1087.18
523.16	1094.43
523.51	1089.52
523.87	1091.86
524.23	1092.09
524.58	1096.07
524.94	1084.37
525.30	1092.33
525.65	1088.82
526.01	1090.22
526.37	1087.41
526.72	1099.35
527.08	1086.71
527.44	1088.35
527.79	1089.99
528.15	1092.33
528.51	1087.41
528.86	1091.16
529.22	1089.52
529.58	1087.65
529.93	1085.77
530.29	1075.71
530.65	1081.09
531.00	1086.94
531.36	1080.86
531.71	1075.71
532.07	1087.18
532.43	1087.65
532.78	1081.80
533.14	1092.33
533.49	1093.97
533.85	1091.39
534.21	1083.90
534.56	1078.28
534.92	1075.71
535.27	1074.54
535.63	1073.84
535.98	1081.09
536.34	1095.37
536.69	1091.63
537.05	1085.07
537.41	1086.94
537.76	1071.50
538.12	1074.31
538.47	1079.46
538.83	1087.88
539.18	1081.56
539.54	1089.99
539.89	1080.16
540.25	1067.05
540.60	1068.92
540.96	1075.71
541.31	1078.52
541.67	1086.01
542.02	1100.05
542.38	1098.65
542.73	1105.67
543.09	1108.24
543.44	1096.78
543.80	1090.46
544.15	1091.39
544.51	1087.65
544.86	1089.75
545.22	1093.26
545.57	1089.99
545.93	1095.84
546.28	1090.46
546.64	1087.18
546.99	1087.18
547.35	1097.71
547.70	1092.09
548.05	1093.26
548.41	1086.24
548.76	1087.88
549.12	1077.82
549.47	1072.90
549.83	1072.20
550.18	1075.48
550.53	1072.90
550.89	1078.05
551.24	1083.43
551.60	1086.94
551.95	1084.14
552.30	1085.77
552.66	1080.16
553.01	1074.54
553.37	1066.82
553.72	1071.26
554.07	1067.99
554.43	1075.01
554.78	1082.73
555.13	1084.14
555.49	1083.67
555.84	1085.54
556.19	1081.09
556.55	1067.52
556.90	1083.90
557.26	1079.92
557.61	1078.28
557.96	1083.67
558.32	1091.39
558.67	1074.07
559.02	1070.09
559.37	1074.54
559.73	1076.41
560.08	1074.31
560.43	1077.35
560.79	1079.22
561.14	1079.92
561.49	1078.28
561.85	1073.37
562.20	1070.80
562.55	1070.33
562.90	1064.71
563.26	1064.71
563.61	1071.73
563.96	1081.33
564.32	1086.94
564.67	1093.97
565.02	1102.63
565.37	1097.01
565.73	1091.63
566.08	1101.46
566.43	1096.31
566.78	1072.90
567.14	1076.65
567.49	1077.58
567.84	1066.82
568.19	1067.05
568.54	1082.97
568.90	1088.12
569.25	1090.69
569.60	1096.07
569.95	1088.58
570.31	1086.94
570.66	1087.65
571.01	1082.73
571.36	1080.16
571.71	1084.60
572.06	1082.97
572.42	1076.41
572.77	1073.60
573.12	1074.77
573.47	1078.28
573.82	1069.16
574.18	1073.84
574.53	1077.11
574.88	1079.92
575.23	1078.28
575.58	1084.14
575.93	1096.78
576.28	1098.65
576.64	1100.75
576.99	1107.54
577.34	1111.75
577.69	1101.22
578.04	1096.78
578.39	1084.84
578.74	1088.58
579.09	1078.52
579.44	1079.22
579.80	1079.46
580.15	1088.12
580.50	1076.41
580.85	1087.41
581.20	1082.03
581.55	1086.48
581.90	1088.12
582.25	1091.86
582.60	1094.43
582.95	1095.14
583.30	1091.39
583.65	1084.37
584.00	1083.43
584.35	1072.43
584.71	1082.26
585.06	1084.37
585.41	1089.52
585.76	1089.29
586.11	1099.12
586.46	1089.05
586.81	1090.22
587.16	1092.56
587.51	1092.09
587.86	1090.92
588.21	1093.03
588.56	1097.71
588.91	1092.33
589.26	1086.71
589.61	1076.88
589.96	1074.31
590.31	1074.07
590.66	1071.97
591.01	1079.69
591.36	1087.88
591.71	1094.20
592.06	1091.16
592.41	1097.24
592.76	1088.12
593.10	1072.90
593.45	1072.90
593.80	1070.33
594.15	1061.43
594.50	1064.71
594.85	1078.99
595.20	1075.71
595.55	1069.39
595.90	1083.20
596.25	1091.86
596.60	1091.39
596.95	1087.88
597.30	1093.97
597.64	1134.69
597.99	1130.01
598.34	1134.46
598.69	1141.01
599.04	1141.95
599.39	1086.94
599.74	1080.63
600.09	1069.86
600.44	1069.39
600.78	1069.62
601.13	1075.01
601.48	1074.77
601.83	1076.41
602.18	1077.35
602.53	1078.99
602.88	1075.71
603.22	1086.94
603.57	1096.54
603.92	1093.26
604.27	1083.67
604.62	1077.82
604.97	1077.82
605.31	1074.31
605.66	1066.58
606.01	1075.94
606.36	1082.73
606.71	1083.20
607.05	1083.90
607.40	1094.90
607.75	1095.60
608.10	1101.46
608.44	1095.60
608.79	1098.18
609.14	1096.31
609.49	1091.39
609.84	1083.20
610.18	1092.33
610.53	1091.63
610.88	1089.29
611.23	1097.95
611.57	1098.88
611.92	1089.29
612.27	1092.09
612.62	1093.50
612.96	1088.58
613.31	1100.29
613.66	1094.90
614.00	1090.92
614.35	1093.73
614.70	1092.33
615.05	1078.28
615.39	1085.54
615.74	1077.82
616.09	1060.03
616.43	1058.62
616.78	1064.71
617.13	1071.97
617.47	1079.69
617.82	1093.73
618.17	1095.37
618.51	1095.37
618.86	1092.33
619.21	1092.09
619.55	1086.24
619.90	1094.90
620.25	1095.37
620.59	1090.69
620.94	1084.84
621.29	1091.16
621.63	1086.94
621.98	1083.20
622.32	1085.54
622.67	1089.99
623.02	1091.39
623.36	1092.09
623.71	1093.73
624.05	1092.56
624.40	1082.03
624.75	1067.52
625.09	1063.77
625.44	1061.90
625.78	1062.60
626.13	1070.09
626.48	1073.37
626.82	1064.71
627.17	1069.62
627.51	1071.73
627.86	1071.73
628.20	1077.35
628.55	1083.43
628.89	1079.22
629.24	1076.88
629.58	1082.97
629.93	1081.80
630.28	1089.75
630.62	1092.33
630.97	1090.22
631.31	1092.56
631.66	1091.39
632.00	1090.22
632.35	1083.43
632.69	1082.26
633.04	1088.58
633.38	1094.67
633.73	1075.24
634.07	1083.90
634.42	1088.35
634.76	1072.67
635.11	1073.84
635.45	1086.48
635.79	1075.71
636.14	1075.94
636.48	1070.56
636.83	1067.05
637.17	1060.73
637.52	1070.56
637.86	1067.52
638.21	1072.90
638.55	1072.67
638.89	1080.63
639.24	1082.97
639.58	1086.48
639.93	1089.29
640.27	1084.60
640.61	1084.60
640.96	1079.46
641.30	1068.92
641.65	1066.58
641.99	1073.60
642.33	1068.45
642.68	1069.39
643.02	1072.20
643.37	1062.60
643.71	1058.39
644.05	1062.14
644.40	1059.09
644.74	1063.07
645.08	1078.05
645.43	1074.54
645.77	1068.92
646.11	1073.60
646.46	1069.16
646.80	1060.03
647.14	1069.16
647.49	1066.35
647.83	1064.71
648.17	1067.75
648.52	1076.18
648.86	1078.75
649.20	1089.75
649.55	1089.29
649.89	1100.05
650.23	1101.46
650.57	1093.26
650.92	1092.56
651.26	1089.75
651.60	1077.11
651.95	1071.03
652.29	1076.65
652.63	1074.07
652.97	1075.48
653.32	1071.97
653.66	1082.03
654.00	1086.94
654.34	1085.54
654.69	1086.71
655.03	1105.67
655.37	1096.07
655.71	1086.24
656.05	1095.37
656.40	1090.69
656.74	1072.67
657.08	1065.41
657.42	1061.43
657.76	1056.28
658.11	1063.07
658.45	1069.86
658.79	1074.77
659.13	1083.67
659.47	1081.80
659.82	1068.92
660.16	1075.94
660.50	1083.67
660.84	1073.60
661.18	1074.77
661.52	1089.05
661.87	1076.18
662.21	1071.50
662.55	1081.80
662.89	1081.56
663.23	1081.80
663.57	1080.86
663.91	1083.20
664.25	1092.33
664.60	1102.86
664.94	1102.39
665.28	1109.41
665.62	1105.20
665.96	1088.82
666.30	1077.82
666.64	1079.92
666.98	1075.24
667.32	1082.97
667.66	1086.01
668.01	1085.07
668.35	1079.69
668.69	1089.52
669.03	1088.12
669.37	1093.97
669.71	1093.97
670.05	1097.48
670.39	1097.95
670.73	1101.46
671.07	1087.41
671.41	1085.31
671.75	1083.90
672.09	1081.56
672.43	1075.01
672.77	1086.24
673.11	1078.99
673.45	1067.52
673.79	1065.65
674.13	1062.60
674.47	1058.16
674.81	1062.37
675.15	1065.88
675.49	1062.84
675.83	1067.75
676.17	1076.65
676.51	1078.99
676.85	1093.73
677.19	1095.14
677.53	1092.56
677.87	1090.69
678.21	1090.92
678.55	1085.77
678.89	1092.56
679.23	1093.50
679.57	1083.90
679.90	1089.75
680.24	1083.67
680.58	1072.90
680.92	1080.63
681.26	1090.69
681.60	1085.07
681.94	1085.77
682.28	1093.50
682.62	1089.99
682.96	1077.58
683.29	1076.18
683.63	1075.01
683.97	1062.60
684.31	1057.69
684.65	1064.71
684.99	1073.84
685.33	1079.22
685.67	1081.33
686.00	1079.92
686.34	1083.90
686.68	1077.11
687.02	1061.43
687.36	1070.33
687.70	1070.56
688.03	1071.03
688.37	1073.60
688.71	1075.71
689.05	1073.37
689.39	1071.50
689.72	1074.31
690.06	1070.56
690.40	1087.65
690.74	1092.80
691.08	1099.58
691.41	1089.29
691.75	1097.24
692.09	1094.20
692.43	1088.58
692.76	1086.24
693.10	1083.67
693.44	1070.33
693.78	1067.99
694.11	1069.39
694.45	1056.99
694.79	1053.01
695.13	1072.67
695.46	1067.28
695.80	1068.69
696.14	1073.60
696.48	1086.01
696.81	1073.37
697.15	1082.50
697.49	1076.65
697.82	1078.99
698.16	1076.41
698.50	1074.07
698.83	1068.69
699.17	1070.09
699.51	1073.14
699.84	1082.50
700.18	1090.69
700.52	1086.94
700.85	1089.52
701.19	1090.92
701.53	1073.60
701.86	1072.67
702.20	1075.48
702.54	1073.60
702.87	1071.50
703.21	1081.09
703.55	1079.69
703.88	1084.60
704.22	1086.48
704.55	1094.43
704.89	1094.67
705.23	1100.05
705.56	1093.50
705.90	1096.54
706.23	1089.52
706.57	1081.56
706.91	1065.88
707.24	1080.86
707.58	1088.58
707.91	1089.75
708.25	1096.31
708.58	1105.20
708.92	1088.82
709.26	1084.60
709.59	1085.31
709.93	1079.46
710.26	1083.43
710.60	1091.39
710.93	1088.58
711.27	1092.80
711.60	1097.24
711.94	1089.05
712.27	1080.86
712.61	1077.11
712.94	1071.97
713.28	1071.73
713.61	1069.16
713.95	1078.52
714.28	1078.28
714.62	1074.07
714.95	1070.80
715.29	1082.50
715.62	1080.16
715.96	1086.01
716.29	1092.33
716.63	1101.69
716.96	1096.78
717.29	1096.78
717.63	1097.71
717.96	1100.99
718.30	1111.52
718.63	1109.65
718.97	1110.58
719.30	1111.52
719.63	1111.05
719.97	1097.71
720.30	1108.01
720.64	1100.99
720.97	1090.92
721.30	1072.90
721.64	1059.56
721.97	1050.90
722.31	1056.99
722.64	1061.67
722.97	1074.07
723.31	1088.35
723.64	1085.77
723.97	1083.67
724.31	1075.71
724.64	1080.16
724.98	1087.88
725.31	1097.01
725.64	1098.18
725.98	1105.90
726.31	1102.39
726.64	1086.94
726.97	1083.43
727.31	1084.84
727.64	1081.33
727.97	1081.09
728.31	1081.33
728.64	1074.54
728.97	1076.18
729.31	1076.41
729.64	1068.69
729.97	1074.31
730.30	1077.58
730.64	1073.37
730.97	1081.09
731.30	1087.65
731.63	1083.20
731.97	1076.41
732.30	1071.03
732.63	1069.16
732.96	1072.43
733.30	1069.62
733.63	1075.71
733.96	1086.94
734.29	1079.46
734.63	1076.18
734.96	1088.35
735.29	1085.54
735.62	1087.41
735.95	1084.37
736.29	1084.14
736.62	1068.22
736.95	1065.41
737.28	1061.67
737.61	1062.14
737.94	1060.50
738.28	1060.03
738.61	1071.73
738.94	1062.84
739.27	1079.69
739.60	1085.77
739.93	1090.46
740.27	1083.90
740.60	1094.67
740.93	1086.48
741.26	1082.97
741.59	1081.33
741.92	1086.48
742.25	1078.28
742.58	1074.54
742.91	1083.43
743.25	1083.90
743.58	1077.58
743.91	1087.88
744.24	1093.50
744.57	1092.09
744.90	1100.05
745.23	1099.12
745.56	1096.07
745.89	1088.12
746.22	1079.22
746.55	1078.52
746.88	1078.52
747.21	1072.90
747.54	1079.69
747.87	1085.77
748.20	1082.97
748.53	1089.29
748.87	1081.56
749.20	1072.67
749.53	1067.05
749.86	1068.69
750.19	1065.88
750.52	1066.35
750.85	1067.99
751.18	1069.62
751.51	1062.37
751.84	1054.41
752.16	1068.92
752.49	1072.20
752.82	1074.54
753.15	1085.31
753.48	1092.80
753.81	1097.95
754.14	1091.86
754.47	1083.43
754.80	1071.26
755.13	1066.35
755.46	1053.94
755.79	1053.71
756.12	1054.18
756.45	1054.88
756.78	1057.22
757.11	1060.03
757.43	1061.67
757.76	1073.60
758.09	1076.65
758.42	1078.05
758.75	1075.01
759.08	1076.18
759.41	1063.31
759.74	1064.01
760.07	1063.07
760.39	1060.96
760.72	1063.31
761.05	1060.50
761.38	1066.82
761.71	1070.09
762.04	1076.88
762.36	1084.14
762.69	1098.18
763.02	1093.50
763.35	1092.56
763.68	1085.77
764.01	1076.18
764.33	1073.14
764.66	1075.71
764.99	1077.82
765.32	1082.73
765.65	1085.07
765.97	1086.94
766.30	1084.37
