SpectraSuite Data File
++++++++++++++++++++++++++++++++++++
Date: Mon Aug 26 10:25:45 PDT 2019
User: corrico
Dark Spectrum Present: No
Reference Spectrum Present: No
Number of Sampled Component Spectra: 1
Spectrometers: USB2+H06089
Integration Time (usec): 10000 (USB2+H06089)
Spectra Averaged: 2 (USB2+H06089)
Boxcar Smoothing: 2 (USB2+H06089)
Correct for Electrical Dark: No (USB2+H06089)
Strobe/Lamp Enabled: No (USB2+H06089)
Correct for Detector Non-linearity: No (USB2+H06089)
Correct for Stray Light: No (USB2+H06089)
Number of Pixels in Processed Spectrum: 2048
>>>>>Begin Processed Spectral Data<<<<<
339.70	1046.22
340.07	1046.22
340.45	999.64
340.82	972.49
341.19	943.47
341.57	919.60
341.94	911.40
342.31	902.74
342.69	894.55
343.06	892.45
343.43	883.08
343.81	887.53
344.18	897.60
344.55	906.49
344.93	909.77
345.30	914.45
345.67	906.96
346.04	916.79
346.42	924.28
346.79	943.24
347.16	953.77
347.54	983.02
347.91	983.26
348.28	992.62
348.65	998.47
349.03	1008.30
349.40	1003.15
349.77	1023.52
350.14	1029.13
350.52	1036.39
350.89	1038.50
351.26	1051.60
351.63	1049.26
352.01	1057.69
352.38	1053.24
352.75	1063.54
353.12	1065.65
353.50	1062.84
353.87	1068.22
354.24	1074.31
354.61	1073.84
354.98	1069.86
355.36	1067.99
355.73	1066.35
356.10	1064.24
356.47	1062.60
356.84	1059.33
357.22	1056.75
357.59	1055.11
357.96	1052.54
358.33	1049.73
358.70	1045.75
359.08	1053.48
359.45	1050.90
359.82	1053.24
360.19	1061.67
360.56	1075.01
360.94	1075.48
361.31	1075.71
361.68	1077.35
362.05	1066.35
362.42	1056.52
362.79	1061.43
363.16	1064.24
363.54	1053.24
363.91	1062.60
364.28	1066.11
364.65	1057.45
365.02	1065.41
365.39	1073.60
365.76	1070.09
366.14	1073.37
366.51	1082.73
366.88	1075.24
367.25	1071.73
367.62	1068.92
367.99	1062.84
368.36	1060.73
368.73	1058.86
369.10	1066.82
369.48	1077.82
369.85	1082.97
370.22	1080.86
370.59	1088.12
370.96	1085.77
371.33	1076.88
371.70	1075.94
372.07	1076.88
372.44	1065.65
372.81	1071.03
373.18	1075.48
373.55	1077.35
373.93	1070.33
374.30	1071.73
374.67	1061.20
375.04	1055.58
375.41	1052.77
375.78	1062.14
376.15	1071.97
376.52	1075.01
376.89	1088.35
377.26	1091.86
377.63	1094.43
378.00	1088.12
378.37	1092.80
378.74	1087.88
379.11	1069.62
379.48	1067.05
379.85	1072.67
380.22	1067.99
380.59	1058.62
380.96	1073.37
381.33	1073.14
381.70	1064.01
382.07	1071.26
382.44	1067.52
382.81	1063.31
383.18	1051.84
383.55	1059.09
383.92	1049.73
384.29	1070.33
384.66	1070.33
385.03	1076.18
385.40	1065.41
385.77	1059.79
386.14	1043.88
386.51	1050.43
386.88	1054.88
387.25	1067.28
387.62	1071.26
387.99	1076.41
388.36	1071.26
388.73	1071.97
389.10	1065.88
389.46	1065.41
389.83	1052.77
390.20	1059.56
390.57	1051.37
390.94	1054.18
391.31	1057.45
391.68	1075.01
392.05	1075.24
392.42	1074.54
392.79	1082.26
393.16	1084.84
393.53	1082.03
393.89	1078.05
394.26	1083.43
394.63	1071.50
395.00	1069.86
395.37	1068.92
395.74	1075.94
396.11	1072.43
396.48	1069.16
396.84	1071.26
397.21	1069.62
397.58	1054.18
397.95	1058.62
398.32	1063.07
398.69	1067.75
399.06	1073.37
399.42	1080.63
399.79	1077.35
400.16	1077.82
400.53	1073.84
400.90	1060.03
401.27	1060.50
401.64	1058.86
402.00	1067.75
402.37	1065.18
402.74	1073.37
403.11	1079.92
403.48	1095.14
403.84	1085.54
404.21	1083.90
404.58	1084.37
404.95	1069.86
405.32	1060.73
405.68	1057.45
406.05	1056.05
406.42	1051.37
406.79	1055.82
407.16	1054.88
407.52	1055.82
407.89	1058.86
408.26	1057.45
408.63	1056.05
408.99	1053.24
409.36	1051.37
409.73	1055.82
410.10	1064.24
410.47	1074.77
410.83	1077.58
411.20	1081.80
411.57	1076.18
411.94	1075.01
412.30	1072.20
412.67	1067.52
413.04	1064.94
413.40	1072.67
413.77	1072.43
414.14	1066.82
414.51	1067.75
414.87	1064.24
415.24	1068.45
415.61	1061.43
415.97	1068.69
416.34	1071.50
416.71	1073.60
417.08	1060.73
417.44	1070.56
417.81	1074.54
418.18	1064.24
418.54	1066.11
418.91	1077.82
419.28	1083.20
419.64	1079.92
420.01	1084.14
420.38	1086.94
420.74	1085.07
421.11	1082.97
421.48	1076.88
421.84	1083.67
422.21	1077.82
422.58	1065.18
422.94	1060.03
423.31	1067.28
423.68	1067.75
424.04	1073.37
424.41	1086.94
424.77	1081.33
425.14	1084.60
425.51	1084.37
425.87	1085.07
426.24	1081.33
426.61	1086.71
426.97	1079.69
427.34	1076.65
427.70	1071.50
428.07	1073.37
428.44	1075.48
428.80	1076.65
429.17	1072.20
429.53	1075.01
429.90	1076.18
430.27	1077.11
430.63	1070.33
431.00	1076.88
431.36	1079.92
431.73	1069.39
432.09	1065.18
432.46	1072.67
432.83	1074.31
433.19	1078.28
433.56	1092.33
433.92	1088.35
434.29	1074.07
434.65	1070.09
435.02	1069.39
435.38	1055.11
435.75	1062.37
436.11	1077.35
436.48	1076.65
436.84	1071.73
437.21	1081.56
437.57	1074.54
437.94	1071.03
438.30	1068.69
438.67	1065.18
439.03	1067.52
439.40	1070.56
439.76	1083.67
440.13	1089.52
440.49	1091.16
440.86	1070.80
441.22	1075.48
441.59	1061.20
441.95	1058.86
442.32	1058.62
442.68	1066.35
443.05	1061.67
443.41	1063.31
443.78	1063.31
444.14	1057.92
444.51	1059.33
444.87	1061.90
445.24	1048.79
445.60	1055.35
445.96	1060.73
446.33	1061.43
446.69	1054.41
447.06	1068.69
447.42	1064.94
447.79	1067.75
448.15	1072.67
448.51	1077.82
448.88	1076.18
449.24	1075.71
449.61	1067.28
449.97	1070.80
450.33	1069.86
450.70	1067.28
451.06	1067.75
451.43	1073.60
451.79	1068.22
452.15	1065.65
452.52	1066.11
452.88	1062.60
453.24	1061.43
453.61	1063.77
453.97	1072.67
454.34	1079.69
454.70	1083.67
455.06	1088.35
455.43	1090.69
455.79	1087.18
456.15	1085.54
456.52	1076.41
456.88	1083.20
457.24	1086.94
457.61	1091.63
457.97	1088.58
458.33	1094.67
458.70	1083.20
459.06	1075.48
459.42	1066.58
459.79	1056.52
460.15	1058.62
460.51	1062.60
460.88	1057.92
461.24	1065.88
461.60	1083.43
461.96	1087.88
462.33	1088.58
462.69	1097.01
463.05	1092.80
463.42	1080.86
463.78	1072.67
464.14	1073.14
464.50	1069.86
464.87	1061.67
465.23	1058.16
465.59	1061.90
465.95	1054.88
466.32	1057.45
466.68	1068.69
467.04	1082.26
467.40	1093.03
467.77	1091.86
468.13	1092.33
468.49	1080.63
468.85	1071.97
469.22	1060.96
469.58	1068.22
469.94	1069.39
470.30	1078.99
470.66	1077.58
471.03	1070.33
471.39	1066.58
471.75	1060.03
472.11	1060.50
472.47	1062.84
472.84	1075.01
473.20	1083.43
473.56	1086.48
473.92	1078.28
474.28	1079.22
474.65	1071.26
475.01	1075.48
475.37	1074.31
475.73	1076.88
476.09	1070.56
476.45	1075.01
476.81	1075.94
477.18	1078.75
477.54	1088.82
477.90	1100.29
478.26	1099.58
478.62	1085.31
478.98	1088.12
479.34	1082.26
479.71	1077.11
480.07	1075.94
480.43	1077.11
480.79	1075.24
481.15	1069.86
481.51	1070.33
481.87	1080.16
482.23	1083.20
482.59	1078.75
482.96	1097.01
483.32	1097.24
483.68	1088.82
484.04	1086.94
484.40	1077.82
484.76	1072.43
485.12	1069.62
485.48	1074.31
485.84	1079.69
486.20	1089.99
486.56	1092.09
486.92	1100.52
487.28	1099.82
487.64	1098.18
488.00	1094.20
488.37	1084.84
488.73	1076.18
489.09	1070.80
489.45	1071.73
489.81	1073.60
490.17	1070.56
490.53	1072.20
490.89	1066.82
491.25	1065.65
491.61	1064.24
491.97	1058.86
492.33	1063.07
492.69	1063.54
493.05	1058.62
493.41	1064.01
493.77	1070.09
494.13	1071.97
494.49	1077.58
494.85	1081.80
495.21	1076.65
495.57	1077.35
495.93	1085.31
496.29	1094.43
496.64	1090.69
497.00	1103.56
497.36	1110.82
497.72	1101.69
498.08	1087.88
498.44	1081.56
498.80	1072.20
499.16	1065.18
499.52	1072.43
499.88	1076.65
500.24	1084.60
500.60	1076.18
500.96	1075.94
501.32	1068.22
501.68	1069.86
502.03	1073.60
502.39	1079.46
502.75	1077.82
503.11	1074.07
503.47	1070.33
503.83	1066.82
504.19	1065.88
504.55	1071.73
504.91	1073.84
505.26	1075.71
505.62	1084.84
505.98	1090.46
506.34	1085.77
506.70	1079.92
507.06	1085.31
507.42	1080.16
507.78	1079.69
508.13	1084.60
508.49	1093.73
508.85	1097.24
509.21	1096.78
509.57	1098.41
509.93	1096.07
510.28	1089.52
510.64	1079.46
511.00	1079.22
511.36	1080.63
511.72	1082.26
512.07	1090.92
512.43	1098.88
512.79	1095.14
513.15	1086.48
513.51	1087.65
513.86	1091.86
514.22	1090.22
514.58	1104.97
514.94	1099.82
515.30	1098.88
515.65	1092.56
516.01	1088.82
516.37	1076.88
516.73	1094.43
517.08	1094.67
517.44	1086.24
517.80	1083.43
518.16	1085.54
518.51	1078.05
518.87	1063.07
519.23	1070.56
519.59	1083.43
519.94	1088.82
520.30	1098.88
520.66	1117.14
521.01	1121.58
521.37	1112.92
521.73	1098.41
522.09	1086.24
522.44	1085.77
522.80	1082.97
523.16	1080.63
523.51	1088.35
523.87	1084.60
524.23	1078.28
524.58	1083.43
524.94	1089.05
525.30	1082.26
525.65	1082.50
526.01	1080.39
526.37	1067.28
526.72	1054.41
527.08	1059.33
527.44	1057.69
527.79	1058.62
528.15	1064.01
528.51	1071.03
528.86	1067.75
529.22	1070.80
529.58	1064.48
529.93	1063.07
530.29	1071.03
530.65	1077.82
531.00	1076.41
531.36	1089.99
531.71	1094.20
532.07	1087.65
532.43	1082.03
532.78	1086.48
533.14	1085.54
533.49	1082.26
533.85	1090.92
534.21	1084.14
534.56	1082.97
534.92	1082.73
535.27	1082.03
535.63	1068.45
535.98	1082.26
536.34	1080.86
536.69	1086.94
537.05	1094.20
537.41	1098.41
537.76	1091.16
538.12	1101.69
538.47	1086.71
538.83	1081.33
539.18	1082.50
539.54	1088.58
539.89	1079.92
540.25	1085.07
540.60	1080.86
540.96	1081.33
541.31	1075.94
541.67	1079.22
542.02	1079.46
542.38	1085.77
542.73	1089.75
543.09	1099.58
543.44	1100.75
543.80	1101.46
544.15	1098.88
544.51	1093.26
544.86	1085.54
545.22	1078.99
545.57	1074.31
545.93	1071.50
546.28	1073.84
546.64	1079.69
546.99	1084.84
547.35	1085.07
547.70	1091.63
548.05	1086.48
548.41	1078.99
548.76	1075.24
549.12	1079.46
549.47	1073.14
549.83	1072.67
550.18	1069.39
550.53	1069.86
550.89	1068.92
551.24	1070.80
551.60	1072.90
551.95	1082.97
552.30	1082.97
552.66	1087.41
553.01	1088.82
553.37	1097.95
553.72	1088.12
554.07	1095.84
554.43	1088.12
554.78	1090.69
555.13	1084.14
555.49	1086.48
555.84	1087.88
556.19	1077.58
556.55	1074.31
556.90	1077.82
557.26	1078.99
557.61	1066.82
557.96	1078.05
558.32	1078.28
558.67	1077.82
559.02	1074.07
559.37	1077.58
559.73	1077.58
560.08	1078.99
560.43	1083.20
560.79	1089.99
561.14	1093.97
561.49	1095.14
561.85	1089.99
562.20	1076.41
562.55	1072.67
562.90	1082.26
563.26	1078.99
563.61	1075.48
563.96	1078.05
564.32	1075.01
564.67	1062.14
565.02	1064.48
565.37	1067.05
565.73	1067.99
566.08	1081.09
566.43	1082.97
566.78	1090.22
567.14	1090.92
567.49	1104.03
567.84	1093.73
568.19	1085.54
568.54	1077.58
568.90	1083.90
569.25	1074.54
569.60	1077.11
569.95	1089.75
570.31	1092.09
570.66	1086.71
571.01	1083.90
571.36	1090.46
571.71	1092.80
572.06	1083.67
572.42	1081.33
572.77	1073.84
573.12	1057.45
573.47	1046.69
573.82	1059.56
574.18	1064.24
574.53	1067.05
574.88	1078.05
575.23	1086.48
575.58	1078.75
575.93	1091.63
576.28	1087.41
576.64	1086.71
576.99	1087.65
577.34	1094.20
577.69	1087.65
578.04	1100.75
578.39	1095.60
578.74	1085.54
579.09	1089.75
579.44	1090.69
579.80	1086.48
580.15	1104.26
580.50	1111.99
580.85	1108.95
581.20	1103.56
581.55	1103.09
581.90	1080.63
582.25	1075.01
582.60	1067.52
582.95	1064.71
583.30	1056.75
583.65	1067.28
584.00	1067.05
584.35	1075.48
584.71	1071.73
585.06	1076.41
585.41	1078.52
585.76	1084.37
586.11	1084.60
586.46	1077.11
586.81	1083.20
587.16	1077.11
587.51	1075.01
587.86	1069.62
588.21	1091.39
588.56	1100.29
588.91	1102.39
589.26	1098.41
589.61	1097.48
589.96	1093.26
590.31	1080.63
590.66	1073.60
591.01	1082.73
591.36	1080.16
591.71	1075.94
592.06	1077.35
592.41	1077.35
592.76	1072.67
593.10	1075.24
593.45	1068.69
593.80	1063.77
594.15	1076.65
594.50	1072.67
594.85	1079.22
595.20	1076.88
595.55	1088.58
595.90	1082.97
596.25	1080.86
596.60	1078.05
596.95	1087.41
597.30	1088.58
597.64	1144.99
597.99	1154.12
598.34	1154.35
598.69	1150.61
599.04	1135.63
599.39	1086.01
599.74	1078.99
600.09	1074.31
600.44	1074.77
600.78	1076.65
601.13	1061.90
601.48	1065.88
601.83	1070.56
602.18	1079.69
602.53	1089.05
602.88	1098.41
603.22	1090.92
603.57	1084.14
603.92	1073.84
604.27	1075.48
604.62	1074.77
604.97	1086.24
605.31	1095.60
605.66	1101.69
606.01	1093.03
606.36	1089.52
606.71	1080.16
607.05	1074.07
607.40	1076.41
607.75	1083.20
608.10	1091.16
608.44	1093.73
608.79	1093.97
609.14	1089.52
609.49	1090.69
609.84	1082.73
610.18	1084.37
610.53	1085.07
610.88	1090.92
611.23	1089.29
611.57	1090.69
611.92	1086.48
612.27	1090.92
612.62	1084.84
612.96	1071.26
613.31	1069.16
613.66	1074.77
614.00	1068.45
614.35	1068.45
614.70	1082.26
615.05	1083.43
615.39	1075.48
615.74	1077.35
616.09	1075.24
616.43	1073.14
616.78	1072.90
617.13	1074.54
617.47	1069.86
617.82	1076.65
618.17	1075.48
618.51	1077.58
618.86	1079.46
619.21	1073.14
619.55	1069.62
619.90	1077.58
620.25	1072.90
620.59	1076.88
620.94	1091.86
621.29	1098.65
621.63	1089.52
621.98	1092.09
622.32	1096.31
622.67	1091.86
623.02	1089.75
623.36	1095.84
623.71	1098.41
624.05	1098.41
624.40	1095.84
624.75	1086.94
625.09	1085.31
625.44	1082.97
625.78	1073.37
626.13	1075.94
626.48	1072.90
626.82	1074.77
627.17	1082.97
627.51	1086.71
627.86	1082.03
628.20	1086.48
628.55	1083.20
628.89	1072.20
629.24	1067.75
629.58	1070.80
629.93	1063.07
630.28	1059.33
630.62	1071.50
630.97	1082.73
631.31	1086.48
631.66	1086.94
632.00	1088.35
632.35	1090.69
632.69	1094.20
633.04	1097.48
633.38	1108.71
633.73	1106.14
634.07	1092.33
634.42	1077.11
634.76	1077.11
635.11	1065.88
635.45	1073.84
635.79	1079.69
636.14	1087.88
636.48	1071.97
636.83	1073.37
637.17	1074.31
637.52	1074.54
637.86	1077.82
638.21	1077.58
638.55	1084.14
638.89	1080.86
639.24	1073.60
639.58	1060.03
639.93	1064.01
640.27	1059.56
640.61	1058.16
640.96	1058.86
641.30	1064.48
641.65	1070.09
641.99	1075.71
642.33	1071.50
642.68	1077.35
643.02	1078.75
643.37	1089.05
643.71	1086.24
644.05	1097.24
644.40	1100.29
644.74	1093.97
645.08	1085.77
645.43	1087.65
645.77	1076.88
646.11	1063.54
646.46	1072.67
646.80	1067.05
647.14	1064.24
647.49	1071.97
647.83	1077.82
648.17	1078.05
648.52	1081.33
648.86	1087.41
649.20	1088.35
649.55	1091.63
649.89	1086.48
650.23	1087.65
650.57	1095.37
650.92	1099.58
651.26	1091.86
651.60	1094.43
651.95	1095.84
652.29	1094.43
652.63	1081.56
652.97	1076.41
653.32	1074.07
653.66	1067.75
654.00	1057.45
654.34	1066.58
654.69	1077.35
655.03	1073.14
655.37	1072.67
655.71	1078.05
656.05	1072.90
656.40	1074.54
656.74	1082.03
657.08	1085.77
657.42	1082.73
657.76	1084.37
658.11	1079.46
658.45	1078.05
658.79	1082.50
659.13	1085.54
659.47	1085.31
659.82	1100.29
660.16	1106.14
660.50	1095.14
660.84	1089.75
661.18	1092.09
661.52	1083.67
661.87	1080.63
662.21	1086.01
662.55	1083.20
662.89	1076.41
663.23	1074.77
663.57	1067.99
663.91	1066.82
664.25	1076.65
664.60	1081.56
664.94	1081.56
665.28	1086.48
665.62	1086.71
665.96	1086.71
666.30	1086.48
666.64	1093.50
666.98	1094.43
667.32	1104.73
667.66	1091.16
668.01	1087.65
668.35	1079.46
668.69	1082.97
669.03	1072.67
669.37	1076.41
669.71	1073.37
670.05	1077.35
670.39	1074.54
670.73	1077.82
671.07	1075.24
671.41	1070.56
671.75	1075.71
672.09	1067.99
672.43	1070.09
672.77	1069.86
673.11	1075.71
673.45	1076.18
673.79	1084.84
674.13	1086.01
674.47	1095.84
674.81	1102.86
675.15	1091.16
675.49	1082.97
675.83	1070.33
676.17	1062.84
676.51	1065.41
676.85	1064.94
677.19	1060.03
677.53	1068.69
677.87	1075.24
678.21	1073.37
678.55	1072.20
678.89	1081.33
679.23	1085.54
679.57	1083.20
679.90	1080.63
680.24	1086.01
680.58	1081.56
680.92	1074.31
681.26	1064.48
681.60	1064.01
681.94	1062.14
682.28	1070.56
682.62	1073.60
682.96	1089.52
683.29	1077.58
683.63	1077.82
683.97	1060.96
684.31	1060.73
684.65	1058.62
684.99	1060.26
685.33	1059.79
685.67	1084.37
686.00	1086.01
686.34	1080.86
686.68	1091.16
687.02	1090.69
687.36	1079.92
687.70	1075.01
688.03	1076.88
688.37	1074.77
688.71	1070.80
689.05	1063.77
689.39	1065.65
689.72	1067.75
690.06	1062.60
690.40	1072.20
690.74	1071.73
691.08	1075.71
691.41	1077.35
691.75	1085.07
692.09	1079.69
692.43	1088.12
692.76	1079.92
693.10	1080.16
693.44	1073.60
693.78	1081.56
694.11	1086.24
694.45	1088.35
694.79	1078.05
695.13	1087.65
695.46	1087.41
695.80	1068.45
696.14	1078.99
696.48	1079.92
696.81	1079.22
697.15	1070.56
697.49	1084.37
697.82	1072.90
698.16	1084.37
698.50	1086.94
698.83	1094.67
699.17	1090.92
699.51	1090.69
699.84	1077.11
700.18	1069.62
700.52	1073.84
700.85	1079.46
701.19	1091.63
701.53	1094.67
701.86	1098.41
702.20	1087.65
702.54	1084.37
702.87	1073.84
703.21	1073.60
703.55	1068.45
703.88	1070.09
704.22	1065.88
704.55	1069.39
704.89	1076.65
705.23	1075.24
705.56	1075.24
705.90	1070.56
706.23	1070.33
706.57	1067.75
706.91	1069.39
707.24	1067.52
707.58	1077.11
707.91	1082.73
708.25	1077.11
708.58	1078.52
708.92	1074.54
709.26	1072.43
709.59	1061.90
709.93	1071.26
710.26	1067.75
710.60	1071.73
710.93	1073.14
711.27	1083.43
711.60	1076.65
711.94	1080.86
712.27	1085.54
712.61	1083.67
712.94	1072.20
713.28	1075.01
713.61	1081.33
713.95	1072.67
714.28	1073.37
714.62	1071.26
714.95	1071.50
715.29	1058.86
715.62	1071.03
715.96	1073.14
716.29	1073.37
716.63	1066.11
716.96	1076.88
717.29	1077.35
717.63	1076.41
717.96	1084.37
718.30	1073.37
718.63	1075.48
718.97	1064.94
719.30	1067.75
719.63	1066.82
719.97	1080.86
720.30	1076.18
720.64	1078.75
720.97	1075.48
721.30	1076.41
721.64	1079.92
721.97	1077.82
722.31	1086.48
722.64	1088.12
722.97	1086.01
723.31	1088.82
723.64	1088.58
723.97	1079.46
724.31	1083.20
724.64	1091.16
724.98	1091.16
725.31	1091.86
725.64	1089.29
725.98	1078.28
726.31	1078.52
726.64	1075.24
726.97	1076.88
727.31	1070.09
727.64	1077.11
727.97	1078.28
728.31	1081.56
728.64	1082.26
728.97	1101.22
729.31	1099.82
729.64	1089.75
729.97	1084.14
730.30	1086.71
730.64	1078.75
730.97	1080.86
731.30	1081.80
731.63	1082.26
731.97	1074.31
732.30	1073.60
732.63	1069.62
732.96	1067.75
733.30	1069.86
733.63	1066.82
733.96	1073.84
734.29	1079.69
734.63	1085.31
734.96	1080.16
735.29	1088.12
735.62	1082.26
735.95	1077.11
736.29	1076.88
736.62	1088.12
736.95	1082.26
737.28	1072.43
737.61	1065.41
737.94	1066.35
738.28	1060.03
738.61	1053.48
738.94	1070.33
739.27	1086.94
739.60	1089.05
739.93	1090.46
740.27	1100.99
740.60	1096.78
740.93	1089.52
741.26	1087.88
741.59	1084.14
741.92	1085.07
742.25	1080.16
742.58	1078.99
742.91	1081.09
743.25	1079.46
743.58	1076.88
743.91	1075.01
744.24	1071.03
744.57	1061.90
744.90	1067.28
745.23	1064.01
745.56	1070.33
745.89	1068.45
746.22	1077.58
746.55	1083.67
746.88	1091.86
747.21	1088.58
747.54	1077.82
747.87	1070.09
748.20	1070.56
748.53	1069.62
748.87	1073.14
749.20	1089.05
749.53	1092.09
749.86	1082.03
750.19	1074.77
750.52	1077.58
750.85	1080.86
751.18	1086.71
751.51	1088.12
751.84	1085.31
752.16	1081.33
752.49	1082.50
752.82	1074.31
753.15	1071.97
753.48	1088.82
753.81	1091.63
754.14	1088.58
754.47	1084.37
754.80	1089.52
755.13	1086.94
755.46	1084.14
755.79	1090.46
756.12	1097.48
756.45	1090.22
756.78	1084.84
757.11	1078.75
757.43	1072.43
757.76	1070.33
758.09	1073.37
758.42	1065.65
758.75	1076.41
759.08	1075.71
759.41	1078.99
759.74	1075.24
760.07	1079.22
760.39	1073.37
760.72	1075.48
761.05	1080.86
761.38	1087.88
761.71	1090.92
762.04	1096.54
762.36	1090.69
762.69	1089.52
763.02	1087.18
763.35	1089.75
763.68	1085.77
764.01	1093.26
764.33	1085.31
764.66	1088.35
764.99	1090.46
765.32	1085.77
765.65	1084.84
765.97	1093.97
766.30	1090.69
