SpectraSuite Data File
++++++++++++++++++++++++++++++++++++
Date: Mon Aug 26 10:25:44 PDT 2019
User: corrico
Dark Spectrum Present: No
Reference Spectrum Present: No
Number of Sampled Component Spectra: 1
Spectrometers: USB2+H06089
Integration Time (usec): 10000 (USB2+H06089)
Spectra Averaged: 2 (USB2+H06089)
Boxcar Smoothing: 2 (USB2+H06089)
Correct for Electrical Dark: No (USB2+H06089)
Strobe/Lamp Enabled: No (USB2+H06089)
Correct for Detector Non-linearity: No (USB2+H06089)
Correct for Stray Light: No (USB2+H06089)
Number of Pixels in Processed Spectrum: 2048
>>>>>Begin Processed Spectral Data<<<<<
339.70	1071.97
340.07	1071.97
340.45	1017.90
340.82	983.26
341.19	952.13
341.57	917.96
341.94	909.30
342.31	896.66
342.69	887.06
343.06	876.30
343.43	881.45
343.81	871.38
344.18	890.11
344.55	901.34
344.93	911.64
345.30	913.98
345.67	934.58
346.04	938.79
346.42	943.70
346.79	955.87
347.16	958.45
347.54	965.00
347.91	970.85
348.28	989.11
348.65	989.81
349.03	1003.86
349.40	1002.22
349.77	1007.60
350.14	1013.69
350.52	1028.20
350.89	1033.81
351.26	1045.75
351.63	1055.58
352.01	1060.50
352.38	1063.07
352.75	1069.39
353.12	1078.75
353.50	1081.33
353.87	1086.24
354.24	1087.65
354.61	1086.94
354.98	1084.84
355.36	1081.80
355.73	1082.97
356.10	1094.67
356.47	1097.01
356.84	1091.63
357.22	1092.33
357.59	1091.39
357.96	1085.77
358.33	1091.63
358.70	1085.07
359.08	1085.54
359.45	1086.01
359.82	1065.65
360.19	1056.05
360.56	1067.05
360.94	1062.37
361.31	1048.56
361.68	1069.39
362.05	1065.41
362.42	1059.33
362.79	1067.05
363.16	1070.09
363.54	1063.77
363.91	1069.16
364.28	1070.56
364.65	1073.60
365.02	1076.88
365.39	1074.77
365.76	1077.11
366.14	1075.94
366.51	1065.41
366.88	1063.54
367.25	1060.50
367.62	1056.05
367.99	1056.52
368.36	1056.05
368.73	1059.56
369.10	1061.67
369.48	1056.99
369.85	1058.16
370.22	1064.24
370.59	1063.54
370.96	1072.20
371.33	1071.97
371.70	1073.14
372.07	1073.60
372.44	1064.01
372.81	1061.67
373.18	1067.28
373.55	1061.90
373.93	1059.79
374.30	1065.41
374.67	1060.96
375.04	1061.90
375.41	1067.75
375.78	1070.56
376.15	1064.01
376.52	1072.43
376.89	1076.65
377.26	1079.46
377.63	1079.46
378.00	1082.73
378.37	1080.86
378.74	1086.24
379.11	1082.97
379.48	1076.88
379.85	1082.26
380.22	1075.94
380.59	1060.26
380.96	1056.52
381.33	1067.05
381.70	1065.18
382.07	1065.41
382.44	1070.56
382.81	1071.50
383.18	1059.33
383.55	1061.20
383.92	1065.88
384.29	1070.56
384.66	1075.48
385.03	1078.75
385.40	1070.09
385.77	1073.60
386.14	1070.09
386.51	1068.69
386.88	1073.37
387.25	1086.94
387.62	1070.33
387.99	1067.05
388.36	1075.71
388.73	1066.11
389.10	1063.07
389.46	1071.97
389.83	1073.14
390.20	1064.71
390.57	1075.01
390.94	1079.46
391.31	1073.84
391.68	1081.33
392.05	1077.11
392.42	1074.31
392.79	1070.80
393.16	1079.92
393.53	1072.20
393.89	1073.60
394.26	1067.75
394.63	1077.35
395.00	1073.84
395.37	1073.84
395.74	1078.52
396.11	1095.14
396.48	1085.54
396.84	1081.56
397.21	1090.46
397.58	1092.33
397.95	1086.71
398.32	1084.60
398.69	1082.73
399.06	1077.11
399.42	1074.77
399.79	1070.56
400.16	1074.07
400.53	1082.73
400.90	1088.35
401.27	1089.29
401.64	1086.94
402.00	1088.12
402.37	1087.18
402.74	1080.63
403.11	1082.26
403.48	1075.01
403.84	1070.33
404.21	1063.31
404.58	1063.07
404.95	1049.73
405.32	1056.28
405.68	1056.05
406.05	1063.77
406.42	1067.99
406.79	1075.24
407.16	1074.31
407.52	1066.11
407.89	1064.71
408.26	1060.73
408.63	1064.71
408.99	1071.26
409.36	1082.03
409.73	1081.09
410.10	1081.09
410.47	1077.11
410.83	1072.67
411.20	1073.14
411.57	1072.90
411.94	1072.67
412.30	1076.88
412.67	1087.41
413.04	1085.07
413.40	1085.07
413.77	1085.77
414.14	1083.20
414.51	1074.31
414.87	1067.28
415.24	1059.79
415.61	1056.05
415.97	1049.03
416.34	1053.24
416.71	1059.33
417.08	1073.14
417.44	1072.67
417.81	1076.41
418.18	1070.09
418.54	1070.56
418.91	1068.22
419.28	1071.97
419.64	1073.37
420.01	1070.33
420.38	1069.86
420.74	1070.09
421.11	1077.35
421.48	1073.84
421.84	1083.20
422.21	1080.63
422.58	1079.46
422.94	1074.77
423.31	1080.86
423.68	1068.69
424.04	1075.94
424.41	1074.07
424.77	1061.67
425.14	1057.92
425.51	1062.84
425.87	1065.18
426.24	1062.60
426.61	1078.75
426.97	1073.14
427.34	1074.77
427.70	1067.05
428.07	1069.86
428.44	1054.41
428.80	1075.24
429.17	1073.60
429.53	1078.75
429.90	1078.52
430.27	1087.65
430.63	1066.82
431.00	1071.50
431.36	1069.62
431.73	1064.01
432.09	1064.71
432.46	1076.18
432.83	1068.22
433.19	1064.01
433.56	1068.92
433.92	1066.35
434.29	1059.56
434.65	1073.14
435.02	1087.18
435.38	1088.82
435.75	1093.73
436.11	1096.07
436.48	1088.12
436.84	1075.48
437.21	1072.90
437.57	1067.75
437.94	1070.56
438.30	1071.03
438.67	1072.67
439.03	1076.18
439.40	1080.86
439.76	1081.80
440.13	1088.12
440.49	1090.69
440.86	1084.37
441.22	1085.31
441.59	1089.52
441.95	1080.63
442.32	1078.05
442.68	1085.31
443.05	1087.88
443.41	1091.86
443.78	1087.88
444.14	1088.12
444.51	1085.54
444.87	1075.24
445.24	1068.69
445.60	1075.71
445.96	1077.58
446.33	1076.88
446.69	1082.26
447.06	1072.20
447.42	1070.33
447.79	1068.92
448.15	1075.94
448.51	1064.01
448.88	1076.18
449.24	1079.69
449.61	1086.24
449.97	1075.24
450.33	1089.05
450.70	1090.92
451.06	1086.71
451.43	1072.67
451.79	1079.46
452.15	1080.39
452.52	1067.05
452.88	1068.69
453.24	1077.58
453.61	1065.18
453.97	1061.90
454.34	1066.35
454.70	1068.69
455.06	1072.20
455.43	1083.43
455.79	1085.77
456.15	1085.07
456.52	1076.88
456.88	1071.03
457.24	1071.73
457.61	1064.94
457.97	1074.31
458.33	1077.58
458.70	1081.56
459.06	1080.16
459.42	1082.26
459.79	1074.77
460.15	1079.92
460.51	1083.43
460.88	1084.14
461.24	1089.52
461.60	1088.58
461.96	1093.73
462.33	1086.71
462.69	1094.20
463.05	1088.12
463.42	1094.90
463.78	1085.77
464.14	1091.39
464.50	1084.60
464.87	1087.18
465.23	1077.82
465.59	1080.16
465.95	1076.88
466.32	1085.07
466.68	1084.60
467.04	1094.43
467.40	1092.33
467.77	1084.37
468.13	1077.35
468.49	1081.56
468.85	1074.54
469.22	1086.01
469.58	1096.31
469.94	1099.12
470.30	1082.26
470.66	1081.56
471.03	1062.60
471.39	1062.14
471.75	1056.28
472.11	1066.35
472.47	1072.67
472.84	1085.54
473.20	1092.56
473.56	1093.03
473.92	1098.18
474.28	1108.48
474.65	1110.12
475.01	1106.84
475.37	1104.50
475.73	1109.18
476.09	1106.37
476.45	1090.69
476.81	1086.71
477.18	1095.84
477.54	1089.29
477.90	1074.77
478.26	1085.54
478.62	1088.82
478.98	1081.56
479.34	1073.84
479.71	1076.18
480.07	1080.63
480.43	1075.01
480.79	1063.31
481.15	1075.94
481.51	1069.16
481.87	1053.48
482.23	1046.22
482.59	1067.52
482.96	1064.24
483.32	1071.50
483.68	1074.77
484.04	1076.41
484.40	1065.65
484.76	1062.60
485.12	1064.71
485.48	1071.73
485.84	1079.69
486.20	1079.69
486.56	1077.11
486.92	1077.35
487.28	1082.97
487.64	1078.05
488.00	1071.97
488.37	1075.01
488.73	1072.67
489.09	1058.16
489.45	1063.77
489.81	1065.18
490.17	1065.65
490.53	1073.14
490.89	1085.77
491.25	1081.80
491.61	1084.14
491.97	1080.86
492.33	1078.05
492.69	1066.35
493.05	1071.03
493.41	1080.63
493.77	1081.33
494.13	1082.03
494.49	1089.75
494.85	1081.56
495.21	1076.65
495.57	1071.26
495.93	1067.28
496.29	1067.28
496.64	1079.92
497.00	1077.35
497.36	1097.71
497.72	1090.46
498.08	1088.35
498.44	1078.99
498.80	1087.41
499.16	1085.77
499.52	1093.03
499.88	1090.92
500.24	1096.54
500.60	1088.58
500.96	1085.54
501.32	1089.29
501.68	1091.63
502.03	1089.29
502.39	1085.07
502.75	1073.84
503.11	1064.48
503.47	1069.16
503.83	1069.86
504.19	1079.22
504.55	1079.92
504.91	1093.03
505.26	1086.01
505.62	1076.65
505.98	1071.97
506.34	1075.01
506.70	1069.62
507.06	1080.63
507.42	1084.14
507.78	1078.52
508.13	1076.88
508.49	1074.77
508.85	1073.84
509.21	1071.97
509.57	1083.90
509.93	1080.39
510.28	1075.01
510.64	1072.90
511.00	1071.50
511.36	1064.48
511.72	1064.71
512.07	1073.84
512.43	1071.03
512.79	1074.54
513.15	1073.37
513.51	1081.33
513.86	1073.37
514.22	1069.39
514.58	1060.50
514.94	1059.33
515.30	1056.99
515.65	1060.26
516.01	1063.54
516.37	1083.20
516.73	1087.65
517.08	1086.01
517.44	1087.18
517.80	1091.16
518.16	1081.33
518.51	1087.18
518.87	1086.01
519.23	1086.71
519.59	1082.03
519.94	1093.50
520.30	1093.97
520.66	1101.46
521.01	1102.16
521.37	1104.50
521.73	1093.97
522.09	1089.75
522.44	1077.82
522.80	1081.56
523.16	1079.46
523.51	1082.50
523.87	1076.88
524.23	1085.31
524.58	1079.69
524.94	1081.56
525.30	1078.28
525.65	1073.84
526.01	1076.65
526.37	1083.90
526.72	1081.80
527.08	1081.56
527.44	1093.50
527.79	1100.99
528.15	1092.56
528.51	1102.63
528.86	1112.92
529.22	1113.39
529.58	1111.99
529.93	1116.20
530.29	1112.69
530.65	1097.01
531.00	1092.80
531.36	1079.69
531.71	1079.22
532.07	1080.16
532.43	1089.29
532.78	1087.18
533.14	1097.01
533.49	1104.26
533.85	1102.63
534.21	1101.22
534.56	1091.86
534.92	1081.09
535.27	1073.37
535.63	1058.62
535.98	1063.07
536.34	1079.92
536.69	1084.14
537.05	1082.97
537.41	1092.33
537.76	1074.54
538.12	1073.84
538.47	1078.75
538.83	1072.20
539.18	1074.31
539.54	1082.26
539.89	1081.56
540.25	1078.05
540.60	1089.05
540.96	1098.18
541.31	1100.52
541.67	1100.05
542.02	1093.73
542.38	1088.35
542.73	1074.77
543.09	1074.54
543.44	1069.86
543.80	1075.71
544.15	1081.80
544.51	1094.20
544.86	1097.01
545.22	1096.31
545.57	1094.20
545.93	1082.50
546.28	1078.28
546.64	1082.50
546.99	1083.20
547.35	1083.20
547.70	1098.41
548.05	1088.35
548.41	1082.73
548.76	1087.65
549.12	1095.84
549.47	1076.88
549.83	1083.90
550.18	1080.63
550.53	1075.48
550.89	1069.16
551.24	1083.67
551.60	1092.80
551.95	1108.48
552.30	1108.71
552.66	1101.46
553.01	1086.01
553.37	1071.26
553.72	1056.05
554.07	1067.75
554.43	1078.75
554.78	1091.86
555.13	1088.35
555.49	1092.80
555.84	1081.33
556.19	1087.41
556.55	1090.69
556.90	1099.35
557.26	1101.22
557.61	1097.71
557.96	1081.09
558.32	1074.07
558.67	1085.07
559.02	1080.86
559.37	1091.63
559.73	1095.37
560.08	1099.82
560.43	1089.52
560.79	1087.41
561.14	1085.07
561.49	1090.92
561.85	1083.20
562.20	1079.92
562.55	1076.41
562.90	1079.46
563.26	1081.33
563.61	1084.60
563.96	1085.54
564.32	1093.97
564.67	1090.22
565.02	1083.67
565.37	1085.07
565.73	1080.16
566.08	1078.52
566.43	1076.18
566.78	1072.20
567.14	1066.82
567.49	1081.80
567.84	1087.18
568.19	1085.54
568.54	1089.75
568.90	1095.37
569.25	1089.75
569.60	1078.52
569.95	1072.67
570.31	1071.26
570.66	1068.92
571.01	1061.67
571.36	1062.60
571.71	1069.86
572.06	1065.18
572.42	1070.09
572.77	1068.22
573.12	1068.92
573.47	1068.45
573.82	1075.94
574.18	1077.11
574.53	1087.18
574.88	1090.69
575.23	1099.35
575.58	1095.60
575.93	1086.48
576.28	1076.18
576.64	1075.94
576.99	1064.48
577.34	1072.67
577.69	1069.86
578.04	1078.05
578.39	1086.48
578.74	1088.12
579.09	1067.05
579.44	1070.09
579.80	1061.90
580.15	1064.71
580.50	1067.99
580.85	1077.11
581.20	1086.01
581.55	1093.97
581.90	1079.46
582.25	1076.18
582.60	1087.65
582.95	1082.26
583.30	1086.48
583.65	1089.75
584.00	1087.41
584.35	1085.07
584.71	1085.54
585.06	1080.86
585.41	1092.09
585.76	1106.14
586.11	1108.24
586.46	1108.48
586.81	1101.69
587.16	1095.84
587.51	1082.97
587.86	1082.97
588.21	1076.88
588.56	1078.05
588.91	1075.24
589.26	1078.52
589.61	1066.35
589.96	1071.50
590.31	1074.77
590.66	1066.58
591.01	1075.71
591.36	1082.26
591.71	1083.90
592.06	1072.43
592.41	1077.82
592.76	1060.96
593.10	1067.52
593.45	1069.39
593.80	1078.05
594.15	1073.14
594.50	1080.63
594.85	1071.26
595.20	1069.62
595.55	1066.11
595.90	1066.58
596.25	1062.37
596.60	1069.62
596.95	1071.73
597.30	1075.48
597.64	1126.73
597.99	1130.01
598.34	1129.78
598.69	1126.73
599.04	1123.69
599.39	1085.07
599.74	1081.80
600.09	1086.24
600.44	1089.29
600.78	1093.03
601.13	1095.37
601.48	1104.50
601.83	1092.09
602.18	1095.60
602.53	1096.78
602.88	1084.60
603.22	1071.97
603.57	1082.50
603.92	1074.77
604.27	1083.43
604.62	1088.58
604.97	1093.03
605.31	1088.58
605.66	1093.97
606.01	1090.69
606.36	1082.73
606.71	1079.92
607.05	1082.03
607.40	1078.28
607.75	1073.37
608.10	1076.88
608.44	1083.43
608.79	1075.94
609.14	1080.86
609.49	1086.94
609.84	1086.71
610.18	1075.01
610.53	1085.54
610.88	1088.82
611.23	1085.54
611.57	1095.84
611.92	1108.24
612.27	1102.16
612.62	1094.90
612.96	1088.35
613.31	1079.69
613.66	1076.88
614.00	1068.69
614.35	1058.62
614.70	1058.16
615.05	1060.03
615.39	1064.94
615.74	1063.07
616.09	1076.18
616.43	1080.63
616.78	1084.84
617.13	1082.03
617.47	1087.88
617.82	1084.37
618.17	1078.52
618.51	1072.20
618.86	1068.45
619.21	1083.20
619.55	1085.31
619.90	1093.26
620.25	1099.12
620.59	1100.99
620.94	1097.24
621.29	1101.46
621.63	1100.05
621.98	1095.14
622.32	1104.03
622.67	1098.65
623.02	1091.39
623.36	1092.56
623.71	1098.41
624.05	1094.20
624.40	1093.50
624.75	1096.31
625.09	1095.84
625.44	1088.12
625.78	1079.92
626.13	1080.86
626.48	1078.52
626.82	1070.09
627.17	1077.11
627.51	1081.09
627.86	1072.67
628.20	1081.09
628.55	1085.31
628.89	1075.71
629.24	1066.58
629.58	1067.99
629.93	1063.77
630.28	1060.96
630.62	1059.09
630.97	1059.79
631.31	1069.62
631.66	1077.35
632.00	1089.05
632.35	1098.88
632.69	1105.90
633.04	1100.52
633.38	1091.16
633.73	1084.14
634.07	1078.28
634.42	1085.31
634.76	1084.37
635.11	1083.20
635.45	1080.86
635.79	1083.43
636.14	1074.54
636.48	1075.01
636.83	1079.92
637.17	1082.73
637.52	1082.26
637.86	1081.56
638.21	1075.71
638.55	1075.48
638.89	1074.07
639.24	1074.54
639.58	1080.63
639.93	1084.37
640.27	1081.33
640.61	1082.50
640.96	1089.52
641.30	1090.69
641.65	1090.46
641.99	1090.69
642.33	1090.69
642.68	1082.97
643.02	1076.88
643.37	1076.88
643.71	1071.26
644.05	1076.41
644.40	1068.45
644.74	1065.18
645.08	1064.48
645.43	1069.39
645.77	1067.05
646.11	1077.35
646.46	1073.60
646.80	1070.80
647.14	1068.45
647.49	1068.45
647.83	1068.45
648.17	1075.24
648.52	1075.24
648.86	1072.67
649.20	1064.94
649.55	1059.09
649.89	1058.16
650.23	1055.11
650.57	1054.41
650.92	1057.92
651.26	1059.09
651.60	1055.11
651.95	1067.52
652.29	1075.71
652.63	1081.09
652.97	1088.35
653.32	1083.20
653.66	1083.43
654.00	1087.18
654.34	1077.35
654.69	1076.65
655.03	1086.48
655.37	1078.99
655.71	1070.80
656.05	1075.24
656.40	1070.33
656.74	1063.07
657.08	1067.75
657.42	1073.84
657.76	1072.67
658.11	1069.39
658.45	1080.39
658.79	1075.94
659.13	1071.26
659.47	1085.07
659.82	1095.84
660.16	1092.56
660.50	1095.60
660.84	1095.37
661.18	1089.75
661.52	1088.35
661.87	1093.50
662.21	1094.20
662.55	1087.41
662.89	1083.67
663.23	1074.77
663.57	1073.37
663.91	1076.88
664.25	1093.50
664.60	1100.29
664.94	1110.58
665.28	1112.46
665.62	1115.50
665.96	1101.69
666.30	1096.78
666.64	1095.84
666.98	1094.67
667.32	1087.88
667.66	1089.52
668.01	1069.62
668.35	1063.77
668.69	1053.71
669.03	1053.94
669.37	1051.13
669.71	1070.80
670.05	1073.84
670.39	1091.63
670.73	1084.84
671.07	1083.90
671.41	1079.69
671.75	1078.28
672.09	1071.03
672.43	1072.43
672.77	1072.67
673.11	1080.39
673.45	1074.31
673.79	1076.18
674.13	1077.11
674.47	1078.28
674.81	1075.94
675.15	1083.20
675.49	1075.71
675.83	1081.09
676.17	1082.97
676.51	1079.92
676.85	1064.94
677.19	1066.82
677.53	1058.16
677.87	1053.01
678.21	1056.52
678.55	1078.28
678.89	1076.41
679.23	1093.26
679.57	1100.29
679.90	1091.39
680.24	1086.94
680.58	1091.86
680.92	1086.01
681.26	1084.84
681.60	1092.09
681.94	1088.12
682.28	1083.90
682.62	1084.37
682.96	1078.05
683.29	1087.65
683.63	1091.86
683.97	1093.26
684.31	1087.65
684.65	1091.63
684.99	1075.01
685.33	1069.16
685.67	1073.37
686.00	1077.82
686.34	1075.71
686.68	1078.99
687.02	1085.54
687.36	1089.52
687.70	1081.09
688.03	1080.63
688.37	1077.58
688.71	1074.31
689.05	1070.56
689.39	1082.73
689.72	1086.71
690.06	1091.63
690.40	1091.16
690.74	1092.56
691.08	1087.65
691.41	1090.92
691.75	1095.60
692.09	1090.92
692.43	1086.48
692.76	1090.46
693.10	1080.16
693.44	1075.94
693.78	1077.11
694.11	1076.65
694.45	1075.24
694.79	1084.37
695.13	1072.20
695.46	1074.31
695.80	1071.73
696.14	1067.28
696.48	1059.56
696.81	1065.88
697.15	1066.35
697.49	1077.11
697.82	1077.11
698.16	1092.33
698.50	1100.05
698.83	1103.80
699.17	1096.31
699.51	1101.69
699.84	1092.56
700.18	1082.73
700.52	1078.05
700.85	1075.24
701.19	1058.16
701.53	1057.92
701.86	1065.18
702.20	1069.39
702.54	1071.97
702.87	1093.50
703.21	1091.39
703.55	1089.52
703.88	1089.52
704.22	1086.01
704.55	1075.01
704.89	1074.31
705.23	1076.18
705.56	1075.48
705.90	1067.28
706.23	1074.07
706.57	1078.52
706.91	1078.28
707.24	1072.20
707.58	1087.65
707.91	1086.94
708.25	1092.80
708.58	1076.65
708.92	1074.77
709.26	1078.28
709.59	1075.01
709.93	1064.48
710.26	1078.75
710.60	1078.99
710.93	1064.48
711.27	1065.88
711.60	1067.05
711.94	1067.52
712.27	1062.60
712.61	1064.48
712.94	1058.16
713.28	1068.69
713.61	1063.07
713.95	1075.94
714.28	1078.52
714.62	1089.52
714.95	1078.05
715.29	1081.33
715.62	1076.88
715.96	1080.63
716.29	1079.46
716.63	1096.78
716.96	1095.37
717.29	1094.67
717.63	1092.80
717.96	1087.65
718.30	1073.14
718.63	1064.01
718.97	1065.18
719.30	1056.52
719.63	1052.77
719.97	1044.58
720.30	1061.43
720.64	1067.28
720.97	1069.62
721.30	1071.03
721.64	1082.73
721.97	1083.43
722.31	1077.82
722.64	1086.94
722.97	1091.86
723.31	1091.63
723.64	1087.88
723.97	1091.16
724.31	1096.54
724.64	1101.46
724.98	1100.52
725.31	1103.09
725.64	1106.14
725.98	1101.69
726.31	1089.75
726.64	1088.82
726.97	1077.11
727.31	1066.58
727.64	1064.24
727.97	1067.52
728.31	1067.28
728.64	1075.01
728.97	1085.54
729.31	1084.60
729.64	1088.82
729.97	1084.14
730.30	1082.50
730.64	1075.94
730.97	1062.84
731.30	1053.71
731.63	1055.82
731.97	1063.77
732.30	1066.35
732.63	1083.90
732.96	1089.52
733.30	1083.43
733.63	1076.65
733.96	1072.90
734.29	1069.39
734.63	1070.56
734.96	1072.90
735.29	1065.18
735.62	1070.09
735.95	1065.65
736.29	1062.37
736.62	1064.94
736.95	1078.28
737.28	1072.67
737.61	1067.99
737.94	1067.05
738.28	1072.67
738.61	1065.88
738.94	1068.92
739.27	1078.05
739.60	1086.71
739.93	1086.48
740.27	1090.69
740.60	1088.58
740.93	1086.01
741.26	1087.65
741.59	1087.88
741.92	1091.16
742.25	1097.71
742.58	1096.07
742.91	1092.56
743.25	1088.12
743.58	1086.94
743.91	1082.26
744.24	1077.82
744.57	1075.71
744.90	1075.48
745.23	1069.16
745.56	1070.33
745.89	1074.31
746.22	1077.35
746.55	1075.48
746.88	1083.90
747.21	1084.60
747.54	1097.01
747.87	1087.65
748.20	1092.09
748.53	1084.37
748.87	1077.82
749.20	1071.50
749.53	1070.33
749.86	1067.52
750.19	1066.58
750.52	1066.58
750.85	1066.58
751.18	1066.82
751.51	1068.69
751.84	1078.99
752.16	1087.18
752.49	1092.56
752.82	1096.07
753.15	1093.97
753.48	1090.22
753.81	1089.05
754.14	1081.80
754.47	1082.50
754.80	1078.28
755.13	1073.84
755.46	1072.90
755.79	1064.94
756.12	1069.86
756.45	1081.56
756.78	1079.46
757.11	1075.24
757.43	1076.18
757.76	1072.20
758.09	1073.37
758.42	1076.65
758.75	1084.37
759.08	1098.41
759.41	1103.09
759.74	1094.20
760.07	1091.39
760.39	1085.07
760.72	1086.71
761.05	1091.86
761.38	1098.41
761.71	1097.71
762.04	1098.41
762.36	1089.05
762.69	1080.86
763.02	1079.46
763.35	1074.54
763.68	1068.92
764.01	1076.88
764.33	1075.01
764.66	1072.90
764.99	1086.24
765.32	1082.50
765.65	1079.69
765.97	1085.07
766.30	1085.31
