SpectraSuite Data File
++++++++++++++++++++++++++++++++++++
Date: Mon Aug 26 10:25:45 PDT 2019
User: corrico
Dark Spectrum Present: No
Reference Spectrum Present: No
Number of Sampled Component Spectra: 1
Spectrometers: USB2+H06089
Integration Time (usec): 10000 (USB2+H06089)
Spectra Averaged: 2 (USB2+H06089)
Boxcar Smoothing: 2 (USB2+H06089)
Correct for Electrical Dark: No (USB2+H06089)
Strobe/Lamp Enabled: No (USB2+H06089)
Correct for Detector Non-linearity: No (USB2+H06089)
Correct for Stray Light: No (USB2+H06089)
Number of Pixels in Processed Spectrum: 2048
>>>>>Begin Processed Spectral Data<<<<<
339.70	1002.92
340.07	1002.92
340.45	975.07
340.82	951.90
341.19	935.75
341.57	925.45
341.94	913.75
342.31	906.02
342.69	915.15
343.06	908.60
343.43	896.66
343.81	899.47
344.18	906.02
344.55	907.43
344.93	908.83
345.30	917.02
345.67	915.15
346.04	912.81
346.42	920.30
346.79	925.92
347.16	933.17
347.54	954.94
347.91	980.92
348.28	984.66
348.65	994.03
349.03	1008.07
349.40	1003.39
349.77	995.20
350.14	1007.13
350.52	1026.09
350.89	1023.52
351.26	1040.60
351.63	1044.11
352.01	1037.09
352.38	1033.35
352.75	1037.33
353.12	1040.60
353.50	1053.48
353.87	1064.94
354.24	1071.50
354.61	1078.52
354.98	1078.99
355.36	1076.18
355.73	1073.84
356.10	1074.07
356.47	1079.46
356.84	1086.71
357.22	1083.67
357.59	1088.82
357.96	1095.60
358.33	1085.31
358.70	1085.31
359.08	1093.97
359.45	1088.58
359.82	1075.01
360.19	1074.54
360.56	1063.77
360.94	1051.84
361.31	1048.09
361.68	1059.56
362.05	1063.07
362.42	1064.01
362.79	1065.18
363.16	1066.82
363.54	1055.58
363.91	1050.67
364.28	1051.37
364.65	1064.94
365.02	1070.33
365.39	1082.26
365.76	1080.86
366.14	1073.37
366.51	1064.24
366.88	1060.73
367.25	1057.45
367.62	1065.65
367.99	1070.09
368.36	1074.07
368.73	1080.39
369.10	1071.50
369.48	1067.28
369.85	1076.18
370.22	1066.11
370.59	1063.77
370.96	1069.62
371.33	1069.86
371.70	1060.50
372.07	1063.07
372.44	1061.20
372.81	1051.13
373.18	1049.50
373.55	1052.77
373.93	1064.94
374.30	1054.88
374.67	1056.99
375.04	1053.71
375.41	1053.24
375.78	1049.26
376.15	1050.67
376.52	1059.56
376.89	1068.45
377.26	1069.16
377.63	1075.01
378.00	1083.67
378.37	1074.54
378.74	1070.33
379.11	1067.05
379.48	1051.13
379.85	1052.07
380.22	1063.77
380.59	1062.60
380.96	1065.88
381.33	1075.94
381.70	1075.01
382.07	1071.97
382.44	1072.43
382.81	1073.60
383.18	1067.52
383.55	1063.54
383.92	1062.14
384.29	1068.92
384.66	1075.94
385.03	1078.28
385.40	1076.18
385.77	1081.33
386.14	1077.35
386.51	1067.75
386.88	1064.48
387.25	1062.37
387.62	1056.28
387.99	1056.28
388.36	1055.11
388.73	1061.43
389.10	1056.75
389.46	1063.54
389.83	1066.11
390.20	1070.09
390.57	1067.05
390.94	1079.22
391.31	1079.69
391.68	1088.35
392.05	1092.80
392.42	1089.99
392.79	1083.67
393.16	1082.97
393.53	1072.20
393.89	1062.60
394.26	1062.84
394.63	1070.09
395.00	1065.18
395.37	1062.37
395.74	1073.37
396.11	1078.75
396.48	1075.24
396.84	1069.86
397.21	1075.48
397.58	1075.01
397.95	1073.37
398.32	1073.14
398.69	1070.80
399.06	1068.45
399.42	1060.96
399.79	1057.22
400.16	1059.33
400.53	1062.14
400.90	1067.28
401.27	1071.50
401.64	1069.86
402.00	1072.90
402.37	1095.60
402.74	1093.26
403.11	1099.12
403.48	1100.75
403.84	1105.20
404.21	1085.54
404.58	1086.24
404.95	1089.99
405.32	1098.18
405.68	1089.05
406.05	1094.90
406.42	1088.82
406.79	1077.82
407.16	1067.99
407.52	1071.97
407.89	1062.37
408.26	1067.75
408.63	1067.52
408.99	1069.39
409.36	1057.92
409.73	1061.67
410.10	1062.14
410.47	1071.26
410.83	1070.56
411.20	1079.22
411.57	1077.35
411.94	1080.16
412.30	1072.20
412.67	1076.88
413.04	1077.11
413.40	1079.46
413.77	1070.80
414.14	1075.71
414.51	1082.26
414.87	1083.20
415.24	1078.28
415.61	1080.39
415.97	1069.16
416.34	1059.33
416.71	1060.96
417.08	1065.18
417.44	1069.86
417.81	1078.75
418.18	1083.20
418.54	1078.28
418.91	1078.75
419.28	1077.11
419.64	1079.22
420.01	1083.43
420.38	1093.50
420.74	1091.16
421.11	1093.50
421.48	1084.14
421.84	1074.77
422.21	1067.52
422.58	1063.77
422.94	1062.14
423.31	1069.16
423.68	1069.62
424.04	1070.09
424.41	1074.31
424.77	1068.92
425.14	1068.92
425.51	1064.24
425.87	1062.37
426.24	1066.58
426.61	1068.45
426.97	1069.62
427.34	1079.92
427.70	1081.80
428.07	1086.01
428.44	1084.84
428.80	1074.31
429.17	1076.18
429.53	1078.75
429.90	1071.73
430.27	1077.11
430.63	1079.46
431.00	1079.22
431.36	1079.22
431.73	1080.16
432.09	1069.16
432.46	1073.37
432.83	1065.65
433.19	1066.35
433.56	1059.09
433.92	1061.67
434.29	1058.16
434.65	1060.03
435.02	1059.79
435.38	1079.92
435.75	1081.56
436.11	1079.22
436.48	1084.14
436.84	1094.67
437.21	1083.20
437.57	1081.33
437.94	1093.03
438.30	1095.14
438.67	1078.99
439.03	1084.37
439.40	1079.22
439.76	1078.99
440.13	1072.43
440.49	1074.54
440.86	1072.90
441.22	1077.82
441.59	1078.52
441.95	1075.24
442.32	1077.58
442.68	1066.11
443.05	1078.99
443.41	1064.71
443.78	1073.14
444.14	1069.39
444.51	1079.22
444.87	1078.05
445.24	1087.88
445.60	1082.03
445.96	1086.24
446.33	1084.60
446.69	1081.09
447.06	1078.75
447.42	1080.39
447.79	1073.60
448.15	1078.75
448.51	1071.26
448.88	1078.52
449.24	1082.03
449.61	1086.48
449.97	1082.50
450.33	1086.01
450.70	1072.43
451.06	1070.33
451.43	1071.73
451.79	1070.80
452.15	1077.82
452.52	1076.65
452.88	1073.14
453.24	1071.26
453.61	1076.41
453.97	1068.92
454.34	1073.60
454.70	1081.80
455.06	1087.65
455.43	1083.90
455.79	1085.07
456.15	1081.33
456.52	1072.43
456.88	1068.45
457.24	1068.92
457.61	1066.82
457.97	1078.52
458.33	1087.88
458.70	1093.03
459.06	1096.78
459.42	1095.84
459.79	1095.60
460.15	1091.16
460.51	1079.92
460.88	1077.58
461.24	1081.56
461.60	1073.60
461.96	1074.77
462.33	1081.80
462.69	1084.14
463.05	1086.94
463.42	1095.84
463.78	1097.01
464.14	1099.35
464.50	1090.46
464.87	1095.14
465.23	1087.18
465.59	1086.48
465.95	1078.52
466.32	1084.14
466.68	1075.94
467.04	1089.29
467.40	1078.99
467.77	1083.43
468.13	1076.65
468.49	1072.90
468.85	1064.01
469.22	1067.28
469.58	1057.69
469.94	1067.52
470.30	1075.24
470.66	1078.99
471.03	1083.67
471.39	1084.60
471.75	1076.41
472.11	1075.94
472.47	1066.35
472.84	1064.24
473.20	1077.82
473.56	1078.28
473.92	1073.37
474.28	1071.26
474.65	1073.84
475.01	1082.03
475.37	1083.20
475.73	1083.43
476.09	1086.71
476.45	1081.09
476.81	1070.09
477.18	1077.35
477.54	1077.11
477.90	1077.35
478.26	1081.80
478.62	1076.18
478.98	1082.03
479.34	1079.46
479.71	1089.29
480.07	1085.54
480.43	1083.20
480.79	1072.67
481.15	1075.94
481.51	1071.26
481.87	1077.11
482.23	1079.92
482.59	1079.92
482.96	1081.80
483.32	1078.52
483.68	1069.62
484.04	1078.28
484.40	1079.46
484.76	1081.80
485.12	1080.63
485.48	1083.67
485.84	1074.07
486.20	1073.84
486.56	1080.16
486.92	1085.31
487.28	1085.07
487.64	1091.16
488.00	1080.16
488.37	1073.14
488.73	1064.48
489.09	1061.43
489.45	1059.33
489.81	1070.80
490.17	1068.69
490.53	1078.99
490.89	1088.12
491.25	1089.75
491.61	1093.73
491.97	1089.05
492.33	1082.73
492.69	1080.86
493.05	1081.09
493.41	1072.90
493.77	1077.35
494.13	1091.63
494.49	1083.20
494.85	1079.46
495.21	1082.73
495.57	1080.39
495.93	1065.18
496.29	1060.73
496.64	1067.05
497.00	1067.52
497.36	1069.62
497.72	1079.69
498.08	1097.01
498.44	1097.24
498.80	1095.14
499.16	1094.43
499.52	1076.88
499.88	1069.39
500.24	1062.37
500.60	1071.97
500.96	1070.56
501.32	1089.29
501.68	1089.52
502.03	1088.82
502.39	1087.18
502.75	1081.80
503.11	1073.14
503.47	1071.03
503.83	1071.50
504.19	1058.16
504.55	1065.18
504.91	1075.01
505.26	1085.31
505.62	1087.65
505.98	1089.99
506.34	1083.90
506.70	1070.80
507.06	1069.16
507.42	1074.31
507.78	1083.67
508.13	1100.29
508.49	1102.39
508.85	1100.75
509.21	1095.60
509.57	1087.65
509.93	1084.37
510.28	1086.71
510.64	1080.63
511.00	1091.86
511.36	1094.20
511.72	1087.41
512.07	1086.94
512.43	1088.12
512.79	1081.33
513.15	1077.58
513.51	1075.48
513.86	1079.22
514.22	1083.90
514.58	1081.56
514.94	1076.41
515.30	1085.77
515.65	1081.80
516.01	1084.84
516.37	1082.03
516.73	1088.12
517.08	1077.82
517.44	1073.14
517.80	1064.94
518.16	1071.97
518.51	1074.07
518.87	1075.24
519.23	1073.60
519.59	1079.92
519.94	1066.11
520.30	1067.75
520.66	1067.99
521.01	1078.52
521.37	1081.56
521.73	1092.80
522.09	1090.69
522.44	1096.07
522.80	1091.86
523.16	1088.12
523.51	1089.75
523.87	1091.16
524.23	1089.75
524.58	1094.67
524.94	1092.09
525.30	1088.58
525.65	1093.73
526.01	1087.41
526.37	1077.35
526.72	1081.80
527.08	1087.65
527.44	1078.99
527.79	1095.84
528.15	1105.20
528.51	1102.86
528.86	1104.97
529.22	1104.50
529.58	1085.31
529.93	1084.60
530.29	1074.77
530.65	1063.54
531.00	1071.03
531.36	1084.84
531.71	1086.71
532.07	1097.01
532.43	1106.14
532.78	1100.05
533.14	1084.14
533.49	1083.67
533.85	1087.18
534.21	1084.14
534.56	1093.03
534.92	1106.14
535.27	1095.84
535.63	1091.39
535.98	1086.24
536.34	1080.63
536.69	1073.84
537.05	1081.56
537.41	1079.69
537.76	1084.84
538.12	1084.37
538.47	1086.24
538.83	1087.88
539.18	1094.43
539.54	1081.33
539.89	1079.46
540.25	1087.88
540.60	1083.20
540.96	1084.84
541.31	1091.16
541.67	1098.18
542.02	1091.63
542.38	1094.20
542.73	1080.63
543.09	1081.33
543.44	1076.65
543.80	1075.71
544.15	1072.67
544.51	1071.26
544.86	1075.94
545.22	1086.71
545.57	1086.01
545.93	1084.60
546.28	1097.01
546.64	1098.65
546.99	1080.39
547.35	1080.86
547.70	1084.37
548.05	1073.14
548.41	1067.75
548.76	1075.48
549.12	1074.77
549.47	1084.14
549.83	1093.97
550.18	1100.99
550.53	1091.39
550.89	1097.24
551.24	1075.48
551.60	1070.80
551.95	1071.50
552.30	1069.39
552.66	1067.52
553.01	1078.52
553.37	1071.97
553.72	1064.48
554.07	1076.65
554.43	1077.58
554.78	1072.90
555.13	1072.20
555.49	1064.94
555.84	1058.62
556.19	1051.60
556.55	1062.14
556.90	1072.43
557.26	1078.52
557.61	1078.75
557.96	1079.69
558.32	1077.58
558.67	1066.35
559.02	1079.69
559.37	1079.46
559.73	1077.11
560.08	1076.18
560.43	1078.75
560.79	1072.67
561.14	1085.77
561.49	1088.12
561.85	1090.46
562.20	1094.43
562.55	1086.24
562.90	1084.37
563.26	1088.12
563.61	1084.37
563.96	1089.99
564.32	1093.03
564.67	1093.97
565.02	1094.90
565.37	1093.97
565.73	1093.97
566.08	1089.75
566.43	1080.63
566.78	1078.05
567.14	1074.77
567.49	1066.35
567.84	1078.75
568.19	1081.56
568.54	1080.39
568.90	1085.07
569.25	1095.84
569.60	1087.18
569.95	1087.18
570.31	1095.60
570.66	1098.65
571.01	1094.90
571.36	1094.67
571.71	1083.20
572.06	1079.69
572.42	1082.03
572.77	1080.86
573.12	1076.18
573.47	1084.84
573.82	1083.20
574.18	1077.82
574.53	1078.99
574.88	1086.01
575.23	1089.29
575.58	1089.75
575.93	1090.69
576.28	1083.43
576.64	1085.77
576.99	1086.48
577.34	1084.60
577.69	1079.92
578.04	1086.94
578.39	1076.18
578.74	1076.41
579.09	1074.77
579.44	1074.31
579.80	1081.09
580.15	1084.14
580.50	1074.77
580.85	1079.46
581.20	1078.75
581.55	1070.33
581.90	1073.37
582.25	1082.03
582.60	1086.24
582.95	1094.90
583.30	1091.86
583.65	1106.14
584.00	1098.88
584.35	1087.88
584.71	1086.48
585.06	1091.16
585.41	1072.43
585.76	1078.99
586.11	1075.48
586.46	1065.65
586.81	1064.71
587.16	1066.11
587.51	1069.16
587.86	1076.18
588.21	1081.33
588.56	1075.71
588.91	1079.92
589.26	1068.69
589.61	1058.62
589.96	1061.43
590.31	1066.58
590.66	1078.28
591.01	1090.46
591.36	1103.09
591.71	1105.20
592.06	1103.56
592.41	1100.99
592.76	1097.95
593.10	1090.92
593.45	1088.12
593.80	1089.05
594.15	1077.58
594.50	1071.03
594.85	1066.11
595.20	1056.28
595.55	1055.58
595.90	1056.75
596.25	1060.73
596.60	1066.82
596.95	1078.52
597.30	1076.18
597.64	1135.63
597.99	1144.76
598.34	1148.27
598.69	1147.80
599.04	1155.05
599.39	1094.67
599.74	1081.80
600.09	1075.01
600.44	1068.69
600.78	1072.90
601.13	1079.46
601.48	1087.41
601.83	1085.77
602.18	1086.01
602.53	1076.65
602.88	1075.01
603.22	1066.58
603.57	1076.88
603.92	1075.94
604.27	1070.56
604.62	1062.37
604.97	1067.28
605.31	1075.71
605.66	1075.71
606.01	1077.58
606.36	1086.01
606.71	1078.52
607.05	1073.14
607.40	1075.94
607.75	1085.07
608.10	1088.35
608.44	1091.86
608.79	1096.54
609.14	1100.05
609.49	1108.24
609.84	1100.75
610.18	1108.24
610.53	1101.69
610.88	1107.78
611.23	1096.54
611.57	1096.54
611.92	1090.46
612.27	1088.82
612.62	1086.71
612.96	1098.41
613.31	1105.67
613.66	1106.84
614.00	1102.86
614.35	1093.73
614.70	1079.69
615.05	1076.41
615.39	1078.52
615.74	1080.86
616.09	1091.16
616.43	1091.16
616.78	1096.54
617.13	1092.09
617.47	1092.56
617.82	1085.54
618.17	1086.94
618.51	1073.84
618.86	1077.58
619.21	1074.77
619.55	1071.26
619.90	1069.86
620.25	1071.03
620.59	1072.67
620.94	1072.67
621.29	1086.01
621.63	1083.20
621.98	1081.33
622.32	1082.50
622.67	1080.16
623.02	1079.22
623.36	1082.50
623.71	1092.33
624.05	1095.84
624.40	1100.75
624.75	1093.03
625.09	1097.24
625.44	1098.18
625.78	1084.84
626.13	1081.56
626.48	1077.58
626.82	1071.03
627.17	1060.50
627.51	1059.09
627.86	1059.56
628.20	1064.01
628.55	1075.71
628.89	1085.31
629.24	1085.07
629.58	1087.18
629.93	1088.58
630.28	1085.07
630.62	1075.71
630.97	1090.92
631.31	1089.52
631.66	1088.35
632.00	1085.54
632.35	1086.01
632.69	1076.41
633.04	1073.84
633.38	1073.84
633.73	1074.31
634.07	1079.92
634.42	1076.18
634.76	1078.75
635.11	1081.09
635.45	1077.82
635.79	1078.05
636.14	1090.46
636.48	1092.09
636.83	1089.29
637.17	1088.35
637.52	1092.33
637.86	1092.56
638.21	1094.90
638.55	1084.60
638.89	1085.54
639.24	1075.48
639.58	1074.31
639.93	1080.16
640.27	1088.12
640.61	1092.33
640.96	1097.01
641.30	1087.41
641.65	1081.09
641.99	1083.67
642.33	1079.92
642.68	1081.80
643.02	1083.67
643.37	1077.82
643.71	1068.69
644.05	1061.43
644.40	1050.90
644.74	1043.64
645.08	1048.33
645.43	1060.26
645.77	1066.58
646.11	1077.35
646.46	1086.71
646.80	1086.01
647.14	1084.60
647.49	1089.75
647.83	1094.20
648.17	1101.22
648.52	1105.20
648.86	1106.14
649.20	1103.09
649.55	1094.43
649.89	1095.14
650.23	1098.41
650.57	1095.60
650.92	1096.54
651.26	1099.12
651.60	1083.90
651.95	1072.43
652.29	1073.37
652.63	1064.01
652.97	1063.54
653.32	1073.84
653.66	1070.56
654.00	1078.05
654.34	1083.20
654.69	1082.03
655.03	1072.67
655.37	1077.35
655.71	1068.22
656.05	1072.67
656.40	1074.31
656.74	1089.75
657.08	1092.09
657.42	1097.71
657.76	1100.99
658.11	1106.84
658.45	1096.31
658.79	1093.73
659.13	1090.46
659.47	1083.67
659.82	1085.31
660.16	1089.05
660.50	1099.35
660.84	1090.92
661.18	1096.54
661.52	1089.05
661.87	1081.33
662.21	1067.05
662.55	1079.92
662.89	1081.33
663.23	1086.71
663.57	1095.60
663.91	1116.44
664.25	1116.67
664.60	1110.82
664.94	1105.20
665.28	1098.18
665.62	1085.07
665.96	1079.69
666.30	1080.86
666.64	1075.01
666.98	1078.52
667.32	1080.63
667.66	1086.01
668.01	1082.03
668.35	1085.31
668.69	1087.41
669.03	1084.37
669.37	1081.09
669.71	1089.75
670.05	1088.82
670.39	1090.69
670.73	1092.33
671.07	1088.82
671.41	1086.71
671.75	1088.12
672.09	1083.90
672.43	1082.73
672.77	1084.37
673.11	1084.14
673.45	1086.48
673.79	1088.58
674.13	1086.01
674.47	1092.56
674.81	1091.16
675.15	1095.84
675.49	1100.99
675.83	1104.73
676.17	1089.52
676.51	1081.09
676.85	1076.41
677.19	1061.43
677.53	1053.24
677.87	1054.88
678.21	1062.14
678.55	1063.31
678.89	1069.62
679.23	1079.22
679.57	1097.01
679.90	1092.80
680.24	1083.67
680.58	1086.71
680.92	1086.48
681.26	1080.39
681.60	1082.73
681.94	1091.39
682.28	1092.80
682.62	1088.58
682.96	1088.82
683.29	1097.24
683.63	1092.56
683.97	1087.65
684.31	1094.90
684.65	1089.75
684.99	1078.05
685.33	1077.35
685.67	1080.16
686.00	1069.86
686.34	1064.71
686.68	1070.09
687.02	1079.69
687.36	1075.94
687.70	1070.80
688.03	1071.26
688.37	1058.16
688.71	1055.82
689.05	1059.79
689.39	1072.67
689.72	1075.48
690.06	1078.05
690.40	1064.48
690.74	1064.48
691.08	1062.37
691.41	1069.62
691.75	1079.22
692.09	1085.07
692.43	1081.56
692.76	1087.65
693.10	1079.92
693.44	1078.99
693.78	1088.58
694.11	1095.37
694.45	1087.41
694.79	1087.18
695.13	1091.86
695.46	1083.67
695.80	1076.65
696.14	1074.31
696.48	1074.31
696.81	1076.88
697.15	1075.01
697.49	1083.67
697.82	1088.12
698.16	1089.05
698.50	1081.56
698.83	1079.69
699.17	1070.33
699.51	1072.20
699.84	1080.39
700.18	1090.46
700.52	1097.71
700.85	1108.01
701.19	1099.12
701.53	1086.01
701.86	1079.69
702.20	1069.39
702.54	1065.18
702.87	1073.84
703.21	1080.16
703.55	1075.24
703.88	1085.77
704.22	1083.20
704.55	1073.60
704.89	1067.05
705.23	1077.58
705.56	1078.28
705.90	1081.09
706.23	1081.09
706.57	1087.65
706.91	1078.52
707.24	1073.84
707.58	1061.20
707.91	1068.92
708.25	1067.75
708.58	1067.05
708.92	1070.09
709.26	1087.41
709.59	1095.84
709.93	1092.56
710.26	1093.73
710.60	1092.33
710.93	1080.63
711.27	1076.65
711.60	1092.80
711.94	1091.63
712.27	1086.01
712.61	1096.54
712.94	1083.67
713.28	1068.22
713.61	1072.67
713.95	1082.03
714.28	1072.43
714.62	1080.39
714.95	1081.80
715.29	1082.03
715.62	1083.90
715.96	1093.73
716.29	1097.71
716.63	1098.65
716.96	1099.12
717.29	1095.60
717.63	1091.63
717.96	1080.39
718.30	1074.31
718.63	1071.50
718.97	1070.80
719.30	1060.03
719.63	1070.80
719.97	1083.67
720.30	1072.90
720.64	1070.09
720.97	1078.28
721.30	1074.54
721.64	1069.39
721.97	1082.50
722.31	1086.71
722.64	1082.50
722.97	1080.86
723.31	1085.77
723.64	1092.33
723.97	1089.99
724.31	1089.99
724.64	1088.12
724.98	1080.86
725.31	1076.18
725.64	1079.46
725.98	1081.09
726.31	1076.18
726.64	1078.99
726.97	1075.48
727.31	1072.20
727.64	1073.84
727.97	1076.18
728.31	1075.48
728.64	1072.20
728.97	1065.88
729.31	1070.33
729.64	1076.18
729.97	1067.05
730.30	1065.88
730.64	1071.03
730.97	1075.71
731.30	1073.60
731.63	1083.67
731.97	1086.24
732.30	1089.99
732.63	1080.86
732.96	1069.16
733.30	1060.26
733.63	1066.82
733.96	1069.62
734.29	1068.45
734.63	1078.05
734.96	1080.86
735.29	1072.67
735.62	1069.39
735.95	1072.67
736.29	1079.69
736.62	1080.63
736.95	1083.20
737.28	1074.54
737.61	1071.03
737.94	1071.50
738.28	1079.46
738.61	1084.14
738.94	1097.01
739.27	1095.84
739.60	1091.63
739.93	1088.58
740.27	1081.09
740.60	1069.86
740.93	1074.31
741.26	1075.71
741.59	1068.45
741.92	1071.97
742.25	1078.75
742.58	1074.31
742.91	1071.26
743.25	1075.48
743.58	1068.69
743.91	1058.62
744.24	1064.71
744.57	1073.14
744.90	1071.26
745.23	1082.03
745.56	1089.05
745.89	1083.67
746.22	1077.82
746.55	1090.22
746.88	1086.48
747.21	1088.82
747.54	1091.39
747.87	1087.41
748.20	1075.24
748.53	1081.56
748.87	1078.52
749.20	1077.11
749.53	1076.65
749.86	1074.77
750.19	1061.20
750.52	1058.16
750.85	1063.07
751.18	1060.96
751.51	1068.92
751.84	1073.14
752.16	1082.50
752.49	1078.05
752.82	1081.80
753.15	1084.14
753.48	1078.52
753.81	1076.41
754.14	1071.50
754.47	1067.75
754.80	1057.92
755.13	1066.82
755.46	1065.88
755.79	1070.33
756.12	1080.16
756.45	1085.77
756.78	1077.58
757.11	1074.54
757.43	1076.65
757.76	1067.75
758.09	1071.97
758.42	1075.48
758.75	1071.26
759.08	1072.67
759.41	1079.92
759.74	1073.37
760.07	1078.05
760.39	1092.33
760.72	1093.26
761.05	1092.80
761.38	1092.09
761.71	1088.58
762.04	1085.77
762.36	1087.18
762.69	1085.07
763.02	1089.05
763.35	1089.05
763.68	1082.50
764.01	1082.50
764.33	1082.73
764.66	1083.67
764.99	1074.54
765.32	1074.07
765.65	1081.80
765.97	1083.20
766.30	1082.50
