SpectraSuite Data File
++++++++++++++++++++++++++++++++++++
Date: Mon Aug 26 10:25:49 PDT 2019
User: corrico
Dark Spectrum Present: No
Reference Spectrum Present: No
Number of Sampled Component Spectra: 1
Spectrometers: USB2+H06089
Integration Time (usec): 10000 (USB2+H06089)
Spectra Averaged: 2 (USB2+H06089)
Boxcar Smoothing: 2 (USB2+H06089)
Correct for Electrical Dark: No (USB2+H06089)
Strobe/Lamp Enabled: No (USB2+H06089)
Correct for Detector Non-linearity: No (USB2+H06089)
Correct for Stray Light: No (USB2+H06089)
Number of Pixels in Processed Spectrum: 2048
>>>>>Begin Processed Spectral Data<<<<<
339.70	1049.73
340.07	1049.73
340.45	1000.81
340.82	985.37
341.19	958.45
341.57	927.55
341.94	924.98
342.31	921.00
342.69	917.26
343.06	908.83
343.43	904.38
343.81	901.11
344.18	898.77
344.55	885.66
344.93	900.64
345.30	910.00
345.67	917.72
346.04	938.09
346.42	954.47
346.79	951.19
347.16	961.26
347.54	974.37
347.91	963.36
348.28	962.43
348.65	976.94
349.03	984.43
349.40	998.47
349.77	1011.11
350.14	1023.05
350.52	1024.92
350.89	1031.71
351.26	1023.05
351.63	1031.47
352.01	1031.94
352.38	1042.01
352.75	1045.99
353.12	1049.73
353.50	1049.03
353.87	1067.05
354.24	1063.54
354.61	1068.45
354.98	1071.03
355.36	1073.37
355.73	1067.05
356.10	1071.26
356.47	1059.09
356.84	1067.99
357.22	1069.86
357.59	1056.52
357.96	1053.01
358.33	1068.45
358.70	1064.48
359.08	1073.84
359.45	1082.03
359.82	1082.50
360.19	1071.50
360.56	1076.18
360.94	1069.39
361.31	1078.99
361.68	1074.77
362.05	1080.16
362.42	1068.69
362.79	1061.43
363.16	1048.79
363.54	1057.69
363.91	1054.41
364.28	1058.39
364.65	1052.07
365.02	1051.37
365.39	1049.26
365.76	1052.30
366.14	1058.39
366.51	1067.75
366.88	1072.67
367.25	1071.50
367.62	1071.03
367.99	1064.94
368.36	1060.96
368.73	1060.96
369.10	1065.65
369.48	1069.39
369.85	1070.80
370.22	1076.65
370.59	1078.99
370.96	1073.37
371.33	1079.22
371.70	1083.90
372.07	1083.43
372.44	1081.80
372.81	1085.07
373.18	1070.09
373.55	1064.01
373.93	1064.01
374.30	1069.16
374.67	1073.14
375.04	1074.77
375.41	1082.97
375.78	1082.73
376.15	1079.46
376.52	1071.03
376.89	1070.80
377.26	1061.20
377.63	1055.82
378.00	1056.75
378.37	1054.65
378.74	1062.84
379.11	1070.33
379.48	1071.03
379.85	1065.41
380.22	1073.60
380.59	1069.16
380.96	1067.05
381.33	1069.62
381.70	1069.16
382.07	1073.37
382.44	1077.35
382.81	1075.71
383.18	1075.94
383.55	1078.28
383.92	1079.46
384.29	1076.65
384.66	1074.07
385.03	1081.09
385.40	1079.69
385.77	1068.22
386.14	1070.09
386.51	1071.50
386.88	1061.90
387.25	1064.71
387.62	1070.56
387.99	1073.14
388.36	1070.56
388.73	1078.52
389.10	1082.50
389.46	1090.69
389.83	1090.46
390.20	1097.01
390.57	1098.18
390.94	1089.29
391.31	1080.86
391.68	1071.97
392.05	1066.35
392.42	1061.67
392.79	1067.28
393.16	1072.20
393.53	1065.65
393.89	1058.62
394.26	1056.99
394.63	1065.41
395.00	1061.43
395.37	1066.82
395.74	1070.56
396.11	1077.35
396.48	1076.18
396.84	1073.14
397.21	1075.94
397.58	1085.31
397.95	1083.20
398.32	1076.41
398.69	1072.20
399.06	1069.86
399.42	1066.58
399.79	1059.33
400.16	1062.37
400.53	1070.56
400.90	1075.48
401.27	1078.99
401.64	1081.80
402.00	1081.80
402.37	1079.92
402.74	1083.20
403.11	1075.01
403.48	1071.26
403.84	1070.33
404.21	1066.58
404.58	1060.73
404.95	1066.82
405.32	1072.43
405.68	1067.75
406.05	1068.45
406.42	1065.88
406.79	1062.14
407.16	1055.58
407.52	1057.45
407.89	1066.35
408.26	1072.20
408.63	1060.03
408.99	1060.73
409.36	1060.73
409.73	1053.71
410.10	1051.13
410.47	1071.03
410.83	1080.39
411.20	1081.33
411.57	1075.48
411.94	1073.60
412.30	1060.26
412.67	1062.37
413.04	1070.09
413.40	1067.52
413.77	1065.18
414.14	1070.33
414.51	1075.01
414.87	1066.11
415.24	1075.01
415.61	1079.92
415.97	1076.41
416.34	1060.50
416.71	1064.94
417.08	1062.60
417.44	1068.45
417.81	1071.73
418.18	1076.18
418.54	1069.62
418.91	1069.39
419.28	1061.90
419.64	1056.52
420.01	1060.50
420.38	1054.18
420.74	1059.09
421.11	1061.90
421.48	1064.01
421.84	1061.43
422.21	1069.16
422.58	1068.69
422.94	1073.84
423.31	1084.37
423.68	1084.60
424.04	1089.29
424.41	1085.31
424.77	1088.12
425.14	1093.50
425.51	1100.75
425.87	1098.18
426.24	1103.33
426.61	1091.86
426.97	1077.35
427.34	1071.73
427.70	1071.73
428.07	1070.56
428.44	1071.50
428.80	1080.86
429.17	1069.86
429.53	1074.07
429.90	1073.60
430.27	1074.54
430.63	1076.41
431.00	1086.48
431.36	1071.50
431.73	1073.84
432.09	1068.92
432.46	1064.01
432.83	1060.50
433.19	1066.82
433.56	1059.56
433.92	1069.16
434.29	1077.35
434.65	1087.65
435.02	1088.58
435.38	1089.05
435.75	1086.94
436.11	1077.82
436.48	1071.97
436.84	1072.90
437.21	1085.31
437.57	1087.41
437.94	1093.03
438.30	1089.05
438.67	1087.41
439.03	1071.73
439.40	1072.43
439.76	1066.11
440.13	1061.90
440.49	1065.41
440.86	1079.46
441.22	1075.24
441.59	1074.77
441.95	1083.67
442.32	1082.50
442.68	1081.33
443.05	1073.60
443.41	1077.58
443.78	1074.07
444.14	1081.09
444.51	1074.31
444.87	1082.73
445.24	1079.46
445.60	1079.22
445.96	1077.58
446.33	1079.92
446.69	1081.33
447.06	1078.05
447.42	1085.07
447.79	1081.33
448.15	1075.94
448.51	1078.28
448.88	1076.88
449.24	1069.62
449.61	1060.26
449.97	1064.94
450.33	1055.35
450.70	1061.90
451.06	1061.90
451.43	1071.73
451.79	1070.09
452.15	1071.73
452.52	1068.45
452.88	1071.50
453.24	1074.54
453.61	1070.80
453.97	1078.05
454.34	1082.50
454.70	1087.18
455.06	1087.65
455.43	1096.54
455.79	1085.77
456.15	1079.22
456.52	1087.65
456.88	1086.01
457.24	1067.28
457.61	1079.22
457.97	1078.28
458.33	1055.58
458.70	1059.33
459.06	1078.28
459.42	1073.14
459.79	1074.31
460.15	1075.94
460.51	1067.28
460.88	1064.48
461.24	1071.03
461.60	1071.26
461.96	1080.16
462.33	1093.50
462.69	1091.86
463.05	1088.82
463.42	1090.92
463.78	1088.35
464.14	1074.31
464.50	1077.35
464.87	1074.07
465.23	1069.16
465.59	1067.05
465.95	1066.58
466.32	1064.94
466.68	1067.28
467.04	1081.56
467.40	1082.97
467.77	1084.37
468.13	1075.94
468.49	1067.05
468.85	1065.65
469.22	1070.56
469.58	1074.31
469.94	1080.16
470.30	1089.99
470.66	1086.24
471.03	1079.22
471.39	1073.60
471.75	1070.56
472.11	1073.14
472.47	1071.97
472.84	1089.05
473.20	1099.82
473.56	1101.69
473.92	1099.12
474.28	1092.33
474.65	1077.35
475.01	1073.14
475.37	1073.60
475.73	1079.92
476.09	1087.65
476.45	1085.77
476.81	1078.05
477.18	1081.09
477.54	1068.22
477.90	1068.69
478.26	1075.01
478.62	1079.22
478.98	1083.67
479.34	1094.20
479.71	1098.88
480.07	1106.14
480.43	1112.92
480.79	1099.35
481.15	1093.73
481.51	1090.69
481.87	1071.50
482.23	1067.52
482.59	1066.82
482.96	1068.22
483.32	1075.94
483.68	1090.92
484.04	1095.84
484.40	1113.63
484.76	1108.95
485.12	1098.65
485.48	1093.26
485.84	1080.16
486.20	1064.94
486.56	1069.16
486.92	1055.82
487.28	1054.18
487.64	1062.37
488.00	1075.71
488.37	1077.11
488.73	1091.16
489.09	1103.09
489.45	1099.35
489.81	1092.56
490.17	1088.82
490.53	1078.99
490.89	1065.41
491.25	1071.26
491.61	1070.80
491.97	1079.46
492.33	1081.56
492.69	1085.07
493.05	1084.14
493.41	1080.16
493.77	1072.67
494.13	1075.24
494.49	1072.90
494.85	1070.56
495.21	1077.82
495.57	1083.20
495.93	1080.16
496.29	1081.80
496.64	1081.56
497.00	1077.35
497.36	1068.22
497.72	1078.28
498.08	1078.75
498.44	1077.11
498.80	1087.88
499.16	1088.12
499.52	1092.09
499.88	1089.99
500.24	1090.92
500.60	1087.18
500.96	1081.33
501.32	1067.75
501.68	1066.11
502.03	1071.97
502.39	1065.41
502.75	1071.03
503.11	1081.56
503.47	1089.05
503.83	1083.20
504.19	1083.43
504.55	1092.80
504.91	1088.12
505.26	1081.56
505.62	1089.29
505.98	1090.46
506.34	1084.84
506.70	1088.35
507.06	1094.20
507.42	1091.63
507.78	1090.69
508.13	1095.37
508.49	1089.99
508.85	1086.01
509.21	1072.43
509.57	1077.58
509.93	1082.03
510.28	1078.05
510.64	1083.20
511.00	1097.01
511.36	1093.50
511.72	1095.14
512.07	1097.01
512.43	1089.05
512.79	1083.67
513.15	1072.90
513.51	1055.58
513.86	1065.88
514.22	1076.41
514.58	1079.22
514.94	1089.99
515.30	1099.82
515.65	1091.63
516.01	1087.18
516.37	1086.24
516.73	1092.33
517.08	1086.71
517.44	1090.22
517.80	1085.77
518.16	1082.97
518.51	1081.80
518.87	1086.94
519.23	1080.86
519.59	1082.50
519.94	1081.80
520.30	1087.18
520.66	1078.05
521.01	1086.01
521.37	1082.97
521.73	1085.77
522.09	1074.54
522.44	1087.18
522.80	1090.92
523.16	1094.90
523.51	1093.97
523.87	1103.56
524.23	1099.58
524.58	1093.03
524.94	1087.41
525.30	1087.18
525.65	1073.14
526.01	1069.86
526.37	1074.54
526.72	1076.18
527.08	1079.92
527.44	1088.82
527.79	1090.46
528.15	1087.41
528.51	1095.60
528.86	1092.56
529.22	1085.54
529.58	1090.46
529.93	1100.52
530.29	1106.14
530.65	1105.44
531.00	1108.71
531.36	1107.78
531.71	1104.73
532.07	1104.73
532.43	1102.63
532.78	1097.48
533.14	1092.56
533.49	1081.80
533.85	1073.14
534.21	1079.22
534.56	1082.97
534.92	1092.09
535.27	1091.86
535.63	1087.88
535.98	1079.92
536.34	1077.82
536.69	1071.26
537.05	1078.05
537.41	1078.28
537.76	1086.71
538.12	1087.88
538.47	1091.63
538.83	1089.52
539.18	1078.99
539.54	1080.39
539.89	1092.56
540.25	1087.41
540.60	1095.84
540.96	1101.69
541.31	1091.63
541.67	1082.97
542.02	1079.22
542.38	1075.01
542.73	1082.26
543.09	1096.31
543.44	1100.05
543.80	1099.58
544.15	1095.60
544.51	1093.50
544.86	1085.31
545.22	1081.80
545.57	1088.12
545.93	1086.24
546.28	1088.58
546.64	1082.03
546.99	1076.18
547.35	1073.14
547.70	1067.52
548.05	1067.28
548.41	1075.94
548.76	1086.71
549.12	1085.77
549.47	1088.58
549.83	1086.94
550.18	1081.09
550.53	1077.35
550.89	1081.80
551.24	1089.29
551.60	1086.94
551.95	1084.84
552.30	1083.43
552.66	1072.20
553.01	1068.45
553.37	1069.16
553.72	1073.14
554.07	1064.24
554.43	1079.46
554.78	1083.67
555.13	1082.97
555.49	1084.84
555.84	1093.97
556.19	1098.18
556.55	1091.39
556.90	1093.03
557.26	1094.43
557.61	1091.63
557.96	1068.45
558.32	1069.86
558.67	1070.80
559.02	1076.65
559.37	1076.41
559.73	1090.22
560.08	1089.05
560.43	1088.35
560.79	1077.35
561.14	1072.20
561.49	1070.56
561.85	1071.97
562.20	1067.75
562.55	1067.52
562.90	1078.52
563.26	1078.52
563.61	1077.11
563.96	1084.60
564.32	1097.71
564.67	1099.12
565.02	1104.73
565.37	1107.78
565.73	1113.63
566.08	1101.69
566.43	1093.73
566.78	1087.88
567.14	1087.65
567.49	1079.92
567.84	1071.73
568.19	1068.45
568.54	1078.05
568.90	1078.99
569.25	1078.05
569.60	1088.58
569.95	1093.50
570.31	1082.50
570.66	1065.65
571.01	1072.67
571.36	1070.80
571.71	1065.88
572.06	1068.22
572.42	1078.75
572.77	1071.97
573.12	1078.99
573.47	1084.84
573.82	1089.05
574.18	1096.31
574.53	1099.82
574.88	1092.80
575.23	1093.97
575.58	1087.41
575.93	1086.94
576.28	1085.77
576.64	1086.94
576.99	1089.99
577.34	1093.26
577.69	1091.16
578.04	1084.14
578.39	1080.16
578.74	1072.20
579.09	1061.90
579.44	1064.24
579.80	1063.07
580.15	1068.22
580.50	1068.45
580.85	1074.54
581.20	1071.26
581.55	1080.63
581.90	1080.16
582.25	1080.16
582.60	1085.77
582.95	1080.86
583.30	1087.18
583.65	1091.63
584.00	1102.39
584.35	1094.43
584.71	1096.78
585.06	1094.20
585.41	1095.14
585.76	1085.54
586.11	1084.60
586.46	1082.97
586.81	1069.39
587.16	1058.86
587.51	1064.94
587.86	1058.39
588.21	1058.39
588.56	1066.58
588.91	1068.92
589.26	1058.62
589.61	1071.97
589.96	1076.88
590.31	1078.28
590.66	1078.28
591.01	1087.88
591.36	1085.07
591.71	1083.43
592.06	1092.56
592.41	1091.63
592.76	1084.84
593.10	1081.80
593.45	1081.80
593.80	1069.86
594.15	1070.33
594.50	1065.65
594.85	1075.24
595.20	1078.05
595.55	1074.07
595.90	1078.75
596.25	1081.56
596.60	1085.77
596.95	1093.73
597.30	1096.78
597.64	1152.25
597.99	1166.05
598.34	1151.31
598.69	1144.52
599.04	1141.48
599.39	1088.58
599.74	1079.92
600.09	1094.20
600.44	1090.69
600.78	1098.18
601.13	1092.09
601.48	1091.16
601.83	1086.71
602.18	1089.99
602.53	1094.43
602.88	1096.07
603.22	1094.67
603.57	1097.01
603.92	1094.67
604.27	1083.43
604.62	1082.50
604.97	1080.39
605.31	1080.16
605.66	1076.18
606.01	1071.26
606.36	1071.03
606.71	1075.24
607.05	1071.73
607.40	1073.84
607.75	1083.43
608.10	1083.43
608.44	1077.82
608.79	1073.60
609.14	1075.01
609.49	1066.82
609.84	1070.09
610.18	1078.05
610.53	1086.71
610.88	1098.18
611.23	1116.44
611.57	1123.69
611.92	1127.67
612.27	1120.41
612.62	1108.24
612.96	1100.29
613.31	1099.58
613.66	1095.37
614.00	1095.37
614.35	1099.12
614.70	1096.07
615.05	1082.73
615.39	1077.58
615.74	1080.86
616.09	1080.39
616.43	1077.82
616.78	1078.28
617.13	1072.43
617.47	1074.31
617.82	1072.90
618.17	1074.54
618.51	1084.37
618.86	1099.12
619.21	1094.67
619.55	1087.41
619.90	1081.80
620.25	1078.52
620.59	1065.41
620.94	1063.31
621.29	1072.43
621.63	1081.56
621.98	1080.63
622.32	1087.41
622.67	1091.16
623.02	1092.56
623.36	1083.90
623.71	1079.92
624.05	1082.73
624.40	1081.56
624.75	1079.46
625.09	1073.37
625.44	1074.77
625.78	1078.05
626.13	1080.86
626.48	1079.22
626.82	1091.39
627.17	1089.29
627.51	1084.37
627.86	1071.03
628.20	1071.50
628.55	1066.35
628.89	1070.56
629.24	1069.39
629.58	1075.24
629.93	1081.80
630.28	1088.12
630.62	1096.54
630.97	1096.31
631.31	1103.33
631.66	1088.12
632.00	1078.75
632.35	1068.22
632.69	1060.50
633.04	1060.03
633.38	1060.96
633.73	1067.75
634.07	1064.01
634.42	1071.73
634.76	1077.82
635.11	1080.16
635.45	1075.71
635.79	1093.73
636.14	1089.05
636.48	1077.35
636.83	1077.82
637.17	1083.20
637.52	1072.67
637.86	1075.71
638.21	1082.26
638.55	1094.67
638.89	1092.09
639.24	1093.50
639.58	1102.86
639.93	1104.97
640.27	1088.82
640.61	1098.41
640.96	1095.60
641.30	1084.37
641.65	1075.48
641.99	1089.75
642.33	1084.60
642.68	1085.54
643.02	1092.33
643.37	1093.97
643.71	1087.88
644.05	1082.73
644.40	1077.35
644.74	1075.24
645.08	1072.67
645.43	1073.37
645.77	1076.65
646.11	1081.80
646.46	1075.01
646.80	1084.60
647.14	1080.86
647.49	1080.39
647.83	1085.07
648.17	1095.60
648.52	1089.99
648.86	1096.78
649.20	1100.99
649.55	1094.90
649.89	1092.09
650.23	1095.60
650.57	1094.90
650.92	1090.46
651.26	1094.43
651.60	1087.41
651.95	1089.52
652.29	1083.67
652.63	1077.82
652.97	1074.54
653.32	1074.07
653.66	1076.41
654.00	1065.18
654.34	1067.99
654.69	1066.58
655.03	1068.69
655.37	1062.37
655.71	1061.20
656.05	1049.96
656.40	1055.11
656.74	1056.52
657.08	1051.37
657.42	1067.75
657.76	1086.71
658.11	1078.75
658.45	1087.88
658.79	1085.54
659.13	1079.46
659.47	1062.14
659.82	1068.45
660.16	1057.92
660.50	1059.79
660.84	1062.37
661.18	1071.73
661.52	1075.01
661.87	1078.28
662.21	1082.73
662.55	1084.60
662.89	1082.73
663.23	1073.14
663.57	1072.20
663.91	1066.11
664.25	1063.77
664.60	1069.39
664.94	1068.45
665.28	1071.50
665.62	1079.46
665.96	1081.56
666.30	1089.75
666.64	1091.86
666.98	1088.82
667.32	1086.94
667.66	1083.67
668.01	1075.48
668.35	1073.84
668.69	1070.56
669.03	1072.20
669.37	1080.63
669.71	1081.56
670.05	1097.01
670.39	1100.75
670.73	1102.16
671.07	1091.16
671.41	1081.09
671.75	1070.80
672.09	1072.90
672.43	1068.45
672.77	1082.26
673.11	1087.88
673.45	1092.09
673.79	1084.37
674.13	1083.67
674.47	1075.71
674.81	1074.77
675.15	1063.77
675.49	1064.01
675.83	1066.82
676.17	1063.77
676.51	1066.82
676.85	1064.24
677.19	1075.01
677.53	1081.33
677.87	1086.71
678.21	1086.01
678.55	1095.37
678.89	1087.41
679.23	1079.69
679.57	1081.09
679.90	1080.86
680.24	1075.24
680.58	1083.90
680.92	1086.71
681.26	1082.50
681.60	1087.41
681.94	1100.52
682.28	1098.41
682.62	1088.35
682.96	1087.18
683.29	1091.39
683.63	1086.48
683.97	1078.28
684.31	1094.43
684.65	1093.50
684.99	1075.48
685.33	1072.67
685.67	1086.24
686.00	1079.22
686.34	1069.62
686.68	1081.80
687.02	1078.99
687.36	1075.01
687.70	1080.16
688.03	1096.31
688.37	1101.69
688.71	1111.05
689.05	1103.09
689.39	1100.29
689.72	1086.71
690.06	1082.97
690.40	1074.31
690.74	1082.03
691.08	1077.11
691.41	1085.07
691.75	1075.94
692.09	1075.01
692.43	1068.22
692.76	1066.58
693.10	1067.52
693.44	1079.46
693.78	1090.69
694.11	1091.63
694.45	1089.99
694.79	1095.14
695.13	1087.18
695.46	1076.41
695.80	1079.69
696.14	1082.26
696.48	1069.39
696.81	1077.58
697.15	1085.31
697.49	1093.03
697.82	1095.60
698.16	1102.16
698.50	1099.12
698.83	1096.78
699.17	1089.29
699.51	1095.37
699.84	1104.26
700.18	1108.95
700.52	1101.92
700.85	1102.63
701.19	1096.78
701.53	1091.63
701.86	1077.11
702.20	1082.97
702.54	1081.33
702.87	1079.69
703.21	1072.43
703.55	1074.07
703.88	1078.28
704.22	1075.01
704.55	1061.90
704.89	1067.75
705.23	1077.82
705.56	1070.09
705.90	1076.18
706.23	1091.63
706.57	1090.92
706.91	1079.22
707.24	1073.14
707.58	1070.56
707.91	1073.37
708.25	1071.73
708.58	1072.67
708.92	1074.54
709.26	1070.33
709.59	1069.86
709.93	1070.56
710.26	1070.09
710.60	1075.48
710.93	1076.18
711.27	1080.39
711.60	1086.24
711.94	1088.82
712.27	1090.46
712.61	1099.12
712.94	1088.82
713.28	1082.50
713.61	1087.88
713.95	1087.88
714.28	1079.22
714.62	1082.73
714.95	1078.75
715.29	1081.09
715.62	1092.09
715.96	1095.60
716.29	1101.92
716.63	1111.05
716.96	1110.12
717.29	1099.58
717.63	1092.56
717.96	1074.31
718.30	1070.09
718.63	1070.33
718.97	1068.22
719.30	1068.69
719.63	1074.54
719.97	1072.67
720.30	1061.67
720.64	1054.41
720.97	1061.43
721.30	1069.86
721.64	1076.65
721.97	1094.67
722.31	1101.22
722.64	1092.09
722.97	1087.88
723.31	1085.07
723.64	1078.75
723.97	1076.88
724.31	1087.18
724.64	1087.88
724.98	1086.01
725.31	1083.43
725.64	1089.75
725.98	1093.03
726.31	1094.67
726.64	1090.92
726.97	1092.09
727.31	1083.20
727.64	1074.77
727.97	1066.82
728.31	1079.22
728.64	1086.24
728.97	1094.43
729.31	1097.71
729.64	1092.56
729.97	1082.97
730.30	1078.99
730.64	1072.20
730.97	1066.11
731.30	1074.31
731.63	1078.28
731.97	1063.31
732.30	1073.60
732.63	1076.18
732.96	1080.63
733.30	1069.16
733.63	1074.31
733.96	1066.58
734.29	1076.88
734.63	1071.50
734.96	1075.71
735.29	1078.28
735.62	1086.48
735.95	1084.84
736.29	1094.43
736.62	1104.26
736.95	1106.84
737.28	1094.20
737.61	1086.48
737.94	1079.69
738.28	1072.43
738.61	1073.37
738.94	1083.20
739.27	1086.94
739.60	1087.41
739.93	1082.50
740.27	1078.05
740.60	1073.60
740.93	1067.52
741.26	1071.26
741.59	1075.48
741.92	1077.82
742.25	1074.07
742.58	1081.09
742.91	1074.77
743.25	1071.03
743.58	1061.90
743.91	1064.71
744.24	1061.43
744.57	1068.22
744.90	1075.01
745.23	1087.65
745.56	1091.39
745.89	1092.33
746.22	1088.82
746.55	1089.99
746.88	1084.84
747.21	1087.88
747.54	1087.18
747.87	1084.84
748.20	1077.58
748.53	1076.41
748.87	1069.16
749.20	1069.16
749.53	1063.31
749.86	1068.69
750.19	1081.09
750.52	1082.50
750.85	1078.28
751.18	1073.37
751.51	1071.73
751.84	1066.58
752.16	1067.99
752.49	1067.75
752.82	1072.43
753.15	1076.18
753.48	1068.45
753.81	1062.60
754.14	1062.84
754.47	1069.86
754.80	1068.92
755.13	1078.28
755.46	1083.90
755.79	1088.12
756.12	1097.01
756.45	1089.29
756.78	1087.65
757.11	1087.41
757.43	1088.58
757.76	1078.52
758.09	1088.58
758.42	1085.07
758.75	1085.77
759.08	1081.33
759.41	1080.16
759.74	1073.37
760.07	1078.28
760.39	1076.18
760.72	1088.82
761.05	1094.67
761.38	1100.52
761.71	1097.95
762.04	1098.65
762.36	1090.22
762.69	1081.33
763.02	1086.48
763.35	1080.16
763.68	1071.97
764.01	1073.37
764.33	1077.11
764.66	1077.11
764.99	1082.50
765.32	1095.37
765.65	1089.05
765.97	1088.58
766.30	1082.50
