SpectraSuite Data File
++++++++++++++++++++++++++++++++++++
Date: Mon Aug 26 10:25:47 PDT 2019
User: corrico
Dark Spectrum Present: No
Reference Spectrum Present: No
Number of Sampled Component Spectra: 1
Spectrometers: USB2+H06089
Integration Time (usec): 10000 (USB2+H06089)
Spectra Averaged: 2 (USB2+H06089)
Boxcar Smoothing: 2 (USB2+H06089)
Correct for Electrical Dark: No (USB2+H06089)
Strobe/Lamp Enabled: No (USB2+H06089)
Correct for Detector Non-linearity: No (USB2+H06089)
Correct for Stray Light: No (USB2+H06089)
Number of Pixels in Processed Spectrum: 2048
>>>>>Begin Processed Spectral Data<<<<<
339.70	1031.01
340.07	1031.01
340.45	1005.26
340.82	982.56
341.19	954.94
341.57	930.60
341.94	914.21
342.31	897.60
342.69	889.64
343.06	890.34
343.43	887.53
343.81	888.47
344.18	900.87
344.55	903.45
344.93	912.34
345.30	926.15
345.67	914.92
346.04	914.45
346.42	926.15
346.79	937.15
347.16	942.77
347.54	971.32
347.91	979.51
348.28	991.92
348.65	994.26
349.03	1001.28
349.40	1009.24
349.77	1011.11
350.14	1016.49
350.52	1024.45
350.89	1029.13
351.26	1024.92
351.63	1041.77
352.01	1040.60
352.38	1042.01
352.75	1037.33
353.12	1051.60
353.50	1051.37
353.87	1056.75
354.24	1057.69
354.61	1059.79
354.98	1057.92
355.36	1054.41
355.73	1069.39
356.10	1071.26
356.47	1070.80
356.84	1065.41
357.22	1070.80
357.59	1063.07
357.96	1066.82
358.33	1074.07
358.70	1083.20
359.08	1085.54
359.45	1079.69
359.82	1079.22
360.19	1078.05
360.56	1080.39
360.94	1075.71
361.31	1077.58
361.68	1070.80
362.05	1074.31
362.42	1060.96
362.79	1065.18
363.16	1063.54
363.54	1064.71
363.91	1067.52
364.28	1068.22
364.65	1066.58
365.02	1063.07
365.39	1061.67
365.76	1056.05
366.14	1067.52
366.51	1068.69
366.88	1074.07
367.25	1075.24
367.62	1076.88
367.99	1072.43
368.36	1076.18
368.73	1071.73
369.10	1075.94
369.48	1074.54
369.85	1074.54
370.22	1059.79
370.59	1065.41
370.96	1066.58
371.33	1062.60
371.70	1061.90
372.07	1070.33
372.44	1067.05
372.81	1074.07
373.18	1080.39
373.55	1076.88
373.93	1079.92
374.30	1086.24
374.67	1074.31
375.04	1072.20
375.41	1082.50
375.78	1081.33
376.15	1068.69
376.52	1063.31
376.89	1059.33
377.26	1051.84
377.63	1051.13
378.00	1059.79
378.37	1065.88
378.74	1068.92
379.11	1067.75
379.48	1066.11
379.85	1066.35
380.22	1059.56
380.59	1056.99
380.96	1064.01
381.33	1062.84
381.70	1058.39
382.07	1064.71
382.44	1060.03
382.81	1051.13
383.18	1056.52
383.55	1050.90
383.92	1055.35
384.29	1061.43
384.66	1075.01
385.03	1074.31
385.40	1079.92
385.77	1074.31
386.14	1074.31
386.51	1060.73
386.88	1062.37
387.25	1067.28
387.62	1071.97
387.99	1077.82
388.36	1075.01
388.73	1069.62
389.10	1071.26
389.46	1070.09
389.83	1070.56
390.20	1077.35
390.57	1088.35
390.94	1084.14
391.31	1086.94
391.68	1086.94
392.05	1093.26
392.42	1090.92
392.79	1092.33
393.16	1092.33
393.53	1086.01
393.89	1077.11
394.26	1068.22
394.63	1064.94
395.00	1060.73
395.37	1070.80
395.74	1075.24
396.11	1072.90
396.48	1082.73
396.84	1086.48
397.21	1080.39
397.58	1075.24
397.95	1084.14
398.32	1077.35
398.69	1078.28
399.06	1082.50
399.42	1085.07
399.79	1070.80
400.16	1066.82
400.53	1057.69
400.90	1052.77
401.27	1058.16
401.64	1067.52
402.00	1067.75
402.37	1080.86
402.74	1073.84
403.11	1070.56
403.48	1070.56
403.84	1069.62
404.21	1061.20
404.58	1067.99
404.95	1064.71
405.32	1067.05
405.68	1079.22
406.05	1083.43
406.42	1079.92
406.79	1086.01
407.16	1078.99
407.52	1062.37
407.89	1054.88
408.26	1063.77
408.63	1056.75
408.99	1059.79
409.36	1063.77
409.73	1064.01
410.10	1060.03
410.47	1068.69
410.83	1081.80
411.20	1084.37
411.57	1087.18
411.94	1085.31
412.30	1067.75
412.67	1060.73
413.04	1068.45
413.40	1076.41
413.77	1084.14
414.14	1093.26
414.51	1090.22
414.87	1089.99
415.24	1078.28
415.61	1071.50
415.97	1078.75
416.34	1080.63
416.71	1072.67
417.08	1086.24
417.44	1080.86
417.81	1076.18
418.18	1080.16
418.54	1089.05
418.91	1077.58
419.28	1085.54
419.64	1084.84
420.01	1063.07
420.38	1051.37
420.74	1051.37
421.11	1046.22
421.48	1045.05
421.84	1064.48
422.21	1068.45
422.58	1065.88
422.94	1066.58
423.31	1073.14
423.68	1080.16
424.04	1090.92
424.41	1101.46
424.77	1102.16
425.14	1094.90
425.51	1084.84
425.87	1076.41
426.24	1073.14
426.61	1081.09
426.97	1086.94
427.34	1086.71
427.70	1081.56
428.07	1087.18
428.44	1075.48
428.80	1074.07
429.17	1070.80
429.53	1066.58
429.90	1052.07
430.27	1047.39
430.63	1045.28
431.00	1047.86
431.36	1059.33
431.73	1070.56
432.09	1092.09
432.46	1096.78
432.83	1099.12
433.19	1101.46
433.56	1105.44
433.92	1095.60
434.29	1091.63
434.65	1091.16
435.02	1086.71
435.38	1093.03
435.75	1094.20
436.11	1110.12
436.48	1114.56
436.84	1111.29
437.21	1089.52
437.57	1088.82
437.94	1069.16
438.30	1061.90
438.67	1062.60
439.03	1068.69
439.40	1059.09
439.76	1062.37
440.13	1062.84
440.49	1066.11
440.86	1072.20
441.22	1078.52
441.59	1080.39
441.95	1072.90
442.32	1073.60
442.68	1067.75
443.05	1067.28
443.41	1074.31
443.78	1091.63
444.14	1096.31
444.51	1095.37
444.87	1090.69
445.24	1078.05
445.60	1068.92
445.96	1060.96
446.33	1058.39
446.69	1064.01
447.06	1075.24
447.42	1077.58
447.79	1078.75
448.15	1091.16
448.51	1097.48
448.88	1094.67
449.24	1085.31
449.61	1082.73
449.97	1075.01
450.33	1060.73
450.70	1052.77
451.06	1055.82
451.43	1057.22
451.79	1052.54
452.15	1065.65
452.52	1060.03
452.88	1067.99
453.24	1077.82
453.61	1074.31
453.97	1068.22
454.34	1079.46
454.70	1072.20
455.06	1062.84
455.43	1072.67
455.79	1073.60
456.15	1071.97
456.52	1078.52
456.88	1078.52
457.24	1073.84
457.61	1063.54
457.97	1069.39
458.33	1065.18
458.70	1064.01
459.06	1071.97
459.42	1079.46
459.79	1075.71
460.15	1082.50
460.51	1089.05
460.88	1085.77
461.24	1083.20
461.60	1075.24
461.96	1062.60
462.33	1053.71
462.69	1060.96
463.05	1071.26
463.42	1079.46
463.78	1075.94
464.14	1084.60
464.50	1080.63
464.87	1077.58
465.23	1074.54
465.59	1083.90
465.95	1075.01
466.32	1063.07
466.68	1066.58
467.04	1068.45
467.40	1076.65
467.77	1085.07
468.13	1094.67
468.49	1086.01
468.85	1082.50
469.22	1076.65
469.58	1067.05
469.94	1064.71
470.30	1069.39
470.66	1069.62
471.03	1067.28
471.39	1066.35
471.75	1060.26
472.11	1056.05
472.47	1058.62
472.84	1056.05
473.20	1057.22
473.56	1062.14
473.92	1072.43
474.28	1073.60
474.65	1079.69
475.01	1089.05
475.37	1096.07
475.73	1086.94
476.09	1081.33
476.45	1080.63
476.81	1080.16
477.18	1083.20
477.54	1090.69
477.90	1092.56
478.26	1096.07
478.62	1093.73
478.98	1086.71
479.34	1077.82
479.71	1068.22
480.07	1055.82
480.43	1060.73
480.79	1061.67
481.15	1065.41
481.51	1079.22
481.87	1091.39
482.23	1093.03
482.59	1092.56
482.96	1089.99
483.32	1087.18
483.68	1077.82
484.04	1078.52
484.40	1076.18
484.76	1082.03
485.12	1077.58
485.48	1074.77
485.84	1064.71
486.20	1068.69
486.56	1062.60
486.92	1075.01
487.28	1086.24
487.64	1093.97
488.00	1093.26
488.37	1101.92
488.73	1093.03
489.09	1079.92
489.45	1081.09
489.81	1071.50
490.17	1072.90
490.53	1074.07
490.89	1085.07
491.25	1083.20
491.61	1099.12
491.97	1086.01
492.33	1083.20
492.69	1086.01
493.05	1076.41
493.41	1070.56
493.77	1070.56
494.13	1068.69
494.49	1062.60
494.85	1073.14
495.21	1070.80
495.57	1063.77
495.93	1068.69
496.29	1066.58
496.64	1063.07
497.00	1061.67
497.36	1077.11
497.72	1076.18
498.08	1079.69
498.44	1075.48
498.80	1078.99
499.16	1077.58
499.52	1072.90
499.88	1064.94
500.24	1056.05
500.60	1049.73
500.96	1050.67
501.32	1072.20
501.68	1084.37
502.03	1095.60
502.39	1100.99
502.75	1095.84
503.11	1082.03
503.47	1071.26
503.83	1065.65
504.19	1061.67
504.55	1065.41
504.91	1064.48
505.26	1074.77
505.62	1078.75
505.98	1079.92
506.34	1073.60
506.70	1071.50
507.06	1066.11
507.42	1068.92
507.78	1077.11
508.13	1080.39
508.49	1082.73
508.85	1079.69
509.21	1077.11
509.57	1076.88
509.93	1078.75
510.28	1075.01
510.64	1076.88
511.00	1078.75
511.36	1076.18
511.72	1063.54
512.07	1068.92
512.43	1077.11
512.79	1082.73
513.15	1071.97
513.51	1082.26
513.86	1077.11
514.22	1074.31
514.58	1074.31
514.94	1088.35
515.30	1092.09
515.65	1086.24
516.01	1085.31
516.37	1076.41
516.73	1072.90
517.08	1075.71
517.44	1077.58
517.80	1079.69
518.16	1090.22
518.51	1086.71
518.87	1079.92
519.23	1088.58
519.59	1088.12
519.94	1080.86
520.30	1086.48
520.66	1096.54
521.01	1094.67
521.37	1092.56
521.73	1094.43
522.09	1088.82
522.44	1088.35
522.80	1086.24
523.16	1082.50
523.51	1081.09
523.87	1081.09
524.23	1068.45
524.58	1072.67
524.94	1074.77
525.30	1075.48
525.65	1080.16
526.01	1088.58
526.37	1088.12
526.72	1094.67
527.08	1089.52
527.44	1085.31
527.79	1082.26
528.15	1080.39
528.51	1067.75
528.86	1062.14
529.22	1058.39
529.58	1073.37
529.93	1073.37
530.29	1076.88
530.65	1084.60
531.00	1090.22
531.36	1082.97
531.71	1086.94
532.07	1095.37
532.43	1088.12
532.78	1082.50
533.14	1070.80
533.49	1065.18
533.85	1073.60
534.21	1081.56
534.56	1083.67
534.92	1092.56
535.27	1092.80
535.63	1076.18
535.98	1079.22
536.34	1082.97
536.69	1075.01
537.05	1078.28
537.41	1088.58
537.76	1080.16
538.12	1074.77
538.47	1069.39
538.83	1074.31
539.18	1068.45
539.54	1075.01
539.89	1082.03
540.25	1088.82
540.60	1083.20
540.96	1085.54
541.31	1079.46
541.67	1080.39
542.02	1076.65
542.38	1079.69
542.73	1078.75
543.09	1079.22
543.44	1067.05
543.80	1074.54
544.15	1077.82
544.51	1078.99
544.86	1095.37
545.22	1100.52
545.57	1093.97
545.93	1083.20
546.28	1078.99
546.64	1077.11
546.99	1080.16
547.35	1082.50
547.70	1094.43
548.05	1090.46
548.41	1079.46
548.76	1089.75
549.12	1090.92
549.47	1085.31
549.83	1088.35
550.18	1083.67
550.53	1073.60
550.89	1079.92
551.24	1075.94
551.60	1075.01
551.95	1083.67
552.30	1084.60
552.66	1076.88
553.01	1075.24
553.37	1075.48
553.72	1065.65
554.07	1059.33
554.43	1060.03
554.78	1059.33
555.13	1057.69
555.49	1068.45
555.84	1073.37
556.19	1073.14
556.55	1079.22
556.90	1075.94
557.26	1074.31
557.61	1077.11
557.96	1073.14
558.32	1071.50
558.67	1086.01
559.02	1097.24
559.37	1095.84
559.73	1105.67
560.08	1106.84
560.43	1098.65
560.79	1086.71
561.14	1089.99
561.49	1087.41
561.85	1077.11
562.20	1083.43
562.55	1081.09
562.90	1071.73
563.26	1069.39
563.61	1089.29
563.96	1089.05
564.32	1098.65
564.67	1100.29
565.02	1108.01
565.37	1100.05
565.73	1100.29
566.08	1096.54
566.43	1098.88
566.78	1086.24
567.14	1081.56
567.49	1078.52
567.84	1073.84
568.19	1074.77
568.54	1077.35
568.90	1074.07
569.25	1072.20
569.60	1068.22
569.95	1067.52
570.31	1068.92
570.66	1075.24
571.01	1071.50
571.36	1077.35
571.71	1075.71
572.06	1080.63
572.42	1083.43
572.77	1086.71
573.12	1074.54
573.47	1075.01
573.82	1080.63
574.18	1073.14
574.53	1071.50
574.88	1082.50
575.23	1083.20
575.58	1069.62
575.93	1078.05
576.28	1079.46
576.64	1084.60
576.99	1088.35
577.34	1098.65
577.69	1089.99
578.04	1088.82
578.39	1088.12
578.74	1083.43
579.09	1071.26
579.44	1063.77
579.80	1074.07
580.15	1079.22
580.50	1069.62
580.85	1071.03
581.20	1076.18
581.55	1060.03
581.90	1041.54
582.25	1056.05
582.60	1060.03
582.95	1060.73
583.30	1062.14
583.65	1065.88
584.00	1055.82
584.35	1057.45
584.71	1059.09
585.06	1060.73
585.41	1073.84
585.76	1077.58
586.11	1074.07
586.46	1085.31
586.81	1083.90
587.16	1078.99
587.51	1082.03
587.86	1086.01
588.21	1075.01
588.56	1084.14
588.91	1081.56
589.26	1072.90
589.61	1068.69
589.96	1069.62
590.31	1063.77
590.66	1056.75
591.01	1066.11
591.36	1062.84
591.71	1073.84
592.06	1079.69
592.41	1089.99
592.76	1083.67
593.10	1092.09
593.45	1079.46
593.80	1075.71
594.15	1083.43
594.50	1093.73
594.85	1089.29
595.20	1099.58
595.55	1105.67
595.90	1095.84
596.25	1082.03
596.60	1091.86
596.95	1080.86
597.30	1076.18
597.64	1127.90
597.99	1136.80
598.34	1124.86
598.69	1134.22
599.04	1128.14
599.39	1073.14
599.74	1068.92
600.09	1067.52
600.44	1064.94
600.78	1074.07
601.13	1077.11
601.48	1072.20
601.83	1084.84
602.18	1085.54
602.53	1086.24
602.88	1083.67
603.22	1093.73
603.57	1090.22
603.92	1087.88
604.27	1086.01
604.62	1090.92
604.97	1092.80
605.31	1081.56
605.66	1086.71
606.01	1076.41
606.36	1068.69
606.71	1069.16
607.05	1082.50
607.40	1077.35
607.75	1082.73
608.10	1089.52
608.44	1086.71
608.79	1087.18
609.14	1092.56
609.49	1103.33
609.84	1098.88
610.18	1097.01
610.53	1089.05
610.88	1088.58
611.23	1083.67
611.57	1087.41
611.92	1091.86
612.27	1101.22
612.62	1096.78
612.96	1089.75
613.31	1087.41
613.66	1084.37
614.00	1081.80
614.35	1081.33
614.70	1081.80
615.05	1079.46
615.39	1071.03
615.74	1069.62
616.09	1077.11
616.43	1083.43
616.78	1080.39
617.13	1090.22
617.47	1084.14
617.82	1076.41
618.17	1068.22
618.51	1069.86
618.86	1068.45
619.21	1071.03
619.55	1070.56
619.90	1074.07
620.25	1078.52
620.59	1080.86
620.94	1075.71
621.29	1074.77
621.63	1072.67
621.98	1078.05
622.32	1076.18
622.67	1084.84
623.02	1079.46
623.36	1070.33
623.71	1070.09
624.05	1067.05
624.40	1063.77
624.75	1071.73
625.09	1077.35
625.44	1063.77
625.78	1067.99
626.13	1071.26
626.48	1067.99
626.82	1073.37
627.17	1088.12
627.51	1087.18
627.86	1083.67
628.20	1096.54
628.55	1102.39
628.89	1094.67
629.24	1093.97
629.58	1096.31
629.93	1084.60
630.28	1073.37
630.62	1082.26
630.97	1086.24
631.31	1086.94
631.66	1090.92
632.00	1097.71
632.35	1088.82
632.69	1082.03
633.04	1078.52
633.38	1071.50
633.73	1062.84
634.07	1065.65
634.42	1067.99
634.76	1071.26
635.11	1067.28
635.45	1073.84
635.79	1080.16
636.14	1078.75
636.48	1076.18
636.83	1080.86
637.17	1076.88
637.52	1057.69
637.86	1059.56
638.21	1059.79
638.55	1064.48
638.89	1072.67
639.24	1092.33
639.58	1093.26
639.93	1094.90
640.27	1092.33
640.61	1093.73
640.96	1080.63
641.30	1073.14
641.65	1081.33
641.99	1084.60
642.33	1078.99
642.68	1086.01
643.02	1091.16
643.37	1082.73
643.71	1072.20
644.05	1068.45
644.40	1066.58
644.74	1066.35
645.08	1072.20
645.43	1075.48
645.77	1082.03
646.11	1081.33
646.46	1096.07
646.80	1091.86
647.14	1095.14
647.49	1093.03
647.83	1096.07
648.17	1081.80
648.52	1083.67
648.86	1086.71
649.20	1087.41
649.55	1085.77
649.89	1093.50
650.23	1095.60
650.57	1092.80
650.92	1093.26
651.26	1088.35
651.60	1080.63
651.95	1079.22
652.29	1078.75
652.63	1078.28
652.97	1087.18
653.32	1091.16
653.66	1091.86
654.00	1094.90
654.34	1099.58
654.69	1103.09
655.03	1100.29
655.37	1094.20
655.71	1098.65
656.05	1095.84
656.40	1091.86
656.74	1087.65
657.08	1093.97
657.42	1085.54
657.76	1086.94
658.11	1087.65
658.45	1090.69
658.79	1080.86
659.13	1092.56
659.47	1092.33
659.82	1097.48
660.16	1098.88
660.50	1100.99
660.84	1095.84
661.18	1090.22
661.52	1077.35
661.87	1069.16
662.21	1065.41
662.55	1068.92
662.89	1080.16
663.23	1082.03
663.57	1093.26
663.91	1106.61
664.25	1094.90
664.60	1089.99
664.94	1084.84
665.28	1074.54
665.62	1071.26
665.96	1072.20
666.30	1067.28
666.64	1069.62
666.98	1075.24
667.32	1075.48
667.66	1079.69
668.01	1079.69
668.35	1077.35
668.69	1082.97
669.03	1078.52
669.37	1070.80
669.71	1074.77
670.05	1089.99
670.39	1089.05
670.73	1082.03
671.07	1091.86
671.41	1082.73
671.75	1075.71
672.09	1078.99
672.43	1081.80
672.77	1080.16
673.11	1082.97
673.45	1082.97
673.79	1075.71
674.13	1073.37
674.47	1075.94
674.81	1082.03
675.15	1071.50
675.49	1077.11
675.83	1087.41
676.17	1084.84
676.51	1078.52
676.85	1088.82
677.19	1082.03
677.53	1072.20
677.87	1080.39
678.21	1082.73
678.55	1082.50
678.89	1083.20
679.23	1087.18
679.57	1066.82
679.90	1065.65
680.24	1062.60
680.58	1056.99
680.92	1063.07
681.26	1077.82
681.60	1077.35
681.94	1071.26
682.28	1073.60
682.62	1068.45
682.96	1068.45
683.29	1068.69
683.63	1076.41
683.97	1075.01
684.31	1067.28
684.65	1070.80
684.99	1077.11
685.33	1074.77
685.67	1084.37
686.00	1094.67
686.34	1087.88
686.68	1085.31
687.02	1085.54
687.36	1081.33
687.70	1073.37
688.03	1071.97
688.37	1067.28
688.71	1071.50
689.05	1073.60
689.39	1080.39
689.72	1082.03
690.06	1089.05
690.40	1084.14
690.74	1087.18
691.08	1094.67
691.41	1093.26
691.75	1086.71
692.09	1092.09
692.43	1088.82
692.76	1081.80
693.10	1086.71
693.44	1095.84
693.78	1080.86
694.11	1078.52
694.45	1080.63
694.79	1077.58
695.13	1079.92
695.46	1083.90
695.80	1085.07
696.14	1082.50
696.48	1085.54
696.81	1079.92
697.15	1082.97
697.49	1087.41
697.82	1086.48
698.16	1079.92
698.50	1072.67
698.83	1074.77
699.17	1062.37
699.51	1055.35
699.84	1054.65
700.18	1050.90
700.52	1057.22
700.85	1070.56
701.19	1074.07
701.53	1081.33
701.86	1090.69
702.20	1081.80
702.54	1078.28
702.87	1081.80
703.21	1074.31
703.55	1075.71
703.88	1070.09
704.22	1073.14
704.55	1080.16
704.89	1091.63
705.23	1086.71
705.56	1092.56
705.90	1086.48
706.23	1071.26
706.57	1060.96
706.91	1059.56
707.24	1071.97
707.58	1064.48
707.91	1066.82
708.25	1079.92
708.58	1092.33
708.92	1091.86
709.26	1097.01
709.59	1100.05
709.93	1083.90
710.26	1074.07
710.60	1066.82
710.93	1067.28
711.27	1061.90
711.60	1081.33
711.94	1083.90
712.27	1085.07
712.61	1091.39
712.94	1100.52
713.28	1083.67
713.61	1077.11
713.95	1075.01
714.28	1073.84
714.62	1062.60
714.95	1065.88
715.29	1074.54
715.62	1077.58
715.96	1075.01
716.29	1092.33
716.63	1093.73
716.96	1087.88
717.29	1087.41
717.63	1085.77
717.96	1078.99
718.30	1071.50
718.63	1068.22
718.97	1062.60
719.30	1062.14
719.63	1069.86
719.97	1086.01
720.30	1090.69
720.64	1093.26
720.97	1097.48
721.30	1104.97
721.64	1095.37
721.97	1097.95
722.31	1099.12
722.64	1088.58
722.97	1068.92
723.31	1069.39
723.64	1074.07
723.97	1068.45
724.31	1078.28
724.64	1080.39
724.98	1075.48
725.31	1072.20
725.64	1081.80
725.98	1076.18
726.31	1078.05
726.64	1078.28
726.97	1064.01
727.31	1046.92
727.64	1051.84
727.97	1052.54
728.31	1052.54
728.64	1051.37
728.97	1066.35
729.31	1068.92
729.64	1069.86
729.97	1077.11
730.30	1081.09
730.64	1085.07
730.97	1076.65
731.30	1072.90
731.63	1070.33
731.97	1076.65
732.30	1072.20
732.63	1069.39
732.96	1071.26
733.30	1059.09
733.63	1063.31
733.96	1074.54
734.29	1074.77
734.63	1078.75
734.96	1082.50
735.29	1075.71
735.62	1058.16
735.95	1065.88
736.29	1067.28
736.62	1070.80
736.95	1080.63
737.28	1082.03
737.61	1080.39
737.94	1083.20
738.28	1088.12
738.61	1079.46
738.94	1085.54
739.27	1086.24
739.60	1085.07
739.93	1085.31
740.27	1090.92
740.60	1074.77
740.93	1075.71
741.26	1075.24
741.59	1076.88
741.92	1074.31
742.25	1087.88
742.58	1091.16
742.91	1084.60
743.25	1078.28
743.58	1079.92
743.91	1077.11
744.24	1074.77
744.57	1075.24
744.90	1071.73
745.23	1067.05
745.56	1070.80
745.89	1071.97
746.22	1074.07
746.55	1076.18
746.88	1077.35
747.21	1075.01
747.54	1076.18
747.87	1081.33
748.20	1089.99
748.53	1088.82
748.87	1088.35
749.20	1078.75
749.53	1076.18
749.86	1074.77
750.19	1072.43
750.52	1072.67
750.85	1077.58
751.18	1078.52
751.51	1074.07
751.84	1082.50
752.16	1084.60
752.49	1092.80
752.82	1086.94
753.15	1090.46
753.48	1085.07
753.81	1081.80
754.14	1071.73
754.47	1079.92
754.80	1078.28
755.13	1080.16
755.46	1079.69
755.79	1082.03
756.12	1071.97
756.45	1075.94
756.78	1082.03
757.11	1086.48
757.43	1083.90
757.76	1081.80
758.09	1070.33
758.42	1072.90
758.75	1073.37
759.08	1076.65
759.41	1078.75
759.74	1082.97
760.07	1069.39
760.39	1073.84
760.72	1079.92
761.05	1086.71
761.38	1086.01
761.71	1098.65
762.04	1088.35
762.36	1081.80
762.69	1082.73
763.02	1091.39
763.35	1080.86
763.68	1082.73
764.01	1075.71
764.33	1082.97
764.66	1085.77
764.99	1094.20
765.32	1094.67
765.65	1096.07
765.97	1085.31
766.30	1082.03
