SpectraSuite Data File
++++++++++++++++++++++++++++++++++++
Date: Mon Aug 26 10:25:46 PDT 2019
User: corrico
Dark Spectrum Present: No
Reference Spectrum Present: No
Number of Sampled Component Spectra: 1
Spectrometers: USB2+H06089
Integration Time (usec): 10000 (USB2+H06089)
Spectra Averaged: 2 (USB2+H06089)
Boxcar Smoothing: 2 (USB2+H06089)
Correct for Electrical Dark: No (USB2+H06089)
Strobe/Lamp Enabled: No (USB2+H06089)
Correct for Detector Non-linearity: No (USB2+H06089)
Correct for Stray Light: No (USB2+H06089)
Number of Pixels in Processed Spectrum: 2048
>>>>>Begin Processed Spectral Data<<<<<
339.70	1009.94
340.07	1009.94
340.45	978.81
340.82	960.32
341.19	943.00
341.57	921.00
341.94	906.26
342.31	898.53
342.69	892.68
343.06	887.06
343.43	887.30
343.81	897.83
344.18	899.70
344.55	906.96
344.93	918.89
345.30	928.96
345.67	934.11
346.04	942.53
346.42	945.11
346.79	943.24
347.16	935.51
347.54	940.19
347.91	949.79
348.28	967.34
348.65	984.43
349.03	1005.73
349.40	1025.39
349.77	1030.30
350.14	1033.58
350.52	1043.18
350.89	1040.60
351.26	1027.03
351.63	1038.50
352.01	1049.03
352.38	1040.84
352.75	1060.03
353.12	1072.43
353.50	1081.09
353.87	1076.41
354.24	1091.16
354.61	1080.63
354.98	1078.05
355.36	1070.56
355.73	1070.80
356.10	1067.99
356.47	1079.46
356.84	1076.18
357.22	1083.90
357.59	1082.03
357.96	1074.07
358.33	1060.96
358.70	1077.35
359.08	1069.62
359.45	1072.20
359.82	1077.35
360.19	1087.18
360.56	1076.18
360.94	1071.26
361.31	1063.54
361.68	1061.43
362.05	1057.69
362.42	1056.05
362.79	1066.35
363.16	1072.43
363.54	1070.56
363.91	1066.82
364.28	1071.73
364.65	1069.39
365.02	1069.86
365.39	1067.05
365.76	1070.80
366.14	1064.24
366.51	1063.31
366.88	1063.54
367.25	1054.65
367.62	1057.22
367.99	1063.54
368.36	1052.30
368.73	1048.33
369.10	1064.01
369.48	1065.88
369.85	1065.88
370.22	1074.77
370.59	1072.90
370.96	1067.75
371.33	1062.37
371.70	1061.43
372.07	1067.05
372.44	1072.20
372.81	1078.28
373.18	1083.20
373.55	1084.60
373.93	1082.26
374.30	1077.11
374.67	1065.41
375.04	1058.39
375.41	1051.84
375.78	1048.33
376.15	1055.11
376.52	1062.14
376.89	1061.67
377.26	1068.45
377.63	1065.65
378.00	1062.37
378.37	1067.52
378.74	1076.41
379.11	1070.80
379.48	1070.80
379.85	1075.48
380.22	1075.24
380.59	1068.92
380.96	1068.22
381.33	1059.09
381.70	1057.22
382.07	1048.33
382.44	1047.86
382.81	1054.41
383.18	1065.18
383.55	1060.50
383.92	1068.45
384.29	1066.82
384.66	1056.75
385.03	1056.99
385.40	1062.14
385.77	1059.56
386.14	1062.60
386.51	1077.58
386.88	1083.90
387.25	1095.37
387.62	1093.97
387.99	1087.65
388.36	1075.01
388.73	1075.48
389.10	1069.62
389.46	1072.67
389.83	1083.67
390.20	1082.97
390.57	1069.16
390.94	1055.35
391.31	1051.13
391.68	1057.92
392.05	1064.01
392.42	1071.26
392.79	1071.73
393.16	1069.86
393.53	1049.50
393.89	1048.33
394.26	1057.22
394.63	1067.99
395.00	1071.73
395.37	1085.54
395.74	1089.52
396.11	1084.14
396.48	1084.14
396.84	1095.14
397.21	1093.03
397.58	1083.20
397.95	1076.41
398.32	1070.33
398.69	1061.90
399.06	1057.45
399.42	1063.54
399.79	1065.88
400.16	1064.94
400.53	1067.75
400.90	1064.48
401.27	1067.99
401.64	1064.01
402.00	1060.96
402.37	1059.56
402.74	1068.69
403.11	1068.69
403.48	1079.69
403.84	1081.09
404.21	1073.14
404.58	1067.75
404.95	1066.11
405.32	1059.33
405.68	1065.18
406.05	1069.62
406.42	1068.22
406.79	1074.54
407.16	1076.65
407.52	1085.54
407.89	1081.80
408.26	1080.39
408.63	1077.58
408.99	1077.58
409.36	1065.41
409.73	1068.92
410.10	1083.67
410.47	1086.01
410.83	1083.20
411.20	1089.05
411.57	1083.43
411.94	1069.86
412.30	1061.67
412.67	1063.54
413.04	1055.35
413.40	1061.90
413.77	1068.69
414.14	1067.52
414.51	1070.09
414.87	1076.41
415.24	1072.90
415.61	1063.77
415.97	1074.07
416.34	1071.97
416.71	1066.11
417.08	1070.09
417.44	1071.50
417.81	1068.92
418.18	1064.94
418.54	1069.62
418.91	1073.37
419.28	1079.92
419.64	1077.82
420.01	1084.37
420.38	1081.33
420.74	1077.11
421.11	1085.07
421.48	1088.35
421.84	1084.37
422.21	1087.65
422.58	1093.50
422.94	1081.56
423.31	1074.07
423.68	1070.56
424.04	1078.99
424.41	1069.16
424.77	1072.20
425.14	1072.90
425.51	1083.43
425.87	1074.54
426.24	1077.35
426.61	1073.37
426.97	1087.41
427.34	1083.67
427.70	1085.77
428.07	1085.31
428.44	1082.50
428.80	1064.94
429.17	1062.14
429.53	1060.26
429.90	1060.50
430.27	1071.73
430.63	1072.20
431.00	1073.84
431.36	1076.88
431.73	1072.90
432.09	1064.48
432.46	1061.43
432.83	1067.28
433.19	1062.60
433.56	1065.88
433.92	1065.65
434.29	1076.65
434.65	1082.73
435.02	1085.54
435.38	1087.18
435.75	1097.01
436.11	1094.43
436.48	1089.05
436.84	1088.82
437.21	1092.33
437.57	1092.56
437.94	1085.54
438.30	1077.58
438.67	1079.46
439.03	1079.22
439.40	1077.82
439.76	1090.46
440.13	1097.95
440.49	1092.09
440.86	1082.97
441.22	1078.75
441.59	1072.67
441.95	1064.24
442.32	1075.71
442.68	1085.54
443.05	1074.07
443.41	1074.07
443.78	1077.58
444.14	1073.37
444.51	1072.43
444.87	1086.01
445.24	1089.29
445.60	1094.20
445.96	1086.94
446.33	1087.65
446.69	1089.05
447.06	1079.46
447.42	1077.35
447.79	1083.67
448.15	1083.20
448.51	1081.33
448.88	1087.65
449.24	1082.73
449.61	1082.03
449.97	1082.73
450.33	1079.46
450.70	1086.94
451.06	1082.26
451.43	1079.69
451.79	1084.60
452.15	1092.56
452.52	1082.50
452.88	1089.52
453.24	1096.07
453.61	1090.46
453.97	1087.65
454.34	1087.88
454.70	1089.05
455.06	1081.09
455.43	1086.01
455.79	1081.33
456.15	1084.14
456.52	1087.41
456.88	1088.58
457.24	1079.46
457.61	1078.52
457.97	1080.63
458.33	1071.26
458.70	1069.86
459.06	1075.24
459.42	1081.09
459.79	1077.58
460.15	1089.99
460.51	1093.97
460.88	1081.33
461.24	1072.67
461.60	1078.99
461.96	1074.31
462.33	1067.52
462.69	1075.24
463.05	1080.63
463.42	1075.24
463.78	1065.65
464.14	1077.11
464.50	1084.84
464.87	1083.43
465.23	1078.52
465.59	1084.84
465.95	1078.05
466.32	1070.09
466.68	1069.86
467.04	1075.48
467.40	1082.03
467.77	1083.90
468.13	1084.60
468.49	1085.54
468.85	1085.07
469.22	1080.39
469.58	1079.46
469.94	1083.67
470.30	1078.05
470.66	1077.11
471.03	1071.26
471.39	1074.07
471.75	1069.16
472.11	1067.75
472.47	1068.45
472.84	1067.99
473.20	1058.62
473.56	1059.79
473.92	1072.20
474.28	1068.22
474.65	1075.01
475.01	1081.09
475.37	1088.35
475.73	1078.99
476.09	1085.31
476.45	1079.46
476.81	1086.71
477.18	1081.09
477.54	1088.35
477.90	1083.20
478.26	1085.31
478.62	1078.05
478.98	1074.07
479.34	1067.52
479.71	1081.33
480.07	1081.56
480.43	1080.16
480.79	1087.41
481.15	1084.14
481.51	1075.94
481.87	1066.58
482.23	1071.97
482.59	1068.45
482.96	1068.22
483.32	1064.24
483.68	1070.09
484.04	1070.09
484.40	1068.92
484.76	1076.41
485.12	1079.22
485.48	1077.35
485.84	1076.88
486.20	1074.54
486.56	1075.01
486.92	1073.14
487.28	1079.92
487.64	1077.11
488.00	1082.73
488.37	1080.63
488.73	1083.90
489.09	1096.78
489.45	1106.14
489.81	1104.73
490.17	1102.86
490.53	1099.82
490.89	1086.48
491.25	1080.39
491.61	1071.26
491.97	1072.20
492.33	1073.14
492.69	1070.80
493.05	1069.16
493.41	1077.35
493.77	1073.37
494.13	1075.01
494.49	1077.58
494.85	1064.71
495.21	1067.75
495.57	1083.20
495.93	1085.07
496.29	1094.20
496.64	1099.58
497.00	1097.24
497.36	1088.12
497.72	1083.43
498.08	1078.52
498.44	1084.84
498.80	1092.33
499.16	1089.29
499.52	1091.16
499.88	1079.69
500.24	1075.24
500.60	1061.67
500.96	1068.92
501.32	1068.92
501.68	1075.71
502.03	1085.31
502.39	1092.09
502.75	1084.37
503.11	1085.07
503.47	1085.31
503.83	1080.16
504.19	1077.35
504.55	1078.75
504.91	1080.39
505.26	1084.84
505.62	1088.82
505.98	1094.67
506.34	1101.22
506.70	1103.09
507.06	1103.33
507.42	1103.33
507.78	1100.05
508.13	1104.26
508.49	1099.82
508.85	1092.33
509.21	1092.80
509.57	1091.86
509.93	1082.50
510.28	1084.37
510.64	1092.33
511.00	1090.22
511.36	1091.16
511.72	1103.80
512.07	1100.52
512.43	1095.37
512.79	1103.33
513.15	1111.05
513.51	1106.14
513.86	1114.33
514.22	1119.24
514.58	1113.39
514.94	1110.12
515.30	1100.99
515.65	1094.90
516.01	1093.50
516.37	1088.35
516.73	1080.86
517.08	1081.80
517.44	1080.63
517.80	1078.99
518.16	1070.33
518.51	1076.18
518.87	1077.82
519.23	1078.05
519.59	1074.54
519.94	1072.67
520.30	1069.86
520.66	1068.22
521.01	1063.77
521.37	1079.46
521.73	1090.92
522.09	1088.12
522.44	1089.29
522.80	1088.12
523.16	1077.58
523.51	1080.63
523.87	1081.80
524.23	1084.14
524.58	1092.56
524.94	1093.97
525.30	1093.73
525.65	1098.18
526.01	1098.41
526.37	1097.71
526.72	1099.82
527.08	1090.92
527.44	1077.82
527.79	1075.94
528.15	1064.24
528.51	1068.92
528.86	1087.65
529.22	1092.33
529.58	1095.84
529.93	1111.99
530.29	1104.50
530.65	1090.92
531.00	1103.80
531.36	1104.03
531.71	1093.50
532.07	1092.80
532.43	1088.82
532.78	1066.35
533.14	1063.77
533.49	1070.56
533.85	1076.65
534.21	1092.09
534.56	1112.22
534.92	1108.95
535.27	1101.92
535.63	1106.14
535.98	1096.78
536.34	1093.26
536.69	1100.52
537.05	1111.99
537.41	1096.07
537.76	1099.58
538.12	1104.26
538.47	1100.99
538.83	1096.54
539.18	1099.12
539.54	1096.54
539.89	1087.41
540.25	1075.94
540.60	1080.63
540.96	1086.24
541.31	1088.82
541.67	1088.82
542.02	1098.41
542.38	1095.60
542.73	1091.16
543.09	1090.22
543.44	1092.33
543.80	1084.14
544.15	1075.24
544.51	1075.94
544.86	1078.75
545.22	1086.94
545.57	1093.50
545.93	1097.71
546.28	1101.92
546.64	1090.92
546.99	1091.16
547.35	1089.99
547.70	1085.54
548.05	1090.69
548.41	1098.18
548.76	1089.52
549.12	1101.69
549.47	1114.56
549.83	1101.92
550.18	1098.65
550.53	1094.67
550.89	1087.88
551.24	1077.35
551.60	1072.90
551.95	1068.22
552.30	1083.43
552.66	1079.69
553.01	1089.99
553.37	1104.73
553.72	1102.86
554.07	1083.43
554.43	1080.16
554.78	1072.90
555.13	1074.54
555.49	1081.80
555.84	1092.80
556.19	1094.90
556.55	1100.52
556.90	1096.07
557.26	1096.31
557.61	1095.84
557.96	1100.29
558.32	1096.07
558.67	1085.31
559.02	1083.43
559.37	1075.48
559.73	1071.50
560.08	1072.20
560.43	1076.65
560.79	1077.58
561.14	1078.28
561.49	1074.31
561.85	1075.71
562.20	1077.11
562.55	1079.92
562.90	1086.71
563.26	1091.16
563.61	1089.29
563.96	1089.29
564.32	1086.24
564.67	1082.03
565.02	1081.80
565.37	1070.33
565.73	1072.67
566.08	1078.28
566.43	1081.80
566.78	1082.26
567.14	1092.33
567.49	1091.16
567.84	1081.33
568.19	1081.33
568.54	1084.60
568.90	1080.16
569.25	1075.24
569.60	1079.46
569.95	1076.65
570.31	1064.71
570.66	1062.37
571.01	1065.41
571.36	1066.58
571.71	1061.90
572.06	1062.60
572.42	1071.50
572.77	1073.14
573.12	1074.07
573.47	1075.01
573.82	1084.14
574.18	1079.92
574.53	1073.84
574.88	1066.35
575.23	1068.69
575.58	1069.86
575.93	1070.80
576.28	1079.22
576.64	1083.90
576.99	1092.56
577.34	1089.52
577.69	1098.88
578.04	1097.71
578.39	1107.54
578.74	1103.80
579.09	1105.67
579.44	1094.67
579.80	1089.99
580.15	1085.54
580.50	1074.31
580.85	1078.28
581.20	1075.24
581.55	1080.86
581.90	1085.07
582.25	1090.22
582.60	1077.35
582.95	1084.37
583.30	1081.56
583.65	1064.01
584.00	1066.35
584.35	1065.88
584.71	1052.54
585.06	1056.99
585.41	1050.90
585.76	1062.60
586.11	1065.41
586.46	1076.88
586.81	1078.05
587.16	1095.60
587.51	1077.82
587.86	1077.11
588.21	1073.84
588.56	1079.22
588.91	1081.56
589.26	1091.86
589.61	1090.92
589.96	1098.41
590.31	1083.20
590.66	1082.50
591.01	1076.41
591.36	1082.50
591.71	1075.01
592.06	1074.07
592.41	1063.54
592.76	1065.65
593.10	1067.52
593.45	1070.80
593.80	1080.63
594.15	1076.88
594.50	1076.65
594.85	1080.16
595.20	1079.92
595.55	1067.28
595.90	1077.58
596.25	1077.35
596.60	1071.03
596.95	1071.03
597.30	1072.20
597.64	1127.67
597.99	1138.44
598.34	1128.14
598.69	1124.39
599.04	1132.12
599.39	1076.88
599.74	1071.97
600.09	1076.18
600.44	1076.88
600.78	1073.60
601.13	1071.97
601.48	1068.45
601.83	1081.33
602.18	1081.80
602.53	1081.33
602.88	1093.03
603.22	1104.03
603.57	1101.22
603.92	1092.80
604.27	1100.75
604.62	1083.90
604.97	1070.80
605.31	1070.09
605.66	1076.88
606.01	1076.88
606.36	1084.37
606.71	1085.77
607.05	1083.43
607.40	1084.37
607.75	1074.31
608.10	1077.11
608.44	1075.01
608.79	1076.88
609.14	1081.56
609.49	1103.09
609.84	1100.75
610.18	1105.90
610.53	1107.54
610.88	1110.12
611.23	1100.75
611.57	1098.88
611.92	1101.69
612.27	1107.54
612.62	1110.35
612.96	1105.44
613.31	1110.12
613.66	1103.33
614.00	1108.48
614.35	1101.46
614.70	1097.01
615.05	1093.73
615.39	1100.52
615.74	1088.82
616.09	1093.26
616.43	1093.50
616.78	1089.75
617.13	1074.54
617.47	1069.62
617.82	1066.11
618.17	1071.97
618.51	1078.52
618.86	1091.39
619.21	1080.86
619.55	1081.33
619.90	1075.94
620.25	1061.43
620.59	1059.33
620.94	1071.50
621.29	1071.50
621.63	1073.84
621.98	1086.71
622.32	1082.97
622.67	1086.01
623.02	1082.97
623.36	1089.29
623.71	1088.12
624.05	1085.54
624.40	1079.92
624.75	1083.67
625.09	1067.75
625.44	1072.20
625.78	1065.41
626.13	1064.48
626.48	1060.26
626.82	1064.01
627.17	1051.13
627.51	1061.67
627.86	1070.80
628.20	1067.28
628.55	1064.24
628.89	1078.99
629.24	1086.71
629.58	1088.35
629.93	1091.39
630.28	1093.97
630.62	1076.18
630.97	1073.37
631.31	1067.52
631.66	1075.94
632.00	1087.41
632.35	1093.97
632.69	1097.01
633.04	1095.84
633.38	1101.69
633.73	1088.82
634.07	1095.84
634.42	1089.75
634.76	1093.03
635.11	1085.54
635.45	1082.03
635.79	1086.24
636.14	1092.80
636.48	1088.35
636.83	1088.12
637.17	1099.82
637.52	1087.41
637.86	1076.65
638.21	1072.67
638.55	1072.20
638.89	1066.35
639.24	1082.50
639.58	1090.22
639.93	1100.29
640.27	1100.99
640.61	1110.58
640.96	1094.43
641.30	1088.82
641.65	1077.82
641.99	1080.63
642.33	1066.11
642.68	1071.73
643.02	1084.37
643.37	1094.67
643.71	1080.86
644.05	1086.94
644.40	1083.90
644.74	1078.75
645.08	1070.56
645.43	1079.92
645.77	1087.88
646.11	1095.84
646.46	1092.56
646.80	1099.58
647.14	1098.88
647.49	1090.69
647.83	1091.86
648.17	1089.52
648.52	1085.54
648.86	1084.84
649.20	1090.92
649.55	1089.05
649.89	1090.92
650.23	1099.12
650.57	1096.78
650.92	1094.67
651.26	1094.20
651.60	1090.22
651.95	1094.90
652.29	1096.78
652.63	1090.69
652.97	1091.39
653.32	1086.94
653.66	1077.82
654.00	1073.84
654.34	1075.94
654.69	1069.62
655.03	1080.63
655.37	1086.94
655.71	1088.58
656.05	1089.05
656.40	1099.58
656.74	1098.18
657.08	1101.22
657.42	1104.03
657.76	1103.56
658.11	1098.41
658.45	1095.14
658.79	1087.18
659.13	1085.54
659.47	1091.86
659.82	1085.07
660.16	1084.14
660.50	1082.97
660.84	1089.29
661.18	1083.43
661.52	1075.71
661.87	1077.82
662.21	1071.97
662.55	1075.48
662.89	1062.84
663.23	1073.37
663.57	1074.31
663.91	1076.18
664.25	1061.67
664.60	1077.82
664.94	1078.28
665.28	1080.86
665.62	1078.52
665.96	1081.09
666.30	1073.84
666.64	1071.97
666.98	1068.22
667.32	1071.97
667.66	1071.50
668.01	1081.80
668.35	1082.26
668.69	1093.50
669.03	1098.41
669.37	1090.92
669.71	1085.77
670.05	1084.14
670.39	1069.39
670.73	1067.28
671.07	1077.82
671.41	1087.18
671.75	1093.73
672.09	1093.50
672.43	1089.52
672.77	1095.60
673.11	1085.31
673.45	1078.99
673.79	1074.77
674.13	1081.09
674.47	1063.31
674.81	1062.14
675.15	1054.88
675.49	1061.67
675.83	1059.56
676.17	1071.26
676.51	1073.60
676.85	1075.71
677.19	1077.11
677.53	1078.52
677.87	1072.20
678.21	1073.14
678.55	1076.41
678.89	1078.99
679.23	1077.82
679.57	1077.35
679.90	1086.71
680.24	1087.88
680.58	1080.16
680.92	1075.71
681.26	1081.09
681.60	1074.77
681.94	1073.60
682.28	1074.77
682.62	1074.07
682.96	1085.31
683.29	1082.50
683.63	1090.69
683.97	1097.71
684.31	1101.69
684.65	1100.75
684.99	1100.29
685.33	1087.88
685.67	1082.97
686.00	1080.39
686.34	1067.05
686.68	1075.24
687.02	1078.05
687.36	1078.52
687.70	1071.50
688.03	1078.05
688.37	1075.48
688.71	1077.58
689.05	1080.39
689.39	1092.56
689.72	1085.31
690.06	1087.18
690.40	1094.20
690.74	1084.84
691.08	1075.71
691.41	1079.46
691.75	1070.56
692.09	1067.05
692.43	1073.37
692.76	1085.07
693.10	1087.41
693.44	1088.35
693.78	1088.35
694.11	1092.80
694.45	1086.01
694.79	1085.31
695.13	1093.26
695.46	1094.90
695.80	1091.16
696.14	1087.88
696.48	1089.29
696.81	1080.86
697.15	1081.56
697.49	1084.60
697.82	1084.14
698.16	1079.22
698.50	1078.28
698.83	1077.11
699.17	1078.05
699.51	1094.43
699.84	1104.03
700.18	1107.07
700.52	1105.90
700.85	1098.18
701.19	1093.26
701.53	1087.65
701.86	1084.84
702.20	1088.58
702.54	1096.07
702.87	1093.03
703.21	1094.90
703.55	1104.97
703.88	1106.14
704.22	1102.86
704.55	1099.58
704.89	1099.35
705.23	1082.03
705.56	1080.16
705.90	1076.88
706.23	1078.75
706.57	1065.18
706.91	1065.41
707.24	1053.71
707.58	1058.16
707.91	1060.50
708.25	1069.62
708.58	1071.03
708.92	1078.28
709.26	1072.20
709.59	1073.37
709.93	1084.84
710.26	1088.58
710.60	1094.43
710.93	1101.69
711.27	1101.92
711.60	1098.65
711.94	1101.46
712.27	1097.24
712.61	1096.07
712.94	1091.86
713.28	1088.58
713.61	1082.50
713.95	1080.16
714.28	1084.84
714.62	1077.58
714.95	1074.77
715.29	1078.99
715.62	1081.09
715.96	1069.39
716.29	1069.39
716.63	1065.88
716.96	1067.05
717.29	1060.03
717.63	1062.60
717.96	1068.92
718.30	1066.35
718.63	1066.35
718.97	1065.41
719.30	1062.84
719.63	1073.14
719.97	1083.20
720.30	1080.39
720.64	1082.03
720.97	1087.88
721.30	1079.92
721.64	1075.01
721.97	1078.99
722.31	1077.35
722.64	1079.22
722.97	1078.99
723.31	1078.28
723.64	1076.18
723.97	1078.05
724.31	1070.56
724.64	1073.14
724.98	1074.31
725.31	1083.20
725.64	1091.16
725.98	1101.46
726.31	1096.07
726.64	1095.37
726.97	1091.39
727.31	1087.88
727.64	1084.14
727.97	1077.35
728.31	1071.97
728.64	1076.18
728.97	1082.03
729.31	1076.18
729.64	1080.63
729.97	1089.52
730.30	1086.01
730.64	1080.16
730.97	1093.03
731.30	1093.26
731.63	1099.35
731.97	1106.37
732.30	1104.03
732.63	1093.50
732.96	1088.58
733.30	1081.56
733.63	1071.50
733.96	1069.39
734.29	1071.97
734.63	1079.69
734.96	1083.20
735.29	1082.26
735.62	1084.14
735.95	1080.86
736.29	1087.41
736.62	1081.09
736.95	1080.86
737.28	1086.48
737.61	1093.97
737.94	1091.63
738.28	1092.33
738.61	1094.20
738.94	1092.56
739.27	1084.37
739.60	1076.41
739.93	1080.16
740.27	1081.09
740.60	1082.73
740.93	1079.22
741.26	1074.07
741.59	1072.90
741.92	1077.82
742.25	1075.48
742.58	1078.05
742.91	1081.09
743.25	1088.35
743.58	1071.73
743.91	1066.35
744.24	1071.03
744.57	1083.90
744.90	1075.24
745.23	1087.41
745.56	1089.52
745.89	1089.52
746.22	1078.05
746.55	1075.94
746.88	1076.65
747.21	1071.26
747.54	1066.82
747.87	1068.92
748.20	1074.07
748.53	1077.82
748.87	1086.71
749.20	1093.26
749.53	1092.80
749.86	1087.65
750.19	1075.24
750.52	1075.01
750.85	1070.56
751.18	1080.16
751.51	1084.14
751.84	1088.35
752.16	1086.24
752.49	1090.69
752.82	1082.50
753.15	1073.84
753.48	1071.73
753.81	1073.84
754.14	1070.80
754.47	1063.77
754.80	1063.31
755.13	1064.24
755.46	1063.54
755.79	1058.39
756.12	1056.75
756.45	1072.43
756.78	1080.16
757.11	1075.71
757.43	1077.11
757.76	1085.54
758.09	1074.07
758.42	1068.45
758.75	1067.75
759.08	1078.05
759.41	1083.67
759.74	1093.73
760.07	1087.88
760.39	1083.43
760.72	1078.52
761.05	1075.48
761.38	1061.43
761.71	1067.75
762.04	1072.67
762.36	1071.03
762.69	1062.60
763.02	1065.88
763.35	1070.09
763.68	1089.05
764.01	1093.50
764.33	1090.92
764.66	1094.43
764.99	1094.67
765.32	1084.84
765.65	1080.86
765.97	1092.80
766.30	1089.29
