SpectraSuite Data File
++++++++++++++++++++++++++++++++++++
Date: Mon Aug 26 10:25:45 PDT 2019
User: corrico
Dark Spectrum Present: No
Reference Spectrum Present: No
Number of Sampled Component Spectra: 1
Spectrometers: USB2+H06089
Integration Time (usec): 10000 (USB2+H06089)
Spectra Averaged: 2 (USB2+H06089)
Boxcar Smoothing: 2 (USB2+H06089)
Correct for Electrical Dark: No (USB2+H06089)
Strobe/Lamp Enabled: No (USB2+H06089)
Correct for Detector Non-linearity: No (USB2+H06089)
Correct for Stray Light: No (USB2+H06089)
Number of Pixels in Processed Spectrum: 2048
>>>>>Begin Processed Spectral Data<<<<<
339.70	1068.45
340.07	1068.45
340.45	1016.49
340.82	991.68
341.19	962.66
341.57	922.64
341.94	913.04
342.31	902.04
342.69	890.81
343.06	881.21
343.43	889.64
343.81	891.04
344.18	900.40
344.55	910.00
344.93	920.77
345.30	923.81
345.67	936.45
346.04	939.49
346.42	942.77
346.79	949.32
347.16	960.09
347.54	958.92
347.91	978.11
348.28	983.26
348.65	988.64
349.03	994.03
349.40	1006.66
349.77	1011.35
350.14	1023.75
350.52	1031.94
350.89	1048.79
351.26	1055.82
351.63	1051.60
352.01	1050.90
352.38	1060.96
352.75	1054.88
353.12	1062.84
353.50	1071.97
353.87	1082.03
354.24	1085.54
354.61	1084.60
354.98	1086.94
355.36	1096.07
355.73	1108.71
356.10	1099.82
356.47	1104.73
356.84	1104.73
357.22	1095.60
357.59	1085.31
357.96	1094.90
358.33	1093.26
358.70	1092.33
359.08	1093.03
359.45	1086.48
359.82	1078.99
360.19	1082.50
360.56	1071.50
360.94	1075.01
361.31	1072.20
361.68	1075.71
362.05	1067.52
362.42	1068.22
362.79	1063.54
363.16	1065.41
363.54	1056.05
363.91	1053.01
364.28	1055.11
364.65	1048.09
365.02	1049.96
365.39	1058.86
365.76	1064.48
366.14	1060.73
366.51	1066.82
366.88	1057.22
367.25	1049.50
367.62	1049.73
367.99	1057.22
368.36	1053.71
368.73	1068.45
369.10	1071.73
369.48	1073.14
369.85	1072.67
370.22	1067.52
370.59	1059.56
370.96	1062.60
371.33	1073.60
371.70	1066.35
372.07	1076.18
372.44	1082.03
372.81	1089.05
373.18	1083.90
373.55	1091.16
373.93	1081.80
374.30	1079.92
374.67	1068.69
375.04	1056.75
375.41	1057.69
375.78	1063.07
376.15	1058.62
376.52	1062.84
376.89	1064.71
377.26	1059.79
377.63	1053.24
378.00	1057.45
378.37	1065.18
378.74	1069.16
379.11	1071.97
379.48	1082.73
379.85	1085.54
380.22	1081.33
380.59	1088.35
380.96	1083.67
381.33	1081.80
381.70	1072.43
382.07	1067.52
382.44	1058.62
382.81	1062.37
383.18	1054.41
383.55	1048.79
383.92	1044.35
384.29	1046.92
384.66	1054.88
385.03	1059.33
385.40	1065.41
385.77	1073.60
386.14	1072.90
386.51	1064.94
386.88	1064.94
387.25	1063.77
387.62	1061.20
387.99	1064.24
388.36	1073.84
388.73	1081.56
389.10	1081.56
389.46	1077.11
389.83	1082.97
390.20	1072.20
390.57	1070.80
390.94	1076.65
391.31	1074.07
391.68	1064.71
392.05	1070.09
392.42	1064.94
392.79	1065.88
393.16	1075.71
393.53	1071.97
393.89	1069.16
394.26	1076.18
394.63	1083.67
395.00	1082.50
395.37	1086.71
395.74	1084.60
396.11	1079.22
396.48	1069.16
396.84	1067.75
397.21	1067.05
397.58	1072.90
397.95	1074.77
398.32	1072.90
398.69	1081.56
399.06	1084.37
399.42	1075.94
399.79	1081.33
400.16	1071.50
400.53	1059.56
400.90	1056.75
401.27	1066.35
401.64	1053.94
402.00	1066.58
402.37	1066.11
402.74	1069.62
403.11	1057.22
403.48	1062.37
403.84	1059.33
404.21	1058.62
404.58	1061.67
404.95	1075.24
405.32	1077.11
405.68	1085.54
406.05	1086.94
406.42	1087.18
406.79	1080.16
407.16	1080.16
407.52	1080.16
407.89	1077.35
408.26	1067.05
408.63	1070.56
408.99	1072.43
409.36	1062.60
409.73	1071.50
410.10	1077.58
410.47	1073.14
410.83	1066.35
411.20	1083.90
411.57	1090.92
411.94	1106.37
412.30	1106.61
412.67	1110.35
413.04	1102.63
413.40	1105.44
413.77	1093.97
414.14	1096.31
414.51	1096.54
414.87	1089.05
415.24	1083.67
415.61	1078.99
415.97	1078.52
416.34	1073.84
416.71	1081.09
417.08	1077.11
417.44	1081.09
417.81	1072.67
418.18	1079.22
418.54	1067.28
418.91	1057.22
419.28	1060.03
419.64	1064.01
420.01	1054.65
420.38	1061.20
420.74	1069.16
421.11	1069.62
421.48	1074.54
421.84	1087.41
422.21	1093.50
422.58	1100.05
422.94	1091.16
423.31	1093.26
423.68	1080.16
424.04	1078.28
424.41	1075.94
424.77	1083.90
425.14	1082.26
425.51	1086.48
425.87	1086.48
426.24	1082.73
426.61	1078.99
426.97	1078.05
427.34	1081.33
427.70	1081.80
428.07	1073.14
428.44	1075.71
428.80	1073.84
429.17	1075.94
429.53	1072.20
429.90	1079.92
430.27	1071.73
430.63	1078.52
431.00	1075.94
431.36	1073.37
431.73	1071.73
432.09	1068.45
432.46	1056.05
432.83	1065.65
433.19	1070.09
433.56	1075.24
433.92	1081.09
434.29	1091.39
434.65	1083.90
435.02	1088.35
435.38	1086.71
435.75	1092.33
436.11	1093.97
436.48	1093.73
436.84	1088.82
437.21	1084.84
437.57	1072.67
437.94	1067.99
438.30	1062.60
438.67	1058.16
439.03	1058.16
439.40	1071.73
439.76	1083.90
440.13	1081.80
440.49	1084.37
440.86	1099.12
441.22	1093.03
441.59	1082.03
441.95	1087.65
442.32	1084.14
442.68	1065.18
443.05	1062.84
443.41	1072.67
443.78	1074.31
444.14	1071.73
444.51	1074.54
444.87	1083.20
445.24	1066.35
445.60	1065.88
445.96	1068.45
446.33	1074.77
446.69	1070.80
447.06	1074.31
447.42	1080.86
447.79	1090.22
448.15	1091.16
448.51	1089.75
448.88	1094.20
449.24	1093.73
449.61	1089.99
449.97	1087.88
450.33	1093.26
450.70	1089.52
451.06	1081.80
451.43	1077.82
451.79	1075.71
452.15	1076.88
452.52	1075.01
452.88	1077.11
453.24	1083.90
453.61	1087.18
453.97	1081.33
454.34	1085.77
454.70	1089.05
455.06	1086.94
455.43	1082.73
455.79	1087.65
456.15	1080.16
456.52	1069.86
456.88	1072.67
457.24	1077.35
457.61	1061.90
457.97	1070.56
458.33	1066.82
458.70	1070.33
459.06	1067.05
459.42	1079.22
459.79	1076.41
460.15	1097.01
460.51	1091.16
460.88	1089.29
461.24	1081.09
461.60	1078.99
461.96	1078.28
462.33	1073.37
462.69	1069.62
463.05	1075.01
463.42	1078.99
463.78	1056.75
464.14	1057.69
464.50	1064.48
464.87	1063.07
465.23	1069.86
465.59	1080.16
465.95	1082.73
466.32	1070.09
466.68	1065.18
467.04	1052.77
467.40	1054.88
467.77	1053.71
468.13	1069.62
468.49	1070.80
468.85	1072.67
469.22	1072.67
469.58	1071.26
469.94	1065.88
470.30	1072.90
470.66	1081.33
471.03	1081.56
471.39	1076.65
471.75	1080.39
472.11	1077.58
472.47	1070.80
472.84	1069.16
473.20	1081.56
473.56	1082.50
473.92	1078.75
474.28	1069.62
474.65	1072.90
475.01	1070.56
475.37	1071.26
475.73	1076.18
476.09	1080.16
476.45	1071.26
476.81	1064.24
477.18	1061.20
477.54	1065.18
477.90	1074.31
478.26	1083.20
478.62	1089.05
478.98	1082.03
479.34	1079.22
479.71	1080.86
480.07	1083.90
480.43	1085.77
480.79	1091.16
481.15	1097.95
481.51	1096.07
481.87	1091.39
482.23	1085.54
482.59	1082.50
482.96	1070.33
483.32	1073.14
483.68	1071.73
484.04	1075.94
484.40	1083.43
484.76	1087.65
485.12	1087.41
485.48	1087.88
485.84	1082.97
486.20	1083.90
486.56	1079.92
486.92	1072.43
487.28	1069.39
487.64	1074.07
488.00	1062.14
488.37	1064.24
488.73	1068.45
489.09	1074.31
489.45	1075.71
489.81	1088.82
490.17	1093.97
490.53	1097.48
490.89	1096.78
491.25	1101.69
491.61	1095.84
491.97	1092.09
492.33	1089.99
492.69	1087.88
493.05	1083.43
493.41	1092.56
493.77	1086.71
494.13	1085.77
494.49	1086.71
494.85	1076.65
495.21	1062.84
495.57	1067.52
495.93	1067.75
496.29	1065.18
496.64	1074.77
497.00	1076.18
497.36	1073.60
497.72	1065.65
498.08	1072.20
498.44	1072.67
498.80	1075.71
499.16	1078.99
499.52	1088.12
499.88	1090.22
500.24	1085.07
500.60	1085.07
500.96	1078.05
501.32	1072.90
501.68	1065.18
502.03	1068.92
502.39	1084.60
502.75	1097.01
503.11	1105.20
503.47	1107.31
503.83	1108.24
504.19	1095.84
504.55	1083.90
504.91	1078.28
505.26	1085.07
505.62	1087.41
505.98	1073.84
506.34	1081.56
506.70	1080.86
507.06	1070.56
507.42	1067.05
507.78	1081.56
508.13	1086.24
508.49	1084.37
508.85	1089.52
509.21	1084.84
509.57	1078.28
509.93	1071.97
510.28	1075.71
510.64	1072.67
511.00	1073.14
511.36	1077.58
511.72	1082.97
512.07	1073.60
512.43	1078.75
512.79	1087.88
513.15	1090.69
513.51	1095.14
513.86	1101.46
514.22	1088.35
514.58	1071.73
514.94	1071.73
515.30	1069.16
515.65	1075.48
516.01	1082.97
516.37	1089.75
516.73	1082.73
517.08	1077.58
517.44	1074.77
517.80	1073.14
518.16	1080.39
518.51	1086.24
518.87	1084.37
519.23	1085.77
519.59	1091.86
519.94	1097.48
520.30	1098.65
520.66	1097.71
521.01	1097.95
521.37	1089.75
521.73	1090.69
522.09	1090.92
522.44	1095.84
522.80	1090.46
523.16	1092.80
523.51	1086.71
523.87	1079.22
524.23	1073.60
524.58	1084.14
524.94	1081.56
525.30	1087.65
525.65	1090.69
526.01	1089.52
526.37	1080.86
526.72	1084.84
527.08	1076.65
527.44	1078.28
527.79	1089.05
528.15	1083.20
528.51	1083.67
528.86	1084.37
529.22	1085.77
529.58	1065.65
529.93	1072.43
530.29	1082.26
530.65	1074.07
531.00	1067.05
531.36	1085.07
531.71	1088.35
532.07	1073.14
532.43	1079.92
532.78	1089.05
533.14	1087.18
533.49	1081.80
533.85	1083.20
534.21	1079.69
534.56	1077.58
534.92	1071.26
535.27	1072.67
535.63	1087.88
535.98	1093.50
536.34	1089.75
536.69	1098.65
537.05	1105.90
537.41	1095.60
537.76	1096.31
538.12	1093.03
538.47	1092.09
538.83	1094.43
539.18	1097.95
539.54	1096.31
539.89	1104.50
540.25	1093.50
540.60	1082.50
540.96	1085.07
541.31	1089.75
541.67	1093.03
542.02	1100.05
542.38	1107.31
542.73	1103.09
543.09	1100.75
543.44	1095.37
543.80	1094.20
544.15	1086.01
544.51	1082.73
544.86	1080.63
545.22	1072.43
545.57	1066.82
545.93	1059.56
546.28	1056.28
546.64	1055.82
546.99	1056.99
547.35	1063.31
547.70	1076.65
548.05	1082.03
548.41	1078.75
548.76	1079.92
549.12	1075.01
549.47	1073.60
549.83	1075.01
550.18	1089.05
550.53	1087.88
550.89	1098.65
551.24	1097.71
551.60	1094.43
551.95	1088.35
552.30	1080.16
552.66	1073.84
553.01	1072.67
553.37	1073.37
553.72	1077.11
554.07	1082.97
554.43	1083.20
554.78	1079.92
555.13	1076.41
555.49	1071.97
555.84	1078.99
556.19	1082.50
556.55	1086.94
556.90	1086.94
557.26	1083.67
557.61	1091.86
557.96	1083.90
558.32	1081.56
558.67	1084.14
559.02	1079.92
559.37	1068.45
559.73	1079.46
560.08	1079.69
560.43	1085.31
560.79	1087.88
561.14	1096.07
561.49	1100.52
561.85	1106.84
562.20	1098.18
562.55	1093.26
562.90	1097.01
563.26	1081.09
563.61	1081.09
563.96	1086.71
564.32	1085.77
564.67	1079.92
565.02	1077.82
565.37	1071.97
565.73	1077.11
566.08	1086.94
566.43	1080.39
566.78	1098.41
567.14	1101.46
567.49	1092.33
567.84	1095.37
568.19	1096.07
568.54	1086.48
568.90	1087.88
569.25	1083.20
569.60	1073.14
569.95	1074.07
570.31	1064.94
570.66	1063.77
571.01	1073.60
571.36	1067.99
571.71	1065.18
572.06	1073.60
572.42	1071.73
572.77	1073.84
573.12	1083.67
573.47	1089.05
573.82	1103.33
574.18	1093.50
574.53	1087.88
574.88	1076.41
575.23	1075.48
575.58	1064.48
575.93	1064.01
576.28	1070.80
576.64	1083.67
576.99	1089.52
577.34	1078.75
577.69	1085.07
578.04	1081.56
578.39	1087.88
578.74	1084.84
579.09	1097.24
579.44	1093.03
579.80	1101.92
580.15	1096.78
580.50	1096.54
580.85	1090.22
581.20	1103.80
581.55	1094.43
581.90	1094.90
582.25	1100.99
582.60	1094.67
582.95	1086.71
583.30	1090.69
583.65	1094.20
584.00	1084.60
584.35	1091.63
584.71	1085.31
585.06	1074.77
585.41	1071.03
585.76	1081.80
586.11	1082.26
586.46	1086.94
586.81	1094.67
587.16	1097.71
587.51	1085.31
587.86	1079.69
588.21	1077.58
588.56	1073.14
588.91	1068.92
589.26	1067.75
589.61	1066.11
589.96	1067.05
590.31	1075.48
590.66	1075.48
591.01	1085.54
591.36	1091.39
591.71	1096.07
592.06	1091.39
592.41	1091.16
592.76	1084.14
593.10	1081.56
593.45	1086.48
593.80	1089.75
594.15	1093.26
594.50	1095.14
594.85	1105.67
595.20	1099.12
595.55	1100.29
595.90	1093.97
596.25	1097.24
596.60	1091.16
596.95	1093.03
597.30	1091.39
597.64	1145.46
597.99	1155.76
598.34	1153.88
598.69	1159.50
599.04	1165.12
599.39	1108.71
599.74	1092.80
600.09	1089.05
600.44	1078.99
600.78	1065.41
601.13	1069.86
601.48	1071.03
601.83	1076.65
602.18	1080.16
602.53	1085.31
602.88	1073.84
603.22	1061.67
603.57	1062.37
603.92	1057.22
604.27	1051.60
604.62	1064.71
604.97	1077.58
605.31	1077.35
605.66	1087.18
606.01	1089.99
606.36	1080.16
606.71	1083.67
607.05	1093.50
607.40	1088.82
607.75	1091.63
608.10	1102.86
608.44	1099.82
608.79	1095.84
609.14	1094.20
609.49	1093.26
609.84	1081.33
610.18	1085.07
610.53	1088.35
610.88	1092.09
611.23	1093.26
611.57	1106.14
611.92	1112.92
612.27	1106.61
612.62	1097.48
612.96	1103.33
613.31	1096.07
613.66	1081.56
614.00	1083.90
614.35	1087.65
614.70	1071.50
615.05	1058.62
615.39	1053.01
615.74	1038.03
616.09	1051.60
616.43	1069.16
616.78	1081.33
617.13	1101.92
617.47	1110.35
617.82	1095.60
618.17	1082.50
618.51	1081.56
618.86	1072.67
619.21	1074.31
619.55	1080.86
619.90	1085.31
620.25	1088.58
620.59	1090.92
620.94	1084.14
621.29	1086.01
621.63	1089.52
621.98	1093.73
622.32	1094.20
622.67	1103.80
623.02	1104.73
623.36	1098.41
623.71	1085.54
624.05	1078.75
624.40	1083.20
624.75	1083.67
625.09	1085.77
625.44	1091.39
625.78	1094.20
626.13	1082.97
626.48	1086.71
626.82	1081.33
627.17	1083.90
627.51	1078.28
627.86	1077.58
628.20	1076.88
628.55	1087.18
628.89	1093.97
629.24	1092.80
629.58	1100.52
629.93	1086.24
630.28	1084.60
630.62	1083.20
630.97	1087.41
631.31	1082.97
631.66	1087.41
632.00	1081.33
632.35	1081.56
632.69	1081.33
633.04	1083.67
633.38	1085.31
633.73	1086.71
634.07	1082.97
634.42	1086.94
634.76	1086.48
635.11	1088.58
635.45	1082.97
635.79	1091.39
636.14	1090.92
636.48	1086.48
636.83	1089.99
637.17	1089.99
637.52	1080.39
637.86	1078.75
638.21	1090.69
638.55	1085.31
638.89	1091.63
639.24	1090.69
639.58	1091.16
639.93	1085.31
640.27	1081.09
640.61	1077.58
640.96	1070.33
641.30	1073.37
641.65	1082.73
641.99	1088.12
642.33	1093.50
642.68	1101.22
643.02	1097.48
643.37	1080.86
643.71	1081.09
644.05	1075.01
644.40	1068.69
644.74	1067.28
645.08	1072.90
645.43	1068.22
645.77	1062.14
646.11	1066.58
646.46	1066.35
646.80	1069.62
647.14	1071.03
647.49	1089.52
647.83	1085.54
648.17	1089.75
648.52	1081.09
648.86	1081.09
649.20	1076.88
649.55	1074.31
649.89	1073.14
650.23	1077.82
650.57	1078.52
650.92	1075.71
651.26	1088.35
651.60	1086.01
651.95	1083.90
652.29	1083.90
652.63	1086.24
652.97	1081.09
653.32	1083.67
653.66	1082.73
654.00	1083.43
654.34	1082.03
654.69	1080.16
655.03	1087.41
655.37	1084.60
655.71	1084.14
656.05	1090.69
656.40	1092.56
656.74	1078.05
657.08	1093.50
657.42	1098.18
657.76	1087.65
658.11	1085.07
658.45	1088.35
658.79	1078.75
659.13	1079.46
659.47	1084.37
659.82	1089.52
660.16	1086.48
660.50	1094.43
660.84	1086.01
661.18	1074.07
661.52	1076.41
661.87	1085.54
662.21	1079.46
662.55	1083.90
662.89	1098.18
663.23	1102.39
663.57	1098.18
663.91	1088.58
664.25	1082.50
664.60	1077.58
664.94	1071.73
665.28	1073.60
665.62	1081.80
665.96	1087.65
666.30	1096.54
666.64	1098.65
666.98	1091.86
667.32	1080.86
667.66	1085.31
668.01	1073.14
668.35	1066.35
668.69	1061.67
669.03	1065.88
669.37	1056.99
669.71	1064.71
670.05	1068.22
670.39	1076.65
670.73	1080.39
671.07	1083.43
671.41	1083.20
671.75	1089.52
672.09	1083.67
672.43	1089.05
672.77	1077.35
673.11	1076.88
673.45	1058.86
673.79	1062.84
674.13	1057.22
674.47	1067.05
674.81	1071.73
675.15	1087.18
675.49	1086.71
675.83	1090.22
676.17	1093.03
676.51	1087.88
676.85	1084.14
677.19	1078.99
677.53	1086.24
677.87	1095.14
678.21	1095.60
678.55	1093.26
678.89	1102.39
679.23	1090.46
679.57	1084.60
679.90	1067.75
680.24	1070.33
680.58	1074.31
680.92	1074.07
681.26	1065.41
681.60	1076.41
681.94	1067.52
682.28	1067.05
682.62	1069.39
682.96	1083.67
683.29	1081.33
683.63	1092.33
683.97	1093.26
684.31	1097.48
684.65	1084.60
684.99	1091.39
685.33	1076.88
685.67	1067.28
686.00	1075.01
686.34	1074.07
686.68	1077.58
687.02	1091.86
687.36	1091.16
687.70	1082.26
688.03	1080.39
688.37	1072.43
688.71	1070.09
689.05	1079.22
689.39	1081.80
689.72	1091.16
690.06	1103.80
690.40	1104.50
690.74	1105.44
691.08	1096.54
691.41	1094.90
691.75	1090.46
692.09	1083.90
692.43	1080.39
692.76	1082.03
693.10	1091.63
693.44	1082.97
693.78	1092.09
694.11	1087.41
694.45	1088.35
694.79	1072.20
695.13	1076.18
695.46	1073.37
695.80	1077.11
696.14	1084.37
696.48	1084.60
696.81	1084.37
697.15	1080.63
697.49	1094.20
697.82	1085.07
698.16	1097.71
698.50	1101.92
698.83	1096.07
699.17	1085.31
699.51	1080.86
699.84	1072.90
700.18	1066.82
700.52	1072.20
700.85	1075.24
701.19	1080.86
701.53	1085.77
701.86	1082.73
702.20	1084.84
702.54	1085.77
702.87	1088.35
703.21	1091.63
703.55	1096.54
703.88	1093.73
704.22	1080.86
704.55	1078.52
704.89	1069.16
705.23	1071.73
705.56	1064.24
705.90	1067.05
706.23	1074.54
706.57	1081.80
706.91	1074.07
707.24	1083.43
707.58	1088.58
707.91	1086.01
708.25	1080.63
708.58	1083.67
708.92	1084.84
709.26	1088.58
709.59	1080.86
709.93	1079.69
710.26	1081.56
710.60	1088.12
710.93	1084.60
711.27	1099.12
711.60	1097.24
711.94	1099.82
712.27	1093.03
712.61	1094.43
712.94	1088.58
713.28	1093.97
713.61	1085.54
713.95	1086.71
714.28	1086.24
714.62	1090.69
714.95	1088.58
715.29	1090.69
715.62	1090.46
715.96	1093.26
716.29	1089.29
716.63	1096.78
716.96	1102.16
717.29	1093.73
717.63	1080.16
717.96	1065.88
718.30	1057.22
718.63	1056.05
718.97	1065.41
719.30	1071.50
719.63	1086.71
719.97	1086.01
720.30	1079.22
720.64	1068.69
720.97	1074.07
721.30	1070.33
721.64	1076.18
721.97	1083.90
722.31	1099.35
722.64	1096.07
722.97	1099.12
723.31	1095.37
723.64	1087.88
723.97	1074.54
724.31	1073.14
724.64	1064.24
724.98	1053.71
725.31	1056.99
725.64	1057.45
725.98	1065.41
726.31	1067.99
726.64	1074.07
726.97	1078.75
727.31	1086.01
727.64	1080.39
727.97	1084.84
728.31	1096.31
728.64	1084.37
728.97	1084.14
729.31	1088.58
729.64	1087.65
729.97	1085.77
730.30	1092.56
730.64	1094.43
730.97	1086.01
731.30	1081.33
731.63	1074.77
731.97	1071.26
732.30	1070.33
732.63	1075.01
732.96	1078.05
733.30	1072.90
733.63	1075.71
733.96	1071.03
734.29	1069.39
734.63	1074.31
734.96	1076.18
735.29	1077.11
735.62	1079.46
735.95	1077.35
736.29	1075.48
736.62	1073.14
736.95	1075.24
737.28	1077.58
737.61	1089.29
737.94	1095.60
738.28	1101.46
738.61	1100.29
738.94	1104.03
739.27	1100.05
739.60	1091.63
739.93	1090.22
740.27	1091.63
740.60	1089.29
740.93	1079.46
741.26	1083.67
741.59	1081.09
741.92	1077.35
742.25	1072.43
742.58	1075.94
742.91	1067.75
743.25	1066.35
743.58	1068.69
743.91	1071.73
744.24	1070.80
744.57	1075.48
744.90	1081.56
745.23	1082.50
745.56	1086.71
745.89	1078.28
746.22	1076.41
746.55	1077.58
746.88	1079.69
747.21	1071.97
747.54	1081.09
747.87	1085.31
748.20	1088.35
748.53	1083.43
748.87	1094.90
749.20	1104.50
749.53	1098.88
749.86	1092.56
750.19	1091.63
750.52	1085.31
750.85	1081.33
751.18	1082.26
751.51	1085.54
751.84	1086.71
752.16	1084.37
752.49	1075.01
752.82	1075.24
753.15	1071.50
753.48	1075.48
753.81	1075.48
754.14	1076.41
754.47	1068.92
754.80	1084.14
755.13	1089.29
755.46	1086.24
755.79	1084.84
756.12	1096.07
756.45	1089.05
756.78	1077.58
757.11	1081.80
757.43	1085.31
757.76	1083.90
758.09	1076.65
758.42	1077.35
758.75	1069.39
759.08	1063.07
759.41	1065.88
759.74	1065.41
760.07	1069.16
760.39	1077.58
760.72	1080.63
761.05	1068.69
761.38	1070.80
761.71	1069.39
762.04	1073.14
762.36	1080.63
762.69	1083.67
763.02	1091.86
763.35	1096.54
763.68	1091.86
764.01	1092.09
764.33	1102.63
764.66	1092.56
764.99	1084.60
765.32	1081.33
765.65	1071.73
765.97	1066.35
766.30	1072.90
