SpectraSuite Data File
++++++++++++++++++++++++++++++++++++
Date: Mon Aug 26 10:25:45 PDT 2019
User: corrico
Dark Spectrum Present: No
Reference Spectrum Present: No
Number of Sampled Component Spectra: 1
Spectrometers: USB2+H06089
Integration Time (usec): 10000 (USB2+H06089)
Spectra Averaged: 2 (USB2+H06089)
Boxcar Smoothing: 2 (USB2+H06089)
Correct for Electrical Dark: No (USB2+H06089)
Strobe/Lamp Enabled: No (USB2+H06089)
Correct for Detector Non-linearity: No (USB2+H06089)
Correct for Stray Light: No (USB2+H06089)
Number of Pixels in Processed Spectrum: 2048
>>>>>Begin Processed Spectral Data<<<<<
339.70	1080.16
340.07	1080.16
340.45	1010.41
340.82	977.17
341.19	938.79
341.57	903.68
341.94	900.64
342.31	904.62
342.69	903.68
343.06	910.00
343.43	914.68
343.81	910.94
344.18	913.04
344.55	917.96
344.93	916.55
345.30	908.60
345.67	925.45
346.04	931.53
346.42	933.87
346.79	932.00
347.16	943.47
347.54	949.79
347.91	962.19
348.28	972.02
348.65	988.17
349.03	1005.03
349.40	1013.22
349.77	1008.77
350.14	1023.52
350.52	1033.35
350.89	1033.58
351.26	1037.56
351.63	1049.73
352.01	1054.65
352.38	1066.11
352.75	1073.14
353.12	1076.18
353.50	1091.16
353.87	1082.50
354.24	1070.33
354.61	1078.05
354.98	1081.33
355.36	1071.03
355.73	1071.03
356.10	1076.88
356.47	1079.22
356.84	1074.54
357.22	1074.77
357.59	1083.43
357.96	1088.35
358.33	1082.26
358.70	1081.80
359.08	1081.56
359.45	1082.26
359.82	1083.67
360.19	1082.26
360.56	1082.26
360.94	1078.75
361.31	1074.77
361.68	1065.65
362.05	1054.65
362.42	1050.67
362.79	1046.22
363.16	1037.09
363.54	1032.41
363.91	1041.77
364.28	1044.58
364.65	1059.33
365.02	1071.73
365.39	1078.05
365.76	1076.41
366.14	1082.50
366.51	1074.07
366.88	1063.54
367.25	1063.07
367.62	1067.99
367.99	1064.24
368.36	1061.90
368.73	1073.60
369.10	1077.11
369.48	1070.09
369.85	1062.60
370.22	1058.39
370.59	1048.33
370.96	1043.18
371.33	1047.39
371.70	1056.75
372.07	1062.37
372.44	1073.14
372.81	1075.94
373.18	1077.11
373.55	1072.43
373.93	1070.80
374.30	1060.50
374.67	1067.99
375.04	1065.18
375.41	1068.22
375.78	1073.14
376.15	1084.60
376.52	1085.07
376.89	1086.24
377.26	1092.09
377.63	1087.41
378.00	1080.39
378.37	1076.41
378.74	1075.01
379.11	1066.82
379.48	1062.84
379.85	1061.20
380.22	1056.05
380.59	1057.45
380.96	1055.58
381.33	1060.50
381.70	1056.99
382.07	1067.28
382.44	1073.37
382.81	1070.09
383.18	1073.84
383.55	1071.50
383.92	1069.16
384.29	1065.65
384.66	1083.90
385.03	1086.01
385.40	1093.97
385.77	1094.43
386.14	1086.71
386.51	1081.80
386.88	1074.07
387.25	1079.92
387.62	1072.90
387.99	1083.20
388.36	1068.69
388.73	1068.22
389.10	1065.88
389.46	1070.33
389.83	1064.48
390.20	1076.41
390.57	1077.82
390.94	1072.20
391.31	1057.22
391.68	1057.22
392.05	1052.54
392.42	1057.92
392.79	1064.01
393.16	1074.54
393.53	1072.90
393.89	1076.65
394.26	1077.11
394.63	1077.82
395.00	1083.20
395.37	1082.50
395.74	1079.46
396.11	1075.24
396.48	1066.82
396.84	1062.84
397.21	1059.09
397.58	1064.24
397.95	1074.54
398.32	1072.90
398.69	1080.86
399.06	1095.37
399.42	1083.90
399.79	1074.77
400.16	1076.65
400.53	1056.05
400.90	1055.58
401.27	1065.65
401.64	1067.52
402.00	1067.28
402.37	1078.75
402.74	1071.97
403.11	1071.73
403.48	1073.60
403.84	1072.43
404.21	1080.63
404.58	1082.03
404.95	1075.48
405.32	1069.16
405.68	1076.41
406.05	1071.50
406.42	1073.84
406.79	1074.07
407.16	1071.03
407.52	1067.75
407.89	1063.54
408.26	1061.43
408.63	1074.07
408.99	1079.69
409.36	1086.48
409.73	1087.65
410.10	1084.14
410.47	1079.69
410.83	1083.67
411.20	1080.63
411.57	1083.90
411.94	1082.97
412.30	1079.92
412.67	1074.07
413.04	1069.16
413.40	1079.46
413.77	1087.88
414.14	1084.60
414.51	1087.88
414.87	1080.86
415.24	1073.37
415.61	1066.58
415.97	1073.84
416.34	1078.52
416.71	1086.94
417.08	1082.50
417.44	1078.52
417.81	1062.37
418.18	1053.24
418.54	1051.60
418.91	1048.33
419.28	1055.35
419.64	1060.26
420.01	1060.96
420.38	1057.45
420.74	1062.14
421.11	1067.75
421.48	1071.03
421.84	1074.54
422.21	1080.39
422.58	1078.28
422.94	1078.05
423.31	1083.90
423.68	1086.71
424.04	1087.88
424.41	1084.84
424.77	1079.92
425.14	1078.75
425.51	1074.07
425.87	1065.18
426.24	1068.92
426.61	1067.05
426.97	1066.35
427.34	1074.31
427.70	1085.31
428.07	1079.69
428.44	1073.37
428.80	1072.67
429.17	1067.75
429.53	1072.67
429.90	1079.46
430.27	1083.43
430.63	1084.14
431.00	1082.97
431.36	1069.16
431.73	1063.31
432.09	1058.16
432.46	1047.62
432.83	1047.86
433.19	1050.67
433.56	1063.54
433.92	1071.73
434.29	1080.39
434.65	1076.18
435.02	1076.65
435.38	1075.01
435.75	1074.77
436.11	1073.60
436.48	1072.67
436.84	1080.86
437.21	1074.31
437.57	1080.39
437.94	1087.41
438.30	1094.67
438.67	1088.58
439.03	1090.92
439.40	1089.99
439.76	1086.94
440.13	1075.94
440.49	1071.97
440.86	1070.09
441.22	1066.35
441.59	1056.28
441.95	1064.48
442.32	1056.52
442.68	1058.39
443.05	1056.05
443.41	1064.71
443.78	1064.71
444.14	1075.01
444.51	1070.33
444.87	1064.01
445.24	1057.92
445.60	1065.88
445.96	1070.56
446.33	1069.16
446.69	1072.43
447.06	1069.39
447.42	1054.88
447.79	1049.73
448.15	1054.65
448.51	1059.79
448.88	1068.92
449.24	1074.31
449.61	1080.16
449.97	1069.39
450.33	1069.39
450.70	1080.86
451.06	1087.18
451.43	1082.50
451.79	1091.86
452.15	1083.20
452.52	1064.01
452.88	1054.65
453.24	1057.22
453.61	1053.71
453.97	1060.03
454.34	1072.20
454.70	1077.82
455.06	1068.92
455.43	1067.05
455.79	1066.35
456.15	1055.35
456.52	1054.41
456.88	1055.11
457.24	1064.01
457.61	1069.62
457.97	1085.77
458.33	1085.31
458.70	1100.05
459.06	1091.16
459.42	1083.20
459.79	1061.20
460.15	1064.94
460.51	1053.71
460.88	1064.71
461.24	1072.67
461.60	1088.82
461.96	1081.09
462.33	1086.01
462.69	1082.97
463.05	1072.43
463.42	1064.48
463.78	1079.46
464.14	1068.92
464.50	1065.18
464.87	1078.05
465.23	1082.26
465.59	1073.37
465.95	1080.39
466.32	1085.31
466.68	1072.43
467.04	1073.37
467.40	1068.92
467.77	1060.96
468.13	1064.48
468.49	1071.26
468.85	1066.58
469.22	1073.37
469.58	1079.46
469.94	1070.80
470.30	1075.94
470.66	1082.97
471.03	1085.54
471.39	1088.35
471.75	1094.20
472.11	1081.33
472.47	1074.54
472.84	1072.67
473.20	1072.67
473.56	1060.50
473.92	1060.03
474.28	1067.28
474.65	1069.39
475.01	1074.31
475.37	1089.05
475.73	1095.37
476.09	1089.99
476.45	1080.16
476.81	1075.94
477.18	1065.41
477.54	1077.82
477.90	1079.92
478.26	1084.84
478.62	1091.39
478.98	1089.99
479.34	1076.88
479.71	1074.31
480.07	1072.90
480.43	1064.71
480.79	1074.54
481.15	1077.82
481.51	1076.41
481.87	1075.24
482.23	1073.60
482.59	1066.58
482.96	1061.43
483.32	1069.16
483.68	1070.80
484.04	1070.56
484.40	1069.16
484.76	1077.35
485.12	1077.58
485.48	1070.09
485.84	1073.60
486.20	1085.54
486.56	1082.97
486.92	1072.90
487.28	1075.71
487.64	1071.50
488.00	1064.01
488.37	1052.77
488.73	1060.26
489.09	1061.43
489.45	1064.94
489.81	1069.86
490.17	1078.28
490.53	1084.84
490.89	1085.54
491.25	1084.37
491.61	1084.60
491.97	1086.94
492.33	1079.69
492.69	1083.43
493.05	1090.69
493.41	1090.46
493.77	1097.95
494.13	1096.78
494.49	1090.69
494.85	1086.48
495.21	1077.11
495.57	1057.22
495.93	1047.39
496.29	1041.77
496.64	1046.45
497.00	1049.73
497.36	1068.69
497.72	1078.28
498.08	1089.29
498.44	1094.20
498.80	1095.37
499.16	1087.18
499.52	1091.86
499.88	1095.14
500.24	1082.97
500.60	1084.84
500.96	1094.43
501.32	1088.12
501.68	1081.33
502.03	1084.14
502.39	1086.71
502.75	1081.56
503.11	1077.82
503.47	1082.26
503.83	1081.33
504.19	1076.65
504.55	1075.24
504.91	1081.09
505.26	1083.90
505.62	1099.35
505.98	1097.48
506.34	1102.16
506.70	1086.24
507.06	1073.14
507.42	1050.20
507.78	1054.65
508.13	1048.09
508.49	1058.62
508.85	1059.33
509.21	1057.69
509.57	1046.69
509.93	1048.56
510.28	1059.56
510.64	1060.96
511.00	1071.26
511.36	1087.18
511.72	1080.39
512.07	1072.43
512.43	1070.33
512.79	1068.45
513.15	1074.77
513.51	1083.67
513.86	1082.26
514.22	1088.12
514.58	1083.67
514.94	1067.05
515.30	1061.43
515.65	1067.99
516.01	1071.03
516.37	1067.28
516.73	1071.03
517.08	1076.18
517.44	1078.99
517.80	1084.60
518.16	1086.94
518.51	1087.65
518.87	1081.33
519.23	1076.65
519.59	1070.56
519.94	1093.03
520.30	1089.29
520.66	1094.90
521.01	1094.67
521.37	1099.35
521.73	1087.88
522.09	1099.82
522.44	1104.03
522.80	1104.97
523.16	1099.82
523.51	1098.88
523.87	1100.52
524.23	1097.95
524.58	1094.20
524.94	1095.60
525.30	1093.50
525.65	1084.14
526.01	1084.37
526.37	1094.90
526.72	1100.52
527.08	1102.16
527.44	1108.95
527.79	1100.75
528.15	1088.58
528.51	1082.50
528.86	1080.63
529.22	1071.26
529.58	1076.18
529.93	1081.33
530.29	1080.16
530.65	1083.67
531.00	1083.90
531.36	1083.90
531.71	1078.99
532.07	1079.92
532.43	1071.26
532.78	1064.71
533.14	1053.71
533.49	1050.20
533.85	1056.99
534.21	1058.39
534.56	1070.56
534.92	1078.52
535.27	1085.54
535.63	1085.54
535.98	1092.80
536.34	1090.22
536.69	1090.22
537.05	1090.22
537.41	1084.84
537.76	1086.71
538.12	1089.75
538.47	1098.41
538.83	1093.26
539.18	1095.60
539.54	1085.31
539.89	1087.65
540.25	1080.63
540.60	1085.77
540.96	1084.60
541.31	1094.43
541.67	1079.92
542.02	1077.35
542.38	1068.69
542.73	1057.92
543.09	1056.05
543.44	1065.65
543.80	1072.67
544.15	1070.33
544.51	1079.22
544.86	1079.46
545.22	1080.86
545.57	1070.56
545.93	1089.75
546.28	1094.43
546.64	1097.24
546.99	1104.03
547.35	1108.48
547.70	1096.07
548.05	1096.31
548.41	1087.18
548.76	1071.03
549.12	1073.84
549.47	1076.41
549.83	1067.75
550.18	1071.03
550.53	1082.97
550.89	1085.07
551.24	1087.88
551.60	1101.46
551.95	1093.03
552.30	1082.73
552.66	1074.77
553.01	1069.86
553.37	1056.52
553.72	1058.16
554.07	1071.03
554.43	1079.69
554.78	1085.07
555.13	1093.50
555.49	1104.97
555.84	1086.48
556.19	1074.07
556.55	1071.26
556.90	1060.96
557.26	1052.30
557.61	1062.84
557.96	1069.62
558.32	1060.73
558.67	1071.73
559.02	1075.24
559.37	1073.37
559.73	1072.43
560.08	1087.65
560.43	1077.35
560.79	1078.99
561.14	1081.33
561.49	1087.18
561.85	1084.37
562.20	1091.39
562.55	1091.63
562.90	1089.99
563.26	1093.03
563.61	1084.14
563.96	1082.50
564.32	1080.63
564.67	1081.09
565.02	1065.88
565.37	1074.77
565.73	1080.39
566.08	1081.80
566.43	1081.33
566.78	1092.09
567.14	1096.07
567.49	1081.56
567.84	1092.09
568.19	1095.14
568.54	1096.78
568.90	1088.12
569.25	1093.73
569.60	1071.50
569.95	1064.48
570.31	1058.62
570.66	1057.69
571.01	1064.94
571.36	1078.05
571.71	1079.22
572.06	1079.92
572.42	1082.03
572.77	1075.01
573.12	1068.69
573.47	1074.77
573.82	1086.71
574.18	1083.43
574.53	1088.82
574.88	1094.20
575.23	1088.82
575.58	1080.39
575.93	1089.29
576.28	1091.86
576.64	1089.05
576.99	1087.88
577.34	1090.92
577.69	1084.60
578.04	1076.88
578.39	1081.09
578.74	1085.07
579.09	1079.22
579.44	1079.46
579.80	1072.90
580.15	1079.92
580.50	1082.26
580.85	1078.05
581.20	1081.56
581.55	1094.67
581.90	1086.71
582.25	1089.05
582.60	1096.54
582.95	1101.69
583.30	1094.67
583.65	1090.69
584.00	1085.54
584.35	1082.03
584.71	1079.46
585.06	1084.84
585.41	1086.01
585.76	1097.48
586.11	1105.67
586.46	1094.90
586.81	1087.18
587.16	1085.54
587.51	1078.75
587.86	1068.45
588.21	1077.11
588.56	1078.28
588.91	1087.41
589.26	1085.54
589.61	1087.18
589.96	1077.11
590.31	1085.07
590.66	1080.63
591.01	1081.56
591.36	1085.54
591.71	1099.35
592.06	1096.31
592.41	1093.50
592.76	1095.37
593.10	1094.43
593.45	1086.01
593.80	1090.46
594.15	1100.29
594.50	1107.31
594.85	1116.20
595.20	1118.54
595.55	1112.69
595.90	1099.35
596.25	1098.18
596.60	1092.56
596.95	1090.92
597.30	1086.71
597.64	1143.12
597.99	1133.05
598.34	1137.27
598.69	1145.93
599.04	1152.71
599.39	1094.67
599.74	1093.97
600.09	1081.56
600.44	1071.97
600.78	1064.48
601.13	1073.60
601.48	1069.62
601.83	1071.26
602.18	1075.94
602.53	1076.88
602.88	1076.18
603.22	1084.60
603.57	1086.24
603.92	1083.20
604.27	1089.75
604.62	1092.80
604.97	1084.14
605.31	1079.69
605.66	1090.22
606.01	1086.71
606.36	1084.14
606.71	1076.88
607.05	1083.67
607.40	1077.11
607.75	1078.52
608.10	1069.86
608.44	1078.99
608.79	1075.48
609.14	1077.82
609.49	1084.84
609.84	1083.43
610.18	1089.99
610.53	1088.58
610.88	1082.50
611.23	1079.22
611.57	1086.24
611.92	1088.35
612.27	1090.22
612.62	1088.58
612.96	1082.73
613.31	1078.75
613.66	1079.46
614.00	1089.75
614.35	1097.48
614.70	1102.39
615.05	1115.27
615.39	1113.86
615.74	1102.39
616.09	1100.75
616.43	1098.41
616.78	1087.88
617.13	1087.65
617.47	1088.12
617.82	1092.80
618.17	1090.69
618.51	1100.99
618.86	1089.29
619.21	1097.01
619.55	1093.26
619.90	1099.58
620.25	1096.78
620.59	1100.52
620.94	1095.84
621.29	1093.03
621.63	1096.31
621.98	1104.50
622.32	1114.10
622.67	1115.27
623.02	1119.01
623.36	1114.10
623.71	1097.24
624.05	1089.29
624.40	1097.71
624.75	1086.24
625.09	1076.88
625.44	1082.50
625.78	1077.58
626.13	1074.77
626.48	1072.20
626.82	1080.63
627.17	1080.16
627.51	1087.18
627.86	1080.86
628.20	1082.26
628.55	1078.28
628.89	1066.11
629.24	1068.92
629.58	1063.54
629.93	1071.26
630.28	1080.16
630.62	1086.71
630.97	1089.05
631.31	1092.33
631.66	1091.16
632.00	1084.60
632.35	1086.01
632.69	1078.05
633.04	1075.01
633.38	1075.71
633.73	1075.48
634.07	1086.94
634.42	1088.58
634.76	1102.86
635.11	1107.31
635.45	1107.31
635.79	1099.12
636.14	1088.82
636.48	1078.99
636.83	1079.92
637.17	1080.16
637.52	1074.07
637.86	1080.86
638.21	1072.67
638.55	1066.35
638.89	1061.20
639.24	1072.67
639.58	1071.97
639.93	1075.24
640.27	1078.28
640.61	1088.82
640.96	1080.86
641.30	1086.71
641.65	1090.69
641.99	1087.18
642.33	1082.03
642.68	1076.88
643.02	1075.94
643.37	1074.07
643.71	1071.03
644.05	1070.33
644.40	1078.52
644.74	1075.71
645.08	1076.41
645.43	1084.60
645.77	1089.52
646.11	1089.05
646.46	1090.46
646.80	1091.16
647.14	1082.26
647.49	1075.48
647.83	1078.05
648.17	1080.39
648.52	1079.22
648.86	1085.77
649.20	1077.58
649.55	1069.86
649.89	1069.86
650.23	1072.20
650.57	1066.82
650.92	1072.67
651.26	1075.01
651.60	1067.28
651.95	1061.43
652.29	1059.79
652.63	1063.54
652.97	1060.26
653.32	1063.77
653.66	1078.28
654.00	1085.07
654.34	1087.18
654.69	1090.92
655.03	1086.24
655.37	1082.50
655.71	1081.33
656.05	1081.09
656.40	1080.86
656.74	1088.82
657.08	1082.03
657.42	1089.99
657.76	1088.35
658.11	1079.22
658.45	1080.16
658.79	1081.33
659.13	1059.79
659.47	1061.90
659.82	1074.77
660.16	1082.97
660.50	1088.35
660.84	1092.09
661.18	1086.71
661.52	1070.56
661.87	1047.16
662.21	1041.54
662.55	1053.24
662.89	1059.56
663.23	1079.22
663.57	1094.90
663.91	1092.80
664.25	1085.54
664.60	1086.71
664.94	1082.97
665.28	1077.11
665.62	1070.56
665.96	1074.77
666.30	1070.56
666.64	1071.50
666.98	1078.75
667.32	1086.94
667.66	1095.84
668.01	1097.71
668.35	1093.97
668.69	1082.26
669.03	1076.88
669.37	1062.14
669.71	1062.37
670.05	1066.11
670.39	1078.28
670.73	1078.05
671.07	1084.37
671.41	1078.52
671.75	1067.28
672.09	1065.18
672.43	1075.01
672.77	1067.99
673.11	1075.01
673.45	1070.80
673.79	1060.03
674.13	1062.84
674.47	1079.92
674.81	1081.56
675.15	1093.03
675.49	1098.18
675.83	1095.60
676.17	1081.33
676.51	1074.07
676.85	1074.07
677.19	1082.26
677.53	1077.35
677.87	1082.73
678.21	1081.80
678.55	1080.63
678.89	1077.11
679.23	1081.09
679.57	1075.48
679.90	1082.97
680.24	1080.63
680.58	1083.90
680.92	1080.86
681.26	1089.99
681.60	1081.80
681.94	1088.35
682.28	1078.99
682.62	1063.77
682.96	1054.65
683.29	1061.90
683.63	1057.45
683.97	1065.41
684.31	1081.09
684.65	1081.80
684.99	1072.20
685.33	1072.43
685.67	1070.80
686.00	1074.31
686.34	1079.92
686.68	1093.03
687.02	1102.39
687.36	1104.97
687.70	1102.39
688.03	1097.95
688.37	1090.69
688.71	1085.77
689.05	1071.03
689.39	1072.43
689.72	1078.52
690.06	1075.48
690.40	1071.50
690.74	1086.71
691.08	1077.35
691.41	1077.11
691.75	1079.69
692.09	1080.39
692.43	1080.39
692.76	1080.39
693.10	1076.88
693.44	1076.65
693.78	1078.05
694.11	1078.99
694.45	1081.09
694.79	1078.75
695.13	1079.22
695.46	1071.03
695.80	1071.73
696.14	1075.71
696.48	1082.26
696.81	1076.88
697.15	1079.46
697.49	1075.94
697.82	1085.07
698.16	1086.71
698.50	1090.22
698.83	1105.20
699.17	1112.22
699.51	1105.44
699.84	1106.61
700.18	1099.35
700.52	1088.12
700.85	1075.01
701.19	1070.80
701.53	1058.86
701.86	1059.33
702.20	1052.30
702.54	1048.79
702.87	1045.28
703.21	1042.01
703.55	1038.96
703.88	1047.16
704.22	1048.09
704.55	1052.54
704.89	1069.39
705.23	1090.92
705.56	1086.71
705.90	1099.12
706.23	1101.22
706.57	1091.86
706.91	1082.97
707.24	1090.69
707.58	1088.82
707.91	1079.22
708.25	1083.20
708.58	1082.50
708.92	1084.60
709.26	1085.31
709.59	1099.58
709.93	1091.16
710.26	1097.24
710.60	1086.71
710.93	1080.86
711.27	1068.45
711.60	1084.84
711.94	1079.92
712.27	1088.82
712.61	1085.77
712.94	1087.65
713.28	1078.99
713.61	1074.77
713.95	1066.11
714.28	1071.73
714.62	1072.43
714.95	1070.09
715.29	1076.65
715.62	1081.56
715.96	1080.39
716.29	1083.43
716.63	1075.24
716.96	1081.80
717.29	1082.73
717.63	1078.28
717.96	1078.99
718.30	1089.05
718.63	1078.05
718.97	1066.35
719.30	1068.22
719.63	1064.01
719.97	1062.37
720.30	1057.45
720.64	1061.43
720.97	1060.96
721.30	1064.01
721.64	1065.18
721.97	1079.92
722.31	1084.37
722.64	1086.94
722.97	1096.07
723.31	1092.56
723.64	1083.43
723.97	1088.35
724.31	1084.60
724.64	1083.43
724.98	1091.16
725.31	1085.54
725.64	1083.43
725.98	1085.77
726.31	1077.11
726.64	1075.24
726.97	1073.37
727.31	1072.20
727.64	1073.60
727.97	1076.18
728.31	1076.41
728.64	1079.92
728.97	1084.84
729.31	1088.82
729.64	1089.52
729.97	1082.26
730.30	1076.18
730.64	1073.37
730.97	1072.90
731.30	1068.92
731.63	1072.67
731.97	1089.52
732.30	1087.88
732.63	1088.12
732.96	1100.05
733.30	1103.09
733.63	1095.60
733.96	1089.29
734.29	1078.52
734.63	1070.56
734.96	1072.43
735.29	1069.86
735.62	1067.99
735.95	1080.63
736.29	1078.28
736.62	1072.90
736.95	1075.24
737.28	1083.90
737.61	1075.01
737.94	1077.58
738.28	1083.67
738.61	1087.65
738.94	1096.07
739.27	1095.14
739.60	1089.52
739.93	1081.09
740.27	1081.80
740.60	1070.09
740.93	1072.67
741.26	1073.84
741.59	1074.54
741.92	1066.58
742.25	1074.07
742.58	1068.69
742.91	1070.56
743.25	1075.01
743.58	1075.48
743.91	1068.45
744.24	1074.31
744.57	1074.77
744.90	1074.07
745.23	1070.80
745.56	1071.50
745.89	1070.56
746.22	1070.33
746.55	1069.39
746.88	1085.77
747.21	1087.41
747.54	1083.90
747.87	1091.39
748.20	1093.97
748.53	1081.56
748.87	1083.43
749.20	1088.12
749.53	1074.54
749.86	1067.05
750.19	1069.39
750.52	1067.99
750.85	1064.71
751.18	1073.37
751.51	1076.18
751.84	1078.52
752.16	1071.26
752.49	1081.09
752.82	1078.28
753.15	1085.54
753.48	1086.48
753.81	1092.80
754.14	1088.58
754.47	1089.05
754.80	1075.94
755.13	1072.67
755.46	1067.05
755.79	1059.56
756.12	1057.92
756.45	1069.62
756.78	1065.41
757.11	1066.35
757.43	1074.54
757.76	1066.82
758.09	1065.18
758.42	1061.20
758.75	1067.05
759.08	1060.50
759.41	1077.82
759.74	1074.31
760.07	1077.58
760.39	1068.22
760.72	1067.99
761.05	1054.65
761.38	1062.37
761.71	1068.45
762.04	1079.92
762.36	1084.14
762.69	1088.12
763.02	1084.60
763.35	1087.65
763.68	1081.80
764.01	1075.24
764.33	1080.63
764.66	1073.84
764.99	1067.52
765.32	1067.99
765.65	1072.43
765.97	1074.54
766.30	1078.75
