SpectraSuite Data File
++++++++++++++++++++++++++++++++++++
Date: Mon Aug 26 10:25:48 PDT 2019
User: corrico
Dark Spectrum Present: No
Reference Spectrum Present: No
Number of Sampled Component Spectra: 1
Spectrometers: USB2+H06089
Integration Time (usec): 10000 (USB2+H06089)
Spectra Averaged: 2 (USB2+H06089)
Boxcar Smoothing: 2 (USB2+H06089)
Correct for Electrical Dark: No (USB2+H06089)
Strobe/Lamp Enabled: No (USB2+H06089)
Correct for Detector Non-linearity: No (USB2+H06089)
Correct for Stray Light: No (USB2+H06089)
Number of Pixels in Processed Spectrum: 2048
>>>>>Begin Processed Spectral Data<<<<<
339.70	1032.18
340.07	1032.18
340.45	996.13
340.82	976.24
341.19	945.58
341.57	920.77
341.94	916.32
342.31	907.43
342.69	912.34
343.06	913.04
343.43	918.66
343.81	918.43
344.18	918.19
344.55	906.02
344.93	912.81
345.30	905.55
345.67	908.60
346.04	925.68
346.42	928.49
346.79	945.34
347.16	959.39
347.54	965.71
347.91	965.47
348.28	981.15
348.65	987.00
349.03	994.26
349.40	1009.00
349.77	1020.47
350.14	1025.62
350.52	1024.45
350.89	1029.37
351.26	1031.47
351.63	1043.64
352.01	1055.11
352.38	1062.84
352.75	1065.88
353.12	1069.16
353.50	1065.88
353.87	1066.58
354.24	1066.11
354.61	1068.22
354.98	1073.60
355.36	1078.05
355.73	1080.63
356.10	1086.71
356.47	1089.05
356.84	1081.56
357.22	1079.92
357.59	1072.90
357.96	1071.03
358.33	1073.84
358.70	1073.37
359.08	1060.73
359.45	1073.84
359.82	1070.33
360.19	1070.33
360.56	1086.24
360.94	1090.69
361.31	1084.14
361.68	1089.29
362.05	1103.09
362.42	1097.48
362.79	1104.26
363.16	1106.61
363.54	1100.52
363.91	1085.54
364.28	1086.48
364.65	1076.88
365.02	1076.88
365.39	1085.77
365.76	1076.65
366.14	1070.09
366.51	1067.52
366.88	1057.92
367.25	1050.67
367.62	1067.99
367.99	1064.71
368.36	1075.48
368.73	1084.14
369.10	1078.05
369.48	1069.86
369.85	1075.01
370.22	1073.84
370.59	1070.33
370.96	1077.82
371.33	1073.14
371.70	1077.58
372.07	1079.69
372.44	1078.99
372.81	1084.60
373.18	1091.63
373.55	1082.03
373.93	1074.77
374.30	1070.56
374.67	1066.82
375.04	1058.16
375.41	1065.88
375.78	1071.03
376.15	1074.31
376.52	1070.56
376.89	1070.56
377.26	1065.65
377.63	1059.79
378.00	1062.37
378.37	1058.86
378.74	1053.94
379.11	1055.35
379.48	1063.31
379.85	1066.35
380.22	1068.69
380.59	1082.73
380.96	1089.99
381.33	1081.80
381.70	1074.07
382.07	1078.52
382.44	1067.52
382.81	1057.92
383.18	1053.94
383.55	1060.50
383.92	1058.62
384.29	1070.33
384.66	1075.94
385.03	1086.24
385.40	1078.75
385.77	1082.50
386.14	1072.20
386.51	1074.54
386.88	1072.67
387.25	1076.18
387.62	1080.63
387.99	1080.39
388.36	1070.80
388.73	1057.45
389.10	1049.50
389.46	1041.77
389.83	1049.50
390.20	1053.24
390.57	1071.73
390.94	1075.01
391.31	1075.71
391.68	1072.90
392.05	1068.92
392.42	1063.07
392.79	1059.33
393.16	1058.86
393.53	1055.35
393.89	1060.96
394.26	1056.52
394.63	1061.43
395.00	1061.90
395.37	1066.58
395.74	1066.35
396.11	1066.82
396.48	1073.14
396.84	1073.37
397.21	1067.99
397.58	1063.54
397.95	1062.14
398.32	1064.71
398.69	1068.22
399.06	1074.77
399.42	1082.73
399.79	1092.56
400.16	1088.58
400.53	1076.88
400.90	1072.90
401.27	1064.94
401.64	1064.01
402.00	1060.50
402.37	1071.03
402.74	1072.90
403.11	1074.31
403.48	1072.20
403.84	1077.58
404.21	1069.86
404.58	1077.58
404.95	1077.35
405.32	1077.35
405.68	1079.22
406.05	1086.01
406.42	1079.46
406.79	1079.69
407.16	1080.16
407.52	1073.84
407.89	1059.09
408.26	1061.20
408.63	1060.96
408.99	1063.31
409.36	1069.62
409.73	1083.20
410.10	1082.03
410.47	1085.77
410.83	1080.39
411.20	1077.82
411.57	1072.20
411.94	1073.37
412.30	1075.94
412.67	1075.48
413.04	1075.01
413.40	1086.94
413.77	1085.07
414.14	1082.97
414.51	1088.35
414.87	1091.16
415.24	1082.97
415.61	1084.60
415.97	1087.41
416.34	1079.69
416.71	1082.26
417.08	1082.97
417.44	1083.20
417.81	1084.37
418.18	1090.92
418.54	1093.03
418.91	1091.63
419.28	1090.92
419.64	1085.07
420.01	1091.63
420.38	1089.52
420.74	1085.77
421.11	1085.54
421.48	1079.92
421.84	1062.14
422.21	1060.50
422.58	1074.54
422.94	1077.11
423.31	1087.18
423.68	1108.01
424.04	1098.65
424.41	1087.18
424.77	1085.31
425.14	1088.12
425.51	1081.80
425.87	1086.48
426.24	1096.07
426.61	1101.46
426.97	1090.46
427.34	1077.35
427.70	1078.99
428.07	1067.99
428.44	1052.30
428.80	1042.24
429.17	1049.03
429.53	1056.52
429.90	1063.31
430.27	1073.37
430.63	1088.58
431.00	1081.80
431.36	1076.41
431.73	1075.48
432.09	1078.05
432.46	1081.09
432.83	1089.75
433.19	1080.86
433.56	1082.03
433.92	1073.14
434.29	1065.18
434.65	1066.58
435.02	1068.45
435.38	1066.58
435.75	1079.92
436.11	1078.75
436.48	1076.41
436.84	1083.67
437.21	1078.75
437.57	1068.22
437.94	1071.03
438.30	1069.86
438.67	1059.09
439.03	1063.31
439.40	1064.48
439.76	1069.39
440.13	1067.99
440.49	1067.28
440.86	1055.58
441.22	1056.99
441.59	1057.22
441.95	1056.52
442.32	1060.03
442.68	1069.39
443.05	1067.75
443.41	1072.20
443.78	1083.67
444.14	1093.97
444.51	1099.12
444.87	1107.07
445.24	1096.07
445.60	1084.60
445.96	1078.52
446.33	1071.03
446.69	1057.45
447.06	1061.20
447.42	1063.77
447.79	1066.82
448.15	1063.77
448.51	1064.71
448.88	1063.07
449.24	1070.09
449.61	1073.84
449.97	1082.73
450.33	1078.99
450.70	1088.82
451.06	1083.67
451.43	1072.43
451.79	1078.75
452.15	1093.97
452.52	1085.31
452.88	1082.50
453.24	1082.97
453.61	1071.97
453.97	1056.52
454.34	1048.33
454.70	1052.54
455.06	1060.73
455.43	1066.82
455.79	1083.43
456.15	1090.22
456.52	1083.67
456.88	1082.26
457.24	1075.94
457.61	1070.56
457.97	1074.54
458.33	1076.41
458.70	1071.97
459.06	1075.94
459.42	1077.58
459.79	1071.73
460.15	1084.37
460.51	1079.69
460.88	1082.97
461.24	1083.43
461.60	1076.88
461.96	1069.86
462.33	1082.26
462.69	1077.35
463.05	1078.75
463.42	1083.67
463.78	1079.92
464.14	1076.18
464.50	1064.01
464.87	1056.05
465.23	1057.22
465.59	1053.94
465.95	1053.01
466.32	1065.41
466.68	1066.58
467.04	1064.01
467.40	1060.26
467.77	1056.52
468.13	1054.65
468.49	1047.39
468.85	1055.58
469.22	1067.75
469.58	1068.45
469.94	1071.73
470.30	1086.48
470.66	1081.33
471.03	1083.90
471.39	1091.86
471.75	1092.80
472.11	1085.07
472.47	1088.82
472.84	1085.31
473.20	1079.46
473.56	1082.03
473.92	1087.41
474.28	1084.60
474.65	1073.37
475.01	1065.41
475.37	1067.52
475.73	1068.69
476.09	1074.77
476.45	1082.73
476.81	1097.48
477.18	1085.54
477.54	1084.14
477.90	1075.48
478.26	1075.01
478.62	1071.03
478.98	1081.09
479.34	1083.90
479.71	1087.18
480.07	1087.88
480.43	1083.20
480.79	1081.09
481.15	1080.16
481.51	1083.67
481.87	1088.58
482.23	1094.43
482.59	1101.22
482.96	1097.01
483.32	1096.78
483.68	1091.86
484.04	1091.16
484.40	1082.03
484.76	1081.56
485.12	1081.56
485.48	1079.46
485.84	1082.97
486.20	1092.33
486.56	1091.86
486.92	1092.80
487.28	1099.82
487.64	1097.71
488.00	1089.05
488.37	1094.20
488.73	1092.09
489.09	1083.90
489.45	1078.99
489.81	1080.86
490.17	1082.97
490.53	1087.65
490.89	1091.16
491.25	1085.54
491.61	1087.41
491.97	1084.37
492.33	1087.41
492.69	1087.18
493.05	1092.80
493.41	1092.33
493.77	1093.97
494.13	1089.05
494.49	1092.80
494.85	1089.52
495.21	1077.82
495.57	1072.90
495.93	1069.39
496.29	1066.58
496.64	1059.79
497.00	1062.14
497.36	1051.13
497.72	1053.94
498.08	1043.18
498.44	1056.75
498.80	1060.96
499.16	1069.39
499.52	1073.84
499.88	1086.01
500.24	1083.43
500.60	1091.39
500.96	1099.12
501.32	1103.09
501.68	1101.92
502.03	1099.58
502.39	1100.75
502.75	1096.31
503.11	1089.05
503.47	1083.90
503.83	1092.33
504.19	1085.07
504.55	1087.65
504.91	1089.99
505.26	1101.22
505.62	1089.05
505.98	1090.46
506.34	1082.97
506.70	1075.71
507.06	1062.14
507.42	1069.62
507.78	1073.60
508.13	1086.94
508.49	1091.39
508.85	1097.24
509.21	1104.97
509.57	1105.20
509.93	1104.26
510.28	1093.73
510.64	1100.99
511.00	1092.33
511.36	1098.41
511.72	1092.80
512.07	1099.58
512.43	1088.58
512.79	1088.12
513.15	1086.71
513.51	1082.97
513.86	1080.39
514.22	1086.24
514.58	1085.77
514.94	1078.28
515.30	1082.97
515.65	1088.58
516.01	1088.12
516.37	1085.07
516.73	1085.07
517.08	1085.31
517.44	1092.56
517.80	1094.90
518.16	1098.88
518.51	1094.20
518.87	1093.97
519.23	1086.71
519.59	1076.18
519.94	1079.69
520.30	1082.50
520.66	1077.82
521.01	1073.84
521.37	1082.03
521.73	1080.86
522.09	1073.37
522.44	1069.62
522.80	1079.92
523.16	1078.75
523.51	1075.94
523.87	1089.05
524.23	1099.12
524.58	1087.88
524.94	1089.99
525.30	1094.67
525.65	1082.50
526.01	1070.80
526.37	1078.52
526.72	1084.14
527.08	1082.26
527.44	1096.07
527.79	1103.33
528.15	1111.29
528.51	1101.92
528.86	1096.54
529.22	1100.75
529.58	1102.86
529.93	1082.50
530.29	1076.18
530.65	1084.14
531.00	1069.86
531.36	1064.71
531.71	1071.50
532.07	1079.92
532.43	1075.24
532.78	1082.73
533.14	1089.05
533.49	1092.09
533.85	1097.71
534.21	1100.75
534.56	1103.56
534.92	1099.58
535.27	1092.80
535.63	1077.82
535.98	1075.94
536.34	1070.09
536.69	1074.07
537.05	1080.86
537.41	1084.60
537.76	1081.33
538.12	1077.82
538.47	1077.58
538.83	1072.90
539.18	1075.94
539.54	1075.71
539.89	1074.54
540.25	1069.62
540.60	1079.22
540.96	1072.20
541.31	1062.84
541.67	1072.90
542.02	1077.58
542.38	1072.90
542.73	1081.09
543.09	1097.01
543.44	1084.14
543.80	1079.22
544.15	1078.28
544.51	1078.99
544.86	1067.75
545.22	1071.97
545.57	1076.65
545.93	1069.16
546.28	1071.03
546.64	1075.94
546.99	1080.63
547.35	1078.05
547.70	1087.88
548.05	1078.52
548.41	1080.86
548.76	1077.11
549.12	1069.62
549.47	1062.14
549.83	1069.16
550.18	1067.99
550.53	1078.05
550.89	1085.07
551.24	1084.60
551.60	1078.52
551.95	1075.71
552.30	1061.43
552.66	1068.69
553.01	1068.22
553.37	1074.77
553.72	1074.77
554.07	1070.33
554.43	1059.79
554.78	1055.11
555.13	1049.03
555.49	1054.65
555.84	1068.22
556.19	1077.11
556.55	1094.67
556.90	1107.78
557.26	1105.20
557.61	1098.88
557.96	1091.86
558.32	1083.20
558.67	1072.90
559.02	1067.75
559.37	1066.11
559.73	1057.45
560.08	1064.48
560.43	1070.33
560.79	1075.94
561.14	1074.31
561.49	1093.03
561.85	1076.65
562.20	1068.69
562.55	1073.37
562.90	1081.56
563.26	1058.86
563.61	1071.73
563.96	1080.63
564.32	1080.16
564.67	1078.05
565.02	1098.41
565.37	1097.01
565.73	1093.50
566.08	1089.29
566.43	1086.48
566.78	1077.58
567.14	1069.39
567.49	1069.39
567.84	1074.07
568.19	1075.24
568.54	1075.24
568.90	1084.60
569.25	1093.26
569.60	1084.37
569.95	1082.50
570.31	1093.03
570.66	1088.12
571.01	1085.31
571.36	1093.97
571.71	1097.71
572.06	1098.65
572.42	1095.84
572.77	1093.97
573.12	1089.05
573.47	1082.73
573.82	1075.24
574.18	1083.90
574.53	1079.46
574.88	1078.52
575.23	1083.67
575.58	1075.48
575.93	1081.33
576.28	1082.97
576.64	1090.46
576.99	1083.90
577.34	1090.92
577.69	1085.07
578.04	1084.14
578.39	1083.20
578.74	1097.71
579.09	1101.46
579.44	1112.22
579.80	1115.50
580.15	1121.58
580.50	1114.80
580.85	1122.99
581.20	1106.84
581.55	1104.03
581.90	1091.16
582.25	1093.26
582.60	1082.73
582.95	1093.26
583.30	1095.14
583.65	1088.58
584.00	1081.80
584.35	1083.20
584.71	1079.92
585.06	1083.43
585.41	1105.90
585.76	1114.33
586.11	1121.58
586.46	1119.95
586.81	1113.16
587.16	1097.95
587.51	1089.99
587.86	1085.07
588.21	1083.67
588.56	1085.54
588.91	1087.41
589.26	1096.07
589.61	1084.60
589.96	1075.24
590.31	1071.73
590.66	1083.67
591.01	1083.90
591.36	1094.20
591.71	1101.46
592.06	1100.05
592.41	1081.33
592.76	1078.99
593.10	1081.09
593.45	1083.90
593.80	1085.77
594.15	1100.05
594.50	1093.26
594.85	1087.18
595.20	1086.48
595.55	1079.92
595.90	1070.56
596.25	1077.82
596.60	1075.94
596.95	1073.84
597.30	1078.28
597.64	1130.95
597.99	1127.20
598.34	1131.88
598.69	1126.50
599.04	1136.56
599.39	1088.35
599.74	1085.31
600.09	1080.39
600.44	1086.94
600.78	1090.46
601.13	1097.24
601.48	1104.97
601.83	1112.46
602.18	1111.99
602.53	1099.82
602.88	1086.71
603.22	1083.20
603.57	1077.11
603.92	1081.09
604.27	1089.75
604.62	1090.69
604.97	1087.65
605.31	1084.37
605.66	1075.24
606.01	1072.67
606.36	1084.60
606.71	1083.20
607.05	1090.46
607.40	1099.58
607.75	1094.20
608.10	1085.77
608.44	1082.73
608.79	1085.77
609.14	1086.94
609.49	1087.65
609.84	1089.99
610.18	1094.90
610.53	1086.24
610.88	1083.43
611.23	1082.73
611.57	1080.63
611.92	1085.77
612.27	1087.18
612.62	1089.99
612.96	1096.31
613.31	1089.05
613.66	1081.80
614.00	1076.41
614.35	1070.80
614.70	1065.41
615.05	1073.84
615.39	1080.39
615.74	1085.77
616.09	1082.50
616.43	1087.88
616.78	1078.99
617.13	1072.90
617.47	1081.80
617.82	1080.16
618.17	1074.54
618.51	1080.86
618.86	1086.24
619.21	1077.58
619.55	1081.80
619.90	1079.92
620.25	1074.77
620.59	1065.65
620.94	1070.33
621.29	1069.86
621.63	1066.82
621.98	1076.65
622.32	1081.80
622.67	1086.48
623.02	1084.37
623.36	1091.39
623.71	1094.43
624.05	1101.22
624.40	1088.58
624.75	1091.16
625.09	1081.80
625.44	1069.86
625.78	1065.18
626.13	1069.39
626.48	1078.99
626.82	1091.16
627.17	1101.22
627.51	1097.01
627.86	1098.65
628.20	1089.29
628.55	1095.14
628.89	1079.92
629.24	1087.65
629.58	1092.09
629.93	1097.01
630.28	1085.31
630.62	1089.99
630.97	1085.54
631.31	1075.48
631.66	1070.80
632.00	1076.41
632.35	1078.05
632.69	1079.92
633.04	1082.50
633.38	1077.82
633.73	1079.46
634.07	1087.65
634.42	1085.31
634.76	1087.41
635.11	1103.33
635.45	1103.56
635.79	1101.92
636.14	1106.14
636.48	1116.20
636.83	1110.12
637.17	1099.12
637.52	1087.41
637.86	1083.67
638.21	1071.26
638.55	1068.92
638.89	1070.09
639.24	1076.65
639.58	1076.88
639.93	1081.09
640.27	1082.50
640.61	1088.12
640.96	1087.65
641.30	1084.84
641.65	1075.24
641.99	1072.90
642.33	1072.90
642.68	1077.82
643.02	1084.37
643.37	1094.43
643.71	1088.82
644.05	1091.39
644.40	1083.90
644.74	1091.39
645.08	1082.03
645.43	1087.18
645.77	1083.90
646.11	1086.48
646.46	1077.82
646.80	1078.99
647.14	1085.54
647.49	1089.52
647.83	1087.41
648.17	1093.26
648.52	1100.29
648.86	1090.92
649.20	1085.31
649.55	1092.09
649.89	1085.31
650.23	1086.24
650.57	1091.39
650.92	1101.22
651.26	1101.69
651.60	1100.29
651.95	1103.33
652.29	1102.16
652.63	1100.99
652.97	1095.60
653.32	1100.05
653.66	1103.80
654.00	1104.26
654.34	1097.71
654.69	1093.97
655.03	1078.05
655.37	1067.75
655.71	1064.01
656.05	1069.39
656.40	1077.58
656.74	1088.82
657.08	1094.67
657.42	1098.18
657.76	1098.65
658.11	1090.92
658.45	1094.20
658.79	1082.03
659.13	1077.35
659.47	1077.82
659.82	1083.90
660.16	1082.26
660.50	1086.71
660.84	1089.99
661.18	1080.63
661.52	1081.33
661.87	1085.77
662.21	1090.46
662.55	1092.80
662.89	1096.78
663.23	1094.20
663.57	1089.75
663.91	1083.67
664.25	1083.67
664.60	1087.41
664.94	1084.84
665.28	1081.56
665.62	1079.69
665.96	1071.50
666.30	1070.09
666.64	1067.52
666.98	1064.24
667.32	1064.48
667.66	1060.50
668.01	1058.62
668.35	1063.31
668.69	1064.24
669.03	1061.90
669.37	1074.31
669.71	1066.82
670.05	1066.82
670.39	1062.84
670.73	1067.75
671.07	1062.37
671.41	1069.16
671.75	1067.75
672.09	1076.41
672.43	1079.46
672.77	1081.09
673.11	1077.58
673.45	1082.50
673.79	1081.33
674.13	1077.58
674.47	1082.73
674.81	1082.26
675.15	1074.54
675.49	1075.94
675.83	1084.14
676.17	1084.37
676.51	1085.54
676.85	1096.78
677.19	1097.71
677.53	1086.94
677.87	1084.84
678.21	1089.99
678.55	1089.05
678.89	1086.94
679.23	1095.60
679.57	1085.31
679.90	1074.07
680.24	1071.97
680.58	1076.41
680.92	1071.26
681.26	1076.18
681.60	1086.71
681.94	1080.16
682.28	1083.20
682.62	1076.41
682.96	1080.63
683.29	1081.09
683.63	1075.01
683.97	1064.94
684.31	1064.94
684.65	1067.05
684.99	1052.30
685.33	1057.92
685.67	1056.99
686.00	1060.03
686.34	1056.52
686.68	1065.18
687.02	1063.54
687.36	1067.28
687.70	1076.65
688.03	1078.75
688.37	1086.71
688.71	1097.24
689.05	1091.16
689.39	1087.88
689.72	1081.33
690.06	1075.71
690.40	1072.43
690.74	1075.01
691.08	1066.11
691.41	1072.43
691.75	1077.11
692.09	1082.03
692.43	1087.41
692.76	1097.95
693.10	1095.14
693.44	1092.80
693.78	1083.20
694.11	1077.58
694.45	1079.46
694.79	1084.60
695.13	1080.16
695.46	1075.71
695.80	1082.03
696.14	1080.39
696.48	1078.28
696.81	1080.39
697.15	1088.82
697.49	1086.71
697.82	1078.05
698.16	1076.18
698.50	1071.50
698.83	1065.88
699.17	1073.37
699.51	1080.86
699.84	1083.90
700.18	1099.58
700.52	1106.61
700.85	1095.60
701.19	1097.71
701.53	1090.46
701.86	1076.88
702.20	1073.14
702.54	1075.71
702.87	1068.69
703.21	1064.48
703.55	1061.43
703.88	1063.54
704.22	1063.31
704.55	1064.94
704.89	1065.65
705.23	1068.22
705.56	1073.37
705.90	1069.39
706.23	1078.05
706.57	1080.86
706.91	1080.86
707.24	1073.60
707.58	1078.75
707.91	1072.43
708.25	1074.54
708.58	1070.09
708.92	1068.92
709.26	1062.60
709.59	1063.77
709.93	1064.01
710.26	1079.22
710.60	1087.65
710.93	1092.33
711.27	1089.29
711.60	1078.75
711.94	1074.07
712.27	1056.99
712.61	1067.75
712.94	1067.75
713.28	1081.80
713.61	1075.48
713.95	1090.22
714.28	1075.48
714.62	1073.14
714.95	1078.99
715.29	1074.31
715.62	1072.67
715.96	1080.16
716.29	1083.20
716.63	1069.16
716.96	1085.31
717.29	1077.58
717.63	1078.99
717.96	1079.92
718.30	1086.24
718.63	1069.16
718.97	1072.43
719.30	1068.45
719.63	1078.75
719.97	1079.22
720.30	1084.84
720.64	1094.67
720.97	1101.69
721.30	1091.86
721.64	1096.31
721.97	1101.92
722.31	1087.41
722.64	1084.84
722.97	1087.65
723.31	1090.46
723.64	1092.80
723.97	1105.44
724.31	1105.67
724.64	1102.39
724.98	1096.78
725.31	1102.39
725.64	1097.95
725.98	1092.33
726.31	1089.05
726.64	1091.16
726.97	1078.99
727.31	1082.50
727.64	1075.01
727.97	1080.86
728.31	1070.56
728.64	1066.58
728.97	1061.20
729.31	1072.43
729.64	1068.22
729.97	1075.01
730.30	1088.82
730.64	1097.71
730.97	1094.67
731.30	1101.92
731.63	1109.88
731.97	1100.99
732.30	1085.54
732.63	1087.65
732.96	1084.60
733.30	1081.33
733.63	1083.90
733.96	1095.37
734.29	1096.54
734.63	1093.73
734.96	1091.63
735.29	1092.80
735.62	1090.22
735.95	1089.99
736.29	1096.07
736.62	1095.14
736.95	1093.97
737.28	1101.46
737.61	1097.24
737.94	1100.29
738.28	1095.37
738.61	1098.18
738.94	1088.35
739.27	1085.07
739.60	1072.90
739.93	1072.43
740.27	1070.33
740.60	1069.86
740.93	1068.92
741.26	1073.84
741.59	1082.50
741.92	1084.84
742.25	1084.84
742.58	1090.92
742.91	1089.05
743.25	1089.29
743.58	1081.56
743.91	1086.48
744.24	1085.77
744.57	1089.05
744.90	1084.60
745.23	1087.88
745.56	1078.99
745.89	1073.84
746.22	1070.33
746.55	1084.37
746.88	1079.92
747.21	1084.84
747.54	1091.63
747.87	1093.73
748.20	1078.75
748.53	1070.56
748.87	1066.82
749.20	1069.39
749.53	1067.52
749.86	1061.67
750.19	1070.56
750.52	1070.56
750.85	1054.88
751.18	1063.77
751.51	1071.97
751.84	1077.82
752.16	1081.56
752.49	1089.99
752.82	1072.20
753.15	1070.56
753.48	1073.14
753.81	1078.05
754.14	1079.92
754.47	1086.94
754.80	1078.52
755.13	1067.75
755.46	1066.11
755.79	1068.45
756.12	1080.86
756.45	1082.73
756.78	1089.05
757.11	1093.97
757.43	1092.80
757.76	1087.41
758.09	1100.75
758.42	1102.16
758.75	1091.63
759.08	1088.35
759.41	1087.88
759.74	1079.92
760.07	1077.35
760.39	1087.41
760.72	1089.99
761.05	1090.22
761.38	1087.41
761.71	1089.05
762.04	1081.09
762.36	1081.09
762.69	1078.05
763.02	1079.69
763.35	1082.26
763.68	1080.16
764.01	1079.46
764.33	1078.28
764.66	1080.16
764.99	1078.05
765.32	1085.31
765.65	1083.90
765.97	1087.18
766.30	1082.26
