SpectraSuite Data File
++++++++++++++++++++++++++++++++++++
Date: Mon Aug 26 10:25:49 PDT 2019
User: corrico
Dark Spectrum Present: No
Reference Spectrum Present: No
Number of Sampled Component Spectra: 1
Spectrometers: USB2+H06089
Integration Time (usec): 10000 (USB2+H06089)
Spectra Averaged: 2 (USB2+H06089)
Boxcar Smoothing: 2 (USB2+H06089)
Correct for Electrical Dark: No (USB2+H06089)
Strobe/Lamp Enabled: No (USB2+H06089)
Correct for Detector Non-linearity: No (USB2+H06089)
Correct for Stray Light: No (USB2+H06089)
Number of Pixels in Processed Spectrum: 2048
>>>>>Begin Processed Spectral Data<<<<<
339.70	1062.60
340.07	1062.60
340.45	1019.30
340.82	994.49
341.19	968.98
341.57	937.62
341.94	928.96
342.31	909.30
342.69	908.83
343.06	908.36
343.43	905.79
343.81	910.94
344.18	925.45
344.55	930.83
344.93	926.85
345.30	937.85
345.67	939.96
346.04	939.73
346.42	939.02
346.79	956.11
347.16	967.58
347.54	978.58
347.91	994.49
348.28	1003.62
348.65	1004.79
349.03	998.94
349.40	1002.69
349.77	1008.77
350.14	1019.30
350.52	1024.69
350.89	1032.64
351.26	1037.09
351.63	1042.94
352.01	1035.22
352.38	1044.58
352.75	1049.26
353.12	1058.62
353.50	1045.99
353.87	1059.09
354.24	1053.71
354.61	1059.79
354.98	1062.60
355.36	1070.80
355.73	1068.69
356.10	1071.03
356.47	1070.33
356.84	1066.82
357.22	1069.39
357.59	1059.09
357.96	1056.99
358.33	1054.18
358.70	1049.96
359.08	1051.60
359.45	1058.62
359.82	1065.88
360.19	1071.73
360.56	1074.77
360.94	1071.73
361.31	1062.84
361.68	1064.01
362.05	1070.33
362.42	1065.18
362.79	1062.14
363.16	1071.73
363.54	1071.26
363.91	1064.24
364.28	1078.99
364.65	1088.35
365.02	1089.52
365.39	1079.92
365.76	1082.26
366.14	1076.18
366.51	1066.11
366.88	1063.77
367.25	1065.88
367.62	1060.03
367.99	1062.37
368.36	1067.05
368.73	1075.24
369.10	1074.07
369.48	1068.92
369.85	1057.92
370.22	1055.11
370.59	1043.18
370.96	1050.67
371.33	1059.33
371.70	1067.05
372.07	1070.09
372.44	1071.03
372.81	1065.41
373.18	1067.75
373.55	1071.03
373.93	1056.05
374.30	1060.03
374.67	1062.84
375.04	1060.26
375.41	1052.54
375.78	1066.11
376.15	1069.62
376.52	1064.24
376.89	1056.52
377.26	1060.50
377.63	1066.58
378.00	1066.35
378.37	1072.90
378.74	1082.73
379.11	1082.03
379.48	1069.62
379.85	1066.35
380.22	1063.31
380.59	1062.60
380.96	1060.73
381.33	1066.82
381.70	1068.92
382.07	1079.69
382.44	1072.67
382.81	1082.97
383.18	1086.71
383.55	1086.48
383.92	1078.75
384.29	1083.20
384.66	1070.09
385.03	1078.99
385.40	1088.82
385.77	1088.35
386.14	1090.22
386.51	1099.35
386.88	1086.94
387.25	1068.45
387.62	1071.73
387.99	1069.39
388.36	1064.94
388.73	1073.37
389.10	1083.20
389.46	1081.09
389.83	1076.88
390.20	1073.37
390.57	1068.22
390.94	1061.20
391.31	1066.35
391.68	1073.37
392.05	1070.33
392.42	1064.94
392.79	1071.26
393.16	1069.62
393.53	1075.24
393.89	1083.67
394.26	1086.48
394.63	1079.46
395.00	1074.54
395.37	1070.80
395.74	1067.99
396.11	1066.58
396.48	1076.18
396.84	1080.39
397.21	1080.86
397.58	1075.71
397.95	1076.41
398.32	1070.80
398.69	1068.69
399.06	1067.75
399.42	1084.37
399.79	1079.22
400.16	1081.33
400.53	1080.39
400.90	1073.14
401.27	1059.09
401.64	1066.58
402.00	1065.41
402.37	1063.77
402.74	1067.75
403.11	1071.26
403.48	1071.50
403.84	1077.82
404.21	1077.11
404.58	1076.65
404.95	1069.16
405.32	1063.07
405.68	1053.71
406.05	1050.20
406.42	1041.07
406.79	1055.35
407.16	1059.09
407.52	1069.62
407.89	1072.20
408.26	1071.97
408.63	1069.62
408.99	1072.43
409.36	1070.09
409.73	1065.88
410.10	1074.77
410.47	1068.45
410.83	1068.22
411.20	1071.50
411.57	1080.63
411.94	1082.50
412.30	1081.56
412.67	1084.14
413.04	1081.33
413.40	1084.37
413.77	1080.16
414.14	1091.16
414.51	1091.16
414.87	1083.67
415.24	1075.24
415.61	1087.88
415.97	1083.20
416.34	1079.69
416.71	1082.97
417.08	1090.46
417.44	1086.48
417.81	1088.82
418.18	1096.07
418.54	1088.12
418.91	1084.84
419.28	1083.90
419.64	1083.90
420.01	1074.31
420.38	1083.43
420.74	1088.35
421.11	1091.16
421.48	1095.60
421.84	1090.92
422.21	1082.97
422.58	1079.92
422.94	1082.03
423.31	1072.90
423.68	1073.14
424.04	1079.46
424.41	1078.75
424.77	1071.26
425.14	1067.75
425.51	1069.16
425.87	1064.01
426.24	1058.39
426.61	1064.71
426.97	1077.82
427.34	1078.28
427.70	1089.29
428.07	1091.16
428.44	1086.24
428.80	1075.48
429.17	1079.69
429.53	1070.80
429.90	1071.03
430.27	1061.67
430.63	1059.79
431.00	1061.43
431.36	1069.39
431.73	1071.50
432.09	1079.46
432.46	1078.52
432.83	1082.26
433.19	1080.39
433.56	1082.26
433.92	1086.94
434.29	1097.48
434.65	1089.75
435.02	1086.48
435.38	1078.52
435.75	1068.69
436.11	1062.60
436.48	1068.92
436.84	1058.62
437.21	1066.58
437.57	1064.24
437.94	1056.99
438.30	1056.28
438.67	1068.45
439.03	1067.28
439.40	1075.71
439.76	1084.14
440.13	1075.94
440.49	1067.75
440.86	1060.73
441.22	1061.67
441.59	1061.43
441.95	1064.24
442.32	1061.67
442.68	1066.11
443.05	1055.11
443.41	1043.88
443.78	1049.73
444.14	1067.28
444.51	1073.14
444.87	1085.54
445.24	1089.75
445.60	1079.92
445.96	1080.16
446.33	1073.37
446.69	1061.90
447.06	1072.90
447.42	1089.29
447.79	1084.60
448.15	1080.63
448.51	1090.22
448.88	1084.60
449.24	1077.11
449.61	1076.41
449.97	1091.63
450.33	1087.88
450.70	1085.31
451.06	1087.18
451.43	1091.86
451.79	1085.77
452.15	1080.63
452.52	1079.46
452.88	1058.86
453.24	1052.30
453.61	1055.11
453.97	1056.75
454.34	1064.71
454.70	1081.09
455.06	1071.50
455.43	1061.20
455.79	1067.99
456.15	1069.86
456.52	1079.46
456.88	1098.18
457.24	1103.09
457.61	1100.99
457.97	1098.41
458.33	1079.92
458.70	1073.84
459.06	1074.77
459.42	1068.22
459.79	1069.62
460.15	1083.90
460.51	1087.18
460.88	1088.35
461.24	1100.29
461.60	1096.31
461.96	1094.90
462.33	1085.31
462.69	1089.75
463.05	1077.82
463.42	1078.99
463.78	1084.84
464.14	1090.22
464.50	1080.39
464.87	1088.82
465.23	1087.41
465.59	1083.20
465.95	1088.82
466.32	1090.92
466.68	1092.56
467.04	1092.33
467.40	1096.31
467.77	1088.58
468.13	1085.77
468.49	1085.54
468.85	1097.24
469.22	1089.99
469.58	1095.84
469.94	1097.01
470.30	1096.54
470.66	1090.22
471.03	1091.63
471.39	1081.80
471.75	1078.52
472.11	1079.46
472.47	1072.20
472.84	1067.28
473.20	1073.84
473.56	1077.35
473.92	1068.22
474.28	1068.22
474.65	1066.82
475.01	1066.11
475.37	1074.54
475.73	1082.97
476.09	1084.60
476.45	1092.80
476.81	1091.39
477.18	1083.67
477.54	1087.65
477.90	1080.63
478.26	1073.37
478.62	1064.24
478.98	1067.75
479.34	1069.86
479.71	1080.16
480.07	1086.71
480.43	1098.41
480.79	1097.01
481.15	1088.58
481.51	1082.03
481.87	1074.31
482.23	1072.90
482.59	1067.28
482.96	1065.65
483.32	1073.37
483.68	1075.01
484.04	1075.94
484.40	1082.97
484.76	1080.63
485.12	1076.65
485.48	1076.41
485.84	1073.84
486.20	1070.33
486.56	1076.41
486.92	1073.84
487.28	1072.67
487.64	1073.60
488.00	1088.35
488.37	1085.77
488.73	1080.63
489.09	1084.37
489.45	1083.67
489.81	1083.90
490.17	1077.82
490.53	1097.48
490.89	1092.33
491.25	1090.46
491.61	1078.99
491.97	1089.52
492.33	1071.03
492.69	1070.56
493.05	1065.88
493.41	1054.88
493.77	1057.92
494.13	1067.05
494.49	1071.97
494.85	1078.99
495.21	1087.88
495.57	1082.50
495.93	1078.52
496.29	1080.86
496.64	1085.07
497.00	1086.24
497.36	1082.03
497.72	1087.88
498.08	1093.50
498.44	1086.94
498.80	1085.07
499.16	1081.33
499.52	1080.16
499.88	1069.16
500.24	1069.16
500.60	1071.97
500.96	1080.39
501.32	1076.18
501.68	1075.24
502.03	1080.63
502.39	1070.33
502.75	1070.80
503.11	1079.46
503.47	1090.46
503.83	1078.99
504.19	1075.48
504.55	1067.05
504.91	1057.22
505.26	1049.73
505.62	1058.39
505.98	1067.28
506.34	1087.18
506.70	1092.56
507.06	1087.41
507.42	1084.14
507.78	1088.35
508.13	1075.71
508.49	1064.24
508.85	1067.28
509.21	1071.97
509.57	1062.37
509.93	1057.92
510.28	1067.05
510.64	1072.90
511.00	1076.65
511.36	1085.07
511.72	1093.97
512.07	1097.48
512.43	1092.33
512.79	1076.41
513.15	1071.97
513.51	1064.94
513.86	1053.24
514.22	1055.35
514.58	1064.48
514.94	1075.48
515.30	1075.24
515.65	1089.99
516.01	1104.50
516.37	1116.44
516.73	1103.09
517.08	1108.24
517.44	1104.26
517.80	1079.92
518.16	1071.50
518.51	1077.35
518.87	1081.56
519.23	1085.07
519.59	1097.01
519.94	1103.33
520.30	1106.84
520.66	1105.90
521.01	1107.31
521.37	1107.31
521.73	1101.46
522.09	1102.86
522.44	1094.90
522.80	1088.82
523.16	1082.50
523.51	1079.69
523.87	1076.18
524.23	1082.26
524.58	1079.22
524.94	1075.94
525.30	1076.18
525.65	1080.86
526.01	1077.58
526.37	1083.90
526.72	1094.67
527.08	1101.69
527.44	1096.07
527.79	1089.52
528.15	1082.03
528.51	1082.26
528.86	1069.86
529.22	1065.41
529.58	1074.77
529.93	1076.65
530.29	1075.01
530.65	1080.63
531.00	1086.71
531.36	1080.63
531.71	1075.24
532.07	1080.16
532.43	1084.84
532.78	1086.24
533.14	1093.97
533.49	1107.54
533.85	1097.01
534.21	1095.60
534.56	1088.35
534.92	1083.43
535.27	1078.05
535.63	1090.92
535.98	1090.46
536.34	1101.22
536.69	1107.78
537.05	1090.69
537.41	1079.69
537.76	1074.77
538.12	1064.24
538.47	1049.73
538.83	1063.54
539.18	1064.94
539.54	1068.45
539.89	1071.97
540.25	1082.97
540.60	1076.65
540.96	1086.01
541.31	1097.48
541.67	1104.26
542.02	1100.99
542.38	1111.99
542.73	1096.54
543.09	1086.24
543.44	1075.24
543.80	1065.18
544.15	1067.28
544.51	1075.01
544.86	1072.20
545.22	1074.07
545.57	1083.90
545.93	1074.31
546.28	1080.86
546.64	1089.05
546.99	1099.12
547.35	1098.65
547.70	1097.24
548.05	1091.39
548.41	1082.50
548.76	1075.01
549.12	1079.22
549.47	1093.26
549.83	1091.86
550.18	1104.73
550.53	1106.37
550.89	1112.69
551.24	1099.58
551.60	1096.78
551.95	1088.35
552.30	1086.24
552.66	1081.33
553.01	1094.43
553.37	1097.95
553.72	1093.50
554.07	1090.69
554.43	1089.29
554.78	1080.39
555.13	1075.48
555.49	1075.01
555.84	1074.07
556.19	1082.97
556.55	1080.16
556.90	1082.73
557.26	1092.33
557.61	1088.12
557.96	1063.07
558.32	1064.71
558.67	1068.45
559.02	1065.65
559.37	1078.75
559.73	1086.24
560.08	1098.41
560.43	1085.77
560.79	1083.43
561.14	1087.18
561.49	1080.63
561.85	1069.16
562.20	1082.03
562.55	1074.31
562.90	1058.62
563.26	1068.69
563.61	1067.05
563.96	1057.45
564.32	1061.90
564.67	1066.58
565.02	1064.48
565.37	1067.05
565.73	1070.80
566.08	1070.56
566.43	1058.62
566.78	1060.03
567.14	1065.41
567.49	1073.84
567.84	1072.90
568.19	1091.16
568.54	1099.35
568.90	1091.63
569.25	1086.94
569.60	1084.60
569.95	1082.03
570.31	1078.99
570.66	1080.16
571.01	1079.22
571.36	1082.97
571.71	1089.99
572.06	1078.05
572.42	1080.39
572.77	1081.33
573.12	1078.75
573.47	1065.65
573.82	1074.07
574.18	1073.60
574.53	1069.16
574.88	1075.24
575.23	1076.41
575.58	1075.24
575.93	1064.48
576.28	1071.97
576.64	1066.11
576.99	1062.14
577.34	1059.79
577.69	1061.90
578.04	1059.79
578.39	1058.86
578.74	1070.33
579.09	1067.99
579.44	1072.20
579.80	1066.35
580.15	1068.92
580.50	1067.75
580.85	1069.86
581.20	1074.31
581.55	1070.33
581.90	1069.62
582.25	1067.99
582.60	1074.07
582.95	1072.90
583.30	1076.65
583.65	1077.35
584.00	1078.05
584.35	1078.52
584.71	1078.75
585.06	1078.28
585.41	1066.58
585.76	1077.11
586.11	1073.14
586.46	1067.75
586.81	1075.48
587.16	1088.58
587.51	1079.92
587.86	1085.54
588.21	1087.88
588.56	1087.65
588.91	1088.35
589.26	1090.92
589.61	1085.07
589.96	1092.80
590.31	1095.37
590.66	1096.31
591.01	1094.67
591.36	1094.90
591.71	1084.37
592.06	1078.52
592.41	1069.39
592.76	1062.14
593.10	1066.58
593.45	1071.26
593.80	1078.05
594.15	1082.03
594.50	1086.48
594.85	1088.35
595.20	1093.26
595.55	1094.20
595.90	1096.78
596.25	1089.29
596.60	1087.18
596.95	1085.31
597.30	1070.56
597.64	1115.97
597.99	1125.56
598.34	1127.67
598.69	1124.16
599.04	1129.78
599.39	1081.56
599.74	1080.39
600.09	1076.41
600.44	1080.63
600.78	1083.20
601.13	1091.16
601.48	1095.60
601.83	1093.97
602.18	1091.16
602.53	1098.65
602.88	1096.54
603.22	1094.67
603.57	1095.84
603.92	1103.80
604.27	1094.90
604.62	1084.37
604.97	1084.14
605.31	1077.82
605.66	1071.73
606.01	1064.71
606.36	1079.92
606.71	1081.33
607.05	1094.20
607.40	1089.75
607.75	1092.56
608.10	1083.90
608.44	1080.63
608.79	1072.90
609.14	1079.46
609.49	1083.90
609.84	1087.65
610.18	1086.71
610.53	1089.29
610.88	1095.60
611.23	1094.67
611.57	1099.58
611.92	1095.37
612.27	1089.52
612.62	1080.86
612.96	1086.24
613.31	1075.71
613.66	1078.99
614.00	1091.86
614.35	1093.03
614.70	1095.37
615.05	1100.05
615.39	1098.18
615.74	1085.54
616.09	1078.99
616.43	1071.73
616.78	1073.37
617.13	1081.80
617.47	1081.09
617.82	1086.48
618.17	1096.31
618.51	1092.80
618.86	1091.63
619.21	1093.26
619.55	1086.48
619.90	1075.48
620.25	1075.24
620.59	1074.77
620.94	1069.62
621.29	1080.86
621.63	1080.86
621.98	1075.48
622.32	1086.71
622.67	1099.82
623.02	1109.65
623.36	1122.05
623.71	1129.07
624.05	1113.16
624.40	1115.03
624.75	1108.01
625.09	1102.39
625.44	1097.95
625.78	1097.71
626.13	1092.80
626.48	1087.88
626.82	1084.37
627.17	1083.90
627.51	1083.67
627.86	1082.97
628.20	1083.43
628.55	1078.99
628.89	1072.67
629.24	1068.22
629.58	1075.24
629.93	1077.82
630.28	1084.14
630.62	1085.07
630.97	1093.73
631.31	1085.54
631.66	1083.90
632.00	1073.60
632.35	1089.75
632.69	1091.86
633.04	1089.99
633.38	1082.50
633.73	1091.39
634.07	1085.07
634.42	1082.26
634.76	1081.80
635.11	1087.65
635.45	1086.01
635.79	1081.33
636.14	1081.56
636.48	1082.50
636.83	1080.39
637.17	1083.20
637.52	1085.31
637.86	1082.97
638.21	1087.65
638.55	1082.03
638.89	1075.48
639.24	1078.99
639.58	1072.67
639.93	1067.75
640.27	1064.24
640.61	1064.94
640.96	1055.58
641.30	1056.05
641.65	1050.43
641.99	1064.71
642.33	1068.69
642.68	1073.37
643.02	1087.88
643.37	1097.95
643.71	1081.56
644.05	1077.82
644.40	1082.50
644.74	1076.65
645.08	1077.82
645.43	1084.60
645.77	1079.22
646.11	1078.99
646.46	1075.24
646.80	1062.37
647.14	1061.90
647.49	1065.88
647.83	1055.11
648.17	1050.90
648.52	1059.33
648.86	1078.28
649.20	1084.84
649.55	1090.92
649.89	1101.92
650.23	1101.22
650.57	1080.16
650.92	1070.56
651.26	1072.20
651.60	1063.77
651.95	1060.96
652.29	1064.71
652.63	1070.33
652.97	1063.07
653.32	1062.37
653.66	1058.39
654.00	1056.05
654.34	1052.07
654.69	1066.11
655.03	1067.05
655.37	1065.65
655.71	1071.97
656.05	1066.82
656.40	1057.22
656.74	1054.65
657.08	1060.96
657.42	1060.26
657.76	1067.05
658.11	1077.82
658.45	1083.90
658.79	1086.48
659.13	1087.18
659.47	1099.82
659.82	1091.16
660.16	1087.18
660.50	1091.39
660.84	1087.41
661.18	1085.31
661.52	1095.37
661.87	1092.09
662.21	1088.35
662.55	1086.48
662.89	1079.22
663.23	1083.43
663.57	1088.12
663.91	1085.07
664.25	1091.86
664.60	1099.82
664.94	1088.58
665.28	1091.16
665.62	1084.84
665.96	1086.01
666.30	1075.71
666.64	1067.52
666.98	1071.03
667.32	1080.63
667.66	1077.35
668.01	1076.18
668.35	1084.37
668.69	1082.26
669.03	1078.99
669.37	1078.05
669.71	1080.86
670.05	1076.88
670.39	1077.58
670.73	1080.39
671.07	1075.94
671.41	1085.54
671.75	1090.22
672.09	1077.58
672.43	1077.82
672.77	1082.97
673.11	1072.67
673.45	1066.11
673.79	1066.82
674.13	1071.26
674.47	1075.48
674.81	1081.33
675.15	1080.86
675.49	1085.77
675.83	1083.20
676.17	1077.58
676.51	1067.99
676.85	1075.94
677.19	1076.41
677.53	1072.20
677.87	1066.58
678.21	1066.82
678.55	1061.90
678.89	1067.05
679.23	1068.69
679.57	1077.11
679.90	1088.58
680.24	1088.35
680.58	1088.82
680.92	1087.65
681.26	1084.60
681.60	1084.60
681.94	1089.05
682.28	1087.18
682.62	1086.94
682.96	1088.82
683.29	1089.29
683.63	1097.01
683.97	1097.48
684.31	1101.46
684.65	1102.86
684.99	1096.07
685.33	1089.52
685.67	1095.14
686.00	1095.84
686.34	1097.01
686.68	1093.73
687.02	1091.39
687.36	1082.73
687.70	1073.60
688.03	1063.54
688.37	1069.62
688.71	1068.45
689.05	1070.80
689.39	1079.69
689.72	1080.16
690.06	1082.73
690.40	1083.67
690.74	1079.69
691.08	1079.46
691.41	1087.41
691.75	1088.58
692.09	1084.37
692.43	1089.05
692.76	1075.24
693.10	1073.60
693.44	1060.26
693.78	1060.26
694.11	1065.18
694.45	1076.41
694.79	1080.63
695.13	1096.54
695.46	1108.71
695.80	1108.24
696.14	1105.44
696.48	1103.80
696.81	1086.48
697.15	1071.73
697.49	1058.86
697.82	1055.11
698.16	1056.05
698.50	1061.43
698.83	1064.94
699.17	1063.07
699.51	1065.88
699.84	1063.07
700.18	1066.11
700.52	1071.73
700.85	1082.26
701.19	1086.01
701.53	1080.39
701.86	1082.73
702.20	1072.90
702.54	1073.37
702.87	1062.84
703.21	1071.50
703.55	1067.05
703.88	1076.18
704.22	1076.41
704.55	1079.92
704.89	1077.35
705.23	1077.82
705.56	1073.14
705.90	1071.73
706.23	1075.24
706.57	1068.45
706.91	1064.01
707.24	1070.09
707.58	1066.35
707.91	1076.18
708.25	1082.73
708.58	1091.86
708.92	1088.12
709.26	1090.46
709.59	1090.22
709.93	1095.37
710.26	1095.14
710.60	1098.18
710.93	1102.86
711.27	1096.78
711.60	1092.09
711.94	1097.01
712.27	1092.56
712.61	1087.41
712.94	1082.03
713.28	1075.24
713.61	1069.62
713.95	1067.52
714.28	1066.82
714.62	1068.92
714.95	1069.39
715.29	1067.75
715.62	1074.31
715.96	1069.39
716.29	1069.39
716.63	1073.60
716.96	1081.56
717.29	1076.41
717.63	1076.41
717.96	1087.65
718.30	1085.31
718.63	1078.05
718.97	1080.39
719.30	1088.12
719.63	1074.31
719.97	1073.84
720.30	1061.90
720.64	1064.24
720.97	1065.65
721.30	1058.62
721.64	1061.67
721.97	1073.84
722.31	1076.65
722.64	1072.90
722.97	1093.97
723.31	1092.56
723.64	1084.37
723.97	1080.16
724.31	1082.50
724.64	1073.84
724.98	1078.28
725.31	1091.16
725.64	1085.54
725.98	1090.46
726.31	1090.69
726.64	1084.60
726.97	1082.26
727.31	1091.39
727.64	1080.16
727.97	1085.77
728.31	1095.60
728.64	1093.97
728.97	1086.94
729.31	1080.63
729.64	1077.11
729.97	1072.43
730.30	1069.62
730.64	1078.99
730.97	1091.63
731.30	1093.03
731.63	1090.69
731.97	1089.52
732.30	1082.73
732.63	1077.58
732.96	1071.97
733.30	1074.77
733.63	1079.92
733.96	1081.09
734.29	1081.56
734.63	1084.14
734.96	1077.58
735.29	1075.94
735.62	1082.97
735.95	1082.26
736.29	1082.03
736.62	1084.14
736.95	1077.35
737.28	1069.62
737.61	1085.77
737.94	1091.63
738.28	1098.41
738.61	1104.97
738.94	1099.82
739.27	1088.12
739.60	1084.37
739.93	1079.92
740.27	1075.94
740.60	1084.84
740.93	1080.16
741.26	1078.99
741.59	1082.03
741.92	1086.48
742.25	1084.37
742.58	1072.67
742.91	1077.11
743.25	1075.48
743.58	1067.99
743.91	1069.16
744.24	1077.58
744.57	1067.75
744.90	1056.05
745.23	1064.01
745.56	1060.73
745.89	1057.22
746.22	1063.31
746.55	1079.22
746.88	1073.37
747.21	1086.94
747.54	1088.82
747.87	1088.82
748.20	1079.92
748.53	1089.05
748.87	1074.07
749.20	1089.05
749.53	1093.97
749.86	1096.31
750.19	1095.84
750.52	1097.71
750.85	1086.71
751.18	1080.16
751.51	1084.84
751.84	1072.90
752.16	1076.88
752.49	1083.43
752.82	1080.63
753.15	1076.18
753.48	1086.94
753.81	1082.03
754.14	1082.50
754.47	1083.67
754.80	1081.80
755.13	1078.05
755.46	1078.28
755.79	1079.92
756.12	1087.88
756.45	1079.69
756.78	1077.58
757.11	1082.26
757.43	1076.18
757.76	1072.90
758.09	1086.24
758.42	1087.41
758.75	1075.94
759.08	1077.82
759.41	1085.07
759.74	1069.62
760.07	1072.90
760.39	1077.11
760.72	1078.05
761.05	1067.05
761.38	1085.31
761.71	1081.09
762.04	1090.92
762.36	1095.37
762.69	1092.56
763.02	1090.69
763.35	1101.22
763.68	1099.58
764.01	1091.16
764.33	1090.92
764.66	1086.01
764.99	1077.58
765.32	1063.54
765.65	1066.58
765.97	1068.45
766.30	1066.11
