SpectraSuite Data File
++++++++++++++++++++++++++++++++++++
Date: Mon Aug 26 10:25:45 PDT 2019
User: corrico
Dark Spectrum Present: No
Reference Spectrum Present: No
Number of Sampled Component Spectra: 1
Spectrometers: USB2+H06089
Integration Time (usec): 10000 (USB2+H06089)
Spectra Averaged: 2 (USB2+H06089)
Boxcar Smoothing: 2 (USB2+H06089)
Correct for Electrical Dark: No (USB2+H06089)
Strobe/Lamp Enabled: No (USB2+H06089)
Correct for Detector Non-linearity: No (USB2+H06089)
Correct for Stray Light: No (USB2+H06089)
Number of Pixels in Processed Spectrum: 2048
>>>>>Begin Processed Spectral Data<<<<<
339.70	1049.73
340.07	1049.73
340.45	1000.81
340.82	974.37
341.19	951.19
341.57	925.92
341.94	916.79
342.31	916.79
342.69	911.40
343.06	905.32
343.43	902.28
343.81	898.77
344.18	896.43
344.55	897.83
344.93	900.87
345.30	906.72
345.67	914.45
346.04	924.04
346.42	935.04
346.79	945.58
347.16	951.43
347.54	971.32
347.91	979.75
348.28	997.07
348.65	1007.37
349.03	1019.30
349.40	1007.60
349.77	1008.07
350.14	1007.60
350.52	1011.58
350.89	1011.81
351.26	1031.24
351.63	1038.26
352.01	1044.58
352.38	1043.18
352.75	1051.60
353.12	1057.45
353.50	1062.84
353.87	1065.18
354.24	1071.73
354.61	1075.48
354.98	1074.31
355.36	1078.28
355.73	1081.80
356.10	1083.67
356.47	1077.11
356.84	1075.71
357.22	1064.94
357.59	1056.28
357.96	1059.09
358.33	1058.39
358.70	1064.94
359.08	1082.97
359.45	1085.07
359.82	1084.37
360.19	1089.52
360.56	1090.69
360.94	1092.09
361.31	1091.86
361.68	1092.33
362.05	1089.75
362.42	1076.18
362.79	1069.62
363.16	1076.18
363.54	1070.33
363.91	1071.03
364.28	1076.88
364.65	1075.01
365.02	1065.41
365.39	1071.73
365.76	1078.28
366.14	1074.54
366.51	1060.73
366.88	1057.92
367.25	1053.01
367.62	1049.50
367.99	1042.24
368.36	1050.20
368.73	1062.14
369.10	1055.35
369.48	1054.18
369.85	1064.48
370.22	1071.50
370.59	1070.80
370.96	1074.07
371.33	1084.14
371.70	1077.11
372.07	1075.01
372.44	1074.77
372.81	1083.20
373.18	1083.67
373.55	1090.22
373.93	1087.18
374.30	1082.03
374.67	1078.28
375.04	1076.65
375.41	1074.77
375.78	1072.90
376.15	1076.41
376.52	1072.43
376.89	1059.79
377.26	1067.05
377.63	1071.73
378.00	1068.92
378.37	1075.01
378.74	1075.71
379.11	1071.26
379.48	1074.07
379.85	1066.11
380.22	1060.73
380.59	1059.33
380.96	1054.41
381.33	1046.22
381.70	1056.99
382.07	1059.33
382.44	1068.45
382.81	1080.16
383.18	1082.50
383.55	1069.39
383.92	1069.86
384.29	1062.60
384.66	1060.26
385.03	1067.05
385.40	1072.67
385.77	1074.31
386.14	1085.31
386.51	1078.28
386.88	1072.67
387.25	1075.24
387.62	1066.58
387.99	1062.14
388.36	1064.01
388.73	1064.24
389.10	1069.62
389.46	1070.80
389.83	1061.90
390.20	1062.37
390.57	1067.75
390.94	1068.92
391.31	1063.77
391.68	1072.67
392.05	1070.80
392.42	1069.39
392.79	1062.37
393.16	1070.80
393.53	1064.71
393.89	1062.37
394.26	1055.82
394.63	1055.58
395.00	1047.86
395.37	1045.28
395.74	1061.20
396.11	1074.31
396.48	1082.26
396.84	1090.92
397.21	1090.69
397.58	1085.07
397.95	1079.22
398.32	1077.82
398.69	1073.37
399.06	1085.77
399.42	1076.18
399.79	1084.14
400.16	1077.82
400.53	1091.16
400.90	1089.52
401.27	1091.63
401.64	1082.97
402.00	1081.56
402.37	1069.86
402.74	1065.65
403.11	1066.82
403.48	1054.65
403.84	1059.09
404.21	1059.56
404.58	1052.77
404.95	1056.75
405.32	1070.09
405.68	1069.86
406.05	1073.37
406.42	1083.90
406.79	1085.77
407.16	1077.82
407.52	1073.14
407.89	1077.11
408.26	1067.52
408.63	1060.96
408.99	1065.41
409.36	1070.56
409.73	1068.45
410.10	1071.26
410.47	1062.84
410.83	1061.90
411.20	1069.39
411.57	1067.75
411.94	1074.31
412.30	1087.18
412.67	1089.75
413.04	1080.39
413.40	1090.22
413.77	1079.92
414.14	1081.80
414.51	1086.48
414.87	1084.14
415.24	1075.71
415.61	1078.05
415.97	1080.86
416.34	1082.26
416.71	1084.37
417.08	1091.16
417.44	1095.60
417.81	1089.05
418.18	1084.84
418.54	1088.58
418.91	1080.86
419.28	1075.01
419.64	1072.90
420.01	1065.88
420.38	1064.94
420.74	1072.90
421.11	1088.58
421.48	1092.56
421.84	1093.50
422.21	1094.43
422.58	1094.20
422.94	1086.24
423.31	1079.22
423.68	1079.92
424.04	1072.43
424.41	1071.73
424.77	1071.03
425.14	1071.73
425.51	1070.56
425.87	1078.05
426.24	1061.90
426.61	1060.03
426.97	1062.60
427.34	1080.16
427.70	1075.71
428.07	1090.69
428.44	1090.92
428.80	1093.03
429.17	1081.33
429.53	1083.20
429.90	1082.50
430.27	1081.56
430.63	1082.50
431.00	1082.97
431.36	1094.90
431.73	1100.29
432.09	1104.03
432.46	1111.52
432.83	1101.22
433.19	1080.39
433.56	1074.54
433.92	1071.26
434.29	1056.52
434.65	1069.86
435.02	1078.05
435.38	1075.01
435.75	1070.09
436.11	1077.35
436.48	1081.09
436.84	1085.07
437.21	1090.22
437.57	1095.37
437.94	1093.50
438.30	1082.97
438.67	1095.14
439.03	1088.12
439.40	1084.84
439.76	1086.01
440.13	1088.12
440.49	1079.46
440.86	1093.50
441.22	1096.78
441.59	1095.37
441.95	1095.84
442.32	1094.90
442.68	1089.75
443.05	1090.69
443.41	1093.50
443.78	1100.52
444.14	1102.86
444.51	1097.71
444.87	1097.01
445.24	1094.20
445.60	1083.67
445.96	1077.82
446.33	1077.82
446.69	1073.37
447.06	1066.82
447.42	1071.97
447.79	1074.31
448.15	1069.16
448.51	1073.14
448.88	1071.50
449.24	1066.82
449.61	1060.03
449.97	1053.71
450.33	1055.82
450.70	1060.73
451.06	1067.52
451.43	1072.90
451.79	1077.35
452.15	1078.99
452.52	1082.03
452.88	1075.71
453.24	1065.65
453.61	1062.84
453.97	1062.60
454.34	1065.88
454.70	1062.14
455.06	1066.82
455.43	1073.37
455.79	1067.05
456.15	1063.31
456.52	1073.84
456.88	1086.94
457.24	1092.09
457.61	1089.75
457.97	1085.77
458.33	1079.46
458.70	1072.67
459.06	1071.26
459.42	1079.92
459.79	1089.99
460.15	1089.05
460.51	1088.58
460.88	1092.80
461.24	1082.26
461.60	1075.71
461.96	1077.35
462.33	1078.05
462.69	1069.62
463.05	1087.18
463.42	1087.65
463.78	1086.71
464.14	1077.11
464.50	1079.92
464.87	1063.77
465.23	1065.88
465.59	1065.88
465.95	1078.28
466.32	1074.77
466.68	1077.11
467.04	1070.33
467.40	1069.39
467.77	1068.69
468.13	1073.14
468.49	1075.71
468.85	1079.69
469.22	1084.14
469.58	1088.12
469.94	1086.01
470.30	1087.18
470.66	1093.97
471.03	1085.54
471.39	1082.50
471.75	1066.82
472.11	1066.82
472.47	1062.60
472.84	1064.94
473.20	1060.50
473.56	1069.16
473.92	1063.07
474.28	1057.69
474.65	1056.75
475.01	1055.82
475.37	1063.31
475.73	1068.22
476.09	1078.75
476.45	1087.88
476.81	1085.31
477.18	1081.80
477.54	1080.86
477.90	1071.03
478.26	1069.86
478.62	1069.39
478.98	1084.60
479.34	1094.43
479.71	1096.31
480.07	1084.37
480.43	1090.69
480.79	1083.90
481.15	1067.75
481.51	1064.94
481.87	1069.16
482.23	1071.97
482.59	1064.01
482.96	1068.69
483.32	1071.03
483.68	1079.92
484.04	1078.05
484.40	1083.43
484.76	1085.54
485.12	1081.33
485.48	1077.35
485.84	1077.35
486.20	1077.11
486.56	1082.50
486.92	1093.03
487.28	1097.95
487.64	1085.31
488.00	1082.26
488.37	1075.71
488.73	1065.18
489.09	1059.33
489.45	1067.52
489.81	1060.96
490.17	1064.94
490.53	1061.90
490.89	1053.94
491.25	1063.54
491.61	1077.82
491.97	1076.88
492.33	1086.48
492.69	1094.67
493.05	1090.69
493.41	1082.73
493.77	1091.16
494.13	1096.07
494.49	1100.99
494.85	1101.22
495.21	1097.95
495.57	1081.80
495.93	1072.90
496.29	1072.43
496.64	1067.05
497.00	1068.92
497.36	1078.28
497.72	1081.09
498.08	1075.48
498.44	1090.22
498.80	1091.63
499.16	1089.05
499.52	1089.75
499.88	1097.01
500.24	1070.09
500.60	1076.88
500.96	1077.82
501.32	1069.16
501.68	1060.26
502.03	1074.31
502.39	1069.39
502.75	1063.31
503.11	1071.03
503.47	1080.63
503.83	1073.60
504.19	1074.07
504.55	1073.14
504.91	1075.94
505.26	1062.60
505.62	1070.33
505.98	1071.73
506.34	1078.52
506.70	1075.48
507.06	1078.75
507.42	1082.03
507.78	1080.39
508.13	1082.03
508.49	1094.43
508.85	1100.05
509.21	1089.29
509.57	1090.46
509.93	1086.48
510.28	1074.07
510.64	1075.48
511.00	1093.03
511.36	1095.60
511.72	1100.05
512.07	1108.71
512.43	1108.71
512.79	1100.05
513.15	1093.26
513.51	1097.01
513.86	1100.99
514.22	1100.99
514.58	1093.26
514.94	1101.69
515.30	1091.39
515.65	1082.97
516.01	1077.11
516.37	1078.52
516.73	1068.69
517.08	1070.80
517.44	1081.80
517.80	1080.86
518.16	1089.99
518.51	1096.07
518.87	1093.97
519.23	1083.43
519.59	1091.16
519.94	1088.12
520.30	1078.99
520.66	1081.56
521.01	1079.46
521.37	1079.92
521.73	1077.58
522.09	1080.16
522.44	1086.94
522.80	1085.31
523.16	1088.12
523.51	1078.99
523.87	1082.97
524.23	1080.63
524.58	1087.41
524.94	1086.01
525.30	1099.58
525.65	1097.01
526.01	1093.26
526.37	1084.60
526.72	1088.12
527.08	1080.86
527.44	1083.43
527.79	1087.41
528.15	1092.56
528.51	1084.14
528.86	1077.11
529.22	1085.07
529.58	1083.90
529.93	1080.63
530.29	1080.86
530.65	1095.14
531.00	1088.58
531.36	1091.16
531.71	1097.71
532.07	1098.88
532.43	1100.52
532.78	1097.01
533.14	1088.12
533.49	1082.50
533.85	1084.14
534.21	1080.86
534.56	1082.97
534.92	1080.86
535.27	1075.94
535.63	1071.73
535.98	1071.50
536.34	1078.99
536.69	1091.63
537.05	1091.86
537.41	1094.67
537.76	1089.99
538.12	1086.48
538.47	1091.39
538.83	1096.78
539.18	1093.97
539.54	1104.73
539.89	1097.01
540.25	1088.12
540.60	1085.31
540.96	1084.37
541.31	1073.14
541.67	1081.33
542.02	1085.31
542.38	1091.39
542.73	1100.29
543.09	1101.22
543.44	1095.60
543.80	1096.31
544.15	1098.41
544.51	1084.60
544.86	1080.63
545.22	1081.56
545.57	1073.37
545.93	1069.39
546.28	1086.71
546.64	1092.33
546.99	1083.43
547.35	1080.16
547.70	1080.39
548.05	1073.84
548.41	1076.41
548.76	1089.99
549.12	1088.58
549.47	1093.26
549.83	1083.67
550.18	1080.39
550.53	1072.90
550.89	1079.46
551.24	1079.22
551.60	1085.77
551.95	1086.94
552.30	1089.29
552.66	1093.97
553.01	1089.52
553.37	1086.48
553.72	1079.92
554.07	1082.73
554.43	1084.37
554.78	1086.01
555.13	1093.03
555.49	1104.50
555.84	1097.01
556.19	1083.67
556.55	1079.22
556.90	1073.60
557.26	1076.65
557.61	1075.01
557.96	1077.35
558.32	1082.97
558.67	1087.41
559.02	1074.07
559.37	1074.07
559.73	1075.24
560.08	1065.18
560.43	1058.86
560.79	1061.90
561.14	1067.52
561.49	1067.99
561.85	1068.45
562.20	1069.62
562.55	1065.41
562.90	1065.18
563.26	1071.26
563.61	1086.71
563.96	1086.01
564.32	1088.12
564.67	1091.16
565.02	1082.50
565.37	1073.37
565.73	1065.88
566.08	1075.24
566.43	1063.54
566.78	1067.28
567.14	1058.39
567.49	1071.73
567.84	1065.88
568.19	1074.07
568.54	1071.73
568.90	1074.54
569.25	1074.31
569.60	1079.69
569.95	1088.82
570.31	1084.14
570.66	1083.20
571.01	1078.52
571.36	1073.14
571.71	1059.33
572.06	1063.07
572.42	1073.37
572.77	1076.41
573.12	1079.92
573.47	1083.67
573.82	1084.60
574.18	1082.03
574.53	1086.01
574.88	1081.33
575.23	1080.39
575.58	1081.80
575.93	1072.20
576.28	1059.09
576.64	1058.86
576.99	1056.52
577.34	1060.50
577.69	1068.45
578.04	1071.26
578.39	1064.48
578.74	1075.24
579.09	1077.11
579.44	1075.94
579.80	1082.03
580.15	1081.33
580.50	1076.65
580.85	1078.28
581.20	1083.43
581.55	1078.52
581.90	1078.52
582.25	1082.50
582.60	1067.05
582.95	1063.77
583.30	1067.52
583.65	1074.54
584.00	1068.22
584.35	1073.60
584.71	1070.09
585.06	1073.14
585.41	1077.11
585.76	1077.35
586.11	1079.22
586.46	1083.90
586.81	1080.16
587.16	1074.31
587.51	1074.31
587.86	1077.58
588.21	1074.31
588.56	1073.37
588.91	1070.80
589.26	1068.22
589.61	1063.54
589.96	1059.09
590.31	1060.26
590.66	1068.45
591.01	1075.01
591.36	1074.54
591.71	1075.24
592.06	1076.88
592.41	1071.50
592.76	1074.31
593.10	1070.80
593.45	1081.80
593.80	1079.69
594.15	1080.39
594.50	1085.31
594.85	1103.33
595.20	1095.14
595.55	1095.14
595.90	1098.65
596.25	1085.07
596.60	1071.73
596.95	1071.97
597.30	1077.11
597.64	1123.69
597.99	1136.56
598.34	1134.69
598.69	1136.56
599.04	1128.61
599.39	1077.35
599.74	1070.80
600.09	1078.75
600.44	1080.86
600.78	1082.73
601.13	1083.90
601.48	1074.07
601.83	1073.14
602.18	1074.31
602.53	1073.37
602.88	1070.80
603.22	1084.37
603.57	1085.54
603.92	1079.92
604.27	1089.29
604.62	1093.26
604.97	1086.71
605.31	1083.67
605.66	1086.71
606.01	1079.92
606.36	1084.84
606.71	1092.80
607.05	1086.71
607.40	1085.07
607.75	1082.03
608.10	1083.43
608.44	1070.80
608.79	1076.41
609.14	1081.80
609.49	1078.28
609.84	1078.28
610.18	1092.33
610.53	1093.97
610.88	1082.50
611.23	1087.18
611.57	1088.58
611.92	1078.75
612.27	1079.46
612.62	1091.39
612.96	1093.50
613.31	1089.99
613.66	1100.29
614.00	1097.24
614.35	1091.39
614.70	1097.71
615.05	1085.54
615.39	1086.24
615.74	1080.63
616.09	1078.05
616.43	1074.07
616.78	1092.33
617.13	1076.65
617.47	1081.33
617.82	1083.90
618.17	1075.94
618.51	1065.18
618.86	1066.58
619.21	1078.05
619.55	1071.97
619.90	1075.24
620.25	1075.48
620.59	1080.16
620.94	1075.94
621.29	1095.37
621.63	1101.22
621.98	1091.39
622.32	1092.09
622.67	1088.12
623.02	1073.37
623.36	1071.03
623.71	1070.56
624.05	1079.22
624.40	1074.07
624.75	1073.37
625.09	1069.39
625.44	1083.20
625.78	1063.31
626.13	1065.18
626.48	1071.73
626.82	1082.97
627.17	1084.37
627.51	1086.71
627.86	1093.03
628.20	1091.86
628.55	1082.73
628.89	1085.07
629.24	1099.58
629.58	1095.14
629.93	1095.84
630.28	1096.78
630.62	1097.01
630.97	1088.12
631.31	1089.05
631.66	1086.71
632.00	1078.28
632.35	1077.35
632.69	1082.03
633.04	1082.26
633.38	1084.84
633.73	1103.80
634.07	1099.12
634.42	1089.05
634.76	1089.99
635.11	1086.71
635.45	1087.18
635.79	1085.54
636.14	1096.54
636.48	1094.67
636.83	1100.29
637.17	1085.54
637.52	1087.88
637.86	1082.73
638.21	1080.39
638.55	1067.05
638.89	1063.77
639.24	1059.33
639.58	1060.26
639.93	1064.94
640.27	1075.94
640.61	1084.84
640.96	1091.39
641.30	1090.46
641.65	1091.39
641.99	1082.97
642.33	1086.71
642.68	1086.01
643.02	1086.24
643.37	1079.69
643.71	1091.16
644.05	1088.58
644.40	1081.09
644.74	1077.11
645.08	1083.90
645.43	1074.54
645.77	1071.26
646.11	1083.67
646.46	1084.84
646.80	1074.77
647.14	1078.28
647.49	1087.41
647.83	1078.05
648.17	1084.14
648.52	1090.22
648.86	1087.88
649.20	1077.82
649.55	1078.99
649.89	1077.82
650.23	1073.37
650.57	1079.69
650.92	1078.05
651.26	1073.37
651.60	1072.67
651.95	1078.99
652.29	1083.90
652.63	1088.82
652.97	1100.99
653.32	1095.84
653.66	1092.80
654.00	1083.20
654.34	1081.56
654.69	1076.41
655.03	1078.99
655.37	1075.24
655.71	1074.07
656.05	1078.75
656.40	1080.16
656.74	1086.01
657.08	1086.94
657.42	1092.09
657.76	1089.52
658.11	1084.60
658.45	1092.80
658.79	1098.41
659.13	1098.41
659.47	1104.26
659.82	1107.07
660.16	1098.18
660.50	1097.95
660.84	1092.56
661.18	1084.37
661.52	1084.60
661.87	1091.86
662.21	1083.90
662.55	1082.03
662.89	1077.58
663.23	1067.99
663.57	1058.39
663.91	1072.20
664.25	1078.05
664.60	1081.09
664.94	1094.67
665.28	1088.58
665.62	1080.86
665.96	1077.35
666.30	1082.50
666.64	1079.22
666.98	1077.58
667.32	1071.73
667.66	1076.88
668.01	1063.54
668.35	1063.77
668.69	1072.20
669.03	1077.11
669.37	1064.24
669.71	1078.28
670.05	1079.22
670.39	1085.07
670.73	1087.88
671.07	1095.60
671.41	1094.43
671.75	1098.65
672.09	1090.92
672.43	1093.73
672.77	1103.80
673.11	1106.14
673.45	1099.35
673.79	1101.46
674.13	1096.78
674.47	1088.12
674.81	1081.56
675.15	1082.50
675.49	1079.92
675.83	1076.65
676.17	1073.14
676.51	1075.01
676.85	1082.97
677.19	1092.33
677.53	1097.24
677.87	1105.44
678.21	1107.07
678.55	1088.12
678.89	1087.88
679.23	1095.14
679.57	1099.12
679.90	1090.22
680.24	1104.03
680.58	1095.60
680.92	1090.69
681.26	1084.84
681.60	1092.09
681.94	1079.22
682.28	1087.88
682.62	1086.48
682.96	1083.90
683.29	1084.37
683.63	1088.82
683.97	1080.39
684.31	1071.73
684.65	1068.92
684.99	1073.60
685.33	1076.18
685.67	1081.33
686.00	1082.03
686.34	1085.77
686.68	1086.24
687.02	1092.80
687.36	1083.67
687.70	1081.09
688.03	1086.94
688.37	1088.58
688.71	1091.86
689.05	1102.39
689.39	1106.84
689.72	1102.63
690.06	1089.99
690.40	1084.84
690.74	1069.86
691.08	1074.07
691.41	1071.26
691.75	1069.86
692.09	1068.69
692.43	1073.84
692.76	1073.60
693.10	1072.90
693.44	1078.75
693.78	1075.24
694.11	1075.01
694.45	1084.60
694.79	1084.14
695.13	1076.88
695.46	1071.50
695.80	1078.28
696.14	1064.48
696.48	1062.84
696.81	1077.58
697.15	1081.09
697.49	1075.01
697.82	1081.33
698.16	1085.54
698.50	1074.31
698.83	1076.65
699.17	1078.99
699.51	1072.67
699.84	1072.90
700.18	1069.86
700.52	1074.07
700.85	1083.67
701.19	1088.35
701.53	1083.43
701.86	1085.54
702.20	1078.52
702.54	1063.54
702.87	1060.50
703.21	1066.82
703.55	1078.28
703.88	1078.99
704.22	1091.39
704.55	1096.31
704.89	1084.84
705.23	1074.77
705.56	1075.48
705.90	1077.82
706.23	1079.22
706.57	1087.65
706.91	1088.82
707.24	1088.12
707.58	1075.48
707.91	1070.33
708.25	1069.62
708.58	1063.54
708.92	1073.37
709.26	1071.97
709.59	1070.80
709.93	1077.35
710.26	1084.37
710.60	1060.96
710.93	1071.97
711.27	1069.86
711.60	1068.22
711.94	1065.88
712.27	1087.41
712.61	1082.97
712.94	1088.12
713.28	1073.37
713.61	1076.88
713.95	1076.41
714.28	1073.84
714.62	1069.86
714.95	1080.86
715.29	1080.39
715.62	1075.24
715.96	1079.69
716.29	1071.97
716.63	1063.77
716.96	1064.48
717.29	1058.16
717.63	1058.86
717.96	1069.86
718.30	1075.24
718.63	1074.31
718.97	1085.77
719.30	1078.52
719.63	1071.26
719.97	1068.22
720.30	1071.26
720.64	1064.71
720.97	1068.92
721.30	1073.14
721.64	1073.84
721.97	1064.48
722.31	1067.28
722.64	1067.28
722.97	1070.80
723.31	1076.18
723.64	1085.77
723.97	1084.60
724.31	1078.05
724.64	1085.07
724.98	1088.12
725.31	1087.65
725.64	1088.82
725.98	1097.95
726.31	1085.77
726.64	1084.14
726.97	1082.97
727.31	1075.48
727.64	1066.35
727.97	1074.31
728.31	1066.11
728.64	1059.09
728.97	1066.35
729.31	1077.82
729.64	1087.18
729.97	1093.73
730.30	1104.26
730.64	1100.52
730.97	1097.71
731.30	1083.43
731.63	1078.52
731.97	1072.90
732.30	1077.58
732.63	1072.90
732.96	1076.41
733.30	1082.26
733.63	1085.07
733.96	1084.14
734.29	1091.39
734.63	1087.18
734.96	1073.60
735.29	1067.75
735.62	1073.84
735.95	1073.84
736.29	1072.67
736.62	1080.86
736.95	1087.18
737.28	1077.35
737.61	1068.69
737.94	1075.94
738.28	1086.01
738.61	1082.26
738.94	1083.67
739.27	1088.82
739.60	1092.56
739.93	1086.01
740.27	1087.41
740.60	1087.18
740.93	1085.77
741.26	1078.99
741.59	1083.67
741.92	1082.03
742.25	1084.84
742.58	1077.82
742.91	1080.39
743.25	1070.80
743.58	1071.97
743.91	1068.69
744.24	1075.71
744.57	1079.22
744.90	1086.71
745.23	1078.05
745.56	1068.22
745.89	1070.80
746.22	1060.26
746.55	1063.31
746.88	1064.24
747.21	1075.71
747.54	1071.26
747.87	1078.05
748.20	1068.69
748.53	1071.97
748.87	1077.82
749.20	1079.46
749.53	1083.43
749.86	1088.35
750.19	1093.73
750.52	1081.56
750.85	1088.35
751.18	1078.05
751.51	1073.60
751.84	1077.82
752.16	1079.46
752.49	1083.20
752.82	1099.35
753.15	1104.26
753.48	1099.82
753.81	1102.16
754.14	1091.39
754.47	1081.09
754.80	1083.67
755.13	1077.11
755.46	1082.73
755.79	1085.54
756.12	1078.05
756.45	1073.60
756.78	1083.43
757.11	1082.97
757.43	1078.28
757.76	1074.77
758.09	1081.33
758.42	1063.07
758.75	1062.14
759.08	1073.84
759.41	1085.31
759.74	1082.73
760.07	1105.67
760.39	1112.46
760.72	1104.50
761.05	1102.16
761.38	1096.54
761.71	1088.12
762.04	1083.90
762.36	1088.12
762.69	1086.01
763.02	1081.56
763.35	1077.82
763.68	1071.26
764.01	1067.75
764.33	1077.35
764.66	1078.99
764.99	1080.63
765.32	1081.56
765.65	1077.35
765.97	1069.86
766.30	1078.05
