SpectraSuite Data File
++++++++++++++++++++++++++++++++++++
Date: Mon Aug 26 10:25:48 PDT 2019
User: corrico
Dark Spectrum Present: No
Reference Spectrum Present: No
Number of Sampled Component Spectra: 1
Spectrometers: USB2+H06089
Integration Time (usec): 10000 (USB2+H06089)
Spectra Averaged: 2 (USB2+H06089)
Boxcar Smoothing: 2 (USB2+H06089)
Correct for Electrical Dark: No (USB2+H06089)
Strobe/Lamp Enabled: No (USB2+H06089)
Correct for Detector Non-linearity: No (USB2+H06089)
Correct for Stray Light: No (USB2+H06089)
Number of Pixels in Processed Spectrum: 2048
>>>>>Begin Processed Spectral Data<<<<<
339.70	1038.03
340.07	1038.03
340.45	1002.69
340.82	978.34
341.19	957.51
341.57	926.15
341.94	910.47
342.31	904.62
342.69	904.15
343.06	903.21
343.43	906.49
343.81	899.47
344.18	901.81
344.55	904.15
344.93	900.87
345.30	911.17
345.67	925.21
346.04	934.11
346.42	946.28
346.79	950.02
347.16	944.64
347.54	955.17
347.91	969.22
348.28	975.77
348.65	989.81
349.03	1002.92
349.40	1010.88
349.77	1012.75
350.14	1022.58
350.52	1032.88
350.89	1043.88
351.26	1046.69
351.63	1055.35
352.01	1043.88
352.38	1051.84
352.75	1052.07
353.12	1057.45
353.50	1059.56
353.87	1067.28
354.24	1060.73
354.61	1073.37
354.98	1064.94
355.36	1060.73
355.73	1065.65
356.10	1067.28
356.47	1062.60
356.84	1068.69
357.22	1074.77
357.59	1079.69
357.96	1081.33
358.33	1071.50
358.70	1062.84
359.08	1064.48
359.45	1059.33
359.82	1053.01
360.19	1059.33
360.56	1059.33
360.94	1057.92
361.31	1054.65
361.68	1063.54
362.05	1058.16
362.42	1061.20
362.79	1056.28
363.16	1060.03
363.54	1055.58
363.91	1060.73
364.28	1060.73
364.65	1053.71
365.02	1052.77
365.39	1050.90
365.76	1046.69
366.14	1047.16
366.51	1049.50
366.88	1049.96
367.25	1049.26
367.62	1058.39
367.99	1056.52
368.36	1073.84
368.73	1084.14
369.10	1087.88
369.48	1085.77
369.85	1091.39
370.22	1075.94
370.59	1055.58
370.96	1056.05
371.33	1049.73
371.70	1048.79
372.07	1057.22
372.44	1063.07
372.81	1064.94
373.18	1068.45
373.55	1077.11
373.93	1090.22
374.30	1089.75
374.67	1093.73
375.04	1100.99
375.41	1091.39
375.78	1071.73
376.15	1082.03
376.52	1069.39
376.89	1057.69
377.26	1057.69
377.63	1062.37
378.00	1052.54
378.37	1065.18
378.74	1070.33
379.11	1079.22
379.48	1081.09
379.85	1081.33
380.22	1066.82
380.59	1067.28
380.96	1067.05
381.33	1056.05
381.70	1062.14
382.07	1073.37
382.44	1078.05
382.81	1074.31
383.18	1074.31
383.55	1075.94
383.92	1075.48
384.29	1067.99
384.66	1068.92
385.03	1078.28
385.40	1086.48
385.77	1090.69
386.14	1093.50
386.51	1099.82
386.88	1085.07
387.25	1078.05
387.62	1074.77
387.99	1077.58
388.36	1064.01
388.73	1079.46
389.10	1075.01
389.46	1066.11
389.83	1063.31
390.20	1071.73
390.57	1061.90
390.94	1059.79
391.31	1066.58
391.68	1067.28
392.05	1069.62
392.42	1086.71
392.79	1093.73
393.16	1097.24
393.53	1092.09
393.89	1085.07
394.26	1079.46
394.63	1077.82
395.00	1076.18
395.37	1074.07
395.74	1078.05
396.11	1079.46
396.48	1085.54
396.84	1085.07
397.21	1091.63
397.58	1096.07
397.95	1093.97
398.32	1083.67
398.69	1081.80
399.06	1088.58
399.42	1072.67
399.79	1072.20
400.16	1079.46
400.53	1084.37
400.90	1080.39
401.27	1086.48
401.64	1085.31
402.00	1079.92
402.37	1070.56
402.74	1066.82
403.11	1066.82
403.48	1063.07
403.84	1064.48
404.21	1065.41
404.58	1062.84
404.95	1059.56
405.32	1055.58
405.68	1060.26
406.05	1062.37
406.42	1069.16
406.79	1075.48
407.16	1082.73
407.52	1071.50
407.89	1069.86
408.26	1068.92
408.63	1067.75
408.99	1062.14
409.36	1071.26
409.73	1071.26
410.10	1067.99
410.47	1068.22
410.83	1079.69
411.20	1069.39
411.57	1075.94
411.94	1076.88
412.30	1079.69
412.67	1077.11
413.04	1089.05
413.40	1087.88
413.77	1086.48
414.14	1089.75
414.51	1089.29
414.87	1082.97
415.24	1079.92
415.61	1084.60
415.97	1078.52
416.34	1075.48
416.71	1078.75
417.08	1068.69
417.44	1060.73
417.81	1061.43
418.18	1060.26
418.54	1057.45
418.91	1065.65
419.28	1069.16
419.64	1081.80
420.01	1084.84
420.38	1076.88
420.74	1083.67
421.11	1077.82
421.48	1057.45
421.84	1051.60
422.21	1052.30
422.58	1048.09
422.94	1057.22
423.31	1061.20
423.68	1060.03
424.04	1075.48
424.41	1079.22
424.77	1079.92
425.14	1089.05
425.51	1109.18
425.87	1104.26
426.24	1089.52
426.61	1088.58
426.97	1083.20
427.34	1064.71
427.70	1057.69
428.07	1077.35
428.44	1078.75
428.80	1086.24
429.17	1090.92
429.53	1101.46
429.90	1093.03
430.27	1090.46
430.63	1079.46
431.00	1090.46
431.36	1090.69
431.73	1093.97
432.09	1092.80
432.46	1095.60
432.83	1089.52
433.19	1082.26
433.56	1073.60
433.92	1070.09
434.29	1066.11
434.65	1055.58
435.02	1060.96
435.38	1070.80
435.75	1065.18
436.11	1078.52
436.48	1078.28
436.84	1071.26
437.21	1067.05
437.57	1076.65
437.94	1071.97
438.30	1071.73
438.67	1063.77
439.03	1063.07
439.40	1056.75
439.76	1044.11
440.13	1047.16
440.49	1057.45
440.86	1054.18
441.22	1056.52
441.59	1074.31
441.95	1077.58
442.32	1072.67
442.68	1078.52
443.05	1079.22
443.41	1067.05
443.78	1065.65
444.14	1074.07
444.51	1071.97
444.87	1075.94
445.24	1082.50
445.60	1085.07
445.96	1091.16
446.33	1093.73
446.69	1100.05
447.06	1104.26
447.42	1103.09
447.79	1099.58
448.15	1092.80
448.51	1096.54
448.88	1082.73
449.24	1076.41
449.61	1074.77
449.97	1082.03
450.33	1069.62
450.70	1071.03
451.06	1076.18
451.43	1071.73
451.79	1068.69
452.15	1069.62
452.52	1070.80
452.88	1063.77
453.24	1056.05
453.61	1053.48
453.97	1060.73
454.34	1071.73
454.70	1074.07
455.06	1091.16
455.43	1088.58
455.79	1083.90
456.15	1077.11
456.52	1085.77
456.88	1073.60
457.24	1078.05
457.61	1077.58
457.97	1086.24
458.33	1075.24
458.70	1077.58
459.06	1075.01
459.42	1071.26
459.79	1067.75
460.15	1078.05
460.51	1077.35
460.88	1080.16
461.24	1078.28
461.60	1069.86
461.96	1063.54
462.33	1060.50
462.69	1058.86
463.05	1064.94
463.42	1067.99
463.78	1071.50
464.14	1073.60
464.50	1077.82
464.87	1075.71
465.23	1074.54
465.59	1085.77
465.95	1092.09
466.32	1095.14
466.68	1096.31
467.04	1102.39
467.40	1082.26
467.77	1077.58
468.13	1075.01
468.49	1081.80
468.85	1077.82
469.22	1092.09
469.58	1089.05
469.94	1098.41
470.30	1088.82
470.66	1089.05
471.03	1087.88
471.39	1095.37
471.75	1079.22
472.11	1073.60
472.47	1064.48
472.84	1063.07
473.20	1057.45
473.56	1065.88
473.92	1073.14
474.28	1086.48
474.65	1080.39
475.01	1084.14
475.37	1084.60
475.73	1085.07
476.09	1077.58
476.45	1073.37
476.81	1076.18
477.18	1068.92
477.54	1072.90
477.90	1074.77
478.26	1084.60
478.62	1084.37
478.98	1085.31
479.34	1080.63
479.71	1081.33
480.07	1082.97
480.43	1073.60
480.79	1076.65
481.15	1076.41
481.51	1073.37
481.87	1078.05
482.23	1069.39
482.59	1081.80
482.96	1087.65
483.32	1084.84
483.68	1076.65
484.04	1083.90
484.40	1069.62
484.76	1057.22
485.12	1053.94
485.48	1054.65
485.84	1055.11
486.20	1042.71
486.56	1042.94
486.92	1049.50
487.28	1055.11
487.64	1062.60
488.00	1074.54
488.37	1085.31
488.73	1085.77
489.09	1074.31
489.45	1079.92
489.81	1069.62
490.17	1060.03
490.53	1060.26
490.89	1070.80
491.25	1070.09
491.61	1078.05
491.97	1093.97
492.33	1099.12
492.69	1090.69
493.05	1087.65
493.41	1097.95
493.77	1086.48
494.13	1085.77
494.49	1086.48
494.85	1086.94
495.21	1074.54
495.57	1081.80
495.93	1073.84
496.29	1077.82
496.64	1071.26
497.00	1074.77
497.36	1073.37
497.72	1081.33
498.08	1082.50
498.44	1083.20
498.80	1088.35
499.16	1090.46
499.52	1091.39
499.88	1089.99
500.24	1089.52
500.60	1083.20
500.96	1064.71
501.32	1067.52
501.68	1068.92
502.03	1070.80
502.39	1074.07
502.75	1077.11
503.11	1071.26
503.47	1078.52
503.83	1071.03
504.19	1070.56
504.55	1082.97
504.91	1080.86
505.26	1067.28
505.62	1078.75
505.98	1080.39
506.34	1082.26
506.70	1077.35
507.06	1077.35
507.42	1070.09
507.78	1064.94
508.13	1069.62
508.49	1069.16
508.85	1073.37
509.21	1070.80
509.57	1076.41
509.93	1075.01
510.28	1092.33
510.64	1098.41
511.00	1102.86
511.36	1102.16
511.72	1101.22
512.07	1093.73
512.43	1100.52
512.79	1098.41
513.15	1099.58
513.51	1098.18
513.86	1101.22
514.22	1080.86
514.58	1085.07
514.94	1087.18
515.30	1079.69
515.65	1075.71
516.01	1086.48
516.37	1084.60
516.73	1085.31
517.08	1088.12
517.44	1079.69
517.80	1082.26
518.16	1093.03
518.51	1096.78
518.87	1102.39
519.23	1107.78
519.59	1104.03
519.94	1097.01
520.30	1083.67
520.66	1081.56
521.01	1082.73
521.37	1078.99
521.73	1077.11
522.09	1082.50
522.44	1084.14
522.80	1083.43
523.16	1085.77
523.51	1084.60
523.87	1088.12
524.23	1078.99
524.58	1085.77
524.94	1085.54
525.30	1084.37
525.65	1081.56
526.01	1076.18
526.37	1065.18
526.72	1060.50
527.08	1060.03
527.44	1062.37
527.79	1078.05
528.15	1092.33
528.51	1095.84
528.86	1104.26
529.22	1103.80
529.58	1102.86
529.93	1090.92
530.29	1094.20
530.65	1091.16
531.00	1090.69
531.36	1092.56
531.71	1106.37
532.07	1106.61
532.43	1095.14
532.78	1089.99
533.14	1085.31
533.49	1074.77
533.85	1076.41
534.21	1084.37
534.56	1087.18
534.92	1082.50
535.27	1085.54
535.63	1081.80
535.98	1077.58
536.34	1074.77
536.69	1083.67
537.05	1082.50
537.41	1078.05
537.76	1082.97
538.12	1088.82
538.47	1083.43
538.83	1093.97
539.18	1095.14
539.54	1088.35
539.89	1083.67
540.25	1086.94
540.60	1070.80
540.96	1072.67
541.31	1069.62
541.67	1068.22
542.02	1066.82
542.38	1070.09
542.73	1071.97
543.09	1075.01
543.44	1080.86
543.80	1073.60
544.15	1072.90
544.51	1066.58
544.86	1073.60
545.22	1063.54
545.57	1074.07
545.93	1072.67
546.28	1073.84
546.64	1074.77
546.99	1091.63
547.35	1083.67
547.70	1086.48
548.05	1094.90
548.41	1100.05
548.76	1090.22
549.12	1091.63
549.47	1088.35
549.83	1085.07
550.18	1077.35
550.53	1077.11
550.89	1079.46
551.24	1082.50
551.60	1086.48
551.95	1088.35
552.30	1087.18
552.66	1071.97
553.01	1086.71
553.37	1082.26
553.72	1086.24
554.07	1088.35
554.43	1100.99
554.78	1086.71
555.13	1088.35
555.49	1084.37
555.84	1080.16
556.19	1086.01
556.55	1080.16
556.90	1076.65
557.26	1070.80
557.61	1073.14
557.96	1067.05
558.32	1073.84
558.67	1075.71
559.02	1088.82
559.37	1081.33
559.73	1075.01
560.08	1075.94
560.43	1067.28
560.79	1052.30
561.14	1063.77
561.49	1082.97
561.85	1080.39
562.20	1091.16
562.55	1099.12
562.90	1091.63
563.26	1088.82
563.61	1094.20
563.96	1098.41
564.32	1103.80
564.67	1109.41
565.02	1098.65
565.37	1084.60
565.73	1073.14
566.08	1062.14
566.43	1056.52
566.78	1058.62
567.14	1070.80
567.49	1072.67
567.84	1076.88
568.19	1076.65
568.54	1079.46
568.90	1066.35
569.25	1067.75
569.60	1055.82
569.95	1061.90
570.31	1056.99
570.66	1069.62
571.01	1066.35
571.36	1078.75
571.71	1074.31
572.06	1081.33
572.42	1087.65
572.77	1098.18
573.12	1097.48
573.47	1101.22
573.82	1093.97
574.18	1078.75
574.53	1074.77
574.88	1076.41
575.23	1083.43
575.58	1083.20
575.93	1096.31
576.28	1097.95
576.64	1092.80
576.99	1089.75
577.34	1087.88
577.69	1082.50
578.04	1074.54
578.39	1078.75
578.74	1076.88
579.09	1088.12
579.44	1083.90
579.80	1088.35
580.15	1082.26
580.50	1068.92
580.85	1063.31
581.20	1066.11
581.55	1060.26
581.90	1060.26
582.25	1070.80
582.60	1079.22
582.95	1082.26
583.30	1082.26
583.65	1088.82
584.00	1086.01
584.35	1082.73
584.71	1073.37
585.06	1079.92
585.41	1080.39
585.76	1092.56
586.11	1089.05
586.46	1089.52
586.81	1089.29
587.16	1089.75
587.51	1074.31
587.86	1071.03
588.21	1074.07
588.56	1069.86
588.91	1066.11
589.26	1063.54
589.61	1066.11
589.96	1074.77
590.31	1083.20
590.66	1087.65
591.01	1091.86
591.36	1082.73
591.71	1080.63
592.06	1075.01
592.41	1068.92
592.76	1075.94
593.10	1076.88
593.45	1078.05
593.80	1081.56
594.15	1089.05
594.50	1079.46
594.85	1085.31
595.20	1079.69
595.55	1076.41
595.90	1076.88
596.25	1086.24
596.60	1089.99
596.95	1092.33
597.30	1094.20
597.64	1139.61
597.99	1135.86
598.34	1130.48
598.69	1120.18
599.04	1121.12
599.39	1076.41
599.74	1074.77
600.09	1072.90
600.44	1078.28
600.78	1081.80
601.13	1074.77
601.48	1078.75
601.83	1087.41
602.18	1093.73
602.53	1089.75
602.88	1086.01
603.22	1086.71
603.57	1079.46
603.92	1078.05
604.27	1082.97
604.62	1088.12
604.97	1088.35
605.31	1094.67
605.66	1093.26
606.01	1077.11
606.36	1075.48
606.71	1070.80
607.05	1065.65
607.40	1062.60
607.75	1077.11
608.10	1089.05
608.44	1096.54
608.79	1099.12
609.14	1109.65
609.49	1116.44
609.84	1113.16
610.18	1115.27
610.53	1119.01
610.88	1114.33
611.23	1100.05
611.57	1100.05
611.92	1093.97
612.27	1088.35
612.62	1086.94
612.96	1087.18
613.31	1074.54
613.66	1079.46
614.00	1076.65
614.35	1084.84
614.70	1090.22
615.05	1093.50
615.39	1087.41
615.74	1101.92
616.09	1097.48
616.43	1085.07
616.78	1089.05
617.13	1078.99
617.47	1070.56
617.82	1065.18
618.17	1082.50
618.51	1081.80
618.86	1088.35
619.21	1080.16
619.55	1071.50
619.90	1069.16
620.25	1064.48
620.59	1067.75
620.94	1073.84
621.29	1086.01
621.63	1090.92
621.98	1089.75
622.32	1085.54
622.67	1085.54
623.02	1086.71
623.36	1073.37
623.71	1077.35
624.05	1076.18
624.40	1074.07
624.75	1071.26
625.09	1078.28
625.44	1079.22
625.78	1085.77
626.13	1091.63
626.48	1091.63
626.82	1092.09
627.17	1086.71
627.51	1082.97
627.86	1082.03
628.20	1087.18
628.55	1089.75
628.89	1093.73
629.24	1100.52
629.58	1097.01
629.93	1092.56
630.28	1083.20
630.62	1086.94
630.97	1085.07
631.31	1089.75
631.66	1092.33
632.00	1097.01
632.35	1096.07
632.69	1098.41
633.04	1093.50
633.38	1089.05
633.73	1094.43
634.07	1105.44
634.42	1108.24
634.76	1108.71
635.11	1105.44
635.45	1096.78
635.79	1084.84
636.14	1090.22
636.48	1084.14
636.83	1082.97
637.17	1080.39
637.52	1079.92
637.86	1067.52
638.21	1078.28
638.55	1080.39
638.89	1071.03
639.24	1075.48
639.58	1081.80
639.93	1080.16
640.27	1075.01
640.61	1082.97
640.96	1077.58
641.30	1079.46
641.65	1073.14
641.99	1072.67
642.33	1075.48
642.68	1078.05
643.02	1074.07
643.37	1082.73
643.71	1086.94
644.05	1083.43
644.40	1087.65
644.74	1093.97
645.08	1097.24
645.43	1099.12
645.77	1102.86
646.11	1108.48
646.46	1103.80
646.80	1087.41
647.14	1085.77
647.49	1082.50
647.83	1071.03
648.17	1070.56
648.52	1075.24
648.86	1083.43
649.20	1094.20
649.55	1101.92
649.89	1093.03
650.23	1093.26
650.57	1086.48
650.92	1088.58
651.26	1089.75
651.60	1084.37
651.95	1081.09
652.29	1087.65
652.63	1076.18
652.97	1065.41
653.32	1071.50
653.66	1069.86
654.00	1068.69
654.34	1066.11
654.69	1066.35
655.03	1065.65
655.37	1072.90
655.71	1060.73
656.05	1067.99
656.40	1070.33
656.74	1073.37
657.08	1076.18
657.42	1083.20
657.76	1088.35
658.11	1093.73
658.45	1093.97
658.79	1084.84
659.13	1078.05
659.47	1060.50
659.82	1056.99
660.16	1060.73
660.50	1063.77
660.84	1075.01
661.18	1085.54
661.52	1078.05
661.87	1084.14
662.21	1086.71
662.55	1085.54
662.89	1083.20
663.23	1086.24
663.57	1076.88
663.91	1075.01
664.25	1072.90
664.60	1075.94
664.94	1080.86
665.28	1080.39
665.62	1078.05
665.96	1081.33
666.30	1079.69
666.64	1073.14
666.98	1070.56
667.32	1078.52
667.66	1078.52
668.01	1079.92
668.35	1082.97
668.69	1085.31
669.03	1082.97
669.37	1065.18
669.71	1060.73
670.05	1064.24
670.39	1060.50
670.73	1054.88
671.07	1074.54
671.41	1086.24
671.75	1086.01
672.09	1090.22
672.43	1097.71
672.77	1085.31
673.11	1075.24
673.45	1070.80
673.79	1069.16
674.13	1066.11
674.47	1071.97
674.81	1074.07
675.15	1082.26
675.49	1087.88
675.83	1088.12
676.17	1095.60
676.51	1097.95
676.85	1093.50
677.19	1089.52
677.53	1085.07
677.87	1084.60
678.21	1087.18
678.55	1085.07
678.89	1080.16
679.23	1089.29
679.57	1086.01
679.90	1088.82
680.24	1096.07
680.58	1094.90
680.92	1093.26
681.26	1087.18
681.60	1081.33
681.94	1072.67
682.28	1076.18
682.62	1075.71
682.96	1082.97
683.29	1084.37
683.63	1084.84
683.97	1088.58
684.31	1087.65
684.65	1088.35
684.99	1090.92
685.33	1090.46
685.67	1093.03
686.00	1099.12
686.34	1092.56
686.68	1085.77
687.02	1085.77
687.36	1075.48
687.70	1067.99
688.03	1067.52
688.37	1062.14
688.71	1061.67
689.05	1072.67
689.39	1070.09
689.72	1081.80
690.06	1091.63
690.40	1089.99
690.74	1087.18
691.08	1093.26
691.41	1082.26
691.75	1077.58
692.09	1076.88
692.43	1082.26
692.76	1076.18
693.10	1081.80
693.44	1090.46
693.78	1097.48
694.11	1089.29
694.45	1085.77
694.79	1074.31
695.13	1069.39
695.46	1066.35
695.80	1063.77
696.14	1067.99
696.48	1079.69
696.81	1079.46
697.15	1081.33
697.49	1087.88
697.82	1086.71
698.16	1082.50
698.50	1082.03
698.83	1080.63
699.17	1078.52
699.51	1078.05
699.84	1082.26
700.18	1094.43
700.52	1092.33
700.85	1097.71
701.19	1107.07
701.53	1105.67
701.86	1084.84
702.20	1093.26
702.54	1087.18
702.87	1076.41
703.21	1076.65
703.55	1079.22
703.88	1072.20
704.22	1077.35
704.55	1079.92
704.89	1074.77
705.23	1078.99
705.56	1078.99
705.90	1072.20
706.23	1067.75
706.57	1069.62
706.91	1076.88
707.24	1082.73
707.58	1080.39
707.91	1093.03
708.25	1094.20
708.58	1089.05
708.92	1082.26
709.26	1087.88
709.59	1081.56
709.93	1080.16
710.26	1088.58
710.60	1076.88
710.93	1083.67
711.27	1082.73
711.60	1089.52
711.94	1075.24
712.27	1093.26
712.61	1090.69
712.94	1090.46
713.28	1089.99
713.61	1087.18
713.95	1081.80
714.28	1076.65
714.62	1077.11
714.95	1066.58
715.29	1073.60
715.62	1076.65
715.96	1072.43
716.29	1076.88
716.63	1082.97
716.96	1082.73
717.29	1082.50
717.63	1091.16
717.96	1082.03
718.30	1083.43
718.63	1086.94
718.97	1070.80
719.30	1070.09
719.63	1074.07
719.97	1066.58
720.30	1078.75
720.64	1091.16
720.97	1088.82
721.30	1090.69
721.64	1087.88
721.97	1067.28
722.31	1070.80
722.64	1069.16
722.97	1071.97
723.31	1082.03
723.64	1080.39
723.97	1079.92
724.31	1087.41
724.64	1085.77
724.98	1077.35
725.31	1088.35
725.64	1086.01
725.98	1081.09
726.31	1075.48
726.64	1077.58
726.97	1072.90
727.31	1064.48
727.64	1062.84
727.97	1066.35
728.31	1074.31
728.64	1079.46
728.97	1093.26
729.31	1088.58
729.64	1089.75
729.97	1087.88
730.30	1084.14
730.64	1082.26
730.97	1083.20
731.30	1087.88
731.63	1086.94
731.97	1089.99
732.30	1077.58
732.63	1082.97
732.96	1074.31
733.30	1068.45
733.63	1057.69
733.96	1064.48
734.29	1060.50
734.63	1060.73
734.96	1064.94
735.29	1069.16
735.62	1063.54
735.95	1053.01
736.29	1056.52
736.62	1057.92
736.95	1059.79
737.28	1065.18
737.61	1076.88
737.94	1076.65
738.28	1077.82
738.61	1082.50
738.94	1086.48
739.27	1085.31
739.60	1078.05
739.93	1070.56
740.27	1073.14
740.60	1070.56
740.93	1074.07
741.26	1078.99
741.59	1081.80
741.92	1071.50
742.25	1069.16
742.58	1065.41
742.91	1066.58
743.25	1082.03
743.58	1081.09
743.91	1081.80
744.24	1084.60
744.57	1081.09
744.90	1070.09
745.23	1071.97
745.56	1075.01
745.89	1076.65
746.22	1087.18
746.55	1084.60
746.88	1088.82
747.21	1090.69
747.54	1086.24
747.87	1076.18
748.20	1068.45
748.53	1066.82
748.87	1064.48
749.20	1064.24
749.53	1064.01
749.86	1080.16
750.19	1085.31
750.52	1086.48
750.85	1087.41
751.18	1088.82
751.51	1072.20
751.84	1066.35
752.16	1066.11
752.49	1074.54
752.82	1074.07
753.15	1084.60
753.48	1093.50
753.81	1098.88
754.14	1090.92
754.47	1086.48
754.80	1084.37
755.13	1074.54
755.46	1068.22
755.79	1073.84
756.12	1084.14
756.45	1082.50
756.78	1082.26
757.11	1086.94
757.43	1090.69
757.76	1089.75
758.09	1096.31
758.42	1095.84
758.75	1097.95
759.08	1088.35
759.41	1087.88
759.74	1086.94
760.07	1090.69
760.39	1093.50
760.72	1097.95
761.05	1094.20
761.38	1094.43
761.71	1099.58
762.04	1092.09
762.36	1089.05
762.69	1089.29
763.02	1088.12
763.35	1086.24
763.68	1083.20
764.01	1082.26
764.33	1081.09
764.66	1086.01
764.99	1088.12
765.32	1088.82
765.65	1086.71
765.97	1087.88
766.30	1075.01
