SpectraSuite Data File
++++++++++++++++++++++++++++++++++++
Date: Mon Aug 26 10:25:53 PDT 2019
User: corrico
Dark Spectrum Present: No
Reference Spectrum Present: No
Number of Sampled Component Spectra: 1
Spectrometers: USB2+H06089
Integration Time (usec): 10000 (USB2+H06089)
Spectra Averaged: 2 (USB2+H06089)
Boxcar Smoothing: 2 (USB2+H06089)
Correct for Electrical Dark: No (USB2+H06089)
Strobe/Lamp Enabled: No (USB2+H06089)
Correct for Detector Non-linearity: No (USB2+H06089)
Correct for Stray Light: No (USB2+H06089)
Number of Pixels in Processed Spectrum: 2048
>>>>>Begin Processed Spectral Data<<<<<
339.70	1033.35
340.07	1033.35
340.45	987.94
340.82	964.77
341.19	945.34
341.57	920.06
341.94	914.92
342.31	902.98
342.69	898.77
343.06	891.28
343.43	884.02
343.81	896.66
344.18	904.62
344.55	901.11
344.93	908.83
345.30	923.11
345.67	918.19
346.04	922.64
346.42	939.96
346.79	950.02
347.16	957.75
347.54	972.26
347.91	986.77
348.28	995.20
348.65	996.60
349.03	1013.92
349.40	1015.79
349.77	1024.92
350.14	1023.98
350.52	1034.28
350.89	1036.86
351.26	1044.82
351.63	1042.24
352.01	1053.71
352.38	1060.26
352.75	1049.50
353.12	1048.09
353.50	1053.48
353.87	1059.33
354.24	1059.09
354.61	1069.39
354.98	1064.94
355.36	1059.79
355.73	1056.05
356.10	1057.22
356.47	1054.88
356.84	1067.28
357.22	1075.94
357.59	1077.58
357.96	1070.09
358.33	1078.52
358.70	1075.94
359.08	1075.24
359.45	1071.50
359.82	1088.58
360.19	1082.97
360.56	1090.22
360.94	1088.35
361.31	1081.33
361.68	1069.16
362.05	1071.26
362.42	1067.99
362.79	1073.84
363.16	1082.03
363.54	1078.99
363.91	1087.88
364.28	1074.07
364.65	1065.41
365.02	1071.73
365.39	1078.05
365.76	1069.16
366.14	1075.48
366.51	1075.48
366.88	1072.20
367.25	1067.28
367.62	1063.54
367.99	1077.35
368.36	1071.03
368.73	1068.22
369.10	1059.56
369.48	1063.54
369.85	1045.52
370.22	1058.62
370.59	1053.94
370.96	1052.07
371.33	1045.99
371.70	1050.43
372.07	1045.52
372.44	1045.99
372.81	1058.16
373.18	1061.67
373.55	1069.16
373.93	1063.77
374.30	1067.75
374.67	1061.20
375.04	1055.58
375.41	1045.28
375.78	1060.73
376.15	1055.11
376.52	1058.62
376.89	1065.18
377.26	1074.07
377.63	1064.94
378.00	1073.14
378.37	1071.26
378.74	1072.20
379.11	1071.26
379.48	1071.50
379.85	1067.75
380.22	1069.86
380.59	1064.71
380.96	1059.79
381.33	1063.77
381.70	1069.39
382.07	1076.41
382.44	1080.63
382.81	1085.07
383.18	1082.73
383.55	1077.82
383.92	1072.67
384.29	1060.73
384.66	1059.79
385.03	1060.96
385.40	1065.65
385.77	1066.35
386.14	1083.90
386.51	1087.41
386.88	1077.82
387.25	1081.33
387.62	1080.39
387.99	1076.88
388.36	1071.97
388.73	1081.33
389.10	1077.82
389.46	1075.24
389.83	1062.37
390.20	1072.90
390.57	1066.35
390.94	1055.35
391.31	1061.90
391.68	1073.37
392.05	1068.45
392.42	1071.03
392.79	1076.41
393.16	1079.69
393.53	1077.58
393.89	1078.28
394.26	1078.28
394.63	1078.52
395.00	1073.84
395.37	1073.14
395.74	1069.39
396.11	1066.11
396.48	1064.94
396.84	1060.50
397.21	1062.37
397.58	1073.60
397.95	1081.80
398.32	1083.20
398.69	1082.26
399.06	1072.20
399.42	1067.52
399.79	1063.07
400.16	1061.20
400.53	1064.71
400.90	1069.16
401.27	1060.26
401.64	1060.50
402.00	1063.31
402.37	1061.67
402.74	1054.65
403.11	1052.07
403.48	1052.77
403.84	1060.03
404.21	1062.37
404.58	1076.18
404.95	1082.03
405.32	1082.26
405.68	1073.60
406.05	1081.56
406.42	1072.43
406.79	1071.73
407.16	1076.18
407.52	1084.84
407.89	1071.97
408.26	1076.41
408.63	1081.09
408.99	1083.43
409.36	1071.73
409.73	1070.80
410.10	1080.16
410.47	1085.54
410.83	1075.01
411.20	1087.88
411.57	1094.90
411.94	1087.41
412.30	1079.92
412.67	1083.43
413.04	1080.16
413.40	1077.58
413.77	1072.90
414.14	1071.97
414.51	1070.56
414.87	1071.73
415.24	1077.11
415.61	1077.58
415.97	1074.77
416.34	1075.24
416.71	1063.54
417.08	1063.07
417.44	1073.60
417.81	1075.94
418.18	1067.05
418.54	1069.39
418.91	1073.14
419.28	1066.58
419.64	1055.82
420.01	1063.77
420.38	1068.45
420.74	1060.96
421.11	1055.82
421.48	1069.62
421.84	1062.60
422.21	1063.07
422.58	1074.31
422.94	1084.14
423.31	1075.71
423.68	1087.18
424.04	1088.35
424.41	1080.39
424.77	1076.65
425.14	1079.46
425.51	1075.48
425.87	1072.67
426.24	1073.14
426.61	1071.50
426.97	1078.75
427.34	1081.80
427.70	1091.39
428.07	1085.07
428.44	1086.01
428.80	1082.03
429.17	1073.60
429.53	1062.37
429.90	1064.94
430.27	1060.96
430.63	1064.01
431.00	1068.69
431.36	1071.26
431.73	1065.65
432.09	1071.73
432.46	1071.97
432.83	1067.52
433.19	1069.86
433.56	1076.65
433.92	1078.99
434.29	1075.71
434.65	1086.24
435.02	1089.75
435.38	1093.97
435.75	1086.48
436.11	1086.48
436.48	1088.82
436.84	1080.39
437.21	1079.92
437.57	1089.05
437.94	1088.82
438.30	1082.73
438.67	1083.43
439.03	1087.41
439.40	1080.86
439.76	1087.88
440.13	1083.20
440.49	1088.12
440.86	1084.60
441.22	1089.29
441.59	1085.07
441.95	1091.63
442.32	1094.67
442.68	1086.71
443.05	1082.26
443.41	1081.56
443.78	1080.86
444.14	1074.54
444.51	1082.50
444.87	1081.80
445.24	1066.35
445.60	1059.33
445.96	1067.75
446.33	1062.37
446.69	1064.48
447.06	1075.94
447.42	1080.86
447.79	1074.31
448.15	1074.77
448.51	1067.75
448.88	1067.99
449.24	1069.39
449.61	1068.92
449.97	1073.60
450.33	1076.41
450.70	1073.84
451.06	1077.11
451.43	1076.18
451.79	1060.73
452.15	1070.33
452.52	1079.22
452.88	1070.80
453.24	1076.18
453.61	1092.56
453.97	1085.07
454.34	1077.58
454.70	1078.05
455.06	1073.84
455.43	1069.86
455.79	1072.90
456.15	1074.31
456.52	1085.77
456.88	1091.16
457.24	1079.92
457.61	1075.01
457.97	1084.14
458.33	1077.82
458.70	1079.92
459.06	1092.80
459.42	1101.92
459.79	1101.69
460.15	1102.39
460.51	1098.88
460.88	1104.50
461.24	1102.63
461.60	1090.69
461.96	1092.56
462.33	1082.50
462.69	1078.05
463.05	1076.41
463.42	1082.50
463.78	1078.52
464.14	1073.60
464.50	1069.86
464.87	1068.92
465.23	1070.09
465.59	1071.03
465.95	1085.77
466.32	1091.16
466.68	1094.20
467.04	1102.16
467.40	1109.41
467.77	1117.37
468.13	1113.63
468.49	1101.92
468.85	1085.31
469.22	1073.37
469.58	1055.35
469.94	1048.79
470.30	1060.50
470.66	1063.31
471.03	1072.43
471.39	1085.77
471.75	1082.97
472.11	1083.43
472.47	1087.88
472.84	1086.94
473.20	1077.58
473.56	1087.88
473.92	1090.92
474.28	1084.60
474.65	1085.31
475.01	1086.71
475.37	1077.58
475.73	1071.50
476.09	1070.33
476.45	1071.26
476.81	1073.84
477.18	1076.65
477.54	1072.90
477.90	1075.71
478.26	1060.03
478.62	1061.90
478.98	1069.16
479.34	1070.56
479.71	1080.86
480.07	1095.37
480.43	1096.07
480.79	1086.48
481.15	1082.73
481.51	1078.52
481.87	1079.46
482.23	1075.48
482.59	1093.97
482.96	1092.09
483.32	1089.99
483.68	1085.77
484.04	1089.52
484.40	1072.90
484.76	1077.11
485.12	1081.33
485.48	1084.60
485.84	1084.14
486.20	1090.92
486.56	1089.75
486.92	1080.86
487.28	1084.60
487.64	1081.09
488.00	1081.80
488.37	1079.69
488.73	1081.09
489.09	1070.33
489.45	1064.94
489.81	1057.45
490.17	1060.26
490.53	1065.41
490.89	1060.50
491.25	1063.77
491.61	1069.86
491.97	1067.28
492.33	1064.01
492.69	1073.60
493.05	1081.09
493.41	1075.01
493.77	1082.50
494.13	1079.46
494.49	1080.39
494.85	1080.86
495.21	1086.01
495.57	1078.28
495.93	1081.56
496.29	1074.31
496.64	1067.05
497.00	1070.80
497.36	1075.01
497.72	1078.28
498.08	1083.20
498.44	1083.43
498.80	1078.52
499.16	1083.90
499.52	1073.84
499.88	1079.22
500.24	1076.88
500.60	1077.35
500.96	1063.31
501.32	1064.01
501.68	1056.05
502.03	1053.94
502.39	1048.09
502.75	1062.14
503.11	1068.45
503.47	1064.71
503.83	1067.99
504.19	1072.43
504.55	1064.01
504.91	1071.73
505.26	1081.80
505.62	1084.37
505.98	1079.46
506.34	1083.20
506.70	1082.50
507.06	1079.92
507.42	1083.67
507.78	1094.43
508.13	1094.43
508.49	1086.24
508.85	1094.20
509.21	1089.05
509.57	1083.67
509.93	1083.43
510.28	1086.48
510.64	1076.65
511.00	1075.71
511.36	1073.84
511.72	1072.43
512.07	1064.94
512.43	1062.37
512.79	1063.54
513.15	1071.26
513.51	1077.11
513.86	1090.22
514.22	1094.20
514.58	1088.12
514.94	1094.20
515.30	1096.78
515.65	1088.82
516.01	1086.94
516.37	1099.12
516.73	1085.77
517.08	1089.29
517.44	1093.73
517.80	1097.24
518.16	1100.99
518.51	1107.07
518.87	1103.56
519.23	1100.05
519.59	1100.52
519.94	1097.95
520.30	1088.82
520.66	1080.86
521.01	1081.56
521.37	1076.88
521.73	1074.54
522.09	1082.26
522.44	1091.63
522.80	1086.24
523.16	1091.86
523.51	1081.80
523.87	1084.14
524.23	1082.97
524.58	1090.69
524.94	1091.39
525.30	1095.60
525.65	1091.16
526.01	1081.33
526.37	1075.24
526.72	1071.26
527.08	1088.35
527.44	1101.69
527.79	1104.73
528.15	1117.84
528.51	1127.67
528.86	1120.18
529.22	1108.95
529.58	1112.22
529.93	1108.01
530.29	1095.60
530.65	1092.80
531.00	1093.03
531.36	1091.16
531.71	1098.88
532.07	1104.26
532.43	1099.35
532.78	1095.84
533.14	1094.67
533.49	1082.03
533.85	1083.67
534.21	1076.18
534.56	1067.99
534.92	1083.43
535.27	1081.09
535.63	1081.56
535.98	1089.29
536.34	1099.58
536.69	1086.94
537.05	1092.56
537.41	1082.26
537.76	1088.12
538.12	1094.67
538.47	1092.33
538.83	1089.99
539.18	1109.41
539.54	1110.35
539.89	1103.09
540.25	1105.20
540.60	1106.37
540.96	1093.03
541.31	1085.77
541.67	1087.65
542.02	1093.50
542.38	1090.46
542.73	1096.31
543.09	1098.88
543.44	1105.20
543.80	1096.31
544.15	1101.46
544.51	1096.31
544.86	1101.69
545.22	1103.80
545.57	1097.71
545.93	1092.09
546.28	1092.80
546.64	1081.33
546.99	1084.14
547.35	1096.78
547.70	1100.99
548.05	1098.88
548.41	1105.90
548.76	1093.97
549.12	1088.35
549.47	1087.65
549.83	1088.35
550.18	1089.99
550.53	1084.60
550.89	1092.33
551.24	1091.39
551.60	1101.22
551.95	1098.88
552.30	1094.20
552.66	1091.86
553.01	1091.16
553.37	1079.69
553.72	1085.07
554.07	1089.29
554.43	1082.26
554.78	1086.01
555.13	1083.43
555.49	1070.80
555.84	1076.41
556.19	1082.03
556.55	1073.37
556.90	1080.86
557.26	1088.12
557.61	1082.97
557.96	1078.99
558.32	1075.24
558.67	1067.52
559.02	1068.69
559.37	1071.73
559.73	1066.82
560.08	1070.09
560.43	1065.41
560.79	1056.05
561.14	1049.26
561.49	1062.37
561.85	1057.92
562.20	1056.28
562.55	1060.26
562.90	1067.99
563.26	1050.90
563.61	1067.28
563.96	1071.97
564.32	1071.73
564.67	1076.18
565.02	1080.86
565.37	1070.56
565.73	1082.97
566.08	1084.60
566.43	1080.86
566.78	1079.46
567.14	1082.73
567.49	1071.03
567.84	1074.77
568.19	1071.26
568.54	1073.37
568.90	1082.73
569.25	1086.48
569.60	1077.35
569.95	1074.77
570.31	1082.73
570.66	1064.24
571.01	1064.48
571.36	1063.77
571.71	1065.18
572.06	1057.92
572.42	1068.45
572.77	1061.20
573.12	1067.52
573.47	1067.75
573.82	1072.90
574.18	1070.56
574.53	1079.22
574.88	1081.80
575.23	1085.77
575.58	1084.84
575.93	1081.33
576.28	1073.60
576.64	1072.67
576.99	1073.60
577.34	1069.39
577.69	1071.50
578.04	1082.26
578.39	1078.05
578.74	1075.01
579.09	1085.54
579.44	1079.92
579.80	1079.92
580.15	1091.39
580.50	1091.16
580.85	1083.90
581.20	1083.90
581.55	1073.14
581.90	1064.71
582.25	1065.41
582.60	1066.82
582.95	1072.90
583.30	1092.56
583.65	1092.33
584.00	1099.12
584.35	1093.26
584.71	1089.52
585.06	1081.33
585.41	1077.11
585.76	1069.39
586.11	1075.71
586.46	1081.80
586.81	1082.97
587.16	1081.09
587.51	1086.71
587.86	1089.29
588.21	1084.84
588.56	1078.28
588.91	1089.05
589.26	1077.82
589.61	1072.67
589.96	1076.65
590.31	1070.33
590.66	1066.35
591.01	1075.48
591.36	1084.60
591.71	1079.69
592.06	1080.63
592.41	1083.20
592.76	1075.48
593.10	1071.97
593.45	1077.11
593.80	1091.39
594.15	1081.56
594.50	1086.24
594.85	1076.88
595.20	1075.48
595.55	1071.50
595.90	1075.01
596.25	1077.58
596.60	1082.50
596.95	1084.60
597.30	1083.67
597.64	1140.31
597.99	1141.95
598.34	1132.12
598.69	1129.78
599.04	1127.90
599.39	1073.37
599.74	1074.77
600.09	1078.52
600.44	1074.07
600.78	1073.60
601.13	1081.33
601.48	1079.22
601.83	1080.16
602.18	1082.03
602.53	1076.65
602.88	1070.33
603.22	1075.48
603.57	1081.09
603.92	1083.43
604.27	1083.20
604.62	1077.11
604.97	1067.99
605.31	1059.09
605.66	1054.88
606.01	1056.05
606.36	1057.45
606.71	1053.71
607.05	1049.50
607.40	1060.73
607.75	1061.67
608.10	1061.67
608.44	1067.05
608.79	1072.67
609.14	1076.65
609.49	1077.11
609.84	1071.03
610.18	1065.88
610.53	1081.80
610.88	1075.01
611.23	1076.41
611.57	1096.31
611.92	1096.54
612.27	1086.71
612.62	1076.88
612.96	1082.73
613.31	1067.52
613.66	1067.05
614.00	1066.35
614.35	1071.03
614.70	1071.26
615.05	1068.45
615.39	1077.58
615.74	1077.35
616.09	1079.92
616.43	1071.50
616.78	1070.33
617.13	1071.26
617.47	1076.41
617.82	1078.28
618.17	1079.46
618.51	1085.31
618.86	1078.75
619.21	1078.52
619.55	1068.22
619.90	1068.69
620.25	1072.43
620.59	1072.90
620.94	1072.90
621.29	1079.69
621.63	1087.88
621.98	1097.01
622.32	1111.99
622.67	1104.50
623.02	1111.05
623.36	1104.26
623.71	1091.39
624.05	1081.09
624.40	1076.88
624.75	1063.31
625.09	1062.14
625.44	1069.86
625.78	1066.35
626.13	1067.28
626.48	1074.54
626.82	1076.41
627.17	1068.92
627.51	1069.16
627.86	1080.63
628.20	1089.52
628.55	1086.48
628.89	1090.69
629.24	1091.86
629.58	1091.86
629.93	1085.31
630.28	1084.60
630.62	1082.50
630.97	1084.84
631.31	1077.58
631.66	1068.45
632.00	1068.92
632.35	1077.11
632.69	1073.84
633.04	1074.54
633.38	1091.39
633.73	1098.88
634.07	1095.14
634.42	1091.39
634.76	1091.16
635.11	1086.24
635.45	1080.86
635.79	1075.71
636.14	1097.01
636.48	1101.22
636.83	1100.75
637.17	1096.78
637.52	1100.75
637.86	1089.05
638.21	1082.50
638.55	1076.41
638.89	1074.54
639.24	1067.99
639.58	1064.48
639.93	1071.26
640.27	1076.41
640.61	1076.18
640.96	1078.99
641.30	1077.35
641.65	1067.75
641.99	1064.48
642.33	1069.62
642.68	1069.16
643.02	1067.99
643.37	1076.88
643.71	1082.03
644.05	1089.05
644.40	1091.39
644.74	1097.71
645.08	1097.95
645.43	1097.48
645.77	1094.67
646.11	1098.88
646.46	1091.63
646.80	1087.41
647.14	1084.37
647.49	1076.88
647.83	1068.69
648.17	1080.63
648.52	1087.88
648.86	1089.29
649.20	1099.58
649.55	1099.82
649.89	1091.39
650.23	1087.88
650.57	1080.86
650.92	1071.26
651.26	1071.50
651.60	1074.31
651.95	1068.92
652.29	1074.77
652.63	1078.99
652.97	1074.77
653.32	1065.18
653.66	1067.28
654.00	1062.14
654.34	1063.31
654.69	1063.54
655.03	1072.43
655.37	1073.84
655.71	1073.14
656.05	1075.94
656.40	1083.90
656.74	1082.26
657.08	1075.94
657.42	1082.50
657.76	1074.07
658.11	1067.75
658.45	1063.77
658.79	1075.24
659.13	1068.22
659.47	1081.09
659.82	1088.12
660.16	1087.88
660.50	1086.71
660.84	1100.29
661.18	1092.33
661.52	1093.03
661.87	1091.39
662.21	1096.07
662.55	1081.80
662.89	1081.80
663.23	1077.82
663.57	1074.07
663.91	1067.05
664.25	1072.20
664.60	1069.39
664.94	1069.62
665.28	1079.22
665.62	1078.75
665.96	1075.94
666.30	1077.11
666.64	1074.77
666.98	1077.35
667.32	1071.50
667.66	1067.05
668.01	1066.11
668.35	1075.94
668.69	1073.60
669.03	1084.14
669.37	1096.07
669.71	1103.33
670.05	1093.26
670.39	1093.97
670.73	1086.24
671.07	1079.22
671.41	1069.86
671.75	1074.07
672.09	1077.58
672.43	1080.86
672.77	1086.48
673.11	1093.50
673.45	1098.88
673.79	1091.16
674.13	1087.88
674.47	1081.33
674.81	1073.37
675.15	1061.90
675.49	1066.35
675.83	1071.97
676.17	1079.69
676.51	1089.05
676.85	1086.01
677.19	1082.97
677.53	1085.07
677.87	1084.84
678.21	1080.39
678.55	1088.35
678.89	1085.54
679.23	1078.52
679.57	1082.73
679.90	1082.03
680.24	1090.92
680.58	1092.33
680.92	1086.71
681.26	1079.22
681.60	1080.16
681.94	1071.73
682.28	1075.01
682.62	1085.07
682.96	1086.48
683.29	1091.39
683.63	1097.48
683.97	1098.41
684.31	1100.05
684.65	1099.12
684.99	1091.16
685.33	1086.94
685.67	1078.75
686.00	1075.01
686.34	1071.97
686.68	1071.73
687.02	1071.50
687.36	1071.50
687.70	1070.33
688.03	1075.24
688.37	1071.26
688.71	1070.80
689.05	1076.41
689.39	1077.35
689.72	1086.71
690.06	1092.80
690.40	1089.75
690.74	1090.69
691.08	1084.37
691.41	1069.62
691.75	1068.92
692.09	1073.37
692.43	1077.35
692.76	1085.31
693.10	1085.31
693.44	1088.58
693.78	1085.31
694.11	1075.71
694.45	1077.58
694.79	1081.09
695.13	1085.31
695.46	1092.80
695.80	1087.65
696.14	1077.11
696.48	1078.52
696.81	1067.28
697.15	1062.37
697.49	1074.54
697.82	1079.69
698.16	1068.92
698.50	1063.07
698.83	1061.20
699.17	1053.24
699.51	1056.52
699.84	1071.03
700.18	1071.50
700.52	1065.41
700.85	1069.39
701.19	1070.56
701.53	1067.99
701.86	1081.56
702.20	1095.14
702.54	1099.35
702.87	1094.67
703.21	1087.65
703.55	1080.86
703.88	1067.28
704.22	1071.73
704.55	1068.92
704.89	1069.39
705.23	1076.41
705.56	1080.86
705.90	1079.69
706.23	1080.63
706.57	1091.16
706.91	1080.63
707.24	1094.43
707.58	1084.60
707.91	1097.24
708.25	1093.97
708.58	1101.46
708.92	1085.07
709.26	1085.54
709.59	1078.05
709.93	1064.24
710.26	1067.52
710.60	1076.88
710.93	1065.18
711.27	1065.65
711.60	1074.31
711.94	1065.88
712.27	1066.58
712.61	1081.09
712.94	1078.99
713.28	1074.31
713.61	1081.80
713.95	1075.94
714.28	1078.05
714.62	1081.09
714.95	1085.77
715.29	1081.56
715.62	1086.24
715.96	1086.71
716.29	1081.09
716.63	1088.12
716.96	1075.48
717.29	1065.88
717.63	1064.71
717.96	1064.48
718.30	1053.71
718.63	1077.11
718.97	1088.82
719.30	1086.01
719.63	1088.82
719.97	1101.22
720.30	1086.94
720.64	1076.65
720.97	1078.05
721.30	1077.82
721.64	1067.99
721.97	1068.45
722.31	1064.24
722.64	1067.28
722.97	1069.86
723.31	1075.71
723.64	1078.75
723.97	1082.50
724.31	1077.11
724.64	1078.28
724.98	1085.54
725.31	1084.60
725.64	1088.58
725.98	1093.73
726.31	1088.82
726.64	1072.67
726.97	1077.35
727.31	1069.86
727.64	1068.45
727.97	1076.65
728.31	1083.67
728.64	1082.97
728.97	1083.67
729.31	1085.07
729.64	1070.56
729.97	1073.14
730.30	1071.73
730.64	1078.52
730.97	1082.26
731.30	1085.54
731.63	1075.48
731.97	1079.69
732.30	1072.90
732.63	1073.37
732.96	1077.58
733.30	1082.03
733.63	1074.31
733.96	1082.26
734.29	1065.18
734.63	1073.60
734.96	1078.52
735.29	1082.73
735.62	1088.58
735.95	1096.54
736.29	1087.41
736.62	1082.97
736.95	1076.18
737.28	1065.65
737.61	1065.41
737.94	1057.92
738.28	1057.45
738.61	1067.28
738.94	1064.48
739.27	1071.03
739.60	1078.75
739.93	1082.26
740.27	1077.11
740.60	1089.29
740.93	1088.35
741.26	1081.09
741.59	1084.60
741.92	1081.80
742.25	1073.60
742.58	1070.56
742.91	1076.65
743.25	1071.03
743.58	1078.05
743.91	1075.94
744.24	1074.07
744.57	1072.20
744.90	1068.22
745.23	1065.65
745.56	1073.84
745.89	1076.65
746.22	1078.05
746.55	1078.75
746.88	1071.26
747.21	1071.73
747.54	1074.07
747.87	1085.54
748.20	1080.86
748.53	1088.35
748.87	1091.16
749.20	1088.82
749.53	1073.60
749.86	1086.71
750.19	1081.33
750.52	1073.14
750.85	1067.28
751.18	1068.45
751.51	1059.33
751.84	1058.86
752.16	1060.96
752.49	1081.80
752.82	1078.99
753.15	1093.73
753.48	1097.01
753.81	1095.84
754.14	1075.71
754.47	1087.65
754.80	1067.52
755.13	1078.52
755.46	1079.22
755.79	1092.56
756.12	1086.71
756.45	1098.65
756.78	1089.29
757.11	1091.16
757.43	1095.14
757.76	1113.16
758.09	1112.46
758.42	1116.44
758.75	1110.82
759.08	1091.39
759.41	1077.35
759.74	1076.41
760.07	1070.80
760.39	1073.84
760.72	1077.35
761.05	1071.26
761.38	1075.94
761.71	1087.65
762.04	1095.14
762.36	1097.24
762.69	1093.03
763.02	1089.75
763.35	1086.01
763.68	1072.43
764.01	1067.05
764.33	1074.07
764.66	1073.37
764.99	1065.18
765.32	1073.14
765.65	1086.94
765.97	1081.09
766.30	1083.67
