SpectraSuite Data File
++++++++++++++++++++++++++++++++++++
Date: Mon Aug 26 10:25:53 PDT 2019
User: corrico
Dark Spectrum Present: No
Reference Spectrum Present: No
Number of Sampled Component Spectra: 1
Spectrometers: USB2+H06089
Integration Time (usec): 10000 (USB2+H06089)
Spectra Averaged: 2 (USB2+H06089)
Boxcar Smoothing: 2 (USB2+H06089)
Correct for Electrical Dark: No (USB2+H06089)
Strobe/Lamp Enabled: No (USB2+H06089)
Correct for Detector Non-linearity: No (USB2+H06089)
Correct for Stray Light: No (USB2+H06089)
Number of Pixels in Processed Spectrum: 2048
>>>>>Begin Processed Spectral Data<<<<<
339.70	1047.39
340.07	1047.39
340.45	1006.66
340.82	976.00
341.19	943.00
341.57	918.19
341.94	908.83
342.31	902.51
342.69	904.15
343.06	898.77
343.43	894.08
343.81	888.00
344.18	892.91
344.55	892.68
344.93	911.17
345.30	916.79
345.67	937.62
346.04	947.45
346.42	961.73
346.79	962.19
347.16	974.37
347.54	975.54
347.91	987.71
348.28	1003.15
348.65	1019.30
349.03	1033.35
349.40	1032.88
349.77	1036.62
350.14	1045.99
350.52	1049.50
350.89	1045.52
351.26	1051.84
351.63	1046.92
352.01	1034.75
352.38	1046.45
352.75	1057.45
353.12	1063.07
353.50	1071.03
353.87	1084.14
354.24	1068.22
354.61	1067.28
354.98	1072.20
355.36	1076.88
355.73	1072.43
356.10	1070.56
356.47	1072.20
356.84	1070.33
357.22	1056.75
357.59	1053.24
357.96	1058.16
358.33	1063.77
358.70	1070.33
359.08	1073.60
359.45	1073.60
359.82	1084.37
360.19	1071.50
360.56	1063.54
360.94	1069.62
361.31	1075.01
361.68	1072.90
362.05	1071.26
362.42	1072.90
362.79	1074.54
363.16	1068.69
363.54	1070.09
363.91	1071.97
364.28	1080.39
364.65	1073.37
365.02	1075.71
365.39	1072.43
365.76	1070.33
366.14	1063.54
366.51	1080.39
366.88	1078.75
367.25	1081.33
367.62	1087.65
367.99	1086.01
368.36	1068.22
368.73	1063.31
369.10	1047.62
369.48	1040.60
369.85	1038.03
370.22	1044.11
370.59	1059.79
370.96	1073.37
371.33	1079.46
371.70	1086.24
372.07	1096.78
372.44	1087.18
372.81	1084.60
373.18	1082.50
373.55	1078.05
373.93	1071.26
374.30	1063.77
374.67	1054.65
375.04	1052.77
375.41	1056.28
375.78	1051.37
376.15	1062.37
376.52	1071.50
376.89	1079.92
377.26	1071.73
377.63	1075.94
378.00	1077.58
378.37	1072.20
378.74	1067.75
379.11	1081.80
379.48	1076.88
379.85	1069.16
380.22	1066.35
380.59	1066.11
380.96	1059.09
381.33	1065.41
381.70	1061.43
382.07	1067.52
382.44	1069.16
382.81	1063.07
383.18	1070.56
383.55	1077.11
383.92	1082.97
384.29	1087.18
384.66	1092.56
385.03	1077.11
385.40	1079.46
385.77	1082.73
386.14	1074.54
386.51	1068.45
386.88	1073.84
387.25	1074.54
387.62	1071.26
387.99	1066.82
388.36	1076.88
388.73	1081.33
389.10	1076.18
389.46	1077.35
389.83	1080.39
390.20	1072.67
390.57	1074.07
390.94	1075.24
391.31	1063.07
391.68	1064.24
392.05	1061.43
392.42	1058.16
392.79	1064.01
393.16	1071.50
393.53	1070.33
393.89	1071.97
394.26	1068.69
394.63	1064.24
395.00	1064.94
395.37	1067.75
395.74	1067.99
396.11	1064.01
396.48	1071.73
396.84	1069.39
397.21	1068.45
397.58	1066.82
397.95	1070.33
398.32	1064.94
398.69	1077.35
399.06	1079.46
399.42	1082.50
399.79	1085.54
400.16	1085.07
400.53	1081.56
400.90	1078.99
401.27	1075.94
401.64	1077.58
402.00	1072.67
402.37	1064.24
402.74	1064.01
403.11	1070.33
403.48	1070.56
403.84	1078.75
404.21	1071.73
404.58	1073.60
404.95	1073.37
405.32	1064.24
405.68	1068.69
406.05	1075.01
406.42	1078.52
406.79	1079.69
407.16	1082.97
407.52	1074.07
407.89	1082.97
408.26	1084.84
408.63	1076.18
408.99	1086.24
409.36	1087.65
409.73	1082.50
410.10	1086.71
410.47	1102.86
410.83	1094.67
411.20	1092.33
411.57	1101.46
411.94	1095.14
412.30	1090.92
412.67	1093.73
413.04	1095.60
413.40	1090.22
413.77	1091.86
414.14	1098.41
414.51	1096.54
414.87	1089.52
415.24	1087.41
415.61	1085.31
415.97	1078.52
416.34	1075.94
416.71	1093.26
417.08	1093.03
417.44	1087.18
417.81	1072.43
418.18	1074.07
418.54	1059.09
418.91	1048.79
419.28	1047.16
419.64	1061.67
420.01	1071.50
420.38	1074.07
420.74	1082.03
421.11	1091.39
421.48	1082.73
421.84	1066.58
422.21	1072.43
422.58	1068.69
422.94	1070.80
423.31	1076.65
423.68	1079.69
424.04	1065.65
424.41	1067.28
424.77	1066.35
425.14	1067.05
425.51	1064.94
425.87	1066.82
426.24	1065.18
426.61	1059.79
426.97	1060.03
427.34	1071.73
427.70	1081.80
428.07	1085.07
428.44	1083.67
428.80	1082.03
429.17	1070.56
429.53	1068.22
429.90	1070.33
430.27	1081.09
430.63	1087.41
431.00	1101.46
431.36	1105.20
431.73	1102.39
432.09	1087.88
432.46	1083.67
432.83	1071.97
433.19	1064.48
433.56	1068.92
433.92	1067.05
434.29	1063.31
434.65	1072.67
435.02	1082.26
435.38	1080.63
435.75	1089.52
436.11	1078.99
436.48	1068.92
436.84	1068.45
437.21	1064.48
437.57	1065.65
437.94	1074.77
438.30	1079.46
438.67	1075.48
439.03	1071.03
439.40	1069.86
439.76	1066.35
440.13	1065.65
440.49	1060.03
440.86	1068.69
441.22	1064.94
441.59	1080.16
441.95	1088.58
442.32	1089.52
442.68	1089.05
443.05	1096.31
443.41	1082.03
443.78	1076.65
444.14	1080.39
444.51	1083.67
444.87	1077.58
445.24	1080.86
445.60	1081.33
445.96	1092.09
446.33	1087.65
446.69	1087.65
447.06	1091.86
447.42	1088.12
447.79	1085.77
448.15	1088.12
448.51	1091.86
448.88	1080.63
449.24	1068.92
449.61	1065.88
449.97	1061.43
450.33	1060.73
450.70	1073.37
451.06	1083.90
451.43	1077.58
451.79	1078.99
452.15	1078.75
452.52	1075.94
452.88	1073.14
453.24	1072.20
453.61	1077.11
453.97	1074.54
454.34	1071.03
454.70	1076.88
455.06	1072.43
455.43	1068.69
455.79	1073.14
456.15	1079.69
456.52	1074.77
456.88	1081.80
457.24	1082.26
457.61	1077.58
457.97	1073.84
458.33	1088.58
458.70	1087.65
459.06	1093.26
459.42	1088.35
459.79	1083.90
460.15	1076.65
460.51	1078.99
460.88	1064.24
461.24	1074.77
461.60	1078.52
461.96	1073.14
462.33	1072.90
462.69	1085.31
463.05	1076.41
463.42	1074.31
463.78	1077.82
464.14	1074.77
464.50	1069.16
464.87	1067.52
465.23	1075.48
465.59	1079.46
465.95	1091.16
466.32	1087.65
466.68	1092.09
467.04	1084.14
467.40	1081.56
467.77	1066.82
468.13	1074.07
468.49	1078.05
468.85	1076.65
469.22	1069.86
469.58	1062.60
469.94	1060.50
470.30	1054.41
470.66	1054.88
471.03	1053.24
471.39	1058.86
471.75	1061.43
472.11	1071.03
472.47	1084.37
472.84	1089.99
473.20	1097.24
473.56	1092.33
473.92	1084.84
474.28	1071.26
474.65	1073.84
475.01	1080.39
475.37	1085.77
475.73	1083.90
476.09	1082.97
476.45	1080.39
476.81	1075.71
477.18	1080.16
477.54	1084.84
477.90	1082.97
478.26	1080.39
478.62	1079.69
478.98	1071.26
479.34	1074.31
479.71	1085.07
480.07	1090.22
480.43	1085.54
480.79	1093.03
481.15	1080.86
481.51	1078.05
481.87	1069.86
482.23	1076.88
482.59	1075.01
482.96	1088.12
483.32	1092.33
483.68	1090.22
484.04	1085.31
484.40	1083.43
484.76	1075.48
485.12	1071.50
485.48	1082.50
485.84	1083.67
486.20	1083.67
486.56	1093.97
486.92	1090.46
487.28	1087.88
487.64	1085.77
488.00	1087.65
488.37	1086.48
488.73	1092.09
489.09	1089.99
489.45	1088.12
489.81	1072.90
490.17	1057.92
490.53	1062.84
490.89	1062.60
491.25	1057.92
491.61	1073.37
491.97	1084.37
492.33	1075.71
492.69	1074.31
493.05	1075.24
493.41	1072.90
493.77	1071.26
494.13	1077.82
494.49	1083.20
494.85	1082.97
495.21	1084.60
495.57	1089.99
495.93	1080.16
496.29	1088.12
496.64	1089.29
497.00	1079.22
497.36	1077.82
497.72	1071.50
498.08	1053.94
498.44	1058.86
498.80	1062.60
499.16	1052.07
499.52	1065.18
499.88	1080.16
500.24	1087.41
500.60	1090.92
500.96	1082.26
501.32	1072.67
501.68	1067.75
502.03	1060.03
502.39	1068.69
502.75	1086.48
503.11	1089.29
503.47	1087.65
503.83	1091.63
504.19	1081.09
504.55	1079.46
504.91	1083.43
505.26	1085.77
505.62	1089.29
505.98	1090.22
506.34	1091.16
506.70	1088.58
507.06	1093.03
507.42	1081.56
507.78	1084.37
508.13	1080.16
508.49	1078.28
508.85	1072.20
509.21	1079.46
509.57	1073.84
509.93	1080.63
510.28	1082.97
510.64	1076.88
511.00	1078.75
511.36	1087.88
511.72	1088.35
512.07	1097.48
512.43	1098.41
512.79	1089.75
513.15	1081.56
513.51	1072.90
513.86	1061.90
514.22	1064.01
514.58	1064.24
514.94	1069.62
515.30	1082.26
515.65	1084.14
516.01	1090.69
516.37	1095.84
516.73	1089.75
517.08	1079.69
517.44	1076.41
517.80	1075.94
518.16	1076.41
518.51	1076.65
518.87	1079.69
519.23	1084.14
519.59	1084.37
519.94	1089.52
520.30	1095.60
520.66	1091.39
521.01	1094.20
521.37	1103.09
521.73	1101.46
522.09	1092.80
522.44	1097.71
522.80	1101.92
523.16	1087.65
523.51	1085.54
523.87	1090.22
524.23	1085.07
524.58	1069.62
524.94	1075.71
525.30	1078.52
525.65	1075.48
526.01	1085.77
526.37	1093.50
526.72	1086.48
527.08	1085.07
527.44	1093.26
527.79	1082.97
528.15	1091.63
528.51	1100.75
528.86	1100.99
529.22	1102.16
529.58	1119.01
529.93	1109.41
530.29	1108.48
530.65	1101.46
531.00	1094.90
531.36	1082.26
531.71	1083.90
532.07	1081.33
532.43	1090.69
532.78	1093.03
533.14	1090.22
533.49	1083.43
533.85	1078.05
534.21	1080.86
534.56	1086.01
534.92	1085.07
535.27	1092.09
535.63	1101.22
535.98	1097.01
536.34	1092.80
536.69	1094.43
537.05	1097.01
537.41	1101.69
537.76	1099.82
538.12	1089.05
538.47	1083.20
538.83	1089.99
539.18	1088.35
539.54	1083.43
539.89	1089.75
540.25	1098.65
540.60	1098.18
540.96	1082.73
541.31	1081.09
541.67	1091.63
542.02	1097.24
542.38	1084.37
542.73	1095.14
543.09	1109.65
543.44	1112.46
543.80	1104.50
544.15	1119.48
544.51	1112.92
544.86	1109.65
545.22	1095.84
545.57	1090.69
545.93	1081.80
546.28	1090.92
546.64	1097.24
546.99	1100.75
547.35	1106.14
547.70	1111.29
548.05	1104.73
548.41	1084.14
548.76	1085.54
549.12	1082.03
549.47	1081.80
549.83	1078.99
550.18	1091.39
550.53	1094.20
550.89	1093.97
551.24	1086.94
551.60	1086.24
551.95	1081.56
552.30	1076.41
552.66	1082.73
553.01	1080.63
553.37	1079.92
553.72	1086.48
554.07	1089.29
554.43	1089.29
554.78	1082.97
555.13	1089.29
555.49	1079.46
555.84	1072.20
556.19	1071.03
556.55	1080.63
556.90	1077.58
557.26	1084.14
557.61	1090.22
557.96	1088.12
558.32	1094.20
558.67	1100.75
559.02	1091.39
559.37	1084.84
559.73	1073.37
560.08	1059.09
560.43	1046.45
560.79	1051.84
561.14	1053.48
561.49	1069.86
561.85	1078.99
562.20	1086.94
562.55	1084.60
562.90	1090.46
563.26	1089.05
563.61	1081.80
563.96	1078.05
564.32	1076.41
564.67	1075.01
565.02	1073.37
565.37	1075.71
565.73	1074.54
566.08	1073.84
566.43	1075.01
566.78	1082.26
567.14	1090.46
567.49	1094.43
567.84	1099.35
568.19	1088.58
568.54	1072.90
568.90	1067.75
569.25	1062.84
569.60	1068.45
569.95	1069.39
570.31	1072.20
570.66	1084.37
571.01	1091.86
571.36	1087.18
571.71	1097.95
572.06	1110.12
572.42	1101.22
572.77	1107.07
573.12	1113.63
573.47	1110.12
573.82	1105.20
574.18	1098.65
574.53	1094.67
574.88	1086.48
575.23	1091.63
575.58	1092.33
575.93	1086.71
576.28	1087.18
576.64	1103.09
576.99	1103.09
577.34	1096.78
577.69	1101.92
578.04	1099.35
578.39	1082.26
578.74	1075.24
579.09	1082.03
579.44	1083.90
579.80	1080.39
580.15	1087.41
580.50	1086.01
580.85	1085.31
581.20	1083.43
581.55	1081.80
581.90	1071.26
582.25	1076.18
582.60	1064.01
582.95	1066.35
583.30	1069.16
583.65	1074.77
584.00	1078.52
584.35	1087.18
584.71	1085.31
585.06	1082.73
585.41	1081.80
585.76	1075.71
586.11	1079.69
586.46	1082.97
586.81	1088.12
587.16	1085.31
587.51	1082.03
587.86	1081.09
588.21	1076.18
588.56	1072.90
588.91	1076.41
589.26	1085.31
589.61	1078.75
589.96	1089.05
590.31	1085.77
590.66	1087.18
591.01	1083.43
591.36	1081.80
591.71	1077.82
592.06	1082.03
592.41	1077.11
592.76	1077.82
593.10	1087.65
593.45	1082.73
593.80	1086.71
594.15	1086.94
594.50	1085.31
594.85	1085.31
595.20	1084.14
595.55	1086.24
595.90	1098.88
596.25	1102.63
596.60	1104.73
596.95	1101.92
597.30	1096.54
597.64	1136.10
597.99	1129.07
598.34	1111.99
598.69	1115.27
599.04	1117.84
599.39	1070.80
599.74	1077.82
600.09	1087.65
600.44	1089.99
600.78	1081.33
601.13	1076.41
601.48	1072.90
601.83	1065.18
602.18	1066.82
602.53	1067.28
602.88	1065.41
603.22	1067.75
603.57	1072.43
603.92	1070.09
604.27	1075.94
604.62	1082.03
604.97	1076.88
605.31	1089.05
605.66	1092.56
606.01	1094.67
606.36	1090.69
606.71	1097.01
607.05	1083.67
607.40	1079.69
607.75	1078.75
608.10	1083.67
608.44	1080.16
608.79	1083.20
609.14	1090.69
609.49	1084.84
609.84	1081.33
610.18	1076.88
610.53	1076.88
610.88	1070.33
611.23	1072.20
611.57	1079.92
611.92	1093.97
612.27	1097.48
612.62	1093.97
612.96	1099.82
613.31	1097.24
613.66	1084.60
614.00	1086.94
614.35	1097.24
614.70	1091.63
615.05	1087.18
615.39	1087.65
615.74	1084.14
616.09	1080.39
616.43	1079.69
616.78	1081.33
617.13	1091.63
617.47	1097.95
617.82	1096.54
618.17	1093.73
618.51	1093.26
618.86	1083.90
619.21	1076.41
619.55	1068.69
619.90	1060.96
620.25	1063.31
620.59	1064.24
620.94	1056.28
621.29	1059.79
621.63	1068.22
621.98	1062.84
622.32	1068.69
622.67	1073.60
623.02	1083.20
623.36	1088.12
623.71	1097.24
624.05	1096.07
624.40	1094.20
624.75	1086.71
625.09	1085.07
625.44	1070.09
625.78	1070.09
626.13	1072.43
626.48	1074.54
626.82	1076.18
627.17	1078.28
627.51	1071.26
627.86	1080.63
628.20	1080.63
628.55	1074.31
628.89	1079.22
629.24	1082.26
629.58	1080.63
629.93	1085.77
630.28	1091.63
630.62	1088.82
630.97	1081.09
631.31	1082.50
631.66	1074.31
632.00	1083.20
632.35	1086.01
632.69	1092.80
633.04	1084.60
633.38	1084.37
633.73	1078.75
634.07	1078.99
634.42	1086.94
634.76	1089.99
635.11	1090.92
635.45	1093.97
635.79	1094.67
636.14	1091.63
636.48	1098.65
636.83	1103.56
637.17	1095.14
637.52	1098.65
637.86	1086.24
638.21	1078.28
638.55	1080.39
638.89	1081.80
639.24	1074.77
639.58	1076.65
639.93	1077.82
640.27	1070.33
640.61	1074.07
640.96	1083.43
641.30	1084.14
641.65	1077.11
641.99	1080.63
642.33	1075.01
642.68	1064.71
643.02	1072.43
643.37	1077.58
643.71	1075.48
644.05	1083.20
644.40	1096.54
644.74	1100.29
645.08	1102.63
645.43	1097.95
645.77	1091.16
646.11	1081.56
646.46	1072.43
646.80	1072.20
647.14	1071.97
647.49	1071.03
647.83	1071.73
648.17	1075.71
648.52	1069.86
648.86	1077.82
649.20	1086.48
649.55	1082.26
649.89	1086.24
650.23	1095.14
650.57	1088.82
650.92	1082.50
651.26	1089.99
651.60	1084.37
651.95	1083.90
652.29	1097.01
652.63	1099.12
652.97	1105.67
653.32	1108.48
653.66	1100.29
654.00	1092.56
654.34	1089.05
654.69	1078.75
655.03	1076.65
655.37	1076.88
655.71	1073.14
656.05	1078.52
656.40	1081.33
656.74	1092.56
657.08	1102.86
657.42	1105.20
657.76	1104.97
658.11	1095.84
658.45	1086.71
658.79	1085.31
659.13	1083.90
659.47	1076.65
659.82	1086.71
660.16	1090.69
660.50	1091.86
660.84	1099.12
661.18	1100.29
661.52	1099.35
661.87	1091.39
662.21	1085.54
662.55	1078.52
662.89	1076.41
663.23	1072.67
663.57	1068.69
663.91	1059.09
664.25	1054.88
664.60	1056.05
664.94	1062.84
665.28	1065.41
665.62	1069.62
665.96	1078.75
666.30	1084.60
666.64	1075.71
666.98	1079.92
667.32	1079.22
667.66	1076.88
668.01	1085.77
668.35	1089.29
668.69	1086.24
669.03	1097.01
669.37	1090.92
669.71	1074.31
670.05	1066.11
670.39	1069.16
670.73	1061.43
671.07	1062.37
671.41	1068.45
671.75	1076.88
672.09	1071.97
672.43	1072.43
672.77	1071.50
673.11	1068.22
673.45	1066.58
673.79	1071.50
674.13	1075.94
674.47	1084.37
674.81	1085.31
675.15	1084.37
675.49	1072.43
675.83	1062.84
676.17	1059.56
676.51	1059.79
676.85	1057.22
677.19	1067.52
677.53	1068.69
677.87	1071.50
678.21	1071.26
678.55	1079.46
678.89	1085.54
679.23	1095.14
679.57	1093.03
679.90	1096.31
680.24	1097.71
680.58	1089.75
680.92	1089.29
681.26	1086.01
681.60	1083.43
681.94	1077.58
682.28	1077.11
682.62	1076.41
682.96	1086.94
683.29	1080.16
683.63	1078.52
683.97	1078.05
684.31	1071.50
684.65	1063.77
684.99	1072.43
685.33	1077.35
685.67	1085.31
686.00	1083.67
686.34	1087.88
686.68	1086.24
687.02	1081.56
687.36	1073.60
687.70	1087.65
688.03	1078.75
688.37	1080.39
688.71	1077.35
689.05	1085.31
689.39	1077.35
689.72	1085.07
690.06	1089.99
690.40	1091.63
690.74	1090.69
691.08	1083.20
691.41	1082.50
691.75	1077.82
692.09	1077.58
692.43	1073.60
692.76	1084.84
693.10	1096.07
693.44	1099.58
693.78	1101.92
694.11	1107.54
694.45	1105.20
694.79	1096.78
695.13	1093.26
695.46	1092.56
695.80	1087.18
696.14	1086.94
696.48	1080.39
696.81	1068.92
697.15	1063.07
697.49	1056.75
697.82	1060.50
698.16	1063.77
698.50	1069.16
698.83	1074.77
699.17	1089.29
699.51	1085.77
699.84	1084.37
700.18	1086.24
700.52	1091.16
700.85	1078.52
701.19	1079.92
701.53	1075.94
701.86	1083.67
702.20	1079.92
702.54	1084.60
702.87	1085.07
703.21	1089.29
703.55	1084.37
703.88	1084.14
704.22	1084.14
704.55	1078.52
704.89	1078.99
705.23	1084.14
705.56	1089.99
705.90	1082.50
706.23	1080.39
706.57	1089.05
706.91	1084.37
707.24	1075.24
707.58	1074.31
707.91	1077.82
708.25	1070.80
708.58	1066.58
708.92	1074.77
709.26	1090.46
709.59	1090.22
709.93	1094.20
710.26	1089.29
710.60	1084.60
710.93	1085.07
711.27	1086.24
711.60	1076.18
711.94	1077.35
712.27	1082.73
712.61	1067.28
712.94	1065.18
713.28	1070.80
713.61	1078.52
713.95	1079.46
714.28	1091.16
714.62	1095.60
714.95	1096.54
715.29	1099.82
715.62	1097.71
715.96	1087.41
716.29	1079.46
716.63	1081.33
716.96	1075.48
717.29	1072.90
717.63	1086.94
717.96	1099.35
718.30	1097.48
718.63	1095.84
718.97	1096.07
719.30	1087.88
719.63	1084.60
719.97	1085.07
720.30	1092.33
720.64	1097.24
720.97	1093.73
721.30	1087.41
721.64	1082.97
721.97	1081.56
722.31	1076.18
722.64	1083.43
722.97	1087.65
723.31	1082.73
723.64	1077.35
723.97	1078.05
724.31	1072.43
724.64	1077.82
724.98	1088.12
725.31	1082.26
725.64	1076.41
725.98	1082.50
726.31	1076.41
726.64	1070.33
726.97	1077.11
727.31	1082.50
727.64	1078.52
727.97	1075.01
728.31	1086.48
728.64	1092.80
728.97	1097.71
729.31	1109.41
729.64	1105.20
729.97	1099.12
730.30	1092.80
730.64	1094.20
730.97	1075.01
731.30	1078.99
731.63	1069.62
731.97	1074.77
732.30	1066.82
732.63	1070.56
732.96	1063.31
733.30	1064.71
733.63	1063.54
733.96	1065.18
734.29	1071.97
734.63	1088.35
734.96	1095.14
735.29	1093.26
735.62	1095.37
735.95	1086.24
736.29	1079.46
736.62	1083.43
736.95	1080.86
737.28	1069.39
737.61	1078.28
737.94	1079.69
738.28	1075.01
738.61	1072.90
738.94	1085.77
739.27	1086.01
739.60	1087.18
739.93	1088.35
740.27	1095.60
740.60	1098.65
740.93	1097.71
741.26	1101.69
741.59	1099.58
741.92	1090.46
742.25	1089.29
742.58	1098.65
742.91	1104.26
743.25	1103.80
743.58	1104.97
743.91	1101.22
744.24	1091.16
744.57	1080.39
744.90	1077.82
745.23	1078.28
745.56	1069.62
745.89	1066.11
746.22	1070.56
746.55	1069.62
746.88	1071.50
747.21	1085.07
747.54	1093.97
747.87	1090.69
748.20	1093.03
748.53	1093.03
748.87	1089.99
749.20	1095.84
749.53	1089.29
749.86	1086.24
750.19	1089.52
750.52	1093.03
750.85	1082.73
751.18	1081.80
751.51	1082.73
751.84	1082.03
752.16	1075.71
752.49	1075.24
752.82	1068.22
753.15	1059.56
753.48	1056.99
753.81	1059.79
754.14	1053.94
754.47	1068.69
754.80	1078.99
755.13	1085.54
755.46	1077.11
755.79	1075.48
756.12	1064.94
756.45	1059.56
756.78	1056.99
757.11	1064.94
757.43	1076.88
757.76	1079.92
758.09	1080.16
758.42	1072.90
758.75	1071.97
759.08	1068.45
759.41	1073.84
759.74	1071.03
760.07	1066.82
760.39	1062.60
760.72	1064.01
761.05	1060.73
761.38	1063.07
761.71	1074.54
762.04	1075.71
762.36	1065.18
762.69	1071.50
763.02	1075.71
763.35	1069.39
763.68	1068.69
764.01	1070.56
764.33	1062.37
764.66	1071.03
764.99	1075.24
765.32	1072.90
765.65	1074.07
765.97	1076.65
766.30	1071.26
