SpectraSuite Data File
++++++++++++++++++++++++++++++++++++
Date: Mon Aug 26 10:25:53 PDT 2019
User: corrico
Dark Spectrum Present: No
Reference Spectrum Present: No
Number of Sampled Component Spectra: 1
Spectrometers: USB2+H06089
Integration Time (usec): 10000 (USB2+H06089)
Spectra Averaged: 2 (USB2+H06089)
Boxcar Smoothing: 2 (USB2+H06089)
Correct for Electrical Dark: No (USB2+H06089)
Strobe/Lamp Enabled: No (USB2+H06089)
Correct for Detector Non-linearity: No (USB2+H06089)
Correct for Stray Light: No (USB2+H06089)
Number of Pixels in Processed Spectrum: 2048
>>>>>Begin Processed Spectral Data<<<<<
339.70	1029.84
340.07	1029.84
340.45	1001.75
340.82	980.68
341.19	964.77
341.57	944.17
341.94	941.13
342.31	924.04
342.69	913.98
343.06	897.13
343.43	887.30
343.81	877.93
344.18	889.40
344.55	891.51
344.93	908.60
345.30	918.89
345.67	930.83
346.04	944.17
346.42	959.39
346.79	961.96
347.16	968.98
347.54	969.68
347.91	968.98
348.28	970.15
348.65	980.92
349.03	992.15
349.40	1011.11
349.77	1012.05
350.14	1026.09
350.52	1026.56
350.89	1038.50
351.26	1039.43
351.63	1050.90
352.01	1057.22
352.38	1063.77
352.75	1056.52
353.12	1054.18
353.50	1060.03
353.87	1060.50
354.24	1061.20
354.61	1064.94
354.98	1064.71
355.36	1065.88
355.73	1072.90
356.10	1072.90
356.47	1078.75
356.84	1075.71
357.22	1082.03
357.59	1077.35
357.96	1074.07
358.33	1071.03
358.70	1076.65
359.08	1072.90
359.45	1073.37
359.82	1080.39
360.19	1085.31
360.56	1087.41
360.94	1079.22
361.31	1079.92
361.68	1080.63
362.05	1078.05
362.42	1070.33
362.79	1070.80
363.16	1075.48
363.54	1081.33
363.91	1086.94
364.28	1090.92
364.65	1087.41
365.02	1081.09
365.39	1075.24
365.76	1071.26
366.14	1069.16
366.51	1083.43
366.88	1086.94
367.25	1086.48
367.62	1084.14
367.99	1090.92
368.36	1087.18
368.73	1077.58
369.10	1078.52
369.48	1075.94
369.85	1070.80
370.22	1067.28
370.59	1072.67
370.96	1063.77
371.33	1052.77
371.70	1046.92
372.07	1046.45
372.44	1034.75
372.81	1040.60
373.18	1056.52
373.55	1061.20
373.93	1060.73
374.30	1075.01
374.67	1069.39
375.04	1065.88
375.41	1072.67
375.78	1075.94
376.15	1075.71
376.52	1077.58
376.89	1067.99
377.26	1060.03
377.63	1055.35
378.00	1052.77
378.37	1049.73
378.74	1059.33
379.11	1055.35
379.48	1055.82
379.85	1049.26
380.22	1053.71
380.59	1051.60
380.96	1061.67
381.33	1058.86
381.70	1074.54
382.07	1078.75
382.44	1079.46
382.81	1082.03
383.18	1086.94
383.55	1083.20
383.92	1083.43
384.29	1075.01
384.66	1070.80
385.03	1074.54
385.40	1067.28
385.77	1062.37
386.14	1070.33
386.51	1066.35
386.88	1060.26
387.25	1056.75
387.62	1058.86
387.99	1058.86
388.36	1064.01
388.73	1071.50
389.10	1073.60
389.46	1075.71
389.83	1064.71
390.20	1063.54
390.57	1055.82
390.94	1053.01
391.31	1042.01
391.68	1054.41
392.05	1060.96
392.42	1069.39
392.79	1073.60
393.16	1078.52
393.53	1080.63
393.89	1081.33
394.26	1076.41
394.63	1075.48
395.00	1082.26
395.37	1082.03
395.74	1070.09
396.11	1073.84
396.48	1079.46
396.84	1080.39
397.21	1079.46
397.58	1083.90
397.95	1081.80
398.32	1070.56
398.69	1069.62
399.06	1073.60
399.42	1069.16
399.79	1064.48
400.16	1077.11
400.53	1075.94
400.90	1068.92
401.27	1071.03
401.64	1072.90
402.00	1075.24
402.37	1077.35
402.74	1079.92
403.11	1082.50
403.48	1081.80
403.84	1070.33
404.21	1069.16
404.58	1069.16
404.95	1062.14
405.32	1063.07
405.68	1069.62
406.05	1071.26
406.42	1065.18
406.79	1072.67
407.16	1073.37
407.52	1074.54
407.89	1079.46
408.26	1086.94
408.63	1088.12
408.99	1089.52
409.36	1085.07
409.73	1089.75
410.10	1087.65
410.47	1080.39
410.83	1077.82
411.20	1075.48
411.57	1069.62
411.94	1071.26
412.30	1077.58
412.67	1084.84
413.04	1091.86
413.40	1084.84
413.77	1073.84
414.14	1081.09
414.51	1078.99
414.87	1070.09
415.24	1073.84
415.61	1084.37
415.97	1081.09
416.34	1076.65
416.71	1071.73
417.08	1079.46
417.44	1087.18
417.81	1086.94
418.18	1095.60
418.54	1107.07
418.91	1097.01
419.28	1086.01
419.64	1073.37
420.01	1072.90
420.38	1073.84
420.74	1070.33
421.11	1080.39
421.48	1089.52
421.84	1082.97
422.21	1081.33
422.58	1087.88
422.94	1078.05
423.31	1083.43
423.68	1089.05
424.04	1093.26
424.41	1087.18
424.77	1090.22
425.14	1083.43
425.51	1084.84
425.87	1079.22
426.24	1078.99
426.61	1077.58
426.97	1085.07
427.34	1074.77
427.70	1085.31
428.07	1089.05
428.44	1087.41
428.80	1071.50
429.17	1078.99
429.53	1064.01
429.90	1064.24
430.27	1067.99
430.63	1075.24
431.00	1069.86
431.36	1074.54
431.73	1075.24
432.09	1074.31
432.46	1075.48
432.83	1074.77
433.19	1084.84
433.56	1086.24
433.92	1087.88
434.29	1085.07
434.65	1095.84
435.02	1091.16
435.38	1091.16
435.75	1093.73
436.11	1090.92
436.48	1084.14
436.84	1089.29
437.21	1086.48
437.57	1084.84
437.94	1088.58
438.30	1084.60
438.67	1072.67
439.03	1072.90
439.40	1077.35
439.76	1078.75
440.13	1079.46
440.49	1086.24
440.86	1081.33
441.22	1072.20
441.59	1070.56
441.95	1071.03
442.32	1059.56
442.68	1057.69
443.05	1060.03
443.41	1066.11
443.78	1062.37
444.14	1064.24
444.51	1070.33
444.87	1069.86
445.24	1066.11
445.60	1064.24
445.96	1069.39
446.33	1067.75
446.69	1064.48
447.06	1062.37
447.42	1074.07
447.79	1076.41
448.15	1079.46
448.51	1080.16
448.88	1077.82
449.24	1078.52
449.61	1085.31
449.97	1080.86
450.33	1086.24
450.70	1092.80
451.06	1082.03
451.43	1078.28
451.79	1083.20
452.15	1084.14
452.52	1087.18
452.88	1096.31
453.24	1095.37
453.61	1097.48
453.97	1095.37
454.34	1086.94
454.70	1091.86
455.06	1087.65
455.43	1084.60
455.79	1072.90
456.15	1072.43
456.52	1063.54
456.88	1063.54
457.24	1063.07
457.61	1080.63
457.97	1083.67
458.33	1085.07
458.70	1079.22
459.06	1071.03
459.42	1068.22
459.79	1072.43
460.15	1077.58
460.51	1087.65
460.88	1108.71
461.24	1102.39
461.60	1101.22
461.96	1102.39
462.33	1096.54
462.69	1084.14
463.05	1089.75
463.42	1083.20
463.78	1074.31
464.14	1077.35
464.50	1074.77
464.87	1063.31
465.23	1063.31
465.59	1066.35
465.95	1053.71
466.32	1053.71
466.68	1063.77
467.04	1065.88
467.40	1060.50
467.77	1081.56
468.13	1079.92
468.49	1071.73
468.85	1071.97
469.22	1078.99
469.58	1075.48
469.94	1075.24
470.30	1081.80
470.66	1082.97
471.03	1086.01
471.39	1078.05
471.75	1082.26
472.11	1078.75
472.47	1084.37
472.84	1080.16
473.20	1087.88
473.56	1092.09
473.92	1087.65
474.28	1087.18
474.65	1090.92
475.01	1080.16
475.37	1086.71
475.73	1093.97
476.09	1087.41
476.45	1087.65
476.81	1085.31
477.18	1083.90
477.54	1086.24
477.90	1088.82
478.26	1087.18
478.62	1090.22
478.98	1084.60
479.34	1082.03
479.71	1077.11
480.07	1063.07
480.43	1070.80
480.79	1065.88
481.15	1067.99
481.51	1071.26
481.87	1082.73
482.23	1086.24
482.59	1091.86
482.96	1084.14
483.32	1086.01
483.68	1091.39
484.04	1077.11
484.40	1066.82
484.76	1082.03
485.12	1082.03
485.48	1072.20
485.84	1074.31
486.20	1074.31
486.56	1070.56
486.92	1077.11
487.28	1084.84
487.64	1092.33
488.00	1101.69
488.37	1094.43
488.73	1084.37
489.09	1071.97
489.45	1051.60
489.81	1046.69
490.17	1049.96
490.53	1058.16
490.89	1060.03
491.25	1081.09
491.61	1091.39
491.97	1087.18
492.33	1088.12
492.69	1093.50
493.05	1078.99
493.41	1071.97
493.77	1081.80
494.13	1076.18
494.49	1077.11
494.85	1087.88
495.21	1093.50
495.57	1089.75
495.93	1081.33
496.29	1083.20
496.64	1084.84
497.00	1081.56
497.36	1077.58
497.72	1092.09
498.08	1078.52
498.44	1079.22
498.80	1075.71
499.16	1076.41
499.52	1080.16
499.88	1093.73
500.24	1086.94
500.60	1082.50
500.96	1090.46
501.32	1079.69
501.68	1083.43
502.03	1092.80
502.39	1095.14
502.75	1084.60
503.11	1084.84
503.47	1073.84
503.83	1076.65
504.19	1081.80
504.55	1087.65
504.91	1094.67
505.26	1094.43
505.62	1098.88
505.98	1090.92
506.34	1084.60
506.70	1083.20
507.06	1076.41
507.42	1066.58
507.78	1063.54
508.13	1067.28
508.49	1070.80
508.85	1082.73
509.21	1085.07
509.57	1096.07
509.93	1092.09
510.28	1073.84
510.64	1072.90
511.00	1072.90
511.36	1072.90
511.72	1079.46
512.07	1095.14
512.43	1092.33
512.79	1079.69
513.15	1078.05
513.51	1074.07
513.86	1071.26
514.22	1075.48
514.58	1084.37
514.94	1086.24
515.30	1089.75
515.65	1079.69
516.01	1074.77
516.37	1071.97
516.73	1073.60
517.08	1075.71
517.44	1089.29
517.80	1090.46
518.16	1098.88
518.51	1095.37
518.87	1100.99
519.23	1099.35
519.59	1104.26
519.94	1106.14
520.30	1103.80
520.66	1093.97
521.01	1090.46
521.37	1093.26
521.73	1086.01
522.09	1090.92
522.44	1092.56
522.80	1091.39
523.16	1095.37
523.51	1091.63
523.87	1095.14
524.23	1090.92
524.58	1100.75
524.94	1088.58
525.30	1099.12
525.65	1090.69
526.01	1097.71
526.37	1094.67
526.72	1094.67
527.08	1091.39
527.44	1096.54
527.79	1081.33
528.15	1076.41
528.51	1085.31
528.86	1088.12
529.22	1097.48
529.58	1118.78
529.93	1125.33
530.29	1120.41
530.65	1115.73
531.00	1101.22
531.36	1095.84
531.71	1091.63
532.07	1083.90
532.43	1086.48
532.78	1089.05
533.14	1090.92
533.49	1095.14
533.85	1104.03
534.21	1099.82
534.56	1103.80
534.92	1095.37
535.27	1084.84
535.63	1091.63
535.98	1093.97
536.34	1086.01
536.69	1092.09
537.05	1097.48
537.41	1097.95
537.76	1089.75
538.12	1095.37
538.47	1093.26
538.83	1093.97
539.18	1084.37
539.54	1091.39
539.89	1086.94
540.25	1089.05
540.60	1086.94
540.96	1085.77
541.31	1082.97
541.67	1082.26
542.02	1082.03
542.38	1087.18
542.73	1086.01
543.09	1085.54
543.44	1089.52
543.80	1084.84
544.15	1082.03
544.51	1088.12
544.86	1100.05
545.22	1099.58
545.57	1107.07
545.93	1104.50
546.28	1103.09
546.64	1098.88
546.99	1107.78
547.35	1100.99
547.70	1105.44
548.05	1108.01
548.41	1113.63
548.76	1105.90
549.12	1102.63
549.47	1100.99
549.83	1094.43
550.18	1089.52
550.53	1080.16
550.89	1080.16
551.24	1070.80
551.60	1074.07
551.95	1066.35
552.30	1068.45
552.66	1065.88
553.01	1065.41
553.37	1059.56
553.72	1066.35
554.07	1069.86
554.43	1074.07
554.78	1077.82
555.13	1085.77
555.49	1082.50
555.84	1082.03
556.19	1081.09
556.55	1078.05
556.90	1075.48
557.26	1078.28
557.61	1079.69
557.96	1082.97
558.32	1093.97
558.67	1092.09
559.02	1084.14
559.37	1081.09
559.73	1076.65
560.08	1074.07
560.43	1074.54
560.79	1073.14
561.14	1073.60
561.49	1077.82
561.85	1074.77
562.20	1079.69
562.55	1092.09
562.90	1095.84
563.26	1098.65
563.61	1102.86
563.96	1102.63
564.32	1097.01
564.67	1095.37
565.02	1085.31
565.37	1086.24
565.73	1086.48
566.08	1090.22
566.43	1097.48
566.78	1093.50
567.14	1081.33
567.49	1077.11
567.84	1078.28
568.19	1069.39
568.54	1076.41
568.90	1089.75
569.25	1087.18
569.60	1072.67
569.95	1081.56
570.31	1085.54
570.66	1073.14
571.01	1087.88
571.36	1097.48
571.71	1100.75
572.06	1106.61
572.42	1111.05
572.77	1096.54
573.12	1096.31
573.47	1091.16
573.82	1080.39
574.18	1087.18
574.53	1100.05
574.88	1095.60
575.23	1088.58
575.58	1089.99
575.93	1075.48
576.28	1060.50
576.64	1067.75
576.99	1067.75
577.34	1068.69
577.69	1076.18
578.04	1081.80
578.39	1073.14
578.74	1074.77
579.09	1084.60
579.44	1093.03
579.80	1086.48
580.15	1090.22
580.50	1095.14
580.85	1078.99
581.20	1075.48
581.55	1079.69
581.90	1073.84
582.25	1078.28
582.60	1089.29
582.95	1082.73
583.30	1084.37
583.65	1094.20
584.00	1089.52
584.35	1084.84
584.71	1087.41
585.06	1094.20
585.41	1094.43
585.76	1087.65
586.11	1091.39
586.46	1089.29
586.81	1076.88
587.16	1077.11
587.51	1083.67
587.86	1080.16
588.21	1086.48
588.56	1090.22
588.91	1085.77
589.26	1079.69
589.61	1074.77
589.96	1072.43
590.31	1075.94
590.66	1073.14
591.01	1078.75
591.36	1086.94
591.71	1089.29
592.06	1084.60
592.41	1082.97
592.76	1079.46
593.10	1073.37
593.45	1068.92
593.80	1077.58
594.15	1080.63
594.50	1076.41
594.85	1079.92
595.20	1082.97
595.55	1082.03
595.90	1089.05
596.25	1096.07
596.60	1108.48
596.95	1108.71
597.30	1108.01
597.64	1148.50
597.99	1153.88
598.34	1142.18
598.69	1133.76
599.04	1120.88
599.39	1071.73
599.74	1061.67
600.09	1065.18
600.44	1076.18
600.78	1085.07
601.13	1090.69
601.48	1093.26
601.83	1091.16
602.18	1088.12
602.53	1092.56
602.88	1096.78
603.22	1094.90
603.57	1093.50
603.92	1083.43
604.27	1073.84
604.62	1068.45
604.97	1067.05
605.31	1069.16
605.66	1084.60
606.01	1087.65
606.36	1090.46
606.71	1089.05
607.05	1087.41
607.40	1080.86
607.75	1088.58
608.10	1088.12
608.44	1097.24
608.79	1096.78
609.14	1095.84
609.49	1093.26
609.84	1090.69
610.18	1087.88
610.53	1089.05
610.88	1091.39
611.23	1086.01
611.57	1090.22
611.92	1081.80
612.27	1089.99
612.62	1090.92
612.96	1082.73
613.31	1073.37
613.66	1077.82
614.00	1080.16
614.35	1071.97
614.70	1087.88
615.05	1087.65
615.39	1082.50
615.74	1074.54
616.09	1085.77
616.43	1076.65
616.78	1074.77
617.13	1072.20
617.47	1073.84
617.82	1066.11
618.17	1065.41
618.51	1082.73
618.86	1083.90
619.21	1080.63
619.55	1083.20
619.90	1080.39
620.25	1072.90
620.59	1077.11
620.94	1072.20
621.29	1073.37
621.63	1082.97
621.98	1070.56
622.32	1078.28
622.67	1081.09
623.02	1083.67
623.36	1076.18
623.71	1087.88
624.05	1075.71
624.40	1076.65
624.75	1069.86
625.09	1071.03
625.44	1073.37
625.78	1078.75
626.13	1077.35
626.48	1082.50
626.82	1084.60
627.17	1080.16
627.51	1080.86
627.86	1085.07
628.20	1078.75
628.55	1075.01
628.89	1077.35
629.24	1075.94
629.58	1064.01
629.93	1064.94
630.28	1069.62
630.62	1075.01
630.97	1087.41
631.31	1094.90
631.66	1104.03
632.00	1093.73
632.35	1082.26
632.69	1070.33
633.04	1072.67
633.38	1068.45
633.73	1082.26
634.07	1078.52
634.42	1089.29
634.76	1082.97
635.11	1082.97
635.45	1082.50
635.79	1084.37
636.14	1080.16
636.48	1084.37
636.83	1082.97
637.17	1083.90
637.52	1101.69
637.86	1097.71
638.21	1093.26
638.55	1089.99
638.89	1086.01
639.24	1078.05
639.58	1070.09
639.93	1070.56
640.27	1070.33
640.61	1081.09
640.96	1074.07
641.30	1082.97
641.65	1091.86
641.99	1094.20
642.33	1079.22
642.68	1074.07
643.02	1071.97
643.37	1067.05
643.71	1073.60
644.05	1080.16
644.40	1086.48
644.74	1077.35
645.08	1080.86
645.43	1071.97
645.77	1070.33
646.11	1077.58
646.46	1089.75
646.80	1088.35
647.14	1091.86
647.49	1092.09
647.83	1076.65
648.17	1083.90
648.52	1080.39
648.86	1076.88
649.20	1076.18
649.55	1077.11
649.89	1070.80
650.23	1064.71
650.57	1067.52
650.92	1065.41
651.26	1079.46
651.60	1077.35
651.95	1079.46
652.29	1068.45
652.63	1074.77
652.97	1067.28
653.32	1068.45
653.66	1069.16
654.00	1077.11
654.34	1078.05
654.69	1075.48
655.03	1071.03
655.37	1073.37
655.71	1069.86
656.05	1059.56
656.40	1068.22
656.74	1068.45
657.08	1067.05
657.42	1079.22
657.76	1084.84
658.11	1081.33
658.45	1094.20
658.79	1104.50
659.13	1099.35
659.47	1091.16
659.82	1085.54
660.16	1081.33
660.50	1079.92
660.84	1078.52
661.18	1076.18
661.52	1083.67
661.87	1077.82
662.21	1065.41
662.55	1067.28
662.89	1079.92
663.23	1073.84
663.57	1076.18
663.91	1080.63
664.25	1075.01
664.60	1075.01
664.94	1075.94
665.28	1074.54
665.62	1081.56
665.96	1086.94
666.30	1081.33
666.64	1082.03
666.98	1076.18
667.32	1078.05
667.66	1077.58
668.01	1078.28
668.35	1085.07
668.69	1087.41
669.03	1080.63
669.37	1077.11
669.71	1076.88
670.05	1074.77
670.39	1075.48
670.73	1080.86
671.07	1079.69
671.41	1084.14
671.75	1081.80
672.09	1079.69
672.43	1069.62
672.77	1080.63
673.11	1080.63
673.45	1082.73
673.79	1093.50
674.13	1100.99
674.47	1086.94
674.81	1079.69
675.15	1081.80
675.49	1076.18
675.83	1073.60
676.17	1082.50
676.51	1091.16
676.85	1089.05
677.19	1091.16
677.53	1089.75
677.87	1085.07
678.21	1077.82
678.55	1069.62
678.89	1058.62
679.23	1063.31
679.57	1069.16
679.90	1074.54
680.24	1078.99
680.58	1089.52
680.92	1092.56
681.26	1086.24
681.60	1093.26
681.94	1091.16
682.28	1089.29
682.62	1100.52
682.96	1098.88
683.29	1092.33
683.63	1094.43
683.97	1088.58
684.31	1074.31
684.65	1076.88
684.99	1074.07
685.33	1071.73
685.67	1082.03
686.00	1076.88
686.34	1076.18
686.68	1078.28
687.02	1082.03
687.36	1080.16
687.70	1090.69
688.03	1093.03
688.37	1093.50
688.71	1096.78
689.05	1099.12
689.39	1085.77
689.72	1083.67
690.06	1081.80
690.40	1082.03
690.74	1071.73
691.08	1080.39
691.41	1077.35
691.75	1081.09
692.09	1082.73
692.43	1086.48
692.76	1081.09
693.10	1089.99
693.44	1089.29
693.78	1092.56
694.11	1095.37
694.45	1095.60
694.79	1086.48
695.13	1086.71
695.46	1083.90
695.80	1073.37
696.14	1068.45
696.48	1074.07
696.81	1071.73
697.15	1061.20
697.49	1065.18
697.82	1072.20
698.16	1065.65
698.50	1061.20
698.83	1057.92
699.17	1062.84
699.51	1071.97
699.84	1076.41
700.18	1075.48
700.52	1085.07
700.85	1082.03
701.19	1072.90
701.53	1082.50
701.86	1087.88
702.20	1090.46
702.54	1089.05
702.87	1095.14
703.21	1100.05
703.55	1098.18
703.88	1091.86
704.22	1100.52
704.55	1094.67
704.89	1085.31
705.23	1075.71
705.56	1079.22
705.90	1065.41
706.23	1072.67
706.57	1068.92
706.91	1084.84
707.24	1085.07
707.58	1091.16
707.91	1085.77
708.25	1093.03
708.58	1087.88
708.92	1084.14
709.26	1087.18
709.59	1080.86
709.93	1069.86
710.26	1069.62
710.60	1074.07
710.93	1078.05
711.27	1079.92
711.60	1081.56
711.94	1092.09
712.27	1088.82
712.61	1077.58
712.94	1086.71
713.28	1083.43
713.61	1072.43
713.95	1075.24
714.28	1079.69
714.62	1071.26
714.95	1075.01
715.29	1073.14
715.62	1067.28
715.96	1066.11
716.29	1055.58
716.63	1058.39
716.96	1067.28
717.29	1069.62
717.63	1070.56
717.96	1083.43
718.30	1076.88
718.63	1065.18
718.97	1074.54
719.30	1082.03
719.63	1076.18
719.97	1085.07
720.30	1084.14
720.64	1075.48
720.97	1074.07
721.30	1077.58
721.64	1075.24
721.97	1082.50
722.31	1084.84
722.64	1081.80
722.97	1073.84
723.31	1067.52
723.64	1062.84
723.97	1060.73
724.31	1067.05
724.64	1081.33
724.98	1084.37
725.31	1091.16
725.64	1088.82
725.98	1079.22
726.31	1072.67
726.64	1084.84
726.97	1086.48
727.31	1090.69
727.64	1084.14
727.97	1088.35
728.31	1078.28
728.64	1079.92
728.97	1083.90
729.31	1094.90
729.64	1095.84
729.97	1095.14
730.30	1093.26
730.64	1081.56
730.97	1088.12
731.30	1084.60
731.63	1085.54
731.97	1083.67
732.30	1095.37
732.63	1091.16
732.96	1089.29
733.30	1092.56
733.63	1088.58
733.96	1083.20
734.29	1082.26
734.63	1080.86
734.96	1081.56
735.29	1081.09
735.62	1072.67
735.95	1070.09
736.29	1079.69
736.62	1076.18
736.95	1072.43
737.28	1072.20
737.61	1075.71
737.94	1059.33
738.28	1058.39
738.61	1063.77
738.94	1066.11
739.27	1065.88
739.60	1076.18
739.93	1074.54
740.27	1076.18
740.60	1082.50
740.93	1072.90
741.26	1076.18
741.59	1085.77
741.92	1082.97
742.25	1081.33
742.58	1097.71
742.91	1096.78
743.25	1086.01
743.58	1086.94
743.91	1085.54
744.24	1070.56
744.57	1072.90
744.90	1085.07
745.23	1086.71
745.56	1089.52
745.89	1090.46
746.22	1087.65
746.55	1075.71
746.88	1073.84
747.21	1072.90
747.54	1075.01
747.87	1072.43
748.20	1076.41
748.53	1072.90
748.87	1073.84
749.20	1074.31
749.53	1078.05
749.86	1076.18
750.19	1079.22
750.52	1082.73
750.85	1087.18
751.18	1082.03
751.51	1087.88
751.84	1077.35
752.16	1072.43
752.49	1070.33
752.82	1072.90
753.15	1064.24
753.48	1086.48
753.81	1085.07
754.14	1085.31
754.47	1083.90
754.80	1093.03
755.13	1081.33
755.46	1082.03
755.79	1083.20
756.12	1079.92
756.45	1071.26
756.78	1072.67
757.11	1074.07
757.43	1065.88
757.76	1064.48
758.09	1068.22
758.42	1078.28
758.75	1076.65
759.08	1088.12
759.41	1091.16
759.74	1093.26
760.07	1080.63
760.39	1086.71
760.72	1081.56
761.05	1086.71
761.38	1093.73
761.71	1094.90
762.04	1084.84
762.36	1086.71
762.69	1080.63
763.02	1070.09
763.35	1069.62
763.68	1083.20
764.01	1082.97
764.33	1070.80
764.66	1076.88
764.99	1075.01
765.32	1072.20
765.65	1074.07
765.97	1093.97
766.30	1089.52
