SpectraSuite Data File
++++++++++++++++++++++++++++++++++++
Date: Mon Aug 26 10:25:50 PDT 2019
User: corrico
Dark Spectrum Present: No
Reference Spectrum Present: No
Number of Sampled Component Spectra: 1
Spectrometers: USB2+H06089
Integration Time (usec): 10000 (USB2+H06089)
Spectra Averaged: 2 (USB2+H06089)
Boxcar Smoothing: 2 (USB2+H06089)
Correct for Electrical Dark: No (USB2+H06089)
Strobe/Lamp Enabled: No (USB2+H06089)
Correct for Detector Non-linearity: No (USB2+H06089)
Correct for Stray Light: No (USB2+H06089)
Number of Pixels in Processed Spectrum: 2048
>>>>>Begin Processed Spectral Data<<<<<
339.70	1019.30
340.07	1019.30
340.45	992.62
340.82	971.32
341.19	958.22
341.57	938.09
341.94	922.87
342.31	917.96
342.69	922.41
343.06	911.87
343.43	915.62
343.81	918.19
344.18	920.53
344.55	920.77
344.93	929.89
345.30	936.68
345.67	929.19
346.04	933.64
346.42	943.47
346.79	946.28
347.16	947.68
347.54	968.51
347.91	972.26
348.28	980.92
348.65	980.68
349.03	985.13
349.40	991.45
349.77	1006.66
350.14	998.47
350.52	1012.28
350.89	1010.41
351.26	1011.58
351.63	1014.39
352.01	1033.11
352.38	1034.75
352.75	1047.16
353.12	1056.75
353.50	1069.16
353.87	1069.62
354.24	1073.60
354.61	1077.11
354.98	1086.01
355.36	1089.52
355.73	1092.33
356.10	1090.69
356.47	1089.99
356.84	1081.80
357.22	1082.26
357.59	1080.86
357.96	1098.18
358.33	1090.92
358.70	1097.71
359.08	1089.99
359.45	1088.82
359.82	1078.28
360.19	1091.39
360.56	1082.03
360.94	1076.65
361.31	1071.50
361.68	1069.16
362.05	1062.60
362.42	1075.94
362.79	1077.58
363.16	1082.26
363.54	1081.09
363.91	1081.33
364.28	1060.26
364.65	1054.88
365.02	1050.20
365.39	1051.37
365.76	1051.13
366.14	1065.41
366.51	1074.77
366.88	1083.67
367.25	1073.84
367.62	1084.37
367.99	1091.16
368.36	1083.20
368.73	1086.24
369.10	1098.65
369.48	1094.20
369.85	1081.33
370.22	1081.33
370.59	1076.41
370.96	1076.88
371.33	1057.69
371.70	1061.20
372.07	1068.92
372.44	1063.07
372.81	1062.84
373.18	1070.56
373.55	1068.45
373.93	1064.01
374.30	1060.96
374.67	1060.03
375.04	1068.69
375.41	1070.80
375.78	1069.39
376.15	1070.56
376.52	1066.35
376.89	1068.45
377.26	1072.43
377.63	1069.39
378.00	1072.20
378.37	1079.46
378.74	1075.71
379.11	1063.77
379.48	1063.07
379.85	1065.18
380.22	1061.67
380.59	1067.28
380.96	1064.71
381.33	1069.62
381.70	1061.90
382.07	1064.48
382.44	1054.41
382.81	1060.26
383.18	1056.05
383.55	1059.33
383.92	1052.77
384.29	1059.79
384.66	1060.50
385.03	1059.33
385.40	1055.11
385.77	1057.92
386.14	1069.16
386.51	1072.20
386.88	1073.14
387.25	1078.28
387.62	1078.75
387.99	1064.01
388.36	1062.14
388.73	1059.09
389.10	1059.79
389.46	1054.88
389.83	1065.18
390.20	1066.35
390.57	1069.62
390.94	1071.97
391.31	1079.69
391.68	1074.54
392.05	1074.77
392.42	1082.26
392.79	1078.05
393.16	1076.65
393.53	1073.60
393.89	1073.60
394.26	1066.11
394.63	1070.33
395.00	1058.39
395.37	1056.75
395.74	1064.24
396.11	1063.31
396.48	1066.82
396.84	1075.71
397.21	1076.65
397.58	1069.39
397.95	1070.33
398.32	1066.58
398.69	1065.88
399.06	1064.24
399.42	1067.52
399.79	1070.80
400.16	1069.86
400.53	1080.16
400.90	1082.50
401.27	1080.63
401.64	1080.16
402.00	1090.22
402.37	1082.73
402.74	1079.92
403.11	1079.92
403.48	1078.99
403.84	1070.80
404.21	1065.18
404.58	1063.31
404.95	1071.26
405.32	1070.09
405.68	1068.45
406.05	1068.45
406.42	1075.48
406.79	1064.94
407.16	1064.24
407.52	1064.71
407.89	1070.09
408.26	1078.05
408.63	1096.31
408.99	1098.65
409.36	1092.56
409.73	1088.35
410.10	1081.09
410.47	1070.33
410.83	1076.41
411.20	1078.75
411.57	1078.99
411.94	1074.77
412.30	1066.82
412.67	1064.48
413.04	1067.99
413.40	1076.65
413.77	1076.41
414.14	1070.56
414.51	1074.54
414.87	1067.05
415.24	1060.50
415.61	1064.48
415.97	1069.62
416.34	1062.37
416.71	1073.60
417.08	1077.82
417.44	1077.82
417.81	1075.71
418.18	1077.35
418.54	1072.67
418.91	1075.01
419.28	1077.35
419.64	1086.48
420.01	1089.05
420.38	1095.37
420.74	1083.90
421.11	1080.16
421.48	1074.54
421.84	1083.90
422.21	1076.65
422.58	1089.29
422.94	1080.16
423.31	1087.18
423.68	1080.63
424.04	1093.50
424.41	1092.80
424.77	1103.80
425.14	1094.43
425.51	1090.69
425.87	1079.69
426.24	1084.84
426.61	1076.65
426.97	1081.56
427.34	1081.80
427.70	1077.11
428.07	1064.48
428.44	1071.03
428.80	1069.39
429.17	1071.97
429.53	1083.67
429.90	1088.35
430.27	1085.54
430.63	1092.80
431.00	1092.56
431.36	1080.63
431.73	1073.84
432.09	1081.33
432.46	1076.65
432.83	1067.28
433.19	1085.54
433.56	1090.92
433.92	1084.84
434.29	1096.31
434.65	1097.24
435.02	1086.24
435.38	1081.80
435.75	1081.80
436.11	1069.62
436.48	1071.03
436.84	1064.01
437.21	1066.11
437.57	1071.26
437.94	1064.71
438.30	1062.60
438.67	1067.52
439.03	1063.54
439.40	1056.52
439.76	1070.09
440.13	1066.82
440.49	1070.09
440.86	1083.43
441.22	1085.07
441.59	1078.75
441.95	1092.09
442.32	1095.84
442.68	1093.73
443.05	1091.39
443.41	1087.41
443.78	1087.88
444.14	1081.33
444.51	1075.01
444.87	1078.75
445.24	1081.09
445.60	1075.94
445.96	1070.09
446.33	1065.88
446.69	1066.35
447.06	1071.03
447.42	1074.54
447.79	1080.63
448.15	1078.52
448.51	1071.97
448.88	1066.82
449.24	1072.90
449.61	1071.73
449.97	1075.71
450.33	1078.05
450.70	1083.67
451.06	1081.33
451.43	1081.56
451.79	1076.88
452.15	1071.97
452.52	1066.11
452.88	1060.73
453.24	1065.65
453.61	1070.33
453.97	1075.94
454.34	1072.67
454.70	1072.20
455.06	1068.92
455.43	1076.88
455.79	1080.39
456.15	1081.09
456.52	1086.94
456.88	1073.14
457.24	1058.16
457.61	1052.07
457.97	1055.11
458.33	1047.86
458.70	1054.18
459.06	1075.01
459.42	1078.52
459.79	1083.90
460.15	1086.71
460.51	1087.41
460.88	1078.05
461.24	1077.82
461.60	1076.18
461.96	1078.28
462.33	1077.58
462.69	1071.73
463.05	1071.26
463.42	1068.69
463.78	1063.54
464.14	1081.33
464.50	1101.69
464.87	1106.14
465.23	1106.37
465.59	1111.75
465.95	1104.26
466.32	1083.67
466.68	1081.09
467.04	1084.60
467.40	1084.37
467.77	1081.33
468.13	1093.73
468.49	1088.35
468.85	1089.99
469.22	1093.26
469.58	1092.56
469.94	1078.99
470.30	1082.50
470.66	1070.09
471.03	1060.96
471.39	1062.84
471.75	1066.35
472.11	1064.71
472.47	1068.92
472.84	1073.37
473.20	1077.35
473.56	1077.82
473.92	1074.07
474.28	1077.11
474.65	1073.84
475.01	1077.11
475.37	1084.60
475.73	1087.65
476.09	1075.94
476.45	1081.09
476.81	1076.65
477.18	1076.41
477.54	1089.99
477.90	1100.05
478.26	1092.56
478.62	1089.29
478.98	1085.77
479.34	1081.80
479.71	1078.99
480.07	1087.88
480.43	1087.88
480.79	1089.52
481.15	1080.16
481.51	1080.39
481.87	1074.54
482.23	1075.01
482.59	1074.07
482.96	1079.69
483.32	1086.48
483.68	1081.33
484.04	1075.94
484.40	1076.41
484.76	1079.46
485.12	1076.88
485.48	1081.09
485.84	1079.69
486.20	1074.07
486.56	1067.52
486.92	1063.77
487.28	1061.90
487.64	1064.01
488.00	1060.03
488.37	1064.48
488.73	1066.82
489.09	1070.09
489.45	1073.60
489.81	1081.33
490.17	1084.37
490.53	1084.60
490.89	1085.31
491.25	1083.43
491.61	1080.63
491.97	1074.31
492.33	1075.48
492.69	1076.65
493.05	1079.69
493.41	1085.77
493.77	1086.94
494.13	1089.29
494.49	1085.07
494.85	1082.97
495.21	1070.09
495.57	1064.94
495.93	1062.37
496.29	1059.09
496.64	1052.30
497.00	1062.60
497.36	1075.94
497.72	1072.90
498.08	1075.94
498.44	1079.46
498.80	1074.54
499.16	1060.73
499.52	1069.86
499.88	1073.14
500.24	1077.35
500.60	1078.99
500.96	1087.88
501.32	1084.60
501.68	1089.05
502.03	1083.43
502.39	1080.16
502.75	1081.56
503.11	1082.97
503.47	1079.46
503.83	1089.99
504.19	1093.26
504.55	1083.90
504.91	1080.86
505.26	1079.46
505.62	1081.33
505.98	1083.43
506.34	1086.24
506.70	1083.90
507.06	1077.11
507.42	1076.65
507.78	1067.75
508.13	1077.82
508.49	1083.67
508.85	1097.71
509.21	1079.46
509.57	1085.07
509.93	1074.77
510.28	1076.18
510.64	1068.92
511.00	1069.16
511.36	1077.58
511.72	1082.03
512.07	1074.77
512.43	1066.58
512.79	1076.18
513.15	1078.05
513.51	1078.99
513.86	1079.69
514.22	1085.54
514.58	1079.46
514.94	1071.26
515.30	1066.35
515.65	1064.01
516.01	1060.50
516.37	1059.56
516.73	1054.88
517.08	1055.82
517.44	1056.75
517.80	1066.58
518.16	1084.14
518.51	1086.48
518.87	1099.12
519.23	1106.61
519.59	1102.63
519.94	1094.67
520.30	1105.67
520.66	1090.46
521.01	1086.48
521.37	1087.41
521.73	1077.11
522.09	1072.90
522.44	1075.48
522.80	1073.14
523.16	1069.39
523.51	1077.35
523.87	1080.63
524.23	1083.67
524.58	1082.50
524.94	1085.54
525.30	1084.60
525.65	1081.09
526.01	1073.84
526.37	1076.65
526.72	1086.24
527.08	1094.43
527.44	1091.16
527.79	1095.60
528.15	1097.01
528.51	1089.29
528.86	1094.90
529.22	1100.52
529.58	1106.61
529.93	1105.90
530.29	1101.22
530.65	1083.20
531.00	1075.01
531.36	1062.84
531.71	1061.67
532.07	1071.26
532.43	1081.80
532.78	1089.52
533.14	1093.73
533.49	1092.09
533.85	1092.33
534.21	1085.54
534.56	1078.52
534.92	1087.41
535.27	1085.77
535.63	1085.07
535.98	1083.20
536.34	1076.41
536.69	1072.43
537.05	1073.84
537.41	1067.05
537.76	1079.46
538.12	1093.73
538.47	1093.03
538.83	1100.52
539.18	1107.78
539.54	1103.33
539.89	1101.69
540.25	1093.03
540.60	1091.16
540.96	1089.52
541.31	1090.46
541.67	1083.20
542.02	1086.48
542.38	1092.33
542.73	1093.03
543.09	1087.65
543.44	1093.73
543.80	1104.03
544.15	1099.58
544.51	1099.35
544.86	1100.29
545.22	1099.82
545.57	1103.80
545.93	1095.84
546.28	1092.80
546.64	1099.58
546.99	1099.82
547.35	1091.16
547.70	1094.43
548.05	1094.67
548.41	1090.92
548.76	1094.67
549.12	1093.50
549.47	1092.80
549.83	1091.39
550.18	1089.75
550.53	1082.50
550.89	1074.31
551.24	1071.97
551.60	1069.39
551.95	1072.67
552.30	1068.69
552.66	1075.24
553.01	1082.97
553.37	1088.35
553.72	1094.67
554.07	1103.09
554.43	1102.86
554.78	1100.05
555.13	1103.33
555.49	1089.52
555.84	1084.84
556.19	1099.12
556.55	1100.05
556.90	1089.75
557.26	1093.50
557.61	1098.18
557.96	1086.48
558.32	1079.22
558.67	1075.48
559.02	1079.92
559.37	1065.41
559.73	1069.86
560.08	1075.94
560.43	1077.82
560.79	1075.48
561.14	1089.52
561.49	1077.11
561.85	1067.75
562.20	1072.43
562.55	1070.56
562.90	1066.82
563.26	1069.62
563.61	1068.22
563.96	1064.94
564.32	1060.50
564.67	1064.01
565.02	1064.48
565.37	1073.60
565.73	1074.77
566.08	1074.54
566.43	1069.86
566.78	1072.43
567.14	1072.20
567.49	1074.31
567.84	1074.07
568.19	1076.88
568.54	1080.16
568.90	1072.90
569.25	1072.43
569.60	1073.14
569.95	1071.97
570.31	1062.37
570.66	1059.79
571.01	1060.73
571.36	1064.94
571.71	1075.48
572.06	1076.18
572.42	1085.31
572.77	1089.05
573.12	1080.63
573.47	1066.11
573.82	1063.31
574.18	1067.75
574.53	1059.33
574.88	1067.05
575.23	1064.94
575.58	1070.33
575.93	1074.07
576.28	1081.56
576.64	1079.46
576.99	1086.94
577.34	1093.03
577.69	1075.01
578.04	1079.92
578.39	1081.56
578.74	1082.03
579.09	1079.22
579.44	1086.71
579.80	1075.71
580.15	1071.97
580.50	1083.20
580.85	1088.82
581.20	1093.03
581.55	1098.65
581.90	1106.14
582.25	1102.16
582.60	1100.29
582.95	1096.07
583.30	1091.63
583.65	1092.56
584.00	1084.60
584.35	1080.39
584.71	1086.71
585.06	1096.07
585.41	1098.65
585.76	1096.78
586.11	1103.09
586.46	1102.63
586.81	1094.43
587.16	1086.48
587.51	1089.05
587.86	1085.54
588.21	1084.60
588.56	1086.94
588.91	1079.92
589.26	1075.24
589.61	1077.11
589.96	1075.94
590.31	1075.48
590.66	1079.46
591.01	1085.07
591.36	1087.41
591.71	1079.69
592.06	1077.11
592.41	1079.92
592.76	1070.09
593.10	1056.28
593.45	1067.05
593.80	1061.67
594.15	1064.71
594.50	1069.39
594.85	1080.16
595.20	1081.80
595.55	1089.05
595.90	1089.05
596.25	1085.54
596.60	1086.01
596.95	1076.65
597.30	1078.05
597.64	1124.39
597.99	1134.22
598.34	1132.82
598.69	1137.50
599.04	1134.22
599.39	1077.82
599.74	1075.48
600.09	1068.45
600.44	1069.16
600.78	1071.73
601.13	1074.07
601.48	1063.54
601.83	1060.73
602.18	1072.43
602.53	1069.86
602.88	1080.63
603.22	1088.82
603.57	1098.88
603.92	1087.88
604.27	1090.69
604.62	1092.80
604.97	1085.07
605.31	1083.67
605.66	1079.69
606.01	1083.20
606.36	1081.56
606.71	1097.95
607.05	1095.37
607.40	1097.01
607.75	1090.69
608.10	1083.43
608.44	1078.05
608.79	1076.41
609.14	1081.09
609.49	1080.86
609.84	1079.46
610.18	1090.46
610.53	1092.56
610.88	1092.56
611.23	1106.61
611.57	1115.97
611.92	1097.95
612.27	1105.67
612.62	1094.43
612.96	1066.58
613.31	1060.26
613.66	1069.16
614.00	1061.20
614.35	1065.88
614.70	1081.33
615.05	1088.35
615.39	1087.65
615.74	1080.39
616.09	1081.56
616.43	1081.33
616.78	1075.94
617.13	1067.75
617.47	1064.01
617.82	1063.31
618.17	1065.41
618.51	1065.41
618.86	1070.09
619.21	1087.65
619.55	1084.37
619.90	1085.07
620.25	1088.35
620.59	1086.94
620.94	1079.69
621.29	1086.24
621.63	1076.18
621.98	1068.45
622.32	1064.48
622.67	1063.31
623.02	1058.16
623.36	1057.45
623.71	1057.22
624.05	1070.33
624.40	1082.97
624.75	1087.65
625.09	1094.90
625.44	1100.75
625.78	1098.41
626.13	1092.09
626.48	1093.03
626.82	1087.88
627.17	1083.90
627.51	1083.43
627.86	1084.14
628.20	1086.24
628.55	1095.14
628.89	1096.78
629.24	1097.24
629.58	1089.29
629.93	1084.37
630.28	1081.56
630.62	1073.14
630.97	1062.84
631.31	1072.67
631.66	1069.86
632.00	1075.71
632.35	1081.56
632.69	1091.39
633.04	1086.24
633.38	1094.67
633.73	1097.24
634.07	1080.63
634.42	1075.48
634.76	1078.99
635.11	1077.82
635.45	1067.52
635.79	1086.94
636.14	1083.43
636.48	1076.65
636.83	1082.03
637.17	1077.35
637.52	1069.39
637.86	1074.77
638.21	1078.75
638.55	1075.48
638.89	1075.94
639.24	1086.01
639.58	1089.29
639.93	1088.58
640.27	1081.33
640.61	1092.80
640.96	1087.88
641.30	1076.41
641.65	1078.05
641.99	1070.56
642.33	1062.14
642.68	1062.14
643.02	1063.54
643.37	1063.07
643.71	1073.14
644.05	1075.01
644.40	1073.37
644.74	1082.03
645.08	1084.14
645.43	1082.26
645.77	1082.03
646.11	1085.31
646.46	1079.22
646.80	1071.73
647.14	1065.18
647.49	1066.35
647.83	1075.94
648.17	1077.82
648.52	1080.63
648.86	1083.67
649.20	1082.03
649.55	1075.71
649.89	1077.35
650.23	1072.67
650.57	1067.75
650.92	1071.97
651.26	1076.41
651.60	1076.18
651.95	1090.69
652.29	1097.24
652.63	1096.78
652.97	1085.31
653.32	1077.11
653.66	1070.56
654.00	1070.09
654.34	1063.54
654.69	1065.65
655.03	1071.26
655.37	1061.90
655.71	1059.33
656.05	1058.16
656.40	1067.99
656.74	1059.56
657.08	1058.86
657.42	1065.18
657.76	1068.45
658.11	1062.84
658.45	1071.03
658.79	1078.99
659.13	1081.09
659.47	1074.31
659.82	1073.37
660.16	1082.97
660.50	1079.69
660.84	1081.80
661.18	1096.31
661.52	1096.54
661.87	1091.86
662.21	1097.01
662.55	1097.71
662.89	1089.29
663.23	1088.82
663.57	1077.35
663.91	1074.77
664.25	1074.54
664.60	1077.82
664.94	1075.01
665.28	1087.88
665.62	1091.86
665.96	1088.82
666.30	1084.37
666.64	1087.65
666.98	1082.50
667.32	1082.26
667.66	1085.77
668.01	1086.71
668.35	1086.94
668.69	1090.46
669.03	1086.71
669.37	1083.43
669.71	1086.71
670.05	1087.88
670.39	1085.77
670.73	1092.09
671.07	1086.94
671.41	1083.90
671.75	1080.63
672.09	1073.37
672.43	1063.07
672.77	1061.43
673.11	1068.69
673.45	1070.80
673.79	1076.88
674.13	1079.22
674.47	1078.52
674.81	1077.35
675.15	1075.24
675.49	1072.43
675.83	1073.84
676.17	1068.22
676.51	1061.67
676.85	1050.43
677.19	1055.58
677.53	1059.56
677.87	1065.65
678.21	1060.96
678.55	1074.07
678.89	1074.54
679.23	1069.16
679.57	1067.52
679.90	1073.14
680.24	1074.54
680.58	1079.46
680.92	1072.90
681.26	1072.90
681.60	1071.26
681.94	1070.56
682.28	1061.20
682.62	1069.86
682.96	1083.20
683.29	1085.54
683.63	1083.90
683.97	1094.43
684.31	1102.16
684.65	1095.60
684.99	1095.84
685.33	1100.52
685.67	1086.01
686.00	1070.33
686.34	1071.73
686.68	1079.46
687.02	1075.94
687.36	1089.52
687.70	1097.24
688.03	1099.82
688.37	1097.95
688.71	1091.86
689.05	1084.14
689.39	1082.03
689.72	1074.54
690.06	1069.39
690.40	1066.35
690.74	1063.31
691.08	1067.28
691.41	1075.24
691.75	1073.60
692.09	1084.60
692.43	1089.29
692.76	1085.31
693.10	1080.39
693.44	1088.82
693.78	1089.75
694.11	1091.63
694.45	1097.24
694.79	1102.63
695.13	1108.71
695.46	1111.99
695.80	1108.95
696.14	1099.12
696.48	1089.75
696.81	1075.48
697.15	1067.52
697.49	1066.58
697.82	1074.31
698.16	1083.43
698.50	1081.80
698.83	1085.54
699.17	1092.80
699.51	1091.16
699.84	1093.73
700.18	1087.41
700.52	1098.41
700.85	1084.60
701.19	1085.07
701.53	1077.35
701.86	1086.71
702.20	1073.60
702.54	1084.37
702.87	1077.58
703.21	1081.33
703.55	1089.52
703.88	1090.92
704.22	1082.50
704.55	1088.12
704.89	1089.75
705.23	1072.67
705.56	1066.58
705.90	1070.33
706.23	1079.92
706.57	1072.90
706.91	1082.50
707.24	1077.82
707.58	1065.41
707.91	1053.94
708.25	1049.50
708.58	1043.18
708.92	1059.79
709.26	1072.90
709.59	1069.39
709.93	1078.52
710.26	1079.69
710.60	1073.14
710.93	1074.07
711.27	1075.01
711.60	1077.82
711.94	1088.82
712.27	1089.29
712.61	1083.43
712.94	1092.09
713.28	1092.33
713.61	1082.50
713.95	1076.65
714.28	1081.09
714.62	1086.71
714.95	1089.75
715.29	1093.26
715.62	1095.84
715.96	1097.71
716.29	1090.46
716.63	1083.90
716.96	1080.63
717.29	1073.14
717.63	1078.05
717.96	1071.97
718.30	1069.62
718.63	1069.86
718.97	1075.94
719.30	1070.33
719.63	1074.31
719.97	1074.31
720.30	1078.05
720.64	1079.69
720.97	1087.65
721.30	1083.43
721.64	1078.52
721.97	1068.69
722.31	1071.26
722.64	1063.31
722.97	1073.60
723.31	1084.37
723.64	1097.24
723.97	1097.01
724.31	1093.97
724.64	1091.86
724.98	1084.60
725.31	1082.50
725.64	1082.73
725.98	1080.39
726.31	1078.28
726.64	1074.31
726.97	1067.28
727.31	1067.28
727.64	1075.48
727.97	1073.14
728.31	1073.14
728.64	1077.35
728.97	1072.43
729.31	1080.39
729.64	1077.35
729.97	1077.82
730.30	1086.01
730.64	1081.56
730.97	1075.01
731.30	1079.22
731.63	1083.67
731.97	1070.09
732.30	1078.28
732.63	1076.18
732.96	1069.62
733.30	1067.28
733.63	1071.03
733.96	1063.77
734.29	1063.07
734.63	1066.11
734.96	1071.26
735.29	1075.01
735.62	1087.65
735.95	1089.05
736.29	1093.50
736.62	1093.50
736.95	1091.16
737.28	1080.39
737.61	1071.26
737.94	1074.07
738.28	1067.05
738.61	1067.99
738.94	1080.39
739.27	1091.16
739.60	1077.35
739.93	1088.35
740.27	1095.14
740.60	1083.90
740.93	1083.67
741.26	1094.90
741.59	1092.09
741.92	1089.99
742.25	1091.63
742.58	1098.88
742.91	1100.99
743.25	1094.43
743.58	1089.05
743.91	1090.22
744.24	1077.11
744.57	1070.56
744.90	1074.54
745.23	1076.88
745.56	1078.99
745.89	1082.50
746.22	1084.60
746.55	1080.63
746.88	1081.56
747.21	1078.52
747.54	1072.43
747.87	1077.58
748.20	1076.65
748.53	1064.48
748.87	1068.45
749.20	1078.52
749.53	1070.33
749.86	1081.80
750.19	1087.18
750.52	1081.56
750.85	1078.05
751.18	1081.80
751.51	1070.80
751.84	1083.20
752.16	1090.69
752.49	1092.56
752.82	1093.03
753.15	1098.18
753.48	1090.69
753.81	1074.54
754.14	1067.05
754.47	1068.45
754.80	1070.09
755.13	1071.50
755.46	1076.41
755.79	1075.71
756.12	1070.33
756.45	1068.45
756.78	1069.86
757.11	1083.90
757.43	1084.37
757.76	1085.31
758.09	1087.88
758.42	1085.07
758.75	1078.99
759.08	1079.92
759.41	1088.82
759.74	1087.41
760.07	1088.82
760.39	1088.82
760.72	1088.12
761.05	1082.97
761.38	1081.33
761.71	1084.14
762.04	1080.16
762.36	1084.14
762.69	1088.12
763.02	1086.24
763.35	1084.14
763.68	1083.90
764.01	1094.20
764.33	1090.46
764.66	1086.94
764.99	1083.20
765.32	1075.94
765.65	1060.73
765.97	1055.11
766.30	1058.86
