SpectraSuite Data File
++++++++++++++++++++++++++++++++++++
Date: Mon Aug 26 10:25:51 PDT 2019
User: corrico
Dark Spectrum Present: No
Reference Spectrum Present: No
Number of Sampled Component Spectra: 1
Spectrometers: USB2+H06089
Integration Time (usec): 10000 (USB2+H06089)
Spectra Averaged: 2 (USB2+H06089)
Boxcar Smoothing: 2 (USB2+H06089)
Correct for Electrical Dark: No (USB2+H06089)
Strobe/Lamp Enabled: No (USB2+H06089)
Correct for Detector Non-linearity: No (USB2+H06089)
Correct for Stray Light: No (USB2+H06089)
Number of Pixels in Processed Spectrum: 2048
>>>>>Begin Processed Spectral Data<<<<<
339.70	1061.43
340.07	1061.43
340.45	1022.35
340.82	993.32
341.19	967.81
341.57	929.89
341.94	918.19
342.31	903.45
342.69	898.77
343.06	892.91
343.43	895.02
343.81	887.53
344.18	893.38
344.55	900.40
344.93	897.83
345.30	905.09
345.67	923.58
346.04	923.81
346.42	918.66
346.79	926.15
347.16	927.79
347.54	938.09
347.91	954.24
348.28	970.15
348.65	979.51
349.03	998.94
349.40	997.30
349.77	1001.52
350.14	1012.05
350.52	1025.39
350.89	1031.01
351.26	1034.28
351.63	1043.41
352.01	1044.11
352.38	1048.09
352.75	1049.03
353.12	1051.84
353.50	1050.67
353.87	1056.05
354.24	1053.48
354.61	1056.28
354.98	1061.20
355.36	1064.24
355.73	1071.26
356.10	1080.86
356.47	1090.69
356.84	1097.48
357.22	1107.54
357.59	1109.18
357.96	1103.09
358.33	1092.33
358.70	1095.60
359.08	1078.99
359.45	1074.54
359.82	1075.71
360.19	1080.16
360.56	1077.11
360.94	1078.52
361.31	1077.35
361.68	1086.48
362.05	1086.94
362.42	1081.33
362.79	1086.94
363.16	1087.88
363.54	1087.88
363.91	1080.16
364.28	1073.84
364.65	1080.39
365.02	1081.33
365.39	1071.73
365.76	1079.92
366.14	1081.80
366.51	1074.77
366.88	1070.09
367.25	1071.50
367.62	1068.92
367.99	1071.97
368.36	1070.09
368.73	1062.84
369.10	1055.58
369.48	1044.11
369.85	1042.47
370.22	1038.50
370.59	1049.50
370.96	1058.16
371.33	1070.09
371.70	1063.31
372.07	1070.33
372.44	1065.88
372.81	1058.16
373.18	1046.22
373.55	1055.58
373.93	1053.71
374.30	1055.58
374.67	1057.45
375.04	1062.84
375.41	1066.35
375.78	1073.60
376.15	1072.20
376.52	1074.54
376.89	1082.97
377.26	1085.31
377.63	1081.33
378.00	1080.86
378.37	1082.26
378.74	1078.05
379.11	1080.39
379.48	1078.28
379.85	1078.52
380.22	1081.33
380.59	1072.90
380.96	1071.97
381.33	1073.14
381.70	1080.86
382.07	1082.50
382.44	1095.37
382.81	1087.65
383.18	1081.80
383.55	1060.03
383.92	1055.11
384.29	1050.90
384.66	1056.52
385.03	1060.50
385.40	1074.07
385.77	1074.54
386.14	1073.60
386.51	1064.24
386.88	1072.43
387.25	1070.09
387.62	1073.37
387.99	1067.05
388.36	1083.43
388.73	1077.58
389.10	1082.50
389.46	1079.46
389.83	1089.05
390.20	1079.92
390.57	1082.26
390.94	1086.94
391.31	1091.39
391.68	1090.69
392.05	1094.90
392.42	1090.22
392.79	1082.73
393.16	1084.14
393.53	1076.88
393.89	1069.62
394.26	1069.16
394.63	1075.71
395.00	1070.33
395.37	1078.75
395.74	1076.88
396.11	1071.26
396.48	1067.52
396.84	1066.35
397.21	1068.69
397.58	1079.92
397.95	1085.07
398.32	1091.63
398.69	1091.39
399.06	1085.54
399.42	1076.18
399.79	1081.09
400.16	1064.71
400.53	1061.67
400.90	1062.60
401.27	1057.45
401.64	1050.43
402.00	1061.43
402.37	1064.94
402.74	1068.45
403.11	1067.05
403.48	1063.07
403.84	1063.77
404.21	1054.88
404.58	1047.16
404.95	1057.22
405.32	1067.28
405.68	1073.14
406.05	1086.01
406.42	1089.05
406.79	1082.26
407.16	1075.48
407.52	1062.14
407.89	1058.16
408.26	1066.35
408.63	1079.92
408.99	1086.48
409.36	1085.54
409.73	1086.24
410.10	1070.56
410.47	1063.77
410.83	1068.22
411.20	1072.90
411.57	1065.18
411.94	1065.65
412.30	1057.69
412.67	1056.28
413.04	1063.54
413.40	1069.62
413.77	1076.18
414.14	1080.39
414.51	1075.24
414.87	1073.14
415.24	1071.26
415.61	1064.24
415.97	1061.90
416.34	1061.20
416.71	1059.56
417.08	1061.43
417.44	1077.58
417.81	1084.14
418.18	1091.63
418.54	1087.88
418.91	1092.56
419.28	1084.84
419.64	1074.07
420.01	1064.24
420.38	1068.22
420.74	1068.45
421.11	1062.60
421.48	1067.05
421.84	1071.73
422.21	1068.92
422.58	1060.50
422.94	1061.67
423.31	1076.88
423.68	1082.50
424.04	1085.77
424.41	1086.71
424.77	1088.82
425.14	1079.22
425.51	1084.60
425.87	1086.94
426.24	1092.09
426.61	1092.33
426.97	1094.90
427.34	1086.94
427.70	1081.56
428.07	1081.33
428.44	1083.90
428.80	1086.48
429.17	1074.31
429.53	1074.31
429.90	1078.52
430.27	1077.35
430.63	1063.54
431.00	1068.92
431.36	1084.14
431.73	1082.50
432.09	1075.48
432.46	1085.07
432.83	1097.48
433.19	1081.33
433.56	1089.29
433.92	1098.88
434.29	1095.60
434.65	1089.05
435.02	1097.24
435.38	1088.58
435.75	1093.26
436.11	1100.29
436.48	1097.71
436.84	1079.46
437.21	1082.03
437.57	1077.58
437.94	1075.01
438.30	1070.56
438.67	1081.56
439.03	1078.75
439.40	1076.18
439.76	1074.31
440.13	1077.11
440.49	1074.77
440.86	1066.35
441.22	1064.48
441.59	1062.37
441.95	1061.20
442.32	1075.01
442.68	1089.05
443.05	1093.73
443.41	1098.41
443.78	1110.35
444.14	1096.78
444.51	1087.41
444.87	1085.31
445.24	1072.20
445.60	1063.54
445.96	1070.56
446.33	1075.94
446.69	1080.39
447.06	1089.05
447.42	1082.26
447.79	1081.09
448.15	1079.22
448.51	1071.03
448.88	1071.03
449.24	1074.77
449.61	1062.60
449.97	1057.92
450.33	1064.01
450.70	1070.33
451.06	1078.52
451.43	1086.01
451.79	1090.92
452.15	1092.33
452.52	1085.54
452.88	1076.65
453.24	1078.52
453.61	1071.03
453.97	1068.69
454.34	1067.75
454.70	1058.62
455.06	1062.84
455.43	1073.14
455.79	1072.43
456.15	1084.37
456.52	1085.54
456.88	1074.54
457.24	1062.84
457.61	1054.65
457.97	1046.92
458.33	1061.43
458.70	1072.43
459.06	1092.56
459.42	1103.56
459.79	1093.26
460.15	1090.92
460.51	1083.67
460.88	1065.41
461.24	1059.79
461.60	1066.35
461.96	1059.79
462.33	1067.99
462.69	1071.73
463.05	1073.37
463.42	1076.65
463.78	1088.82
464.14	1092.80
464.50	1094.90
464.87	1098.88
465.23	1104.50
465.59	1101.92
465.95	1085.77
466.32	1079.46
466.68	1075.94
467.04	1067.99
467.40	1057.22
467.77	1062.37
468.13	1064.71
468.49	1061.20
468.85	1056.75
469.22	1069.16
469.58	1071.97
469.94	1073.84
470.30	1081.33
470.66	1085.31
471.03	1077.82
471.39	1074.07
471.75	1077.58
472.11	1078.28
472.47	1073.84
472.84	1070.33
473.20	1069.62
473.56	1067.05
473.92	1070.33
474.28	1083.20
474.65	1090.22
475.01	1089.99
475.37	1089.99
475.73	1081.33
476.09	1073.37
476.45	1065.65
476.81	1069.86
477.18	1063.07
477.54	1060.73
477.90	1062.84
478.26	1075.01
478.62	1073.84
478.98	1079.92
479.34	1082.97
479.71	1088.58
480.07	1086.94
480.43	1088.82
480.79	1090.22
481.15	1092.56
481.51	1093.97
481.87	1083.67
482.23	1081.80
482.59	1085.31
482.96	1086.94
483.32	1083.90
483.68	1091.86
484.04	1090.92
484.40	1082.73
484.76	1079.46
485.12	1068.92
485.48	1068.69
485.84	1072.67
486.20	1075.24
486.56	1069.62
486.92	1074.54
487.28	1076.65
487.64	1074.07
488.00	1078.05
488.37	1081.09
488.73	1081.80
489.09	1084.84
489.45	1087.18
489.81	1083.67
490.17	1077.82
490.53	1080.16
490.89	1077.11
491.25	1090.46
491.61	1093.97
491.97	1101.46
492.33	1103.09
492.69	1108.95
493.05	1092.56
493.41	1091.16
493.77	1095.37
494.13	1088.12
494.49	1079.92
494.85	1084.37
495.21	1078.52
495.57	1080.86
495.93	1087.88
496.29	1078.05
496.64	1071.50
497.00	1076.65
497.36	1076.88
497.72	1065.88
498.08	1074.07
498.44	1085.77
498.80	1090.46
499.16	1086.01
499.52	1093.26
499.88	1091.86
500.24	1084.60
500.60	1085.54
500.96	1090.46
501.32	1090.22
501.68	1089.52
502.03	1096.31
502.39	1099.35
502.75	1090.46
503.11	1091.86
503.47	1103.09
503.83	1097.95
504.19	1091.63
504.55	1089.75
504.91	1090.92
505.26	1084.14
505.62	1087.65
505.98	1092.33
506.34	1100.99
506.70	1096.31
507.06	1101.46
507.42	1097.48
507.78	1089.75
508.13	1085.31
508.49	1088.35
508.85	1083.20
509.21	1094.67
509.57	1095.60
509.93	1097.24
510.28	1092.80
510.64	1092.56
511.00	1079.46
511.36	1086.48
511.72	1085.07
512.07	1099.12
512.43	1099.58
512.79	1104.50
513.15	1099.82
513.51	1105.44
513.86	1092.56
514.22	1082.50
514.58	1074.77
514.94	1086.01
515.30	1078.99
515.65	1081.80
516.01	1095.60
516.37	1106.61
516.73	1095.37
517.08	1102.16
517.44	1105.90
517.80	1102.39
518.16	1095.84
518.51	1089.29
518.87	1089.75
519.23	1081.33
519.59	1070.80
519.94	1071.26
520.30	1081.56
520.66	1076.88
521.01	1081.33
521.37	1087.18
521.73	1088.12
522.09	1092.80
522.44	1096.07
522.80	1098.41
523.16	1100.52
523.51	1101.22
523.87	1095.84
524.23	1089.29
524.58	1090.69
524.94	1095.60
525.30	1098.65
525.65	1095.37
526.01	1098.18
526.37	1098.41
526.72	1095.37
527.08	1091.86
527.44	1095.14
527.79	1099.58
528.15	1097.01
528.51	1098.88
528.86	1092.09
529.22	1086.71
529.58	1087.41
529.93	1088.35
530.29	1085.54
530.65	1097.95
531.00	1096.31
531.36	1090.22
531.71	1089.52
532.07	1086.94
532.43	1076.65
532.78	1078.28
533.14	1079.69
533.49	1082.03
533.85	1087.18
534.21	1096.07
534.56	1093.73
534.92	1098.41
535.27	1090.22
535.63	1083.67
535.98	1084.37
536.34	1089.99
536.69	1085.07
537.05	1086.48
537.41	1087.88
537.76	1085.31
538.12	1088.12
538.47	1087.41
538.83	1096.78
539.18	1096.78
539.54	1090.22
539.89	1076.65
540.25	1077.35
540.60	1068.45
540.96	1066.82
541.31	1066.82
541.67	1085.07
542.02	1083.67
542.38	1086.94
542.73	1088.58
543.09	1092.09
543.44	1077.82
543.80	1069.16
544.15	1070.56
544.51	1072.90
544.86	1069.39
545.22	1064.94
545.57	1076.65
545.93	1072.20
546.28	1064.01
546.64	1063.77
546.99	1070.80
547.35	1077.11
547.70	1077.35
548.05	1091.39
548.41	1096.07
548.76	1097.01
549.12	1090.22
549.47	1098.41
549.83	1093.73
550.18	1095.37
550.53	1093.26
550.89	1096.54
551.24	1088.35
551.60	1094.20
551.95	1086.71
552.30	1087.88
552.66	1089.29
553.01	1091.16
553.37	1089.29
553.72	1089.99
554.07	1088.35
554.43	1094.90
554.78	1094.90
555.13	1082.97
555.49	1079.92
555.84	1091.39
556.19	1078.99
556.55	1071.97
556.90	1077.58
557.26	1091.16
557.61	1079.46
557.96	1076.18
558.32	1087.41
558.67	1092.80
559.02	1075.24
559.37	1073.37
559.73	1082.03
560.08	1077.82
560.43	1074.54
560.79	1082.97
561.14	1091.63
561.49	1091.39
561.85	1087.88
562.20	1083.20
562.55	1083.43
562.90	1083.67
563.26	1076.41
563.61	1080.39
563.96	1075.71
564.32	1076.65
564.67	1073.60
565.02	1070.09
565.37	1070.33
565.73	1077.11
566.08	1082.50
566.43	1088.82
566.78	1090.69
567.14	1083.43
567.49	1077.58
567.84	1062.14
568.19	1055.58
568.54	1061.90
568.90	1060.50
569.25	1064.94
569.60	1078.99
569.95	1070.09
570.31	1069.16
570.66	1069.16
571.01	1059.79
571.36	1058.39
571.71	1070.33
572.06	1083.90
572.42	1093.97
572.77	1107.78
573.12	1104.03
573.47	1098.41
573.82	1077.58
574.18	1072.20
574.53	1065.88
574.88	1060.73
575.23	1062.84
575.58	1060.73
575.93	1066.11
576.28	1074.07
576.64	1078.99
576.99	1069.62
577.34	1075.71
577.69	1070.09
578.04	1060.26
578.39	1057.69
578.74	1061.67
579.09	1056.52
579.44	1067.28
579.80	1071.50
580.15	1075.94
580.50	1083.90
580.85	1094.20
581.20	1076.88
581.55	1072.90
581.90	1080.16
582.25	1088.12
582.60	1097.71
582.95	1108.48
583.30	1113.86
583.65	1096.31
584.00	1080.39
584.35	1064.71
584.71	1058.86
585.06	1065.88
585.41	1069.62
585.76	1078.75
586.11	1070.56
586.46	1075.48
586.81	1075.01
587.16	1073.14
587.51	1082.26
587.86	1100.29
588.21	1104.97
588.56	1099.12
588.91	1109.88
589.26	1097.48
589.61	1089.52
589.96	1080.16
590.31	1076.41
590.66	1068.92
591.01	1073.14
591.36	1074.31
591.71	1074.31
592.06	1074.31
592.41	1078.52
592.76	1072.67
593.10	1077.58
593.45	1085.77
593.80	1098.18
594.15	1094.20
594.50	1099.12
594.85	1092.56
595.20	1089.29
595.55	1085.31
595.90	1093.50
596.25	1094.43
596.60	1093.97
596.95	1091.16
597.30	1082.03
597.64	1129.78
597.99	1137.03
598.34	1135.39
598.69	1138.90
599.04	1154.12
599.39	1106.14
599.74	1093.50
600.09	1109.88
600.44	1108.24
600.78	1093.50
601.13	1093.73
601.48	1100.52
601.83	1082.50
602.18	1091.16
602.53	1096.54
602.88	1103.09
603.22	1106.14
603.57	1113.63
603.92	1097.01
604.27	1095.14
604.62	1081.56
604.97	1074.07
605.31	1069.39
605.66	1072.20
606.01	1078.28
606.36	1079.69
606.71	1067.99
607.05	1064.01
607.40	1069.62
607.75	1067.99
608.10	1071.03
608.44	1085.07
608.79	1097.48
609.14	1095.37
609.49	1089.52
609.84	1084.37
610.18	1085.77
610.53	1079.46
610.88	1083.20
611.23	1084.84
611.57	1087.41
611.92	1089.52
612.27	1095.84
612.62	1097.24
612.96	1089.52
613.31	1100.99
613.66	1091.63
614.00	1084.60
614.35	1077.35
614.70	1079.69
615.05	1073.84
615.39	1078.99
615.74	1084.84
616.09	1095.60
616.43	1099.35
616.78	1081.09
617.13	1074.31
617.47	1059.09
617.82	1044.11
618.17	1046.92
618.51	1055.35
618.86	1056.52
619.21	1060.26
619.55	1063.31
619.90	1060.26
620.25	1067.99
620.59	1068.22
620.94	1071.50
621.29	1075.48
621.63	1079.69
621.98	1076.41
622.32	1089.29
622.67	1097.48
623.02	1102.63
623.36	1096.31
623.71	1096.78
624.05	1086.48
624.40	1077.82
624.75	1074.77
625.09	1076.18
625.44	1084.14
625.78	1085.77
626.13	1087.18
626.48	1093.26
626.82	1096.78
627.17	1089.99
627.51	1087.65
627.86	1094.43
628.20	1084.14
628.55	1084.84
628.89	1089.99
629.24	1096.78
629.58	1093.26
629.93	1104.03
630.28	1103.09
630.62	1105.67
630.97	1097.95
631.31	1095.37
631.66	1091.86
632.00	1093.03
632.35	1080.86
632.69	1092.33
633.04	1091.86
633.38	1085.31
633.73	1080.39
634.07	1077.35
634.42	1064.48
634.76	1072.20
635.11	1068.69
635.45	1070.33
635.79	1073.37
636.14	1082.50
636.48	1076.41
636.83	1089.75
637.17	1097.71
637.52	1103.56
637.86	1096.31
638.21	1101.92
638.55	1095.37
638.89	1089.52
639.24	1085.54
639.58	1089.05
639.93	1081.80
640.27	1079.92
640.61	1083.67
640.96	1080.86
641.30	1086.24
641.65	1086.24
641.99	1090.69
642.33	1092.33
642.68	1102.39
643.02	1093.26
643.37	1099.82
643.71	1104.03
644.05	1100.75
644.40	1095.60
644.74	1094.90
645.08	1091.63
645.43	1085.77
645.77	1086.01
646.11	1081.80
646.46	1077.58
646.80	1074.77
647.14	1065.65
647.49	1063.31
647.83	1071.50
648.17	1068.22
648.52	1066.35
648.86	1069.16
649.20	1072.20
649.55	1072.20
649.89	1079.46
650.23	1090.46
650.57	1102.16
650.92	1098.88
651.26	1098.18
651.60	1095.14
651.95	1086.24
652.29	1083.67
652.63	1083.67
652.97	1078.05
653.32	1086.94
653.66	1089.99
654.00	1081.56
654.34	1086.24
654.69	1082.50
655.03	1069.62
655.37	1065.41
655.71	1068.69
656.05	1056.75
656.40	1060.50
656.74	1071.26
657.08	1069.86
657.42	1067.52
657.76	1077.35
658.11	1079.92
658.45	1083.43
658.79	1091.63
659.13	1093.73
659.47	1093.97
659.82	1098.65
660.16	1086.24
660.50	1082.73
660.84	1086.71
661.18	1087.41
661.52	1086.94
661.87	1095.60
662.21	1099.12
662.55	1088.35
662.89	1078.99
663.23	1074.07
663.57	1071.73
663.91	1067.75
664.25	1066.58
664.60	1067.99
664.94	1065.88
665.28	1068.45
665.62	1072.67
665.96	1079.22
666.30	1090.46
666.64	1097.01
666.98	1089.05
667.32	1071.73
667.66	1080.63
668.01	1081.33
668.35	1077.58
668.69	1081.80
669.03	1097.95
669.37	1090.69
669.71	1079.22
670.05	1074.54
670.39	1070.09
670.73	1063.07
671.07	1063.31
671.41	1069.86
671.75	1082.97
672.09	1089.29
672.43	1091.39
672.77	1090.46
673.11	1087.41
673.45	1092.09
673.79	1093.97
674.13	1098.65
674.47	1099.82
674.81	1109.41
675.15	1104.97
675.49	1100.75
675.83	1094.20
676.17	1090.46
676.51	1090.92
676.85	1080.39
677.19	1082.26
677.53	1084.37
677.87	1093.03
678.21	1076.65
678.55	1078.75
678.89	1073.60
679.23	1076.65
679.57	1072.90
679.90	1084.37
680.24	1075.94
680.58	1075.01
680.92	1081.09
681.26	1091.63
681.60	1083.90
681.94	1083.90
682.28	1085.54
682.62	1078.99
682.96	1068.45
683.29	1063.07
683.63	1065.65
683.97	1062.37
684.31	1061.20
684.65	1065.88
684.99	1076.18
685.33	1083.43
685.67	1101.22
686.00	1100.29
686.34	1096.31
686.68	1093.73
687.02	1093.03
687.36	1086.24
687.70	1085.54
688.03	1087.65
688.37	1089.05
688.71	1082.73
689.05	1080.16
689.39	1088.82
689.72	1085.07
690.06	1083.67
690.40	1078.75
690.74	1075.94
691.08	1065.41
691.41	1067.99
691.75	1076.41
692.09	1088.12
692.43	1089.75
692.76	1090.22
693.10	1082.97
693.44	1071.97
693.78	1076.65
694.11	1083.67
694.45	1097.71
694.79	1099.82
695.13	1108.01
695.46	1102.63
695.80	1102.39
696.14	1092.09
696.48	1100.05
696.81	1089.05
697.15	1085.54
697.49	1076.88
697.82	1072.20
698.16	1060.03
698.50	1068.45
698.83	1061.67
699.17	1064.71
699.51	1069.39
699.84	1070.80
700.18	1059.09
700.52	1070.09
700.85	1066.35
701.19	1066.58
701.53	1074.31
701.86	1086.01
702.20	1092.56
702.54	1104.50
702.87	1100.99
703.21	1100.29
703.55	1101.46
703.88	1089.99
704.22	1078.99
704.55	1085.77
704.89	1082.03
705.23	1074.54
705.56	1076.18
705.90	1081.33
706.23	1084.14
706.57	1090.22
706.91	1090.92
707.24	1093.73
707.58	1079.69
707.91	1069.86
708.25	1078.75
708.58	1077.82
708.92	1079.22
709.26	1088.35
709.59	1100.52
709.93	1086.94
710.26	1101.22
710.60	1090.46
710.93	1089.52
711.27	1080.39
711.60	1076.18
711.94	1065.88
712.27	1065.41
712.61	1061.67
712.94	1049.26
713.28	1056.75
713.61	1056.05
713.95	1067.99
714.28	1081.80
714.62	1092.56
714.95	1085.77
715.29	1091.39
715.62	1088.12
715.96	1071.50
716.29	1078.05
716.63	1081.80
716.96	1072.67
717.29	1077.58
717.63	1090.69
717.96	1083.43
718.30	1091.39
718.63	1094.43
718.97	1087.41
719.30	1086.71
719.63	1090.92
719.97	1084.60
720.30	1070.09
720.64	1069.62
720.97	1052.54
721.30	1051.37
721.64	1057.69
721.97	1076.88
722.31	1072.20
722.64	1087.65
722.97	1079.46
723.31	1069.39
723.64	1068.69
723.97	1076.88
724.31	1071.03
724.64	1079.69
724.98	1087.41
725.31	1082.97
725.64	1081.80
725.98	1088.58
726.31	1086.94
726.64	1078.75
726.97	1086.48
727.31	1080.86
727.64	1083.67
727.97	1087.41
728.31	1091.63
728.64	1085.77
728.97	1097.71
729.31	1092.56
729.64	1097.01
729.97	1104.26
730.30	1101.92
730.64	1091.86
730.97	1096.31
731.30	1091.63
731.63	1089.05
731.97	1089.99
732.30	1099.35
732.63	1097.95
732.96	1090.92
733.30	1082.73
733.63	1086.94
733.96	1086.24
734.29	1093.97
734.63	1093.73
734.96	1100.75
735.29	1092.56
735.62	1091.86
735.95	1084.84
736.29	1089.52
736.62	1089.05
736.95	1087.88
737.28	1081.56
737.61	1081.33
737.94	1079.92
738.28	1070.33
738.61	1080.16
738.94	1086.24
739.27	1076.88
739.60	1077.35
739.93	1082.26
740.27	1083.43
740.60	1077.11
740.93	1091.39
741.26	1096.54
741.59	1105.44
741.92	1099.35
742.25	1106.37
742.58	1098.18
742.91	1100.99
743.25	1094.43
743.58	1090.69
743.91	1083.90
744.24	1078.75
744.57	1080.86
744.90	1078.05
745.23	1083.43
745.56	1091.86
745.89	1095.37
746.22	1087.88
746.55	1082.26
746.88	1084.37
747.21	1081.56
747.54	1086.24
747.87	1075.94
748.20	1086.01
748.53	1082.03
748.87	1075.48
749.20	1069.16
749.53	1074.54
749.86	1079.69
750.19	1081.09
750.52	1090.46
750.85	1099.82
751.18	1105.90
751.51	1089.52
751.84	1086.48
752.16	1081.80
752.49	1072.43
752.82	1069.39
753.15	1079.46
753.48	1085.31
753.81	1075.01
754.14	1075.94
754.47	1078.75
754.80	1069.16
755.13	1059.33
755.46	1079.69
755.79	1083.67
756.12	1076.18
756.45	1080.16
756.78	1089.29
757.11	1072.67
757.43	1070.80
757.76	1078.05
758.09	1075.71
758.42	1067.05
758.75	1066.11
759.08	1064.24
759.41	1060.50
759.74	1070.56
760.07	1079.46
760.39	1084.37
760.72	1084.60
761.05	1078.28
761.38	1076.18
761.71	1071.97
762.04	1068.92
762.36	1066.58
762.69	1074.77
763.02	1070.56
763.35	1064.94
763.68	1065.88
764.01	1061.67
764.33	1063.77
764.66	1066.82
764.99	1069.16
765.32	1069.39
765.65	1076.88
765.97	1067.05
766.30	1067.75
