SpectraSuite Data File
++++++++++++++++++++++++++++++++++++
Date: Mon Aug 26 10:25:54 PDT 2019
User: corrico
Dark Spectrum Present: No
Reference Spectrum Present: No
Number of Sampled Component Spectra: 1
Spectrometers: USB2+H06089
Integration Time (usec): 10000 (USB2+H06089)
Spectra Averaged: 2 (USB2+H06089)
Boxcar Smoothing: 2 (USB2+H06089)
Correct for Electrical Dark: No (USB2+H06089)
Strobe/Lamp Enabled: No (USB2+H06089)
Correct for Detector Non-linearity: No (USB2+H06089)
Correct for Stray Light: No (USB2+H06089)
Number of Pixels in Processed Spectrum: 2048
>>>>>Begin Processed Spectral Data<<<<<
339.70	1059.09
340.07	1059.09
340.45	996.37
340.82	965.71
341.19	939.26
341.57	917.49
341.94	915.62
342.31	915.62
342.69	913.75
343.06	907.66
343.43	903.68
343.81	911.87
344.18	919.13
344.55	929.19
344.93	932.47
345.30	928.72
345.67	934.81
346.04	938.09
346.42	943.47
346.79	957.98
347.16	967.58
347.54	967.34
347.91	972.49
348.28	979.75
348.65	986.07
349.03	1001.05
349.40	1019.77
349.77	1034.52
350.14	1046.45
350.52	1053.48
350.89	1062.14
351.26	1048.09
351.63	1054.65
352.01	1054.18
352.38	1064.94
352.75	1058.62
353.12	1070.80
353.50	1070.56
353.87	1079.22
354.24	1071.97
354.61	1080.39
354.98	1080.63
355.36	1091.39
355.73	1083.20
356.10	1083.90
356.47	1088.35
356.84	1099.12
357.22	1086.01
357.59	1098.88
357.96	1101.22
358.33	1099.35
358.70	1099.12
359.08	1110.58
359.45	1108.01
359.82	1097.95
360.19	1103.33
360.56	1104.97
360.94	1094.67
361.31	1088.82
361.68	1102.39
362.05	1097.01
362.42	1089.75
362.79	1099.35
363.16	1090.69
363.54	1089.05
363.91	1085.77
364.28	1074.31
364.65	1066.35
365.02	1067.52
365.39	1055.35
365.76	1055.35
366.14	1067.28
366.51	1064.48
366.88	1069.39
367.25	1074.31
367.62	1076.18
367.99	1075.94
368.36	1082.50
368.73	1082.97
369.10	1078.75
369.48	1074.07
369.85	1067.28
370.22	1054.88
370.59	1055.58
370.96	1064.48
371.33	1055.82
371.70	1055.35
372.07	1056.52
372.44	1056.75
372.81	1052.77
373.18	1063.31
373.55	1068.69
373.93	1077.58
374.30	1074.07
374.67	1075.94
375.04	1075.48
375.41	1076.41
375.78	1075.24
376.15	1073.37
376.52	1077.82
376.89	1082.97
377.26	1078.28
377.63	1080.39
378.00	1085.07
378.37	1077.11
378.74	1064.01
379.11	1066.58
379.48	1059.09
379.85	1059.56
380.22	1067.05
380.59	1078.05
380.96	1083.90
381.33	1087.88
381.70	1090.46
382.07	1089.99
382.44	1087.88
382.81	1082.97
383.18	1087.88
383.55	1085.31
383.92	1083.90
384.29	1081.09
384.66	1087.18
385.03	1090.22
385.40	1082.50
385.77	1084.14
386.14	1089.52
386.51	1079.22
386.88	1077.82
387.25	1082.97
387.62	1079.92
387.99	1073.14
388.36	1078.75
388.73	1072.20
389.10	1068.92
389.46	1066.82
389.83	1068.45
390.20	1053.24
390.57	1057.92
390.94	1066.35
391.31	1068.92
391.68	1069.62
392.05	1083.20
392.42	1085.77
392.79	1079.22
393.16	1077.82
393.53	1071.26
393.89	1069.62
394.26	1068.22
394.63	1073.60
395.00	1071.26
395.37	1074.54
395.74	1084.37
396.11	1080.16
396.48	1077.35
396.84	1084.60
397.21	1105.90
397.58	1093.03
397.95	1089.75
398.32	1090.69
398.69	1086.24
399.06	1065.65
399.42	1066.58
399.79	1073.84
400.16	1074.07
400.53	1075.94
400.90	1078.52
401.27	1087.88
401.64	1078.75
402.00	1077.82
402.37	1069.16
402.74	1070.33
403.11	1071.03
403.48	1075.24
403.84	1066.35
404.21	1077.11
404.58	1077.35
404.95	1069.39
405.32	1074.54
405.68	1079.92
406.05	1087.18
406.42	1087.88
406.79	1089.52
407.16	1086.71
407.52	1080.39
407.89	1069.62
408.26	1072.43
408.63	1065.65
408.99	1055.35
409.36	1060.96
409.73	1061.67
410.10	1054.88
410.47	1058.62
410.83	1066.11
411.20	1068.45
411.57	1064.71
411.94	1060.73
412.30	1064.24
412.67	1071.26
413.04	1068.22
413.40	1075.24
413.77	1081.80
414.14	1093.03
414.51	1083.67
414.87	1094.43
415.24	1084.37
415.61	1082.50
415.97	1076.88
416.34	1074.07
416.71	1069.39
417.08	1074.07
417.44	1083.20
417.81	1077.35
418.18	1080.39
418.54	1082.50
418.91	1085.07
419.28	1087.18
419.64	1091.16
420.01	1108.01
420.38	1103.80
420.74	1101.69
421.11	1093.50
421.48	1082.26
421.84	1067.75
422.21	1081.56
422.58	1088.35
422.94	1081.09
423.31	1093.03
423.68	1091.16
424.04	1071.50
424.41	1072.20
424.77	1082.97
425.14	1084.84
425.51	1079.92
425.87	1092.33
426.24	1084.37
426.61	1077.82
426.97	1067.52
427.34	1077.82
427.70	1066.11
428.07	1058.62
428.44	1055.35
428.80	1052.30
429.17	1047.86
429.53	1044.58
429.90	1060.73
430.27	1061.90
430.63	1065.41
431.00	1076.88
431.36	1081.56
431.73	1080.16
432.09	1090.46
432.46	1093.97
432.83	1088.58
433.19	1094.90
433.56	1090.46
433.92	1083.43
434.29	1090.92
434.65	1090.22
435.02	1082.73
435.38	1084.84
435.75	1084.37
436.11	1083.67
436.48	1077.58
436.84	1075.24
437.21	1071.26
437.57	1070.09
437.94	1059.33
438.30	1052.77
438.67	1051.60
439.03	1050.20
439.40	1052.30
439.76	1061.67
440.13	1066.82
440.49	1071.03
440.86	1065.65
441.22	1059.56
441.59	1057.45
441.95	1074.77
442.32	1081.80
442.68	1085.07
443.05	1088.12
443.41	1085.31
443.78	1076.18
444.14	1070.33
444.51	1075.01
444.87	1075.24
445.24	1078.99
445.60	1074.31
445.96	1082.26
446.33	1087.65
446.69	1082.97
447.06	1072.67
447.42	1073.37
447.79	1060.03
448.15	1052.07
448.51	1063.54
448.88	1071.50
449.24	1079.92
449.61	1079.22
449.97	1085.77
450.33	1095.84
450.70	1090.69
451.06	1088.35
451.43	1094.67
451.79	1090.92
452.15	1072.67
452.52	1073.14
452.88	1069.39
453.24	1080.39
453.61	1078.99
453.97	1077.82
454.34	1079.69
454.70	1069.16
455.06	1066.82
455.43	1064.48
455.79	1068.92
456.15	1065.88
456.52	1071.50
456.88	1064.24
457.24	1065.65
457.61	1069.62
457.97	1066.82
458.33	1075.48
458.70	1086.48
459.06	1080.16
459.42	1080.39
459.79	1087.18
460.15	1082.03
460.51	1073.84
460.88	1077.82
461.24	1070.09
461.60	1073.60
461.96	1074.54
462.33	1073.84
462.69	1077.58
463.05	1081.56
463.42	1079.69
463.78	1078.99
464.14	1077.35
464.50	1071.50
464.87	1075.01
465.23	1073.37
465.59	1070.80
465.95	1063.07
466.32	1067.28
466.68	1077.35
467.04	1073.37
467.40	1078.99
467.77	1082.97
468.13	1076.65
468.49	1069.86
468.85	1073.37
469.22	1066.11
469.58	1075.48
469.94	1080.63
470.30	1072.20
470.66	1068.69
471.03	1075.24
471.39	1067.28
471.75	1068.69
472.11	1076.18
472.47	1082.03
472.84	1082.73
473.20	1094.90
473.56	1090.69
473.92	1093.03
474.28	1090.92
474.65	1093.50
475.01	1077.82
475.37	1073.84
475.73	1064.71
476.09	1065.18
476.45	1055.82
476.81	1055.82
477.18	1069.62
477.54	1071.50
477.90	1066.58
478.26	1065.88
478.62	1071.26
478.98	1064.48
479.34	1064.01
479.71	1074.77
480.07	1075.24
480.43	1067.28
480.79	1066.82
481.15	1067.05
481.51	1063.31
481.87	1069.86
482.23	1075.94
482.59	1079.46
482.96	1086.01
483.32	1089.99
483.68	1088.82
484.04	1093.03
484.40	1100.75
484.76	1097.48
485.12	1095.84
485.48	1093.03
485.84	1094.90
486.20	1081.09
486.56	1080.16
486.92	1066.11
487.28	1065.88
487.64	1063.07
488.00	1070.56
488.37	1064.94
488.73	1076.41
489.09	1077.58
489.45	1072.90
489.81	1071.97
490.17	1073.84
490.53	1073.14
490.89	1066.82
491.25	1069.16
491.61	1073.84
491.97	1079.22
492.33	1082.03
492.69	1089.05
493.05	1091.86
493.41	1082.97
493.77	1080.63
494.13	1069.86
494.49	1070.80
494.85	1074.77
495.21	1085.77
495.57	1080.86
495.93	1087.41
496.29	1095.60
496.64	1095.14
497.00	1089.52
497.36	1087.41
497.72	1083.20
498.08	1082.03
498.44	1084.60
498.80	1077.35
499.16	1074.54
499.52	1077.58
499.88	1065.88
500.24	1071.97
500.60	1079.69
500.96	1079.69
501.32	1074.07
501.68	1079.46
502.03	1063.31
502.39	1058.62
502.75	1066.82
503.11	1075.48
503.47	1086.48
503.83	1086.71
504.19	1089.05
504.55	1080.63
504.91	1081.33
505.26	1073.14
505.62	1079.22
505.98	1075.01
506.34	1091.16
506.70	1082.73
507.06	1079.92
507.42	1074.54
507.78	1081.09
508.13	1078.99
508.49	1090.69
508.85	1085.07
509.21	1092.56
509.57	1090.22
509.93	1091.86
510.28	1088.58
510.64	1092.09
511.00	1082.73
511.36	1087.41
511.72	1096.07
512.07	1101.46
512.43	1108.01
512.79	1120.41
513.15	1119.01
513.51	1113.16
513.86	1107.78
514.22	1108.95
514.58	1108.24
514.94	1099.35
515.30	1086.48
515.65	1084.37
516.01	1081.80
516.37	1078.28
516.73	1095.60
517.08	1106.37
517.44	1107.54
517.80	1099.12
518.16	1087.41
518.51	1081.09
518.87	1084.14
519.23	1084.37
519.59	1090.69
519.94	1097.95
520.30	1094.43
520.66	1083.43
521.01	1081.09
521.37	1078.99
521.73	1082.50
522.09	1079.92
522.44	1086.48
522.80	1088.58
523.16	1089.05
523.51	1087.41
523.87	1095.14
524.23	1094.67
524.58	1092.09
524.94	1103.56
525.30	1112.92
525.65	1110.35
526.01	1119.01
526.37	1124.39
526.72	1121.82
527.08	1126.73
527.44	1123.46
527.79	1107.54
528.15	1104.73
528.51	1099.58
528.86	1088.58
529.22	1097.01
529.58	1096.78
529.93	1102.86
530.29	1100.52
530.65	1100.05
531.00	1096.07
531.36	1101.69
531.71	1093.73
532.07	1096.78
532.43	1101.46
532.78	1102.39
533.14	1097.48
533.49	1095.14
533.85	1098.41
534.21	1099.12
534.56	1096.54
534.92	1108.24
535.27	1113.63
535.63	1112.46
535.98	1109.65
536.34	1110.82
536.69	1106.37
537.05	1098.88
537.41	1086.94
537.76	1075.71
538.12	1076.41
538.47	1070.56
538.83	1071.26
539.18	1079.22
539.54	1088.82
539.89	1088.12
540.25	1087.18
540.60	1092.56
540.96	1092.56
541.31	1098.65
541.67	1093.26
542.02	1100.99
542.38	1097.24
542.73	1099.12
543.09	1096.54
543.44	1097.24
543.80	1095.60
544.15	1107.78
544.51	1097.24
544.86	1090.92
545.22	1099.12
545.57	1094.67
545.93	1086.01
546.28	1095.84
546.64	1101.46
546.99	1096.31
547.35	1100.52
547.70	1107.54
548.05	1114.56
548.41	1104.03
548.76	1105.44
549.12	1104.50
549.47	1099.58
549.83	1089.29
550.18	1091.16
550.53	1084.60
550.89	1077.11
551.24	1073.37
551.60	1070.80
551.95	1075.01
552.30	1068.45
552.66	1061.20
553.01	1057.45
553.37	1058.16
553.72	1060.73
554.07	1078.28
554.43	1087.18
554.78	1093.03
555.13	1088.58
555.49	1077.35
555.84	1060.96
556.19	1066.11
556.55	1068.22
556.90	1075.48
557.26	1082.03
557.61	1088.12
557.96	1081.56
558.32	1088.82
558.67	1088.12
559.02	1089.05
559.37	1093.97
559.73	1100.75
560.08	1088.82
560.43	1087.65
560.79	1085.07
561.14	1091.16
561.49	1075.48
561.85	1074.77
562.20	1075.48
562.55	1079.69
562.90	1070.56
563.26	1083.43
563.61	1087.41
563.96	1080.16
564.32	1075.24
564.67	1078.05
565.02	1082.97
565.37	1087.41
565.73	1093.97
566.08	1095.14
566.43	1092.09
566.78	1083.43
567.14	1082.97
567.49	1089.75
567.84	1088.58
568.19	1090.69
568.54	1095.84
568.90	1086.94
569.25	1083.90
569.60	1092.09
569.95	1088.58
570.31	1085.54
570.66	1079.92
571.01	1076.41
571.36	1075.01
571.71	1076.41
572.06	1077.11
572.42	1087.65
572.77	1087.18
573.12	1089.99
573.47	1094.67
573.82	1099.12
574.18	1084.37
574.53	1085.07
574.88	1080.16
575.23	1074.07
575.58	1072.43
575.93	1088.12
576.28	1083.20
576.64	1080.86
576.99	1079.22
577.34	1081.56
577.69	1085.07
578.04	1092.09
578.39	1086.24
578.74	1093.26
579.09	1095.60
579.44	1086.24
579.80	1077.58
580.15	1082.97
580.50	1081.33
580.85	1077.35
581.20	1089.52
581.55	1097.01
581.90	1097.95
582.25	1101.92
582.60	1091.39
582.95	1072.90
583.30	1069.62
583.65	1069.39
584.00	1064.71
584.35	1069.86
584.71	1085.54
585.06	1089.29
585.41	1095.37
585.76	1096.54
586.11	1093.03
586.46	1094.90
586.81	1101.22
587.16	1093.50
587.51	1096.78
587.86	1106.14
588.21	1100.99
588.56	1086.48
588.91	1087.18
589.26	1076.41
589.61	1069.62
589.96	1070.80
590.31	1066.35
590.66	1067.52
591.01	1070.33
591.36	1077.35
591.71	1067.75
592.06	1080.63
592.41	1079.46
592.76	1088.12
593.10	1086.71
593.45	1092.80
593.80	1090.22
594.15	1088.12
594.50	1087.41
594.85	1089.52
595.20	1087.65
595.55	1088.12
595.90	1094.90
596.25	1095.84
596.60	1085.54
596.95	1078.28
597.30	1083.90
597.64	1141.71
597.99	1140.31
598.34	1141.48
598.69	1148.73
599.04	1147.10
599.39	1084.37
599.74	1078.05
600.09	1086.71
600.44	1092.80
600.78	1087.18
601.13	1091.16
601.48	1084.84
601.83	1071.97
602.18	1065.88
602.53	1066.35
602.88	1072.20
603.22	1074.77
603.57	1087.41
603.92	1088.82
604.27	1087.41
604.62	1077.58
604.97	1086.94
605.31	1091.86
605.66	1091.16
606.01	1093.26
606.36	1096.31
606.71	1093.97
607.05	1082.26
607.40	1080.39
607.75	1083.20
608.10	1090.92
608.44	1090.22
608.79	1095.37
609.14	1099.58
609.49	1099.58
609.84	1097.71
610.18	1104.50
610.53	1104.97
610.88	1096.07
611.23	1096.31
611.57	1091.16
611.92	1086.01
612.27	1081.80
612.62	1091.63
612.96	1087.88
613.31	1088.35
613.66	1089.05
614.00	1086.71
614.35	1078.99
614.70	1081.56
615.05	1086.48
615.39	1083.43
615.74	1087.65
616.09	1094.90
616.43	1086.24
616.78	1086.24
617.13	1086.24
617.47	1077.35
617.82	1079.92
618.17	1079.69
618.51	1070.80
618.86	1069.62
619.21	1080.16
619.55	1072.67
619.90	1089.75
620.25	1093.26
620.59	1099.12
620.94	1108.95
621.29	1113.86
621.63	1100.05
621.98	1095.84
622.32	1089.75
622.67	1082.50
623.02	1086.48
623.36	1088.82
623.71	1095.14
624.05	1096.78
624.40	1086.01
624.75	1085.77
625.09	1091.39
625.44	1088.82
625.78	1085.07
626.13	1090.92
626.48	1089.99
626.82	1090.46
627.17	1091.63
627.51	1104.97
627.86	1108.71
628.20	1111.29
628.55	1103.09
628.89	1104.97
629.24	1093.97
629.58	1092.80
629.93	1080.39
630.28	1083.20
630.62	1082.03
630.97	1081.80
631.31	1082.73
631.66	1086.01
632.00	1084.37
632.35	1083.67
632.69	1080.63
633.04	1070.33
633.38	1068.45
633.73	1077.11
634.07	1078.52
634.42	1074.31
634.76	1080.63
635.11	1085.77
635.45	1081.09
635.79	1074.77
636.14	1070.09
636.48	1065.88
636.83	1065.18
637.17	1072.20
637.52	1080.16
637.86	1096.54
638.21	1096.31
638.55	1094.20
638.89	1093.73
639.24	1095.14
639.58	1089.05
639.93	1089.99
640.27	1093.26
640.61	1085.77
640.96	1077.35
641.30	1084.84
641.65	1083.67
641.99	1080.39
642.33	1075.24
642.68	1082.03
643.02	1084.14
643.37	1083.43
643.71	1086.01
644.05	1078.99
644.40	1069.86
644.74	1058.39
645.08	1067.52
645.43	1070.09
645.77	1074.54
646.11	1090.46
646.46	1094.67
646.80	1093.50
647.14	1084.37
647.49	1095.14
647.83	1081.80
648.17	1082.97
648.52	1085.77
648.86	1087.18
649.20	1088.58
649.55	1093.73
649.89	1098.65
650.23	1090.46
650.57	1088.58
650.92	1083.43
651.26	1072.20
651.60	1060.03
651.95	1056.75
652.29	1057.45
652.63	1066.35
652.97	1072.43
653.32	1078.75
653.66	1082.03
654.00	1086.01
654.34	1073.14
654.69	1073.37
655.03	1075.24
655.37	1077.82
655.71	1090.22
656.05	1080.86
656.40	1078.75
656.74	1084.37
657.08	1088.12
657.42	1073.60
657.76	1086.48
658.11	1081.09
658.45	1071.73
658.79	1070.80
659.13	1076.18
659.47	1077.82
659.82	1087.41
660.16	1094.43
660.50	1088.12
660.84	1087.65
661.18	1081.56
661.52	1082.97
661.87	1083.20
662.21	1082.03
662.55	1087.65
662.89	1091.63
663.23	1081.33
663.57	1080.86
663.91	1077.35
664.25	1074.77
664.60	1071.97
664.94	1085.07
665.28	1081.33
665.62	1090.22
665.96	1081.80
666.30	1079.22
666.64	1076.18
666.98	1069.39
667.32	1072.90
667.66	1074.54
668.01	1083.90
668.35	1074.54
668.69	1082.50
669.03	1084.37
669.37	1085.31
669.71	1085.31
670.05	1092.56
670.39	1081.09
670.73	1076.65
671.07	1073.14
671.41	1073.84
671.75	1075.48
672.09	1085.54
672.43	1085.31
672.77	1086.24
673.11	1075.24
673.45	1078.28
673.79	1072.90
674.13	1074.31
674.47	1079.46
674.81	1085.77
675.15	1077.58
675.49	1077.11
675.83	1071.03
676.17	1064.24
676.51	1066.11
676.85	1069.39
677.19	1070.09
677.53	1070.09
677.87	1077.58
678.21	1074.31
678.55	1074.07
678.89	1082.26
679.23	1092.09
679.57	1083.43
679.90	1089.99
680.24	1094.90
680.58	1093.73
680.92	1084.84
681.26	1089.75
681.60	1086.01
681.94	1072.90
682.28	1068.69
682.62	1066.35
682.96	1076.18
683.29	1080.16
683.63	1097.48
683.97	1104.26
684.31	1118.78
684.65	1117.84
684.99	1113.86
685.33	1103.09
685.67	1095.84
686.00	1084.84
686.34	1078.28
686.68	1073.37
687.02	1077.58
687.36	1073.37
687.70	1071.50
688.03	1076.18
688.37	1088.35
688.71	1086.48
689.05	1092.33
689.39	1096.54
689.72	1085.77
690.06	1074.54
690.40	1073.37
690.74	1079.22
691.08	1076.88
691.41	1087.18
691.75	1089.99
692.09	1093.03
692.43	1086.48
692.76	1089.52
693.10	1086.01
693.44	1091.63
693.78	1102.39
694.11	1109.65
694.45	1112.22
694.79	1107.78
695.13	1104.03
695.46	1085.07
695.80	1084.84
696.14	1084.60
696.48	1091.86
696.81	1094.20
697.15	1101.69
697.49	1089.05
697.82	1084.60
698.16	1079.46
698.50	1078.52
698.83	1088.35
699.17	1096.31
699.51	1098.41
699.84	1100.99
700.18	1100.05
700.52	1091.39
700.85	1095.14
701.19	1091.16
701.53	1081.33
701.86	1078.28
702.20	1074.77
702.54	1063.31
702.87	1056.75
703.21	1061.90
703.55	1060.03
703.88	1058.16
704.22	1057.92
704.55	1070.56
704.89	1068.92
705.23	1075.71
705.56	1089.29
705.90	1091.63
706.23	1086.01
706.57	1093.50
706.91	1092.33
707.24	1074.07
707.58	1085.77
707.91	1087.88
708.25	1092.09
708.58	1075.94
708.92	1081.09
709.26	1068.92
709.59	1066.58
709.93	1056.28
710.26	1077.58
710.60	1080.86
710.93	1080.63
711.27	1084.84
711.60	1092.09
711.94	1080.86
712.27	1077.58
712.61	1082.50
712.94	1081.33
713.28	1078.52
713.61	1079.46
713.95	1087.41
714.28	1089.05
714.62	1084.37
714.95	1088.12
715.29	1084.60
715.62	1073.84
715.96	1072.43
716.29	1078.52
716.63	1065.18
716.96	1067.52
717.29	1072.67
717.63	1062.37
717.96	1061.67
718.30	1067.52
718.63	1073.37
718.97	1070.09
719.30	1086.48
719.63	1092.33
719.97	1101.46
720.30	1096.54
720.64	1103.80
720.97	1097.24
721.30	1087.65
721.64	1076.65
721.97	1085.07
722.31	1079.22
722.64	1075.24
722.97	1077.11
723.31	1084.84
723.64	1083.43
723.97	1085.77
724.31	1090.22
724.64	1088.35
724.98	1086.24
725.31	1080.63
725.64	1074.77
725.98	1071.73
726.31	1072.43
726.64	1063.77
726.97	1066.82
727.31	1068.22
727.64	1070.56
727.97	1062.37
728.31	1057.92
728.64	1061.67
728.97	1069.86
729.31	1067.75
729.64	1081.09
729.97	1095.37
730.30	1095.37
730.64	1081.80
730.97	1081.56
731.30	1075.94
731.63	1069.86
731.97	1060.26
732.30	1065.65
732.63	1063.07
732.96	1060.73
733.30	1059.09
733.63	1055.35
733.96	1067.99
734.29	1074.31
734.63	1071.50
734.96	1073.84
735.29	1088.35
735.62	1077.82
735.95	1071.26
736.29	1083.20
736.62	1073.84
736.95	1066.82
737.28	1076.88
737.61	1080.86
737.94	1090.22
738.28	1103.80
738.61	1114.80
738.94	1116.90
739.27	1117.84
739.60	1105.90
739.93	1100.99
740.27	1086.94
740.60	1080.63
740.93	1083.43
741.26	1083.43
741.59	1081.80
741.92	1088.58
742.25	1085.54
742.58	1080.63
742.91	1073.37
743.25	1078.99
743.58	1072.90
743.91	1066.58
744.24	1073.37
744.57	1082.03
744.90	1077.11
745.23	1087.41
745.56	1095.37
745.89	1092.09
746.22	1099.82
746.55	1098.18
746.88	1087.18
747.21	1080.39
747.54	1088.82
747.87	1074.31
748.20	1078.52
748.53	1083.67
748.87	1083.90
749.20	1067.99
749.53	1067.75
749.86	1064.48
750.19	1063.77
750.52	1064.71
750.85	1077.11
751.18	1077.58
751.51	1077.35
751.84	1076.18
752.16	1072.43
752.49	1066.58
752.82	1076.18
753.15	1083.20
753.48	1076.41
753.81	1080.39
754.14	1075.01
754.47	1066.35
754.80	1061.43
755.13	1071.50
755.46	1066.82
755.79	1075.24
756.12	1069.86
756.45	1078.05
756.78	1080.63
757.11	1083.90
757.43	1073.37
757.76	1083.43
758.09	1072.43
758.42	1071.26
758.75	1083.43
759.08	1096.54
759.41	1095.14
759.74	1098.65
760.07	1093.73
760.39	1080.86
760.72	1072.67
761.05	1083.20
761.38	1081.09
761.71	1079.92
762.04	1088.35
762.36	1091.86
762.69	1076.88
763.02	1079.46
763.35	1081.80
763.68	1083.43
764.01	1073.84
764.33	1074.54
764.66	1082.73
764.99	1091.16
765.32	1076.65
765.65	1091.39
765.97	1101.46
766.30	1093.97
