SpectraSuite Data File
++++++++++++++++++++++++++++++++++++
Date: Mon Aug 26 10:25:54 PDT 2019
User: corrico
Dark Spectrum Present: No
Reference Spectrum Present: No
Number of Sampled Component Spectra: 1
Spectrometers: USB2+H06089
Integration Time (usec): 10000 (USB2+H06089)
Spectra Averaged: 2 (USB2+H06089)
Boxcar Smoothing: 2 (USB2+H06089)
Correct for Electrical Dark: No (USB2+H06089)
Strobe/Lamp Enabled: No (USB2+H06089)
Correct for Detector Non-linearity: No (USB2+H06089)
Correct for Stray Light: No (USB2+H06089)
Number of Pixels in Processed Spectrum: 2048
>>>>>Begin Processed Spectral Data<<<<<
339.70	1061.43
340.07	1061.43
340.45	1011.35
340.82	973.90
341.19	946.51
341.57	907.89
341.94	899.23
342.31	895.96
342.69	910.23
343.06	908.60
343.43	917.96
343.81	919.36
344.18	929.19
344.55	928.26
344.93	928.72
345.30	929.66
345.67	928.49
346.04	932.24
346.42	939.26
346.79	942.77
347.16	958.92
347.54	970.15
347.91	981.62
348.28	983.49
348.65	991.22
349.03	999.88
349.40	999.64
349.77	1002.22
350.14	1014.62
350.52	1027.73
350.89	1023.52
351.26	1039.90
351.63	1050.90
352.01	1056.99
352.38	1068.22
352.75	1082.26
353.12	1085.54
353.50	1082.73
353.87	1079.69
354.24	1077.35
354.61	1075.01
354.98	1072.67
355.36	1073.14
355.73	1078.05
356.10	1073.37
356.47	1070.56
356.84	1066.11
357.22	1069.39
357.59	1065.18
357.96	1065.41
358.33	1070.56
358.70	1082.26
359.08	1084.37
359.45	1090.69
359.82	1091.16
360.19	1082.26
360.56	1068.92
360.94	1069.62
361.31	1070.80
361.68	1071.03
362.05	1074.07
362.42	1082.26
362.79	1081.80
363.16	1079.92
363.54	1084.60
363.91	1089.52
364.28	1092.80
364.65	1086.01
365.02	1076.88
365.39	1075.71
365.76	1069.39
366.14	1060.73
366.51	1067.99
366.88	1070.33
367.25	1066.35
367.62	1064.24
367.99	1073.14
368.36	1059.56
368.73	1073.37
369.10	1061.43
369.48	1072.43
369.85	1069.39
370.22	1082.26
370.59	1073.60
370.96	1101.69
371.33	1091.39
371.70	1082.97
372.07	1076.18
372.44	1070.09
372.81	1055.35
373.18	1060.73
373.55	1067.75
373.93	1067.28
374.30	1067.52
374.67	1069.16
375.04	1071.26
375.41	1073.60
375.78	1069.16
376.15	1067.05
376.52	1062.14
376.89	1057.45
377.26	1052.07
377.63	1060.73
378.00	1055.35
378.37	1049.96
378.74	1054.41
379.11	1056.05
379.48	1052.30
379.85	1059.79
380.22	1063.31
380.59	1063.77
380.96	1060.50
381.33	1066.35
381.70	1074.07
382.07	1075.01
382.44	1076.88
382.81	1089.29
383.18	1086.48
383.55	1087.65
383.92	1094.43
384.29	1090.22
384.66	1084.37
385.03	1097.01
385.40	1092.09
385.77	1092.33
386.14	1090.92
386.51	1093.73
386.88	1087.88
387.25	1088.35
387.62	1089.75
387.99	1091.63
388.36	1089.52
388.73	1088.12
389.10	1087.41
389.46	1082.03
389.83	1087.65
390.20	1076.18
390.57	1079.22
390.94	1080.16
391.31	1088.12
391.68	1083.43
392.05	1090.69
392.42	1086.24
392.79	1082.73
393.16	1075.01
393.53	1078.28
393.89	1078.99
394.26	1067.99
394.63	1067.75
395.00	1064.71
395.37	1056.75
395.74	1066.58
396.11	1078.99
396.48	1087.41
396.84	1089.99
397.21	1101.22
397.58	1094.20
397.95	1089.75
398.32	1081.09
398.69	1088.12
399.06	1083.67
399.42	1086.48
399.79	1083.90
400.16	1080.39
400.53	1080.63
400.90	1080.86
401.27	1074.07
401.64	1075.94
402.00	1087.18
402.37	1088.12
402.74	1084.14
403.11	1095.84
403.48	1096.54
403.84	1083.90
404.21	1079.22
404.58	1076.88
404.95	1064.71
405.32	1062.84
405.68	1077.11
406.05	1074.31
406.42	1082.97
406.79	1069.86
407.16	1067.05
407.52	1064.48
407.89	1061.20
408.26	1051.13
408.63	1065.18
408.99	1067.75
409.36	1065.65
409.73	1068.45
410.10	1078.52
410.47	1090.69
410.83	1089.05
411.20	1093.73
411.57	1101.92
411.94	1092.80
412.30	1090.22
412.67	1090.92
413.04	1080.39
413.40	1076.88
413.77	1087.18
414.14	1082.50
414.51	1078.28
414.87	1084.37
415.24	1081.09
415.61	1076.88
415.97	1082.03
416.34	1088.58
416.71	1091.63
417.08	1098.41
417.44	1093.50
417.81	1092.56
418.18	1097.01
418.54	1095.60
418.91	1092.56
419.28	1089.99
419.64	1090.69
420.01	1076.65
420.38	1075.71
420.74	1077.58
421.11	1080.16
421.48	1071.97
421.84	1074.77
422.21	1080.16
422.58	1079.69
422.94	1079.92
423.31	1087.18
423.68	1089.29
424.04	1078.75
424.41	1073.60
424.77	1078.28
425.14	1063.77
425.51	1062.14
425.87	1066.82
426.24	1066.11
426.61	1066.82
426.97	1077.82
427.34	1091.86
427.70	1092.33
428.07	1090.69
428.44	1087.18
428.80	1097.48
429.17	1099.82
429.53	1097.71
429.90	1104.50
430.27	1107.78
430.63	1095.84
431.00	1089.75
431.36	1089.29
431.73	1079.22
432.09	1079.22
432.46	1074.77
432.83	1072.20
433.19	1076.88
433.56	1082.50
433.92	1075.94
434.29	1090.22
434.65	1091.39
435.02	1084.84
435.38	1089.05
435.75	1086.01
436.11	1077.35
436.48	1080.39
436.84	1091.16
437.21	1087.88
437.57	1089.75
437.94	1088.58
438.30	1081.09
438.67	1071.26
439.03	1077.58
439.40	1082.73
439.76	1084.60
440.13	1091.16
440.49	1086.71
440.86	1084.60
441.22	1086.94
441.59	1088.58
441.95	1074.54
442.32	1083.43
442.68	1067.05
443.05	1060.50
443.41	1061.67
443.78	1066.82
444.14	1056.28
444.51	1062.84
444.87	1071.97
445.24	1071.50
445.60	1085.07
445.96	1096.07
446.33	1102.39
446.69	1101.46
447.06	1101.69
447.42	1095.84
447.79	1091.86
448.15	1090.69
448.51	1086.94
448.88	1080.16
449.24	1076.65
449.61	1080.39
449.97	1076.65
450.33	1079.46
450.70	1079.92
451.06	1080.63
451.43	1070.33
451.79	1073.37
452.15	1073.84
452.52	1065.41
452.88	1059.56
453.24	1066.82
453.61	1069.62
453.97	1056.05
454.34	1065.65
454.70	1073.14
455.06	1067.28
455.43	1059.33
455.79	1071.73
456.15	1070.33
456.52	1067.05
456.88	1070.33
457.24	1075.94
457.61	1071.73
457.97	1077.11
458.33	1082.97
458.70	1087.88
459.06	1081.80
459.42	1081.80
459.79	1076.65
460.15	1071.03
460.51	1064.71
460.88	1078.05
461.24	1080.63
461.60	1076.18
461.96	1075.48
462.33	1080.63
462.69	1076.65
463.05	1078.28
463.42	1087.18
463.78	1092.33
464.14	1091.39
464.50	1093.50
464.87	1083.67
465.23	1083.67
465.59	1078.52
465.95	1073.37
466.32	1067.05
466.68	1067.52
467.04	1061.43
467.40	1059.56
467.77	1062.37
468.13	1073.84
468.49	1086.01
468.85	1091.63
469.22	1096.54
469.58	1094.90
469.94	1091.39
470.30	1081.33
470.66	1078.05
471.03	1076.88
471.39	1072.20
471.75	1064.71
472.11	1067.75
472.47	1074.77
472.84	1077.82
473.20	1094.20
473.56	1095.60
473.92	1094.43
474.28	1086.48
474.65	1077.58
475.01	1083.20
475.37	1080.39
475.73	1090.22
476.09	1094.90
476.45	1102.16
476.81	1082.50
477.18	1090.46
477.54	1080.39
477.90	1087.18
478.26	1085.07
478.62	1082.26
478.98	1070.80
479.34	1079.46
479.71	1072.67
480.07	1069.39
480.43	1074.31
480.79	1081.09
481.15	1077.35
481.51	1069.16
481.87	1074.31
482.23	1079.46
482.59	1080.86
482.96	1080.63
483.32	1086.01
483.68	1087.65
484.04	1079.92
484.40	1071.26
484.76	1075.01
485.12	1075.24
485.48	1065.18
485.84	1060.96
486.20	1069.39
486.56	1064.71
486.92	1060.50
487.28	1063.07
487.64	1067.28
488.00	1060.03
488.37	1062.84
488.73	1075.48
489.09	1078.05
489.45	1095.14
489.81	1104.73
490.17	1097.24
490.53	1083.20
490.89	1083.20
491.25	1073.37
491.61	1069.86
491.97	1070.33
492.33	1075.94
492.69	1082.50
493.05	1081.56
493.41	1081.09
493.77	1082.97
494.13	1079.22
494.49	1064.24
494.85	1066.11
495.21	1069.16
495.57	1072.20
495.93	1078.28
496.29	1087.65
496.64	1090.92
497.00	1082.73
497.36	1081.80
497.72	1082.03
498.08	1072.67
498.44	1075.24
498.80	1083.90
499.16	1083.90
499.52	1080.16
499.88	1095.14
500.24	1092.56
500.60	1087.88
500.96	1090.46
501.32	1089.05
501.68	1078.28
502.03	1072.43
502.39	1075.94
502.75	1067.28
503.11	1077.11
503.47	1087.65
503.83	1086.48
504.19	1082.03
504.55	1090.69
504.91	1074.07
505.26	1068.22
505.62	1064.24
505.98	1060.50
506.34	1066.82
506.70	1080.39
507.06	1078.05
507.42	1093.73
507.78	1102.39
508.13	1089.75
508.49	1090.69
508.85	1094.90
509.21	1090.92
509.57	1087.18
509.93	1091.63
510.28	1088.58
510.64	1105.20
511.00	1104.26
511.36	1109.65
511.72	1116.90
512.07	1113.39
512.43	1096.07
512.79	1094.20
513.15	1095.60
513.51	1092.09
513.86	1095.84
514.22	1098.41
514.58	1096.54
514.94	1103.56
515.30	1098.18
515.65	1102.16
516.01	1107.07
516.37	1113.16
516.73	1105.20
517.08	1112.22
517.44	1108.71
517.80	1096.07
518.16	1088.12
518.51	1082.26
518.87	1078.05
519.23	1079.69
519.59	1096.78
519.94	1111.05
520.30	1112.69
520.66	1118.78
521.01	1109.65
521.37	1098.41
521.73	1079.22
522.09	1082.73
522.44	1083.67
522.80	1090.46
523.16	1089.05
523.51	1096.31
523.87	1089.29
524.23	1088.58
524.58	1087.65
524.94	1091.16
525.30	1097.48
525.65	1106.61
526.01	1098.65
526.37	1098.18
526.72	1098.65
527.08	1098.41
527.44	1098.65
527.79	1103.09
528.15	1102.39
528.51	1102.63
528.86	1090.92
529.22	1088.58
529.58	1083.90
529.93	1085.31
530.29	1079.92
530.65	1095.60
531.00	1096.31
531.36	1104.26
531.71	1103.80
532.07	1110.58
532.43	1093.73
532.78	1087.65
533.14	1078.28
533.49	1076.18
533.85	1080.39
534.21	1086.24
534.56	1086.48
534.92	1085.77
535.27	1088.35
535.63	1081.09
535.98	1082.73
536.34	1082.03
536.69	1079.22
537.05	1076.65
537.41	1074.07
537.76	1085.31
538.12	1090.46
538.47	1104.97
538.83	1103.09
539.18	1108.71
539.54	1098.88
539.89	1105.90
540.25	1099.12
540.60	1110.35
540.96	1110.12
541.31	1104.26
541.67	1103.09
542.02	1106.14
542.38	1087.41
542.73	1085.77
543.09	1098.88
543.44	1101.46
543.80	1093.50
544.15	1108.24
544.51	1112.46
544.86	1106.14
545.22	1099.35
545.57	1100.05
545.93	1092.33
546.28	1089.99
546.64	1086.94
546.99	1083.20
547.35	1091.39
547.70	1093.73
548.05	1086.71
548.41	1095.14
548.76	1100.52
549.12	1101.22
549.47	1106.61
549.83	1112.22
550.18	1102.63
550.53	1104.26
550.89	1094.67
551.24	1089.99
551.60	1086.48
551.95	1086.71
552.30	1087.18
552.66	1086.71
553.01	1091.86
553.37	1096.07
553.72	1096.54
554.07	1084.60
554.43	1090.22
554.78	1079.46
555.13	1078.28
555.49	1078.05
555.84	1085.31
556.19	1078.52
556.55	1078.75
556.90	1065.18
557.26	1064.24
557.61	1067.28
557.96	1071.97
558.32	1076.41
558.67	1086.01
559.02	1083.20
559.37	1077.35
559.73	1075.71
560.08	1075.24
560.43	1075.24
560.79	1074.54
561.14	1076.18
561.49	1075.94
561.85	1080.86
562.20	1077.82
562.55	1081.33
562.90	1088.35
563.26	1092.56
563.61	1099.58
563.96	1102.39
564.32	1097.95
564.67	1090.22
565.02	1088.35
565.37	1078.52
565.73	1083.90
566.08	1093.97
566.43	1100.05
566.78	1098.88
567.14	1101.46
567.49	1100.05
567.84	1093.26
568.19	1086.48
568.54	1084.14
568.90	1072.43
569.25	1066.11
569.60	1064.01
569.95	1066.82
570.31	1072.20
570.66	1078.28
571.01	1081.56
571.36	1088.35
571.71	1078.28
572.06	1072.90
572.42	1077.11
572.77	1086.24
573.12	1093.73
573.47	1099.58
573.82	1101.22
574.18	1101.22
574.53	1099.58
574.88	1095.84
575.23	1101.69
575.58	1098.65
575.93	1098.88
576.28	1092.56
576.64	1089.52
576.99	1091.39
577.34	1103.09
577.69	1102.86
578.04	1109.18
578.39	1106.14
578.74	1097.24
579.09	1088.35
579.44	1086.48
579.80	1075.71
580.15	1073.14
580.50	1064.94
580.85	1071.03
581.20	1070.56
581.55	1065.88
581.90	1072.90
582.25	1088.35
582.60	1083.20
582.95	1089.52
583.30	1104.73
583.65	1102.16
584.00	1089.75
584.35	1082.73
584.71	1071.50
585.06	1074.07
585.41	1069.39
585.76	1079.46
586.11	1081.80
586.46	1084.14
586.81	1075.94
587.16	1069.39
587.51	1073.60
587.86	1076.41
588.21	1077.58
588.56	1077.11
588.91	1089.75
589.26	1077.82
589.61	1081.56
589.96	1085.77
590.31	1094.20
590.66	1085.07
591.01	1084.84
591.36	1080.63
591.71	1079.69
592.06	1066.82
592.41	1069.86
592.76	1075.94
593.10	1080.39
593.45	1079.22
593.80	1077.11
594.15	1073.14
594.50	1071.50
594.85	1075.71
595.20	1074.77
595.55	1089.52
595.90	1100.05
596.25	1103.80
596.60	1098.41
596.95	1105.20
597.30	1105.90
597.64	1142.88
597.99	1151.31
598.34	1153.65
598.69	1150.84
599.04	1148.03
599.39	1106.61
599.74	1099.35
600.09	1091.63
600.44	1090.92
600.78	1076.88
601.13	1077.11
601.48	1078.28
601.83	1085.54
602.18	1086.48
602.53	1098.41
602.88	1101.92
603.22	1090.92
603.57	1087.18
603.92	1078.52
604.27	1075.71
604.62	1064.01
604.97	1075.71
605.31	1074.07
605.66	1080.86
606.01	1074.07
606.36	1083.67
606.71	1078.99
607.05	1082.26
607.40	1082.73
607.75	1083.43
608.10	1084.14
608.44	1082.50
608.79	1078.28
609.14	1077.58
609.49	1082.97
609.84	1075.01
610.18	1079.46
610.53	1080.39
610.88	1080.16
611.23	1076.18
611.57	1081.09
611.92	1078.05
612.27	1084.37
612.62	1089.75
612.96	1094.20
613.31	1086.48
613.66	1081.80
614.00	1076.88
614.35	1069.62
614.70	1067.99
615.05	1072.20
615.39	1070.56
615.74	1069.16
616.09	1058.39
616.43	1064.71
616.78	1064.24
617.13	1073.14
617.47	1073.84
617.82	1085.07
618.17	1073.60
618.51	1075.94
618.86	1069.16
619.21	1064.48
619.55	1067.75
619.90	1074.31
620.25	1066.82
620.59	1070.33
620.94	1078.05
621.29	1070.56
621.63	1081.80
621.98	1093.26
622.32	1097.01
622.67	1100.05
623.02	1113.16
623.36	1100.75
623.71	1101.92
624.05	1100.75
624.40	1097.71
624.75	1089.75
625.09	1085.77
625.44	1090.22
625.78	1083.43
626.13	1078.28
626.48	1079.69
626.82	1082.50
627.17	1079.46
627.51	1077.11
627.86	1073.14
628.20	1064.24
628.55	1065.41
628.89	1061.20
629.24	1068.22
629.58	1082.26
629.93	1089.99
630.28	1092.56
630.62	1093.73
630.97	1095.37
631.31	1083.20
631.66	1076.41
632.00	1076.88
632.35	1073.84
632.69	1067.75
633.04	1074.54
633.38	1075.71
633.73	1064.48
634.07	1067.05
634.42	1064.94
634.76	1066.82
635.11	1071.03
635.45	1074.77
635.79	1071.73
636.14	1074.31
636.48	1082.03
636.83	1078.05
637.17	1090.69
637.52	1095.14
637.86	1097.71
638.21	1089.52
638.55	1093.97
638.89	1082.73
639.24	1081.56
639.58	1078.28
639.93	1078.52
640.27	1082.73
640.61	1083.20
640.96	1086.94
641.30	1090.22
641.65	1093.50
641.99	1088.82
642.33	1092.33
642.68	1075.24
643.02	1070.80
643.37	1060.03
643.71	1064.71
644.05	1061.90
644.40	1072.43
644.74	1075.94
645.08	1072.20
645.43	1071.50
645.77	1070.09
646.11	1071.73
646.46	1077.58
646.80	1093.26
647.14	1091.39
647.49	1093.73
647.83	1097.71
648.17	1094.43
648.52	1086.94
648.86	1078.99
649.20	1072.43
649.55	1067.05
649.89	1058.86
650.23	1058.86
650.57	1064.48
650.92	1071.97
651.26	1081.09
651.60	1084.84
651.95	1081.80
652.29	1088.35
652.63	1089.52
652.97	1090.69
653.32	1094.43
653.66	1098.18
654.00	1090.92
654.34	1086.94
654.69	1079.22
655.03	1081.09
655.37	1081.33
655.71	1079.69
656.05	1076.88
656.40	1075.94
656.74	1064.48
657.08	1058.62
657.42	1060.03
657.76	1061.20
658.11	1054.18
658.45	1068.92
658.79	1075.24
659.13	1086.48
659.47	1097.24
659.82	1098.88
660.16	1083.20
660.50	1082.26
660.84	1074.77
661.18	1071.73
661.52	1074.31
661.87	1075.48
662.21	1074.31
662.55	1068.22
662.89	1067.28
663.23	1071.73
663.57	1088.12
663.91	1094.67
664.25	1098.88
664.60	1089.99
664.94	1094.90
665.28	1086.48
665.62	1078.75
665.96	1076.18
666.30	1079.69
666.64	1066.58
666.98	1072.20
667.32	1069.86
667.66	1079.46
668.01	1082.50
668.35	1086.01
668.69	1080.39
669.03	1083.43
669.37	1082.97
669.71	1093.03
670.05	1100.75
670.39	1095.84
670.73	1094.90
671.07	1088.35
671.41	1080.63
671.75	1075.71
672.09	1086.94
672.43	1095.37
672.77	1086.01
673.11	1079.92
673.45	1075.71
673.79	1067.99
674.13	1070.33
674.47	1077.82
674.81	1080.39
675.15	1081.33
675.49	1082.97
675.83	1084.84
676.17	1091.86
676.51	1094.43
676.85	1098.65
677.19	1097.24
677.53	1093.03
677.87	1086.01
678.21	1084.84
678.55	1089.05
678.89	1089.29
679.23	1078.28
679.57	1086.71
679.90	1083.90
680.24	1080.63
680.58	1084.37
680.92	1093.97
681.26	1092.80
681.60	1101.92
681.94	1096.07
682.28	1097.95
682.62	1093.26
682.96	1093.97
683.29	1090.46
683.63	1097.24
683.97	1098.65
684.31	1094.67
684.65	1084.37
684.99	1082.97
685.33	1077.58
685.67	1069.39
686.00	1071.73
686.34	1067.05
686.68	1061.43
687.02	1071.03
687.36	1071.73
687.70	1073.84
688.03	1092.33
688.37	1100.99
688.71	1093.73
689.05	1095.37
689.39	1097.71
689.72	1087.88
690.06	1084.60
690.40	1087.41
690.74	1092.33
691.08	1089.05
691.41	1085.07
691.75	1095.14
692.09	1089.99
692.43	1086.24
692.76	1085.54
693.10	1093.26
693.44	1081.56
693.78	1086.01
694.11	1086.01
694.45	1092.56
694.79	1085.77
695.13	1088.35
695.46	1089.05
695.80	1082.50
696.14	1079.92
696.48	1084.14
696.81	1082.50
697.15	1081.33
697.49	1077.82
697.82	1079.46
698.16	1061.67
698.50	1060.26
698.83	1060.03
699.17	1061.90
699.51	1057.92
699.84	1079.92
700.18	1080.63
700.52	1080.39
700.85	1093.26
701.19	1085.54
701.53	1083.90
701.86	1081.33
702.20	1085.54
702.54	1086.01
702.87	1091.39
703.21	1087.88
703.55	1094.20
703.88	1089.05
704.22	1085.77
704.55	1092.80
704.89	1102.39
705.23	1098.88
705.56	1100.29
705.90	1091.39
706.23	1084.60
706.57	1073.60
706.91	1079.69
707.24	1075.94
707.58	1088.82
707.91	1090.69
708.25	1090.46
708.58	1083.90
708.92	1089.05
709.26	1080.86
709.59	1076.88
709.93	1077.58
710.26	1075.71
710.60	1077.35
710.93	1074.54
711.27	1082.73
711.60	1084.37
711.94	1087.65
712.27	1076.41
712.61	1079.92
712.94	1074.77
713.28	1084.84
713.61	1085.77
713.95	1097.24
714.28	1099.58
714.62	1098.65
714.95	1089.52
715.29	1083.43
715.62	1076.88
715.96	1082.26
716.29	1084.60
716.63	1087.65
716.96	1099.35
717.29	1098.18
717.63	1093.03
717.96	1094.90
718.30	1091.86
718.63	1088.82
718.97	1097.01
719.30	1102.39
719.63	1097.95
719.97	1101.22
720.30	1092.56
720.64	1093.50
720.97	1082.26
721.30	1082.73
721.64	1076.18
721.97	1070.33
722.31	1056.75
722.64	1067.52
722.97	1071.03
723.31	1059.56
723.64	1063.77
723.97	1069.62
724.31	1057.22
724.64	1054.88
724.98	1061.90
725.31	1070.80
725.64	1076.88
725.98	1079.46
726.31	1085.54
726.64	1090.92
726.97	1091.16
727.31	1086.71
727.64	1084.37
727.97	1082.03
728.31	1075.48
728.64	1075.94
728.97	1078.28
729.31	1081.33
729.64	1073.37
729.97	1077.58
730.30	1077.35
730.64	1074.54
730.97	1077.35
731.30	1088.58
731.63	1092.80
731.97	1093.03
732.30	1093.03
732.63	1095.60
732.96	1085.54
733.30	1086.71
733.63	1079.22
733.96	1076.65
734.29	1071.73
734.63	1083.20
734.96	1079.22
735.29	1086.24
735.62	1092.33
735.95	1088.82
736.29	1075.94
736.62	1076.41
736.95	1063.54
737.28	1057.45
737.61	1064.48
737.94	1064.94
738.28	1067.28
738.61	1077.82
738.94	1081.80
739.27	1085.07
739.60	1091.39
739.93	1089.52
740.27	1084.37
740.60	1084.84
740.93	1082.97
741.26	1078.05
741.59	1069.39
741.92	1079.69
742.25	1084.84
742.58	1082.26
742.91	1091.16
743.25	1093.03
743.58	1093.97
743.91	1086.24
744.24	1080.63
744.57	1076.65
744.90	1077.35
745.23	1069.86
745.56	1065.18
745.89	1064.71
746.22	1060.50
746.55	1052.54
746.88	1055.58
747.21	1066.11
747.54	1071.03
747.87	1073.37
748.20	1094.67
748.53	1096.54
748.87	1092.09
749.20	1088.82
749.53	1086.24
749.86	1078.75
750.19	1077.11
750.52	1077.11
750.85	1082.03
751.18	1079.46
751.51	1077.58
751.84	1078.75
752.16	1074.77
752.49	1077.58
752.82	1081.33
753.15	1086.94
753.48	1081.09
753.81	1082.97
754.14	1084.37
754.47	1086.24
754.80	1071.50
755.13	1075.94
755.46	1072.90
755.79	1072.20
756.12	1074.07
756.45	1089.29
756.78	1084.84
757.11	1084.84
757.43	1081.33
757.76	1078.75
758.09	1083.67
758.42	1091.63
758.75	1100.05
759.08	1095.84
759.41	1096.07
759.74	1082.73
760.07	1073.37
760.39	1070.33
760.72	1070.09
761.05	1064.01
761.38	1071.03
761.71	1077.35
762.04	1077.58
762.36	1075.94
762.69	1087.18
763.02	1090.92
763.35	1087.18
763.68	1084.37
764.01	1089.99
764.33	1086.94
764.66	1076.41
764.99	1075.01
765.32	1079.46
765.65	1089.05
765.97	1094.43
766.30	1097.95
