SpectraSuite Data File
++++++++++++++++++++++++++++++++++++
Date: Mon Aug 26 10:25:51 PDT 2019
User: corrico
Dark Spectrum Present: No
Reference Spectrum Present: No
Number of Sampled Component Spectra: 1
Spectrometers: USB2+H06089
Integration Time (usec): 10000 (USB2+H06089)
Spectra Averaged: 2 (USB2+H06089)
Boxcar Smoothing: 2 (USB2+H06089)
Correct for Electrical Dark: No (USB2+H06089)
Strobe/Lamp Enabled: No (USB2+H06089)
Correct for Detector Non-linearity: No (USB2+H06089)
Correct for Stray Light: No (USB2+H06089)
Number of Pixels in Processed Spectrum: 2048
>>>>>Begin Processed Spectral Data<<<<<
339.70	1031.01
340.07	1031.01
340.45	993.79
340.82	973.90
341.19	956.58
341.57	931.77
341.94	926.62
342.31	902.98
342.69	899.47
343.06	885.19
343.43	887.06
343.81	887.77
344.18	899.94
344.55	897.83
344.93	909.06
345.30	909.30
345.67	919.13
346.04	929.66
346.42	941.36
346.79	941.13
347.16	956.11
347.54	964.30
347.91	969.68
348.28	974.13
348.65	994.73
349.03	1005.03
349.40	1020.01
349.77	1035.92
350.14	1051.13
350.52	1049.73
350.89	1047.86
351.26	1038.26
351.63	1033.58
352.01	1036.16
352.38	1049.73
352.75	1056.75
353.12	1069.86
353.50	1072.20
353.87	1067.52
354.24	1067.05
354.61	1084.14
354.98	1097.24
355.36	1106.61
355.73	1100.75
356.10	1097.24
356.47	1074.31
356.84	1066.11
357.22	1067.05
357.59	1082.26
357.96	1088.12
358.33	1100.29
358.70	1092.09
359.08	1089.99
359.45	1088.58
359.82	1090.69
360.19	1090.46
360.56	1088.82
360.94	1076.88
361.31	1078.75
361.68	1067.75
362.05	1057.45
362.42	1059.33
362.79	1072.20
363.16	1078.05
363.54	1080.86
363.91	1081.09
364.28	1073.60
364.65	1068.92
365.02	1051.84
365.39	1052.07
365.76	1054.18
366.14	1064.94
366.51	1065.18
366.88	1073.60
367.25	1072.67
367.62	1067.52
367.99	1063.31
368.36	1053.94
368.73	1058.16
369.10	1052.07
369.48	1060.96
369.85	1063.07
370.22	1070.80
370.59	1054.65
370.96	1057.92
371.33	1053.24
371.70	1054.65
372.07	1054.18
372.44	1061.90
372.81	1068.45
373.18	1068.92
373.55	1071.26
373.93	1067.28
374.30	1068.22
374.67	1066.35
375.04	1067.05
375.41	1058.62
375.78	1062.60
376.15	1062.14
376.52	1062.84
376.89	1075.71
377.26	1077.35
377.63	1089.75
378.00	1087.65
378.37	1086.48
378.74	1070.56
379.11	1070.56
379.48	1064.24
379.85	1069.16
380.22	1075.01
380.59	1082.50
380.96	1081.33
381.33	1073.60
381.70	1073.37
382.07	1063.54
382.44	1059.33
382.81	1063.31
383.18	1066.58
383.55	1064.24
383.92	1071.97
384.29	1078.05
384.66	1075.48
385.03	1070.80
385.40	1075.48
385.77	1066.58
386.14	1071.50
386.51	1085.31
386.88	1097.01
387.25	1094.20
387.62	1100.52
387.99	1089.75
388.36	1071.03
388.73	1071.50
389.10	1072.43
389.46	1069.86
389.83	1072.20
390.20	1082.73
390.57	1076.41
390.94	1075.01
391.31	1071.50
391.68	1072.20
392.05	1068.45
392.42	1059.56
392.79	1053.94
393.16	1053.24
393.53	1055.58
393.89	1059.79
394.26	1067.99
394.63	1067.05
395.00	1071.97
395.37	1063.54
395.74	1063.31
396.11	1060.03
396.48	1066.11
396.84	1069.16
397.21	1077.58
397.58	1078.75
397.95	1087.41
398.32	1086.94
398.69	1083.67
399.06	1078.75
399.42	1075.01
399.79	1064.48
400.16	1068.45
400.53	1075.48
400.90	1076.41
401.27	1080.86
401.64	1089.29
402.00	1080.16
402.37	1072.43
402.74	1065.65
403.11	1052.77
403.48	1058.39
403.84	1063.54
404.21	1069.16
404.58	1083.67
404.95	1093.73
405.32	1084.60
405.68	1083.67
406.05	1070.56
406.42	1056.05
406.79	1057.45
407.16	1061.20
407.52	1061.67
407.89	1071.03
408.26	1084.60
408.63	1078.52
408.99	1081.09
409.36	1072.67
409.73	1077.11
410.10	1079.22
410.47	1083.90
410.83	1080.39
411.20	1085.77
411.57	1079.69
411.94	1072.20
412.30	1070.56
412.67	1069.16
413.04	1085.07
413.40	1095.84
413.77	1086.01
414.14	1088.35
414.51	1091.16
414.87	1078.28
415.24	1066.11
415.61	1070.33
415.97	1066.35
416.34	1052.30
416.71	1053.48
417.08	1057.22
417.44	1065.41
417.81	1073.14
418.18	1089.75
418.54	1089.29
418.91	1099.12
419.28	1095.37
419.64	1095.14
420.01	1093.73
420.38	1090.69
420.74	1077.35
421.11	1069.86
421.48	1060.26
421.84	1054.18
422.21	1049.73
422.58	1053.94
422.94	1064.94
423.31	1061.90
423.68	1065.65
424.04	1072.20
424.41	1063.07
424.77	1060.73
425.14	1063.77
425.51	1060.26
425.87	1077.35
426.24	1080.16
426.61	1063.31
426.97	1055.82
427.34	1060.96
427.70	1039.20
428.07	1044.35
428.44	1056.99
428.80	1060.03
429.17	1062.37
429.53	1064.94
429.90	1066.58
430.27	1074.07
430.63	1078.52
431.00	1068.69
431.36	1076.41
431.73	1068.92
432.09	1057.22
432.46	1056.28
432.83	1066.11
433.19	1064.24
433.56	1065.65
433.92	1069.39
434.29	1068.69
434.65	1075.24
435.02	1070.80
435.38	1071.26
435.75	1078.05
436.11	1082.97
436.48	1073.84
436.84	1078.75
437.21	1086.94
437.57	1086.01
437.94	1075.01
438.30	1069.86
438.67	1073.37
439.03	1058.86
439.40	1062.14
439.76	1069.86
440.13	1080.16
440.49	1074.31
440.86	1086.01
441.22	1086.48
441.59	1083.90
441.95	1085.31
442.32	1085.54
442.68	1082.73
443.05	1071.73
443.41	1079.22
443.78	1076.65
444.14	1073.37
444.51	1081.56
444.87	1094.90
445.24	1092.33
445.60	1089.52
445.96	1097.48
446.33	1083.43
446.69	1074.31
447.06	1084.37
447.42	1079.22
447.79	1074.54
448.15	1082.50
448.51	1082.50
448.88	1076.41
449.24	1078.75
449.61	1075.48
449.97	1069.86
450.33	1067.52
450.70	1064.01
451.06	1069.86
451.43	1076.18
451.79	1071.73
452.15	1078.28
452.52	1079.22
452.88	1074.31
453.24	1073.37
453.61	1079.92
453.97	1069.16
454.34	1063.77
454.70	1062.37
455.06	1065.41
455.43	1071.50
455.79	1072.67
456.15	1075.71
456.52	1082.03
456.88	1072.20
457.24	1076.88
457.61	1079.92
457.97	1081.80
458.33	1076.65
458.70	1082.97
459.06	1076.18
459.42	1081.80
459.79	1075.71
460.15	1082.97
460.51	1074.07
460.88	1072.90
461.24	1077.35
461.60	1077.82
461.96	1067.28
462.33	1077.11
462.69	1081.33
463.05	1075.94
463.42	1080.39
463.78	1075.71
464.14	1081.33
464.50	1079.69
464.87	1081.80
465.23	1076.65
465.59	1087.18
465.95	1078.52
466.32	1068.22
466.68	1067.52
467.04	1077.11
467.40	1076.88
467.77	1070.56
468.13	1074.77
468.49	1076.65
468.85	1073.37
469.22	1065.88
469.58	1064.24
469.94	1060.50
470.30	1053.48
470.66	1056.28
471.03	1063.31
471.39	1072.20
471.75	1076.65
472.11	1085.31
472.47	1086.01
472.84	1086.94
473.20	1087.65
473.56	1087.18
473.92	1081.33
474.28	1080.16
474.65	1084.60
475.01	1084.14
475.37	1090.46
475.73	1097.48
476.09	1101.46
476.45	1097.71
476.81	1092.09
477.18	1084.60
477.54	1073.84
477.90	1067.99
478.26	1068.92
478.62	1084.37
478.98	1094.67
479.34	1104.73
479.71	1099.35
480.07	1090.92
480.43	1085.54
480.79	1085.77
481.15	1084.37
481.51	1087.88
481.87	1089.75
482.23	1085.54
482.59	1080.16
482.96	1080.86
483.32	1079.46
483.68	1076.41
484.04	1067.52
484.40	1067.28
484.76	1057.45
485.12	1059.33
485.48	1063.07
485.84	1070.80
486.20	1076.88
486.56	1081.33
486.92	1088.82
487.28	1093.26
487.64	1100.05
488.00	1097.01
488.37	1097.71
488.73	1096.78
489.09	1092.09
489.45	1091.39
489.81	1082.97
490.17	1084.84
490.53	1081.80
490.89	1082.26
491.25	1070.09
491.61	1078.99
491.97	1075.24
492.33	1071.26
492.69	1071.03
493.05	1075.01
493.41	1060.50
493.77	1069.86
494.13	1072.67
494.49	1073.14
494.85	1072.20
495.21	1083.43
495.57	1083.20
495.93	1082.26
496.29	1075.24
496.64	1078.05
497.00	1082.26
497.36	1074.54
497.72	1083.43
498.08	1084.37
498.44	1082.26
498.80	1091.39
499.16	1089.05
499.52	1074.54
499.88	1081.33
500.24	1080.16
500.60	1063.77
500.96	1064.48
501.32	1078.28
501.68	1081.80
502.03	1083.20
502.39	1078.99
502.75	1091.16
503.11	1076.18
503.47	1059.56
503.83	1061.43
504.19	1063.54
504.55	1048.56
504.91	1050.20
505.26	1070.09
505.62	1077.35
505.98	1088.12
506.34	1097.71
506.70	1105.90
507.06	1104.03
507.42	1091.39
507.78	1088.12
508.13	1081.09
508.49	1076.88
508.85	1073.37
509.21	1079.22
509.57	1073.14
509.93	1076.88
510.28	1078.05
510.64	1084.84
511.00	1090.22
511.36	1095.60
511.72	1090.69
512.07	1085.07
512.43	1077.35
512.79	1077.35
513.15	1079.69
513.51	1084.84
513.86	1096.78
514.22	1091.86
514.58	1097.48
514.94	1089.52
515.30	1094.90
515.65	1089.99
516.01	1096.31
516.37	1086.94
516.73	1095.84
517.08	1082.26
517.44	1084.60
517.80	1083.20
518.16	1083.20
518.51	1080.86
518.87	1090.22
519.23	1089.05
519.59	1092.56
519.94	1097.95
520.30	1094.67
520.66	1095.37
521.01	1091.63
521.37	1085.07
521.73	1078.75
522.09	1068.45
522.44	1066.82
522.80	1065.18
523.16	1071.26
523.51	1076.88
523.87	1089.52
524.23	1089.99
524.58	1094.20
524.94	1098.88
525.30	1099.12
525.65	1109.88
526.01	1116.20
526.37	1122.29
526.72	1128.37
527.08	1139.37
527.44	1129.31
527.79	1122.05
528.15	1118.54
528.51	1112.22
528.86	1101.92
529.22	1095.84
529.58	1103.33
529.93	1100.99
530.29	1096.31
530.65	1094.90
531.00	1108.01
531.36	1104.97
531.71	1114.09
532.07	1112.92
532.43	1108.71
532.78	1097.01
533.14	1094.90
533.49	1076.88
533.85	1086.94
534.21	1077.82
534.56	1082.50
534.92	1079.22
535.27	1085.07
535.63	1086.24
535.98	1104.73
536.34	1106.14
536.69	1112.22
537.05	1107.78
537.41	1100.75
537.76	1095.60
538.12	1087.65
538.47	1085.07
538.83	1092.56
539.18	1092.80
539.54	1087.88
539.89	1097.48
540.25	1095.60
540.60	1098.18
540.96	1089.05
541.31	1097.48
541.67	1093.50
542.02	1084.37
542.38	1078.05
542.73	1076.18
543.09	1073.60
543.44	1074.54
543.80	1091.63
544.15	1091.39
544.51	1106.84
544.86	1103.09
545.22	1105.90
545.57	1098.88
545.93	1107.54
546.28	1098.41
546.64	1097.71
546.99	1095.84
547.35	1088.12
547.70	1080.63
548.05	1081.09
548.41	1086.71
548.76	1083.90
549.12	1087.65
549.47	1086.71
549.83	1089.52
550.18	1081.56
550.53	1080.16
550.89	1082.73
551.24	1086.48
551.60	1081.80
551.95	1079.69
552.30	1083.90
552.66	1081.09
553.01	1080.86
553.37	1077.11
553.72	1082.97
554.07	1094.67
554.43	1105.67
554.78	1099.82
555.13	1097.48
555.49	1086.94
555.84	1079.22
556.19	1063.07
556.55	1068.45
556.90	1081.56
557.26	1094.67
557.61	1091.16
557.96	1095.60
558.32	1098.65
558.67	1089.52
559.02	1092.33
559.37	1093.73
559.73	1093.50
560.08	1090.69
560.43	1099.82
560.79	1094.43
561.14	1087.18
561.49	1086.71
561.85	1082.50
562.20	1073.84
562.55	1066.35
562.90	1072.90
563.26	1068.22
563.61	1064.24
563.96	1057.92
564.32	1060.03
564.67	1063.54
565.02	1069.62
565.37	1076.65
565.73	1078.99
566.08	1082.73
566.43	1079.22
566.78	1076.18
567.14	1069.39
567.49	1078.05
567.84	1070.09
568.19	1060.26
568.54	1063.54
568.90	1063.77
569.25	1063.31
569.60	1070.56
569.95	1078.52
570.31	1075.94
570.66	1078.28
571.01	1069.39
571.36	1073.37
571.71	1067.99
572.06	1072.90
572.42	1072.43
572.77	1086.48
573.12	1077.11
573.47	1078.99
573.82	1070.09
574.18	1075.94
574.53	1063.31
574.88	1062.14
575.23	1059.09
575.58	1067.52
575.93	1063.54
576.28	1063.77
576.64	1068.92
576.99	1080.16
577.34	1077.35
577.69	1086.01
578.04	1092.80
578.39	1089.75
578.74	1082.03
579.09	1079.69
579.44	1073.37
579.80	1078.75
580.15	1086.71
580.50	1088.82
580.85	1095.37
581.20	1092.33
581.55	1086.01
581.90	1079.69
582.25	1079.69
582.60	1074.77
582.95	1074.31
583.30	1073.60
583.65	1084.37
584.00	1086.24
584.35	1089.05
584.71	1097.71
585.06	1100.75
585.41	1082.73
585.76	1082.26
586.11	1089.05
586.46	1096.78
586.81	1106.37
587.16	1119.01
587.51	1115.97
587.86	1118.54
588.21	1111.52
588.56	1102.16
588.91	1097.01
589.26	1104.03
589.61	1094.67
589.96	1098.65
590.31	1103.09
590.66	1090.69
591.01	1077.82
591.36	1074.54
591.71	1071.73
592.06	1057.69
592.41	1076.65
592.76	1078.05
593.10	1075.48
593.45	1064.71
593.80	1074.54
594.15	1067.52
594.50	1076.18
594.85	1079.22
595.20	1085.54
595.55	1079.69
595.90	1081.56
596.25	1075.71
596.60	1079.69
596.95	1075.01
597.30	1072.20
597.64	1125.80
597.99	1131.18
598.34	1137.97
598.69	1140.31
599.04	1135.16
599.39	1083.43
599.74	1075.71
600.09	1073.14
600.44	1072.43
600.78	1082.50
601.13	1067.28
601.48	1072.20
601.83	1068.69
602.18	1074.77
602.53	1074.77
602.88	1098.18
603.22	1107.54
603.57	1108.24
603.92	1098.18
604.27	1098.65
604.62	1085.54
604.97	1076.18
605.31	1073.84
605.66	1079.46
606.01	1079.22
606.36	1075.24
606.71	1073.37
607.05	1076.88
607.40	1076.65
607.75	1076.88
608.10	1076.18
608.44	1081.09
608.79	1069.86
609.14	1066.11
609.49	1071.73
609.84	1089.99
610.18	1090.22
610.53	1105.67
610.88	1116.20
611.23	1127.90
611.57	1126.73
611.92	1126.50
612.27	1128.14
612.62	1121.82
612.96	1109.88
613.31	1104.03
613.66	1095.84
614.00	1084.60
614.35	1082.73
614.70	1078.52
615.05	1074.07
615.39	1071.73
615.74	1076.41
616.09	1077.58
616.43	1079.92
616.78	1082.03
617.13	1085.54
617.47	1082.03
617.82	1087.65
618.17	1084.37
618.51	1093.26
618.86	1100.75
619.21	1097.71
619.55	1090.69
619.90	1094.90
620.25	1087.88
620.59	1091.86
620.94	1088.35
621.29	1091.86
621.63	1084.84
621.98	1087.18
622.32	1080.39
622.67	1082.73
623.02	1079.69
623.36	1085.31
623.71	1084.14
624.05	1086.24
624.40	1090.22
624.75	1088.82
625.09	1093.50
625.44	1089.29
625.78	1085.54
626.13	1093.73
626.48	1090.46
626.82	1077.82
627.17	1072.67
627.51	1065.88
627.86	1055.11
628.20	1059.33
628.55	1070.80
628.89	1076.65
629.24	1084.14
629.58	1088.58
629.93	1087.18
630.28	1074.07
630.62	1078.28
630.97	1080.63
631.31	1085.31
631.66	1079.46
632.00	1086.48
632.35	1084.14
632.69	1088.12
633.04	1086.71
633.38	1106.37
633.73	1113.86
634.07	1116.90
634.42	1111.75
634.76	1104.50
635.11	1093.26
635.45	1082.26
635.79	1072.20
636.14	1072.90
636.48	1070.56
636.83	1066.11
637.17	1066.35
637.52	1070.56
637.86	1071.50
638.21	1073.37
638.55	1079.46
638.89	1078.99
639.24	1074.31
639.58	1072.20
639.93	1075.01
640.27	1072.20
640.61	1072.90
640.96	1071.50
641.30	1060.96
641.65	1060.96
641.99	1059.09
642.33	1060.96
642.68	1072.43
643.02	1078.99
643.37	1083.20
643.71	1089.75
644.05	1093.50
644.40	1086.01
644.74	1084.84
645.08	1080.39
645.43	1081.56
645.77	1077.58
646.11	1078.05
646.46	1078.28
646.80	1087.41
647.14	1088.35
647.49	1083.20
647.83	1083.90
648.17	1092.56
648.52	1075.94
648.86	1066.58
649.20	1071.26
649.55	1066.35
649.89	1063.54
650.23	1071.73
650.57	1075.94
650.92	1073.60
651.26	1078.52
651.60	1075.01
651.95	1073.60
652.29	1066.35
652.63	1069.86
652.97	1077.35
653.32	1076.65
653.66	1073.14
654.00	1079.22
654.34	1077.58
654.69	1067.05
655.03	1064.24
655.37	1072.20
655.71	1072.67
656.05	1073.37
656.40	1076.88
656.74	1078.75
657.08	1076.65
657.42	1074.77
657.76	1080.63
658.11	1081.80
658.45	1082.73
658.79	1072.43
659.13	1070.09
659.47	1069.39
659.82	1067.28
660.16	1064.71
660.50	1075.24
660.84	1073.37
661.18	1067.99
661.52	1066.35
661.87	1069.39
662.21	1067.75
662.55	1071.03
662.89	1076.18
663.23	1080.39
663.57	1083.67
663.91	1083.43
664.25	1082.26
664.60	1080.39
664.94	1078.28
665.28	1076.88
665.62	1084.60
665.96	1089.52
666.30	1089.29
666.64	1091.16
666.98	1094.20
667.32	1089.75
667.66	1086.24
668.01	1081.09
668.35	1067.99
668.69	1068.22
669.03	1056.99
669.37	1056.99
669.71	1058.62
670.05	1070.56
670.39	1068.45
670.73	1084.60
671.07	1090.92
671.41	1092.80
671.75	1094.67
672.09	1091.86
672.43	1088.35
672.77	1086.01
673.11	1078.99
673.45	1079.69
673.79	1086.48
674.13	1082.97
674.47	1082.50
674.81	1094.67
675.15	1095.14
675.49	1098.18
675.83	1093.97
676.17	1090.69
676.51	1076.88
676.85	1059.56
677.19	1055.35
677.53	1058.62
677.87	1049.73
678.21	1056.28
678.55	1075.48
678.89	1065.65
679.23	1071.26
679.57	1086.94
679.90	1100.05
680.24	1097.48
680.58	1099.35
680.92	1101.69
681.26	1101.22
681.60	1089.05
681.94	1087.41
682.28	1091.63
682.62	1073.84
682.96	1061.90
683.29	1056.99
683.63	1056.52
683.97	1059.09
684.31	1058.62
684.65	1077.35
684.99	1088.35
685.33	1085.54
685.67	1079.92
686.00	1086.24
686.34	1083.20
686.68	1069.86
687.02	1079.69
687.36	1082.97
687.70	1080.86
688.03	1072.90
688.37	1084.37
688.71	1071.50
689.05	1061.90
689.39	1051.60
689.72	1052.54
690.06	1056.75
690.40	1068.92
690.74	1080.63
691.08	1093.73
691.41	1085.31
691.75	1076.65
692.09	1068.69
692.43	1068.92
692.76	1073.84
693.10	1077.58
693.44	1076.18
693.78	1076.65
694.11	1058.16
694.45	1052.07
694.79	1060.50
695.13	1061.43
695.46	1066.11
695.80	1081.09
696.14	1085.77
696.48	1083.90
696.81	1095.37
697.15	1088.35
697.49	1088.12
697.82	1090.22
698.16	1088.58
698.50	1083.43
698.83	1086.24
699.17	1084.84
699.51	1085.77
699.84	1086.71
700.18	1082.50
700.52	1083.20
700.85	1080.63
701.19	1079.46
701.53	1079.22
701.86	1079.92
702.20	1079.69
702.54	1079.22
702.87	1082.26
703.21	1086.24
703.55	1084.14
703.88	1092.09
704.22	1105.20
704.55	1108.24
704.89	1102.16
705.23	1094.90
705.56	1087.88
705.90	1076.41
706.23	1062.14
706.57	1056.05
706.91	1065.88
707.24	1069.39
707.58	1067.75
707.91	1075.71
708.25	1082.26
708.58	1079.22
708.92	1070.56
709.26	1072.43
709.59	1074.07
709.93	1078.75
710.26	1082.03
710.60	1090.22
710.93	1092.56
711.27	1086.01
711.60	1078.75
711.94	1078.05
712.27	1070.33
712.61	1075.94
712.94	1079.92
713.28	1081.33
713.61	1075.48
713.95	1072.67
714.28	1057.45
714.62	1059.79
714.95	1056.52
715.29	1062.84
715.62	1074.31
715.96	1090.22
716.29	1084.84
716.63	1086.71
716.96	1089.52
717.29	1080.86
717.63	1070.33
717.96	1075.94
718.30	1075.48
718.63	1069.86
718.97	1085.54
719.30	1091.16
719.63	1099.82
719.97	1111.99
720.30	1106.61
720.64	1099.82
720.97	1102.16
721.30	1093.03
721.64	1080.39
721.97	1079.22
722.31	1074.77
722.64	1072.20
722.97	1076.41
723.31	1078.52
723.64	1078.99
723.97	1074.31
724.31	1071.97
724.64	1063.54
724.98	1063.31
725.31	1075.71
725.64	1085.07
725.98	1091.86
726.31	1093.97
726.64	1088.82
726.97	1078.75
727.31	1080.63
727.64	1074.07
727.97	1069.62
728.31	1068.22
728.64	1070.09
728.97	1070.80
729.31	1067.05
729.64	1072.90
729.97	1073.60
730.30	1075.48
730.64	1073.14
730.97	1076.65
731.30	1071.26
731.63	1081.56
731.97	1074.31
732.30	1071.03
732.63	1068.69
732.96	1085.54
733.30	1078.28
733.63	1089.29
733.96	1093.97
734.29	1093.50
734.63	1085.07
734.96	1087.88
735.29	1084.84
735.62	1071.50
735.95	1068.22
736.29	1056.05
736.62	1052.30
736.95	1054.18
737.28	1054.41
737.61	1058.86
737.94	1063.31
738.28	1054.18
738.61	1049.50
738.94	1054.18
739.27	1048.56
739.60	1048.56
739.93	1065.65
740.27	1067.99
740.60	1074.77
740.93	1082.50
741.26	1082.50
741.59	1071.50
741.92	1073.37
742.25	1059.79
742.58	1063.77
742.91	1073.14
743.25	1088.35
743.58	1082.03
743.91	1088.12
744.24	1084.14
744.57	1077.82
744.90	1067.52
745.23	1071.97
745.56	1077.82
745.89	1089.29
746.22	1088.58
746.55	1086.71
746.88	1086.94
747.21	1081.56
747.54	1071.97
747.87	1070.80
748.20	1078.75
748.53	1083.67
748.87	1085.77
749.20	1087.88
749.53	1091.16
749.86	1084.60
750.19	1081.09
750.52	1082.03
750.85	1076.41
751.18	1077.82
751.51	1086.01
751.84	1078.75
752.16	1074.07
752.49	1069.62
752.82	1073.14
753.15	1066.11
753.48	1073.60
753.81	1080.63
754.14	1083.20
754.47	1078.52
754.80	1076.41
755.13	1068.22
755.46	1073.37
755.79	1076.18
756.12	1080.39
756.45	1088.58
756.78	1094.90
757.11	1089.05
757.43	1099.58
757.76	1106.37
758.09	1106.84
758.42	1117.37
758.75	1110.58
759.08	1098.65
759.41	1090.92
759.74	1078.99
760.07	1077.58
760.39	1076.18
760.72	1082.50
761.05	1081.56
761.38	1092.09
761.71	1081.56
762.04	1091.39
762.36	1094.90
762.69	1085.54
763.02	1086.24
763.35	1087.41
763.68	1079.69
764.01	1068.92
764.33	1078.75
764.66	1070.09
764.99	1075.71
765.32	1069.16
765.65	1075.48
765.97	1076.65
766.30	1082.03
