SpectraSuite Data File
++++++++++++++++++++++++++++++++++++
Date: Mon Aug 26 10:25:53 PDT 2019
User: corrico
Dark Spectrum Present: No
Reference Spectrum Present: No
Number of Sampled Component Spectra: 1
Spectrometers: USB2+H06089
Integration Time (usec): 10000 (USB2+H06089)
Spectra Averaged: 2 (USB2+H06089)
Boxcar Smoothing: 2 (USB2+H06089)
Correct for Electrical Dark: No (USB2+H06089)
Strobe/Lamp Enabled: No (USB2+H06089)
Correct for Detector Non-linearity: No (USB2+H06089)
Correct for Stray Light: No (USB2+H06089)
Number of Pixels in Processed Spectrum: 2048
>>>>>Begin Processed Spectral Data<<<<<
339.70	1039.20
340.07	1039.20
340.45	997.54
340.82	977.88
341.19	959.39
341.57	926.15
341.94	922.41
342.31	906.26
342.69	897.13
343.06	888.94
343.43	898.30
343.81	904.85
344.18	916.55
344.55	928.02
344.93	931.77
345.30	931.53
345.67	928.96
346.04	934.58
346.42	945.34
346.79	956.81
347.16	969.45
347.54	980.92
347.91	983.49
348.28	976.94
348.65	980.92
349.03	982.79
349.40	991.22
349.77	1006.90
350.14	1019.54
350.52	1028.67
350.89	1038.50
351.26	1049.73
351.63	1045.05
352.01	1058.16
352.38	1058.16
352.75	1060.03
353.12	1062.84
353.50	1072.20
353.87	1071.03
354.24	1078.75
354.61	1078.28
354.98	1078.05
355.36	1072.43
355.73	1064.24
356.10	1060.26
356.47	1066.58
356.84	1058.39
357.22	1058.39
357.59	1065.41
357.96	1066.82
358.33	1060.26
358.70	1072.43
359.08	1070.56
359.45	1063.31
359.82	1067.75
360.19	1078.99
360.56	1075.71
360.94	1082.73
361.31	1092.09
361.68	1086.24
362.05	1080.16
362.42	1073.37
362.79	1066.58
363.16	1051.13
363.54	1059.56
363.91	1057.92
364.28	1069.86
364.65	1074.54
365.02	1075.01
365.39	1066.82
365.76	1073.14
366.14	1059.33
366.51	1060.03
366.88	1056.05
367.25	1054.65
367.62	1053.94
367.99	1065.41
368.36	1056.75
368.73	1063.77
369.10	1065.18
369.48	1061.20
369.85	1054.65
370.22	1061.90
370.59	1069.86
370.96	1075.24
371.33	1071.50
371.70	1072.90
372.07	1073.37
372.44	1072.20
372.81	1069.62
373.18	1072.20
373.55	1076.18
373.93	1074.54
374.30	1077.58
374.67	1066.82
375.04	1064.71
375.41	1076.65
375.78	1079.46
376.15	1074.54
376.52	1081.09
376.89	1083.67
377.26	1061.67
377.63	1060.73
378.00	1056.28
378.37	1059.09
378.74	1052.77
379.11	1055.82
379.48	1064.94
379.85	1066.82
380.22	1067.28
380.59	1068.92
380.96	1068.69
381.33	1070.80
381.70	1080.86
382.07	1083.90
382.44	1099.12
382.81	1101.22
383.18	1097.48
383.55	1088.12
383.92	1089.99
384.29	1080.39
384.66	1085.77
385.03	1076.65
385.40	1079.92
385.77	1075.24
386.14	1082.50
386.51	1075.94
386.88	1079.92
387.25	1080.16
387.62	1077.58
387.99	1073.14
388.36	1076.65
388.73	1085.31
389.10	1091.16
389.46	1086.94
389.83	1087.41
390.20	1078.52
390.57	1066.11
390.94	1061.43
391.31	1066.35
391.68	1065.65
392.05	1070.09
392.42	1072.20
392.79	1064.24
393.16	1064.48
393.53	1060.26
393.89	1068.92
394.26	1071.50
394.63	1073.84
395.00	1062.84
395.37	1069.16
395.74	1058.62
396.11	1068.45
396.48	1079.22
396.84	1079.69
397.21	1076.65
397.58	1078.05
397.95	1075.01
398.32	1070.09
398.69	1079.69
399.06	1085.31
399.42	1089.29
399.79	1081.33
400.16	1068.45
400.53	1057.69
400.90	1055.82
401.27	1058.39
401.64	1056.75
402.00	1072.20
402.37	1082.03
402.74	1082.97
403.11	1071.50
403.48	1065.18
403.84	1071.03
404.21	1086.01
404.58	1086.48
404.95	1102.63
405.32	1108.71
405.68	1098.41
406.05	1078.52
406.42	1066.35
406.79	1061.90
407.16	1059.79
407.52	1060.50
407.89	1069.62
408.26	1068.69
408.63	1072.43
408.99	1078.99
409.36	1083.67
409.73	1089.05
410.10	1096.78
410.47	1080.86
410.83	1075.48
411.20	1067.75
411.57	1061.67
411.94	1060.03
412.30	1068.92
412.67	1071.26
413.04	1071.50
413.40	1070.56
413.77	1076.65
414.14	1079.69
414.51	1082.97
414.87	1087.88
415.24	1084.37
415.61	1074.31
415.97	1065.18
416.34	1062.14
416.71	1067.99
417.08	1068.22
417.44	1076.65
417.81	1079.46
418.18	1079.69
418.54	1067.52
418.91	1076.18
419.28	1072.43
419.64	1073.84
420.01	1078.05
420.38	1076.41
420.74	1071.26
421.11	1069.16
421.48	1070.56
421.84	1065.41
422.21	1068.45
422.58	1060.50
422.94	1065.65
423.31	1057.69
423.68	1063.31
424.04	1071.97
424.41	1077.35
424.77	1074.77
425.14	1079.92
425.51	1078.52
425.87	1075.48
426.24	1077.82
426.61	1081.33
426.97	1082.73
427.34	1075.71
427.70	1073.84
428.07	1076.88
428.44	1068.92
428.80	1070.80
429.17	1079.22
429.53	1074.07
429.90	1072.90
430.27	1075.01
430.63	1071.73
431.00	1065.88
431.36	1064.48
431.73	1064.94
432.09	1066.11
432.46	1080.63
432.83	1079.46
433.19	1092.80
433.56	1087.65
433.92	1091.63
434.29	1079.22
434.65	1081.80
435.02	1077.35
435.38	1083.67
435.75	1082.50
436.11	1089.52
436.48	1092.56
436.84	1095.37
437.21	1090.22
437.57	1085.77
437.94	1087.41
438.30	1087.65
438.67	1075.48
439.03	1079.69
439.40	1081.33
439.76	1076.41
440.13	1074.31
440.49	1082.97
440.86	1084.84
441.22	1084.60
441.59	1089.29
441.95	1090.92
442.32	1089.75
442.68	1084.37
443.05	1079.69
443.41	1071.73
443.78	1071.50
444.14	1071.73
444.51	1062.14
444.87	1064.24
445.24	1065.18
445.60	1061.20
445.96	1057.45
446.33	1072.67
446.69	1073.60
447.06	1075.24
447.42	1078.05
447.79	1077.58
448.15	1070.56
448.51	1073.37
448.88	1070.80
449.24	1067.99
449.61	1070.80
449.97	1072.20
450.33	1074.07
450.70	1075.94
451.06	1078.05
451.43	1079.46
451.79	1082.73
452.15	1078.99
452.52	1081.33
452.88	1080.86
453.24	1081.33
453.61	1086.01
453.97	1089.05
454.34	1083.90
454.70	1086.71
455.06	1089.99
455.43	1087.18
455.79	1081.80
456.15	1086.24
456.52	1084.84
456.88	1083.20
457.24	1086.01
457.61	1092.33
457.97	1096.78
458.33	1105.90
458.70	1109.41
459.06	1103.33
459.42	1102.63
459.79	1101.46
460.15	1095.60
460.51	1084.60
460.88	1078.75
461.24	1080.86
461.60	1069.39
461.96	1053.71
462.33	1058.16
462.69	1070.09
463.05	1071.26
463.42	1075.01
463.78	1073.14
464.14	1076.41
464.50	1067.52
464.87	1060.50
465.23	1053.71
465.59	1065.41
465.95	1064.24
466.32	1069.39
466.68	1068.22
467.04	1079.46
467.40	1077.11
467.77	1084.14
468.13	1078.52
468.49	1076.88
468.85	1070.80
469.22	1082.50
469.58	1069.86
469.94	1095.37
470.30	1093.03
470.66	1103.56
471.03	1093.03
471.39	1091.16
471.75	1055.82
472.11	1062.84
472.47	1049.96
472.84	1049.50
473.20	1053.24
473.56	1067.99
473.92	1069.16
474.28	1082.97
474.65	1085.31
475.01	1083.20
475.37	1085.31
475.73	1085.07
476.09	1080.63
476.45	1087.18
476.81	1092.80
477.18	1100.75
477.54	1101.92
477.90	1098.65
478.26	1085.54
478.62	1092.33
478.98	1082.73
479.34	1080.63
479.71	1072.90
480.07	1074.77
480.43	1065.41
480.79	1060.26
481.15	1062.14
481.51	1066.82
481.87	1066.35
482.23	1063.54
482.59	1065.88
482.96	1058.39
483.32	1059.79
483.68	1063.77
484.04	1070.33
484.40	1072.20
484.76	1071.97
485.12	1071.50
485.48	1078.75
485.84	1072.43
486.20	1071.03
486.56	1081.56
486.92	1082.50
487.28	1076.88
487.64	1073.37
488.00	1069.86
488.37	1068.22
488.73	1073.37
489.09	1076.41
489.45	1091.16
489.81	1103.33
490.17	1110.58
490.53	1109.65
490.89	1106.37
491.25	1096.78
491.61	1090.69
491.97	1085.77
492.33	1088.82
492.69	1078.28
493.05	1078.28
493.41	1073.14
493.77	1067.05
494.13	1064.71
494.49	1075.24
494.85	1066.35
495.21	1081.80
495.57	1090.46
495.93	1085.77
496.29	1080.86
496.64	1081.56
497.00	1067.52
497.36	1075.71
497.72	1078.28
498.08	1088.58
498.44	1093.50
498.80	1096.54
499.16	1082.97
499.52	1088.35
499.88	1088.35
500.24	1084.60
500.60	1086.01
500.96	1086.94
501.32	1083.20
501.68	1076.88
502.03	1081.33
502.39	1079.22
502.75	1076.41
503.11	1062.60
503.47	1061.67
503.83	1059.79
504.19	1049.50
504.55	1040.13
504.91	1053.24
505.26	1052.54
505.62	1050.43
505.98	1055.58
506.34	1067.52
506.70	1077.35
507.06	1087.88
507.42	1097.48
507.78	1101.69
508.13	1098.88
508.49	1091.39
508.85	1086.48
509.21	1084.14
509.57	1081.09
509.93	1085.07
510.28	1089.05
510.64	1082.26
511.00	1084.14
511.36	1090.46
511.72	1084.60
512.07	1074.77
512.43	1080.86
512.79	1077.35
513.15	1078.28
513.51	1076.41
513.86	1082.97
514.22	1081.09
514.58	1096.78
514.94	1098.18
515.30	1109.18
515.65	1107.54
516.01	1102.86
516.37	1088.82
516.73	1082.97
517.08	1079.46
517.44	1091.39
517.80	1107.07
518.16	1114.56
518.51	1121.12
518.87	1118.78
519.23	1102.86
519.59	1094.43
519.94	1081.80
520.30	1077.82
520.66	1084.84
521.01	1092.80
521.37	1099.12
521.73	1117.37
522.09	1118.07
522.44	1115.50
522.80	1106.37
523.16	1099.35
523.51	1093.97
523.87	1087.18
524.23	1091.39
524.58	1091.16
524.94	1092.09
525.30	1088.82
525.65	1087.65
526.01	1082.73
526.37	1086.71
526.72	1080.39
527.08	1085.54
527.44	1097.01
527.79	1093.50
528.15	1099.12
528.51	1108.48
528.86	1093.50
529.22	1091.39
529.58	1095.84
529.93	1104.03
530.29	1102.16
530.65	1108.71
531.00	1103.33
531.36	1103.80
531.71	1086.71
532.07	1086.24
532.43	1086.48
532.78	1088.12
533.14	1084.60
533.49	1089.99
533.85	1102.39
534.21	1109.41
534.56	1116.90
534.92	1118.31
535.27	1117.37
535.63	1099.58
535.98	1094.43
536.34	1093.73
536.69	1095.14
537.05	1093.97
537.41	1099.12
537.76	1098.65
538.12	1091.39
538.47	1086.94
538.83	1087.18
539.18	1075.01
539.54	1079.69
539.89	1080.16
540.25	1076.65
540.60	1082.50
540.96	1084.37
541.31	1082.03
541.67	1087.41
542.02	1095.60
542.38	1088.35
542.73	1095.60
543.09	1099.35
543.44	1089.29
543.80	1079.46
544.15	1087.65
544.51	1086.71
544.86	1082.03
545.22	1091.16
545.57	1101.92
545.93	1089.05
546.28	1094.67
546.64	1091.39
546.99	1089.75
547.35	1082.50
547.70	1075.94
548.05	1066.82
548.41	1073.84
548.76	1078.28
549.12	1082.26
549.47	1101.46
549.83	1115.73
550.18	1107.78
550.53	1102.16
550.89	1099.58
551.24	1085.31
551.60	1074.54
551.95	1079.22
552.30	1082.03
552.66	1075.48
553.01	1089.99
553.37	1092.33
553.72	1090.46
554.07	1085.77
554.43	1096.31
554.78	1083.43
555.13	1072.67
555.49	1075.48
555.84	1077.11
556.19	1073.84
556.55	1079.46
556.90	1080.39
557.26	1076.18
557.61	1074.54
557.96	1080.86
558.32	1089.29
558.67	1095.60
559.02	1092.56
559.37	1089.99
559.73	1078.28
560.08	1067.05
560.43	1073.37
560.79	1077.11
561.14	1084.37
561.49	1085.07
561.85	1087.18
562.20	1078.99
562.55	1078.52
562.90	1068.69
563.26	1074.77
563.61	1074.31
563.96	1077.58
564.32	1085.31
564.67	1092.56
565.02	1094.67
565.37	1094.43
565.73	1098.18
566.08	1089.99
566.43	1089.75
566.78	1076.65
567.14	1079.69
567.49	1082.50
567.84	1092.09
568.19	1097.01
568.54	1111.52
568.90	1105.90
569.25	1094.67
569.60	1082.50
569.95	1073.14
570.31	1068.45
570.66	1080.16
571.01	1087.18
571.36	1090.22
571.71	1097.71
572.06	1096.78
572.42	1089.52
572.77	1084.60
573.12	1087.18
573.47	1076.41
573.82	1074.31
574.18	1065.65
574.53	1064.48
574.88	1067.05
575.23	1075.48
575.58	1074.07
575.93	1083.43
576.28	1088.12
576.64	1084.60
576.99	1086.24
577.34	1086.94
577.69	1092.33
578.04	1086.71
578.39	1081.80
578.74	1080.86
579.09	1080.86
579.44	1078.28
579.80	1077.11
580.15	1083.20
580.50	1076.41
580.85	1075.48
581.20	1073.37
581.55	1081.09
581.90	1083.20
582.25	1085.54
582.60	1085.31
582.95	1089.99
583.30	1093.03
583.65	1083.20
584.00	1093.03
584.35	1100.52
584.71	1099.58
585.06	1100.05
585.41	1102.63
585.76	1097.95
586.11	1100.05
586.46	1085.07
586.81	1078.75
587.16	1075.24
587.51	1070.09
587.86	1066.82
588.21	1072.20
588.56	1071.73
588.91	1079.92
589.26	1088.35
589.61	1087.88
589.96	1080.16
590.31	1078.52
590.66	1073.60
591.01	1069.86
591.36	1063.07
591.71	1074.31
592.06	1076.88
592.41	1080.39
592.76	1075.94
593.10	1085.07
593.45	1088.58
593.80	1093.50
594.15	1093.73
594.50	1090.69
594.85	1082.73
595.20	1076.65
595.55	1077.58
595.90	1072.20
596.25	1075.48
596.60	1078.28
596.95	1076.88
597.30	1068.45
597.64	1123.22
597.99	1130.95
598.34	1129.54
598.69	1135.16
599.04	1136.80
599.39	1087.18
599.74	1078.75
600.09	1082.73
600.44	1096.54
600.78	1106.37
601.13	1100.99
601.48	1089.99
601.83	1089.29
602.18	1073.37
602.53	1065.88
602.88	1071.26
603.22	1090.46
603.57	1085.07
603.92	1082.97
604.27	1079.22
604.62	1077.82
604.97	1064.94
605.31	1071.26
605.66	1068.45
606.01	1072.20
606.36	1071.26
606.71	1077.82
607.05	1077.82
607.40	1074.54
607.75	1075.24
608.10	1068.45
608.44	1068.69
608.79	1069.16
609.14	1072.90
609.49	1077.82
609.84	1088.12
610.18	1092.80
610.53	1093.03
610.88	1103.33
611.23	1101.92
611.57	1105.90
611.92	1105.20
612.27	1104.97
612.62	1100.99
612.96	1098.65
613.31	1085.77
613.66	1088.12
614.00	1086.94
614.35	1091.16
614.70	1089.75
615.05	1102.16
615.39	1090.69
615.74	1088.12
616.09	1073.60
616.43	1066.82
616.78	1067.99
617.13	1069.62
617.47	1075.48
617.82	1079.92
618.17	1083.67
618.51	1072.20
618.86	1074.77
619.21	1071.26
619.55	1064.71
619.90	1067.05
620.25	1070.09
620.59	1068.22
620.94	1060.03
621.29	1068.45
621.63	1073.60
621.98	1071.97
622.32	1071.97
622.67	1083.67
623.02	1093.97
623.36	1085.31
623.71	1079.69
624.05	1083.67
624.40	1078.99
624.75	1071.50
625.09	1065.65
625.44	1079.92
625.78	1076.65
626.13	1074.07
626.48	1069.62
626.82	1076.88
627.17	1071.73
627.51	1077.82
627.86	1080.16
628.20	1083.43
628.55	1089.29
628.89	1092.09
629.24	1090.22
629.58	1090.22
629.93	1094.90
630.28	1086.24
630.62	1076.18
630.97	1062.60
631.31	1062.60
631.66	1053.48
632.00	1056.99
632.35	1054.18
632.69	1069.62
633.04	1073.60
633.38	1086.24
633.73	1088.35
634.07	1095.37
634.42	1084.14
634.76	1079.22
635.11	1082.50
635.45	1073.14
635.79	1077.35
636.14	1093.03
636.48	1093.97
636.83	1077.11
637.17	1082.73
637.52	1077.82
637.86	1075.71
638.21	1076.65
638.55	1078.99
638.89	1079.22
639.24	1087.41
639.58	1089.05
639.93	1085.54
640.27	1093.97
640.61	1092.80
640.96	1088.35
641.30	1082.97
641.65	1090.46
641.99	1085.77
642.33	1095.84
642.68	1086.48
643.02	1082.03
643.37	1081.56
643.71	1083.43
644.05	1078.05
644.40	1086.48
644.74	1089.99
645.08	1084.37
645.43	1085.07
645.77	1082.97
646.11	1086.94
646.46	1085.07
646.80	1085.77
647.14	1077.58
647.49	1077.82
647.83	1070.56
648.17	1069.62
648.52	1073.37
648.86	1083.20
649.20	1082.97
649.55	1084.14
649.89	1093.73
650.23	1097.24
650.57	1094.67
650.92	1094.67
651.26	1091.16
651.60	1073.37
651.95	1068.92
652.29	1066.58
652.63	1076.65
652.97	1075.71
653.32	1091.39
653.66	1081.56
654.00	1081.09
654.34	1075.48
654.69	1084.60
655.03	1072.67
655.37	1078.52
655.71	1078.75
656.05	1076.41
656.40	1077.82
656.74	1074.54
657.08	1078.52
657.42	1079.22
657.76	1081.33
658.11	1077.82
658.45	1087.88
658.79	1091.63
659.13	1096.78
659.47	1099.58
659.82	1105.44
660.16	1100.29
660.50	1096.07
660.84	1097.01
661.18	1093.03
661.52	1090.69
661.87	1089.52
662.21	1089.29
662.55	1079.69
662.89	1085.07
663.23	1082.97
663.57	1096.78
663.91	1093.97
664.25	1097.95
664.60	1088.58
664.94	1091.86
665.28	1089.99
665.62	1093.03
665.96	1086.71
666.30	1086.24
666.64	1069.62
666.98	1069.16
667.32	1075.48
667.66	1078.99
668.01	1073.37
668.35	1087.18
668.69	1082.73
669.03	1067.75
669.37	1067.52
669.71	1074.31
670.05	1069.16
670.39	1062.84
670.73	1070.56
671.07	1078.52
671.41	1083.43
671.75	1085.77
672.09	1082.73
672.43	1072.90
672.77	1072.43
673.11	1071.50
673.45	1070.56
673.79	1086.24
674.13	1091.86
674.47	1091.39
674.81	1087.18
675.15	1090.92
675.49	1075.71
675.83	1077.58
676.17	1066.82
676.51	1070.80
676.85	1071.26
677.19	1073.14
677.53	1077.82
677.87	1079.22
678.21	1075.24
678.55	1072.20
678.89	1073.14
679.23	1070.33
679.57	1071.73
679.90	1078.52
680.24	1084.84
680.58	1088.35
680.92	1083.20
681.26	1089.05
681.60	1082.03
681.94	1084.14
682.28	1082.50
682.62	1091.86
682.96	1082.03
683.29	1085.31
683.63	1082.03
683.97	1082.03
684.31	1088.35
684.65	1097.48
684.99	1094.43
685.33	1091.16
685.67	1089.99
686.00	1080.16
686.34	1080.86
686.68	1082.97
687.02	1078.99
687.36	1078.05
687.70	1080.39
688.03	1072.90
688.37	1068.69
688.71	1080.86
689.05	1090.92
689.39	1078.99
689.72	1082.73
690.06	1081.80
690.40	1063.31
690.74	1055.82
691.08	1063.77
691.41	1064.01
691.75	1066.58
692.09	1070.56
692.43	1075.24
692.76	1066.35
693.10	1068.45
693.44	1075.48
693.78	1073.84
694.11	1067.99
694.45	1078.75
694.79	1082.03
695.13	1082.50
695.46	1085.77
695.80	1087.88
696.14	1089.29
696.48	1076.88
696.81	1068.45
697.15	1069.86
697.49	1069.62
697.82	1071.50
698.16	1077.58
698.50	1071.73
698.83	1071.97
699.17	1059.09
699.51	1058.39
699.84	1056.05
700.18	1069.86
700.52	1063.54
700.85	1071.50
701.19	1062.60
701.53	1068.69
701.86	1067.75
702.20	1076.65
702.54	1081.33
702.87	1080.39
703.21	1082.97
703.55	1077.58
703.88	1072.67
704.22	1067.99
704.55	1067.99
704.89	1059.09
705.23	1057.92
705.56	1065.65
705.90	1064.71
706.23	1080.86
706.57	1090.46
706.91	1092.33
707.24	1085.54
707.58	1088.12
707.91	1078.28
708.25	1083.20
708.58	1086.24
708.92	1089.29
709.26	1093.26
709.59	1087.41
709.93	1073.60
710.26	1071.50
710.60	1074.31
710.93	1070.09
711.27	1077.11
711.60	1078.52
711.94	1075.24
712.27	1074.77
712.61	1080.63
712.94	1081.33
713.28	1075.94
713.61	1080.39
713.95	1074.07
714.28	1074.31
714.62	1076.18
714.95	1090.46
715.29	1086.94
715.62	1094.67
715.96	1099.58
716.29	1088.58
716.63	1087.65
716.96	1086.24
717.29	1078.75
717.63	1071.26
717.96	1083.20
718.30	1083.90
718.63	1086.48
718.97	1095.84
719.30	1087.65
719.63	1086.01
719.97	1078.05
720.30	1072.90
720.64	1068.45
720.97	1074.54
721.30	1071.50
721.64	1073.60
721.97	1088.35
722.31	1085.77
722.64	1090.22
722.97	1092.09
723.31	1090.22
723.64	1079.92
723.97	1083.90
724.31	1077.11
724.64	1082.73
724.98	1082.73
725.31	1079.46
725.64	1079.22
725.98	1085.77
726.31	1080.63
726.64	1081.80
726.97	1088.35
727.31	1086.24
727.64	1083.90
727.97	1074.77
728.31	1069.86
728.64	1064.01
728.97	1056.75
729.31	1056.75
729.64	1060.96
729.97	1066.58
730.30	1073.84
730.64	1076.41
730.97	1077.35
731.30	1077.82
731.63	1077.35
731.97	1076.18
732.30	1082.26
732.63	1080.16
732.96	1085.77
733.30	1091.86
733.63	1083.43
733.96	1082.50
734.29	1087.88
734.63	1085.54
734.96	1074.77
735.29	1072.43
735.62	1066.58
735.95	1063.54
736.29	1058.39
736.62	1060.73
736.95	1062.84
737.28	1058.62
737.61	1060.03
737.94	1054.65
738.28	1058.62
738.61	1069.39
738.94	1073.14
739.27	1069.86
739.60	1082.73
739.93	1090.22
740.27	1090.69
740.60	1097.95
740.93	1094.20
741.26	1104.03
741.59	1102.86
741.92	1105.20
742.25	1103.33
742.58	1108.24
742.91	1099.58
743.25	1088.35
743.58	1074.77
743.91	1081.09
744.24	1078.99
744.57	1064.48
744.90	1071.50
745.23	1079.92
745.56	1068.45
745.89	1070.56
746.22	1074.54
746.55	1073.60
746.88	1066.58
747.21	1071.97
747.54	1068.45
747.87	1078.05
748.20	1074.31
748.53	1084.84
748.87	1086.01
749.20	1089.05
749.53	1085.07
749.86	1084.14
750.19	1078.52
750.52	1080.63
750.85	1084.14
751.18	1082.50
751.51	1080.86
751.84	1085.54
752.16	1079.22
752.49	1073.14
752.82	1072.90
753.15	1088.12
753.48	1077.82
753.81	1082.73
754.14	1089.29
754.47	1090.22
754.80	1072.67
755.13	1078.52
755.46	1074.07
755.79	1070.09
756.12	1077.11
756.45	1077.58
756.78	1068.92
757.11	1060.73
757.43	1054.65
757.76	1054.88
758.09	1068.45
758.42	1081.56
758.75	1086.24
759.08	1100.29
759.41	1085.07
759.74	1080.63
760.07	1073.14
760.39	1077.58
760.72	1075.48
761.05	1077.58
761.38	1070.33
761.71	1068.92
762.04	1066.35
762.36	1066.11
762.69	1074.77
763.02	1077.11
763.35	1078.99
763.68	1082.73
764.01	1074.54
764.33	1077.35
764.66	1075.71
764.99	1081.09
765.32	1078.75
765.65	1081.56
765.97	1069.39
766.30	1071.73
