SpectraSuite Data File
++++++++++++++++++++++++++++++++++++
Date: Mon Aug 26 10:25:52 PDT 2019
User: corrico
Dark Spectrum Present: No
Reference Spectrum Present: No
Number of Sampled Component Spectra: 1
Spectrometers: USB2+H06089
Integration Time (usec): 10000 (USB2+H06089)
Spectra Averaged: 2 (USB2+H06089)
Boxcar Smoothing: 2 (USB2+H06089)
Correct for Electrical Dark: No (USB2+H06089)
Strobe/Lamp Enabled: No (USB2+H06089)
Correct for Detector Non-linearity: No (USB2+H06089)
Correct for Stray Light: No (USB2+H06089)
Number of Pixels in Processed Spectrum: 2048
>>>>>Begin Processed Spectral Data<<<<<
339.70	972.49
340.07	972.49
340.45	974.60
340.82	957.28
341.19	943.94
341.57	934.34
341.94	914.21
342.31	897.60
342.69	905.55
343.06	897.83
343.43	890.11
343.81	897.13
344.18	902.04
344.55	897.13
344.93	910.94
345.30	922.17
345.67	922.64
346.04	921.47
346.42	937.15
346.79	941.36
347.16	950.02
347.54	965.47
347.91	988.41
348.28	987.24
348.65	994.73
349.03	990.28
349.40	994.26
349.77	998.94
350.14	1010.18
350.52	1014.15
350.89	1032.41
351.26	1042.01
351.63	1042.24
352.01	1038.96
352.38	1042.01
352.75	1037.79
353.12	1036.62
353.50	1041.30
353.87	1051.60
354.24	1064.71
354.61	1072.67
354.98	1079.46
355.36	1086.01
355.73	1089.05
356.10	1087.65
356.47	1079.22
356.84	1082.73
357.22	1073.37
357.59	1070.56
357.96	1076.41
358.33	1092.33
358.70	1076.88
359.08	1085.54
359.45	1085.77
359.82	1083.20
360.19	1080.86
360.56	1093.50
360.94	1093.97
361.31	1097.48
361.68	1093.73
362.05	1089.99
362.42	1085.77
362.79	1074.54
363.16	1067.05
363.54	1051.84
363.91	1048.79
364.28	1041.30
364.65	1042.94
365.02	1044.82
365.39	1060.50
365.76	1057.45
366.14	1073.60
366.51	1083.43
366.88	1073.14
367.25	1074.54
367.62	1082.03
367.99	1072.90
368.36	1066.82
368.73	1081.56
369.10	1070.80
369.48	1055.58
369.85	1054.65
370.22	1064.01
370.59	1064.48
370.96	1069.86
371.33	1076.88
371.70	1082.73
372.07	1076.18
372.44	1070.80
372.81	1063.77
373.18	1066.11
373.55	1065.18
373.93	1067.75
374.30	1072.43
374.67	1085.07
375.04	1088.82
375.41	1084.60
375.78	1084.37
376.15	1088.35
376.52	1078.28
376.89	1077.35
377.26	1073.14
377.63	1066.58
378.00	1064.94
378.37	1068.45
378.74	1069.39
379.11	1074.54
379.48	1072.20
379.85	1073.60
380.22	1085.54
380.59	1084.37
380.96	1080.86
381.33	1093.73
381.70	1082.97
382.07	1074.31
382.44	1076.65
382.81	1073.14
383.18	1058.62
383.55	1064.24
383.92	1064.48
384.29	1056.52
384.66	1062.37
385.03	1065.18
385.40	1060.50
385.77	1058.39
386.14	1073.84
386.51	1091.39
386.88	1090.69
387.25	1091.63
387.62	1085.31
387.99	1075.48
388.36	1056.75
388.73	1058.86
389.10	1060.96
389.46	1072.20
389.83	1070.80
390.20	1071.73
390.57	1063.77
390.94	1071.97
391.31	1078.28
391.68	1078.28
392.05	1074.54
392.42	1088.35
392.79	1086.48
393.16	1080.86
393.53	1087.41
393.89	1089.29
394.26	1092.33
394.63	1086.01
395.00	1078.99
395.37	1067.99
395.74	1063.54
396.11	1047.16
396.48	1049.73
396.84	1053.48
397.21	1059.79
397.58	1066.58
397.95	1077.35
398.32	1080.39
398.69	1087.88
399.06	1088.82
399.42	1085.77
399.79	1074.07
400.16	1074.31
400.53	1062.84
400.90	1059.09
401.27	1055.82
401.64	1060.26
402.00	1054.18
402.37	1056.28
402.74	1052.54
403.11	1057.92
403.48	1070.09
403.84	1067.28
404.21	1064.24
404.58	1069.16
404.95	1073.37
405.32	1057.22
405.68	1056.05
406.05	1058.39
406.42	1063.54
406.79	1065.65
407.16	1078.99
407.52	1075.48
407.89	1082.50
408.26	1081.80
408.63	1077.35
408.99	1068.45
409.36	1077.11
409.73	1071.73
410.10	1069.16
410.47	1064.01
410.83	1070.56
411.20	1069.16
411.57	1064.01
411.94	1070.80
412.30	1077.82
412.67	1071.50
413.04	1077.35
413.40	1080.63
413.77	1065.88
414.14	1062.37
414.51	1057.69
414.87	1049.26
415.24	1042.47
415.61	1051.37
415.97	1056.75
416.34	1072.67
416.71	1078.99
417.08	1089.52
417.44	1088.58
417.81	1084.14
418.18	1075.71
418.54	1068.45
418.91	1075.94
419.28	1077.82
419.64	1084.60
420.01	1084.37
420.38	1089.52
420.74	1077.82
421.11	1076.65
421.48	1082.97
421.84	1086.01
422.21	1081.56
422.58	1084.60
422.94	1073.60
423.31	1058.86
423.68	1061.67
424.04	1074.54
424.41	1073.37
424.77	1085.07
425.14	1085.77
425.51	1086.01
425.87	1082.26
426.24	1085.77
426.61	1087.65
426.97	1094.20
427.34	1098.18
427.70	1093.26
428.07	1077.82
428.44	1074.07
428.80	1060.50
429.17	1051.37
429.53	1054.88
429.90	1069.16
430.27	1071.26
430.63	1076.65
431.00	1079.92
431.36	1086.94
431.73	1080.16
432.09	1073.14
432.46	1080.39
432.83	1087.18
433.19	1079.69
433.56	1084.14
433.92	1088.35
434.29	1090.69
434.65	1079.92
435.02	1084.60
435.38	1084.37
435.75	1088.12
436.11	1093.97
436.48	1110.12
436.84	1114.56
437.21	1113.63
437.57	1110.12
437.94	1100.75
438.30	1088.12
438.67	1083.20
439.03	1089.29
439.40	1092.56
439.76	1096.07
440.13	1099.12
440.49	1090.69
440.86	1087.65
441.22	1086.01
441.59	1081.33
441.95	1080.63
442.32	1091.86
442.68	1090.46
443.05	1091.86
443.41	1082.97
443.78	1086.01
444.14	1076.88
444.51	1074.07
444.87	1071.26
445.24	1072.67
445.60	1064.71
445.96	1067.99
446.33	1072.67
446.69	1070.33
447.06	1071.97
447.42	1079.92
447.79	1078.75
448.15	1077.11
448.51	1083.43
448.88	1084.60
449.24	1080.39
449.61	1082.97
449.97	1087.65
450.33	1086.71
450.70	1092.56
451.06	1095.37
451.43	1100.29
451.79	1101.69
452.15	1108.48
452.52	1107.78
452.88	1104.26
453.24	1094.43
453.61	1090.22
453.97	1082.97
454.34	1086.94
454.70	1077.11
455.06	1076.65
455.43	1077.11
455.79	1082.97
456.15	1077.82
456.52	1096.07
456.88	1094.90
457.24	1100.52
457.61	1097.01
457.97	1095.14
458.33	1082.26
458.70	1079.92
459.06	1072.67
459.42	1064.71
459.79	1070.09
460.15	1074.31
460.51	1079.92
460.88	1070.09
461.24	1078.52
461.60	1076.88
461.96	1081.80
462.33	1076.88
462.69	1085.54
463.05	1076.88
463.42	1075.94
463.78	1068.22
464.14	1074.07
464.50	1063.77
464.87	1066.35
465.23	1062.60
465.59	1060.50
465.95	1060.03
466.32	1065.88
466.68	1061.20
467.04	1062.60
467.40	1066.58
467.77	1061.43
468.13	1071.26
468.49	1080.86
468.85	1090.69
469.22	1090.46
469.58	1099.35
469.94	1097.01
470.30	1093.97
470.66	1082.73
471.03	1083.43
471.39	1084.60
471.75	1083.20
472.11	1083.90
472.47	1080.63
472.84	1086.71
473.20	1076.18
473.56	1073.84
473.92	1074.07
474.28	1086.01
474.65	1078.28
475.01	1091.63
475.37	1098.65
475.73	1090.69
476.09	1087.18
476.45	1087.65
476.81	1089.05
477.18	1088.82
477.54	1093.50
477.90	1094.20
478.26	1100.99
478.62	1092.33
478.98	1084.60
479.34	1088.35
479.71	1084.84
480.07	1073.60
480.43	1067.05
480.79	1072.20
481.15	1064.01
481.51	1062.60
481.87	1065.18
482.23	1071.26
482.59	1060.50
482.96	1064.01
483.32	1060.96
483.68	1062.84
484.04	1067.52
484.40	1087.88
484.76	1095.37
485.12	1096.78
485.48	1098.65
485.84	1093.97
486.20	1080.16
486.56	1063.54
486.92	1073.37
487.28	1067.05
487.64	1066.11
488.00	1061.67
488.37	1073.60
488.73	1064.48
489.09	1064.24
489.45	1075.71
489.81	1072.20
490.17	1079.92
490.53	1084.14
490.89	1088.12
491.25	1082.03
491.61	1097.48
491.97	1090.69
492.33	1102.86
492.69	1104.73
493.05	1103.56
493.41	1092.80
493.77	1089.75
494.13	1070.33
494.49	1074.07
494.85	1066.82
495.21	1071.50
495.57	1075.71
495.93	1083.43
496.29	1078.75
496.64	1083.90
497.00	1094.90
497.36	1089.75
497.72	1085.54
498.08	1090.92
498.44	1091.63
498.80	1076.18
499.16	1071.03
499.52	1067.52
499.88	1062.84
500.24	1059.09
500.60	1064.24
500.96	1067.99
501.32	1071.26
501.68	1078.28
502.03	1078.05
502.39	1084.60
502.75	1096.31
503.11	1093.26
503.47	1080.39
503.83	1089.29
504.19	1081.09
504.55	1076.18
504.91	1069.86
505.26	1066.35
505.62	1069.39
505.98	1066.35
506.34	1069.39
506.70	1071.73
507.06	1087.18
507.42	1078.05
507.78	1084.60
508.13	1081.80
508.49	1093.26
508.85	1086.48
509.21	1090.22
509.57	1084.84
509.93	1086.24
510.28	1092.56
510.64	1098.88
511.00	1102.86
511.36	1106.37
511.72	1100.75
512.07	1085.07
512.43	1088.35
512.79	1081.33
513.15	1083.20
513.51	1087.41
513.86	1094.67
514.22	1088.82
514.58	1087.88
514.94	1088.35
515.30	1085.07
515.65	1082.26
516.01	1082.50
516.37	1088.35
516.73	1090.46
517.08	1090.92
517.44	1096.31
517.80	1089.75
518.16	1081.80
518.51	1073.37
518.87	1071.97
519.23	1078.28
519.59	1086.71
519.94	1091.63
520.30	1092.09
520.66	1101.92
521.01	1093.50
521.37	1086.71
521.73	1091.63
522.09	1095.14
522.44	1086.94
522.80	1097.71
523.16	1103.33
523.51	1106.14
523.87	1108.48
524.23	1107.31
524.58	1095.60
524.94	1098.18
525.30	1083.20
525.65	1081.33
526.01	1087.41
526.37	1082.26
526.72	1072.43
527.08	1074.31
527.44	1072.67
527.79	1067.99
528.15	1063.77
528.51	1070.80
528.86	1077.11
529.22	1072.90
529.58	1074.77
529.93	1080.86
530.29	1086.94
530.65	1084.37
531.00	1086.71
531.36	1083.43
531.71	1083.43
532.07	1080.86
532.43	1090.69
532.78	1088.82
533.14	1093.50
533.49	1101.92
533.85	1108.95
534.21	1099.58
534.56	1109.65
534.92	1107.78
535.27	1107.07
535.63	1096.31
535.98	1100.29
536.34	1100.52
536.69	1101.22
537.05	1096.54
537.41	1091.39
537.76	1086.71
538.12	1079.92
538.47	1083.90
538.83	1080.63
539.18	1086.48
539.54	1098.41
539.89	1100.99
540.25	1101.92
540.60	1108.71
540.96	1101.92
541.31	1089.29
541.67	1089.99
542.02	1075.01
542.38	1082.97
542.73	1092.33
543.09	1089.52
543.44	1090.22
543.80	1102.86
544.15	1094.90
544.51	1085.54
544.86	1088.82
545.22	1094.67
545.57	1095.14
545.93	1097.48
546.28	1104.03
546.64	1108.24
546.99	1106.61
547.35	1102.63
547.70	1097.71
548.05	1090.46
548.41	1091.63
548.76	1087.18
549.12	1084.60
549.47	1079.69
549.83	1081.56
550.18	1072.67
550.53	1066.35
550.89	1073.37
551.24	1075.01
551.60	1082.73
551.95	1088.82
552.30	1098.18
552.66	1092.09
553.01	1094.20
553.37	1098.41
553.72	1100.75
554.07	1098.88
554.43	1092.09
554.78	1100.52
555.13	1085.07
555.49	1082.26
555.84	1068.69
556.19	1070.80
556.55	1058.86
556.90	1067.28
557.26	1059.79
557.61	1075.48
557.96	1087.88
558.32	1091.16
558.67	1086.24
559.02	1084.84
559.37	1083.20
559.73	1066.58
560.08	1067.28
560.43	1063.07
560.79	1055.82
561.14	1058.86
561.49	1079.22
561.85	1080.63
562.20	1086.01
562.55	1092.80
562.90	1087.65
563.26	1074.07
563.61	1068.45
563.96	1070.80
564.32	1074.54
564.67	1061.20
565.02	1067.75
565.37	1067.99
565.73	1073.84
566.08	1075.01
566.43	1094.20
566.78	1082.03
567.14	1088.12
567.49	1088.82
567.84	1086.94
568.19	1081.33
568.54	1090.22
568.90	1088.35
569.25	1078.28
569.60	1079.22
569.95	1086.94
570.31	1085.07
570.66	1091.63
571.01	1097.95
571.36	1099.58
571.71	1085.07
572.06	1087.18
572.42	1069.86
572.77	1063.31
573.12	1069.16
573.47	1073.84
573.82	1078.05
574.18	1095.14
574.53	1105.20
574.88	1100.52
575.23	1100.75
575.58	1089.05
575.93	1080.86
576.28	1072.43
576.64	1071.73
576.99	1077.11
577.34	1084.60
577.69	1082.73
578.04	1082.50
578.39	1077.82
578.74	1064.24
579.09	1064.01
579.44	1069.39
579.80	1071.97
580.15	1078.52
580.50	1091.16
580.85	1095.84
581.20	1098.65
581.55	1097.71
581.90	1096.54
582.25	1093.50
582.60	1090.69
582.95	1089.29
583.30	1091.63
583.65	1092.09
584.00	1086.01
584.35	1082.50
584.71	1077.35
585.06	1077.35
585.41	1086.01
585.76	1093.26
586.11	1092.09
586.46	1104.50
586.81	1094.90
587.16	1086.48
587.51	1087.88
587.86	1089.05
588.21	1084.37
588.56	1093.97
588.91	1090.69
589.26	1086.94
589.61	1099.12
589.96	1089.75
590.31	1086.71
590.66	1087.65
591.01	1082.50
591.36	1074.07
591.71	1083.67
592.06	1070.09
592.41	1068.92
592.76	1071.97
593.10	1063.54
593.45	1059.79
593.80	1083.43
594.15	1087.65
594.50	1082.97
594.85	1095.84
595.20	1097.48
595.55	1081.09
595.90	1083.43
596.25	1083.20
596.60	1082.97
596.95	1081.56
597.30	1105.90
597.64	1148.73
597.99	1161.61
598.34	1157.63
598.69	1158.33
599.04	1136.56
599.39	1090.46
599.74	1082.73
600.09	1088.58
600.44	1087.65
600.78	1094.90
601.13	1096.54
601.48	1102.63
601.83	1084.14
602.18	1083.20
602.53	1078.28
602.88	1074.54
603.22	1067.75
603.57	1084.14
603.92	1081.56
604.27	1079.46
604.62	1082.97
604.97	1085.07
605.31	1071.26
605.66	1076.88
606.01	1081.80
606.36	1082.03
606.71	1091.39
607.05	1097.48
607.40	1084.37
607.75	1086.94
608.10	1092.80
608.44	1077.35
608.79	1077.82
609.14	1085.77
609.49	1089.29
609.84	1079.22
610.18	1090.22
610.53	1092.56
610.88	1085.31
611.23	1073.84
611.57	1085.31
611.92	1083.43
612.27	1087.18
612.62	1096.54
612.96	1095.60
613.31	1084.37
613.66	1083.43
614.00	1078.75
614.35	1068.45
614.70	1078.99
615.05	1078.52
615.39	1067.99
615.74	1062.14
616.09	1065.65
616.43	1060.96
616.78	1064.48
617.13	1079.92
617.47	1089.05
617.82	1108.71
618.17	1106.37
618.51	1104.73
618.86	1100.05
619.21	1095.84
619.55	1082.03
619.90	1075.71
620.25	1080.86
620.59	1077.82
620.94	1076.65
621.29	1075.24
621.63	1089.05
621.98	1086.71
622.32	1083.67
622.67	1080.86
623.02	1073.14
623.36	1071.97
623.71	1065.65
624.05	1067.99
624.40	1069.62
624.75	1093.03
625.09	1091.39
625.44	1094.43
625.78	1100.52
626.13	1101.92
626.48	1084.37
626.82	1085.07
627.17	1087.18
627.51	1081.56
627.86	1078.28
628.20	1082.97
628.55	1076.88
628.89	1071.50
629.24	1070.09
629.58	1074.31
629.93	1064.01
630.28	1064.71
630.62	1063.31
630.97	1059.33
631.31	1064.48
631.66	1079.46
632.00	1081.33
632.35	1087.88
632.69	1086.71
633.04	1079.69
633.38	1067.52
633.73	1069.16
634.07	1070.80
634.42	1076.65
634.76	1077.11
635.11	1082.97
635.45	1080.63
635.79	1081.09
636.14	1086.24
636.48	1084.60
636.83	1084.84
637.17	1088.82
637.52	1078.75
637.86	1073.60
638.21	1077.58
638.55	1078.99
638.89	1076.65
639.24	1079.46
639.58	1083.20
639.93	1084.14
640.27	1079.92
640.61	1078.52
640.96	1076.41
641.30	1068.92
641.65	1064.94
641.99	1075.01
642.33	1066.82
642.68	1062.84
643.02	1066.58
643.37	1065.65
643.71	1072.20
644.05	1091.63
644.40	1098.65
644.74	1101.46
645.08	1106.84
645.43	1100.52
645.77	1091.39
646.11	1096.07
646.46	1090.46
646.80	1096.54
647.14	1093.97
647.49	1093.50
647.83	1100.05
648.17	1106.37
648.52	1091.63
648.86	1086.48
649.20	1087.18
649.55	1079.92
649.89	1078.05
650.23	1088.12
650.57	1083.90
650.92	1087.88
651.26	1098.18
651.60	1096.07
651.95	1092.09
652.29	1106.61
652.63	1091.39
652.97	1082.97
653.32	1078.28
653.66	1081.33
654.00	1067.05
654.34	1071.26
654.69	1062.60
655.03	1069.62
655.37	1078.28
655.71	1075.71
656.05	1078.28
656.40	1077.82
656.74	1073.60
657.08	1060.96
657.42	1066.58
657.76	1064.71
658.11	1066.11
658.45	1071.73
658.79	1067.99
659.13	1073.84
659.47	1077.82
659.82	1084.14
660.16	1074.54
660.50	1078.52
660.84	1072.43
661.18	1078.75
661.52	1071.03
661.87	1083.90
662.21	1085.54
662.55	1090.46
662.89	1083.20
663.23	1094.43
663.57	1084.60
663.91	1080.63
664.25	1075.48
664.60	1073.37
664.94	1073.84
665.28	1078.05
665.62	1078.75
665.96	1077.11
666.30	1078.05
666.64	1069.86
666.98	1066.35
667.32	1067.28
667.66	1061.67
668.01	1064.48
668.35	1070.33
668.69	1075.24
669.03	1074.31
669.37	1068.69
669.71	1076.65
670.05	1076.18
670.39	1077.58
670.73	1086.71
671.07	1101.69
671.41	1104.97
671.75	1100.75
672.09	1092.56
672.43	1097.95
672.77	1092.56
673.11	1079.92
673.45	1088.35
673.79	1094.20
674.13	1086.48
674.47	1092.33
674.81	1093.03
675.15	1086.48
675.49	1084.37
675.83	1076.65
676.17	1076.18
676.51	1074.77
676.85	1071.26
677.19	1074.77
677.53	1074.77
677.87	1072.67
678.21	1075.01
678.55	1084.14
678.89	1079.92
679.23	1078.52
679.57	1078.52
679.90	1075.24
680.24	1064.48
680.58	1073.60
680.92	1083.90
681.26	1086.94
681.60	1082.73
681.94	1084.84
682.28	1071.26
682.62	1061.20
682.96	1057.92
683.29	1067.52
683.63	1073.84
683.97	1074.54
684.31	1079.46
684.65	1079.22
684.99	1081.80
685.33	1075.48
685.67	1078.52
686.00	1075.48
686.34	1077.82
686.68	1075.71
687.02	1080.16
687.36	1080.16
687.70	1081.09
688.03	1077.82
688.37	1069.62
688.71	1074.07
689.05	1076.88
689.39	1085.77
689.72	1088.58
690.06	1091.63
690.40	1085.77
690.74	1092.09
691.08	1077.35
691.41	1088.58
691.75	1096.07
692.09	1092.09
692.43	1079.92
692.76	1084.60
693.10	1074.54
693.44	1071.50
693.78	1071.50
694.11	1078.05
694.45	1079.69
694.79	1076.88
695.13	1082.97
695.46	1091.39
695.80	1092.09
696.14	1089.05
696.48	1093.97
696.81	1086.01
697.15	1085.54
697.49	1082.03
697.82	1089.52
698.16	1088.35
698.50	1084.84
698.83	1080.86
699.17	1087.88
699.51	1090.22
699.84	1091.39
700.18	1090.22
700.52	1091.16
700.85	1084.60
701.19	1077.35
701.53	1075.94
701.86	1077.11
702.20	1082.26
702.54	1094.90
702.87	1101.22
703.21	1094.67
703.55	1097.48
703.88	1093.73
704.22	1077.82
704.55	1078.99
704.89	1083.67
705.23	1089.05
705.56	1084.14
705.90	1090.92
706.23	1090.92
706.57	1087.41
706.91	1084.60
707.24	1087.18
707.58	1091.86
707.91	1090.46
708.25	1089.52
708.58	1087.88
708.92	1087.88
709.26	1086.24
709.59	1086.01
709.93	1094.90
710.26	1098.65
710.60	1097.95
710.93	1102.63
711.27	1100.99
711.60	1102.16
711.94	1097.71
712.27	1100.52
712.61	1086.01
712.94	1084.37
713.28	1091.63
713.61	1093.50
713.95	1093.50
714.28	1102.16
714.62	1108.24
714.95	1098.18
715.29	1096.54
715.62	1087.88
715.96	1089.52
716.29	1082.26
716.63	1077.82
716.96	1078.99
717.29	1081.56
717.63	1073.14
717.96	1076.65
718.30	1079.46
718.63	1087.18
718.97	1093.73
719.30	1100.05
719.63	1099.82
719.97	1105.90
720.30	1094.67
720.64	1097.48
720.97	1088.82
721.30	1089.75
721.64	1092.33
721.97	1090.69
722.31	1086.24
722.64	1089.52
722.97	1087.88
723.31	1078.99
723.64	1085.07
723.97	1081.33
724.31	1093.50
724.64	1089.99
724.98	1078.52
725.31	1082.50
725.64	1079.46
725.98	1060.73
726.31	1052.54
726.64	1067.05
726.97	1055.82
727.31	1069.39
727.64	1079.22
727.97	1089.29
728.31	1091.63
728.64	1093.03
728.97	1086.01
729.31	1092.56
729.64	1082.26
729.97	1073.37
730.30	1082.03
730.64	1070.80
730.97	1061.67
731.30	1075.48
731.63	1071.26
731.97	1068.92
732.30	1074.31
732.63	1079.22
732.96	1073.60
733.30	1090.46
733.63	1091.39
733.96	1102.39
734.29	1107.54
734.63	1105.44
734.96	1100.29
735.29	1097.01
735.62	1094.20
735.95	1082.50
736.29	1084.14
736.62	1081.56
736.95	1080.86
737.28	1080.39
737.61	1083.20
737.94	1083.20
738.28	1080.16
738.61	1074.77
738.94	1068.45
739.27	1071.03
739.60	1074.07
739.93	1082.50
740.27	1086.48
740.60	1088.12
740.93	1090.22
741.26	1089.29
741.59	1086.71
741.92	1087.41
742.25	1082.97
742.58	1073.37
742.91	1072.20
743.25	1066.58
743.58	1072.43
743.91	1076.41
744.24	1086.71
744.57	1089.52
744.90	1089.75
745.23	1075.71
745.56	1076.65
745.89	1074.77
746.22	1070.33
746.55	1075.01
746.88	1082.50
747.21	1085.07
747.54	1081.56
747.87	1078.75
748.20	1076.18
748.53	1085.07
748.87	1083.20
749.20	1089.99
749.53	1088.58
749.86	1094.67
750.19	1083.20
750.52	1086.01
750.85	1080.16
751.18	1082.50
751.51	1072.20
751.84	1082.03
752.16	1081.09
752.49	1075.71
752.82	1082.26
753.15	1086.01
753.48	1072.43
753.81	1069.39
754.14	1069.86
754.47	1065.65
754.80	1063.77
755.13	1069.62
755.46	1078.99
755.79	1088.82
756.12	1097.95
756.45	1094.67
756.78	1088.58
757.11	1076.18
757.43	1067.75
757.76	1051.84
758.09	1052.30
758.42	1060.26
758.75	1070.56
759.08	1067.28
759.41	1076.88
759.74	1075.48
760.07	1073.37
760.39	1067.52
760.72	1078.99
761.05	1083.20
761.38	1089.05
761.71	1094.20
762.04	1097.24
762.36	1098.18
762.69	1100.05
763.02	1099.12
763.35	1096.31
763.68	1083.67
764.01	1082.97
764.33	1079.22
764.66	1073.84
764.99	1072.20
765.32	1080.86
765.65	1068.45
765.97	1058.86
766.30	1068.22
