SpectraSuite Data File
++++++++++++++++++++++++++++++++++++
Date: Mon Aug 26 10:25:51 PDT 2019
User: corrico
Dark Spectrum Present: No
Reference Spectrum Present: No
Number of Sampled Component Spectra: 1
Spectrometers: USB2+H06089
Integration Time (usec): 10000 (USB2+H06089)
Spectra Averaged: 2 (USB2+H06089)
Boxcar Smoothing: 2 (USB2+H06089)
Correct for Electrical Dark: No (USB2+H06089)
Strobe/Lamp Enabled: No (USB2+H06089)
Correct for Detector Non-linearity: No (USB2+H06089)
Correct for Stray Light: No (USB2+H06089)
Number of Pixels in Processed Spectrum: 2048
>>>>>Begin Processed Spectral Data<<<<<
339.70	1032.18
340.07	1032.18
340.45	988.64
340.82	963.60
341.19	940.90
341.57	911.64
341.94	896.19
342.31	896.89
342.69	894.55
343.06	886.13
343.43	888.70
343.81	895.02
344.18	892.45
344.55	893.38
344.93	902.51
345.30	904.38
345.67	911.64
346.04	919.83
346.42	928.02
346.79	924.75
347.16	945.11
347.54	956.58
347.91	972.02
348.28	981.85
348.65	1009.94
349.03	1015.56
349.40	1020.71
349.77	1022.35
350.14	1038.96
350.52	1031.01
350.89	1023.28
351.26	1029.37
351.63	1033.11
352.01	1037.33
352.38	1048.33
352.75	1063.31
353.12	1062.60
353.50	1065.65
353.87	1059.09
354.24	1055.58
354.61	1066.82
354.98	1070.80
355.36	1079.69
355.73	1094.67
356.10	1099.82
356.47	1086.71
356.84	1089.99
357.22	1087.18
357.59	1079.22
357.96	1095.37
358.33	1095.37
358.70	1092.33
359.08	1089.29
359.45	1078.52
359.82	1062.37
360.19	1067.05
360.56	1059.09
360.94	1056.28
361.31	1060.73
361.68	1069.86
362.05	1063.07
362.42	1074.31
362.79	1072.67
363.16	1068.92
363.54	1054.65
363.91	1056.99
364.28	1041.54
364.65	1034.98
365.02	1039.43
365.39	1043.41
365.76	1034.52
366.14	1053.94
366.51	1058.16
366.88	1048.33
367.25	1046.92
367.62	1054.41
367.99	1043.88
368.36	1051.13
368.73	1047.86
369.10	1050.20
369.48	1054.18
369.85	1055.35
370.22	1059.33
370.59	1067.28
370.96	1070.56
371.33	1066.82
371.70	1066.11
372.07	1066.82
372.44	1060.73
372.81	1060.50
373.18	1062.14
373.55	1063.31
373.93	1054.88
374.30	1072.43
374.67	1058.39
375.04	1046.92
375.41	1042.01
375.78	1042.71
376.15	1035.92
376.52	1046.69
376.89	1059.33
377.26	1066.11
377.63	1078.75
378.00	1081.09
378.37	1084.84
378.74	1088.58
379.11	1088.12
379.48	1083.20
379.85	1076.18
380.22	1074.77
380.59	1064.71
380.96	1070.09
381.33	1067.28
381.70	1083.43
382.07	1088.58
382.44	1092.09
382.81	1083.20
383.18	1085.07
383.55	1071.50
383.92	1059.09
384.29	1066.11
384.66	1062.60
385.03	1060.96
385.40	1067.05
385.77	1071.26
386.14	1068.92
386.51	1086.48
386.88	1088.35
387.25	1078.75
387.62	1086.48
387.99	1083.43
388.36	1071.73
388.73	1070.80
389.10	1080.39
389.46	1084.60
389.83	1089.52
390.20	1078.75
390.57	1072.43
390.94	1070.80
391.31	1062.60
391.68	1059.09
392.05	1075.94
392.42	1079.69
392.79	1079.22
393.16	1067.99
393.53	1071.50
393.89	1065.65
394.26	1059.33
394.63	1058.16
395.00	1067.99
395.37	1069.86
395.74	1068.22
396.11	1075.24
396.48	1076.18
396.84	1075.24
397.21	1073.14
397.58	1073.37
397.95	1082.50
398.32	1079.69
398.69	1080.39
399.06	1078.52
399.42	1081.33
399.79	1071.50
400.16	1070.09
400.53	1077.35
400.90	1075.24
401.27	1076.88
401.64	1074.54
402.00	1073.84
402.37	1065.65
402.74	1065.18
403.11	1065.65
403.48	1068.22
403.84	1080.16
404.21	1077.35
404.58	1074.54
404.95	1072.20
405.32	1074.07
405.68	1067.28
406.05	1074.77
406.42	1079.92
406.79	1075.01
407.16	1077.35
407.52	1065.65
407.89	1068.69
408.26	1068.45
408.63	1078.99
408.99	1078.28
409.36	1084.14
409.73	1080.39
410.10	1075.24
410.47	1074.31
410.83	1066.82
411.20	1077.82
411.57	1073.60
411.94	1067.99
412.30	1060.03
412.67	1060.26
413.04	1046.92
413.40	1042.47
413.77	1050.20
414.14	1058.86
414.51	1064.48
414.87	1071.03
415.24	1070.56
415.61	1071.26
415.97	1073.14
416.34	1071.73
416.71	1071.50
417.08	1080.39
417.44	1089.75
417.81	1086.01
418.18	1088.58
418.54	1089.29
418.91	1090.92
419.28	1077.58
419.64	1074.07
420.01	1069.16
420.38	1064.94
420.74	1064.24
421.11	1069.62
421.48	1071.50
421.84	1072.43
422.21	1082.50
422.58	1084.37
422.94	1089.05
423.31	1093.50
423.68	1098.65
424.04	1087.41
424.41	1085.77
424.77	1083.90
425.14	1079.22
425.51	1077.35
425.87	1078.75
426.24	1082.50
426.61	1070.80
426.97	1064.01
427.34	1067.28
427.70	1067.99
428.07	1064.24
428.44	1081.09
428.80	1095.37
429.17	1084.84
429.53	1088.12
429.90	1090.69
430.27	1091.63
430.63	1083.67
431.00	1086.71
431.36	1091.39
431.73	1084.84
432.09	1071.97
432.46	1069.62
432.83	1075.01
433.19	1074.77
433.56	1079.69
433.92	1088.82
434.29	1084.60
434.65	1073.14
435.02	1075.01
435.38	1070.09
435.75	1063.54
436.11	1065.65
436.48	1075.48
436.84	1071.26
437.21	1071.73
437.57	1075.01
437.94	1079.22
438.30	1073.14
438.67	1069.86
439.03	1069.86
439.40	1059.09
439.76	1050.20
440.13	1054.41
440.49	1065.88
440.86	1066.58
441.22	1075.24
441.59	1083.67
441.95	1080.39
442.32	1071.26
442.68	1074.54
443.05	1080.63
443.41	1081.80
443.78	1093.50
444.14	1090.69
444.51	1081.80
444.87	1076.18
445.24	1068.69
445.60	1067.05
445.96	1071.73
446.33	1075.24
446.69	1075.01
447.06	1075.94
447.42	1078.99
447.79	1083.67
448.15	1077.82
448.51	1084.14
448.88	1085.77
449.24	1080.86
449.61	1075.24
449.97	1074.31
450.33	1065.88
450.70	1072.90
451.06	1070.09
451.43	1061.20
451.79	1066.11
452.15	1070.09
452.52	1066.11
452.88	1070.09
453.24	1078.99
453.61	1078.75
453.97	1071.50
454.34	1072.67
454.70	1057.22
455.06	1063.54
455.43	1063.31
455.79	1066.11
456.15	1071.50
456.52	1083.20
456.88	1072.43
457.24	1072.90
457.61	1071.73
457.97	1063.54
458.33	1059.33
458.70	1073.37
459.06	1082.26
459.42	1081.33
459.79	1083.90
460.15	1097.71
460.51	1086.48
460.88	1085.31
461.24	1095.84
461.60	1088.58
461.96	1084.60
462.33	1074.54
462.69	1068.69
463.05	1064.48
463.42	1075.01
463.78	1074.77
464.14	1077.58
464.50	1083.90
464.87	1079.46
465.23	1071.73
465.59	1072.43
465.95	1086.24
466.32	1082.97
466.68	1082.97
467.04	1091.16
467.40	1081.09
467.77	1068.22
468.13	1060.73
468.49	1064.01
468.85	1053.48
469.22	1055.82
469.58	1063.07
469.94	1071.50
470.30	1078.05
470.66	1079.92
471.03	1077.35
471.39	1083.67
471.75	1083.67
472.11	1081.09
472.47	1079.46
472.84	1081.09
473.20	1078.28
473.56	1075.71
473.92	1062.37
474.28	1059.79
474.65	1049.50
475.01	1048.09
475.37	1050.20
475.73	1060.96
476.09	1067.28
476.45	1075.48
476.81	1066.82
477.18	1059.09
477.54	1056.28
477.90	1050.90
478.26	1062.37
478.62	1080.86
478.98	1089.05
479.34	1078.52
479.71	1089.75
480.07	1078.75
480.43	1064.48
480.79	1065.65
481.15	1081.33
481.51	1066.82
481.87	1068.22
482.23	1071.50
482.59	1061.67
482.96	1057.92
483.32	1067.05
483.68	1073.37
484.04	1075.24
484.40	1082.97
484.76	1082.50
485.12	1089.29
485.48	1092.56
485.84	1085.07
486.20	1083.20
486.56	1073.37
486.92	1058.39
487.28	1043.88
487.64	1050.90
488.00	1048.79
488.37	1054.88
488.73	1062.84
489.09	1067.75
489.45	1069.62
489.81	1075.71
490.17	1082.73
490.53	1085.54
490.89	1078.99
491.25	1072.90
491.61	1071.97
491.97	1075.71
492.33	1068.45
492.69	1084.14
493.05	1082.03
493.41	1076.41
493.77	1067.28
494.13	1082.50
494.49	1079.22
494.85	1076.65
495.21	1081.56
495.57	1085.07
495.93	1075.94
496.29	1076.65
496.64	1081.33
497.00	1076.88
497.36	1075.48
497.72	1082.03
498.08	1082.73
498.44	1087.18
498.80	1096.54
499.16	1087.65
499.52	1085.77
499.88	1081.33
500.24	1072.20
500.60	1070.80
500.96	1089.52
501.32	1087.65
501.68	1078.75
502.03	1094.43
502.39	1075.94
502.75	1061.67
503.11	1062.14
503.47	1069.86
503.83	1058.39
504.19	1077.35
504.55	1089.99
504.91	1092.56
505.26	1097.24
505.62	1093.03
505.98	1084.37
506.34	1075.94
506.70	1067.05
507.06	1066.35
507.42	1069.86
507.78	1083.43
508.13	1086.24
508.49	1100.05
508.85	1100.75
509.21	1104.50
509.57	1094.67
509.93	1100.75
510.28	1090.46
510.64	1082.97
511.00	1079.92
511.36	1080.16
511.72	1069.39
512.07	1071.26
512.43	1078.99
512.79	1080.63
513.15	1078.05
513.51	1094.43
513.86	1097.95
514.22	1104.26
514.58	1106.14
514.94	1115.27
515.30	1114.10
515.65	1115.97
516.01	1109.41
516.37	1104.03
516.73	1090.22
517.08	1082.03
517.44	1073.60
517.80	1080.39
518.16	1083.43
518.51	1088.12
518.87	1099.58
519.23	1108.48
519.59	1098.65
519.94	1103.80
520.30	1109.41
520.66	1092.09
521.01	1086.48
521.37	1093.26
521.73	1100.99
522.09	1101.22
522.44	1104.26
522.80	1097.95
523.16	1091.63
523.51	1081.80
523.87	1086.94
524.23	1090.92
524.58	1097.71
524.94	1096.31
525.30	1095.84
525.65	1088.82
526.01	1088.82
526.37	1089.05
526.72	1094.43
527.08	1104.50
527.44	1107.78
527.79	1105.44
528.15	1105.67
528.51	1096.78
528.86	1089.52
529.22	1087.88
529.58	1083.20
529.93	1087.88
530.29	1095.14
530.65	1097.71
531.00	1094.90
531.36	1096.78
531.71	1098.41
532.07	1102.63
532.43	1095.14
532.78	1100.75
533.14	1095.60
533.49	1086.71
533.85	1092.33
534.21	1089.05
534.56	1091.63
534.92	1093.26
535.27	1098.65
535.63	1080.63
535.98	1080.86
536.34	1078.99
536.69	1085.07
537.05	1084.37
537.41	1080.39
537.76	1082.03
538.12	1083.20
538.47	1082.97
538.83	1080.86
539.18	1091.39
539.54	1096.31
539.89	1100.29
540.25	1105.44
540.60	1111.99
540.96	1116.67
541.31	1114.80
541.67	1110.35
542.02	1097.48
542.38	1087.88
542.73	1086.01
543.09	1086.94
543.44	1079.69
543.80	1078.75
544.15	1092.80
544.51	1085.31
544.86	1090.46
545.22	1093.73
545.57	1092.33
545.93	1079.92
546.28	1088.12
546.64	1075.48
546.99	1065.41
547.35	1077.35
547.70	1077.35
548.05	1070.33
548.41	1074.77
548.76	1076.65
549.12	1069.62
549.47	1079.92
549.83	1082.26
550.18	1077.58
550.53	1080.16
550.89	1093.50
551.24	1087.65
551.60	1089.52
551.95	1091.86
552.30	1082.03
552.66	1064.01
553.01	1060.26
553.37	1058.16
553.72	1066.58
554.07	1077.11
554.43	1082.97
554.78	1075.48
555.13	1077.11
555.49	1072.67
555.84	1074.77
556.19	1080.39
556.55	1084.84
556.90	1080.63
557.26	1083.43
557.61	1076.41
557.96	1072.43
558.32	1074.77
558.67	1071.26
559.02	1069.16
559.37	1082.03
559.73	1077.11
560.08	1073.84
560.43	1072.43
560.79	1067.05
561.14	1063.07
561.49	1065.65
561.85	1073.37
562.20	1085.07
562.55	1087.18
562.90	1083.90
563.26	1086.71
563.61	1088.35
563.96	1079.46
564.32	1086.71
564.67	1083.43
565.02	1080.86
565.37	1074.54
565.73	1087.41
566.08	1078.99
566.43	1082.50
566.78	1081.80
567.14	1084.37
567.49	1074.31
567.84	1077.35
568.19	1074.31
568.54	1071.73
568.90	1074.07
569.25	1075.24
569.60	1080.16
569.95	1085.31
570.31	1087.41
570.66	1079.46
571.01	1080.86
571.36	1082.26
571.71	1083.67
572.06	1082.73
572.42	1088.35
572.77	1079.92
573.12	1074.31
573.47	1064.71
573.82	1074.31
574.18	1069.86
574.53	1077.82
574.88	1075.48
575.23	1071.73
575.58	1064.48
575.93	1057.45
576.28	1060.73
576.64	1064.71
576.99	1073.60
577.34	1077.35
577.69	1088.82
578.04	1081.09
578.39	1076.41
578.74	1079.22
579.09	1080.39
579.44	1078.75
579.80	1084.60
580.15	1089.05
580.50	1083.90
580.85	1085.77
581.20	1083.43
581.55	1084.14
581.90	1087.88
582.25	1094.20
582.60	1089.75
582.95	1087.18
583.30	1079.46
583.65	1072.67
584.00	1076.88
584.35	1075.71
584.71	1073.60
585.06	1085.31
585.41	1091.39
585.76	1082.03
586.11	1087.18
586.46	1092.33
586.81	1084.14
587.16	1074.31
587.51	1076.41
587.86	1066.35
588.21	1068.45
588.56	1066.58
588.91	1067.28
589.26	1064.24
589.61	1070.80
589.96	1076.18
590.31	1080.16
590.66	1097.48
591.01	1104.26
591.36	1099.35
591.71	1081.56
592.06	1083.67
592.41	1068.69
592.76	1075.01
593.10	1081.09
593.45	1095.37
593.80	1091.63
594.15	1094.43
594.50	1093.03
594.85	1093.26
595.20	1090.46
595.55	1107.31
595.90	1113.63
596.25	1096.07
596.60	1092.56
596.95	1083.43
597.30	1064.48
597.64	1109.18
597.99	1126.50
598.34	1133.76
598.69	1149.67
599.04	1149.67
599.39	1100.29
599.74	1097.01
600.09	1100.75
600.44	1086.71
600.78	1080.39
601.13	1075.01
601.48	1081.09
601.83	1077.82
602.18	1084.14
602.53	1093.26
602.88	1095.37
603.22	1078.28
603.57	1070.33
603.92	1065.88
604.27	1061.43
604.62	1057.69
604.97	1063.07
605.31	1064.94
605.66	1077.82
606.01	1077.82
606.36	1078.99
606.71	1075.71
607.05	1070.56
607.40	1070.56
607.75	1073.37
608.10	1083.67
608.44	1089.05
608.79	1100.75
609.14	1097.95
609.49	1099.82
609.84	1090.69
610.18	1087.65
610.53	1083.20
610.88	1079.46
611.23	1078.99
611.57	1086.94
611.92	1088.35
612.27	1092.33
612.62	1092.33
612.96	1090.69
613.31	1076.65
613.66	1073.37
614.00	1061.67
614.35	1055.35
614.70	1055.58
615.05	1067.05
615.39	1066.35
615.74	1074.07
616.09	1086.94
616.43	1089.29
616.78	1087.65
617.13	1089.05
617.47	1086.94
617.82	1073.37
618.17	1073.84
618.51	1079.22
618.86	1088.58
619.21	1089.05
619.55	1097.95
619.90	1099.12
620.25	1097.24
620.59	1088.35
620.94	1088.12
621.29	1088.35
621.63	1089.99
621.98	1084.60
622.32	1085.54
622.67	1078.75
623.02	1074.54
623.36	1074.54
623.71	1072.90
624.05	1074.31
624.40	1081.56
624.75	1085.31
625.09	1080.39
625.44	1079.69
625.78	1071.26
626.13	1063.54
626.48	1073.84
626.82	1076.65
627.17	1082.73
627.51	1089.75
627.86	1097.24
628.20	1088.82
628.55	1096.78
628.89	1091.63
629.24	1089.52
629.58	1090.22
629.93	1082.97
630.28	1076.18
630.62	1078.99
630.97	1082.50
631.31	1075.01
631.66	1070.56
632.00	1058.62
632.35	1062.84
632.69	1070.56
633.04	1080.86
633.38	1077.58
633.73	1091.63
634.07	1086.71
634.42	1078.99
634.76	1071.03
635.11	1080.86
635.45	1077.58
635.79	1073.37
636.14	1073.14
636.48	1069.16
636.83	1070.09
637.17	1067.52
637.52	1072.20
637.86	1069.62
638.21	1082.73
638.55	1078.05
638.89	1070.80
639.24	1064.71
639.58	1065.65
639.93	1062.14
640.27	1067.99
640.61	1080.16
640.96	1090.69
641.30	1096.54
641.65	1090.69
641.99	1088.82
642.33	1094.43
642.68	1097.01
643.02	1098.41
643.37	1103.09
643.71	1093.03
644.05	1075.71
644.40	1070.33
644.74	1066.11
645.08	1056.99
645.43	1071.97
645.77	1079.46
646.11	1078.28
646.46	1083.90
646.80	1099.12
647.14	1085.54
647.49	1088.58
647.83	1086.01
648.17	1084.37
648.52	1084.84
648.86	1091.86
649.20	1087.88
649.55	1087.18
649.89	1077.58
650.23	1079.22
650.57	1082.73
650.92	1082.50
651.26	1091.39
651.60	1087.88
651.95	1071.73
652.29	1061.43
652.63	1068.45
652.97	1067.05
653.32	1072.20
653.66	1075.94
654.00	1085.54
654.34	1078.99
654.69	1079.46
655.03	1088.35
655.37	1092.56
655.71	1097.71
656.05	1100.75
656.40	1087.41
656.74	1081.33
657.08	1079.46
657.42	1070.56
657.76	1073.84
658.11	1091.63
658.45	1089.29
658.79	1086.48
659.13	1083.67
659.47	1069.62
659.82	1053.71
660.16	1064.48
660.50	1064.94
660.84	1076.41
661.18	1089.75
661.52	1098.65
661.87	1083.90
662.21	1078.75
662.55	1072.43
662.89	1070.56
663.23	1071.97
663.57	1082.26
663.91	1086.01
664.25	1084.37
664.60	1083.43
664.94	1082.73
665.28	1080.39
665.62	1081.56
665.96	1079.22
666.30	1089.52
666.64	1090.92
666.98	1095.14
667.32	1093.97
667.66	1103.56
668.01	1097.71
668.35	1096.54
668.69	1101.46
669.03	1105.67
669.37	1094.90
669.71	1089.52
670.05	1087.41
670.39	1078.52
670.73	1075.94
671.07	1080.63
671.41	1080.39
671.75	1080.16
672.09	1071.03
672.43	1068.92
672.77	1069.39
673.11	1076.41
673.45	1068.22
673.79	1081.09
674.13	1079.22
674.47	1080.63
674.81	1078.05
675.15	1091.16
675.49	1081.56
675.83	1088.58
676.17	1081.56
676.51	1083.43
676.85	1074.07
677.19	1074.54
677.53	1060.03
677.87	1064.94
678.21	1051.84
678.55	1049.03
678.89	1050.43
679.23	1066.82
679.57	1068.45
679.90	1070.56
680.24	1078.99
680.58	1092.80
680.92	1083.67
681.26	1084.14
681.60	1078.75
681.94	1065.88
682.28	1046.22
682.62	1047.86
682.96	1045.28
683.29	1063.07
683.63	1073.37
683.97	1077.11
684.31	1092.80
684.65	1083.20
684.99	1071.26
685.33	1078.75
685.67	1086.48
686.00	1074.77
686.34	1078.52
686.68	1086.48
687.02	1075.94
687.36	1069.62
687.70	1067.52
688.03	1069.86
688.37	1063.77
688.71	1061.43
689.05	1058.16
689.39	1063.31
689.72	1067.75
690.06	1076.88
690.40	1079.46
690.74	1077.58
691.08	1082.03
691.41	1081.33
691.75	1079.69
692.09	1080.63
692.43	1091.39
692.76	1085.31
693.10	1082.26
693.44	1077.58
693.78	1081.56
694.11	1085.31
694.45	1088.58
694.79	1109.65
695.13	1109.65
695.46	1103.09
695.80	1099.82
696.14	1093.97
696.48	1077.82
696.81	1080.86
697.15	1094.67
697.49	1093.97
697.82	1087.18
698.16	1084.84
698.50	1084.14
698.83	1073.60
699.17	1066.11
699.51	1071.26
699.84	1077.82
700.18	1073.14
700.52	1079.69
700.85	1086.94
701.19	1091.63
701.53	1087.18
701.86	1079.46
702.20	1071.73
702.54	1075.71
702.87	1075.94
703.21	1077.58
703.55	1085.31
703.88	1092.09
704.22	1089.52
704.55	1075.48
704.89	1066.35
705.23	1070.80
705.56	1065.41
705.90	1070.33
706.23	1086.71
706.57	1089.75
706.91	1075.71
707.24	1067.75
707.58	1056.28
707.91	1054.65
708.25	1049.73
708.58	1055.11
708.92	1061.43
709.26	1052.30
709.59	1049.73
709.93	1052.77
710.26	1056.52
710.60	1056.99
710.93	1061.67
711.27	1061.20
711.60	1066.82
711.94	1069.86
712.27	1069.39
712.61	1071.26
712.94	1072.67
713.28	1073.84
713.61	1071.97
713.95	1071.73
714.28	1087.65
714.62	1085.31
714.95	1090.69
715.29	1082.73
715.62	1089.52
715.96	1086.24
716.29	1089.75
716.63	1084.37
716.96	1092.56
717.29	1090.22
717.63	1085.77
717.96	1088.82
718.30	1093.50
718.63	1092.09
718.97	1087.18
719.30	1083.67
719.63	1082.03
719.97	1073.60
720.30	1074.31
720.64	1078.99
720.97	1082.26
721.30	1077.82
721.64	1084.84
721.97	1089.29
722.31	1088.82
722.64	1080.86
722.97	1083.20
723.31	1080.86
723.64	1080.16
723.97	1084.37
724.31	1087.65
724.64	1091.63
724.98	1090.22
725.31	1090.69
725.64	1078.99
725.98	1080.86
726.31	1078.52
726.64	1079.46
726.97	1079.46
727.31	1087.88
727.64	1081.56
727.97	1084.60
728.31	1074.31
728.64	1077.58
728.97	1074.31
729.31	1084.37
729.64	1088.12
729.97	1091.63
730.30	1089.52
730.64	1086.94
730.97	1090.46
731.30	1085.31
731.63	1093.97
731.97	1090.46
732.30	1094.90
732.63	1093.50
732.96	1090.92
733.30	1084.14
733.63	1078.99
733.96	1086.24
734.29	1074.77
734.63	1067.28
734.96	1069.86
735.29	1073.37
735.62	1060.96
735.95	1067.52
736.29	1069.62
736.62	1071.26
736.95	1074.31
737.28	1075.94
737.61	1076.41
737.94	1078.52
738.28	1081.33
738.61	1077.82
738.94	1083.20
739.27	1079.22
739.60	1076.41
739.93	1067.05
740.27	1067.28
740.60	1061.90
740.93	1066.11
741.26	1067.28
741.59	1076.41
741.92	1068.45
742.25	1071.03
742.58	1068.22
742.91	1077.82
743.25	1071.50
743.58	1078.05
743.91	1078.52
744.24	1074.54
744.57	1061.43
744.90	1055.82
745.23	1052.77
745.56	1049.73
745.89	1055.11
746.22	1063.07
746.55	1070.33
746.88	1078.75
747.21	1092.09
747.54	1088.35
747.87	1081.56
748.20	1080.63
748.53	1071.73
748.87	1067.75
749.20	1075.71
749.53	1080.86
749.86	1094.67
750.19	1096.54
750.52	1094.20
750.85	1096.07
751.18	1102.16
751.51	1087.88
751.84	1091.86
752.16	1085.07
752.49	1074.77
752.82	1062.84
753.15	1073.84
753.48	1067.75
753.81	1069.62
754.14	1071.26
754.47	1077.11
754.80	1071.73
755.13	1079.22
755.46	1080.86
755.79	1079.46
756.12	1080.86
756.45	1075.48
756.78	1068.92
757.11	1064.94
757.43	1069.39
757.76	1073.60
758.09	1072.67
758.42	1077.11
758.75	1080.63
759.08	1081.33
759.41	1080.63
759.74	1080.39
760.07	1077.35
760.39	1075.71
760.72	1074.54
761.05	1065.18
761.38	1064.24
761.71	1058.62
762.04	1056.52
762.36	1056.99
762.69	1056.75
763.02	1054.18
763.35	1064.01
763.68	1069.86
764.01	1066.82
764.33	1072.20
764.66	1070.56
764.99	1079.22
765.32	1075.24
765.65	1074.54
765.97	1076.65
766.30	1083.67
