SpectraSuite Data File
++++++++++++++++++++++++++++++++++++
Date: Mon Aug 26 10:25:51 PDT 2019
User: corrico
Dark Spectrum Present: No
Reference Spectrum Present: No
Number of Sampled Component Spectra: 1
Spectrometers: USB2+H06089
Integration Time (usec): 10000 (USB2+H06089)
Spectra Averaged: 2 (USB2+H06089)
Boxcar Smoothing: 2 (USB2+H06089)
Correct for Electrical Dark: No (USB2+H06089)
Strobe/Lamp Enabled: No (USB2+H06089)
Correct for Detector Non-linearity: No (USB2+H06089)
Correct for Stray Light: No (USB2+H06089)
Number of Pixels in Processed Spectrum: 2048
>>>>>Begin Processed Spectral Data<<<<<
339.70	1035.69
340.07	1035.69
340.45	997.77
340.82	972.02
341.19	946.51
341.57	935.51
341.94	927.55
342.31	914.45
342.69	916.79
343.06	921.00
343.43	904.85
343.81	911.40
344.18	911.17
344.55	908.13
344.93	911.64
345.30	917.26
345.67	926.15
346.04	933.64
346.42	946.04
346.79	944.17
347.16	957.28
347.54	960.56
347.91	977.17
348.28	986.77
348.65	991.22
349.03	998.47
349.40	1003.15
349.77	998.71
350.14	1006.90
350.52	1023.05
350.89	1023.05
351.26	1033.11
351.63	1048.33
352.01	1044.35
352.38	1050.90
352.75	1069.86
353.12	1082.03
353.50	1086.24
353.87	1090.46
354.24	1087.18
354.61	1084.60
354.98	1078.52
355.36	1078.75
355.73	1078.99
356.10	1086.01
356.47	1075.71
356.84	1075.71
357.22	1078.99
357.59	1088.35
357.96	1075.24
358.33	1080.16
358.70	1076.88
359.08	1065.18
359.45	1065.88
359.82	1067.75
360.19	1066.11
360.56	1072.90
360.94	1076.65
361.31	1061.43
361.68	1059.09
362.05	1061.20
362.42	1059.33
362.79	1061.67
363.16	1068.45
363.54	1069.62
363.91	1071.97
364.28	1071.50
364.65	1074.31
365.02	1072.20
365.39	1077.11
365.76	1070.09
366.14	1067.75
366.51	1069.86
366.88	1074.31
367.25	1075.71
367.62	1082.26
367.99	1073.60
368.36	1061.43
368.73	1059.79
369.10	1068.69
369.48	1051.60
369.85	1059.79
370.22	1066.58
370.59	1071.26
370.96	1060.73
371.33	1072.20
371.70	1069.16
372.07	1071.73
372.44	1061.43
372.81	1058.62
373.18	1056.99
373.55	1072.43
373.93	1061.67
374.30	1059.09
374.67	1068.45
375.04	1063.77
375.41	1046.45
375.78	1056.52
376.15	1055.58
376.52	1062.37
376.89	1076.41
377.26	1077.82
377.63	1082.97
378.00	1095.37
378.37	1080.86
378.74	1078.28
379.11	1086.01
379.48	1079.92
379.85	1075.48
380.22	1076.88
380.59	1064.71
380.96	1054.41
381.33	1056.52
381.70	1055.11
382.07	1048.33
382.44	1055.11
382.81	1064.71
383.18	1061.20
383.55	1065.65
383.92	1074.77
384.29	1076.18
384.66	1057.45
385.03	1050.43
385.40	1045.99
385.77	1053.01
386.14	1059.56
386.51	1071.50
386.88	1078.99
387.25	1067.75
387.62	1056.99
387.99	1046.69
388.36	1045.99
388.73	1050.43
389.10	1067.05
389.46	1080.39
389.83	1088.12
390.20	1093.73
390.57	1091.63
390.94	1086.71
391.31	1071.50
391.68	1067.05
392.05	1067.75
392.42	1062.60
392.79	1069.62
393.16	1078.05
393.53	1078.99
393.89	1072.90
394.26	1071.73
394.63	1063.31
395.00	1061.43
395.37	1053.01
395.74	1060.73
396.11	1057.92
396.48	1066.82
396.84	1070.80
397.21	1071.03
397.58	1067.99
397.95	1076.18
398.32	1071.97
398.69	1073.14
399.06	1084.14
399.42	1088.35
399.79	1085.07
400.16	1088.58
400.53	1079.92
400.90	1078.52
401.27	1074.07
401.64	1085.54
402.00	1089.05
402.37	1099.58
402.74	1108.95
403.11	1107.07
403.48	1092.09
403.84	1080.39
404.21	1071.50
404.58	1059.33
404.95	1064.48
405.32	1061.90
405.68	1057.92
406.05	1060.96
406.42	1064.71
406.79	1060.03
407.16	1058.86
407.52	1061.90
407.89	1053.48
408.26	1045.52
408.63	1037.33
408.99	1047.39
409.36	1049.26
409.73	1062.84
410.10	1063.07
410.47	1077.11
410.83	1075.24
411.20	1084.37
411.57	1082.73
411.94	1085.54
412.30	1080.63
412.67	1077.82
413.04	1063.77
413.40	1055.82
413.77	1056.75
414.14	1053.24
414.51	1053.01
414.87	1061.43
415.24	1058.62
415.61	1060.73
415.97	1067.75
416.34	1071.73
416.71	1068.22
417.08	1066.11
417.44	1064.94
417.81	1063.77
418.18	1060.26
418.54	1071.26
418.91	1075.48
419.28	1060.26
419.64	1052.77
420.01	1040.37
420.38	1034.05
420.74	1035.92
421.11	1052.77
421.48	1058.62
421.84	1072.43
422.21	1071.03
422.58	1063.77
422.94	1053.01
423.31	1052.77
423.68	1065.88
424.04	1068.69
424.41	1068.69
424.77	1078.28
425.14	1081.80
425.51	1068.45
425.87	1065.65
426.24	1065.41
426.61	1065.65
426.97	1064.48
427.34	1068.69
427.70	1062.60
428.07	1071.50
428.44	1074.77
428.80	1072.20
429.17	1074.54
429.53	1074.07
429.90	1071.73
430.27	1066.58
430.63	1064.71
431.00	1076.41
431.36	1089.75
431.73	1095.37
432.09	1105.90
432.46	1102.16
432.83	1089.99
433.19	1086.24
433.56	1079.69
433.92	1071.26
434.29	1088.58
434.65	1090.69
435.02	1089.52
435.38	1104.03
435.75	1104.26
436.11	1084.14
436.48	1073.14
436.84	1075.71
437.21	1062.37
437.57	1064.71
437.94	1070.56
438.30	1074.31
438.67	1080.16
439.03	1078.99
439.40	1075.71
439.76	1063.77
440.13	1072.43
440.49	1071.50
440.86	1078.52
441.22	1084.84
441.59	1098.88
441.95	1090.69
442.32	1077.11
442.68	1070.80
443.05	1065.18
443.41	1067.52
443.78	1065.65
444.14	1068.22
444.51	1075.01
444.87	1082.50
445.24	1088.12
445.60	1090.22
445.96	1091.39
446.33	1092.56
446.69	1086.24
447.06	1085.07
447.42	1089.05
447.79	1087.41
448.15	1082.03
448.51	1084.60
448.88	1082.50
449.24	1069.62
449.61	1086.24
449.97	1087.65
450.33	1086.01
450.70	1092.09
451.06	1099.58
451.43	1089.99
451.79	1088.12
452.15	1079.46
452.52	1063.77
452.88	1068.92
453.24	1065.41
453.61	1067.75
453.97	1080.63
454.34	1082.03
454.70	1074.07
455.06	1067.99
455.43	1061.90
455.79	1064.94
456.15	1068.22
456.52	1081.56
456.88	1085.31
457.24	1087.18
457.61	1080.16
457.97	1081.56
458.33	1079.22
458.70	1082.97
459.06	1085.77
459.42	1081.80
459.79	1079.92
460.15	1079.69
460.51	1073.37
460.88	1067.52
461.24	1073.37
461.60	1071.97
461.96	1077.11
462.33	1088.12
462.69	1095.84
463.05	1095.37
463.42	1091.16
463.78	1078.52
464.14	1071.97
464.50	1061.20
464.87	1056.52
465.23	1066.11
465.59	1070.80
465.95	1061.43
466.32	1065.65
466.68	1059.33
467.04	1058.39
467.40	1056.28
467.77	1063.07
468.13	1072.67
468.49	1080.63
468.85	1080.86
469.22	1084.14
469.58	1087.88
469.94	1075.24
470.30	1075.24
470.66	1071.97
471.03	1062.60
471.39	1071.50
471.75	1082.73
472.11	1086.01
472.47	1086.48
472.84	1098.18
473.20	1098.18
473.56	1090.69
473.92	1089.29
474.28	1089.05
474.65	1086.94
475.01	1073.37
475.37	1075.24
475.73	1066.35
476.09	1070.09
476.45	1071.03
476.81	1076.65
477.18	1080.63
477.54	1087.41
477.90	1080.16
478.26	1078.75
478.62	1070.80
478.98	1071.03
479.34	1069.62
479.71	1075.48
480.07	1071.26
480.43	1075.01
480.79	1076.41
481.15	1078.28
481.51	1075.24
481.87	1082.26
482.23	1085.07
482.59	1083.67
482.96	1084.60
483.32	1086.48
483.68	1082.73
484.04	1078.28
484.40	1080.63
484.76	1083.67
485.12	1077.58
485.48	1069.62
485.84	1073.60
486.20	1071.03
486.56	1068.45
486.92	1087.88
487.28	1098.88
487.64	1101.69
488.00	1103.09
488.37	1106.14
488.73	1097.95
489.09	1098.65
489.45	1100.52
489.81	1093.50
490.17	1093.50
490.53	1086.71
490.89	1077.11
491.25	1080.39
491.61	1093.03
491.97	1091.63
492.33	1091.86
492.69	1104.97
493.05	1087.88
493.41	1082.03
493.77	1083.90
494.13	1078.52
494.49	1061.90
494.85	1073.37
495.21	1078.05
495.57	1080.86
495.93	1096.07
496.29	1099.82
496.64	1097.01
497.00	1084.14
497.36	1069.62
497.72	1064.01
498.08	1069.16
498.44	1072.67
498.80	1077.82
499.16	1078.99
499.52	1072.43
499.88	1078.52
500.24	1087.18
500.60	1089.99
500.96	1097.95
501.32	1099.58
501.68	1082.97
502.03	1074.54
502.39	1075.94
502.75	1074.54
503.11	1077.82
503.47	1085.31
503.83	1083.67
504.19	1076.65
504.55	1082.50
504.91	1080.86
505.26	1073.84
505.62	1077.58
505.98	1074.31
506.34	1071.97
506.70	1069.86
507.06	1093.03
507.42	1095.60
507.78	1101.69
508.13	1104.50
508.49	1101.46
508.85	1082.26
509.21	1077.82
509.57	1072.20
509.93	1065.41
510.28	1075.01
510.64	1083.43
511.00	1078.99
511.36	1082.03
511.72	1081.56
512.07	1078.05
512.43	1074.31
512.79	1086.94
513.15	1090.22
513.51	1085.31
513.86	1083.90
514.22	1081.09
514.58	1074.07
514.94	1070.56
515.30	1081.80
515.65	1087.65
516.01	1087.18
516.37	1088.12
516.73	1099.58
517.08	1098.88
517.44	1101.22
517.80	1107.78
518.16	1097.48
518.51	1086.48
518.87	1081.80
519.23	1063.77
519.59	1064.01
519.94	1073.84
520.30	1074.54
520.66	1079.46
521.01	1099.82
521.37	1101.46
521.73	1094.90
522.09	1100.52
522.44	1092.56
522.80	1091.16
523.16	1086.01
523.51	1083.90
523.87	1084.14
524.23	1088.82
524.58	1078.52
524.94	1082.03
525.30	1092.09
525.65	1098.88
526.01	1095.84
526.37	1091.86
526.72	1084.84
527.08	1090.69
527.44	1082.26
527.79	1085.54
528.15	1097.48
528.51	1104.73
528.86	1095.37
529.22	1099.12
529.58	1100.75
529.93	1097.24
530.29	1103.09
530.65	1103.33
531.00	1102.86
531.36	1104.97
531.71	1109.65
532.07	1107.31
532.43	1101.69
532.78	1086.71
533.14	1077.35
533.49	1072.20
533.85	1060.50
534.21	1069.62
534.56	1083.20
534.92	1092.09
535.27	1095.60
535.63	1100.99
535.98	1101.92
536.34	1089.52
536.69	1075.48
537.05	1067.05
537.41	1064.48
537.76	1061.90
538.12	1072.90
538.47	1075.01
538.83	1081.33
539.18	1079.69
539.54	1071.03
539.89	1075.24
540.25	1077.82
540.60	1085.77
540.96	1087.65
541.31	1089.75
541.67	1089.29
542.02	1099.35
542.38	1102.86
542.73	1101.69
543.09	1102.63
543.44	1108.24
543.80	1097.01
544.15	1086.48
544.51	1091.63
544.86	1096.07
545.22	1093.97
545.57	1098.41
545.93	1098.18
546.28	1106.84
546.64	1104.26
546.99	1096.07
547.35	1091.39
547.70	1087.41
548.05	1075.71
548.41	1084.14
548.76	1087.18
549.12	1093.50
549.47	1094.20
549.83	1099.58
550.18	1091.86
550.53	1089.05
550.89	1082.97
551.24	1082.97
551.60	1071.97
551.95	1065.88
552.30	1072.20
552.66	1075.48
553.01	1075.48
553.37	1073.60
553.72	1072.20
554.07	1065.18
554.43	1073.84
554.78	1074.31
555.13	1082.50
555.49	1081.33
555.84	1086.71
556.19	1079.69
556.55	1073.60
556.90	1073.14
557.26	1094.20
557.61	1099.58
557.96	1099.35
558.32	1104.97
558.67	1110.58
559.02	1102.86
559.37	1096.07
559.73	1097.95
560.08	1098.88
560.43	1088.58
560.79	1081.33
561.14	1084.14
561.49	1079.46
561.85	1087.41
562.20	1087.65
562.55	1089.05
562.90	1088.12
563.26	1083.67
563.61	1080.16
563.96	1076.65
564.32	1070.80
564.67	1066.11
565.02	1073.37
565.37	1064.24
565.73	1073.84
566.08	1077.11
566.43	1079.22
566.78	1085.31
567.14	1090.92
567.49	1088.35
567.84	1092.56
568.19	1091.63
568.54	1087.65
568.90	1087.18
569.25	1082.50
569.60	1075.94
569.95	1086.01
570.31	1090.46
570.66	1096.07
571.01	1108.95
571.36	1120.88
571.71	1105.44
572.06	1095.60
572.42	1086.01
572.77	1077.58
573.12	1069.16
573.47	1070.33
573.82	1064.24
574.18	1058.39
574.53	1056.75
574.88	1056.28
575.23	1056.75
575.58	1068.45
575.93	1073.14
576.28	1085.77
576.64	1093.26
576.99	1098.41
577.34	1102.39
577.69	1107.54
578.04	1093.03
578.39	1089.52
578.74	1080.39
579.09	1075.71
579.44	1080.39
579.80	1087.65
580.15	1085.54
580.50	1086.48
580.85	1081.56
581.20	1074.77
581.55	1066.82
581.90	1064.71
582.25	1063.31
582.60	1066.58
582.95	1074.77
583.30	1077.82
583.65	1078.99
584.00	1082.73
584.35	1082.73
584.71	1073.84
585.06	1070.33
585.41	1068.69
585.76	1070.80
586.11	1063.31
586.46	1056.99
586.81	1065.88
587.16	1071.03
587.51	1072.67
587.86	1067.99
588.21	1077.82
588.56	1074.31
588.91	1077.11
589.26	1072.90
589.61	1083.67
589.96	1076.88
590.31	1079.69
590.66	1068.69
591.01	1074.07
591.36	1071.73
591.71	1077.35
592.06	1067.99
592.41	1067.28
592.76	1066.11
593.10	1067.52
593.45	1061.67
593.80	1075.01
594.15	1083.90
594.50	1086.71
594.85	1093.26
595.20	1097.24
595.55	1097.24
595.90	1095.14
596.25	1091.86
596.60	1092.56
596.95	1093.03
597.30	1084.60
597.64	1131.41
597.99	1142.18
598.34	1132.82
598.69	1133.99
599.04	1137.03
599.39	1087.41
599.74	1087.88
600.09	1096.78
600.44	1090.92
600.78	1092.33
601.13	1097.24
601.48	1079.92
601.83	1071.73
602.18	1074.31
602.53	1069.86
602.88	1062.14
603.22	1068.22
603.57	1066.82
603.92	1077.58
604.27	1084.14
604.62	1094.67
604.97	1096.54
605.31	1086.71
605.66	1082.73
606.01	1068.69
606.36	1055.82
606.71	1047.39
607.05	1066.58
607.40	1070.33
607.75	1083.90
608.10	1088.12
608.44	1092.33
608.79	1093.50
609.14	1092.56
609.49	1085.07
609.84	1088.82
610.18	1086.94
610.53	1081.80
610.88	1077.35
611.23	1090.69
611.57	1086.01
611.92	1090.22
612.27	1087.88
612.62	1085.54
612.96	1075.71
613.31	1082.03
613.66	1083.67
614.00	1090.46
614.35	1082.73
614.70	1078.28
615.05	1072.20
615.39	1066.35
615.74	1059.79
616.09	1077.58
616.43	1080.86
616.78	1082.03
617.13	1077.11
617.47	1074.31
617.82	1063.77
618.17	1064.01
618.51	1063.77
618.86	1084.37
619.21	1084.60
619.55	1088.12
619.90	1089.29
620.25	1096.07
620.59	1079.69
620.94	1089.52
621.29	1086.71
621.63	1095.14
621.98	1087.65
622.32	1089.29
622.67	1082.03
623.02	1084.60
623.36	1070.56
623.71	1074.07
624.05	1067.52
624.40	1073.60
624.75	1073.14
625.09	1081.33
625.44	1073.37
625.78	1088.82
626.13	1081.80
626.48	1078.28
626.82	1079.69
627.17	1092.33
627.51	1086.94
627.86	1094.90
628.20	1101.92
628.55	1099.35
628.89	1098.88
629.24	1093.03
629.58	1093.03
629.93	1089.75
630.28	1084.14
630.62	1085.07
630.97	1088.12
631.31	1091.16
631.66	1088.12
632.00	1093.26
632.35	1091.86
632.69	1096.54
633.04	1086.01
633.38	1086.94
633.73	1089.75
634.07	1082.26
634.42	1069.86
634.76	1077.58
635.11	1075.71
635.45	1068.22
635.79	1070.33
636.14	1076.88
636.48	1079.22
636.83	1074.77
637.17	1077.11
637.52	1071.73
637.86	1069.16
638.21	1063.54
638.55	1074.77
638.89	1082.03
639.24	1088.58
639.58	1093.03
639.93	1087.88
640.27	1086.94
640.61	1078.99
640.96	1078.05
641.30	1077.58
641.65	1088.58
641.99	1086.48
642.33	1095.37
642.68	1092.80
643.02	1093.26
643.37	1087.18
643.71	1075.01
644.05	1077.82
644.40	1089.75
644.74	1094.67
645.08	1091.16
645.43	1092.80
645.77	1084.84
646.11	1084.14
646.46	1081.33
646.80	1080.63
647.14	1088.82
647.49	1088.58
647.83	1081.80
648.17	1082.03
648.52	1078.28
648.86	1077.58
649.20	1075.48
649.55	1075.01
649.89	1076.18
650.23	1089.05
650.57	1096.54
650.92	1092.33
651.26	1091.86
651.60	1089.05
651.95	1078.99
652.29	1079.22
652.63	1078.28
652.97	1081.09
653.32	1079.22
653.66	1082.26
654.00	1066.35
654.34	1076.88
654.69	1079.92
655.03	1085.07
655.37	1083.43
655.71	1102.39
656.05	1105.67
656.40	1103.09
656.74	1089.52
657.08	1082.97
657.42	1069.39
657.76	1052.54
658.11	1043.18
658.45	1048.33
658.79	1052.54
659.13	1048.33
659.47	1053.24
659.82	1056.05
660.16	1063.31
660.50	1061.90
660.84	1078.52
661.18	1079.92
661.52	1084.84
661.87	1081.33
662.21	1086.01
662.55	1078.05
662.89	1083.20
663.23	1082.73
663.57	1097.95
663.91	1099.12
664.25	1096.07
664.60	1086.24
664.94	1079.46
665.28	1069.86
665.62	1066.35
665.96	1072.90
666.30	1080.16
666.64	1083.20
666.98	1084.37
667.32	1088.82
667.66	1079.46
668.01	1075.94
668.35	1080.63
668.69	1079.69
669.03	1072.90
669.37	1076.65
669.71	1084.84
670.05	1081.33
670.39	1079.22
670.73	1083.43
671.07	1087.88
671.41	1081.33
671.75	1086.01
672.09	1083.90
672.43	1095.37
672.77	1088.58
673.11	1085.54
673.45	1079.92
673.79	1069.62
674.13	1071.26
674.47	1078.52
674.81	1089.75
675.15	1091.16
675.49	1111.75
675.83	1104.03
676.17	1101.22
676.51	1096.78
676.85	1086.48
677.19	1069.39
677.53	1068.92
677.87	1066.58
678.21	1070.56
678.55	1080.16
678.89	1092.56
679.23	1092.33
679.57	1099.58
679.90	1096.78
680.24	1089.29
680.58	1080.86
680.92	1077.82
681.26	1076.88
681.60	1071.97
681.94	1086.01
682.28	1079.22
682.62	1079.69
682.96	1067.05
683.29	1064.94
683.63	1050.20
683.97	1065.88
684.31	1059.56
684.65	1064.01
684.99	1067.99
685.33	1076.88
685.67	1076.65
686.00	1085.54
686.34	1086.71
686.68	1085.54
687.02	1086.94
687.36	1071.97
687.70	1064.71
688.03	1075.01
688.37	1082.50
688.71	1086.01
689.05	1103.09
689.39	1107.78
689.72	1098.18
690.06	1090.69
690.40	1086.24
690.74	1081.56
691.08	1083.67
691.41	1083.43
691.75	1092.09
692.09	1089.99
692.43	1084.14
692.76	1082.26
693.10	1077.11
693.44	1065.65
693.78	1071.97
694.11	1077.35
694.45	1082.73
694.79	1088.12
695.13	1095.84
695.46	1097.24
695.80	1094.43
696.14	1089.52
696.48	1085.54
696.81	1082.97
697.15	1073.14
697.49	1078.52
697.82	1087.88
698.16	1082.26
698.50	1082.73
698.83	1075.01
699.17	1061.67
699.51	1053.48
699.84	1068.92
700.18	1064.94
700.52	1078.28
700.85	1096.54
701.19	1099.35
701.53	1092.33
701.86	1094.20
702.20	1098.41
702.54	1077.11
702.87	1076.88
703.21	1071.26
703.55	1068.92
703.88	1060.26
704.22	1066.58
704.55	1064.24
704.89	1067.05
705.23	1071.03
705.56	1070.56
705.90	1076.18
706.23	1071.97
706.57	1082.26
706.91	1080.16
707.24	1085.31
707.58	1080.86
707.91	1085.07
708.25	1073.84
708.58	1073.84
708.92	1073.84
709.26	1075.24
709.59	1072.20
709.93	1079.46
710.26	1083.43
710.60	1079.46
710.93	1078.75
711.27	1076.41
711.60	1066.58
711.94	1057.92
712.27	1056.52
712.61	1054.41
712.94	1053.01
713.28	1061.90
713.61	1062.37
713.95	1066.58
714.28	1075.71
714.62	1089.05
714.95	1093.50
715.29	1094.20
715.62	1098.18
715.96	1085.07
716.29	1072.67
716.63	1069.86
716.96	1081.80
717.29	1082.97
717.63	1085.54
717.96	1092.33
718.30	1092.09
718.63	1079.69
718.97	1071.50
719.30	1085.31
719.63	1084.37
719.97	1080.63
720.30	1087.88
720.64	1088.12
720.97	1083.67
721.30	1079.92
721.64	1080.39
721.97	1071.03
722.31	1071.03
722.64	1061.43
722.97	1069.62
723.31	1071.73
723.64	1079.69
723.97	1083.20
724.31	1087.65
724.64	1074.54
724.98	1076.18
725.31	1079.69
725.64	1082.50
725.98	1083.20
726.31	1081.56
726.64	1080.86
726.97	1073.60
727.31	1075.24
727.64	1070.80
727.97	1079.69
728.31	1069.16
728.64	1071.73
728.97	1073.84
729.31	1084.84
729.64	1091.63
729.97	1107.31
730.30	1102.63
730.64	1098.88
730.97	1090.22
731.30	1079.22
731.63	1069.62
731.97	1080.39
732.30	1081.56
732.63	1090.46
732.96	1091.86
733.30	1089.99
733.63	1078.05
733.96	1073.37
734.29	1066.11
734.63	1062.60
734.96	1062.60
735.29	1067.99
735.62	1072.67
735.95	1070.09
736.29	1073.84
736.62	1078.28
736.95	1079.92
737.28	1074.77
737.61	1084.14
737.94	1085.31
738.28	1089.52
738.61	1092.56
738.94	1100.29
739.27	1104.73
739.60	1104.50
739.93	1103.09
740.27	1098.88
740.60	1088.12
740.93	1076.65
741.26	1081.80
741.59	1078.28
741.92	1069.86
742.25	1060.96
742.58	1062.60
742.91	1062.60
743.25	1058.39
743.58	1063.07
743.91	1072.67
744.24	1078.28
744.57	1066.82
744.90	1074.07
745.23	1071.26
745.56	1075.24
745.89	1066.82
746.22	1069.16
746.55	1070.80
746.88	1078.99
747.21	1079.69
747.54	1078.28
747.87	1081.80
748.20	1089.75
748.53	1091.39
748.87	1089.99
749.20	1090.22
749.53	1087.18
749.86	1069.86
750.19	1072.20
750.52	1070.56
750.85	1072.67
751.18	1077.82
751.51	1081.80
751.84	1074.77
752.16	1077.82
752.49	1079.92
752.82	1074.31
753.15	1078.28
753.48	1085.77
753.81	1082.26
754.14	1075.48
754.47	1075.71
754.80	1080.63
755.13	1074.77
755.46	1074.31
755.79	1085.31
756.12	1092.09
756.45	1089.99
756.78	1101.22
757.11	1104.50
757.43	1099.58
757.76	1104.03
758.09	1100.99
758.42	1086.48
758.75	1088.35
759.08	1089.99
759.41	1085.54
759.74	1081.09
760.07	1096.07
760.39	1096.54
760.72	1094.43
761.05	1089.29
761.38	1095.14
761.71	1086.94
762.04	1076.18
762.36	1079.46
762.69	1079.92
763.02	1075.48
763.35	1071.97
763.68	1076.18
764.01	1068.22
764.33	1062.14
764.66	1063.54
764.99	1062.60
765.32	1064.48
765.65	1077.58
765.97	1085.54
766.30	1092.33
