SpectraSuite Data File
++++++++++++++++++++++++++++++++++++
Date: Mon Aug 26 10:25:53 PDT 2019
User: corrico
Dark Spectrum Present: No
Reference Spectrum Present: No
Number of Sampled Component Spectra: 1
Spectrometers: USB2+H06089
Integration Time (usec): 10000 (USB2+H06089)
Spectra Averaged: 2 (USB2+H06089)
Boxcar Smoothing: 2 (USB2+H06089)
Correct for Electrical Dark: No (USB2+H06089)
Strobe/Lamp Enabled: No (USB2+H06089)
Correct for Detector Non-linearity: No (USB2+H06089)
Correct for Stray Light: No (USB2+H06089)
Number of Pixels in Processed Spectrum: 2048
>>>>>Begin Processed Spectral Data<<<<<
339.70	1008.77
340.07	1008.77
340.45	984.66
340.82	972.96
341.19	953.07
341.57	933.41
341.94	927.55
342.31	918.43
342.69	905.55
343.06	898.06
343.43	899.23
343.81	896.43
344.18	895.25
344.55	895.49
344.93	907.66
345.30	911.17
345.67	926.15
346.04	948.62
346.42	956.34
346.79	962.43
347.16	975.30
347.54	978.34
347.91	975.77
348.28	991.45
348.65	1004.09
349.03	1002.69
349.40	1003.62
349.77	1021.88
350.14	1027.50
350.52	1025.39
350.89	1042.71
351.26	1049.03
351.63	1036.62
352.01	1039.67
352.38	1050.67
352.75	1051.37
353.12	1049.50
353.50	1058.39
353.87	1059.56
354.24	1056.05
354.61	1061.20
354.98	1068.22
355.36	1072.20
355.73	1075.94
356.10	1090.22
356.47	1085.77
356.84	1090.46
357.22	1089.52
357.59	1090.22
357.96	1078.28
358.33	1078.52
358.70	1078.05
359.08	1080.16
359.45	1086.48
359.82	1088.82
360.19	1083.43
360.56	1089.05
360.94	1082.97
361.31	1069.86
361.68	1070.33
362.05	1070.56
362.42	1066.82
362.79	1064.71
363.16	1078.05
363.54	1083.90
363.91	1075.71
364.28	1073.60
364.65	1078.75
365.02	1076.41
365.39	1072.20
365.76	1082.73
366.14	1080.39
366.51	1081.80
366.88	1064.48
367.25	1059.33
367.62	1066.82
367.99	1068.45
368.36	1065.41
368.73	1078.52
369.10	1079.92
369.48	1072.20
369.85	1068.69
370.22	1063.77
370.59	1066.11
370.96	1070.09
371.33	1067.52
371.70	1080.86
372.07	1091.16
372.44	1084.84
372.81	1077.35
373.18	1083.20
373.55	1066.35
373.93	1051.13
374.30	1060.50
374.67	1064.94
375.04	1062.60
375.41	1069.39
375.78	1077.11
376.15	1070.56
376.52	1071.26
376.89	1070.33
377.26	1074.54
377.63	1069.16
378.00	1078.05
378.37	1076.41
378.74	1068.45
379.11	1060.50
379.48	1061.90
379.85	1056.28
380.22	1054.65
380.59	1057.69
380.96	1058.86
381.33	1058.62
381.70	1059.79
382.07	1060.50
382.44	1061.67
382.81	1065.41
383.18	1067.05
383.55	1060.26
383.92	1060.96
384.29	1075.71
384.66	1086.01
385.03	1092.56
385.40	1095.14
385.77	1093.50
386.14	1081.80
386.51	1073.14
386.88	1069.86
387.25	1062.37
387.62	1066.82
387.99	1071.97
388.36	1057.69
388.73	1056.28
389.10	1065.18
389.46	1065.18
389.83	1071.50
390.20	1088.82
390.57	1084.60
390.94	1081.09
391.31	1085.07
391.68	1078.05
392.05	1067.75
392.42	1079.22
392.79	1083.20
393.16	1069.62
393.53	1071.03
393.89	1078.28
394.26	1071.50
394.63	1069.86
395.00	1079.22
395.37	1077.35
395.74	1081.09
396.11	1090.69
396.48	1093.03
396.84	1090.46
397.21	1087.88
397.58	1082.97
397.95	1066.11
398.32	1067.99
398.69	1070.80
399.06	1068.92
399.42	1064.48
399.79	1075.94
400.16	1069.86
400.53	1059.79
400.90	1057.22
401.27	1060.50
401.64	1065.65
402.00	1062.60
402.37	1062.14
402.74	1067.28
403.11	1067.52
403.48	1064.48
403.84	1064.48
404.21	1071.73
404.58	1073.14
404.95	1071.73
405.32	1070.56
405.68	1075.48
406.05	1082.03
406.42	1086.01
406.79	1090.46
407.16	1078.99
407.52	1070.33
407.89	1065.41
408.26	1057.69
408.63	1051.84
408.99	1058.86
409.36	1068.92
409.73	1064.48
410.10	1057.22
410.47	1058.62
410.83	1067.99
411.20	1069.16
411.57	1074.54
411.94	1083.43
412.30	1078.05
412.67	1075.48
413.04	1079.46
413.40	1076.65
413.77	1078.28
414.14	1087.65
414.51	1079.22
414.87	1086.94
415.24	1081.80
415.61	1076.88
415.97	1073.60
416.34	1086.71
416.71	1072.67
417.08	1075.94
417.44	1083.67
417.81	1084.37
418.18	1085.54
418.54	1086.94
418.91	1089.29
419.28	1084.37
419.64	1080.86
420.01	1071.97
420.38	1064.94
420.74	1062.60
421.11	1064.24
421.48	1071.26
421.84	1064.48
422.21	1069.86
422.58	1082.73
422.94	1088.12
423.31	1083.90
423.68	1085.31
424.04	1093.97
424.41	1088.82
424.77	1072.90
425.14	1069.86
425.51	1073.84
425.87	1060.73
426.24	1049.50
426.61	1055.82
426.97	1059.79
427.34	1056.75
427.70	1069.62
428.07	1073.37
428.44	1070.33
428.80	1072.67
429.17	1082.50
429.53	1077.82
429.90	1086.01
430.27	1087.18
430.63	1089.29
431.00	1080.63
431.36	1073.60
431.73	1065.88
432.09	1078.05
432.46	1079.22
432.83	1080.39
433.19	1088.35
433.56	1093.97
433.92	1086.71
434.29	1079.92
434.65	1075.71
435.02	1078.28
435.38	1082.03
435.75	1081.09
436.11	1079.92
436.48	1086.01
436.84	1083.20
437.21	1078.28
437.57	1072.67
437.94	1082.03
438.30	1076.18
438.67	1073.37
439.03	1068.92
439.40	1073.14
439.76	1065.18
440.13	1075.71
440.49	1071.97
440.86	1072.20
441.22	1075.01
441.59	1066.35
441.95	1060.96
442.32	1062.37
442.68	1073.14
443.05	1073.14
443.41	1085.07
443.78	1090.69
444.14	1101.69
444.51	1097.71
444.87	1102.63
445.24	1093.50
445.60	1095.37
445.96	1095.37
446.33	1092.56
446.69	1081.56
447.06	1082.73
447.42	1073.60
447.79	1064.01
448.15	1067.28
448.51	1075.71
448.88	1072.67
449.24	1073.84
449.61	1071.03
449.97	1063.54
450.33	1060.26
450.70	1064.01
451.06	1061.90
451.43	1055.11
451.79	1065.18
452.15	1077.35
452.52	1082.73
452.88	1089.29
453.24	1085.77
453.61	1073.37
453.97	1062.37
454.34	1064.94
454.70	1056.75
455.06	1069.86
455.43	1078.05
455.79	1079.46
456.15	1079.22
456.52	1076.65
456.88	1077.11
457.24	1073.37
457.61	1063.77
457.97	1053.71
458.33	1057.69
458.70	1060.96
459.06	1057.69
459.42	1067.05
459.79	1062.60
460.15	1067.28
460.51	1063.54
460.88	1065.88
461.24	1067.52
461.60	1080.63
461.96	1088.35
462.33	1087.88
462.69	1087.41
463.05	1086.71
463.42	1075.71
463.78	1062.60
464.14	1062.37
464.50	1062.37
464.87	1066.58
465.23	1076.88
465.59	1075.48
465.95	1078.99
466.32	1082.26
466.68	1076.65
467.04	1077.35
467.40	1081.56
467.77	1067.05
468.13	1064.48
468.49	1062.37
468.85	1059.79
469.22	1065.88
469.58	1082.50
469.94	1089.52
470.30	1088.35
470.66	1082.26
471.03	1078.75
471.39	1071.03
471.75	1064.01
472.11	1061.67
472.47	1069.62
472.84	1076.18
473.20	1081.33
473.56	1097.24
473.92	1105.90
474.28	1110.12
474.65	1105.20
475.01	1111.99
475.37	1100.99
475.73	1091.39
476.09	1076.65
476.45	1075.24
476.81	1069.86
477.18	1060.50
477.54	1058.39
477.90	1063.77
478.26	1063.54
478.62	1056.99
478.98	1054.88
479.34	1067.05
479.71	1067.52
480.07	1068.69
480.43	1076.41
480.79	1088.35
481.15	1085.31
481.51	1096.54
481.87	1090.46
482.23	1083.67
482.59	1085.77
482.96	1085.77
483.32	1075.71
483.68	1068.92
484.04	1077.11
484.40	1083.90
484.76	1084.37
485.12	1088.58
485.48	1089.99
485.84	1082.50
486.20	1075.01
486.56	1067.28
486.92	1058.39
487.28	1075.71
487.64	1075.24
488.00	1067.52
488.37	1068.69
488.73	1078.75
489.09	1068.92
489.45	1073.37
489.81	1066.11
490.17	1067.05
490.53	1060.50
490.89	1068.45
491.25	1069.86
491.61	1085.31
491.97	1091.63
492.33	1100.05
492.69	1091.86
493.05	1084.84
493.41	1074.54
493.77	1070.33
494.13	1065.65
494.49	1068.92
494.85	1064.71
495.21	1062.60
495.57	1061.67
495.93	1064.24
496.29	1067.75
496.64	1077.35
497.00	1088.35
497.36	1089.29
497.72	1084.37
498.08	1075.01
498.44	1071.50
498.80	1069.62
499.16	1073.84
499.52	1082.97
499.88	1090.22
500.24	1094.43
500.60	1093.50
500.96	1095.14
501.32	1095.37
501.68	1086.71
502.03	1085.54
502.39	1078.75
502.75	1084.60
503.11	1073.37
503.47	1075.94
503.83	1077.82
504.19	1076.18
504.55	1066.35
504.91	1071.50
505.26	1080.86
505.62	1071.50
505.98	1069.16
506.34	1065.41
506.70	1078.75
507.06	1074.07
507.42	1080.16
507.78	1095.84
508.13	1105.90
508.49	1093.50
508.85	1093.50
509.21	1095.60
509.57	1094.67
509.93	1089.99
510.28	1090.92
510.64	1089.05
511.00	1086.24
511.36	1076.88
511.72	1083.20
512.07	1082.50
512.43	1082.97
512.79	1075.01
513.15	1078.99
513.51	1074.77
513.86	1081.09
514.22	1083.43
514.58	1094.67
514.94	1087.41
515.30	1079.69
515.65	1073.60
516.01	1072.43
516.37	1075.71
516.73	1084.60
517.08	1089.75
517.44	1102.16
517.80	1103.09
518.16	1097.95
518.51	1101.46
518.87	1105.90
519.23	1103.56
519.59	1091.39
519.94	1086.94
520.30	1085.31
520.66	1084.37
521.01	1079.46
521.37	1087.65
521.73	1083.90
522.09	1084.84
522.44	1086.24
522.80	1080.63
523.16	1084.84
523.51	1096.07
523.87	1100.05
524.23	1098.65
524.58	1091.63
524.94	1099.82
525.30	1104.03
525.65	1099.35
526.01	1104.26
526.37	1107.78
526.72	1101.92
527.08	1089.99
527.44	1073.14
527.79	1062.37
528.15	1065.65
528.51	1071.26
528.86	1073.60
529.22	1095.14
529.58	1105.20
529.93	1100.05
530.29	1098.88
530.65	1100.05
531.00	1094.43
531.36	1085.07
531.71	1091.16
532.07	1091.39
532.43	1102.39
532.78	1111.75
533.14	1119.24
533.49	1115.50
533.85	1111.75
534.21	1103.33
534.56	1092.33
534.92	1090.22
535.27	1090.92
535.63	1082.97
535.98	1074.77
536.34	1082.03
536.69	1074.54
537.05	1075.01
537.41	1075.71
537.76	1082.03
538.12	1081.56
538.47	1093.26
538.83	1097.48
539.18	1100.29
539.54	1098.18
539.89	1096.54
540.25	1090.92
540.60	1086.24
540.96	1093.50
541.31	1100.29
541.67	1096.78
542.02	1094.20
542.38	1093.97
542.73	1086.71
543.09	1087.65
543.44	1082.50
543.80	1083.90
544.15	1098.65
544.51	1104.97
544.86	1100.05
545.22	1109.18
545.57	1106.84
545.93	1102.16
546.28	1095.60
546.64	1095.60
546.99	1094.67
547.35	1095.84
547.70	1087.18
548.05	1084.60
548.41	1086.94
548.76	1089.75
549.12	1088.58
549.47	1091.86
549.83	1088.58
550.18	1086.24
550.53	1076.65
550.89	1079.92
551.24	1075.24
551.60	1085.07
551.95	1081.09
552.30	1091.63
552.66	1093.03
553.01	1096.31
553.37	1104.73
553.72	1113.16
554.07	1104.73
554.43	1095.84
554.78	1096.54
555.13	1084.14
555.49	1082.97
555.84	1083.20
556.19	1091.39
556.55	1090.46
556.90	1098.41
557.26	1089.75
557.61	1084.60
557.96	1078.75
558.32	1080.86
558.67	1066.11
559.02	1067.99
559.37	1077.11
559.73	1085.31
560.08	1079.46
560.43	1085.07
560.79	1091.39
561.14	1083.90
561.49	1073.14
561.85	1067.52
562.20	1060.96
562.55	1057.45
562.90	1069.86
563.26	1069.86
563.61	1072.67
563.96	1081.56
564.32	1081.09
564.67	1065.88
565.02	1075.24
565.37	1089.75
565.73	1088.58
566.08	1088.82
566.43	1095.14
566.78	1100.75
567.14	1093.73
567.49	1093.50
567.84	1093.97
568.19	1088.58
568.54	1085.54
568.90	1079.22
569.25	1078.05
569.60	1075.01
569.95	1078.05
570.31	1064.24
570.66	1073.14
571.01	1071.97
571.36	1079.22
571.71	1079.92
572.06	1096.31
572.42	1092.09
572.77	1091.16
573.12	1083.20
573.47	1084.14
573.82	1075.48
574.18	1075.48
574.53	1083.67
574.88	1084.14
575.23	1084.14
575.58	1076.41
575.93	1078.75
576.28	1068.92
576.64	1071.97
576.99	1063.07
577.34	1074.54
577.69	1071.97
578.04	1084.37
578.39	1083.20
578.74	1088.12
579.09	1079.69
579.44	1082.97
579.80	1070.33
580.15	1069.86
580.50	1074.31
580.85	1070.56
581.20	1075.24
581.55	1078.28
581.90	1079.69
582.25	1077.35
582.60	1082.03
582.95	1076.41
583.30	1068.69
583.65	1072.20
584.00	1080.63
584.35	1074.31
584.71	1055.11
585.06	1060.96
585.41	1043.88
585.76	1036.39
586.11	1043.18
586.46	1046.92
586.81	1049.50
587.16	1069.39
587.51	1067.28
587.86	1074.77
588.21	1093.03
588.56	1092.33
588.91	1079.69
589.26	1084.14
589.61	1082.97
589.96	1071.26
590.31	1065.65
590.66	1074.07
591.01	1078.52
591.36	1066.35
591.71	1067.99
592.06	1075.24
592.41	1070.80
592.76	1065.41
593.10	1067.75
593.45	1067.52
593.80	1079.92
594.15	1077.35
594.50	1075.71
594.85	1079.69
595.20	1084.84
595.55	1073.60
595.90	1078.52
596.25	1085.54
596.60	1081.80
596.95	1073.14
597.30	1069.16
597.64	1122.05
597.99	1125.80
598.34	1128.37
598.69	1136.33
599.04	1128.37
599.39	1079.22
599.74	1074.07
600.09	1082.97
600.44	1086.24
600.78	1103.56
601.13	1108.01
601.48	1101.22
601.83	1105.90
602.18	1093.97
602.53	1084.14
602.88	1080.63
603.22	1082.73
603.57	1067.05
603.92	1081.33
604.27	1086.94
604.62	1083.20
604.97	1083.90
605.31	1091.16
605.66	1085.77
606.01	1084.60
606.36	1082.03
606.71	1078.52
607.05	1071.73
607.40	1066.58
607.75	1061.90
608.10	1067.99
608.44	1063.77
608.79	1061.67
609.14	1074.31
609.49	1087.65
609.84	1078.05
610.18	1090.46
610.53	1106.14
610.88	1104.73
611.23	1090.46
611.57	1101.46
611.92	1097.95
612.27	1100.05
612.62	1090.46
612.96	1094.67
613.31	1088.58
613.66	1082.73
614.00	1069.86
614.35	1066.58
614.70	1067.05
615.05	1072.90
615.39	1076.18
615.74	1082.26
616.09	1089.52
616.43	1079.46
616.78	1073.37
617.13	1079.46
617.47	1072.20
617.82	1071.50
618.17	1086.48
618.51	1083.43
618.86	1083.67
619.21	1086.94
619.55	1092.80
619.90	1086.01
620.25	1097.95
620.59	1101.92
620.94	1100.05
621.29	1105.20
621.63	1101.22
621.98	1097.95
622.32	1089.99
622.67	1088.12
623.02	1075.71
623.36	1083.20
623.71	1068.69
624.05	1067.75
624.40	1073.37
624.75	1077.35
625.09	1079.22
625.44	1086.24
625.78	1076.88
626.13	1073.14
626.48	1075.71
626.82	1073.14
627.17	1069.62
627.51	1073.84
627.86	1076.41
628.20	1062.37
628.55	1061.20
628.89	1065.18
629.24	1072.20
629.58	1073.60
629.93	1077.35
630.28	1069.62
630.62	1076.18
630.97	1078.52
631.31	1082.73
631.66	1089.75
632.00	1097.95
632.35	1085.77
632.69	1087.18
633.04	1091.16
633.38	1085.77
633.73	1079.92
634.07	1095.37
634.42	1099.82
634.76	1084.60
635.11	1084.84
635.45	1087.65
635.79	1085.77
636.14	1077.35
636.48	1080.16
636.83	1084.60
637.17	1086.24
637.52	1074.07
637.86	1076.88
638.21	1086.71
638.55	1083.90
638.89	1087.65
639.24	1090.69
639.58	1092.33
639.93	1086.48
640.27	1080.16
640.61	1074.07
640.96	1071.26
641.30	1070.56
641.65	1067.99
641.99	1074.77
642.33	1076.88
642.68	1080.63
643.02	1070.33
643.37	1074.54
643.71	1082.03
644.05	1080.39
644.40	1079.46
644.74	1073.14
645.08	1060.26
645.43	1055.58
645.77	1060.26
646.11	1061.67
646.46	1076.18
646.80	1086.94
647.14	1084.37
647.49	1075.94
647.83	1080.63
648.17	1074.77
648.52	1076.88
648.86	1074.54
649.20	1078.05
649.55	1080.39
649.89	1077.82
650.23	1078.99
650.57	1080.63
650.92	1083.43
651.26	1067.28
651.60	1066.82
651.95	1054.65
652.29	1061.20
652.63	1060.96
652.97	1072.43
653.32	1081.09
653.66	1082.73
654.00	1077.11
654.34	1078.05
654.69	1084.37
655.03	1084.37
655.37	1092.80
655.71	1096.54
656.05	1096.54
656.40	1084.37
656.74	1084.37
657.08	1080.16
657.42	1078.99
657.76	1081.56
658.11	1086.94
658.45	1081.09
658.79	1085.54
659.13	1087.18
659.47	1080.86
659.82	1076.41
660.16	1067.28
660.50	1072.90
660.84	1070.09
661.18	1065.18
661.52	1064.01
661.87	1073.60
662.21	1064.94
662.55	1078.05
662.89	1086.48
663.23	1094.90
663.57	1100.29
663.91	1105.67
664.25	1093.03
664.60	1098.65
664.94	1090.22
665.28	1089.75
665.62	1078.75
665.96	1078.52
666.30	1067.05
666.64	1067.52
666.98	1071.26
667.32	1084.60
667.66	1084.37
668.01	1090.22
668.35	1093.97
668.69	1076.88
669.03	1064.71
669.37	1069.62
669.71	1074.07
670.05	1079.22
670.39	1086.71
670.73	1093.50
671.07	1093.26
671.41	1094.90
671.75	1098.41
672.09	1108.24
672.43	1101.92
672.77	1094.90
673.11	1088.58
673.45	1071.50
673.79	1060.50
674.13	1064.94
674.47	1063.77
674.81	1071.73
675.15	1082.50
675.49	1092.56
675.83	1095.14
676.17	1097.71
676.51	1096.07
676.85	1101.92
677.19	1100.99
677.53	1084.37
677.87	1078.28
678.21	1071.50
678.55	1062.37
678.89	1053.71
679.23	1067.99
679.57	1075.01
679.90	1079.46
680.24	1080.63
680.58	1081.80
680.92	1085.31
681.26	1086.94
681.60	1080.39
681.94	1087.65
682.28	1089.99
682.62	1079.69
682.96	1077.11
683.29	1077.58
683.63	1077.35
683.97	1070.56
684.31	1081.33
684.65	1082.97
684.99	1091.86
685.33	1087.18
685.67	1092.09
686.00	1096.31
686.34	1098.88
686.68	1102.39
687.02	1099.58
687.36	1095.37
687.70	1088.58
688.03	1086.01
688.37	1069.86
688.71	1061.43
689.05	1063.07
689.39	1066.82
689.72	1065.88
690.06	1074.31
690.40	1085.07
690.74	1089.75
691.08	1080.63
691.41	1078.52
691.75	1070.33
692.09	1069.16
692.43	1064.94
692.76	1069.62
693.10	1061.20
693.44	1067.28
693.78	1065.88
694.11	1066.11
694.45	1066.35
694.79	1078.75
695.13	1081.09
695.46	1083.67
695.80	1087.65
696.14	1089.29
696.48	1087.41
696.81	1097.01
697.15	1105.67
697.49	1096.78
697.82	1091.86
698.16	1095.60
698.50	1078.99
698.83	1069.39
699.17	1082.26
699.51	1087.88
699.84	1085.07
700.18	1087.65
700.52	1093.50
700.85	1094.43
701.19	1084.37
701.53	1086.48
701.86	1086.01
702.20	1073.14
702.54	1061.43
702.87	1074.77
703.21	1072.67
703.55	1071.73
703.88	1081.56
704.22	1086.71
704.55	1079.92
704.89	1080.39
705.23	1079.22
705.56	1078.28
705.90	1080.16
706.23	1076.88
706.57	1068.45
706.91	1078.05
707.24	1078.05
707.58	1074.77
707.91	1078.99
708.25	1083.20
708.58	1082.50
708.92	1079.92
709.26	1085.31
709.59	1080.16
709.93	1075.71
710.26	1064.24
710.60	1067.28
710.93	1074.31
711.27	1080.86
711.60	1084.60
711.94	1088.58
712.27	1082.26
712.61	1067.05
712.94	1064.48
713.28	1072.43
713.61	1077.35
713.95	1086.94
714.28	1092.33
714.62	1090.22
714.95	1077.58
715.29	1076.41
715.62	1069.16
715.96	1065.65
716.29	1064.24
716.63	1065.41
716.96	1065.18
717.29	1063.07
717.63	1064.94
717.96	1066.35
718.30	1074.77
718.63	1079.22
718.97	1085.07
719.30	1082.50
719.63	1082.73
719.97	1075.71
720.30	1068.45
720.64	1062.60
720.97	1073.14
721.30	1075.71
721.64	1075.71
721.97	1078.52
722.31	1082.97
722.64	1077.11
722.97	1073.84
723.31	1067.28
723.64	1062.37
723.97	1059.09
724.31	1071.50
724.64	1081.56
724.98	1096.54
725.31	1101.46
725.64	1103.09
725.98	1091.86
726.31	1088.58
726.64	1078.28
726.97	1081.09
727.31	1083.20
727.64	1091.16
727.97	1093.73
728.31	1090.69
728.64	1080.16
728.97	1075.71
729.31	1067.28
729.64	1062.37
729.97	1072.20
730.30	1077.58
730.64	1086.24
730.97	1075.94
731.30	1071.73
731.63	1075.94
731.97	1071.97
732.30	1065.18
732.63	1074.77
732.96	1071.73
733.30	1063.31
733.63	1063.07
733.96	1067.52
734.29	1072.20
734.63	1080.63
734.96	1088.35
735.29	1090.92
735.62	1086.01
735.95	1078.99
736.29	1071.50
736.62	1069.62
736.95	1075.71
737.28	1077.82
737.61	1073.60
737.94	1078.28
738.28	1082.50
738.61	1075.01
738.94	1065.18
739.27	1067.28
739.60	1064.24
739.93	1058.16
740.27	1053.94
740.60	1067.05
740.93	1070.56
741.26	1077.35
741.59	1075.01
741.92	1080.39
742.25	1075.71
742.58	1077.35
742.91	1086.48
743.25	1082.50
743.58	1089.99
743.91	1098.18
744.24	1086.94
744.57	1071.73
744.90	1080.39
745.23	1079.69
745.56	1074.77
745.89	1084.37
746.22	1087.41
746.55	1085.54
746.88	1080.16
747.21	1082.97
747.54	1090.22
747.87	1084.84
748.20	1083.67
748.53	1091.63
748.87	1084.84
749.20	1080.63
749.53	1091.63
749.86	1088.58
750.19	1084.60
750.52	1083.43
750.85	1081.80
751.18	1072.43
751.51	1076.18
751.84	1066.35
752.16	1062.14
752.49	1066.58
752.82	1060.96
753.15	1069.16
753.48	1073.60
753.81	1078.75
754.14	1070.09
754.47	1074.54
754.80	1071.50
755.13	1088.35
755.46	1095.14
755.79	1100.75
756.12	1104.97
756.45	1096.07
756.78	1079.22
757.11	1076.88
757.43	1074.54
757.76	1079.92
758.09	1082.97
758.42	1083.20
758.75	1084.37
759.08	1083.20
759.41	1068.22
759.74	1064.94
760.07	1066.35
760.39	1061.20
760.72	1053.01
761.05	1056.52
761.38	1059.09
761.71	1060.50
762.04	1059.33
762.36	1065.41
762.69	1067.05
763.02	1078.05
763.35	1082.97
763.68	1088.35
764.01	1097.48
764.33	1098.88
764.66	1078.75
764.99	1074.54
765.32	1071.50
765.65	1063.07
765.97	1060.96
766.30	1081.09
