SpectraSuite Data File
++++++++++++++++++++++++++++++++++++
Date: Mon Aug 26 10:25:54 PDT 2019
User: corrico
Dark Spectrum Present: No
Reference Spectrum Present: No
Number of Sampled Component Spectra: 1
Spectrometers: USB2+H06089
Integration Time (usec): 10000 (USB2+H06089)
Spectra Averaged: 2 (USB2+H06089)
Boxcar Smoothing: 2 (USB2+H06089)
Correct for Electrical Dark: No (USB2+H06089)
Strobe/Lamp Enabled: No (USB2+H06089)
Correct for Detector Non-linearity: No (USB2+H06089)
Correct for Stray Light: No (USB2+H06089)
Number of Pixels in Processed Spectrum: 2048
>>>>>Begin Processed Spectral Data<<<<<
339.70	1005.26
340.07	1005.26
340.45	990.98
340.82	974.60
341.19	954.00
341.57	932.94
341.94	906.72
342.31	895.49
342.69	893.62
343.06	887.06
343.43	896.66
343.81	913.98
344.18	914.68
344.55	914.21
344.93	928.49
345.30	924.75
345.67	924.51
346.04	935.98
346.42	939.49
346.79	932.94
347.16	948.39
347.54	956.11
347.91	973.43
348.28	993.32
348.65	1011.11
349.03	1009.94
349.40	1019.54
349.77	1021.64
350.14	1008.07
350.52	1013.92
350.89	1024.45
351.26	1024.22
351.63	1030.54
352.01	1054.41
352.38	1056.05
352.75	1059.79
353.12	1072.43
353.50	1075.48
353.87	1070.80
354.24	1087.41
354.61	1079.46
354.98	1072.90
355.36	1074.54
355.73	1080.16
356.10	1067.75
356.47	1071.26
356.84	1073.37
357.22	1065.88
357.59	1064.48
357.96	1062.84
358.33	1067.99
358.70	1070.56
359.08	1080.39
359.45	1077.82
359.82	1088.82
360.19	1084.60
360.56	1085.31
360.94	1075.94
361.31	1070.56
361.68	1064.94
362.05	1059.33
362.42	1058.39
362.79	1064.01
363.16	1066.11
363.54	1073.84
363.91	1086.24
364.28	1078.75
364.65	1070.80
365.02	1080.63
365.39	1067.75
365.76	1068.45
366.14	1068.45
366.51	1070.80
366.88	1065.65
367.25	1069.39
367.62	1063.31
367.99	1072.67
368.36	1067.52
368.73	1068.45
369.10	1073.60
369.48	1071.26
369.85	1058.16
370.22	1066.11
370.59	1064.94
370.96	1063.31
371.33	1072.43
371.70	1083.20
372.07	1076.18
372.44	1079.92
372.81	1076.41
373.18	1069.16
373.55	1072.90
373.93	1081.56
374.30	1072.90
374.67	1074.77
375.04	1067.52
375.41	1054.65
375.78	1046.22
376.15	1052.77
376.52	1062.84
376.89	1070.56
377.26	1080.86
377.63	1089.52
378.00	1097.48
378.37	1087.65
378.74	1097.24
379.11	1093.03
379.48	1097.01
379.85	1087.88
380.22	1087.65
380.59	1081.80
380.96	1082.73
381.33	1070.80
381.70	1069.62
382.07	1060.73
382.44	1063.07
382.81	1062.37
383.18	1068.45
383.55	1073.37
383.92	1080.63
384.29	1090.69
384.66	1092.80
385.03	1087.18
385.40	1084.84
385.77	1079.22
386.14	1066.11
386.51	1065.88
386.88	1074.31
387.25	1078.99
387.62	1083.67
387.99	1084.14
388.36	1080.39
388.73	1071.50
389.10	1069.62
389.46	1064.94
389.83	1065.41
390.20	1060.03
390.57	1064.48
390.94	1062.60
391.31	1064.24
391.68	1062.60
392.05	1073.84
392.42	1066.58
392.79	1063.07
393.16	1065.88
393.53	1067.75
393.89	1067.75
394.26	1067.99
394.63	1070.56
395.00	1076.18
395.37	1072.90
395.74	1070.09
396.11	1073.14
396.48	1066.58
396.84	1066.11
397.21	1064.94
397.58	1060.96
397.95	1064.48
398.32	1072.90
398.69	1065.65
399.06	1066.11
399.42	1065.65
399.79	1072.67
400.16	1069.16
400.53	1064.48
400.90	1049.26
401.27	1061.67
401.64	1056.28
402.00	1054.65
402.37	1064.01
402.74	1079.22
403.11	1067.52
403.48	1073.14
403.84	1071.50
404.21	1060.03
404.58	1057.45
404.95	1061.20
405.32	1058.39
405.68	1054.65
406.05	1065.65
406.42	1072.20
406.79	1071.97
407.16	1062.37
407.52	1070.33
407.89	1065.41
408.26	1057.69
408.63	1053.71
408.99	1058.16
409.36	1057.69
409.73	1063.54
410.10	1072.67
410.47	1081.56
410.83	1082.26
411.20	1076.41
411.57	1079.22
411.94	1078.52
412.30	1073.60
412.67	1071.26
413.04	1075.48
413.40	1075.71
413.77	1074.07
414.14	1080.39
414.51	1089.52
414.87	1094.43
415.24	1093.73
415.61	1096.31
415.97	1090.22
416.34	1078.52
416.71	1079.69
417.08	1076.18
417.44	1077.58
417.81	1077.82
418.18	1086.94
418.54	1088.12
418.91	1089.75
419.28	1088.12
419.64	1080.63
420.01	1080.63
420.38	1072.43
420.74	1071.73
421.11	1078.52
421.48	1093.50
421.84	1080.63
422.21	1084.14
422.58	1090.46
422.94	1086.71
423.31	1083.67
423.68	1091.86
424.04	1097.71
424.41	1089.29
424.77	1079.69
425.14	1064.01
425.51	1058.39
425.87	1058.16
426.24	1063.54
426.61	1068.45
426.97	1087.65
427.34	1093.03
427.70	1080.63
428.07	1080.63
428.44	1074.07
428.80	1065.41
429.17	1060.26
429.53	1065.18
429.90	1056.28
430.27	1064.48
430.63	1066.82
431.00	1069.62
431.36	1072.90
431.73	1076.18
432.09	1077.35
432.46	1071.26
432.83	1072.67
433.19	1070.33
433.56	1066.82
433.92	1064.71
434.29	1070.33
434.65	1081.80
435.02	1068.22
435.38	1087.88
435.75	1084.60
436.11	1090.69
436.48	1082.97
436.84	1092.56
437.21	1089.75
437.57	1088.35
437.94	1075.01
438.30	1069.16
438.67	1071.50
439.03	1060.50
439.40	1063.07
439.76	1059.33
440.13	1055.58
440.49	1053.01
440.86	1050.43
441.22	1054.88
441.59	1066.82
441.95	1077.35
442.32	1074.31
442.68	1073.84
443.05	1064.48
443.41	1064.01
443.78	1067.99
444.14	1073.14
444.51	1072.20
444.87	1073.14
445.24	1069.16
445.60	1054.65
445.96	1055.58
446.33	1061.67
446.69	1062.14
447.06	1061.67
447.42	1066.58
447.79	1067.28
448.15	1066.82
448.51	1073.14
448.88	1082.50
449.24	1089.52
449.61	1100.05
449.97	1093.03
450.33	1091.86
450.70	1093.50
451.06	1086.94
451.43	1072.90
451.79	1075.71
452.15	1074.54
452.52	1070.56
452.88	1079.69
453.24	1081.56
453.61	1079.92
453.97	1081.80
454.34	1090.92
454.70	1084.84
455.06	1085.77
455.43	1089.75
455.79	1097.01
456.15	1092.09
456.52	1102.16
456.88	1108.24
457.24	1101.92
457.61	1093.97
457.97	1086.01
458.33	1082.50
458.70	1091.39
459.06	1101.92
459.42	1096.07
459.79	1093.50
460.15	1090.22
460.51	1075.24
460.88	1073.60
461.24	1082.97
461.60	1087.18
461.96	1080.86
462.33	1086.01
462.69	1084.60
463.05	1079.92
463.42	1075.01
463.78	1081.33
464.14	1080.63
464.50	1084.60
464.87	1087.18
465.23	1093.50
465.59	1096.78
465.95	1095.14
466.32	1083.20
466.68	1086.48
467.04	1077.82
467.40	1072.43
467.77	1073.60
468.13	1082.97
468.49	1085.31
468.85	1084.14
469.22	1082.26
469.58	1075.94
469.94	1073.60
470.30	1070.80
470.66	1078.99
471.03	1076.88
471.39	1073.14
471.75	1071.50
472.11	1065.65
472.47	1055.82
472.84	1060.03
473.20	1064.24
473.56	1060.26
473.92	1055.11
474.28	1074.07
474.65	1077.11
475.01	1079.46
475.37	1083.67
475.73	1087.88
476.09	1076.88
476.45	1075.48
476.81	1069.16
477.18	1077.58
477.54	1080.39
477.90	1090.22
478.26	1087.18
478.62	1092.33
478.98	1083.43
479.34	1089.29
479.71	1081.80
480.07	1082.97
480.43	1088.58
480.79	1099.58
481.15	1086.24
481.51	1084.14
481.87	1071.73
482.23	1070.33
482.59	1059.33
482.96	1076.88
483.32	1074.07
483.68	1090.46
484.04	1087.18
484.40	1092.56
484.76	1088.58
485.12	1094.90
485.48	1086.24
485.84	1082.03
486.20	1082.50
486.56	1068.22
486.92	1060.03
487.28	1067.05
487.64	1079.46
488.00	1069.39
488.37	1078.75
488.73	1086.94
489.09	1076.88
489.45	1073.60
489.81	1075.01
490.17	1078.52
490.53	1064.71
490.89	1074.07
491.25	1071.73
491.61	1086.48
491.97	1084.60
492.33	1090.46
492.69	1082.97
493.05	1090.92
493.41	1078.05
493.77	1069.39
494.13	1067.99
494.49	1077.82
494.85	1069.62
495.21	1074.07
495.57	1067.28
495.93	1070.80
496.29	1074.07
496.64	1076.18
497.00	1073.14
497.36	1081.80
497.72	1073.14
498.08	1065.41
498.44	1066.11
498.80	1066.11
499.16	1067.99
499.52	1077.35
499.88	1078.28
500.24	1074.07
500.60	1075.71
500.96	1079.69
501.32	1076.41
501.68	1078.52
502.03	1069.39
502.39	1064.71
502.75	1053.24
503.11	1056.75
503.47	1062.60
503.83	1082.26
504.19	1093.97
504.55	1114.33
504.91	1124.16
505.26	1112.92
505.62	1101.22
505.98	1092.56
506.34	1071.97
506.70	1060.03
507.06	1071.97
507.42	1075.48
507.78	1078.05
508.13	1085.31
508.49	1100.05
508.85	1091.16
509.21	1083.67
509.57	1079.92
509.93	1083.43
510.28	1066.11
510.64	1075.94
511.00	1093.03
511.36	1100.52
511.72	1098.18
512.07	1101.46
512.43	1090.69
512.79	1075.24
513.15	1067.99
513.51	1060.03
513.86	1066.82
514.22	1054.41
514.58	1067.52
514.94	1080.39
515.30	1091.39
515.65	1092.09
516.01	1106.37
516.37	1099.35
516.73	1093.26
517.08	1091.16
517.44	1083.20
517.80	1076.41
518.16	1085.31
518.51	1081.56
518.87	1081.09
519.23	1100.52
519.59	1108.95
519.94	1093.26
520.30	1091.39
520.66	1094.90
521.01	1085.54
521.37	1080.63
521.73	1085.31
522.09	1089.99
522.44	1090.46
522.80	1083.90
523.16	1093.50
523.51	1097.95
523.87	1097.24
524.23	1099.35
524.58	1102.39
524.94	1106.84
525.30	1103.80
525.65	1095.84
526.01	1104.03
526.37	1111.05
526.72	1108.48
527.08	1107.31
527.44	1117.61
527.79	1114.80
528.15	1109.65
528.51	1110.82
528.86	1117.37
529.22	1120.18
529.58	1105.67
529.93	1106.37
530.29	1098.88
530.65	1093.26
531.00	1094.43
531.36	1097.71
531.71	1092.33
532.07	1089.99
532.43	1090.46
532.78	1084.84
533.14	1091.63
533.49	1107.31
533.85	1113.16
534.21	1109.65
534.56	1103.80
534.92	1098.65
535.27	1085.54
535.63	1071.26
535.98	1072.20
536.34	1082.50
536.69	1088.82
537.05	1084.84
537.41	1095.14
537.76	1092.09
538.12	1086.24
538.47	1075.48
538.83	1080.39
539.18	1076.65
539.54	1087.65
539.89	1095.37
540.25	1098.18
540.60	1100.52
540.96	1100.29
541.31	1091.63
541.67	1083.20
542.02	1087.41
542.38	1096.07
542.73	1101.46
543.09	1115.27
543.44	1119.24
543.80	1113.86
544.15	1100.29
544.51	1096.78
544.86	1095.14
545.22	1092.56
545.57	1098.65
545.93	1108.71
546.28	1116.67
546.64	1100.29
546.99	1108.48
547.35	1103.33
547.70	1099.82
548.05	1100.29
548.41	1112.69
548.76	1098.88
549.12	1098.65
549.47	1090.22
549.83	1076.18
550.18	1079.46
550.53	1088.12
550.89	1097.01
551.24	1103.56
551.60	1110.58
551.95	1100.52
552.30	1104.50
552.66	1100.99
553.01	1091.63
553.37	1096.31
553.72	1095.37
554.07	1089.52
554.43	1087.18
554.78	1093.03
555.13	1085.31
555.49	1086.71
555.84	1080.16
556.19	1083.67
556.55	1082.26
556.90	1086.71
557.26	1090.92
557.61	1093.50
557.96	1093.73
558.32	1093.03
558.67	1104.97
559.02	1100.75
559.37	1104.26
559.73	1097.24
560.08	1097.48
560.43	1076.88
560.79	1078.28
561.14	1071.73
561.49	1065.88
561.85	1065.18
562.20	1061.43
562.55	1064.71
562.90	1069.86
563.26	1081.56
563.61	1081.80
563.96	1086.01
564.32	1087.65
564.67	1083.43
565.02	1081.56
565.37	1086.94
565.73	1084.14
566.08	1078.28
566.43	1080.16
566.78	1076.88
567.14	1066.58
567.49	1072.43
567.84	1069.16
568.19	1072.20
568.54	1066.11
568.90	1076.65
569.25	1076.88
569.60	1078.28
569.95	1086.94
570.31	1089.75
570.66	1087.18
571.01	1094.43
571.36	1093.26
571.71	1080.63
572.06	1090.92
572.42	1092.80
572.77	1094.90
573.12	1092.56
573.47	1095.14
573.82	1089.52
574.18	1082.97
574.53	1072.20
574.88	1076.65
575.23	1071.97
575.58	1068.22
575.93	1069.16
576.28	1074.54
576.64	1078.28
576.99	1084.84
577.34	1080.63
577.69	1081.56
578.04	1086.01
578.39	1084.60
578.74	1080.86
579.09	1090.92
579.44	1090.46
579.80	1092.56
580.15	1094.67
580.50	1100.52
580.85	1104.50
581.20	1111.05
581.55	1099.58
581.90	1108.95
582.25	1108.48
582.60	1096.31
582.95	1096.78
583.30	1095.37
583.65	1086.71
584.00	1075.71
584.35	1082.73
584.71	1072.20
585.06	1067.28
585.41	1057.92
585.76	1067.05
586.11	1071.03
586.46	1078.05
586.81	1086.01
587.16	1091.39
587.51	1086.24
587.86	1087.18
588.21	1090.69
588.56	1092.80
588.91	1086.71
589.26	1081.80
589.61	1082.26
589.96	1079.46
590.31	1079.69
590.66	1094.20
591.01	1110.82
591.36	1104.50
591.71	1100.99
592.06	1103.56
592.41	1097.01
592.76	1092.33
593.10	1088.12
593.45	1084.37
593.80	1077.58
594.15	1066.35
594.50	1062.60
594.85	1060.96
595.20	1064.01
595.55	1068.22
595.90	1081.56
596.25	1075.94
596.60	1085.07
596.95	1086.48
597.30	1088.12
597.64	1132.59
597.99	1139.37
598.34	1137.50
598.69	1132.12
599.04	1133.52
599.39	1082.50
599.74	1086.01
600.09	1090.22
600.44	1090.92
600.78	1089.75
601.13	1096.31
601.48	1091.16
601.83	1082.97
602.18	1079.69
602.53	1067.28
602.88	1061.67
603.22	1063.77
603.57	1063.31
603.92	1065.88
604.27	1081.80
604.62	1087.41
604.97	1086.01
605.31	1089.29
605.66	1099.12
606.01	1090.46
606.36	1090.92
606.71	1091.39
607.05	1093.50
607.40	1080.39
607.75	1090.69
608.10	1076.41
608.44	1061.90
608.79	1060.50
609.14	1080.39
609.49	1076.65
609.84	1087.18
610.18	1110.58
610.53	1112.92
610.88	1106.37
611.23	1106.61
611.57	1112.46
611.92	1111.05
612.27	1102.16
612.62	1107.31
612.96	1109.18
613.31	1105.67
613.66	1092.56
614.00	1103.09
614.35	1082.03
614.70	1068.69
615.05	1059.56
615.39	1081.33
615.74	1072.90
616.09	1081.33
616.43	1085.54
616.78	1088.58
617.13	1066.35
617.47	1078.05
617.82	1081.80
618.17	1082.97
618.51	1085.31
618.86	1089.99
619.21	1081.09
619.55	1072.90
619.90	1069.39
620.25	1070.33
620.59	1070.33
620.94	1058.16
621.29	1069.62
621.63	1071.50
621.98	1075.48
622.32	1070.56
622.67	1084.60
623.02	1085.77
623.36	1078.99
623.71	1081.56
624.05	1090.92
624.40	1078.52
624.75	1074.54
625.09	1080.16
625.44	1062.60
625.78	1056.28
626.13	1069.39
626.48	1068.45
626.82	1065.88
627.17	1081.09
627.51	1084.60
627.86	1073.60
628.20	1075.71
628.55	1079.22
628.89	1067.05
629.24	1071.73
629.58	1078.05
629.93	1080.16
630.28	1079.22
630.62	1082.26
630.97	1076.41
631.31	1074.31
631.66	1065.18
632.00	1065.88
632.35	1064.71
632.69	1061.90
633.04	1055.82
633.38	1060.96
633.73	1070.56
634.07	1074.31
634.42	1076.41
634.76	1083.43
635.11	1075.01
635.45	1070.56
635.79	1076.18
636.14	1077.82
636.48	1086.71
636.83	1097.48
637.17	1089.05
637.52	1090.69
637.86	1094.43
638.21	1077.58
638.55	1069.16
638.89	1065.65
639.24	1056.28
639.58	1047.39
639.93	1052.07
640.27	1053.01
640.61	1067.52
640.96	1071.03
641.30	1076.18
641.65	1082.97
641.99	1089.05
642.33	1079.92
642.68	1084.60
643.02	1086.01
643.37	1080.86
643.71	1081.09
644.05	1086.48
644.40	1075.71
644.74	1072.20
645.08	1082.73
645.43	1081.33
645.77	1078.99
646.11	1081.33
646.46	1078.75
646.80	1077.11
647.14	1074.54
647.49	1078.99
647.83	1090.22
648.17	1089.52
648.52	1082.03
648.86	1087.41
649.20	1085.07
649.55	1083.43
649.89	1083.43
650.23	1077.11
650.57	1079.92
650.92	1084.14
651.26	1086.48
651.60	1088.82
651.95	1096.07
652.29	1090.46
652.63	1089.75
652.97	1084.60
653.32	1087.41
653.66	1091.16
654.00	1097.01
654.34	1092.09
654.69	1089.75
655.03	1084.60
655.37	1079.69
655.71	1073.37
656.05	1073.84
656.40	1075.94
656.74	1083.90
657.08	1082.97
657.42	1080.63
657.76	1080.16
658.11	1087.18
658.45	1085.54
658.79	1090.69
659.13	1095.37
659.47	1097.71
659.82	1089.05
660.16	1081.33
660.50	1084.14
660.84	1081.09
661.18	1075.24
661.52	1073.84
661.87	1075.71
662.21	1068.69
662.55	1072.20
662.89	1082.26
663.23	1086.24
663.57	1083.43
663.91	1077.82
664.25	1072.20
664.60	1064.48
664.94	1051.84
665.28	1056.52
665.62	1071.26
665.96	1073.60
666.30	1072.90
666.64	1084.37
666.98	1088.58
667.32	1078.28
667.66	1084.14
668.01	1086.94
668.35	1081.80
668.69	1081.80
669.03	1085.54
669.37	1083.20
669.71	1080.86
670.05	1084.60
670.39	1079.92
670.73	1082.50
671.07	1088.58
671.41	1087.65
671.75	1082.50
672.09	1088.12
672.43	1083.43
672.77	1082.50
673.11	1089.75
673.45	1094.90
673.79	1098.18
674.13	1100.05
674.47	1095.84
674.81	1089.29
675.15	1086.94
675.49	1087.88
675.83	1093.50
676.17	1076.88
676.51	1076.41
676.85	1084.37
677.19	1084.14
677.53	1081.09
677.87	1095.37
678.21	1097.24
678.55	1091.39
678.89	1081.80
679.23	1080.39
679.57	1079.22
679.90	1075.24
680.24	1079.22
680.58	1082.97
680.92	1086.24
681.26	1086.24
681.60	1092.33
681.94	1087.41
682.28	1087.88
682.62	1077.58
682.96	1078.52
683.29	1072.67
683.63	1067.75
683.97	1060.96
684.31	1065.41
684.65	1063.31
684.99	1065.41
685.33	1073.84
685.67	1072.90
686.00	1084.37
686.34	1084.37
686.68	1082.26
687.02	1081.56
687.36	1089.29
687.70	1083.20
688.03	1086.01
688.37	1093.73
688.71	1093.26
689.05	1092.33
689.39	1090.92
689.72	1086.48
690.06	1085.54
690.40	1076.65
690.74	1072.43
691.08	1066.82
691.41	1073.14
691.75	1070.09
692.09	1065.18
692.43	1070.33
692.76	1068.45
693.10	1058.86
693.44	1052.07
693.78	1057.69
694.11	1053.71
694.45	1057.92
694.79	1059.33
695.13	1060.50
695.46	1069.39
695.80	1076.88
696.14	1080.16
696.48	1089.05
696.81	1095.60
697.15	1099.58
697.49	1096.78
697.82	1092.80
698.16	1087.88
698.50	1087.18
698.83	1084.14
699.17	1073.14
699.51	1071.26
699.84	1054.88
700.18	1057.45
700.52	1054.41
700.85	1056.52
701.19	1060.03
701.53	1078.75
701.86	1080.86
702.20	1075.01
702.54	1076.65
702.87	1073.60
703.21	1065.88
703.55	1064.94
703.88	1081.33
704.22	1084.14
704.55	1084.84
704.89	1090.92
705.23	1087.65
705.56	1086.24
705.90	1086.01
706.23	1088.12
706.57	1086.71
706.91	1078.99
707.24	1069.86
707.58	1067.52
707.91	1060.50
708.25	1074.31
708.58	1087.18
708.92	1087.18
709.26	1099.82
709.59	1115.73
709.93	1094.43
710.26	1085.07
710.60	1086.24
710.93	1070.80
711.27	1071.26
711.60	1082.73
711.94	1091.39
712.27	1087.88
712.61	1096.78
712.94	1093.50
713.28	1092.33
713.61	1093.50
713.95	1097.01
714.28	1090.92
714.62	1080.86
714.95	1077.58
715.29	1072.20
715.62	1065.65
715.96	1069.86
716.29	1077.11
716.63	1069.62
716.96	1081.09
717.29	1085.77
717.63	1078.05
717.96	1075.94
718.30	1075.94
718.63	1058.62
718.97	1057.69
719.30	1066.82
719.63	1064.01
719.97	1076.65
720.30	1077.82
720.64	1074.07
720.97	1072.67
721.30	1080.63
721.64	1076.88
721.97	1078.99
722.31	1080.16
722.64	1084.37
722.97	1089.52
723.31	1090.69
723.64	1089.75
723.97	1097.48
724.31	1104.73
724.64	1084.37
724.98	1074.07
725.31	1073.37
725.64	1067.99
725.98	1066.35
726.31	1073.60
726.64	1085.31
726.97	1092.33
727.31	1094.43
727.64	1089.99
727.97	1101.92
728.31	1105.90
728.64	1097.48
728.97	1101.22
729.31	1094.90
729.64	1082.73
729.97	1074.77
730.30	1074.31
730.64	1068.45
730.97	1072.67
731.30	1083.20
731.63	1086.01
731.97	1097.01
732.30	1100.75
732.63	1105.67
732.96	1096.78
733.30	1095.84
733.63	1089.05
733.96	1085.77
734.29	1081.33
734.63	1086.94
734.96	1090.46
735.29	1091.86
735.62	1098.65
735.95	1097.71
736.29	1092.56
736.62	1081.09
736.95	1079.22
737.28	1072.43
737.61	1067.52
737.94	1064.01
738.28	1078.75
738.61	1080.63
738.94	1080.63
739.27	1084.14
739.60	1087.65
739.93	1075.48
740.27	1073.84
740.60	1079.22
740.93	1075.01
741.26	1068.92
741.59	1074.07
741.92	1075.48
742.25	1068.45
742.58	1071.26
742.91	1082.73
743.25	1078.28
743.58	1080.39
743.91	1082.26
744.24	1097.71
744.57	1088.58
744.90	1094.20
745.23	1086.24
745.56	1086.01
745.89	1078.52
746.22	1079.22
746.55	1077.35
746.88	1084.84
747.21	1090.92
747.54	1078.75
747.87	1088.12
748.20	1085.31
748.53	1090.22
748.87	1093.73
749.20	1108.01
749.53	1108.48
749.86	1108.01
750.19	1098.65
750.52	1089.05
750.85	1075.71
751.18	1067.99
751.51	1067.28
751.84	1077.35
752.16	1076.65
752.49	1086.24
752.82	1088.12
753.15	1089.99
753.48	1083.90
753.81	1088.82
754.14	1084.14
754.47	1080.16
754.80	1083.43
755.13	1075.94
755.46	1073.60
755.79	1073.84
756.12	1085.54
756.45	1087.41
756.78	1091.16
757.11	1090.69
757.43	1095.14
757.76	1092.33
758.09	1078.52
758.42	1076.41
758.75	1076.65
759.08	1070.56
759.41	1064.24
759.74	1071.26
760.07	1070.80
760.39	1065.88
760.72	1066.58
761.05	1072.67
761.38	1074.07
761.71	1082.26
762.04	1078.28
762.36	1078.05
762.69	1067.28
763.02	1067.52
763.35	1067.99
763.68	1080.86
764.01	1070.80
764.33	1076.41
764.66	1078.75
764.99	1070.80
765.32	1068.92
765.65	1074.54
765.97	1073.84
766.30	1068.92
