SpectraSuite Data File
++++++++++++++++++++++++++++++++++++
Date: Mon Aug 26 10:25:51 PDT 2019
User: corrico
Dark Spectrum Present: No
Reference Spectrum Present: No
Number of Sampled Component Spectra: 1
Spectrometers: USB2+H06089
Integration Time (usec): 10000 (USB2+H06089)
Spectra Averaged: 2 (USB2+H06089)
Boxcar Smoothing: 2 (USB2+H06089)
Correct for Electrical Dark: No (USB2+H06089)
Strobe/Lamp Enabled: No (USB2+H06089)
Correct for Detector Non-linearity: No (USB2+H06089)
Correct for Stray Light: No (USB2+H06089)
Number of Pixels in Processed Spectrum: 2048
>>>>>Begin Processed Spectral Data<<<<<
339.70	1018.13
340.07	1018.13
340.45	989.58
340.82	974.83
341.19	954.47
341.57	928.26
341.94	919.60
342.31	917.72
342.69	909.53
343.06	904.15
343.43	903.91
343.81	895.25
344.18	902.98
344.55	903.45
344.93	916.32
345.30	930.13
345.67	952.13
346.04	955.64
346.42	955.64
346.79	950.96
347.16	953.07
347.54	951.66
347.91	946.51
348.28	967.11
348.65	974.83
349.03	979.98
349.40	984.90
349.77	1001.52
350.14	1005.03
350.52	1015.32
350.89	1018.60
351.26	1028.67
351.63	1026.09
352.01	1027.73
352.38	1034.28
352.75	1048.09
353.12	1046.45
353.50	1055.35
353.87	1064.48
354.24	1071.73
354.61	1073.37
354.98	1074.07
355.36	1076.41
355.73	1078.75
356.10	1077.82
356.47	1072.67
356.84	1071.26
357.22	1077.82
357.59	1078.52
357.96	1076.65
358.33	1083.20
358.70	1091.39
359.08	1088.58
359.45	1087.65
359.82	1091.16
360.19	1088.35
360.56	1075.94
360.94	1072.43
361.31	1064.48
361.68	1059.56
362.05	1063.07
362.42	1073.14
362.79	1074.54
363.16	1082.26
363.54	1079.92
363.91	1074.77
364.28	1070.09
364.65	1071.26
365.02	1067.52
365.39	1072.90
365.76	1072.20
366.14	1075.24
366.51	1078.99
366.88	1078.75
367.25	1079.22
367.62	1087.18
367.99	1083.67
368.36	1068.92
368.73	1067.52
369.10	1068.22
369.48	1061.90
369.85	1059.79
370.22	1070.33
370.59	1068.22
370.96	1069.86
371.33	1066.35
371.70	1075.48
372.07	1073.84
372.44	1076.88
372.81	1068.92
373.18	1071.50
373.55	1068.45
373.93	1075.01
374.30	1069.62
374.67	1066.11
375.04	1069.16
375.41	1064.71
375.78	1061.67
376.15	1062.60
376.52	1066.11
376.89	1061.20
377.26	1061.90
377.63	1054.65
378.00	1050.43
378.37	1051.13
378.74	1051.13
379.11	1049.26
379.48	1052.54
379.85	1058.86
380.22	1067.52
380.59	1065.41
380.96	1064.94
381.33	1066.11
381.70	1068.45
382.07	1064.24
382.44	1061.67
382.81	1065.65
383.18	1061.43
383.55	1067.05
383.92	1064.71
384.29	1078.28
384.66	1081.09
385.03	1088.35
385.40	1095.14
385.77	1097.71
386.14	1090.92
386.51	1090.22
386.88	1087.41
387.25	1067.99
387.62	1078.05
387.99	1084.37
388.36	1092.09
388.73	1096.07
389.10	1113.16
389.46	1092.56
389.83	1077.11
390.20	1067.28
390.57	1058.86
390.94	1040.84
391.31	1046.92
391.68	1063.31
392.05	1068.69
392.42	1085.07
392.79	1098.41
393.16	1101.69
393.53	1087.88
393.89	1080.63
394.26	1071.73
394.63	1070.33
395.00	1077.11
395.37	1077.82
395.74	1080.86
396.11	1074.54
396.48	1070.09
396.84	1059.33
397.21	1060.73
397.58	1058.86
397.95	1062.37
398.32	1062.60
398.69	1064.71
399.06	1057.92
399.42	1055.82
399.79	1051.84
400.16	1056.52
400.53	1051.84
400.90	1063.54
401.27	1067.28
401.64	1064.94
402.00	1064.01
402.37	1069.16
402.74	1067.28
403.11	1068.22
403.48	1070.09
403.84	1070.56
404.21	1066.35
404.58	1066.58
404.95	1067.75
405.32	1071.50
405.68	1072.43
406.05	1068.22
406.42	1068.22
406.79	1062.60
407.16	1056.99
407.52	1044.82
407.89	1049.50
408.26	1046.22
408.63	1051.60
408.99	1059.56
409.36	1061.67
409.73	1062.60
410.10	1068.92
410.47	1068.45
410.83	1067.05
411.20	1074.31
411.57	1079.92
411.94	1084.84
412.30	1083.90
412.67	1078.28
413.04	1073.37
413.40	1068.92
413.77	1070.09
414.14	1073.37
414.51	1081.56
414.87	1081.80
415.24	1077.35
415.61	1067.05
415.97	1057.22
416.34	1056.28
416.71	1063.07
417.08	1071.73
417.44	1070.33
417.81	1073.14
418.18	1064.01
418.54	1061.20
418.91	1062.37
419.28	1072.20
419.64	1072.90
420.01	1080.63
420.38	1093.26
420.74	1092.33
421.11	1076.18
421.48	1082.26
421.84	1090.22
422.21	1073.60
422.58	1074.31
422.94	1084.84
423.31	1085.54
423.68	1070.33
424.04	1068.69
424.41	1066.11
424.77	1070.33
425.14	1067.99
425.51	1076.65
425.87	1080.16
426.24	1085.77
426.61	1079.92
426.97	1073.60
427.34	1072.43
427.70	1075.24
428.07	1070.33
428.44	1078.52
428.80	1081.09
429.17	1068.22
429.53	1063.54
429.90	1068.69
430.27	1064.48
430.63	1069.86
431.00	1080.39
431.36	1081.09
431.73	1080.86
432.09	1083.67
432.46	1075.94
432.83	1084.37
433.19	1077.11
433.56	1072.67
433.92	1061.90
434.29	1064.71
434.65	1063.54
435.02	1068.22
435.38	1074.77
435.75	1079.92
436.11	1079.69
436.48	1069.16
436.84	1073.84
437.21	1067.99
437.57	1075.48
437.94	1078.05
438.30	1081.80
438.67	1086.24
439.03	1079.46
439.40	1068.45
439.76	1065.88
440.13	1077.82
440.49	1079.92
440.86	1086.94
441.22	1093.26
441.59	1097.01
441.95	1091.63
442.32	1075.71
442.68	1065.65
443.05	1059.56
443.41	1061.90
443.78	1062.14
444.14	1069.62
444.51	1082.26
444.87	1086.24
445.24	1076.65
445.60	1068.45
445.96	1062.84
446.33	1070.33
446.69	1069.62
447.06	1073.60
447.42	1071.50
447.79	1080.39
448.15	1067.05
448.51	1064.01
448.88	1065.88
449.24	1067.05
449.61	1070.33
449.97	1072.43
450.33	1068.45
450.70	1067.75
451.06	1070.56
451.43	1067.52
451.79	1074.31
452.15	1079.69
452.52	1078.75
452.88	1085.07
453.24	1084.60
453.61	1073.37
453.97	1078.52
454.34	1080.16
454.70	1071.50
455.06	1069.39
455.43	1077.82
455.79	1068.45
456.15	1070.09
456.52	1072.43
456.88	1075.94
457.24	1072.20
457.61	1074.54
457.97	1073.37
458.33	1077.11
458.70	1072.90
459.06	1072.20
459.42	1082.73
459.79	1076.41
460.15	1066.11
460.51	1076.18
460.88	1084.14
461.24	1080.39
461.60	1076.88
461.96	1084.37
462.33	1073.14
462.69	1058.39
463.05	1065.88
463.42	1076.65
463.78	1076.41
464.14	1083.20
464.50	1092.56
464.87	1080.16
465.23	1077.82
465.59	1082.73
465.95	1081.56
466.32	1077.82
466.68	1075.01
467.04	1071.73
467.40	1071.03
467.77	1068.92
468.13	1066.35
468.49	1074.31
468.85	1090.46
469.22	1088.82
469.58	1087.88
469.94	1090.92
470.30	1092.56
470.66	1082.50
471.03	1081.56
471.39	1088.35
471.75	1088.58
472.11	1085.07
472.47	1075.94
472.84	1072.43
473.20	1061.43
473.56	1055.35
473.92	1049.50
474.28	1057.69
474.65	1062.37
475.01	1067.52
475.37	1081.09
475.73	1086.71
476.09	1084.60
476.45	1082.73
476.81	1081.56
477.18	1076.65
477.54	1076.88
477.90	1072.43
478.26	1075.24
478.62	1082.26
478.98	1079.69
479.34	1080.63
479.71	1079.46
480.07	1072.90
480.43	1074.77
480.79	1077.35
481.15	1066.58
481.51	1075.24
481.87	1075.48
482.23	1069.86
482.59	1065.65
482.96	1085.54
483.32	1078.28
483.68	1076.88
484.04	1078.75
484.40	1078.05
484.76	1069.86
485.12	1064.71
485.48	1072.67
485.84	1067.52
486.20	1076.65
486.56	1076.88
486.92	1086.94
487.28	1083.20
487.64	1083.20
488.00	1075.94
488.37	1071.26
488.73	1074.07
489.09	1077.11
489.45	1071.03
489.81	1064.94
490.17	1060.96
490.53	1056.52
490.89	1044.35
491.25	1057.69
491.61	1065.88
491.97	1073.14
492.33	1070.56
492.69	1087.18
493.05	1073.14
493.41	1073.14
493.77	1066.11
494.13	1072.67
494.49	1072.20
494.85	1091.63
495.21	1087.88
495.57	1100.05
495.93	1097.48
496.29	1090.69
496.64	1079.69
497.00	1080.39
497.36	1070.80
497.72	1075.48
498.08	1073.60
498.44	1074.77
498.80	1070.33
499.16	1078.75
499.52	1081.56
499.88	1079.46
500.24	1076.41
500.60	1078.28
500.96	1076.88
501.32	1061.43
501.68	1063.77
502.03	1067.75
502.39	1074.54
502.75	1071.26
503.11	1080.86
503.47	1087.65
503.83	1088.12
504.19	1093.73
504.55	1097.95
504.91	1099.82
505.26	1098.65
505.62	1098.18
505.98	1091.86
506.34	1091.63
506.70	1081.56
507.06	1086.01
507.42	1084.84
507.78	1088.35
508.13	1086.01
508.49	1095.60
508.85	1090.46
509.21	1088.58
509.57	1077.11
509.93	1077.82
510.28	1073.14
510.64	1075.48
511.00	1082.50
511.36	1086.94
511.72	1085.31
512.07	1083.43
512.43	1074.54
512.79	1063.07
513.15	1069.39
513.51	1072.20
513.86	1088.35
514.22	1088.35
514.58	1095.37
514.94	1093.97
515.30	1092.56
515.65	1080.86
516.01	1085.54
516.37	1082.03
516.73	1081.09
517.08	1074.54
517.44	1076.18
517.80	1080.16
518.16	1090.69
518.51	1093.26
518.87	1100.52
519.23	1104.26
519.59	1111.29
519.94	1104.26
520.30	1103.09
520.66	1106.37
521.01	1104.97
521.37	1095.84
521.73	1097.24
522.09	1105.20
522.44	1107.78
522.80	1111.52
523.16	1120.65
523.51	1112.69
523.87	1100.29
524.23	1096.31
524.58	1097.01
524.94	1088.82
525.30	1099.58
525.65	1104.50
526.01	1100.75
526.37	1102.86
526.72	1107.31
527.08	1095.84
527.44	1097.95
527.79	1090.92
528.15	1077.58
528.51	1068.92
528.86	1084.60
529.22	1086.48
529.58	1090.46
529.93	1090.69
530.29	1102.39
530.65	1095.60
531.00	1086.24
531.36	1084.84
531.71	1106.37
532.07	1097.01
532.43	1093.97
532.78	1100.29
533.14	1103.09
533.49	1094.20
533.85	1100.05
534.21	1103.33
534.56	1100.99
534.92	1113.16
535.27	1109.18
535.63	1099.58
535.98	1104.50
536.34	1107.54
536.69	1099.58
537.05	1093.03
537.41	1092.80
537.76	1091.86
538.12	1081.80
538.47	1079.22
538.83	1079.46
539.18	1085.77
539.54	1072.20
539.89	1075.24
540.25	1083.20
540.60	1075.94
540.96	1075.48
541.31	1082.03
541.67	1080.86
542.02	1073.84
542.38	1082.97
542.73	1071.97
543.09	1078.75
543.44	1078.75
543.80	1079.46
544.15	1076.65
544.51	1082.50
544.86	1074.07
545.22	1082.73
545.57	1089.99
545.93	1102.63
546.28	1110.82
546.64	1112.22
546.99	1106.14
547.35	1103.56
547.70	1083.67
548.05	1081.33
548.41	1079.69
548.76	1073.84
549.12	1075.71
549.47	1085.54
549.83	1090.92
550.18	1092.09
550.53	1093.26
550.89	1087.18
551.24	1080.63
551.60	1068.92
551.95	1074.77
552.30	1080.16
552.66	1078.28
553.01	1084.60
553.37	1092.80
553.72	1093.26
554.07	1096.54
554.43	1090.46
554.78	1093.03
555.13	1093.73
555.49	1092.33
555.84	1087.41
556.19	1096.31
556.55	1087.65
556.90	1086.01
557.26	1082.03
557.61	1071.73
557.96	1067.52
558.32	1077.35
558.67	1078.99
559.02	1087.18
559.37	1094.67
559.73	1099.82
560.08	1098.65
560.43	1100.75
560.79	1089.05
561.14	1101.69
561.49	1103.80
561.85	1101.46
562.20	1086.24
562.55	1097.95
562.90	1092.09
563.26	1087.88
563.61	1085.54
563.96	1093.26
564.32	1084.37
564.67	1087.18
565.02	1090.46
565.37	1091.86
565.73	1092.33
566.08	1097.24
566.43	1093.50
566.78	1087.41
567.14	1090.92
567.49	1091.86
567.84	1093.03
568.19	1089.99
568.54	1083.43
568.90	1069.62
569.25	1064.24
569.60	1056.05
569.95	1053.48
570.31	1051.84
570.66	1057.69
571.01	1066.35
571.36	1068.22
571.71	1075.71
572.06	1085.07
572.42	1086.01
572.77	1085.54
573.12	1087.18
573.47	1080.39
573.82	1082.73
574.18	1086.48
574.53	1086.71
574.88	1087.41
575.23	1099.58
575.58	1091.39
575.93	1079.69
576.28	1075.94
576.64	1082.97
576.99	1072.43
577.34	1080.63
577.69	1089.52
578.04	1097.24
578.39	1087.18
578.74	1084.84
579.09	1080.16
579.44	1082.50
579.80	1066.58
580.15	1077.82
580.50	1082.50
580.85	1084.84
581.20	1077.58
581.55	1084.84
581.90	1065.18
582.25	1060.03
582.60	1060.26
582.95	1079.69
583.30	1083.43
583.65	1089.52
584.00	1092.80
584.35	1092.80
584.71	1076.65
585.06	1072.20
585.41	1074.54
585.76	1079.22
586.11	1069.16
586.46	1073.84
586.81	1068.69
587.16	1067.28
587.51	1067.05
587.86	1069.62
588.21	1061.43
588.56	1056.99
588.91	1063.31
589.26	1051.84
589.61	1053.94
589.96	1057.22
590.31	1070.56
590.66	1065.18
591.01	1070.33
591.36	1075.01
591.71	1068.92
592.06	1065.18
592.41	1065.41
592.76	1071.03
593.10	1068.92
593.45	1079.46
593.80	1087.41
594.15	1090.46
594.50	1082.26
594.85	1083.20
595.20	1084.37
595.55	1078.52
595.90	1077.58
596.25	1083.20
596.60	1077.58
596.95	1071.50
597.30	1071.26
597.64	1123.46
597.99	1141.25
598.34	1151.78
598.69	1154.12
599.04	1159.03
599.39	1109.88
599.74	1090.22
600.09	1076.41
600.44	1071.26
600.78	1063.54
601.13	1057.69
601.48	1053.71
601.83	1072.43
602.18	1073.14
602.53	1067.99
602.88	1068.92
603.22	1072.43
603.57	1059.56
603.92	1066.35
604.27	1070.80
604.62	1077.58
604.97	1081.33
605.31	1082.97
605.66	1082.26
606.01	1070.33
606.36	1061.20
606.71	1063.77
607.05	1064.24
607.40	1064.24
607.75	1085.31
608.10	1085.77
608.44	1075.01
608.79	1071.26
609.14	1076.88
609.49	1075.94
609.84	1089.52
610.18	1097.95
610.53	1105.90
610.88	1105.67
611.23	1104.03
611.57	1095.14
611.92	1095.84
612.27	1096.54
612.62	1105.67
612.96	1103.80
613.31	1096.07
613.66	1096.78
614.00	1102.63
614.35	1092.56
614.70	1090.92
615.05	1097.95
615.39	1090.92
615.74	1086.71
616.09	1082.26
616.43	1084.14
616.78	1086.48
617.13	1089.99
617.47	1087.18
617.82	1090.22
618.17	1088.12
618.51	1086.71
618.86	1094.20
619.21	1093.73
619.55	1098.65
619.90	1111.29
620.25	1113.63
620.59	1103.33
620.94	1094.20
621.29	1085.54
621.63	1065.65
621.98	1060.96
622.32	1064.48
622.67	1071.26
623.02	1076.88
623.36	1085.07
623.71	1088.12
624.05	1087.88
624.40	1082.97
624.75	1078.05
625.09	1073.60
625.44	1077.58
625.78	1088.82
626.13	1099.58
626.48	1101.46
626.82	1100.75
627.17	1093.03
627.51	1076.88
627.86	1067.75
628.20	1073.14
628.55	1078.28
628.89	1075.94
629.24	1087.65
629.58	1085.77
629.93	1089.75
630.28	1096.78
630.62	1097.95
630.97	1095.84
631.31	1096.31
631.66	1082.50
632.00	1073.84
632.35	1076.18
632.69	1067.75
633.04	1071.50
633.38	1074.07
633.73	1075.71
634.07	1082.03
634.42	1081.56
634.76	1088.35
635.11	1083.90
635.45	1086.94
635.79	1075.01
636.14	1068.69
636.48	1059.56
636.83	1063.77
637.17	1056.99
637.52	1061.67
637.86	1072.90
638.21	1073.14
638.55	1071.26
638.89	1075.71
639.24	1073.14
639.58	1074.77
639.93	1071.26
640.27	1070.09
640.61	1059.56
640.96	1073.14
641.30	1065.18
641.65	1083.90
641.99	1089.99
642.33	1099.12
642.68	1078.05
643.02	1080.39
643.37	1068.45
643.71	1067.28
644.05	1064.71
644.40	1080.16
644.74	1086.71
645.08	1095.37
645.43	1092.80
645.77	1087.65
646.11	1082.97
646.46	1080.86
646.80	1071.50
647.14	1065.41
647.49	1074.07
647.83	1078.05
648.17	1076.88
648.52	1078.28
648.86	1086.24
649.20	1089.05
649.55	1093.50
649.89	1101.69
650.23	1091.86
650.57	1089.05
650.92	1080.16
651.26	1063.54
651.60	1047.16
651.95	1061.20
652.29	1058.62
652.63	1065.41
652.97	1071.50
653.32	1082.26
653.66	1077.82
654.00	1087.65
654.34	1086.71
654.69	1088.12
655.03	1078.75
655.37	1079.22
655.71	1070.09
656.05	1057.92
656.40	1061.67
656.74	1075.71
657.08	1081.80
657.42	1090.69
657.76	1104.03
658.11	1108.95
658.45	1100.75
658.79	1093.03
659.13	1090.92
659.47	1077.58
659.82	1071.03
660.16	1063.77
660.50	1066.82
660.84	1067.05
661.18	1073.60
661.52	1073.60
661.87	1083.20
662.21	1074.77
662.55	1067.75
662.89	1069.86
663.23	1065.41
663.57	1071.97
663.91	1090.92
664.25	1100.99
664.60	1103.56
664.94	1104.97
665.28	1098.65
665.62	1084.37
665.96	1082.73
666.30	1076.18
666.64	1077.35
666.98	1066.35
667.32	1070.33
667.66	1063.77
668.01	1075.71
668.35	1078.99
668.69	1086.48
669.03	1090.46
669.37	1097.71
669.71	1089.52
670.05	1093.26
670.39	1095.14
670.73	1095.84
671.07	1093.26
671.41	1094.43
671.75	1086.48
672.09	1093.03
672.43	1083.67
672.77	1085.54
673.11	1092.33
673.45	1094.43
673.79	1091.39
674.13	1092.33
674.47	1086.01
674.81	1080.63
675.15	1078.05
675.49	1070.80
675.83	1069.86
676.17	1069.62
676.51	1072.43
676.85	1075.48
677.19	1072.90
677.53	1077.35
677.87	1079.22
678.21	1067.05
678.55	1053.01
678.89	1064.24
679.23	1063.54
679.57	1068.69
679.90	1060.50
680.24	1071.73
680.58	1066.11
680.92	1071.50
681.26	1065.65
681.60	1085.54
681.94	1079.69
682.28	1070.33
682.62	1065.18
682.96	1063.54
683.29	1047.16
683.63	1058.62
683.97	1074.54
684.31	1073.60
684.65	1079.46
684.99	1087.88
685.33	1082.26
685.67	1074.54
686.00	1067.75
686.34	1057.45
686.68	1067.52
687.02	1073.60
687.36	1082.03
687.70	1086.01
688.03	1101.46
688.37	1097.95
688.71	1095.60
689.05	1081.09
689.39	1084.37
689.72	1074.31
690.06	1065.65
690.40	1067.75
690.74	1071.97
691.08	1066.11
691.41	1067.99
691.75	1082.26
692.09	1075.48
692.43	1081.80
692.76	1085.77
693.10	1084.84
693.44	1078.05
693.78	1085.31
694.11	1073.84
694.45	1067.28
694.79	1064.24
695.13	1062.60
695.46	1053.71
695.80	1061.43
696.14	1074.54
696.48	1092.09
696.81	1095.37
697.15	1099.58
697.49	1103.33
697.82	1091.39
698.16	1071.97
698.50	1066.58
698.83	1070.56
699.17	1071.03
699.51	1086.48
699.84	1094.90
700.18	1097.95
700.52	1090.22
700.85	1086.01
701.19	1074.77
701.53	1072.90
701.86	1066.58
702.20	1074.31
702.54	1071.97
702.87	1080.39
703.21	1082.50
703.55	1089.05
703.88	1078.52
704.22	1074.31
704.55	1070.09
704.89	1063.77
705.23	1065.41
705.56	1071.03
705.90	1079.22
706.23	1076.88
706.57	1085.77
706.91	1088.35
707.24	1086.48
707.58	1089.05
707.91	1090.92
708.25	1082.50
708.58	1083.67
708.92	1084.60
709.26	1087.88
709.59	1093.26
709.93	1086.48
710.26	1071.50
710.60	1077.35
710.93	1077.82
711.27	1069.62
711.60	1074.31
711.94	1078.99
712.27	1081.80
712.61	1065.65
712.94	1073.84
713.28	1085.77
713.61	1093.50
713.95	1088.12
714.28	1094.90
714.62	1088.82
714.95	1083.67
715.29	1080.39
715.62	1080.63
715.96	1078.99
716.29	1087.88
716.63	1081.33
716.96	1082.50
717.29	1080.16
717.63	1089.52
717.96	1081.80
718.30	1085.07
718.63	1084.14
718.97	1088.12
719.30	1076.65
719.63	1083.43
719.97	1087.65
720.30	1092.09
720.64	1085.54
720.97	1098.41
721.30	1085.07
721.64	1086.48
721.97	1080.39
722.31	1081.33
722.64	1068.45
722.97	1069.39
723.31	1065.65
723.64	1061.20
723.97	1063.77
724.31	1056.52
724.64	1065.18
724.98	1062.14
725.31	1068.92
725.64	1068.92
725.98	1084.84
726.31	1085.54
726.64	1086.94
726.97	1089.75
727.31	1096.31
727.64	1091.39
727.97	1090.22
728.31	1088.35
728.64	1085.07
728.97	1078.28
729.31	1083.90
729.64	1081.09
729.97	1083.43
730.30	1091.63
730.64	1104.50
730.97	1099.12
731.30	1090.22
731.63	1092.33
731.97	1087.18
732.30	1071.73
732.63	1068.45
732.96	1088.35
733.30	1089.99
733.63	1081.33
733.96	1075.94
734.29	1086.24
734.63	1074.54
734.96	1068.22
735.29	1071.26
735.62	1088.12
735.95	1078.99
736.29	1078.75
736.62	1084.84
736.95	1082.73
737.28	1073.84
737.61	1076.41
737.94	1075.01
738.28	1071.50
738.61	1069.86
738.94	1076.18
739.27	1082.73
739.60	1081.09
739.93	1082.97
740.27	1089.75
740.60	1080.63
740.93	1074.07
741.26	1080.16
741.59	1072.90
741.92	1062.84
742.25	1067.99
742.58	1064.71
742.91	1070.56
743.25	1079.46
743.58	1086.24
743.91	1087.18
744.24	1093.50
744.57	1084.84
744.90	1080.39
745.23	1079.22
745.56	1079.69
745.89	1089.05
746.22	1089.05
746.55	1093.50
746.88	1092.33
747.21	1096.54
747.54	1070.56
747.87	1065.41
748.20	1063.77
748.53	1059.56
748.87	1051.13
749.20	1061.43
749.53	1063.31
749.86	1066.82
750.19	1076.65
750.52	1082.73
750.85	1089.75
751.18	1084.14
751.51	1075.24
751.84	1068.45
752.16	1068.69
752.49	1073.60
752.82	1079.22
753.15	1082.26
753.48	1089.75
753.81	1092.33
754.14	1097.71
754.47	1103.80
754.80	1105.20
755.13	1099.35
755.46	1088.12
755.79	1072.67
756.12	1076.88
756.45	1077.35
756.78	1081.80
757.11	1082.26
757.43	1087.65
757.76	1075.01
758.09	1075.48
758.42	1071.50
758.75	1075.71
759.08	1076.65
759.41	1091.39
759.74	1086.24
760.07	1084.84
760.39	1085.77
760.72	1084.84
761.05	1077.35
761.38	1080.86
761.71	1085.77
762.04	1084.84
762.36	1082.26
762.69	1075.24
763.02	1072.20
763.35	1068.22
763.68	1068.69
764.01	1069.86
764.33	1072.90
764.66	1079.92
764.99	1077.58
765.32	1078.99
765.65	1076.65
765.97	1080.63
766.30	1080.16
