SpectraSuite Data File
++++++++++++++++++++++++++++++++++++
Date: Mon Aug 26 10:25:54 PDT 2019
User: corrico
Dark Spectrum Present: No
Reference Spectrum Present: No
Number of Sampled Component Spectra: 1
Spectrometers: USB2+H06089
Integration Time (usec): 10000 (USB2+H06089)
Spectra Averaged: 2 (USB2+H06089)
Boxcar Smoothing: 2 (USB2+H06089)
Correct for Electrical Dark: No (USB2+H06089)
Strobe/Lamp Enabled: No (USB2+H06089)
Correct for Detector Non-linearity: No (USB2+H06089)
Correct for Stray Light: No (USB2+H06089)
Number of Pixels in Processed Spectrum: 2048
>>>>>Begin Processed Spectral Data<<<<<
339.70	1035.69
340.07	1035.69
340.45	1010.41
340.82	990.28
341.19	968.51
341.57	952.36
341.94	948.39
342.31	932.00
342.69	922.17
343.06	907.89
343.43	911.40
343.81	900.40
344.18	910.47
344.55	922.41
344.93	931.07
345.30	924.04
345.67	934.58
346.04	943.70
346.42	948.62
346.79	965.71
347.16	969.45
347.54	982.32
347.91	992.86
348.28	1000.81
348.65	999.17
349.03	1019.54
349.40	1016.96
349.77	1017.20
350.14	1019.77
350.52	1038.96
350.89	1035.69
351.26	1043.18
351.63	1053.71
352.01	1067.28
352.38	1062.37
352.75	1072.20
353.12	1082.50
353.50	1080.86
353.87	1081.56
354.24	1090.92
354.61	1084.84
354.98	1087.41
355.36	1089.05
355.73	1082.03
356.10	1070.09
356.47	1075.01
356.84	1068.22
357.22	1059.79
357.59	1061.67
357.96	1066.82
358.33	1063.31
358.70	1063.54
359.08	1073.37
359.45	1070.09
359.82	1080.39
360.19	1082.97
360.56	1078.99
360.94	1078.52
361.31	1080.39
361.68	1069.62
362.05	1071.03
362.42	1064.01
362.79	1059.33
363.16	1053.94
363.54	1058.16
363.91	1058.39
364.28	1070.09
364.65	1071.50
365.02	1076.18
365.39	1066.58
365.76	1060.96
366.14	1060.26
366.51	1059.79
366.88	1069.62
367.25	1081.33
367.62	1087.18
367.99	1077.82
368.36	1071.73
368.73	1053.48
369.10	1047.62
369.48	1050.67
369.85	1054.88
370.22	1056.99
370.59	1069.16
370.96	1074.54
371.33	1064.71
371.70	1071.03
372.07	1084.37
372.44	1081.33
372.81	1076.41
373.18	1074.77
373.55	1080.63
373.93	1067.75
374.30	1066.82
374.67	1070.80
375.04	1083.67
375.41	1079.92
375.78	1080.86
376.15	1086.94
376.52	1083.90
376.89	1078.75
377.26	1074.07
377.63	1074.54
378.00	1069.39
378.37	1070.09
378.74	1066.11
379.11	1060.50
379.48	1069.39
379.85	1073.14
380.22	1076.18
380.59	1068.45
380.96	1072.20
381.33	1066.58
381.70	1060.03
382.07	1052.30
382.44	1064.94
382.81	1070.56
383.18	1070.33
383.55	1074.54
383.92	1079.46
384.29	1075.01
384.66	1069.86
385.03	1078.52
385.40	1070.80
385.77	1069.16
386.14	1068.22
386.51	1071.50
386.88	1061.43
387.25	1075.71
387.62	1076.65
387.99	1084.37
388.36	1083.20
388.73	1072.67
389.10	1072.20
389.46	1069.39
389.83	1055.35
390.20	1049.03
390.57	1056.05
390.94	1046.69
391.31	1053.01
391.68	1062.14
392.05	1066.11
392.42	1066.58
392.79	1076.88
393.16	1072.43
393.53	1065.88
393.89	1062.14
394.26	1067.99
394.63	1068.92
395.00	1074.07
395.37	1070.56
395.74	1075.71
396.11	1082.03
396.48	1070.80
396.84	1070.80
397.21	1076.65
397.58	1076.65
397.95	1067.05
398.32	1070.09
398.69	1067.28
399.06	1074.31
399.42	1078.28
399.79	1085.54
400.16	1087.88
400.53	1093.26
400.90	1086.94
401.27	1080.16
401.64	1077.58
402.00	1076.41
402.37	1076.65
402.74	1075.24
403.11	1086.24
403.48	1085.54
403.84	1084.84
404.21	1082.97
404.58	1091.63
404.95	1083.20
405.32	1083.43
405.68	1085.77
406.05	1086.24
406.42	1068.22
406.79	1070.33
407.16	1070.56
407.52	1062.60
407.89	1051.84
408.26	1069.86
408.63	1063.77
408.99	1054.65
409.36	1062.84
409.73	1065.41
410.10	1068.22
410.47	1079.69
410.83	1085.54
411.20	1088.58
411.57	1092.80
411.94	1088.12
412.30	1084.37
412.67	1094.20
413.04	1081.33
413.40	1075.01
413.77	1071.73
414.14	1073.60
414.51	1058.39
414.87	1061.90
415.24	1060.50
415.61	1064.71
415.97	1061.20
416.34	1075.71
416.71	1084.84
417.08	1083.43
417.44	1075.94
417.81	1076.65
418.18	1067.52
418.54	1068.22
418.91	1078.28
419.28	1085.07
419.64	1080.63
420.01	1077.11
420.38	1068.22
420.74	1066.35
421.11	1066.11
421.48	1060.50
421.84	1058.62
422.21	1063.31
422.58	1062.14
422.94	1059.09
423.31	1070.09
423.68	1080.63
424.04	1086.24
424.41	1091.86
424.77	1086.24
425.14	1082.26
425.51	1083.67
425.87	1083.90
426.24	1084.60
426.61	1091.86
426.97	1089.75
427.34	1083.20
427.70	1070.56
428.07	1069.86
428.44	1072.43
428.80	1079.22
429.17	1072.20
429.53	1080.63
429.90	1077.11
430.27	1072.20
430.63	1065.88
431.00	1074.07
431.36	1063.77
431.73	1062.37
432.09	1071.03
432.46	1076.65
432.83	1080.63
433.19	1093.50
433.56	1094.20
433.92	1084.84
434.29	1081.33
434.65	1081.56
435.02	1086.94
435.38	1087.41
435.75	1088.35
436.11	1083.43
436.48	1076.65
436.84	1073.60
437.21	1075.48
437.57	1079.69
437.94	1090.46
438.30	1082.50
438.67	1068.69
439.03	1072.20
439.40	1065.65
439.76	1064.48
440.13	1076.18
440.49	1075.71
440.86	1062.84
441.22	1076.88
441.59	1076.88
441.95	1076.18
442.32	1087.18
442.68	1096.31
443.05	1082.97
443.41	1081.80
443.78	1080.86
444.14	1084.84
444.51	1078.99
444.87	1084.37
445.24	1086.48
445.60	1082.97
445.96	1078.28
446.33	1084.60
446.69	1082.73
447.06	1076.41
447.42	1078.99
447.79	1078.99
448.15	1074.31
448.51	1076.65
448.88	1074.07
449.24	1088.12
449.61	1084.84
449.97	1091.63
450.33	1091.86
450.70	1086.94
451.06	1073.84
451.43	1075.48
451.79	1070.80
452.15	1068.69
452.52	1075.24
452.88	1076.41
453.24	1070.09
453.61	1079.92
453.97	1071.26
454.34	1077.58
454.70	1076.65
455.06	1078.99
455.43	1069.86
455.79	1087.65
456.15	1082.03
456.52	1074.54
456.88	1078.75
457.24	1080.16
457.61	1062.14
457.97	1071.50
458.33	1073.37
458.70	1065.18
459.06	1070.33
459.42	1078.75
459.79	1074.07
460.15	1076.41
460.51	1085.07
460.88	1080.16
461.24	1078.05
461.60	1070.80
461.96	1077.58
462.33	1077.58
462.69	1070.09
463.05	1068.45
463.42	1076.88
463.78	1070.56
464.14	1070.56
464.50	1067.28
464.87	1072.67
465.23	1075.24
465.59	1073.37
465.95	1080.39
466.32	1091.86
466.68	1092.33
467.04	1079.92
467.40	1083.67
467.77	1075.01
468.13	1072.43
468.49	1067.99
468.85	1078.75
469.22	1086.24
469.58	1087.41
469.94	1097.48
470.30	1103.56
470.66	1103.33
471.03	1099.82
471.39	1094.90
471.75	1083.20
472.11	1075.48
472.47	1067.28
472.84	1068.69
473.20	1074.54
473.56	1077.35
473.92	1071.03
474.28	1068.69
474.65	1070.09
475.01	1060.26
475.37	1060.96
475.73	1059.33
476.09	1070.56
476.45	1061.67
476.81	1069.86
477.18	1068.22
477.54	1088.35
477.90	1087.88
478.26	1095.60
478.62	1099.82
478.98	1103.80
479.34	1097.24
479.71	1091.16
480.07	1083.20
480.43	1078.99
480.79	1073.60
481.15	1078.28
481.51	1080.16
481.87	1084.14
482.23	1079.22
482.59	1084.84
482.96	1078.75
483.32	1079.46
483.68	1069.16
484.04	1071.03
484.40	1066.35
484.76	1063.31
485.12	1066.58
485.48	1068.22
485.84	1072.67
486.20	1074.54
486.56	1085.54
486.92	1080.86
487.28	1086.24
487.64	1075.01
488.00	1082.03
488.37	1078.52
488.73	1081.33
489.09	1084.14
489.45	1091.16
489.81	1077.35
490.17	1063.07
490.53	1057.92
490.89	1055.58
491.25	1049.03
491.61	1049.73
491.97	1067.75
492.33	1068.69
492.69	1066.82
493.05	1068.69
493.41	1083.43
493.77	1080.86
494.13	1078.99
494.49	1090.92
494.85	1096.78
495.21	1086.01
495.57	1094.90
495.93	1095.84
496.29	1089.75
496.64	1092.80
497.00	1097.48
497.36	1076.65
497.72	1079.69
498.08	1082.97
498.44	1076.88
498.80	1068.45
499.16	1071.73
499.52	1068.69
499.88	1073.37
500.24	1078.28
500.60	1086.01
500.96	1088.12
501.32	1094.43
501.68	1088.82
502.03	1078.75
502.39	1081.09
502.75	1077.82
503.11	1071.50
503.47	1062.60
503.83	1071.73
504.19	1066.11
504.55	1075.94
504.91	1077.58
505.26	1079.22
505.62	1076.18
505.98	1072.67
506.34	1070.09
506.70	1072.90
507.06	1077.11
507.42	1087.65
507.78	1094.20
508.13	1094.20
508.49	1096.07
508.85	1101.22
509.21	1098.41
509.57	1095.14
509.93	1084.37
510.28	1079.22
510.64	1075.01
511.00	1073.37
511.36	1083.67
511.72	1093.26
512.07	1089.52
512.43	1087.41
512.79	1095.14
513.15	1081.80
513.51	1089.75
513.86	1097.48
514.22	1104.26
514.58	1098.41
514.94	1108.48
515.30	1092.80
515.65	1094.67
516.01	1089.75
516.37	1088.82
516.73	1078.05
517.08	1087.88
517.44	1084.37
517.80	1091.86
518.16	1089.52
518.51	1095.84
518.87	1097.01
519.23	1093.26
519.59	1085.77
519.94	1084.14
520.30	1092.09
520.66	1094.67
521.01	1099.12
521.37	1098.88
521.73	1099.82
522.09	1095.14
522.44	1087.88
522.80	1086.24
523.16	1100.99
523.51	1103.33
523.87	1095.84
524.23	1094.43
524.58	1088.35
524.94	1077.58
525.30	1073.60
525.65	1077.11
526.01	1081.09
526.37	1096.07
526.72	1096.54
527.08	1100.29
527.44	1102.39
527.79	1099.12
528.15	1096.78
528.51	1095.14
528.86	1098.41
529.22	1092.80
529.58	1093.73
529.93	1088.82
530.29	1091.16
530.65	1089.99
531.00	1092.09
531.36	1091.86
531.71	1093.26
532.07	1090.22
532.43	1093.50
532.78	1100.75
533.14	1098.88
533.49	1100.52
533.85	1089.52
534.21	1083.90
534.56	1080.16
534.92	1085.77
535.27	1082.03
535.63	1088.58
535.98	1085.77
536.34	1088.35
536.69	1086.01
537.05	1101.69
537.41	1099.12
537.76	1097.71
538.12	1087.41
538.47	1085.77
538.83	1071.97
539.18	1069.39
539.54	1076.88
539.89	1089.99
540.25	1093.73
540.60	1098.18
540.96	1099.58
541.31	1094.67
541.67	1084.84
542.02	1081.33
542.38	1088.12
542.73	1101.22
543.09	1106.84
543.44	1113.39
543.80	1112.46
544.15	1106.14
544.51	1103.09
544.86	1096.07
545.22	1089.52
545.57	1090.46
545.93	1081.09
546.28	1077.35
546.64	1078.75
546.99	1077.82
547.35	1083.67
547.70	1091.39
548.05	1088.58
548.41	1086.71
548.76	1096.07
549.12	1099.35
549.47	1094.20
549.83	1088.82
550.18	1092.09
550.53	1080.16
550.89	1070.56
551.24	1071.73
551.60	1077.58
551.95	1076.41
552.30	1079.46
552.66	1071.73
553.01	1073.37
553.37	1065.88
553.72	1071.03
554.07	1075.01
554.43	1091.39
554.78	1097.01
555.13	1106.14
555.49	1105.20
555.84	1101.46
556.19	1104.97
556.55	1093.26
556.90	1099.12
557.26	1097.24
557.61	1095.37
557.96	1080.63
558.32	1084.14
558.67	1072.43
559.02	1069.16
559.37	1078.52
559.73	1085.31
560.08	1081.80
560.43	1083.43
560.79	1083.43
561.14	1071.26
561.49	1074.54
561.85	1070.80
562.20	1072.67
562.55	1069.16
562.90	1069.39
563.26	1065.65
563.61	1070.33
563.96	1069.62
564.32	1074.31
564.67	1083.43
565.02	1084.37
565.37	1085.54
565.73	1089.29
566.08	1089.75
566.43	1078.28
566.78	1078.05
567.14	1086.94
567.49	1085.54
567.84	1078.28
568.19	1087.65
568.54	1084.37
568.90	1073.37
569.25	1066.35
569.60	1073.14
569.95	1075.01
570.31	1062.37
570.66	1072.43
571.01	1082.03
571.36	1076.65
571.71	1071.97
572.06	1084.14
572.42	1073.37
572.77	1075.94
573.12	1079.69
573.47	1081.80
573.82	1080.63
574.18	1079.46
574.53	1069.86
574.88	1069.86
575.23	1067.05
575.58	1067.52
575.93	1075.24
576.28	1075.94
576.64	1077.11
576.99	1076.65
577.34	1079.92
577.69	1079.46
578.04	1078.52
578.39	1066.82
578.74	1075.48
579.09	1076.88
579.44	1072.43
579.80	1082.97
580.15	1094.90
580.50	1090.22
580.85	1089.52
581.20	1093.73
581.55	1089.99
581.90	1086.24
582.25	1092.80
582.60	1082.03
582.95	1088.82
583.30	1080.63
583.65	1087.65
584.00	1069.16
584.35	1082.50
584.71	1067.75
585.06	1068.69
585.41	1073.37
585.76	1083.67
586.11	1068.69
586.46	1072.67
586.81	1076.41
587.16	1058.62
587.51	1059.79
587.86	1067.75
588.21	1078.05
588.56	1081.33
588.91	1090.22
589.26	1087.41
589.61	1094.43
589.96	1090.46
590.31	1085.54
590.66	1076.65
591.01	1082.97
591.36	1069.62
591.71	1067.28
592.06	1069.86
592.41	1070.09
592.76	1069.62
593.10	1067.52
593.45	1059.56
593.80	1055.58
594.15	1069.62
594.50	1064.71
594.85	1077.11
595.20	1086.48
595.55	1098.88
595.90	1099.12
596.25	1102.16
596.60	1107.07
596.95	1100.29
597.30	1091.63
597.64	1140.07
597.99	1147.33
598.34	1138.44
598.69	1137.03
599.04	1129.07
599.39	1074.31
599.74	1067.75
600.09	1068.69
600.44	1082.03
600.78	1089.52
601.13	1092.09
601.48	1088.82
601.83	1086.01
602.18	1070.80
602.53	1069.39
602.88	1064.01
603.22	1065.88
603.57	1068.22
603.92	1074.77
604.27	1079.69
604.62	1084.60
604.97	1091.16
605.31	1089.52
605.66	1093.03
606.01	1099.12
606.36	1085.77
606.71	1079.22
607.05	1078.99
607.40	1078.99
607.75	1076.41
608.10	1084.37
608.44	1085.07
608.79	1096.31
609.14	1093.50
609.49	1086.94
609.84	1092.80
610.18	1091.86
610.53	1081.56
610.88	1076.88
611.23	1084.37
611.57	1086.24
611.92	1086.71
612.27	1090.69
612.62	1092.09
612.96	1091.86
613.31	1094.90
613.66	1100.29
614.00	1095.60
614.35	1101.46
614.70	1100.29
615.05	1089.05
615.39	1080.39
615.74	1079.22
616.09	1079.46
616.43	1071.73
616.78	1072.20
617.13	1077.58
617.47	1077.11
617.82	1071.97
618.17	1078.52
618.51	1081.09
618.86	1080.16
619.21	1086.94
619.55	1093.26
619.90	1098.88
620.25	1105.44
620.59	1104.73
620.94	1101.69
621.29	1101.22
621.63	1097.48
621.98	1094.90
622.32	1094.67
622.67	1097.71
623.02	1088.58
623.36	1075.24
623.71	1065.41
624.05	1061.67
624.40	1057.69
624.75	1053.94
625.09	1073.60
625.44	1082.97
625.78	1095.84
626.13	1102.86
626.48	1104.26
626.82	1093.26
627.17	1089.05
627.51	1074.31
627.86	1071.73
628.20	1071.26
628.55	1066.82
628.89	1069.16
629.24	1080.16
629.58	1078.75
629.93	1087.65
630.28	1091.86
630.62	1090.22
630.97	1085.54
631.31	1082.26
631.66	1093.73
632.00	1091.16
632.35	1089.29
632.69	1088.82
633.04	1085.54
633.38	1074.07
633.73	1068.45
634.07	1078.52
634.42	1074.31
634.76	1071.26
635.11	1067.05
635.45	1070.80
635.79	1064.01
636.14	1073.84
636.48	1086.71
636.83	1088.58
637.17	1097.95
637.52	1104.73
637.86	1109.41
638.21	1112.22
638.55	1115.50
638.89	1118.54
639.24	1111.29
639.58	1101.69
639.93	1095.60
640.27	1085.07
640.61	1082.26
640.96	1076.65
641.30	1076.88
641.65	1076.65
641.99	1073.37
642.33	1071.03
642.68	1082.03
643.02	1075.24
643.37	1070.80
643.71	1091.86
644.05	1086.94
644.40	1084.84
644.74	1083.90
645.08	1087.18
645.43	1085.31
645.77	1089.99
646.11	1086.01
646.46	1102.16
646.80	1093.73
647.14	1088.35
647.49	1082.26
647.83	1093.26
648.17	1085.54
648.52	1081.33
648.86	1073.60
649.20	1075.94
649.55	1071.73
649.89	1077.35
650.23	1077.82
650.57	1081.56
650.92	1084.37
651.26	1077.82
651.60	1075.24
651.95	1085.54
652.29	1079.92
652.63	1081.09
652.97	1077.82
653.32	1079.46
653.66	1081.80
654.00	1093.26
654.34	1089.75
654.69	1098.65
655.03	1089.29
655.37	1088.58
655.71	1082.97
656.05	1078.28
656.40	1078.05
656.74	1080.63
657.08	1081.09
657.42	1087.41
657.76	1088.58
658.11	1078.75
658.45	1072.43
658.79	1067.75
659.13	1060.26
659.47	1064.01
659.82	1077.11
660.16	1086.71
660.50	1093.26
660.84	1095.14
661.18	1104.97
661.52	1090.46
661.87	1085.77
662.21	1075.01
662.55	1084.84
662.89	1072.43
663.23	1086.48
663.57	1086.01
663.91	1095.14
664.25	1090.92
664.60	1092.33
664.94	1089.29
665.28	1098.88
665.62	1096.07
665.96	1098.65
666.30	1105.20
666.64	1100.29
666.98	1091.86
667.32	1094.43
667.66	1092.80
668.01	1086.01
668.35	1093.73
668.69	1089.75
669.03	1091.63
669.37	1089.52
669.71	1090.22
670.05	1075.01
670.39	1078.05
670.73	1071.73
671.07	1065.18
671.41	1075.71
671.75	1082.50
672.09	1082.97
672.43	1083.90
672.77	1094.90
673.11	1082.26
673.45	1082.50
673.79	1072.43
674.13	1074.54
674.47	1069.62
674.81	1068.69
675.15	1072.67
675.49	1079.46
675.83	1082.50
676.17	1080.16
676.51	1078.05
676.85	1067.05
677.19	1071.26
677.53	1067.75
677.87	1071.26
678.21	1071.03
678.55	1078.05
678.89	1072.67
679.23	1081.33
679.57	1076.65
679.90	1083.20
680.24	1086.48
680.58	1095.84
680.92	1092.56
681.26	1096.54
681.60	1090.92
681.94	1088.82
682.28	1081.33
682.62	1076.65
682.96	1071.50
683.29	1071.26
683.63	1070.56
683.97	1075.24
684.31	1073.60
684.65	1069.16
684.99	1068.45
685.33	1069.16
685.67	1066.11
686.00	1063.31
686.34	1071.97
686.68	1067.28
687.02	1062.37
687.36	1061.67
687.70	1073.84
688.03	1079.22
688.37	1089.99
688.71	1096.78
689.05	1099.58
689.39	1086.01
689.72	1072.67
690.06	1071.73
690.40	1059.33
690.74	1060.96
691.08	1072.90
691.41	1076.65
691.75	1079.22
692.09	1092.56
692.43	1092.09
692.76	1082.26
693.10	1084.60
693.44	1084.60
693.78	1073.60
694.11	1075.94
694.45	1078.28
694.79	1082.26
695.13	1087.18
695.46	1103.09
695.80	1100.99
696.14	1091.39
696.48	1095.37
696.81	1077.82
697.15	1065.65
697.49	1054.41
697.82	1060.50
698.16	1057.69
698.50	1075.71
698.83	1078.99
699.17	1093.26
699.51	1096.78
699.84	1091.86
700.18	1082.50
700.52	1085.54
700.85	1072.67
701.19	1078.52
701.53	1080.39
701.86	1076.65
702.20	1075.94
702.54	1085.54
702.87	1077.35
703.21	1077.82
703.55	1085.31
703.88	1082.97
704.22	1082.50
704.55	1087.18
704.89	1073.60
705.23	1069.39
705.56	1070.09
705.90	1079.92
706.23	1091.86
706.57	1089.52
706.91	1092.09
707.24	1091.63
707.58	1073.14
707.91	1060.73
708.25	1068.22
708.58	1066.11
708.92	1059.56
709.26	1064.71
709.59	1063.31
709.93	1065.41
710.26	1065.18
710.60	1069.16
710.93	1072.67
711.27	1070.33
711.60	1074.31
711.94	1074.31
712.27	1086.01
712.61	1082.03
712.94	1085.54
713.28	1089.52
713.61	1090.46
713.95	1077.58
714.28	1088.58
714.62	1082.26
714.95	1079.46
715.29	1069.86
715.62	1087.41
715.96	1068.69
716.29	1078.05
716.63	1073.37
716.96	1084.60
717.29	1076.18
717.63	1082.50
717.96	1075.71
718.30	1081.56
718.63	1085.31
718.97	1084.37
719.30	1085.07
719.63	1088.58
719.97	1086.48
720.30	1083.43
720.64	1076.65
720.97	1082.26
721.30	1082.50
721.64	1072.43
721.97	1075.24
722.31	1079.92
722.64	1076.65
722.97	1082.73
723.31	1092.09
723.64	1099.58
723.97	1095.84
724.31	1093.73
724.64	1082.03
724.98	1085.54
725.31	1082.03
725.64	1085.31
725.98	1092.33
726.31	1095.84
726.64	1089.99
726.97	1077.58
727.31	1072.67
727.64	1066.58
727.97	1052.30
728.31	1057.22
728.64	1062.14
728.97	1059.09
729.31	1064.94
729.64	1075.48
729.97	1069.39
730.30	1062.60
730.64	1071.73
730.97	1061.67
731.30	1074.54
731.63	1066.58
731.97	1070.09
732.30	1067.75
732.63	1076.41
732.96	1067.75
733.30	1068.69
733.63	1070.56
733.96	1073.84
734.29	1067.52
734.63	1071.26
734.96	1081.09
735.29	1076.41
735.62	1074.07
735.95	1082.97
736.29	1088.35
736.62	1098.41
736.95	1108.48
737.28	1106.84
737.61	1108.24
737.94	1103.09
738.28	1094.67
738.61	1088.58
738.94	1082.03
739.27	1078.28
739.60	1069.86
739.93	1076.41
740.27	1071.50
740.60	1072.90
740.93	1068.69
741.26	1079.22
741.59	1068.45
741.92	1067.99
742.25	1074.77
742.58	1084.37
742.91	1085.31
743.25	1090.69
743.58	1092.09
743.91	1087.88
744.24	1086.01
744.57	1080.39
744.90	1082.73
745.23	1085.07
745.56	1090.22
745.89	1086.94
746.22	1090.22
746.55	1083.20
746.88	1086.71
747.21	1080.16
747.54	1082.03
747.87	1084.84
748.20	1093.03
748.53	1094.20
748.87	1085.54
749.20	1091.16
749.53	1090.69
749.86	1076.18
750.19	1075.24
750.52	1079.22
750.85	1072.43
751.18	1061.43
751.51	1066.82
751.84	1067.99
752.16	1075.94
752.49	1067.99
752.82	1076.41
753.15	1073.60
753.48	1077.35
753.81	1081.09
754.14	1078.28
754.47	1078.28
754.80	1082.73
755.13	1074.07
755.46	1074.07
755.79	1083.20
756.12	1082.73
756.45	1089.99
756.78	1100.75
757.11	1101.46
757.43	1096.78
757.76	1098.88
758.09	1089.52
758.42	1085.07
758.75	1082.03
759.08	1083.67
759.41	1072.43
759.74	1078.52
760.07	1076.65
760.39	1082.50
760.72	1090.22
761.05	1096.78
761.38	1090.46
761.71	1098.88
762.04	1093.50
762.36	1084.37
762.69	1083.43
763.02	1086.48
763.35	1075.71
763.68	1083.90
764.01	1103.09
764.33	1107.78
764.66	1104.73
764.99	1108.01
765.32	1098.18
765.65	1089.75
765.97	1089.99
766.30	1100.29
