SpectraSuite Data File
++++++++++++++++++++++++++++++++++++
Date: Mon Aug 26 10:25:54 PDT 2019
User: corrico
Dark Spectrum Present: No
Reference Spectrum Present: No
Number of Sampled Component Spectra: 1
Spectrometers: USB2+H06089
Integration Time (usec): 10000 (USB2+H06089)
Spectra Averaged: 2 (USB2+H06089)
Boxcar Smoothing: 2 (USB2+H06089)
Correct for Electrical Dark: No (USB2+H06089)
Strobe/Lamp Enabled: No (USB2+H06089)
Correct for Detector Non-linearity: No (USB2+H06089)
Correct for Stray Light: No (USB2+H06089)
Number of Pixels in Processed Spectrum: 2048
>>>>>Begin Processed Spectral Data<<<<<
339.70	1035.69
340.07	1035.69
340.45	1005.96
340.82	979.75
341.19	952.36
341.57	934.58
341.94	915.38
342.31	902.51
342.69	895.49
343.06	885.19
343.43	873.49
343.81	876.06
344.18	880.74
344.55	888.23
344.93	902.74
345.30	912.11
345.67	922.17
346.04	927.79
346.42	933.41
346.79	946.28
347.16	957.75
347.54	963.83
347.91	979.05
348.28	990.51
348.65	997.77
349.03	1002.92
349.40	1026.79
349.77	1022.81
350.14	1024.45
350.52	1030.07
350.89	1035.92
351.26	1030.07
351.63	1039.67
352.01	1062.60
352.38	1070.80
352.75	1068.45
353.12	1071.73
353.50	1067.28
353.87	1051.13
354.24	1052.54
354.61	1059.79
354.98	1056.28
355.36	1073.60
355.73	1074.77
356.10	1066.35
356.47	1076.18
356.84	1090.69
357.22	1092.56
357.59	1095.37
357.96	1104.73
358.33	1102.16
358.70	1092.33
359.08	1079.69
359.45	1086.71
359.82	1078.28
360.19	1067.28
360.56	1070.56
360.94	1072.20
361.31	1083.43
361.68	1076.41
362.05	1084.14
362.42	1076.65
362.79	1073.60
363.16	1057.92
363.54	1064.24
363.91	1058.62
364.28	1064.94
364.65	1060.73
365.02	1069.62
365.39	1077.35
365.76	1074.31
366.14	1067.52
366.51	1074.77
366.88	1069.39
367.25	1054.65
367.62	1070.80
367.99	1077.35
368.36	1067.05
368.73	1069.16
369.10	1077.11
369.48	1061.90
369.85	1061.20
370.22	1063.54
370.59	1058.39
370.96	1066.82
371.33	1078.75
371.70	1071.50
372.07	1071.26
372.44	1066.82
372.81	1062.60
373.18	1059.09
373.55	1062.84
373.93	1072.90
374.30	1070.09
374.67	1064.71
375.04	1063.77
375.41	1065.88
375.78	1065.88
376.15	1077.35
376.52	1090.92
376.89	1082.50
377.26	1078.52
377.63	1078.05
378.00	1077.58
378.37	1066.82
378.74	1067.28
379.11	1062.14
379.48	1064.24
379.85	1054.65
380.22	1062.84
380.59	1070.56
380.96	1077.58
381.33	1068.22
381.70	1077.82
382.07	1067.75
382.44	1060.03
382.81	1064.48
383.18	1067.52
383.55	1062.14
383.92	1063.31
384.29	1082.03
384.66	1085.77
385.03	1087.18
385.40	1086.24
385.77	1082.97
386.14	1067.05
386.51	1057.69
386.88	1061.20
387.25	1059.09
387.62	1061.67
387.99	1076.18
388.36	1085.31
388.73	1079.69
389.10	1083.90
389.46	1077.35
389.83	1068.45
390.20	1069.39
390.57	1063.77
390.94	1065.41
391.31	1064.71
391.68	1059.33
392.05	1055.82
392.42	1061.90
392.79	1073.37
393.16	1084.60
393.53	1086.71
393.89	1077.35
394.26	1073.84
394.63	1057.22
395.00	1054.65
395.37	1053.01
395.74	1064.24
396.11	1070.33
396.48	1077.35
396.84	1075.94
397.21	1074.07
397.58	1067.05
397.95	1067.28
398.32	1061.90
398.69	1065.41
399.06	1071.26
399.42	1067.28
399.79	1063.31
400.16	1068.69
400.53	1066.82
400.90	1067.28
401.27	1076.41
401.64	1085.77
402.00	1075.01
402.37	1071.03
402.74	1063.54
403.11	1053.71
403.48	1048.79
403.84	1054.88
404.21	1060.73
404.58	1061.20
404.95	1063.54
405.32	1061.43
405.68	1061.90
406.05	1066.35
406.42	1076.65
406.79	1077.35
407.16	1086.24
407.52	1089.99
407.89	1088.58
408.26	1090.22
408.63	1088.58
408.99	1079.69
409.36	1074.31
409.73	1072.43
410.10	1064.48
410.47	1071.73
410.83	1076.65
411.20	1085.77
411.57	1082.73
411.94	1083.20
412.30	1086.71
412.67	1081.09
413.04	1074.54
413.40	1072.43
413.77	1067.52
414.14	1061.67
414.51	1062.84
414.87	1063.77
415.24	1069.16
415.61	1067.05
415.97	1067.75
416.34	1069.16
416.71	1073.37
417.08	1069.62
417.44	1086.48
417.81	1087.88
418.18	1090.69
418.54	1084.84
418.91	1091.63
419.28	1078.28
419.64	1085.31
420.01	1081.09
420.38	1081.09
420.74	1073.84
421.11	1080.39
421.48	1068.22
421.84	1072.90
422.21	1073.60
422.58	1067.05
422.94	1059.79
423.31	1057.92
423.68	1049.26
424.04	1053.24
424.41	1066.82
424.77	1076.88
425.14	1072.43
425.51	1072.90
425.87	1056.28
426.24	1053.71
426.61	1055.58
426.97	1062.14
427.34	1069.86
427.70	1074.31
428.07	1068.45
428.44	1060.26
428.80	1067.28
429.17	1055.11
429.53	1067.28
429.90	1072.90
430.27	1074.54
430.63	1064.94
431.00	1080.39
431.36	1071.97
431.73	1072.20
432.09	1069.39
432.46	1082.50
432.83	1079.22
433.19	1085.77
433.56	1093.97
433.92	1104.73
434.29	1103.09
434.65	1100.99
435.02	1092.33
435.38	1082.97
435.75	1073.60
436.11	1080.63
436.48	1087.65
436.84	1098.41
437.21	1105.67
437.57	1108.71
437.94	1088.58
438.30	1085.31
438.67	1088.35
439.03	1084.84
439.40	1078.52
439.76	1086.48
440.13	1083.43
440.49	1070.80
440.86	1059.56
441.22	1060.03
441.59	1059.33
441.95	1042.71
442.32	1053.01
442.68	1056.99
443.05	1057.69
443.41	1059.09
443.78	1068.92
444.14	1051.60
444.51	1051.37
444.87	1051.60
445.24	1050.43
445.60	1062.84
445.96	1073.37
446.33	1075.01
446.69	1075.48
447.06	1080.39
447.42	1075.48
447.79	1075.94
448.15	1078.99
448.51	1082.73
448.88	1078.05
449.24	1072.20
449.61	1077.11
449.97	1086.94
450.33	1089.52
450.70	1095.14
451.06	1100.29
451.43	1098.65
451.79	1085.31
452.15	1074.77
452.52	1064.71
452.88	1066.11
453.24	1069.62
453.61	1066.82
453.97	1072.67
454.34	1082.03
454.70	1087.18
455.06	1084.84
455.43	1091.39
455.79	1092.80
456.15	1090.22
456.52	1089.05
456.88	1085.31
457.24	1086.71
457.61	1085.07
457.97	1080.86
458.33	1080.16
458.70	1078.52
459.06	1075.48
459.42	1071.73
459.79	1079.92
460.15	1071.03
460.51	1075.01
460.88	1076.88
461.24	1075.48
461.60	1078.52
461.96	1088.12
462.33	1088.82
462.69	1088.58
463.05	1095.84
463.42	1076.41
463.78	1076.18
464.14	1077.11
464.50	1082.73
464.87	1086.24
465.23	1087.65
465.59	1081.80
465.95	1083.67
466.32	1072.43
466.68	1063.77
467.04	1070.80
467.40	1064.71
467.77	1062.60
468.13	1069.39
468.49	1083.20
468.85	1083.67
469.22	1088.58
469.58	1084.60
469.94	1089.52
470.30	1074.07
470.66	1075.48
471.03	1078.28
471.39	1082.97
471.75	1078.52
472.11	1086.01
472.47	1075.24
472.84	1076.88
473.20	1076.41
473.56	1076.65
473.92	1072.43
474.28	1082.73
474.65	1078.75
475.01	1083.43
475.37	1078.52
475.73	1077.11
476.09	1070.80
476.45	1069.16
476.81	1060.26
477.18	1057.69
477.54	1064.24
477.90	1069.39
478.26	1068.69
478.62	1073.84
478.98	1074.54
479.34	1084.60
479.71	1081.33
480.07	1085.07
480.43	1086.71
480.79	1087.65
481.15	1074.54
481.51	1075.71
481.87	1078.52
482.23	1066.35
482.59	1072.20
482.96	1071.73
483.32	1069.62
483.68	1070.33
484.04	1080.39
484.40	1072.67
484.76	1077.11
485.12	1081.80
485.48	1077.82
485.84	1075.48
486.20	1089.52
486.56	1089.99
486.92	1089.05
487.28	1094.43
487.64	1102.63
488.00	1095.60
488.37	1098.65
488.73	1104.73
489.09	1117.37
489.45	1114.80
489.81	1118.31
490.17	1108.95
490.53	1106.61
490.89	1082.97
491.25	1071.97
491.61	1068.92
491.97	1063.07
492.33	1060.73
492.69	1054.18
493.05	1056.28
493.41	1059.33
493.77	1067.05
494.13	1067.05
494.49	1080.86
494.85	1088.35
495.21	1093.73
495.57	1099.35
495.93	1106.37
496.29	1107.31
496.64	1107.78
497.00	1095.14
497.36	1086.71
497.72	1084.14
498.08	1086.71
498.44	1075.71
498.80	1078.52
499.16	1077.58
499.52	1076.18
499.88	1064.71
500.24	1071.26
500.60	1070.80
500.96	1076.65
501.32	1078.52
501.68	1089.75
502.03	1086.01
502.39	1086.94
502.75	1086.01
503.11	1078.28
503.47	1071.26
503.83	1073.60
504.19	1073.60
504.55	1070.09
504.91	1079.22
505.26	1083.67
505.62	1092.80
505.98	1084.37
506.34	1090.46
506.70	1090.46
507.06	1088.82
507.42	1086.71
507.78	1096.54
508.13	1103.80
508.49	1104.50
508.85	1113.39
509.21	1104.03
509.57	1098.88
509.93	1092.09
510.28	1087.88
510.64	1079.46
511.00	1082.50
511.36	1082.73
511.72	1072.67
512.07	1086.01
512.43	1089.52
512.79	1095.84
513.15	1107.07
513.51	1114.33
513.86	1087.65
514.22	1078.75
514.58	1077.58
514.94	1080.16
515.30	1080.86
515.65	1093.97
516.01	1101.22
516.37	1104.03
516.73	1093.26
517.08	1082.73
517.44	1099.35
517.80	1097.71
518.16	1101.22
518.51	1097.24
518.87	1102.86
519.23	1089.75
519.59	1085.54
519.94	1083.43
520.30	1089.52
520.66	1091.86
521.01	1091.63
521.37	1093.97
521.73	1089.99
522.09	1089.29
522.44	1096.31
522.80	1097.95
523.16	1100.29
523.51	1090.69
523.87	1086.48
524.23	1073.60
524.58	1071.50
524.94	1078.28
525.30	1081.80
525.65	1082.50
526.01	1087.41
526.37	1082.97
526.72	1082.73
527.08	1078.05
527.44	1074.07
527.79	1068.69
528.15	1071.97
528.51	1075.71
528.86	1084.84
529.22	1089.99
529.58	1104.73
529.93	1107.07
530.29	1096.54
530.65	1094.67
531.00	1089.75
531.36	1085.54
531.71	1085.07
532.07	1090.22
532.43	1093.03
532.78	1088.35
533.14	1086.94
533.49	1089.05
533.85	1085.54
534.21	1092.80
534.56	1109.18
534.92	1105.20
535.27	1104.03
535.63	1109.65
535.98	1102.16
536.34	1097.01
536.69	1096.31
537.05	1083.67
537.41	1074.07
537.76	1068.92
538.12	1073.84
538.47	1085.77
538.83	1092.56
539.18	1101.92
539.54	1115.03
539.89	1110.35
540.25	1110.12
540.60	1119.48
540.96	1112.69
541.31	1097.01
541.67	1104.50
542.02	1105.90
542.38	1093.26
542.73	1094.67
543.09	1103.33
543.44	1092.09
543.80	1074.54
544.15	1083.67
544.51	1081.33
544.86	1085.54
545.22	1082.97
545.57	1094.20
545.93	1089.29
546.28	1086.48
546.64	1086.71
546.99	1089.75
547.35	1091.16
547.70	1100.05
548.05	1096.31
548.41	1089.05
548.76	1092.56
549.12	1075.94
549.47	1068.92
549.83	1076.65
550.18	1071.73
550.53	1062.14
550.89	1075.48
551.24	1075.48
551.60	1075.24
551.95	1083.90
552.30	1091.16
552.66	1094.43
553.01	1094.20
553.37	1098.18
553.72	1089.99
554.07	1098.18
554.43	1101.46
554.78	1098.88
555.13	1103.80
555.49	1104.73
555.84	1102.86
556.19	1086.01
556.55	1088.12
556.90	1077.11
557.26	1075.48
557.61	1067.75
557.96	1075.01
558.32	1076.18
558.67	1075.94
559.02	1081.09
559.37	1074.31
559.73	1076.65
560.08	1074.07
560.43	1076.18
560.79	1077.82
561.14	1076.65
561.49	1077.11
561.85	1071.26
562.20	1073.60
562.55	1069.16
562.90	1072.67
563.26	1071.03
563.61	1077.82
563.96	1080.39
564.32	1070.33
564.67	1073.14
565.02	1077.11
565.37	1069.39
565.73	1059.79
566.08	1067.05
566.43	1071.73
566.78	1070.33
567.14	1075.71
567.49	1085.77
567.84	1085.07
568.19	1084.84
568.54	1083.67
568.90	1087.88
569.25	1076.65
569.60	1080.86
569.95	1074.77
570.31	1077.35
570.66	1077.82
571.01	1087.65
571.36	1082.03
571.71	1087.65
572.06	1079.69
572.42	1071.73
572.77	1066.58
573.12	1074.31
573.47	1081.80
573.82	1082.50
574.18	1091.39
574.53	1094.43
574.88	1094.90
575.23	1087.18
575.58	1097.48
575.93	1094.90
576.28	1086.24
576.64	1086.71
576.99	1085.31
577.34	1074.31
577.69	1069.39
578.04	1072.90
578.39	1068.22
578.74	1072.90
579.09	1079.22
579.44	1075.48
579.80	1076.41
580.15	1077.58
580.50	1071.73
580.85	1065.65
581.20	1069.39
581.55	1066.82
581.90	1071.50
582.25	1068.45
582.60	1068.45
582.95	1064.71
583.30	1068.45
583.65	1063.31
584.00	1060.96
584.35	1063.31
584.71	1072.90
585.06	1069.39
585.41	1068.69
585.76	1074.31
586.11	1073.60
586.46	1071.97
586.81	1070.09
587.16	1067.52
587.51	1066.11
587.86	1064.71
588.21	1054.41
588.56	1060.03
588.91	1071.73
589.26	1076.41
589.61	1079.92
589.96	1082.73
590.31	1088.12
590.66	1079.22
591.01	1083.43
591.36	1082.26
591.71	1092.33
592.06	1090.92
592.41	1094.43
592.76	1091.63
593.10	1090.92
593.45	1097.01
593.80	1102.63
594.15	1099.58
594.50	1087.41
594.85	1092.80
595.20	1078.28
595.55	1068.69
595.90	1073.37
596.25	1077.58
596.60	1072.43
596.95	1071.03
597.30	1072.90
597.64	1120.65
597.99	1126.03
598.34	1131.18
598.69	1133.99
599.04	1132.12
599.39	1090.92
599.74	1086.24
600.09	1085.77
600.44	1092.80
600.78	1096.31
601.13	1076.41
601.48	1079.46
601.83	1081.33
602.18	1073.14
602.53	1073.60
602.88	1088.35
603.22	1085.54
603.57	1086.94
603.92	1088.82
604.27	1072.43
604.62	1067.28
604.97	1067.28
605.31	1061.90
605.66	1071.03
606.01	1083.20
606.36	1083.43
606.71	1078.05
607.05	1073.14
607.40	1064.01
607.75	1067.05
608.10	1067.28
608.44	1070.09
608.79	1068.45
609.14	1064.48
609.49	1068.92
609.84	1080.16
610.18	1085.54
610.53	1097.71
610.88	1102.16
611.23	1099.35
611.57	1086.94
611.92	1097.24
612.27	1089.05
612.62	1085.07
612.96	1079.69
613.31	1082.97
613.66	1070.56
614.00	1082.26
614.35	1089.52
614.70	1086.48
615.05	1086.01
615.39	1087.88
615.74	1075.94
616.09	1080.86
616.43	1085.54
616.78	1080.86
617.13	1093.50
617.47	1088.35
617.82	1089.52
618.17	1086.94
618.51	1083.67
618.86	1067.52
619.21	1058.62
619.55	1047.62
619.90	1053.71
620.25	1058.39
620.59	1056.05
620.94	1065.41
621.29	1064.94
621.63	1067.75
621.98	1075.94
622.32	1086.48
622.67	1091.16
623.02	1098.41
623.36	1088.58
623.71	1091.16
624.05	1085.07
624.40	1087.65
624.75	1082.03
625.09	1084.37
625.44	1084.84
625.78	1089.75
626.13	1087.88
626.48	1088.58
626.82	1089.29
627.17	1082.97
627.51	1072.67
627.86	1075.94
628.20	1078.05
628.55	1075.24
628.89	1064.01
629.24	1070.09
629.58	1071.73
629.93	1076.18
630.28	1079.22
630.62	1080.63
630.97	1083.67
631.31	1079.69
631.66	1076.65
632.00	1083.20
632.35	1094.90
632.69	1092.33
633.04	1090.46
633.38	1094.20
633.73	1089.99
634.07	1087.65
634.42	1086.71
634.76	1090.22
635.11	1081.56
635.45	1072.43
635.79	1071.03
636.14	1083.67
636.48	1079.92
636.83	1089.52
637.17	1098.41
637.52	1110.12
637.86	1104.97
638.21	1108.24
638.55	1102.16
638.89	1099.12
639.24	1088.12
639.58	1083.20
639.93	1089.05
640.27	1086.94
640.61	1093.26
640.96	1096.07
641.30	1095.84
641.65	1087.65
641.99	1090.69
642.33	1078.75
642.68	1083.90
643.02	1086.24
643.37	1085.54
643.71	1084.60
644.05	1095.60
644.40	1084.84
644.74	1078.99
645.08	1085.31
645.43	1092.80
645.77	1088.12
646.11	1086.71
646.46	1088.58
646.80	1090.46
647.14	1085.77
647.49	1094.90
647.83	1095.37
648.17	1103.33
648.52	1095.14
648.86	1090.92
649.20	1083.67
649.55	1088.35
649.89	1075.48
650.23	1071.73
650.57	1069.16
650.92	1069.86
651.26	1072.43
651.60	1073.14
651.95	1079.69
652.29	1076.41
652.63	1070.56
652.97	1073.37
653.32	1086.24
653.66	1090.22
654.00	1090.22
654.34	1096.78
654.69	1080.39
655.03	1073.14
655.37	1070.80
655.71	1076.88
656.05	1062.37
656.40	1068.69
656.74	1072.20
657.08	1071.26
657.42	1073.14
657.76	1076.88
658.11	1077.58
658.45	1082.97
658.79	1078.05
659.13	1078.05
659.47	1087.88
659.82	1087.41
660.16	1071.26
660.50	1070.09
660.84	1067.28
661.18	1063.31
661.52	1068.92
661.87	1074.77
662.21	1078.28
662.55	1079.22
662.89	1075.48
663.23	1078.05
663.57	1080.39
663.91	1086.24
664.25	1094.43
664.60	1097.01
664.94	1086.71
665.28	1091.39
665.62	1086.94
665.96	1083.20
666.30	1099.82
666.64	1106.14
666.98	1099.35
667.32	1102.16
667.66	1092.80
668.01	1074.31
668.35	1067.52
668.69	1063.77
669.03	1063.54
669.37	1064.94
669.71	1062.84
670.05	1069.16
670.39	1066.35
670.73	1072.67
671.07	1074.31
671.41	1084.37
671.75	1088.12
672.09	1096.54
672.43	1090.22
672.77	1103.09
673.11	1102.16
673.45	1092.33
673.79	1084.84
674.13	1075.01
674.47	1068.22
674.81	1064.24
675.15	1071.97
675.49	1082.03
675.83	1090.46
676.17	1088.58
676.51	1089.75
676.85	1088.12
677.19	1083.20
677.53	1075.94
677.87	1067.99
678.21	1067.52
678.55	1062.60
678.89	1077.82
679.23	1082.50
679.57	1081.56
679.90	1082.03
680.24	1091.86
680.58	1076.88
680.92	1079.22
681.26	1077.82
681.60	1075.48
681.94	1060.26
682.28	1061.43
682.62	1060.03
682.96	1075.01
683.29	1073.84
683.63	1077.11
683.97	1086.24
684.31	1087.18
684.65	1081.09
684.99	1081.09
685.33	1078.05
685.67	1074.54
686.00	1071.97
686.34	1072.67
686.68	1069.86
687.02	1082.03
687.36	1078.28
687.70	1083.20
688.03	1080.86
688.37	1085.54
688.71	1072.67
689.05	1066.58
689.39	1061.90
689.72	1070.09
690.06	1079.22
690.40	1092.80
690.74	1097.71
691.08	1097.71
691.41	1098.18
691.75	1093.50
692.09	1097.48
692.43	1100.52
692.76	1104.26
693.10	1091.39
693.44	1081.80
693.78	1079.22
694.11	1067.75
694.45	1070.09
694.79	1078.05
695.13	1090.46
695.46	1086.94
695.80	1097.24
696.14	1095.84
696.48	1093.50
696.81	1095.37
697.15	1089.52
697.49	1085.31
697.82	1076.18
698.16	1078.28
698.50	1080.39
698.83	1092.56
699.17	1086.48
699.51	1093.73
699.84	1092.80
700.18	1088.12
700.52	1078.05
700.85	1085.31
701.19	1082.50
701.53	1081.80
701.86	1080.39
702.20	1076.88
702.54	1081.33
702.87	1083.90
703.21	1089.75
703.55	1081.56
703.88	1089.05
704.22	1092.09
704.55	1090.92
704.89	1084.14
705.23	1088.12
705.56	1088.82
705.90	1083.67
706.23	1086.01
706.57	1087.88
706.91	1090.92
707.24	1086.01
707.58	1080.63
707.91	1076.65
708.25	1087.41
708.58	1088.82
708.92	1094.43
709.26	1103.09
709.59	1110.58
709.93	1100.52
710.26	1097.01
710.60	1093.73
710.93	1088.35
711.27	1083.20
711.60	1083.43
711.94	1083.90
712.27	1094.43
712.61	1092.33
712.94	1093.97
713.28	1092.33
713.61	1085.77
713.95	1075.94
714.28	1077.58
714.62	1079.46
714.95	1076.88
715.29	1085.07
715.62	1086.71
715.96	1089.29
716.29	1082.73
716.63	1077.58
716.96	1075.01
717.29	1070.09
717.63	1064.01
717.96	1071.03
718.30	1080.63
718.63	1078.99
718.97	1079.22
719.30	1088.58
719.63	1077.11
719.97	1074.31
720.30	1076.65
720.64	1075.71
720.97	1073.37
721.30	1073.60
721.64	1075.01
721.97	1075.48
722.31	1070.33
722.64	1070.33
722.97	1077.58
723.31	1078.52
723.64	1068.92
723.97	1072.20
724.31	1074.07
724.64	1076.88
724.98	1068.22
725.31	1072.67
725.64	1087.88
725.98	1089.05
726.31	1085.77
726.64	1091.63
726.97	1100.75
727.31	1087.88
727.64	1082.73
727.97	1076.41
728.31	1075.48
728.64	1076.88
728.97	1077.82
729.31	1075.48
729.64	1088.35
729.97	1089.99
730.30	1088.35
730.64	1086.01
730.97	1086.48
731.30	1071.97
731.63	1066.11
731.97	1062.37
732.30	1069.62
732.63	1074.77
732.96	1077.82
733.30	1084.37
733.63	1089.99
733.96	1084.14
734.29	1072.43
734.63	1066.11
734.96	1066.58
735.29	1065.41
735.62	1066.35
735.95	1071.50
736.29	1075.94
736.62	1081.33
736.95	1075.71
737.28	1071.26
737.61	1066.58
737.94	1073.84
738.28	1073.60
738.61	1062.14
738.94	1074.54
739.27	1071.26
739.60	1070.56
739.93	1069.86
740.27	1077.11
740.60	1066.82
740.93	1080.39
741.26	1093.97
741.59	1084.84
741.92	1091.86
742.25	1098.88
742.58	1089.05
742.91	1068.92
743.25	1071.50
743.58	1072.43
743.91	1048.56
744.24	1060.96
744.57	1065.41
744.90	1072.43
745.23	1073.60
745.56	1097.95
745.89	1089.05
746.22	1090.22
746.55	1073.60
746.88	1059.79
747.21	1053.94
747.54	1051.60
747.87	1055.58
748.20	1072.90
748.53	1081.56
748.87	1083.20
749.20	1074.77
749.53	1065.88
749.86	1070.09
750.19	1070.56
750.52	1070.09
750.85	1079.22
751.18	1083.90
751.51	1078.52
751.84	1081.33
752.16	1079.69
752.49	1091.16
752.82	1084.37
753.15	1077.82
753.48	1074.77
753.81	1080.63
754.14	1070.80
754.47	1081.56
754.80	1093.50
755.13	1099.58
755.46	1099.12
755.79	1100.05
756.12	1101.46
756.45	1087.88
756.78	1080.39
757.11	1070.33
757.43	1077.58
757.76	1072.20
758.09	1079.69
758.42	1079.22
758.75	1084.14
759.08	1078.75
759.41	1075.71
759.74	1073.84
760.07	1073.37
760.39	1069.62
760.72	1068.22
761.05	1079.69
761.38	1073.14
761.71	1085.77
762.04	1094.20
762.36	1092.33
762.69	1081.33
763.02	1086.24
763.35	1079.46
763.68	1077.82
764.01	1079.22
764.33	1076.88
764.66	1076.65
764.99	1070.80
765.32	1068.22
765.65	1068.92
765.97	1067.52
766.30	1058.16
