SpectraSuite Data File
++++++++++++++++++++++++++++++++++++
Date: Mon Aug 26 10:25:51 PDT 2019
User: corrico
Dark Spectrum Present: No
Reference Spectrum Present: No
Number of Sampled Component Spectra: 1
Spectrometers: USB2+H06089
Integration Time (usec): 10000 (USB2+H06089)
Spectra Averaged: 2 (USB2+H06089)
Boxcar Smoothing: 2 (USB2+H06089)
Correct for Electrical Dark: No (USB2+H06089)
Strobe/Lamp Enabled: No (USB2+H06089)
Correct for Detector Non-linearity: No (USB2+H06089)
Correct for Stray Light: No (USB2+H06089)
Number of Pixels in Processed Spectrum: 2048
>>>>>Begin Processed Spectral Data<<<<<
339.70	978.34
340.07	978.34
340.45	962.43
340.82	949.09
341.19	933.64
341.57	925.68
341.94	918.43
342.31	919.13
342.69	912.34
343.06	917.96
343.43	910.23
343.81	903.68
344.18	897.13
344.55	904.38
344.93	895.49
345.30	900.87
345.67	909.77
346.04	917.72
346.42	925.21
346.79	937.62
347.16	948.39
347.54	962.90
347.91	966.17
348.28	972.96
348.65	990.75
349.03	995.90
349.40	1009.00
349.77	1009.47
350.14	1019.30
350.52	1023.28
350.89	1027.73
351.26	1025.15
351.63	1052.07
352.01	1067.28
352.38	1065.18
352.75	1074.54
353.12	1081.80
353.50	1083.20
353.87	1076.88
354.24	1079.92
354.61	1078.75
354.98	1087.88
355.36	1080.63
355.73	1076.41
356.10	1081.09
356.47	1073.60
356.84	1060.26
357.22	1063.77
357.59	1064.01
357.96	1060.73
358.33	1072.90
358.70	1071.50
359.08	1067.75
359.45	1065.88
359.82	1061.90
360.19	1055.58
360.56	1056.75
360.94	1059.56
361.31	1059.79
361.68	1065.65
362.05	1063.54
362.42	1063.54
362.79	1065.18
363.16	1061.20
363.54	1063.07
363.91	1072.90
364.28	1076.65
364.65	1071.03
365.02	1076.65
365.39	1081.09
365.76	1081.56
366.14	1073.37
366.51	1075.71
366.88	1075.24
367.25	1075.24
367.62	1071.97
367.99	1077.58
368.36	1073.60
368.73	1075.48
369.10	1065.41
369.48	1069.86
369.85	1070.09
370.22	1069.86
370.59	1080.86
370.96	1074.77
371.33	1062.84
371.70	1063.31
372.07	1067.99
372.44	1068.22
372.81	1071.03
373.18	1067.05
373.55	1071.50
373.93	1062.37
374.30	1049.26
374.67	1061.67
375.04	1073.84
375.41	1070.09
375.78	1084.37
376.15	1091.39
376.52	1082.73
376.89	1082.26
377.26	1084.60
377.63	1084.14
378.00	1084.37
378.37	1084.14
378.74	1077.82
379.11	1072.20
379.48	1076.65
379.85	1076.41
380.22	1075.48
380.59	1081.56
380.96	1088.12
381.33	1083.20
381.70	1073.60
382.07	1082.03
382.44	1073.60
382.81	1064.48
383.18	1060.96
383.55	1061.20
383.92	1053.94
384.29	1051.37
384.66	1060.50
385.03	1060.96
385.40	1073.14
385.77	1065.18
386.14	1075.01
386.51	1067.52
386.88	1064.48
387.25	1057.92
387.62	1075.24
387.99	1069.39
388.36	1070.80
388.73	1070.33
389.10	1069.62
389.46	1057.92
389.83	1056.99
390.20	1060.50
390.57	1064.24
390.94	1064.24
391.31	1065.88
391.68	1068.92
392.05	1062.84
392.42	1059.09
392.79	1053.94
393.16	1058.86
393.53	1060.96
393.89	1069.16
394.26	1067.75
394.63	1066.82
395.00	1060.26
395.37	1058.39
395.74	1057.92
396.11	1071.97
396.48	1079.69
396.84	1086.01
397.21	1084.14
397.58	1080.63
397.95	1067.75
398.32	1070.80
398.69	1075.71
399.06	1078.05
399.42	1075.01
399.79	1071.03
400.16	1065.18
400.53	1059.79
400.90	1062.84
401.27	1056.75
401.64	1057.92
402.00	1064.01
402.37	1064.24
402.74	1060.50
403.11	1078.75
403.48	1081.56
403.84	1072.90
404.21	1070.80
404.58	1065.65
404.95	1058.62
405.32	1049.96
405.68	1051.84
406.05	1047.16
406.42	1058.16
406.79	1060.50
407.16	1077.58
407.52	1087.41
407.89	1084.84
408.26	1083.20
408.63	1071.50
408.99	1074.54
409.36	1069.62
409.73	1070.09
410.10	1065.88
410.47	1080.86
410.83	1070.09
411.20	1069.39
411.57	1079.46
411.94	1081.33
412.30	1076.88
412.67	1077.35
413.04	1079.69
413.40	1075.94
413.77	1077.35
414.14	1076.41
414.51	1077.82
414.87	1067.99
415.24	1070.80
415.61	1078.52
415.97	1073.37
416.34	1073.14
416.71	1082.03
417.08	1085.07
417.44	1081.33
417.81	1101.69
418.18	1107.78
418.54	1108.24
418.91	1108.01
419.28	1098.65
419.64	1080.39
420.01	1078.52
420.38	1073.60
420.74	1067.75
421.11	1074.77
421.48	1078.75
421.84	1075.71
422.21	1076.18
422.58	1076.88
422.94	1069.62
423.31	1065.65
423.68	1067.05
424.04	1071.73
424.41	1068.92
424.77	1070.80
425.14	1073.14
425.51	1075.48
425.87	1064.94
426.24	1077.11
426.61	1085.31
426.97	1084.84
427.34	1073.84
427.70	1080.16
428.07	1067.99
428.44	1057.22
428.80	1058.86
429.17	1065.41
429.53	1074.31
429.90	1082.03
430.27	1082.97
430.63	1088.58
431.00	1094.90
431.36	1097.95
431.73	1089.29
432.09	1103.33
432.46	1092.33
432.83	1090.22
433.19	1078.75
433.56	1081.56
433.92	1075.48
434.29	1090.22
434.65	1086.01
435.02	1084.84
435.38	1088.12
435.75	1088.58
436.11	1078.52
436.48	1085.07
436.84	1083.67
437.21	1089.99
437.57	1088.58
437.94	1085.54
438.30	1075.48
438.67	1081.33
439.03	1074.07
439.40	1072.43
439.76	1074.31
440.13	1076.65
440.49	1069.86
440.86	1069.62
441.22	1067.28
441.59	1072.43
441.95	1078.75
442.32	1079.69
442.68	1075.48
443.05	1066.11
443.41	1061.67
443.78	1052.07
444.14	1048.79
444.51	1056.05
444.87	1060.26
445.24	1061.20
445.60	1061.20
445.96	1074.54
446.33	1074.54
446.69	1078.52
447.06	1080.16
447.42	1082.50
447.79	1078.05
448.15	1075.24
448.51	1080.39
448.88	1068.45
449.24	1069.86
449.61	1068.69
449.97	1075.71
450.33	1077.11
450.70	1089.99
451.06	1092.33
451.43	1096.54
451.79	1091.63
452.15	1095.60
452.52	1090.46
452.88	1078.99
453.24	1072.90
453.61	1075.71
453.97	1061.90
454.34	1057.92
454.70	1073.60
455.06	1070.33
455.43	1066.82
455.79	1068.92
456.15	1080.39
456.52	1083.43
456.88	1089.05
457.24	1089.75
457.61	1096.78
457.97	1091.63
458.33	1084.37
458.70	1072.67
459.06	1071.26
459.42	1059.56
459.79	1063.07
460.15	1062.84
460.51	1073.60
460.88	1071.97
461.24	1074.31
461.60	1079.69
461.96	1079.92
462.33	1080.63
462.69	1079.69
463.05	1082.03
463.42	1073.37
463.78	1075.94
464.14	1070.09
464.50	1074.07
464.87	1078.52
465.23	1083.43
465.59	1080.63
465.95	1082.50
466.32	1080.16
466.68	1076.88
467.04	1075.01
467.40	1075.24
467.77	1080.86
468.13	1083.90
468.49	1081.56
468.85	1078.99
469.22	1074.77
469.58	1073.14
469.94	1073.60
470.30	1075.71
470.66	1079.92
471.03	1082.26
471.39	1086.94
471.75	1084.14
472.11	1078.99
472.47	1071.50
472.84	1069.39
473.20	1066.82
473.56	1067.05
473.92	1076.41
474.28	1081.33
474.65	1082.97
475.01	1076.18
475.37	1072.43
475.73	1071.50
476.09	1067.75
476.45	1071.97
476.81	1065.41
477.18	1060.03
477.54	1058.62
477.90	1057.92
478.26	1059.56
478.62	1067.99
478.98	1078.05
479.34	1072.20
479.71	1080.39
480.07	1076.41
480.43	1087.18
480.79	1093.50
481.15	1101.69
481.51	1095.37
481.87	1095.14
482.23	1078.52
482.59	1064.48
482.96	1064.94
483.32	1066.82
483.68	1070.33
484.04	1080.86
484.40	1078.52
484.76	1080.86
485.12	1078.99
485.48	1073.37
485.84	1075.01
486.20	1076.88
486.56	1075.71
486.92	1067.52
487.28	1063.07
487.64	1057.69
488.00	1075.01
488.37	1073.14
488.73	1078.05
489.09	1077.82
489.45	1083.43
489.81	1065.41
490.17	1066.82
490.53	1078.52
490.89	1088.35
491.25	1081.56
491.61	1090.92
491.97	1092.56
492.33	1082.03
492.69	1075.01
493.05	1084.37
493.41	1079.69
493.77	1069.39
494.13	1068.92
494.49	1067.99
494.85	1060.26
495.21	1071.97
495.57	1089.05
495.93	1085.54
496.29	1090.22
496.64	1088.35
497.00	1077.58
497.36	1070.80
497.72	1078.99
498.08	1078.99
498.44	1083.43
498.80	1084.14
499.16	1085.77
499.52	1080.39
499.88	1082.26
500.24	1070.09
500.60	1072.67
500.96	1068.22
501.32	1075.71
501.68	1066.11
502.03	1077.82
502.39	1075.01
502.75	1080.39
503.11	1082.03
503.47	1096.07
503.83	1096.78
504.19	1100.05
504.55	1096.31
504.91	1099.58
505.26	1087.65
505.62	1087.88
505.98	1085.07
506.34	1075.71
506.70	1075.01
507.06	1081.56
507.42	1076.65
507.78	1081.09
508.13	1089.05
508.49	1073.84
508.85	1075.71
509.21	1082.26
509.57	1076.41
509.93	1080.39
510.28	1085.07
510.64	1088.12
511.00	1081.09
511.36	1086.48
511.72	1071.26
512.07	1077.35
512.43	1064.71
512.79	1069.16
513.15	1062.60
513.51	1077.58
513.86	1083.90
514.22	1092.56
514.58	1090.46
514.94	1097.71
515.30	1084.14
515.65	1081.33
516.01	1073.37
516.37	1073.60
516.73	1078.05
517.08	1092.33
517.44	1090.92
517.80	1096.54
518.16	1106.61
518.51	1101.69
518.87	1097.95
519.23	1088.82
519.59	1091.63
519.94	1078.28
520.30	1077.35
520.66	1075.94
521.01	1090.92
521.37	1086.71
521.73	1094.43
522.09	1091.16
522.44	1104.26
522.80	1104.97
523.16	1119.01
523.51	1123.69
523.87	1126.73
524.23	1112.46
524.58	1108.24
524.94	1100.75
525.30	1094.43
525.65	1086.01
526.01	1089.52
526.37	1082.73
526.72	1079.69
527.08	1083.67
527.44	1095.60
527.79	1095.84
528.15	1099.82
528.51	1095.84
528.86	1100.05
529.22	1098.41
529.58	1091.86
529.93	1097.48
530.29	1101.46
530.65	1101.46
531.00	1101.69
531.36	1101.92
531.71	1097.48
532.07	1098.88
532.43	1090.92
532.78	1093.73
533.14	1109.88
533.49	1104.73
533.85	1110.12
534.21	1107.54
534.56	1108.95
534.92	1090.92
535.27	1090.22
535.63	1094.90
535.98	1096.54
536.34	1095.14
536.69	1099.35
537.05	1089.52
537.41	1078.05
537.76	1077.58
538.12	1078.99
538.47	1080.63
538.83	1089.75
539.18	1089.99
539.54	1079.92
539.89	1077.35
540.25	1069.39
540.60	1068.45
540.96	1071.50
541.31	1085.07
541.67	1085.07
542.02	1091.16
542.38	1108.48
542.73	1109.88
543.09	1108.71
543.44	1099.12
543.80	1106.37
544.15	1085.07
544.51	1083.90
544.86	1088.82
545.22	1095.60
545.57	1091.39
545.93	1099.35
546.28	1092.09
546.64	1091.39
546.99	1090.92
547.35	1088.35
547.70	1094.20
548.05	1097.01
548.41	1093.73
548.76	1086.48
549.12	1089.52
549.47	1078.99
549.83	1083.90
550.18	1081.56
550.53	1091.39
550.89	1090.22
551.24	1096.78
551.60	1094.20
551.95	1091.16
552.30	1075.48
552.66	1085.54
553.01	1095.60
553.37	1100.05
553.72	1105.20
554.07	1122.52
554.43	1111.52
554.78	1090.46
555.13	1088.58
555.49	1084.60
555.84	1083.20
556.19	1078.05
556.55	1084.14
556.90	1082.97
557.26	1081.33
557.61	1083.67
557.96	1089.75
558.32	1092.33
558.67	1091.16
559.02	1092.80
559.37	1080.63
559.73	1080.39
560.08	1082.73
560.43	1082.03
560.79	1082.26
561.14	1086.48
561.49	1094.20
561.85	1093.97
562.20	1084.84
562.55	1090.69
562.90	1089.05
563.26	1077.82
563.61	1076.65
563.96	1081.80
564.32	1071.50
564.67	1078.05
565.02	1080.63
565.37	1076.18
565.73	1077.82
566.08	1081.33
566.43	1079.92
566.78	1088.82
567.14	1092.80
567.49	1094.20
567.84	1098.88
568.19	1097.95
568.54	1099.35
568.90	1093.50
569.25	1092.56
569.60	1088.82
569.95	1089.29
570.31	1093.50
570.66	1097.24
571.01	1094.67
571.36	1094.20
571.71	1088.58
572.06	1069.86
572.42	1071.97
572.77	1083.43
573.12	1085.54
573.47	1091.86
573.82	1096.07
574.18	1092.56
574.53	1083.67
574.88	1082.73
575.23	1084.60
575.58	1085.77
575.93	1084.37
576.28	1081.09
576.64	1084.60
576.99	1081.09
577.34	1078.28
577.69	1078.75
578.04	1083.67
578.39	1076.65
578.74	1079.92
579.09	1086.71
579.44	1092.56
579.80	1088.35
580.15	1084.37
580.50	1074.31
580.85	1060.03
581.20	1050.43
581.55	1053.48
581.90	1064.24
582.25	1061.20
582.60	1069.86
582.95	1069.62
583.30	1073.60
583.65	1070.09
584.00	1079.22
584.35	1088.58
584.71	1089.05
585.06	1082.97
585.41	1090.69
585.76	1086.24
586.11	1077.82
586.46	1090.92
586.81	1085.54
587.16	1077.35
587.51	1074.77
587.86	1072.20
588.21	1068.22
588.56	1075.24
588.91	1071.97
589.26	1077.82
589.61	1082.73
589.96	1080.63
590.31	1075.24
590.66	1090.46
591.01	1106.37
591.36	1101.46
591.71	1095.84
592.06	1094.20
592.41	1074.54
592.76	1060.50
593.10	1065.41
593.45	1073.37
593.80	1082.50
594.15	1090.46
594.50	1092.56
594.85	1080.16
595.20	1081.56
595.55	1073.37
595.90	1064.71
596.25	1059.09
596.60	1069.62
596.95	1063.31
597.30	1061.43
597.64	1120.18
597.99	1125.33
598.34	1134.46
598.69	1130.95
599.04	1141.71
599.39	1084.84
599.74	1080.39
600.09	1068.69
600.44	1069.86
600.78	1070.09
601.13	1074.07
601.48	1077.11
601.83	1075.24
602.18	1081.56
602.53	1076.88
602.88	1077.82
603.22	1081.56
603.57	1083.43
603.92	1079.92
604.27	1078.28
604.62	1072.90
604.97	1072.43
605.31	1072.20
605.66	1070.33
606.01	1077.35
606.36	1083.90
606.71	1066.82
607.05	1058.62
607.40	1054.41
607.75	1043.41
608.10	1031.94
608.44	1046.45
608.79	1058.86
609.14	1066.58
609.49	1084.37
609.84	1098.18
610.18	1093.97
610.53	1100.99
610.88	1105.67
611.23	1089.75
611.57	1081.33
611.92	1083.67
612.27	1075.01
612.62	1069.16
612.96	1075.48
613.31	1075.01
613.66	1077.11
614.00	1071.97
614.35	1064.71
614.70	1062.14
615.05	1068.45
615.39	1071.50
615.74	1074.77
616.09	1085.31
616.43	1084.60
616.78	1088.82
617.13	1085.07
617.47	1090.69
617.82	1083.20
618.17	1086.94
618.51	1087.18
618.86	1075.94
619.21	1070.33
619.55	1075.71
619.90	1078.05
620.25	1077.35
620.59	1081.56
620.94	1082.73
621.29	1082.50
621.63	1084.84
621.98	1077.58
622.32	1085.77
622.67	1080.86
623.02	1084.60
623.36	1078.52
623.71	1089.29
624.05	1077.58
624.40	1085.31
624.75	1082.50
625.09	1085.54
625.44	1079.46
625.78	1086.48
626.13	1082.03
626.48	1074.77
626.82	1077.58
627.17	1074.31
627.51	1078.28
627.86	1081.33
628.20	1087.65
628.55	1081.33
628.89	1086.71
629.24	1085.77
629.58	1089.75
629.93	1080.63
630.28	1089.52
630.62	1089.99
630.97	1078.52
631.31	1075.01
631.66	1090.22
632.00	1079.46
632.35	1064.94
632.69	1075.94
633.04	1082.73
633.38	1074.07
633.73	1082.97
634.07	1098.65
634.42	1091.39
634.76	1082.97
635.11	1086.24
635.45	1084.60
635.79	1079.92
636.14	1086.24
636.48	1084.84
636.83	1079.46
637.17	1078.75
637.52	1075.24
637.86	1067.75
638.21	1067.05
638.55	1067.05
638.89	1063.54
639.24	1073.60
639.58	1080.86
639.93	1076.65
640.27	1071.73
640.61	1066.58
640.96	1058.62
641.30	1060.26
641.65	1072.43
641.99	1077.58
642.33	1090.46
642.68	1096.54
643.02	1100.05
643.37	1096.78
643.71	1099.82
644.05	1098.18
644.40	1091.16
644.74	1091.39
645.08	1085.77
645.43	1093.73
645.77	1088.35
646.11	1089.99
646.46	1088.82
646.80	1089.75
647.14	1085.54
647.49	1076.88
647.83	1072.67
648.17	1055.58
648.52	1049.73
648.86	1034.98
649.20	1042.94
649.55	1051.37
649.89	1064.71
650.23	1069.86
650.57	1082.26
650.92	1077.35
651.26	1072.43
651.60	1083.67
651.95	1090.22
652.29	1097.71
652.63	1091.63
652.97	1097.01
653.32	1090.22
653.66	1090.46
654.00	1082.73
654.34	1081.56
654.69	1077.35
655.03	1067.75
655.37	1066.35
655.71	1062.14
656.05	1068.22
656.40	1080.39
656.74	1083.43
657.08	1075.48
657.42	1082.03
657.76	1090.46
658.11	1076.88
658.45	1084.60
658.79	1086.71
659.13	1091.16
659.47	1087.65
659.82	1083.20
660.16	1079.92
660.50	1091.39
660.84	1090.22
661.18	1095.14
661.52	1101.46
661.87	1103.80
662.21	1098.88
662.55	1094.20
662.89	1093.26
663.23	1089.29
663.57	1080.39
663.91	1080.86
664.25	1077.58
664.60	1080.86
664.94	1081.56
665.28	1081.09
665.62	1070.56
665.96	1066.82
666.30	1060.26
666.64	1064.94
666.98	1071.97
667.32	1079.69
667.66	1091.86
668.01	1093.03
668.35	1095.37
668.69	1095.14
669.03	1093.26
669.37	1090.69
669.71	1091.63
670.05	1093.26
670.39	1086.01
670.73	1090.22
671.07	1090.22
671.41	1093.03
671.75	1078.52
672.09	1075.24
672.43	1071.26
672.77	1072.20
673.11	1063.31
673.45	1082.97
673.79	1085.07
674.13	1089.29
674.47	1085.31
674.81	1088.12
675.15	1084.60
675.49	1103.09
675.83	1099.82
676.17	1098.41
676.51	1099.58
676.85	1096.07
677.19	1086.01
677.53	1097.24
677.87	1107.07
678.21	1102.86
678.55	1096.54
678.89	1103.33
679.23	1080.39
679.57	1066.11
679.90	1074.07
680.24	1076.18
680.58	1065.18
680.92	1067.05
681.26	1070.80
681.60	1066.58
681.94	1069.16
682.28	1068.45
682.62	1074.77
682.96	1074.31
683.29	1072.20
683.63	1068.22
683.97	1072.90
684.31	1071.03
684.65	1070.33
684.99	1075.71
685.33	1070.56
685.67	1063.77
686.00	1071.97
686.34	1070.80
686.68	1065.65
687.02	1062.37
687.36	1071.26
687.70	1069.39
688.03	1080.86
688.37	1082.97
688.71	1092.80
689.05	1095.14
689.39	1092.09
689.72	1086.94
690.06	1087.88
690.40	1092.09
690.74	1093.50
691.08	1093.73
691.41	1086.01
691.75	1075.48
692.09	1079.69
692.43	1063.07
692.76	1062.60
693.10	1064.24
693.44	1076.88
693.78	1065.88
694.11	1073.60
694.45	1087.65
694.79	1089.52
695.13	1095.14
695.46	1095.84
695.80	1089.29
696.14	1074.07
696.48	1072.67
696.81	1062.14
697.15	1069.62
697.49	1078.05
697.82	1078.99
698.16	1086.24
698.50	1086.94
698.83	1086.71
699.17	1082.26
699.51	1081.56
699.84	1082.50
700.18	1083.20
700.52	1081.33
700.85	1083.90
701.19	1087.65
701.53	1080.39
701.86	1081.33
702.20	1076.65
702.54	1078.52
702.87	1077.35
703.21	1086.24
703.55	1087.88
703.88	1094.90
704.22	1093.50
704.55	1100.99
704.89	1093.50
705.23	1091.16
705.56	1090.92
705.90	1089.29
706.23	1076.18
706.57	1075.24
706.91	1076.88
707.24	1072.90
707.58	1075.01
707.91	1082.97
708.25	1083.20
708.58	1071.73
708.92	1075.48
709.26	1067.99
709.59	1074.31
709.93	1070.56
710.26	1075.01
710.60	1071.97
710.93	1075.24
711.27	1070.80
711.60	1079.92
711.94	1089.52
712.27	1087.65
712.61	1090.22
712.94	1097.95
713.28	1097.71
713.61	1092.80
713.95	1103.33
714.28	1102.16
714.62	1084.84
714.95	1069.62
715.29	1073.84
715.62	1062.60
715.96	1060.26
716.29	1069.62
716.63	1074.31
716.96	1071.97
717.29	1075.01
717.63	1077.11
717.96	1066.35
718.30	1077.58
718.63	1077.58
718.97	1080.39
719.30	1093.03
719.63	1103.33
719.97	1104.26
720.30	1100.52
720.64	1097.01
720.97	1085.07
721.30	1082.50
721.64	1076.18
721.97	1085.54
722.31	1077.82
722.64	1077.58
722.97	1087.18
723.31	1086.71
723.64	1079.22
723.97	1093.73
724.31	1092.56
724.64	1075.24
724.98	1073.84
725.31	1086.01
725.64	1086.24
725.98	1090.22
726.31	1096.07
726.64	1102.39
726.97	1091.16
727.31	1075.24
727.64	1082.73
727.97	1075.01
728.31	1065.65
728.64	1059.33
728.97	1050.20
729.31	1048.56
729.64	1060.73
729.97	1069.39
730.30	1074.77
730.64	1098.41
730.97	1087.65
731.30	1092.56
731.63	1085.07
731.97	1089.29
732.30	1076.88
732.63	1078.05
732.96	1080.39
733.30	1093.73
733.63	1088.82
733.96	1100.29
734.29	1101.69
734.63	1082.26
734.96	1062.37
735.29	1057.92
735.62	1038.96
735.95	1039.90
736.29	1056.52
736.62	1068.45
736.95	1066.82
737.28	1091.39
737.61	1096.07
737.94	1089.29
738.28	1087.65
738.61	1087.18
738.94	1070.09
739.27	1060.26
739.60	1062.84
739.93	1062.14
740.27	1071.73
740.60	1073.37
740.93	1074.54
741.26	1071.03
741.59	1073.84
741.92	1075.71
742.25	1088.12
742.58	1084.84
742.91	1091.86
743.25	1076.18
743.58	1069.39
743.91	1064.01
744.24	1071.73
744.57	1054.88
744.90	1065.18
745.23	1066.11
745.56	1056.75
745.89	1053.71
746.22	1068.69
746.55	1078.28
746.88	1081.56
747.21	1082.97
747.54	1088.35
747.87	1089.52
748.20	1077.58
748.53	1083.90
748.87	1089.05
749.20	1088.35
749.53	1084.37
749.86	1088.12
750.19	1082.50
750.52	1078.28
750.85	1074.31
751.18	1073.37
751.51	1078.05
751.84	1067.99
752.16	1078.75
752.49	1082.03
752.82	1079.22
753.15	1072.90
753.48	1078.28
753.81	1068.22
754.14	1062.37
754.47	1067.99
754.80	1075.71
755.13	1085.07
755.46	1085.77
755.79	1094.90
756.12	1095.37
756.45	1090.92
756.78	1077.58
757.11	1071.50
757.43	1063.54
757.76	1066.82
758.09	1070.80
758.42	1078.52
758.75	1086.48
759.08	1088.12
759.41	1082.73
759.74	1072.43
760.07	1076.18
760.39	1083.20
760.72	1089.52
761.05	1093.97
761.38	1103.80
761.71	1099.58
762.04	1095.14
762.36	1096.31
762.69	1088.82
763.02	1087.18
763.35	1084.60
763.68	1082.97
764.01	1087.41
764.33	1089.29
764.66	1088.12
764.99	1094.20
765.32	1096.54
765.65	1086.71
765.97	1075.01
766.30	1076.88
