SpectraSuite Data File
++++++++++++++++++++++++++++++++++++
Date: Mon Aug 26 10:25:50 PDT 2019
User: corrico
Dark Spectrum Present: No
Reference Spectrum Present: No
Number of Sampled Component Spectra: 1
Spectrometers: USB2+H06089
Integration Time (usec): 10000 (USB2+H06089)
Spectra Averaged: 2 (USB2+H06089)
Boxcar Smoothing: 2 (USB2+H06089)
Correct for Electrical Dark: No (USB2+H06089)
Strobe/Lamp Enabled: No (USB2+H06089)
Correct for Detector Non-linearity: No (USB2+H06089)
Correct for Stray Light: No (USB2+H06089)
Number of Pixels in Processed Spectrum: 2048
>>>>>Begin Processed Spectral Data<<<<<
339.70	1011.11
340.07	1011.11
340.45	995.90
340.82	974.13
341.19	949.56
341.57	917.49
341.94	901.34
342.31	884.72
342.69	872.55
343.06	872.08
343.43	874.89
343.81	872.32
344.18	878.64
344.55	895.49
344.93	901.81
345.30	913.98
345.67	926.15
346.04	940.19
346.42	948.62
346.79	952.83
347.16	961.96
347.54	970.62
347.91	973.19
348.28	973.66
348.65	983.73
349.03	995.43
349.40	999.17
349.77	1009.71
350.14	1025.86
350.52	1038.50
350.89	1043.64
351.26	1056.05
351.63	1047.86
352.01	1050.90
352.38	1049.50
352.75	1049.73
353.12	1043.88
353.50	1052.77
353.87	1052.30
354.24	1056.28
354.61	1065.88
354.98	1072.43
355.36	1069.39
355.73	1076.18
356.10	1075.48
356.47	1075.01
356.84	1075.94
357.22	1083.20
357.59	1074.77
357.96	1075.01
358.33	1069.62
358.70	1065.88
359.08	1070.09
359.45	1073.37
359.82	1076.88
360.19	1079.69
360.56	1082.03
360.94	1073.60
361.31	1071.73
361.68	1068.22
362.05	1066.11
362.42	1081.56
362.79	1080.39
363.16	1073.14
363.54	1076.88
363.91	1078.75
364.28	1062.60
364.65	1059.79
365.02	1064.01
365.39	1056.05
365.76	1048.56
366.14	1050.43
366.51	1052.77
366.88	1072.43
367.25	1085.31
367.62	1092.56
367.99	1095.14
368.36	1101.92
368.73	1084.14
369.10	1070.09
369.48	1064.71
369.85	1055.82
370.22	1050.20
370.59	1060.50
370.96	1066.58
371.33	1062.37
371.70	1059.79
372.07	1061.20
372.44	1046.69
372.81	1051.13
373.18	1052.54
373.55	1058.86
373.93	1050.20
374.30	1060.73
374.67	1052.54
375.04	1058.16
375.41	1062.14
375.78	1073.14
376.15	1068.69
376.52	1071.26
376.89	1068.22
377.26	1067.05
377.63	1068.22
378.00	1069.39
378.37	1075.01
378.74	1076.18
379.11	1075.94
379.48	1078.28
379.85	1082.50
380.22	1085.07
380.59	1084.84
380.96	1085.07
381.33	1080.39
381.70	1068.22
382.07	1068.45
382.44	1071.73
382.81	1078.99
383.18	1080.86
383.55	1085.77
383.92	1081.56
384.29	1076.18
384.66	1063.07
385.03	1060.03
385.40	1066.35
385.77	1060.73
386.14	1059.09
386.51	1063.07
386.88	1068.22
387.25	1068.22
387.62	1072.67
387.99	1079.46
388.36	1081.09
388.73	1081.80
389.10	1083.43
389.46	1091.16
389.83	1086.01
390.20	1087.18
390.57	1074.54
390.94	1076.18
391.31	1064.94
391.68	1067.05
392.05	1058.16
392.42	1063.77
392.79	1054.41
393.16	1063.54
393.53	1053.94
393.89	1066.58
394.26	1070.33
394.63	1072.43
395.00	1061.43
395.37	1071.50
395.74	1061.20
396.11	1058.16
396.48	1062.37
396.84	1066.11
397.21	1062.84
397.58	1067.28
397.95	1060.73
398.32	1053.48
398.69	1054.18
399.06	1069.86
399.42	1070.80
399.79	1083.90
400.16	1085.07
400.53	1086.48
400.90	1072.67
401.27	1074.31
401.64	1071.97
402.00	1075.24
402.37	1075.24
402.74	1076.88
403.11	1079.69
403.48	1075.94
403.84	1081.09
404.21	1085.54
404.58	1081.56
404.95	1077.58
405.32	1081.09
405.68	1082.50
406.05	1082.73
406.42	1084.60
406.79	1077.11
407.16	1072.43
407.52	1063.07
407.89	1056.52
408.26	1056.75
408.63	1070.56
408.99	1082.73
409.36	1094.43
409.73	1098.65
410.10	1102.63
410.47	1094.20
410.83	1086.94
411.20	1072.43
411.57	1060.96
411.94	1057.69
412.30	1055.82
412.67	1049.03
413.04	1057.69
413.40	1065.65
413.77	1062.84
414.14	1064.48
414.51	1078.28
414.87	1066.35
415.24	1066.58
415.61	1062.14
415.97	1067.05
416.34	1052.07
416.71	1060.73
417.08	1057.45
417.44	1066.11
417.81	1066.82
418.18	1071.26
418.54	1063.07
418.91	1065.88
419.28	1066.35
419.64	1060.50
420.01	1075.48
420.38	1081.33
420.74	1085.77
421.11	1089.99
421.48	1094.67
421.84	1088.12
422.21	1089.52
422.58	1088.58
422.94	1084.14
423.31	1075.48
423.68	1064.48
424.04	1062.60
424.41	1053.48
424.77	1058.86
425.14	1068.45
425.51	1076.18
425.87	1080.63
426.24	1089.75
426.61	1086.01
426.97	1084.84
427.34	1079.69
427.70	1083.20
428.07	1075.48
428.44	1069.86
428.80	1059.33
429.17	1064.01
429.53	1057.22
429.90	1065.65
430.27	1069.16
430.63	1074.07
431.00	1075.01
431.36	1070.80
431.73	1082.03
432.09	1086.24
432.46	1095.37
432.83	1091.86
433.19	1095.14
433.56	1083.90
433.92	1077.58
434.29	1080.39
434.65	1083.67
435.02	1092.56
435.38	1096.07
435.75	1101.46
436.11	1096.78
436.48	1090.92
436.84	1075.48
437.21	1071.73
437.57	1073.37
437.94	1068.22
438.30	1072.90
438.67	1087.65
439.03	1090.46
439.40	1075.24
439.76	1070.09
440.13	1074.07
440.49	1073.84
440.86	1073.37
441.22	1085.31
441.59	1097.01
441.95	1092.56
442.32	1086.24
442.68	1086.01
443.05	1083.20
443.41	1082.50
443.78	1082.26
444.14	1086.71
444.51	1087.88
444.87	1092.80
445.24	1092.56
445.60	1091.86
445.96	1090.69
446.33	1085.07
446.69	1072.43
447.06	1066.58
447.42	1059.33
447.79	1066.11
448.15	1065.88
448.51	1073.84
448.88	1074.77
449.24	1077.58
449.61	1065.41
449.97	1070.09
450.33	1065.18
450.70	1062.60
451.06	1075.94
451.43	1078.99
451.79	1069.39
452.15	1088.35
452.52	1086.48
452.88	1084.14
453.24	1089.99
453.61	1095.37
453.97	1080.39
454.34	1088.82
454.70	1080.63
455.06	1079.22
455.43	1078.99
455.79	1084.84
456.15	1077.35
456.52	1068.92
456.88	1062.84
457.24	1056.52
457.61	1046.45
457.97	1055.35
458.33	1066.35
458.70	1069.62
459.06	1082.26
459.42	1093.97
459.79	1091.16
460.15	1098.88
460.51	1100.29
460.88	1095.60
461.24	1098.65
461.60	1092.33
461.96	1089.05
462.33	1081.56
462.69	1074.77
463.05	1064.94
463.42	1080.63
463.78	1079.69
464.14	1078.52
464.50	1088.12
464.87	1087.18
465.23	1076.88
465.59	1079.22
465.95	1081.80
466.32	1076.65
466.68	1080.16
467.04	1086.24
467.40	1076.65
467.77	1085.54
468.13	1086.48
468.49	1088.82
468.85	1078.52
469.22	1087.18
469.58	1083.43
469.94	1081.56
470.30	1088.35
470.66	1094.43
471.03	1092.09
471.39	1079.92
471.75	1082.73
472.11	1077.35
472.47	1074.31
472.84	1072.20
473.20	1079.46
473.56	1075.24
473.92	1070.80
474.28	1071.73
474.65	1065.41
475.01	1065.18
475.37	1067.05
475.73	1058.62
476.09	1054.88
476.45	1057.45
476.81	1064.71
477.18	1066.11
477.54	1074.31
477.90	1081.09
478.26	1087.18
478.62	1082.03
478.98	1081.09
479.34	1084.60
479.71	1081.09
480.07	1084.60
480.43	1092.33
480.79	1089.75
481.15	1086.71
481.51	1084.84
481.87	1078.75
482.23	1071.26
482.59	1068.92
482.96	1065.65
483.32	1064.24
483.68	1070.80
484.04	1072.67
484.40	1071.03
484.76	1069.62
485.12	1071.26
485.48	1057.22
485.84	1055.35
486.20	1065.65
486.56	1078.05
486.92	1085.77
487.28	1093.73
487.64	1093.26
488.00	1090.22
488.37	1087.18
488.73	1077.58
489.09	1075.71
489.45	1075.71
489.81	1085.77
490.17	1078.28
490.53	1081.56
490.89	1080.16
491.25	1081.33
491.61	1076.88
491.97	1081.56
492.33	1082.26
492.69	1083.43
493.05	1084.60
493.41	1076.65
493.77	1061.90
494.13	1053.94
494.49	1052.77
494.85	1051.37
495.21	1054.18
495.57	1071.03
495.93	1078.05
496.29	1075.71
496.64	1083.20
497.00	1078.75
497.36	1078.75
497.72	1072.43
498.08	1081.80
498.44	1076.65
498.80	1082.03
499.16	1078.05
499.52	1087.65
499.88	1078.28
500.24	1062.14
500.60	1066.35
500.96	1063.77
501.32	1054.41
501.68	1074.07
502.03	1097.71
502.39	1087.65
502.75	1082.73
503.11	1091.39
503.47	1079.22
503.83	1069.16
504.19	1071.03
504.55	1083.90
504.91	1079.46
505.26	1082.50
505.62	1079.92
505.98	1086.01
506.34	1076.65
506.70	1079.92
507.06	1075.01
507.42	1077.11
507.78	1078.75
508.13	1091.16
508.49	1088.58
508.85	1084.37
509.21	1089.05
509.57	1082.26
509.93	1073.37
510.28	1085.54
510.64	1085.77
511.00	1090.22
511.36	1099.12
511.72	1099.82
512.07	1088.12
512.43	1089.75
512.79	1093.26
513.15	1090.69
513.51	1087.65
513.86	1089.29
514.22	1088.58
514.58	1072.90
514.94	1067.99
515.30	1074.07
515.65	1068.92
516.01	1065.88
516.37	1084.84
516.73	1093.97
517.08	1096.07
517.44	1103.80
517.80	1104.73
518.16	1095.60
518.51	1087.41
518.87	1079.22
519.23	1075.24
519.59	1090.69
519.94	1093.97
520.30	1089.75
520.66	1097.71
521.01	1099.12
521.37	1091.39
521.73	1085.54
522.09	1095.84
522.44	1096.31
522.80	1086.94
523.16	1088.12
523.51	1087.88
523.87	1078.52
524.23	1074.07
524.58	1082.26
524.94	1083.43
525.30	1089.52
525.65	1086.71
526.01	1085.77
526.37	1096.31
526.72	1076.88
527.08	1066.11
527.44	1070.56
527.79	1069.62
528.15	1060.73
528.51	1079.46
528.86	1085.07
529.22	1088.58
529.58	1096.54
529.93	1099.58
530.29	1099.82
530.65	1106.37
531.00	1103.33
531.36	1092.56
531.71	1096.07
532.07	1097.01
532.43	1090.22
532.78	1096.54
533.14	1107.07
533.49	1095.37
533.85	1090.22
534.21	1081.80
534.56	1074.31
534.92	1065.88
535.27	1070.09
535.63	1071.03
535.98	1078.05
536.34	1077.82
536.69	1077.11
537.05	1078.75
537.41	1073.37
537.76	1063.07
538.12	1062.60
538.47	1067.52
538.83	1067.28
539.18	1076.18
539.54	1087.18
539.89	1088.58
540.25	1091.63
540.60	1093.97
540.96	1089.05
541.31	1087.41
541.67	1095.60
542.02	1086.71
542.38	1095.84
542.73	1100.29
543.09	1100.75
543.44	1094.20
543.80	1109.18
544.15	1093.03
544.51	1088.35
544.86	1093.50
545.22	1094.20
545.57	1084.37
545.93	1090.22
546.28	1088.35
546.64	1083.43
546.99	1085.54
547.35	1077.11
547.70	1075.01
548.05	1082.97
548.41	1085.31
548.76	1082.73
549.12	1090.92
549.47	1086.24
549.83	1090.92
550.18	1092.09
550.53	1100.29
550.89	1112.46
551.24	1128.14
551.60	1119.48
551.95	1120.41
552.30	1112.92
552.66	1108.01
553.01	1093.26
553.37	1096.31
553.72	1101.46
554.07	1106.61
554.43	1098.88
554.78	1095.84
555.13	1085.54
555.49	1073.14
555.84	1069.62
556.19	1061.90
556.55	1071.03
556.90	1082.26
557.26	1082.97
557.61	1076.41
557.96	1089.05
558.32	1089.99
558.67	1082.97
559.02	1088.12
559.37	1089.29
559.73	1077.82
560.08	1076.41
560.43	1071.50
560.79	1060.96
561.14	1068.45
561.49	1081.33
561.85	1079.46
562.20	1085.54
562.55	1101.92
562.90	1097.24
563.26	1082.03
563.61	1081.09
563.96	1079.69
564.32	1070.33
564.67	1069.86
565.02	1079.92
565.37	1079.46
565.73	1082.26
566.08	1080.39
566.43	1079.46
566.78	1074.07
567.14	1069.86
567.49	1063.54
567.84	1069.16
568.19	1081.09
568.54	1091.39
568.90	1100.75
569.25	1108.01
569.60	1097.24
569.95	1088.82
570.31	1086.94
570.66	1085.54
571.01	1082.73
571.36	1090.22
571.71	1094.90
572.06	1096.31
572.42	1086.01
572.77	1087.41
573.12	1074.07
573.47	1060.96
573.82	1054.88
574.18	1065.18
574.53	1061.43
574.88	1061.90
575.23	1075.94
575.58	1073.37
575.93	1073.14
576.28	1076.65
576.64	1086.71
576.99	1080.63
577.34	1085.31
577.69	1084.60
578.04	1076.18
578.39	1084.14
578.74	1075.01
579.09	1071.26
579.44	1079.46
579.80	1093.73
580.15	1092.56
580.50	1103.09
580.85	1108.01
581.20	1107.07
581.55	1105.67
581.90	1100.99
582.25	1102.63
582.60	1099.82
582.95	1079.69
583.30	1074.54
583.65	1065.65
584.00	1059.56
584.35	1049.73
584.71	1061.43
585.06	1060.73
585.41	1070.33
585.76	1065.18
586.11	1071.26
586.46	1068.45
586.81	1078.75
587.16	1074.54
587.51	1075.48
587.86	1078.05
588.21	1079.22
588.56	1067.28
588.91	1071.97
589.26	1083.43
589.61	1089.75
589.96	1092.33
590.31	1100.05
590.66	1103.56
591.01	1095.37
591.36	1093.03
591.71	1093.26
592.06	1080.16
592.41	1080.63
592.76	1081.80
593.10	1085.31
593.45	1085.07
593.80	1086.01
594.15	1077.58
594.50	1077.11
594.85	1067.75
595.20	1064.01
595.55	1062.84
595.90	1062.84
596.25	1065.65
596.60	1061.20
596.95	1062.84
597.30	1074.31
597.64	1134.46
597.99	1133.05
598.34	1144.29
598.69	1155.29
599.04	1148.97
599.39	1102.86
599.74	1097.24
600.09	1091.86
600.44	1086.48
600.78	1094.90
601.13	1086.48
601.48	1086.48
601.83	1089.75
602.18	1085.07
602.53	1080.86
602.88	1071.50
603.22	1076.18
603.57	1082.50
603.92	1081.09
604.27	1076.41
604.62	1082.03
604.97	1081.80
605.31	1069.86
605.66	1069.16
606.01	1064.24
606.36	1064.94
606.71	1064.24
607.05	1066.11
607.40	1067.75
607.75	1075.24
608.10	1071.73
608.44	1070.80
608.79	1072.67
609.14	1075.01
609.49	1079.92
609.84	1085.54
610.18	1091.63
610.53	1084.14
610.88	1070.56
611.23	1064.48
611.57	1076.41
611.92	1079.22
612.27	1087.88
612.62	1097.01
612.96	1096.78
613.31	1082.03
613.66	1078.75
614.00	1084.14
614.35	1089.99
614.70	1091.86
615.05	1088.35
615.39	1085.31
615.74	1072.90
616.09	1067.28
616.43	1063.77
616.78	1082.50
617.13	1080.63
617.47	1084.14
617.82	1089.29
618.17	1102.16
618.51	1080.16
618.86	1070.80
619.21	1074.54
619.55	1071.26
619.90	1061.20
620.25	1057.92
620.59	1071.03
620.94	1073.37
621.29	1080.86
621.63	1072.67
621.98	1083.67
622.32	1075.48
622.67	1070.80
623.02	1057.92
623.36	1070.09
623.71	1071.26
624.05	1073.84
624.40	1076.41
624.75	1082.26
625.09	1081.09
625.44	1080.86
625.78	1090.69
626.13	1091.16
626.48	1092.33
626.82	1096.31
627.17	1102.86
627.51	1091.39
627.86	1089.52
628.20	1078.75
628.55	1071.73
628.89	1060.73
629.24	1069.16
629.58	1071.03
629.93	1073.60
630.28	1068.92
630.62	1067.28
630.97	1071.50
631.31	1071.97
631.66	1089.75
632.00	1089.99
632.35	1088.82
632.69	1083.67
633.04	1081.56
633.38	1068.45
633.73	1078.99
634.07	1085.54
634.42	1083.90
634.76	1087.65
635.11	1090.46
635.45	1085.54
635.79	1085.54
636.14	1086.71
636.48	1081.56
636.83	1077.82
637.17	1070.09
637.52	1064.94
637.86	1064.48
638.21	1073.60
638.55	1070.80
638.89	1073.14
639.24	1078.52
639.58	1067.99
639.93	1059.09
640.27	1059.09
640.61	1068.69
640.96	1081.09
641.30	1088.82
641.65	1094.43
641.99	1093.97
642.33	1089.99
642.68	1072.43
643.02	1070.09
643.37	1070.56
643.71	1076.88
644.05	1069.39
644.40	1065.18
644.74	1064.94
645.08	1055.35
645.43	1052.77
645.77	1058.86
646.11	1067.75
646.46	1069.39
646.80	1075.71
647.14	1072.43
647.49	1070.80
647.83	1071.03
648.17	1074.31
648.52	1072.20
648.86	1068.22
649.20	1073.60
649.55	1069.62
649.89	1074.07
650.23	1067.52
650.57	1082.97
650.92	1074.07
651.26	1076.18
651.60	1076.18
651.95	1088.82
652.29	1094.67
652.63	1108.48
652.97	1104.03
653.32	1100.05
653.66	1089.75
654.00	1074.77
654.34	1072.90
654.69	1068.92
655.03	1070.33
655.37	1076.41
655.71	1078.28
656.05	1070.33
656.40	1081.56
656.74	1072.43
657.08	1064.71
657.42	1061.20
657.76	1067.52
658.11	1064.71
658.45	1067.75
658.79	1068.22
659.13	1075.24
659.47	1067.99
659.82	1063.07
660.16	1069.39
660.50	1071.26
660.84	1081.09
661.18	1077.35
661.52	1082.97
661.87	1091.16
662.21	1087.65
662.55	1063.54
662.89	1068.45
663.23	1063.07
663.57	1054.18
663.91	1062.84
664.25	1082.73
664.60	1085.07
664.94	1098.41
665.28	1095.14
665.62	1092.09
665.96	1089.29
666.30	1092.09
666.64	1077.82
666.98	1080.86
667.32	1086.94
667.66	1081.80
668.01	1086.24
668.35	1088.82
668.69	1091.16
669.03	1094.90
669.37	1100.52
669.71	1088.82
670.05	1094.20
670.39	1088.82
670.73	1080.63
671.07	1083.67
671.41	1078.99
671.75	1082.03
672.09	1085.31
672.43	1089.99
672.77	1087.65
673.11	1089.29
673.45	1083.20
673.79	1078.05
674.13	1073.84
674.47	1072.20
674.81	1082.97
675.15	1093.26
675.49	1088.58
675.83	1083.43
676.17	1077.35
676.51	1079.69
676.85	1077.11
677.19	1089.99
677.53	1095.14
677.87	1092.56
678.21	1078.28
678.55	1074.54
678.89	1072.43
679.23	1075.71
679.57	1070.33
679.90	1067.52
680.24	1067.99
680.58	1075.94
680.92	1073.84
681.26	1081.56
681.60	1094.67
681.94	1094.43
682.28	1075.71
682.62	1076.41
682.96	1075.94
683.29	1072.67
683.63	1067.28
683.97	1085.54
684.31	1076.65
684.65	1078.05
684.99	1084.14
685.33	1088.35
685.67	1074.54
686.00	1091.63
686.34	1089.05
686.68	1072.67
687.02	1084.37
687.36	1086.71
687.70	1077.35
688.03	1081.80
688.37	1088.35
688.71	1077.58
689.05	1078.28
689.39	1077.11
689.72	1076.41
690.06	1078.05
690.40	1074.31
690.74	1075.48
691.08	1064.24
691.41	1068.22
691.75	1069.39
692.09	1073.37
692.43	1074.54
692.76	1085.77
693.10	1083.67
693.44	1083.20
693.78	1083.43
694.11	1086.01
694.45	1087.88
694.79	1084.60
695.13	1083.20
695.46	1073.37
695.80	1060.26
696.14	1045.52
696.48	1049.96
696.81	1045.75
697.15	1051.84
697.49	1063.07
697.82	1078.05
698.16	1068.45
698.50	1072.90
698.83	1071.97
699.17	1076.88
699.51	1075.01
699.84	1083.67
700.18	1086.48
700.52	1087.65
700.85	1081.09
701.19	1085.54
701.53	1085.07
701.86	1088.58
702.20	1086.24
702.54	1082.73
702.87	1069.39
703.21	1069.62
703.55	1067.75
703.88	1067.99
704.22	1064.01
704.55	1066.58
704.89	1070.56
705.23	1072.90
705.56	1067.99
705.90	1068.92
706.23	1067.05
706.57	1066.82
706.91	1058.62
707.24	1062.14
707.58	1078.05
707.91	1088.12
708.25	1084.60
708.58	1091.39
708.92	1100.05
709.26	1096.07
709.59	1098.65
709.93	1095.60
710.26	1097.01
710.60	1101.92
710.93	1096.07
711.27	1093.97
711.60	1093.03
711.94	1092.09
712.27	1089.99
712.61	1081.80
712.94	1077.58
713.28	1083.43
713.61	1077.82
713.95	1082.50
714.28	1083.20
714.62	1084.84
714.95	1081.56
715.29	1079.92
715.62	1071.50
715.96	1070.56
716.29	1078.28
716.63	1077.11
716.96	1081.80
717.29	1087.18
717.63	1091.63
717.96	1082.97
718.30	1082.03
718.63	1087.65
718.97	1079.46
719.30	1081.33
719.63	1076.18
719.97	1075.48
720.30	1066.82
720.64	1059.56
720.97	1058.62
721.30	1061.43
721.64	1063.54
721.97	1071.73
722.31	1087.65
722.64	1089.75
722.97	1097.48
723.31	1096.78
723.64	1086.24
723.97	1069.62
724.31	1068.22
724.64	1064.48
724.98	1068.45
725.31	1072.43
725.64	1076.65
725.98	1074.31
726.31	1075.24
726.64	1064.94
726.97	1065.88
727.31	1074.31
727.64	1080.63
727.97	1082.03
728.31	1091.16
728.64	1091.63
728.97	1090.46
729.31	1075.94
729.64	1071.26
729.97	1061.20
730.30	1057.69
730.64	1056.05
730.97	1072.67
731.30	1080.16
731.63	1081.56
731.97	1086.48
732.30	1085.54
732.63	1078.28
732.96	1064.48
733.30	1081.09
733.63	1080.86
733.96	1070.56
734.29	1071.03
734.63	1081.56
734.96	1066.82
735.29	1068.92
735.62	1081.80
735.95	1088.82
736.29	1088.35
736.62	1094.43
736.95	1083.90
737.28	1081.56
737.61	1076.18
737.94	1065.65
738.28	1061.67
738.61	1064.94
738.94	1062.14
739.27	1061.43
739.60	1065.88
739.93	1071.73
740.27	1075.71
740.60	1081.09
740.93	1079.69
741.26	1085.31
741.59	1080.16
741.92	1082.50
742.25	1077.58
742.58	1074.54
742.91	1081.09
743.25	1082.50
743.58	1073.37
743.91	1075.71
744.24	1077.35
744.57	1064.71
744.90	1062.84
745.23	1069.16
745.56	1061.67
745.89	1067.05
746.22	1077.58
746.55	1075.01
746.88	1075.01
747.21	1087.18
747.54	1076.18
747.87	1073.60
748.20	1075.01
748.53	1068.45
748.87	1070.33
749.20	1085.07
749.53	1077.35
749.86	1079.69
750.19	1084.60
750.52	1084.60
750.85	1073.84
751.18	1081.09
751.51	1086.01
751.84	1086.71
752.16	1071.03
752.49	1071.50
752.82	1065.41
753.15	1055.82
753.48	1051.37
753.81	1056.05
754.14	1075.71
754.47	1081.80
754.80	1094.67
755.13	1096.31
755.46	1111.75
755.79	1091.16
756.12	1092.33
756.45	1082.26
756.78	1082.97
757.11	1067.52
757.43	1067.99
757.76	1072.67
758.09	1072.20
758.42	1082.03
758.75	1088.12
759.08	1100.75
759.41	1091.63
759.74	1100.99
760.07	1092.33
760.39	1076.41
760.72	1066.35
761.05	1066.11
761.38	1050.43
761.71	1055.82
762.04	1071.50
762.36	1072.67
762.69	1079.69
763.02	1094.20
763.35	1088.35
763.68	1085.31
764.01	1085.07
764.33	1072.43
764.66	1061.20
764.99	1064.94
765.32	1070.33
765.65	1072.67
765.97	1080.39
766.30	1088.58
