SpectraSuite Data File
++++++++++++++++++++++++++++++++++++
Date: Mon Aug 26 10:25:51 PDT 2019
User: corrico
Dark Spectrum Present: No
Reference Spectrum Present: No
Number of Sampled Component Spectra: 1
Spectrometers: USB2+H06089
Integration Time (usec): 10000 (USB2+H06089)
Spectra Averaged: 2 (USB2+H06089)
Boxcar Smoothing: 2 (USB2+H06089)
Correct for Electrical Dark: No (USB2+H06089)
Strobe/Lamp Enabled: No (USB2+H06089)
Correct for Detector Non-linearity: No (USB2+H06089)
Correct for Stray Light: No (USB2+H06089)
Number of Pixels in Processed Spectrum: 2048
>>>>>Begin Processed Spectral Data<<<<<
339.70	1004.09
340.07	1004.09
340.45	977.88
340.82	961.73
341.19	937.15
341.57	918.89
341.94	900.87
342.31	890.57
342.69	888.47
343.06	895.96
343.43	906.02
343.81	912.34
344.18	918.66
344.55	926.62
344.93	925.21
345.30	917.72
345.67	932.70
346.04	947.21
346.42	950.26
346.79	964.07
347.16	969.22
347.54	970.15
347.91	965.47
348.28	972.26
348.65	980.22
349.03	992.15
349.40	1009.00
349.77	1019.77
350.14	1025.86
350.52	1033.11
350.89	1039.20
351.26	1042.71
351.63	1055.82
352.01	1056.05
352.38	1062.14
352.75	1064.94
353.12	1067.75
353.50	1066.35
353.87	1067.99
354.24	1064.01
354.61	1075.01
354.98	1079.46
355.36	1081.80
355.73	1084.37
356.10	1100.52
356.47	1094.67
356.84	1098.41
357.22	1096.07
357.59	1098.88
357.96	1079.92
358.33	1074.31
358.70	1065.41
359.08	1061.20
359.45	1070.33
359.82	1068.22
360.19	1074.77
360.56	1068.45
360.94	1075.01
361.31	1061.67
361.68	1070.80
362.05	1061.90
362.42	1073.60
362.79	1062.14
363.16	1053.24
363.54	1044.82
363.91	1051.60
364.28	1039.90
364.65	1050.67
365.02	1068.45
365.39	1075.01
365.76	1076.41
366.14	1088.12
366.51	1075.01
366.88	1065.88
367.25	1064.48
367.62	1060.96
367.99	1051.60
368.36	1063.54
368.73	1061.43
369.10	1065.88
369.48	1066.58
369.85	1063.54
370.22	1061.20
370.59	1067.05
370.96	1056.75
371.33	1056.28
371.70	1067.05
372.07	1061.20
372.44	1066.11
372.81	1075.71
373.18	1080.86
373.55	1070.80
373.93	1081.09
374.30	1066.11
374.67	1058.62
375.04	1048.79
375.41	1060.26
375.78	1050.20
376.15	1063.54
376.52	1060.73
376.89	1064.71
377.26	1064.01
377.63	1064.94
378.00	1062.37
378.37	1065.88
378.74	1062.14
379.11	1052.77
379.48	1064.24
379.85	1070.09
380.22	1086.71
380.59	1091.16
380.96	1094.90
381.33	1097.48
381.70	1091.39
382.07	1076.41
382.44	1071.50
382.81	1075.01
383.18	1063.07
383.55	1054.65
383.92	1057.69
384.29	1057.69
384.66	1052.07
385.03	1052.54
385.40	1058.16
385.77	1059.33
386.14	1063.77
386.51	1066.35
386.88	1068.92
387.25	1072.90
387.62	1071.26
387.99	1069.86
388.36	1069.39
388.73	1074.07
389.10	1075.71
389.46	1075.94
389.83	1083.43
390.20	1083.43
390.57	1075.94
390.94	1081.33
391.31	1079.92
391.68	1076.18
392.05	1079.46
392.42	1078.75
392.79	1071.03
393.16	1069.16
393.53	1072.43
393.89	1076.41
394.26	1085.77
394.63	1086.48
395.00	1088.35
395.37	1081.33
395.74	1084.37
396.11	1081.56
396.48	1077.11
396.84	1077.35
397.21	1084.14
397.58	1073.14
397.95	1077.35
398.32	1081.56
398.69	1086.94
399.06	1087.18
399.42	1086.01
399.79	1075.71
400.16	1078.75
400.53	1072.67
400.90	1075.01
401.27	1085.31
401.64	1079.46
402.00	1085.31
402.37	1094.90
402.74	1085.07
403.11	1073.37
403.48	1089.99
403.84	1075.71
404.21	1065.88
404.58	1067.52
404.95	1063.54
405.32	1058.86
405.68	1071.73
406.05	1078.28
406.42	1093.03
406.79	1101.22
407.16	1096.07
407.52	1089.05
407.89	1081.09
408.26	1067.52
408.63	1075.94
408.99	1078.05
409.36	1088.35
409.73	1091.63
410.10	1093.26
410.47	1082.26
410.83	1084.60
411.20	1075.24
411.57	1068.22
411.94	1071.03
412.30	1068.92
412.67	1062.60
413.04	1062.14
413.40	1067.52
413.77	1066.58
414.14	1069.62
414.51	1074.54
414.87	1069.62
415.24	1066.11
415.61	1062.84
415.97	1057.22
416.34	1055.11
416.71	1050.90
417.08	1059.56
417.44	1057.92
417.81	1070.80
418.18	1073.37
418.54	1080.86
418.91	1070.80
419.28	1075.94
419.64	1069.86
420.01	1066.11
420.38	1061.67
420.74	1064.24
421.11	1068.92
421.48	1064.48
421.84	1066.82
422.21	1069.62
422.58	1080.86
422.94	1077.82
423.31	1077.35
423.68	1080.16
424.04	1088.35
424.41	1072.90
424.77	1070.56
425.14	1071.50
425.51	1068.69
425.87	1058.39
426.24	1064.94
426.61	1059.33
426.97	1064.94
427.34	1071.50
427.70	1079.92
428.07	1073.84
428.44	1074.77
428.80	1073.84
429.17	1071.97
429.53	1067.52
429.90	1078.28
430.27	1075.24
430.63	1077.58
431.00	1078.52
431.36	1077.58
431.73	1081.80
432.09	1098.41
432.46	1102.16
432.83	1097.95
433.19	1103.56
433.56	1086.24
433.92	1076.41
434.29	1076.88
434.65	1078.75
435.02	1080.63
435.38	1091.86
435.75	1098.65
436.11	1100.29
436.48	1107.31
436.84	1106.14
437.21	1110.35
437.57	1107.31
437.94	1100.99
438.30	1089.05
438.67	1083.90
439.03	1068.22
439.40	1061.90
439.76	1059.09
440.13	1062.37
440.49	1064.24
440.86	1080.86
441.22	1079.92
441.59	1076.65
441.95	1075.48
442.32	1074.77
442.68	1071.26
443.05	1075.94
443.41	1076.18
443.78	1080.86
444.14	1080.16
444.51	1069.62
444.87	1072.20
445.24	1074.31
445.60	1066.82
445.96	1065.41
446.33	1071.50
446.69	1072.20
447.06	1075.24
447.42	1073.14
447.79	1072.90
448.15	1084.60
448.51	1079.46
448.88	1075.48
449.24	1081.80
449.61	1088.58
449.97	1081.56
450.33	1082.03
450.70	1090.92
451.06	1098.41
451.43	1100.52
451.79	1093.26
452.15	1096.07
452.52	1089.29
452.88	1082.26
453.24	1074.77
453.61	1075.94
453.97	1072.67
454.34	1077.58
454.70	1075.94
455.06	1072.67
455.43	1074.77
455.79	1080.16
456.15	1069.62
456.52	1070.56
456.88	1071.03
457.24	1069.62
457.61	1067.99
457.97	1072.67
458.33	1071.26
458.70	1069.62
459.06	1067.99
459.42	1068.45
459.79	1068.92
460.15	1064.24
460.51	1069.39
460.88	1074.54
461.24	1071.50
461.60	1077.82
461.96	1085.31
462.33	1085.54
462.69	1083.90
463.05	1083.20
463.42	1074.31
463.78	1067.52
464.14	1066.58
464.50	1062.37
464.87	1063.31
465.23	1074.77
465.59	1088.58
465.95	1084.37
466.32	1090.22
466.68	1089.29
467.04	1075.01
467.40	1061.20
467.77	1062.37
468.13	1070.56
468.49	1067.52
468.85	1074.07
469.22	1073.14
469.58	1087.41
469.94	1077.82
470.30	1090.46
470.66	1088.82
471.03	1092.56
471.39	1075.94
471.75	1082.97
472.11	1066.35
472.47	1064.01
472.84	1068.92
473.20	1076.18
473.56	1074.54
473.92	1075.24
474.28	1078.75
474.65	1071.26
475.01	1076.18
475.37	1076.18
475.73	1084.37
476.09	1090.69
476.45	1090.69
476.81	1084.14
477.18	1062.84
477.54	1065.18
477.90	1063.77
478.26	1080.39
478.62	1087.65
478.98	1103.56
479.34	1100.52
479.71	1100.29
480.07	1090.22
480.43	1093.26
480.79	1095.84
481.15	1096.07
481.51	1100.05
481.87	1105.90
482.23	1102.16
482.59	1094.20
482.96	1089.29
483.32	1086.71
483.68	1082.97
484.04	1068.22
484.40	1071.97
484.76	1077.11
485.12	1073.60
485.48	1069.16
485.84	1082.50
486.20	1083.20
486.56	1076.88
486.92	1068.92
487.28	1069.86
487.64	1065.88
488.00	1065.41
488.37	1069.16
488.73	1072.20
489.09	1068.69
489.45	1063.31
489.81	1065.65
490.17	1071.50
490.53	1082.03
490.89	1082.73
491.25	1099.12
491.61	1104.97
491.97	1112.46
492.33	1100.99
492.69	1099.35
493.05	1081.33
493.41	1083.67
493.77	1073.84
494.13	1079.22
494.49	1081.80
494.85	1086.48
495.21	1075.01
495.57	1064.71
495.93	1060.50
496.29	1070.33
496.64	1071.03
497.00	1072.43
497.36	1084.60
497.72	1097.24
498.08	1092.09
498.44	1092.33
498.80	1101.92
499.16	1096.78
499.52	1088.12
499.88	1085.31
500.24	1092.80
500.60	1081.33
500.96	1090.22
501.32	1090.22
501.68	1086.48
502.03	1075.01
502.39	1079.69
502.75	1071.03
503.11	1069.39
503.47	1065.41
503.83	1076.65
504.19	1080.16
504.55	1079.69
504.91	1075.24
505.26	1072.90
505.62	1056.52
505.98	1050.90
506.34	1045.05
506.70	1054.41
507.06	1061.67
507.42	1075.48
507.78	1083.43
508.13	1091.86
508.49	1093.26
508.85	1097.01
509.21	1090.22
509.57	1086.24
509.93	1088.82
510.28	1085.31
510.64	1084.60
511.00	1088.35
511.36	1083.67
511.72	1074.31
512.07	1085.54
512.43	1089.52
512.79	1085.31
513.15	1084.37
513.51	1087.88
513.86	1076.88
514.22	1082.50
514.58	1087.41
514.94	1093.03
515.30	1096.07
515.65	1100.05
516.01	1092.56
516.37	1090.69
516.73	1083.67
517.08	1084.37
517.44	1079.69
517.80	1083.43
518.16	1081.80
518.51	1084.14
518.87	1088.12
519.23	1084.37
519.59	1083.43
519.94	1077.11
520.30	1071.73
520.66	1071.50
521.01	1073.37
521.37	1062.60
521.73	1075.01
522.09	1086.24
522.44	1083.20
522.80	1089.99
523.16	1109.41
523.51	1110.12
523.87	1107.31
524.23	1104.26
524.58	1099.35
524.94	1080.86
525.30	1078.99
525.65	1075.48
526.01	1077.11
526.37	1077.82
526.72	1086.94
527.08	1089.05
527.44	1100.29
527.79	1099.58
528.15	1101.46
528.51	1102.16
528.86	1104.03
529.22	1093.97
529.58	1090.46
529.93	1091.39
530.29	1089.29
530.65	1088.82
531.00	1086.94
531.36	1091.39
531.71	1086.24
532.07	1090.69
532.43	1091.86
532.78	1097.01
533.14	1095.14
533.49	1101.22
533.85	1099.35
534.21	1089.52
534.56	1086.01
534.92	1084.84
535.27	1082.73
535.63	1075.01
535.98	1078.52
536.34	1082.97
536.69	1090.92
537.05	1085.54
537.41	1087.18
537.76	1091.39
538.12	1091.63
538.47	1081.33
538.83	1076.41
539.18	1077.58
539.54	1073.60
539.89	1072.43
540.25	1067.52
540.60	1075.48
540.96	1075.24
541.31	1071.73
541.67	1062.84
542.02	1075.01
542.38	1073.60
542.73	1073.37
543.09	1081.56
543.44	1084.60
543.80	1080.16
544.15	1086.24
544.51	1090.92
544.86	1094.20
545.22	1102.86
545.57	1104.03
545.93	1100.99
546.28	1097.71
546.64	1097.71
546.99	1097.95
547.35	1098.41
547.70	1098.18
548.05	1093.03
548.41	1082.97
548.76	1081.09
549.12	1081.80
549.47	1081.80
549.83	1088.12
550.18	1087.41
550.53	1078.05
550.89	1076.65
551.24	1071.03
551.60	1066.11
551.95	1080.86
552.30	1092.80
552.66	1091.16
553.01	1090.46
553.37	1102.16
553.72	1092.56
554.07	1089.75
554.43	1095.84
554.78	1094.20
555.13	1084.84
555.49	1080.63
555.84	1067.28
556.19	1064.71
556.55	1074.77
556.90	1080.16
557.26	1083.67
557.61	1092.56
557.96	1091.39
558.32	1086.48
558.67	1080.63
559.02	1083.20
559.37	1084.84
559.73	1092.80
560.08	1095.60
560.43	1083.43
560.79	1079.22
561.14	1067.75
561.49	1056.99
561.85	1060.26
562.20	1075.94
562.55	1075.48
562.90	1089.05
563.26	1095.14
563.61	1090.46
563.96	1084.84
564.32	1094.43
564.67	1098.18
565.02	1090.22
565.37	1087.65
565.73	1094.67
566.08	1092.80
566.43	1090.69
566.78	1093.73
567.14	1096.07
567.49	1095.37
567.84	1091.39
568.19	1084.60
568.54	1079.69
568.90	1084.37
569.25	1083.43
569.60	1086.71
569.95	1091.16
570.31	1096.31
570.66	1093.50
571.01	1095.14
571.36	1082.03
571.71	1079.92
572.06	1075.01
572.42	1076.88
572.77	1081.09
573.12	1088.12
573.47	1081.80
573.82	1084.14
574.18	1079.69
574.53	1078.05
574.88	1076.41
575.23	1078.99
575.58	1094.90
575.93	1100.99
576.28	1094.90
576.64	1087.18
576.99	1090.22
577.34	1075.01
577.69	1072.43
578.04	1070.09
578.39	1080.39
578.74	1082.26
579.09	1087.41
579.44	1084.60
579.80	1069.86
580.15	1067.99
580.50	1059.79
580.85	1054.18
581.20	1055.82
581.55	1061.43
581.90	1058.62
582.25	1065.41
582.60	1066.58
582.95	1057.45
583.30	1060.50
583.65	1056.28
584.00	1051.37
584.35	1061.67
584.71	1078.28
585.06	1092.33
585.41	1102.16
585.76	1107.07
586.11	1100.99
586.46	1089.75
586.81	1086.48
587.16	1082.26
587.51	1093.26
587.86	1087.88
588.21	1097.48
588.56	1094.20
588.91	1095.84
589.26	1078.28
589.61	1083.43
589.96	1067.75
590.31	1069.16
590.66	1073.37
591.01	1089.05
591.36	1082.50
591.71	1089.29
592.06	1083.90
592.41	1075.24
592.76	1064.71
593.10	1067.28
593.45	1064.71
593.80	1065.88
594.15	1068.69
594.50	1066.58
594.85	1070.09
595.20	1076.41
595.55	1078.52
595.90	1071.73
596.25	1078.99
596.60	1085.07
596.95	1083.90
597.30	1084.60
597.64	1145.69
597.99	1146.86
598.34	1133.76
598.69	1134.93
599.04	1125.80
599.39	1078.99
599.74	1084.60
600.09	1088.58
600.44	1077.35
600.78	1087.18
601.13	1079.69
601.48	1070.56
601.83	1073.37
602.18	1079.69
602.53	1078.28
602.88	1074.77
603.22	1072.90
603.57	1074.77
603.92	1080.39
604.27	1081.09
604.62	1085.31
604.97	1092.56
605.31	1090.46
605.66	1086.48
606.01	1077.58
606.36	1081.33
606.71	1075.01
607.05	1073.84
607.40	1080.39
607.75	1091.63
608.10	1087.65
608.44	1094.20
608.79	1092.09
609.14	1083.90
609.49	1080.39
609.84	1086.01
610.18	1080.16
610.53	1083.67
610.88	1085.31
611.23	1081.09
611.57	1082.50
611.92	1078.99
612.27	1082.50
612.62	1089.75
612.96	1098.65
613.31	1099.35
613.66	1109.88
614.00	1107.54
614.35	1094.67
614.70	1093.03
615.05	1094.20
615.39	1093.50
615.74	1093.73
616.09	1100.75
616.43	1105.20
616.78	1102.63
617.13	1098.18
617.47	1088.12
617.82	1082.73
618.17	1077.35
618.51	1079.46
618.86	1072.67
619.21	1082.73
619.55	1085.07
619.90	1088.58
620.25	1087.88
620.59	1091.86
620.94	1086.24
621.29	1084.37
621.63	1085.31
621.98	1086.71
622.32	1086.24
622.67	1091.16
623.02	1091.16
623.36	1087.88
623.71	1081.80
624.05	1086.48
624.40	1088.35
624.75	1090.69
625.09	1087.41
625.44	1086.71
625.78	1073.37
626.13	1079.46
626.48	1078.99
626.82	1085.07
627.17	1085.77
627.51	1095.84
627.86	1087.65
628.20	1078.99
628.55	1074.77
628.89	1070.80
629.24	1065.88
629.58	1064.48
629.93	1073.14
630.28	1075.24
630.62	1076.18
630.97	1075.01
631.31	1070.80
631.66	1072.90
632.00	1068.22
632.35	1060.50
632.69	1060.50
633.04	1058.86
633.38	1056.75
633.73	1056.28
634.07	1059.79
634.42	1064.71
634.76	1067.99
635.11	1061.67
635.45	1062.84
635.79	1078.05
636.14	1079.22
636.48	1091.86
636.83	1100.29
637.17	1102.63
637.52	1089.29
637.86	1078.05
638.21	1067.75
638.55	1064.01
638.89	1061.67
639.24	1064.94
639.58	1071.97
639.93	1068.45
640.27	1067.28
640.61	1063.54
640.96	1065.41
641.30	1063.77
641.65	1070.80
641.99	1067.28
642.33	1078.05
642.68	1078.05
643.02	1093.73
643.37	1093.03
643.71	1104.73
644.05	1094.43
644.40	1099.35
644.74	1086.71
645.08	1087.65
645.43	1086.24
645.77	1093.26
646.11	1095.14
646.46	1097.01
646.80	1091.39
647.14	1094.67
647.49	1096.31
647.83	1082.73
648.17	1079.22
648.52	1080.63
648.86	1079.46
649.20	1068.22
649.55	1071.03
649.89	1080.16
650.23	1076.18
650.57	1077.11
650.92	1091.63
651.26	1091.86
651.60	1086.24
651.95	1089.75
652.29	1088.82
652.63	1075.01
652.97	1078.99
653.32	1080.16
653.66	1084.14
654.00	1084.37
654.34	1093.03
654.69	1091.86
655.03	1097.24
655.37	1095.37
655.71	1082.97
656.05	1080.63
656.40	1066.82
656.74	1062.14
657.08	1056.52
657.42	1066.82
657.76	1074.77
658.11	1079.22
658.45	1085.54
658.79	1087.41
659.13	1085.77
659.47	1072.20
659.82	1079.22
660.16	1068.92
660.50	1078.99
660.84	1073.37
661.18	1082.26
661.52	1078.05
661.87	1080.39
662.21	1062.60
662.55	1067.75
662.89	1065.88
663.23	1069.62
663.57	1061.90
663.91	1070.56
664.25	1076.88
664.60	1064.48
664.94	1070.33
665.28	1082.97
665.62	1092.09
665.96	1084.84
666.30	1090.92
666.64	1090.69
666.98	1082.26
667.32	1077.82
667.66	1077.58
668.01	1081.33
668.35	1072.90
668.69	1081.56
669.03	1088.82
669.37	1092.33
669.71	1090.92
670.05	1101.22
670.39	1104.26
670.73	1093.73
671.07	1082.26
671.41	1084.84
671.75	1080.63
672.09	1071.50
672.43	1068.22
672.77	1082.50
673.11	1089.52
673.45	1098.41
673.79	1105.67
674.13	1118.07
674.47	1117.14
674.81	1115.97
675.15	1108.71
675.49	1104.26
675.83	1095.37
676.17	1086.01
676.51	1079.46
676.85	1077.82
677.19	1071.73
677.53	1063.31
677.87	1062.60
678.21	1059.09
678.55	1055.58
678.89	1071.73
679.23	1084.84
679.57	1096.78
679.90	1102.39
680.24	1111.99
680.58	1104.03
680.92	1102.86
681.26	1089.05
681.60	1087.18
681.94	1073.84
682.28	1066.11
682.62	1067.99
682.96	1078.99
683.29	1086.71
683.63	1105.90
683.97	1109.88
684.31	1105.20
684.65	1097.95
684.99	1093.03
685.33	1083.43
685.67	1070.80
686.00	1077.35
686.34	1078.28
686.68	1074.77
687.02	1069.39
687.36	1078.05
687.70	1071.73
688.03	1067.75
688.37	1071.26
688.71	1074.31
689.05	1071.73
689.39	1066.11
689.72	1073.14
690.06	1062.60
690.40	1065.41
690.74	1072.20
691.08	1080.16
691.41	1083.43
691.75	1085.31
692.09	1082.26
692.43	1075.24
692.76	1076.18
693.10	1078.52
693.44	1080.86
693.78	1084.14
694.11	1088.12
694.45	1086.48
694.79	1078.05
695.13	1078.52
695.46	1070.33
695.80	1061.90
696.14	1054.41
696.48	1053.48
696.81	1054.18
697.15	1056.75
697.49	1066.82
697.82	1068.45
698.16	1075.71
698.50	1080.39
698.83	1084.60
699.17	1081.80
699.51	1083.20
699.84	1078.75
700.18	1082.03
700.52	1090.92
700.85	1100.05
701.19	1102.16
701.53	1104.73
701.86	1098.41
702.20	1078.75
702.54	1064.01
702.87	1060.73
703.21	1065.18
703.55	1050.67
703.88	1059.33
704.22	1070.56
704.55	1075.01
704.89	1070.80
705.23	1084.60
705.56	1079.46
705.90	1073.37
706.23	1075.71
706.57	1076.41
706.91	1079.46
707.24	1086.01
707.58	1091.39
707.91	1085.54
708.25	1080.86
708.58	1076.41
708.92	1069.86
709.26	1063.07
709.59	1059.79
709.93	1062.84
710.26	1068.92
710.60	1068.92
710.93	1077.58
711.27	1085.77
711.60	1078.28
711.94	1067.52
712.27	1064.71
712.61	1068.69
712.94	1067.75
713.28	1073.84
713.61	1079.22
713.95	1089.99
714.28	1080.16
714.62	1077.11
714.95	1079.69
715.29	1078.05
715.62	1071.03
715.96	1068.22
716.29	1071.26
716.63	1069.62
716.96	1075.94
717.29	1077.35
717.63	1079.92
717.96	1076.65
718.30	1075.01
718.63	1072.67
718.97	1068.69
719.30	1069.86
719.63	1075.71
719.97	1086.01
720.30	1085.54
720.64	1088.12
720.97	1084.14
721.30	1078.05
721.64	1072.43
721.97	1072.43
722.31	1077.35
722.64	1084.84
722.97	1085.77
723.31	1077.11
723.64	1071.97
723.97	1070.56
724.31	1068.69
724.64	1077.11
724.98	1077.11
725.31	1080.86
725.64	1081.33
725.98	1083.90
726.31	1085.77
726.64	1099.58
726.97	1103.80
727.31	1105.20
727.64	1103.09
727.97	1089.05
728.31	1080.63
728.64	1069.86
728.97	1053.94
729.31	1053.71
729.64	1058.86
729.97	1062.37
730.30	1079.92
730.64	1093.26
730.97	1087.18
731.30	1084.84
731.63	1071.26
731.97	1063.31
732.30	1066.58
732.63	1073.37
732.96	1076.88
733.30	1087.88
733.63	1088.35
733.96	1081.09
734.29	1085.31
734.63	1085.31
734.96	1086.71
735.29	1078.75
735.62	1084.14
735.95	1078.75
736.29	1071.73
736.62	1066.58
736.95	1077.82
737.28	1081.56
737.61	1085.07
737.94	1096.31
738.28	1093.50
738.61	1089.52
738.94	1087.65
739.27	1087.65
739.60	1083.67
739.93	1092.09
740.27	1076.88
740.60	1069.16
740.93	1065.18
741.26	1068.69
741.59	1063.07
741.92	1078.28
742.25	1083.67
742.58	1087.41
742.91	1085.31
743.25	1089.75
743.58	1093.50
743.91	1103.56
744.24	1095.60
744.57	1090.22
744.90	1090.22
745.23	1082.73
745.56	1071.73
745.89	1081.33
746.22	1082.73
746.55	1078.28
746.88	1078.75
747.21	1078.05
747.54	1072.43
747.87	1072.20
748.20	1076.65
748.53	1075.24
748.87	1078.75
749.20	1078.28
749.53	1073.37
749.86	1076.88
750.19	1080.86
750.52	1087.88
750.85	1094.67
751.18	1101.22
751.51	1093.50
751.84	1085.31
752.16	1072.43
752.49	1062.37
752.82	1074.07
753.15	1067.75
753.48	1077.82
753.81	1083.20
754.14	1086.94
754.47	1075.24
754.80	1090.22
755.13	1092.33
755.46	1084.60
755.79	1082.73
756.12	1085.77
756.45	1074.77
756.78	1069.16
757.11	1071.50
757.43	1067.99
757.76	1072.43
758.09	1071.50
758.42	1069.16
758.75	1071.73
759.08	1074.77
759.41	1066.11
759.74	1071.73
760.07	1084.84
760.39	1088.35
760.72	1094.67
761.05	1086.94
761.38	1084.14
761.71	1076.65
762.04	1070.80
762.36	1062.60
762.69	1066.35
763.02	1075.01
763.35	1071.97
763.68	1077.35
764.01	1082.03
764.33	1075.48
764.66	1075.24
764.99	1075.24
765.32	1077.35
765.65	1082.73
765.97	1089.99
766.30	1090.92
