SpectraSuite Data File
++++++++++++++++++++++++++++++++++++
Date: Mon Aug 26 10:25:52 PDT 2019
User: corrico
Dark Spectrum Present: No
Reference Spectrum Present: No
Number of Sampled Component Spectra: 1
Spectrometers: USB2+H06089
Integration Time (usec): 10000 (USB2+H06089)
Spectra Averaged: 2 (USB2+H06089)
Boxcar Smoothing: 2 (USB2+H06089)
Correct for Electrical Dark: No (USB2+H06089)
Strobe/Lamp Enabled: No (USB2+H06089)
Correct for Detector Non-linearity: No (USB2+H06089)
Correct for Stray Light: No (USB2+H06089)
Number of Pixels in Processed Spectrum: 2048
>>>>>Begin Processed Spectral Data<<<<<
339.70	1067.28
340.07	1067.28
340.45	1022.81
340.82	997.54
341.19	971.09
341.57	943.00
341.94	928.49
342.31	926.62
342.69	918.19
343.06	911.17
343.43	899.47
343.81	899.23
344.18	891.74
344.55	896.43
344.93	902.51
345.30	914.92
345.67	921.70
346.04	932.94
346.42	938.09
346.79	948.62
347.16	964.53
347.54	970.62
347.91	974.37
348.28	984.66
348.65	992.62
349.03	996.83
349.40	1013.45
349.77	1026.09
350.14	1034.05
350.52	1032.64
350.89	1031.94
351.26	1021.41
351.63	1035.92
352.01	1042.24
352.38	1052.54
352.75	1063.77
353.12	1074.54
353.50	1072.43
353.87	1070.56
354.24	1075.48
354.61	1072.43
354.98	1077.82
355.36	1077.58
355.73	1083.90
356.10	1078.99
356.47	1071.26
356.84	1077.82
357.22	1079.46
357.59	1081.09
357.96	1084.84
358.33	1104.03
358.70	1096.07
359.08	1084.84
359.45	1084.84
359.82	1086.01
360.19	1076.18
360.56	1082.26
360.94	1093.26
361.31	1082.26
361.68	1076.65
362.05	1082.03
362.42	1084.60
362.79	1075.48
363.16	1077.82
363.54	1074.07
363.91	1072.90
364.28	1075.01
364.65	1072.43
365.02	1072.90
365.39	1076.88
365.76	1073.37
366.14	1061.90
366.51	1069.39
366.88	1064.94
367.25	1053.94
367.62	1053.01
367.99	1058.39
368.36	1054.65
368.73	1059.33
369.10	1061.43
369.48	1067.75
369.85	1056.05
370.22	1055.58
370.59	1063.54
370.96	1075.94
371.33	1066.35
371.70	1070.80
372.07	1076.18
372.44	1064.24
372.81	1064.01
373.18	1067.05
373.55	1066.58
373.93	1055.58
374.30	1062.37
374.67	1059.56
375.04	1055.58
375.41	1059.56
375.78	1072.20
376.15	1076.88
376.52	1076.88
376.89	1077.11
377.26	1086.94
377.63	1088.12
378.00	1088.35
378.37	1080.39
378.74	1078.99
379.11	1064.48
379.48	1061.43
379.85	1055.58
380.22	1074.77
380.59	1076.88
380.96	1083.67
381.33	1081.09
381.70	1078.99
382.07	1068.45
382.44	1067.75
382.81	1067.99
383.18	1068.92
383.55	1073.14
383.92	1070.33
384.29	1077.58
384.66	1079.69
385.03	1077.82
385.40	1075.94
385.77	1080.86
386.14	1073.60
386.51	1068.22
386.88	1071.50
387.25	1065.65
387.62	1061.20
387.99	1070.09
388.36	1058.86
388.73	1063.07
389.10	1070.09
389.46	1068.69
389.83	1061.43
390.20	1074.07
390.57	1072.20
390.94	1074.07
391.31	1086.01
391.68	1093.50
392.05	1098.65
392.42	1092.80
392.79	1088.82
393.16	1074.54
393.53	1069.62
393.89	1067.05
394.26	1074.07
394.63	1075.01
395.00	1080.63
395.37	1079.92
395.74	1067.52
396.11	1059.09
396.48	1063.07
396.84	1056.05
397.21	1053.01
397.58	1066.58
397.95	1072.20
398.32	1072.20
398.69	1084.60
399.06	1091.63
399.42	1081.80
399.79	1082.73
400.16	1083.90
400.53	1073.14
400.90	1071.03
401.27	1080.86
401.64	1080.16
402.00	1065.88
402.37	1072.43
402.74	1077.35
403.11	1071.03
403.48	1070.09
403.84	1080.63
404.21	1085.77
404.58	1083.67
404.95	1082.26
405.32	1079.46
405.68	1086.24
406.05	1081.09
406.42	1077.58
406.79	1075.48
407.16	1069.39
407.52	1058.16
407.89	1049.73
408.26	1049.50
408.63	1053.71
408.99	1066.35
409.36	1068.45
409.73	1083.20
410.10	1086.01
410.47	1086.24
410.83	1079.92
411.20	1080.86
411.57	1078.28
411.94	1072.20
412.30	1074.54
412.67	1075.94
413.04	1081.56
413.40	1070.09
413.77	1072.20
414.14	1084.14
414.51	1081.80
414.87	1076.88
415.24	1091.16
415.61	1098.18
415.97	1091.39
416.34	1089.52
416.71	1081.56
417.08	1075.48
417.44	1082.97
417.81	1077.11
418.18	1082.73
418.54	1089.99
418.91	1091.16
419.28	1079.46
419.64	1077.11
420.01	1081.56
420.38	1081.56
420.74	1078.75
421.11	1078.75
421.48	1074.31
421.84	1072.20
422.21	1079.22
422.58	1080.86
422.94	1082.26
423.31	1093.03
423.68	1080.86
424.04	1077.58
424.41	1074.07
424.77	1063.31
425.14	1060.73
425.51	1077.35
425.87	1081.09
426.24	1084.37
426.61	1090.92
426.97	1094.43
427.34	1084.37
427.70	1074.77
428.07	1079.92
428.44	1073.37
428.80	1063.31
429.17	1073.14
429.53	1075.71
429.90	1063.54
430.27	1072.67
430.63	1087.65
431.00	1076.88
431.36	1085.07
431.73	1093.50
432.09	1098.18
432.46	1089.75
432.83	1090.69
433.19	1077.58
433.56	1074.07
433.92	1066.58
434.29	1071.26
434.65	1074.77
435.02	1081.33
435.38	1083.90
435.75	1084.84
436.11	1082.50
436.48	1086.71
436.84	1077.11
437.21	1086.48
437.57	1091.39
437.94	1091.39
438.30	1089.05
438.67	1101.92
439.03	1089.05
439.40	1087.65
439.76	1086.24
440.13	1086.01
440.49	1085.31
440.86	1083.20
441.22	1089.05
441.59	1084.60
441.95	1078.52
442.32	1069.86
442.68	1081.09
443.05	1068.22
443.41	1074.07
443.78	1071.50
444.14	1075.71
444.51	1077.35
444.87	1076.18
445.24	1079.22
445.60	1082.50
445.96	1089.99
446.33	1088.12
446.69	1092.33
447.06	1092.80
447.42	1097.48
447.79	1089.75
448.15	1086.24
448.51	1082.97
448.88	1076.88
449.24	1072.67
449.61	1071.03
449.97	1069.62
450.33	1076.65
450.70	1079.92
451.06	1085.54
451.43	1089.99
451.79	1087.18
452.15	1084.84
452.52	1075.48
452.88	1072.43
453.24	1068.92
453.61	1071.97
453.97	1071.50
454.34	1071.50
454.70	1067.05
455.06	1070.80
455.43	1071.97
455.79	1079.69
456.15	1089.05
456.52	1091.86
456.88	1089.05
457.24	1086.94
457.61	1081.33
457.97	1086.71
458.33	1095.60
458.70	1093.26
459.06	1089.05
459.42	1074.77
459.79	1068.22
460.15	1060.73
460.51	1061.67
460.88	1061.90
461.24	1068.22
461.60	1067.75
461.96	1069.62
462.33	1073.60
462.69	1073.60
463.05	1074.54
463.42	1064.71
463.78	1053.24
464.14	1048.79
464.50	1056.52
464.87	1064.24
465.23	1073.37
465.59	1082.03
465.95	1082.50
466.32	1069.62
466.68	1063.77
467.04	1065.65
467.40	1066.11
467.77	1080.86
468.13	1084.37
468.49	1087.65
468.85	1080.86
469.22	1080.16
469.58	1060.50
469.94	1061.90
470.30	1058.86
470.66	1067.75
471.03	1081.33
471.39	1093.03
471.75	1103.09
472.11	1110.35
472.47	1102.63
472.84	1099.35
473.20	1093.50
473.56	1088.58
473.92	1086.01
474.28	1093.50
474.65	1084.84
475.01	1083.67
475.37	1079.22
475.73	1078.52
476.09	1074.54
476.45	1061.67
476.81	1069.86
477.18	1075.94
477.54	1076.18
477.90	1082.97
478.26	1093.50
478.62	1089.29
478.98	1096.07
479.34	1097.24
479.71	1090.46
480.07	1091.86
480.43	1089.29
480.79	1081.80
481.15	1081.56
481.51	1078.28
481.87	1077.11
482.23	1077.35
482.59	1078.52
482.96	1076.41
483.32	1079.69
483.68	1079.69
484.04	1077.11
484.40	1061.43
484.76	1062.84
485.12	1052.30
485.48	1062.14
485.84	1074.77
486.20	1084.37
486.56	1080.86
486.92	1089.29
487.28	1081.80
487.64	1069.86
488.00	1073.14
488.37	1071.03
488.73	1069.62
489.09	1060.50
489.45	1060.50
489.81	1065.41
490.17	1070.33
490.53	1076.41
490.89	1093.26
491.25	1102.16
491.61	1095.60
491.97	1090.22
492.33	1082.03
492.69	1067.99
493.05	1067.99
493.41	1071.97
493.77	1082.26
494.13	1090.22
494.49	1098.65
494.85	1081.80
495.21	1082.97
495.57	1073.14
495.93	1070.80
496.29	1061.43
496.64	1067.75
497.00	1072.43
497.36	1082.03
497.72	1080.39
498.08	1077.58
498.44	1076.88
498.80	1065.41
499.16	1060.73
499.52	1061.43
499.88	1072.43
500.24	1074.54
500.60	1074.54
500.96	1071.73
501.32	1075.94
501.68	1078.99
502.03	1082.26
502.39	1088.82
502.75	1093.03
503.11	1082.03
503.47	1074.07
503.83	1073.37
504.19	1066.58
504.55	1062.84
504.91	1064.71
505.26	1074.07
505.62	1077.35
505.98	1086.94
506.34	1088.82
506.70	1090.69
507.06	1072.20
507.42	1068.22
507.78	1055.82
508.13	1054.88
508.49	1074.31
508.85	1092.09
509.21	1095.14
509.57	1100.29
509.93	1100.75
510.28	1081.80
510.64	1071.03
511.00	1071.26
511.36	1082.26
511.72	1089.05
512.07	1096.54
512.43	1099.12
512.79	1095.37
513.15	1080.63
513.51	1075.01
513.86	1074.07
514.22	1079.22
514.58	1078.05
514.94	1093.97
515.30	1095.84
515.65	1104.26
516.01	1098.41
516.37	1100.29
516.73	1091.16
517.08	1092.09
517.44	1081.09
517.80	1089.75
518.16	1100.52
518.51	1089.52
518.87	1086.94
519.23	1096.78
519.59	1098.88
519.94	1096.54
520.30	1109.41
520.66	1118.54
521.01	1120.18
521.37	1115.97
521.73	1122.05
522.09	1120.65
522.44	1108.95
522.80	1108.95
523.16	1104.26
523.51	1093.03
523.87	1086.48
524.23	1082.73
524.58	1069.86
524.94	1069.16
525.30	1059.79
525.65	1053.71
526.01	1061.67
526.37	1066.58
526.72	1084.14
527.08	1090.92
527.44	1106.61
527.79	1102.16
528.15	1094.90
528.51	1082.03
528.86	1084.37
529.22	1087.88
529.58	1086.01
529.93	1101.92
530.29	1105.90
530.65	1107.78
531.00	1104.97
531.36	1122.99
531.71	1117.61
532.07	1115.50
532.43	1119.95
532.78	1128.37
533.14	1123.69
533.49	1115.73
533.85	1118.54
534.21	1112.46
534.56	1104.03
534.92	1088.12
535.27	1090.69
535.63	1088.35
535.98	1080.86
536.34	1074.77
536.69	1071.73
537.05	1075.94
537.41	1071.97
537.76	1083.67
538.12	1091.16
538.47	1103.09
538.83	1096.78
539.18	1095.37
539.54	1089.99
539.89	1083.90
540.25	1084.60
540.60	1091.63
540.96	1102.86
541.31	1097.48
541.67	1102.63
542.02	1101.22
542.38	1099.82
542.73	1091.16
543.09	1101.69
543.44	1102.63
543.80	1108.01
544.15	1104.97
544.51	1105.44
544.86	1096.31
545.22	1082.03
545.57	1073.14
545.93	1064.94
546.28	1069.62
546.64	1081.09
546.99	1084.60
547.35	1082.50
547.70	1091.63
548.05	1088.58
548.41	1094.67
548.76	1103.09
549.12	1108.48
549.47	1106.61
549.83	1110.58
550.18	1103.80
550.53	1094.43
550.89	1088.35
551.24	1076.65
551.60	1078.52
551.95	1081.09
552.30	1088.82
552.66	1090.46
553.01	1097.71
553.37	1085.07
553.72	1084.14
554.07	1080.39
554.43	1082.03
554.78	1075.71
555.13	1071.97
555.49	1069.39
555.84	1060.26
556.19	1061.43
556.55	1080.63
556.90	1088.35
557.26	1077.35
557.61	1082.73
557.96	1076.88
558.32	1068.22
558.67	1061.67
559.02	1064.94
559.37	1064.48
559.73	1072.67
560.08	1069.39
560.43	1067.99
560.79	1071.03
561.14	1074.77
561.49	1072.43
561.85	1069.16
562.20	1075.71
562.55	1076.65
562.90	1074.77
563.26	1081.56
563.61	1086.48
563.96	1079.69
564.32	1083.90
564.67	1079.92
565.02	1073.37
565.37	1076.41
565.73	1080.63
566.08	1078.05
566.43	1082.73
566.78	1087.65
567.14	1085.54
567.49	1084.60
567.84	1078.52
568.19	1080.86
568.54	1075.01
568.90	1072.20
569.25	1082.73
569.60	1091.86
569.95	1085.77
570.31	1081.33
570.66	1085.31
571.01	1083.90
571.36	1073.60
571.71	1074.31
572.06	1070.33
572.42	1066.82
572.77	1061.43
573.12	1055.35
573.47	1057.22
573.82	1064.94
574.18	1057.69
574.53	1054.65
574.88	1067.75
575.23	1069.39
575.58	1065.88
575.93	1075.48
576.28	1078.28
576.64	1073.37
576.99	1074.54
577.34	1079.69
577.69	1082.73
578.04	1079.46
578.39	1085.31
578.74	1083.67
579.09	1081.56
579.44	1075.71
579.80	1079.69
580.15	1067.75
580.50	1075.01
580.85	1079.22
581.20	1086.01
581.55	1087.88
581.90	1097.01
582.25	1087.18
582.60	1094.20
582.95	1091.86
583.30	1085.54
583.65	1086.71
584.00	1092.09
584.35	1089.29
584.71	1089.75
585.06	1094.20
585.41	1090.92
585.76	1079.69
586.11	1072.20
586.46	1057.22
586.81	1060.26
587.16	1061.43
587.51	1071.03
587.86	1070.80
588.21	1083.67
588.56	1076.18
588.91	1072.90
589.26	1073.84
589.61	1078.52
589.96	1079.22
590.31	1082.03
590.66	1085.77
591.01	1085.77
591.36	1086.48
591.71	1088.82
592.06	1099.12
592.41	1100.52
592.76	1102.63
593.10	1100.05
593.45	1092.56
593.80	1086.94
594.15	1085.77
594.50	1082.26
594.85	1086.94
595.20	1084.14
595.55	1077.35
595.90	1080.16
596.25	1084.14
596.60	1082.03
596.95	1094.20
597.30	1103.09
597.64	1137.50
597.99	1132.59
598.34	1127.67
598.69	1130.95
599.04	1123.46
599.39	1083.67
599.74	1088.82
600.09	1096.07
600.44	1095.14
600.78	1099.58
601.13	1095.60
601.48	1092.33
601.83	1085.31
602.18	1079.92
602.53	1081.33
602.88	1090.46
603.22	1092.56
603.57	1084.60
603.92	1078.28
604.27	1072.43
604.62	1062.37
604.97	1057.22
605.31	1061.43
605.66	1066.35
606.01	1069.16
606.36	1066.82
606.71	1064.48
607.05	1069.62
607.40	1068.92
607.75	1059.79
608.10	1063.77
608.44	1072.43
608.79	1079.92
609.14	1080.39
609.49	1088.12
609.84	1092.80
610.18	1088.82
610.53	1083.67
610.88	1083.67
611.23	1093.03
611.57	1095.60
611.92	1095.37
612.27	1087.41
612.62	1083.20
612.96	1084.84
613.31	1081.56
613.66	1083.90
614.00	1085.54
614.35	1086.24
614.70	1081.80
615.05	1089.29
615.39	1087.41
615.74	1091.86
616.09	1101.69
616.43	1091.86
616.78	1089.75
617.13	1091.63
617.47	1096.78
617.82	1084.60
618.17	1092.80
618.51	1083.20
618.86	1084.60
619.21	1071.97
619.55	1079.92
619.90	1065.41
620.25	1072.20
620.59	1072.90
620.94	1082.50
621.29	1073.14
621.63	1082.03
621.98	1090.69
622.32	1085.07
622.67	1079.46
623.02	1074.77
623.36	1082.50
623.71	1077.82
624.05	1079.46
624.40	1090.22
624.75	1098.88
625.09	1093.73
625.44	1080.39
625.78	1085.77
626.13	1073.60
626.48	1078.99
626.82	1079.46
627.17	1086.94
627.51	1086.48
627.86	1090.92
628.20	1086.71
628.55	1088.58
628.89	1083.90
629.24	1070.09
629.58	1074.31
629.93	1071.26
630.28	1066.35
630.62	1073.37
630.97	1093.03
631.31	1088.58
631.66	1087.88
632.00	1091.39
632.35	1084.14
632.69	1074.77
633.04	1071.97
633.38	1084.60
633.73	1082.26
634.07	1081.09
634.42	1087.65
634.76	1083.67
635.11	1070.56
635.45	1072.90
635.79	1081.09
636.14	1079.69
636.48	1084.84
636.83	1088.82
637.17	1086.01
637.52	1078.75
637.86	1078.28
638.21	1081.09
638.55	1084.37
638.89	1086.24
639.24	1079.92
639.58	1071.26
639.93	1067.52
640.27	1060.26
640.61	1062.84
640.96	1065.65
641.30	1073.14
641.65	1073.37
641.99	1070.80
642.33	1076.18
642.68	1078.05
643.02	1073.37
643.37	1074.31
643.71	1071.97
644.05	1062.84
644.40	1067.05
644.74	1065.65
645.08	1067.99
645.43	1080.16
645.77	1069.86
646.11	1066.35
646.46	1083.90
646.80	1087.18
647.14	1082.73
647.49	1092.09
647.83	1098.41
648.17	1086.94
648.52	1085.31
648.86	1083.90
649.20	1091.39
649.55	1093.97
649.89	1092.33
650.23	1083.90
650.57	1084.14
650.92	1085.54
651.26	1075.24
651.60	1068.22
651.95	1068.45
652.29	1073.14
652.63	1072.20
652.97	1092.56
653.32	1092.09
653.66	1096.31
654.00	1107.07
654.34	1108.48
654.69	1098.41
655.03	1099.82
655.37	1103.80
655.71	1098.41
656.05	1092.80
656.40	1090.92
656.74	1092.56
657.08	1090.69
657.42	1086.24
657.76	1075.71
658.11	1078.75
658.45	1074.77
658.79	1074.54
659.13	1066.11
659.47	1076.41
659.82	1065.88
660.16	1074.31
660.50	1066.35
660.84	1068.22
661.18	1065.41
661.52	1067.28
661.87	1056.28
662.21	1060.26
662.55	1063.07
662.89	1059.33
663.23	1059.79
663.57	1065.18
663.91	1073.14
664.25	1081.09
664.60	1082.50
664.94	1084.84
665.28	1087.65
665.62	1077.11
665.96	1069.16
666.30	1074.07
666.64	1077.82
666.98	1080.39
667.32	1085.07
667.66	1084.84
668.01	1077.58
668.35	1081.09
668.69	1086.01
669.03	1082.26
669.37	1083.90
669.71	1079.92
670.05	1071.50
670.39	1066.35
670.73	1074.07
671.07	1071.97
671.41	1076.18
671.75	1084.37
672.09	1084.60
672.43	1078.28
672.77	1074.54
673.11	1081.80
673.45	1080.86
673.79	1069.86
674.13	1073.84
674.47	1075.71
674.81	1079.22
675.15	1071.97
675.49	1092.56
675.83	1095.60
676.17	1095.37
676.51	1087.65
676.85	1081.56
677.19	1068.69
677.53	1068.69
677.87	1068.22
678.21	1074.77
678.55	1073.84
678.89	1077.58
679.23	1074.07
679.57	1079.69
679.90	1077.58
680.24	1083.43
680.58	1087.41
680.92	1086.94
681.26	1078.28
681.60	1073.60
681.94	1071.73
682.28	1061.90
682.62	1061.43
682.96	1075.71
683.29	1075.48
683.63	1078.28
683.97	1082.50
684.31	1070.09
684.65	1056.52
684.99	1053.71
685.33	1050.20
685.67	1044.35
686.00	1047.62
686.34	1048.79
686.68	1057.45
687.02	1065.65
687.36	1069.62
687.70	1084.37
688.03	1098.88
688.37	1092.80
688.71	1096.54
689.05	1101.22
689.39	1099.58
689.72	1092.09
690.06	1103.56
690.40	1097.95
690.74	1096.78
691.08	1085.54
691.41	1086.24
691.75	1079.92
692.09	1075.48
692.43	1069.86
692.76	1084.60
693.10	1081.56
693.44	1082.50
693.78	1092.33
694.11	1101.22
694.45	1096.31
694.79	1094.43
695.13	1091.39
695.46	1089.05
695.80	1078.28
696.14	1073.60
696.48	1077.11
696.81	1076.41
697.15	1067.75
697.49	1066.82
697.82	1067.28
698.16	1064.24
698.50	1059.09
698.83	1064.71
699.17	1071.50
699.51	1069.39
699.84	1077.58
700.18	1081.33
700.52	1083.90
700.85	1078.75
701.19	1091.63
701.53	1088.35
701.86	1082.97
702.20	1083.20
702.54	1085.31
702.87	1074.31
703.21	1061.43
703.55	1065.41
703.88	1059.56
704.22	1062.14
704.55	1069.16
704.89	1077.58
705.23	1080.86
705.56	1088.58
705.90	1089.29
706.23	1093.26
706.57	1091.86
706.91	1091.16
707.24	1082.03
707.58	1077.11
707.91	1065.18
708.25	1065.18
708.58	1068.69
708.92	1072.67
709.26	1078.52
709.59	1076.41
709.93	1081.33
710.26	1077.58
710.60	1070.56
710.93	1067.05
711.27	1073.14
711.60	1068.22
711.94	1073.60
712.27	1077.58
712.61	1078.75
712.94	1082.97
713.28	1081.33
713.61	1083.20
713.95	1085.31
714.28	1084.60
714.62	1075.94
714.95	1086.01
715.29	1081.09
715.62	1086.24
715.96	1092.33
716.29	1090.92
716.63	1086.94
716.96	1078.75
717.29	1068.45
717.63	1065.18
717.96	1069.62
718.30	1072.90
718.63	1076.18
718.97	1083.67
719.30	1083.20
719.63	1080.39
719.97	1077.11
720.30	1081.09
720.64	1075.94
720.97	1071.03
721.30	1077.58
721.64	1078.75
721.97	1078.99
722.31	1092.33
722.64	1093.73
722.97	1091.16
723.31	1088.12
723.64	1087.18
723.97	1079.46
724.31	1090.92
724.64	1082.03
724.98	1075.94
725.31	1073.14
725.64	1066.11
725.98	1054.41
726.31	1073.37
726.64	1080.39
726.97	1084.84
727.31	1082.26
727.64	1087.65
727.97	1088.82
728.31	1085.31
728.64	1083.20
728.97	1093.50
729.31	1092.80
729.64	1078.28
729.97	1080.16
730.30	1083.43
730.64	1076.18
730.97	1071.26
731.30	1076.88
731.63	1082.26
731.97	1078.75
732.30	1084.37
732.63	1084.14
732.96	1085.31
733.30	1076.41
733.63	1084.37
733.96	1083.67
734.29	1088.82
734.63	1087.65
734.96	1094.20
735.29	1084.60
735.62	1080.16
735.95	1089.52
736.29	1071.97
736.62	1061.43
736.95	1056.99
737.28	1060.03
737.61	1044.35
737.94	1065.65
738.28	1082.73
738.61	1092.80
738.94	1097.24
739.27	1103.33
739.60	1092.33
739.93	1079.46
740.27	1071.73
740.60	1066.11
740.93	1059.09
741.26	1066.58
741.59	1066.35
741.92	1077.82
742.25	1078.99
742.58	1078.52
742.91	1077.82
743.25	1082.73
743.58	1074.07
743.91	1070.33
744.24	1080.16
744.57	1074.07
744.90	1068.92
745.23	1066.11
745.56	1079.22
745.89	1061.90
746.22	1061.90
746.55	1064.71
746.88	1071.97
747.21	1056.75
747.54	1068.45
747.87	1077.11
748.20	1070.56
748.53	1073.84
748.87	1078.99
749.20	1073.37
749.53	1062.37
749.86	1068.22
750.19	1061.67
750.52	1067.99
750.85	1074.07
751.18	1078.28
751.51	1083.67
751.84	1079.92
752.16	1083.43
752.49	1078.52
752.82	1081.56
753.15	1076.18
753.48	1078.75
753.81	1074.07
754.14	1081.33
754.47	1082.26
754.80	1088.58
755.13	1086.94
755.46	1092.33
755.79	1090.69
756.12	1092.80
756.45	1092.33
756.78	1095.14
757.11	1084.84
757.43	1087.18
757.76	1079.69
758.09	1083.67
758.42	1091.86
758.75	1097.95
759.08	1093.50
759.41	1086.94
759.74	1074.31
760.07	1069.62
760.39	1061.67
760.72	1065.65
761.05	1078.75
761.38	1082.73
761.71	1077.58
762.04	1082.26
762.36	1071.97
762.69	1059.09
763.02	1060.26
763.35	1069.86
763.68	1068.22
764.01	1082.50
764.33	1092.33
764.66	1089.52
764.99	1079.69
765.32	1081.80
765.65	1079.92
765.97	1078.28
766.30	1091.39
